timestamp,TP9,AF7,AF8,TP10,AUX,Marker
159.00390625,-22.94921875,-61.03515625,-31.73828125,61.5234375,82.03125,0.0
159.0078125,7.8125,-53.22265625,-32.71484375,76.66015625,51.26953125,0.0
159.01171875,-9.765625,-50.78125,-32.71484375,62.01171875,48.828125,0.0
159.015625,-48.33984375,-55.17578125,-47.8515625,46.875,24.4140625,0.0
159.01953125,-58.10546875,-51.7578125,-54.6875,54.6875,26.85546875,0.0
159.0234375,-35.15625,-46.38671875,-38.57421875,52.24609375,110.3515625,0.0
159.02734375,-14.16015625,-41.015625,-39.55078125,68.359375,98.6328125,0.0
159.03125,-37.109375,-48.828125,-39.0625,62.01171875,65.91796875,0.0
159.03515625,-64.94140625,-45.41015625,-43.45703125,40.0390625,68.84765625,0.0
159.0390625,-93.75,-41.015625,-40.52734375,30.2734375,9.765625,0.0
159.04296875,-62.98828125,-50.78125,-33.203125,14.6484375,-14.16015625,0.0
159.046875,-14.16015625,-44.43359375,-30.76171875,31.25,23.4375,0.0
159.05078125,-15.13671875,-49.8046875,-29.78515625,64.453125,59.5703125,0.0
159.0546875,-48.828125,-47.8515625,-41.9921875,55.17578125,64.453125,0.0
159.05859375,-122.55859375,-36.62109375,-38.57421875,-15.625,-53.22265625,0.0
159.0625,-139.16015625,-27.34375,-37.109375,-47.36328125,-95.21484375,0.0
159.06640625,-98.14453125,-23.4375,-34.1796875,-9.765625,7.32421875,0.0
159.0703125,-101.07421875,-25.87890625,-26.85546875,-26.85546875,56.15234375,0.0
159.07421875,-154.78515625,-32.71484375,-46.875,-60.05859375,-41.9921875,0.0
159.078125,-186.5234375,-33.203125,-48.828125,-72.265625,-216.30859375,0.0
159.08203125,-177.734375,-6.8359375,-25.87890625,-79.1015625,-258.30078125,0.0
159.0859375,-123.046875,-6.8359375,-8.30078125,-43.9453125,-145.01953125,0.0
159.08984375,-102.05078125,-19.53125,-24.90234375,-50.29296875,68.84765625,0.0
159.09375,-152.34375,-24.4140625,-45.8984375,-65.91796875,119.140625,0.0
159.09765625,-191.40625,-29.296875,-41.9921875,-64.453125,-39.55078125,0.0
159.1015625,-168.9453125,-21.484375,-41.015625,-53.7109375,-76.171875,0.0
159.10546875,-137.20703125,-9.27734375,-34.66796875,-42.96875,-40.0390625,0.0
159.109375,-132.32421875,-8.30078125,-32.2265625,-56.15234375,-31.73828125,0.0
159.11328125,-143.06640625,-29.296875,-39.55078125,-55.17578125,0.0,0.0
159.1171875,-169.43359375,-40.0390625,-38.57421875,-51.7578125,-0.48828125,0.0
159.12109375,-168.45703125,-72.75390625,-36.62109375,-31.73828125,-36.1328125,0.0
159.125,-104.00390625,-106.4453125,-24.4140625,-16.11328125,-41.9921875,0.0
159.12890625,-62.01171875,-62.98828125,-13.671875,0.9765625,41.50390625,0.0
159.1328125,-106.4453125,-36.62109375,-25.87890625,14.6484375,115.72265625,0.0
159.13671875,-164.55078125,-27.83203125,-38.57421875,-20.5078125,59.08203125,0.0
159.140625,-169.921875,-10.25390625,-42.96875,-36.62109375,-61.5234375,0.0
159.14453125,-114.74609375,-9.27734375,-38.0859375,-23.92578125,-64.94140625,0.0
159.1484375,-89.35546875,-14.6484375,-27.34375,-19.04296875,-14.16015625,0.0
159.15234375,-104.98046875,-25.87890625,-34.66796875,-22.94921875,-69.3359375,0.0
159.15625,-126.46484375,-33.203125,-42.96875,-27.83203125,-92.28515625,0.0
159.16015625,-129.8828125,-37.59765625,-32.2265625,-13.18359375,-19.04296875,0.0
159.1640625,-106.4453125,-32.71484375,-20.5078125,-19.04296875,-14.6484375,0.0
159.16796875,-78.61328125,-31.73828125,-27.34375,0.0,35.15625,0.0
159.171875,-64.453125,-38.0859375,-26.85546875,33.203125,117.1875,0.0
159.17578125,-97.16796875,-36.62109375,-20.5078125,-0.9765625,23.92578125,0.0
159.1796875,-109.375,-40.52734375,-31.73828125,-4.8828125,-61.03515625,0.0
159.18359375,-68.359375,-40.0390625,-34.66796875,20.5078125,-90.8203125,0.0
159.1875,-45.8984375,-37.109375,-26.85546875,14.16015625,-53.22265625,0.0
159.19140625,-62.5,-32.2265625,-36.1328125,0.0,39.0625,0.0
159.1953125,-95.21484375,-38.0859375,-47.36328125,-5.37109375,33.69140625,0.0
159.19921875,-100.09765625,-41.50390625,-48.33984375,-5.859375,-89.35546875,0.0
159.203125,-77.1484375,-40.0390625,-33.69140625,-2.9296875,-91.30859375,0.0
159.20703125,-41.015625,-34.66796875,-26.3671875,3.90625,-30.2734375,0.0
159.2109375,-46.38671875,-33.69140625,-26.3671875,13.18359375,-50.78125,0.0
159.21484375,-83.0078125,-34.66796875,-35.15625,15.625,-135.25390625,0.0
159.21875,-93.26171875,-27.34375,-24.4140625,20.99609375,-196.2890625,0.0
159.22265625,-77.1484375,-37.59765625,-15.625,16.11328125,-155.76171875,0.0
159.2265625,-37.59765625,-37.59765625,-26.3671875,9.27734375,-63.4765625,0.0
159.23046875,-46.875,-35.64453125,-26.3671875,15.625,-2.9296875,0.0
159.234375,-90.33203125,-44.43359375,-36.1328125,11.71875,3.41796875,0.0
159.23828125,-104.00390625,-41.9921875,-48.33984375,-13.671875,-44.921875,0.0
159.2421875,-88.37890625,-36.62109375,-37.109375,-2.44140625,-61.5234375,0.0
159.24609375,-57.12890625,-30.2734375,-20.99609375,15.13671875,55.17578125,0.0
159.25,-62.01171875,-31.73828125,-23.4375,9.27734375,151.3671875,0.0
159.25390625,-116.69921875,-36.62109375,-33.203125,-4.39453125,73.73046875,0.0
159.2578125,-144.04296875,-41.015625,-31.73828125,-6.8359375,-92.28515625,0.0
159.26171875,-121.58203125,-36.62109375,-28.3203125,7.8125,-104.00390625,0.0
159.265625,-92.28515625,-31.25,-26.85546875,0.0,49.8046875,0.0
159.26953125,-95.703125,-34.66796875,-22.4609375,9.765625,174.31640625,0.0
159.2734375,-131.8359375,-33.203125,-30.76171875,-9.27734375,116.69921875,0.0
159.27734375,-149.4140625,-32.71484375,-50.29296875,-31.25,-19.53125,0.0
159.28125,-133.30078125,-32.2265625,-33.203125,-21.484375,-53.22265625,0.0
159.28515625,-103.515625,-30.76171875,-20.01953125,-27.34375,-7.8125,0.0
159.2890625,-79.1015625,-28.3203125,-32.2265625,-37.59765625,40.0390625,0.0
159.29296875,-94.7265625,-28.80859375,-42.96875,-23.92578125,3.41796875,0.0
159.296875,-117.67578125,-33.69140625,-48.33984375,-4.39453125,-60.546875,0.0
159.30078125,-125.0,-29.296875,-35.15625,-10.25390625,-124.0234375,0.0
159.3046875,-116.2109375,-15.625,-27.83203125,-19.53125,-75.68359375,0.0
159.30859375,-77.63671875,-10.25390625,-28.3203125,-4.39453125,65.4296875,0.0
159.3125,-77.1484375,-19.53125,-47.8515625,-9.765625,54.6875,0.0
159.31640625,-115.72265625,-25.390625,-61.5234375,-19.53125,-23.92578125,0.0
159.3203125,-118.1640625,-25.87890625,-63.4765625,-27.83203125,-17.578125,0.0
159.32421875,-74.21875,-19.53125,-56.640625,-11.23046875,-8.30078125,0.0
159.328125,-23.92578125,-5.37109375,-55.6640625,16.11328125,47.36328125,0.0
159.33203125,-41.9921875,-16.11328125,-57.12890625,2.44140625,50.78125,0.0
159.3359375,-93.75,-27.34375,-47.8515625,-1.46484375,-35.64453125,0.0
159.33984375,-105.46875,-24.90234375,-44.43359375,0.48828125,-95.703125,0.0
159.34375,-75.1953125,-24.4140625,-31.73828125,-12.6953125,-69.82421875,0.0
159.34765625,-41.015625,-19.53125,-26.3671875,-12.20703125,-15.625,0.0
159.3515625,-61.5234375,-18.5546875,-33.203125,1.953125,-6.8359375,0.0
159.35546875,-80.56640625,-36.62109375,-27.83203125,20.01953125,-71.2890625,0.0
159.359375,-84.9609375,-43.9453125,-29.296875,13.18359375,-74.70703125,0.0
159.36328125,-78.125,-29.78515625,-29.78515625,1.953125,-22.94921875,0.0
159.3671875,-46.38671875,-18.5546875,-28.3203125,6.34765625,-64.94140625,0.0
159.37109375,-48.33984375,-32.2265625,-32.71484375,-1.46484375,-15.13671875,0.0
159.375,-76.171875,-40.52734375,-37.109375,-7.8125,40.0390625,0.0
159.37890625,-90.8203125,-20.99609375,-51.7578125,-23.4375,-96.6796875,0.0
159.3828125,-73.73046875,-18.5546875,-41.9921875,-16.11328125,-118.1640625,0.0
159.38671875,-41.015625,-29.296875,-30.2734375,2.44140625,33.203125,0.0
159.390625,-37.109375,-31.73828125,-34.66796875,0.9765625,57.6171875,0.0
159.39453125,-68.84765625,-27.34375,-43.45703125,1.46484375,98.6328125,0.0
159.3984375,-92.28515625,-31.25,-42.96875,-1.953125,98.6328125,0.0
159.40234375,-73.73046875,-38.0859375,-36.1328125,-1.46484375,13.18359375,0.0
159.40625,-43.45703125,-26.85546875,-31.25,3.41796875,76.171875,0.0
159.41015625,-38.57421875,-14.6484375,-21.97265625,18.5546875,47.8515625,0.0
159.4140625,-52.734375,-7.8125,-13.18359375,28.3203125,-78.125,0.0
159.41796875,-81.0546875,-22.94921875,-28.3203125,11.23046875,-89.84375,0.0
159.421875,-75.68359375,-32.71484375,-29.78515625,3.90625,-44.921875,0.0
159.42578125,-30.2734375,-34.1796875,-17.08984375,19.04296875,41.50390625,0.0
159.4296875,-2.44140625,-39.0625,-22.4609375,23.4375,70.3125,0.0
159.43359375,-36.1328125,-37.59765625,-37.59765625,6.34765625,24.4140625,0.0
159.4375,-71.77734375,-39.55078125,-46.38671875,-9.27734375,-3.90625,0.0
159.44140625,-41.015625,-16.6015625,-28.3203125,7.32421875,44.43359375,0.0
159.4453125,-3.90625,-16.11328125,-17.08984375,17.578125,53.7109375,0.0
159.44921875,0.0,-32.71484375,-22.4609375,11.23046875,1.953125,0.0
159.453125,-23.4375,-41.9921875,-34.66796875,-0.9765625,-42.96875,0.0
159.45703125,-29.296875,-43.45703125,-31.25,0.0,-54.6875,0.0
159.4609375,-44.43359375,-24.90234375,-24.4140625,6.8359375,-17.578125,0.0
159.46484375,-41.015625,-28.80859375,-26.85546875,7.32421875,-66.40625,0.0
159.46875,-11.71875,-32.71484375,-23.92578125,16.6015625,-71.77734375,0.0
159.47265625,-20.5078125,-23.4375,-25.87890625,18.06640625,-43.9453125,0.0
159.4765625,-46.875,-30.2734375,-29.78515625,8.7890625,-202.1484375,0.0
159.48046875,-51.26953125,-36.62109375,-26.85546875,1.953125,-292.96875,0.0
159.484375,-19.53125,-30.76171875,-20.5078125,14.16015625,-156.73828125,0.0
159.48828125,8.30078125,-29.296875,-21.484375,8.30078125,-48.828125,0.0
159.4921875,-15.625,-34.66796875,-25.390625,-10.7421875,-108.3984375,0.0
159.49609375,-60.05859375,-43.9453125,-37.109375,-17.08984375,-160.64453125,0.0
159.5,-41.9921875,-33.69140625,-34.1796875,-0.9765625,-152.34375,0.0
159.50390625,-10.7421875,-23.92578125,-10.25390625,5.859375,-115.234375,0.0
159.5078125,-0.48828125,-25.87890625,-16.11328125,-8.7890625,-68.359375,0.0
159.51171875,-21.484375,-30.2734375,-25.87890625,-31.73828125,-133.7890625,0.0
159.515625,-57.12890625,-33.69140625,-31.73828125,-46.875,-225.09765625,0.0
159.51953125,-68.84765625,-27.34375,-39.0625,-42.96875,-141.6015625,0.0
159.5234375,-37.109375,-22.94921875,-27.34375,-34.66796875,28.80859375,0.0
159.52734375,-10.7421875,-32.71484375,-22.94921875,-24.4140625,106.93359375,0.0
159.53125,-18.06640625,-24.90234375,-19.53125,-8.30078125,66.89453125,0.0
159.53515625,-39.0625,-15.625,-16.6015625,-12.20703125,101.5625,0.0
159.5390625,-65.4296875,-38.0859375,-34.66796875,-32.2265625,60.546875,0.0
159.54296875,-38.0859375,-41.015625,-36.1328125,-22.4609375,48.828125,0.0
159.546875,2.9296875,-40.0390625,-18.06640625,-15.625,99.12109375,0.0
159.55078125,-0.9765625,-37.109375,-12.6953125,-19.04296875,33.69140625,0.0
159.5546875,-44.921875,-24.90234375,-42.96875,-34.1796875,32.71484375,0.0
159.55859375,-65.4296875,-34.1796875,-40.0390625,-34.1796875,-30.76171875,0.0
159.5625,-43.45703125,-39.55078125,-26.3671875,-25.87890625,-61.03515625,0.0
159.56640625,-16.6015625,-35.64453125,-27.34375,-19.53125,59.08203125,0.0
159.5703125,-11.71875,-53.7109375,-37.109375,-22.94921875,115.72265625,0.0
159.57421875,-31.73828125,-54.6875,-42.96875,-22.94921875,35.64453125,0.0
159.578125,-54.19921875,-33.69140625,-37.109375,-24.4140625,-43.45703125,0.0
159.58203125,-47.36328125,-27.34375,-34.66796875,-34.66796875,30.76171875,0.0
159.5859375,-20.99609375,-27.34375,-31.25,-24.4140625,120.1171875,0.0
159.58984375,-16.6015625,-25.87890625,-28.3203125,-14.16015625,140.625,0.0
159.59375,-22.94921875,-19.04296875,-26.3671875,-14.6484375,29.296875,0.0
159.59765625,-42.48046875,-33.203125,-32.2265625,-24.90234375,-45.8984375,0.0
159.6015625,-45.41015625,-38.57421875,-35.15625,-33.203125,-23.4375,0.0
159.60546875,-13.18359375,-31.73828125,-27.83203125,-20.5078125,0.9765625,0.0
159.609375,-4.39453125,-34.1796875,-29.78515625,-20.01953125,35.15625,0.0
159.61328125,-20.5078125,-35.15625,-39.0625,-29.296875,40.52734375,0.0
159.6171875,-35.15625,-30.76171875,-38.0859375,-34.1796875,42.48046875,0.0
159.62109375,-31.25,-36.1328125,-31.25,-27.83203125,7.32421875,0.0
159.625,-1.46484375,-40.52734375,-21.484375,-10.7421875,9.765625,0.0
159.62890625,9.765625,-34.1796875,-18.5546875,-12.20703125,-28.80859375,0.0
159.6328125,-13.18359375,-26.85546875,-36.62109375,-37.59765625,-163.57421875,0.0
159.63671875,-28.80859375,-21.97265625,-32.2265625,-41.50390625,-247.55859375,0.0
159.640625,-10.25390625,-7.8125,-7.8125,-10.25390625,-231.93359375,0.0
159.64453125,13.671875,-14.6484375,-17.08984375,-11.71875,-166.9921875,0.0
159.6484375,19.53125,-23.92578125,-29.78515625,-24.90234375,-90.8203125,0.0
159.65234375,10.25390625,-31.73828125,-32.2265625,-28.3203125,-113.76953125,0.0
159.65625,-16.6015625,-42.48046875,-42.48046875,-51.26953125,-182.6171875,0.0
159.66015625,-22.94921875,-39.0625,-37.109375,-42.96875,-166.9921875,0.0
159.6640625,3.41796875,-37.59765625,-22.94921875,-21.484375,-83.0078125,0.0
159.66796875,24.90234375,-23.92578125,-22.4609375,-28.3203125,-46.38671875,0.0
159.671875,11.71875,-13.18359375,-25.87890625,-31.73828125,-107.421875,0.0
159.67578125,-17.08984375,-22.4609375,-35.15625,-40.52734375,-122.55859375,0.0
159.6796875,-22.94921875,-34.1796875,-31.25,-42.96875,-132.32421875,0.0
159.68359375,3.90625,-20.5078125,-12.20703125,-23.92578125,-102.5390625,0.0
159.6875,25.87890625,-22.94921875,-19.53125,-23.4375,-14.16015625,0.0
159.69140625,6.8359375,-34.1796875,-31.25,-26.3671875,-7.32421875,0.0
159.6953125,-28.80859375,-33.69140625,-34.1796875,-35.64453125,-95.21484375,0.0
159.69921875,-37.109375,-38.0859375,-37.59765625,-36.62109375,-98.14453125,0.0
159.703125,-19.53125,-37.109375,-32.71484375,-30.76171875,-75.1953125,0.0
159.70703125,0.0,-35.15625,-30.2734375,-32.71484375,-43.9453125,0.0
159.7109375,-5.37109375,-32.71484375,-28.80859375,-26.85546875,93.26171875,0.0
159.71484375,-31.73828125,-36.1328125,-33.203125,-31.73828125,154.296875,0.0
159.71875,-43.45703125,-40.52734375,-42.96875,-49.31640625,109.86328125,0.0
159.72265625,-28.80859375,-39.0625,-39.55078125,-44.921875,46.38671875,0.0
159.7265625,1.46484375,-29.78515625,-25.390625,-36.1328125,69.82421875,0.0
159.73046875,16.11328125,-14.16015625,-19.53125,-39.0625,125.48828125,0.0
159.734375,-19.04296875,-25.390625,-40.0390625,-40.0390625,108.3984375,0.0
159.73828125,-43.45703125,-40.0390625,-40.0390625,-47.8515625,-18.5546875,0.0
159.7421875,-16.6015625,-32.2265625,-33.203125,-45.8984375,-102.05078125,0.0
159.74609375,13.671875,-20.99609375,-37.109375,-41.015625,6.8359375,0.0
159.75,17.578125,-18.5546875,-43.9453125,-38.0859375,38.57421875,0.0
159.75390625,-14.6484375,-20.99609375,-47.8515625,-39.55078125,36.62109375,0.0
159.7578125,-42.48046875,-34.66796875,-38.0859375,-49.8046875,102.5390625,0.0
159.76171875,-18.5546875,-36.62109375,-26.85546875,-29.78515625,55.17578125,0.0
159.765625,17.08984375,-30.2734375,-27.83203125,-17.578125,23.4375,0.0
159.76953125,28.80859375,-34.66796875,-33.203125,-17.578125,83.0078125,0.0
159.7734375,12.20703125,-38.57421875,-29.296875,-1.953125,110.3515625,0.0
159.77734375,-4.8828125,-42.96875,-29.296875,6.8359375,67.87109375,0.0
159.78125,3.90625,-50.29296875,-36.62109375,2.9296875,21.97265625,0.0
159.78515625,38.0859375,-47.8515625,-26.3671875,11.23046875,92.28515625,0.0
159.7890625,46.875,-38.57421875,-13.671875,26.85546875,63.4765625,0.0
159.79296875,13.18359375,-47.8515625,-20.01953125,23.4375,21.484375,0.0
159.796875,-2.9296875,-56.640625,-23.4375,12.6953125,-67.87109375,0.0
159.80078125,15.13671875,-46.38671875,-17.578125,7.8125,-145.01953125,0.0
159.8046875,39.55078125,-48.33984375,-13.18359375,-5.37109375,-75.68359375,0.0
159.80859375,53.22265625,-59.08203125,-5.37109375,-6.34765625,20.5078125,0.0
159.8125,35.64453125,-52.734375,-9.27734375,-1.953125,-46.875,0.0
159.81640625,4.8828125,-53.22265625,-10.7421875,-7.8125,-114.2578125,0.0
159.8203125,12.20703125,-52.24609375,-6.8359375,-1.46484375,-45.41015625,0.0
159.82421875,35.64453125,-47.36328125,-10.25390625,3.41796875,-23.4375,0.0
159.828125,41.9921875,-41.9921875,-13.671875,-5.37109375,51.26953125,0.0
159.83203125,27.34375,-34.1796875,-9.765625,-16.6015625,42.48046875,0.0
159.8359375,13.18359375,-38.0859375,-12.6953125,-17.578125,-116.69921875,0.0
159.83984375,5.859375,-45.8984375,-26.85546875,-32.71484375,-114.74609375,0.0
159.84375,20.5078125,-41.50390625,-21.97265625,-27.34375,-35.15625,0.0
159.84765625,26.85546875,-42.48046875,-20.5078125,-20.01953125,7.8125,0.0
159.8515625,12.20703125,-43.9453125,-25.390625,-35.64453125,48.33984375,0.0
159.85546875,-1.953125,-49.31640625,-27.83203125,-22.4609375,-63.4765625,0.0
159.859375,-5.37109375,-47.8515625,-31.25,-6.8359375,-128.90625,0.0
159.86328125,22.4609375,-32.71484375,-20.99609375,-2.44140625,-76.66015625,0.0
159.8671875,43.45703125,-37.59765625,-10.7421875,4.8828125,-67.3828125,0.0
159.87109375,21.97265625,-39.0625,-14.6484375,17.578125,-5.859375,0.0
159.875,-11.23046875,-37.109375,-20.01953125,19.53125,27.83203125,0.0
159.87890625,7.32421875,-34.1796875,-24.90234375,19.04296875,-38.57421875,0.0
159.8828125,31.73828125,-32.71484375,-27.34375,17.08984375,-45.8984375,0.0
159.88671875,18.06640625,-37.59765625,-14.6484375,-12.20703125,-14.16015625,0.0
159.890625,20.01953125,-36.62109375,-9.27734375,-32.2265625,4.8828125,0.0
159.89453125,6.8359375,-40.0390625,-13.18359375,-32.71484375,33.69140625,0.0
159.8984375,-18.06640625,-44.921875,-15.13671875,-44.921875,47.8515625,0.0
159.90234375,-23.92578125,-49.31640625,-10.25390625,-59.08203125,5.859375,0.0
159.90625,-9.765625,-53.7109375,-5.859375,-45.8984375,32.71484375,0.0
159.91015625,9.27734375,-47.36328125,-2.44140625,-28.3203125,34.66796875,0.0
159.9140625,-22.94921875,-59.08203125,-0.9765625,-30.76171875,-3.90625,0.0
159.91796875,-53.22265625,-75.1953125,-2.44140625,-18.5546875,25.390625,0.0
159.921875,-46.875,-65.91796875,-0.9765625,-13.18359375,-0.48828125,0.0
159.92578125,-20.5078125,-54.19921875,7.32421875,-4.39453125,-57.6171875,0.0
159.9296875,-11.23046875,-55.6640625,9.27734375,-11.23046875,0.0,0.0
159.93359375,-54.19921875,-64.453125,5.859375,-35.64453125,93.26171875,0.0
159.9375,-56.640625,-62.01171875,2.44140625,-14.16015625,22.4609375,0.0
159.94140625,-23.92578125,-58.59375,4.39453125,-1.46484375,-78.61328125,0.0
159.9453125,-13.18359375,-64.453125,7.8125,-22.4609375,-59.5703125,0.0
159.94921875,-1.46484375,-59.5703125,0.48828125,-19.04296875,-107.421875,0.0
159.953125,-23.4375,-48.33984375,-10.7421875,-26.85546875,-214.84375,0.0
159.95703125,-48.33984375,-47.8515625,-14.16015625,-42.48046875,-195.3125,0.0
159.9609375,-26.3671875,-52.734375,-4.8828125,-28.80859375,-144.04296875,0.0
159.96484375,7.8125,-43.9453125,-2.44140625,-11.23046875,-153.80859375,0.0
159.96875,38.57421875,-12.20703125,14.6484375,8.7890625,-112.79296875,0.0
159.97265625,18.5546875,-20.5078125,4.39453125,-8.7890625,26.85546875,0.0
159.9765625,-32.71484375,-51.26953125,-22.4609375,-20.01953125,21.97265625,0.0
159.98046875,-32.71484375,-50.29296875,-20.99609375,-11.23046875,-17.08984375,0.0
159.984375,-10.7421875,-51.26953125,-18.5546875,-21.484375,41.50390625,0.0
159.98828125,-1.953125,-46.875,-22.94921875,-20.99609375,-9.27734375,0.0
159.9921875,-15.13671875,-42.48046875,-19.04296875,-11.71875,-70.3125,0.0
159.99609375,-30.76171875,-43.9453125,-12.20703125,-4.39453125,-148.92578125,0.0
160.0,-24.90234375,-44.43359375,-17.578125,-0.9765625,-182.6171875,0.0
160.00390625,2.9296875,-36.62109375,-17.08984375,-5.859375,-98.6328125,0.0
160.0078125,19.04296875,-33.69140625,-22.94921875,-29.296875,13.18359375,0.0
160.01171875,26.85546875,-15.13671875,-13.18359375,-10.7421875,33.69140625,0.0
160.015625,20.01953125,6.34765625,8.7890625,17.578125,-151.3671875,0.0
160.01953125,-16.6015625,-23.92578125,-12.6953125,-13.671875,-193.84765625,0.0
160.0234375,-14.6484375,-41.9921875,-31.73828125,-23.4375,-73.2421875,0.0
160.02734375,14.16015625,-33.203125,-24.4140625,-10.7421875,-71.2890625,0.0
160.03125,3.90625,-34.1796875,-21.97265625,-18.5546875,-107.91015625,0.0
160.03515625,-21.484375,-36.62109375,-30.2734375,-35.15625,-74.70703125,0.0
160.0390625,-33.69140625,-36.1328125,-22.94921875,-28.3203125,-13.18359375,0.0
160.04296875,-13.671875,-34.66796875,-13.671875,2.44140625,-11.23046875,0.0
160.046875,13.671875,-36.1328125,-17.08984375,-1.953125,66.40625,0.0
160.05078125,4.8828125,-39.55078125,-27.34375,-20.99609375,85.9375,0.0
160.0546875,-25.390625,-33.203125,-33.69140625,-32.2265625,41.015625,0.0
160.05859375,-34.66796875,-28.80859375,-34.1796875,-24.90234375,3.41796875,0.0
160.0625,-14.16015625,-34.66796875,-28.80859375,-12.20703125,-30.2734375,0.0
160.06640625,6.8359375,-31.73828125,-27.83203125,-8.30078125,69.3359375,0.0
160.0703125,4.39453125,-27.34375,-34.1796875,-15.13671875,101.07421875,0.0
160.07421875,-20.5078125,-29.78515625,-37.59765625,-17.578125,139.16015625,0.0
160.078125,-40.0390625,-38.0859375,-41.9921875,-20.99609375,214.35546875,0.0
160.08203125,-30.76171875,-37.59765625,-35.15625,-28.3203125,187.5,0.0
160.0859375,-17.08984375,-32.2265625,-32.71484375,-29.78515625,151.85546875,0.0
160.08984375,-14.16015625,-32.71484375,-41.50390625,-20.99609375,133.30078125,0.0
160.09375,-31.25,-31.73828125,-41.9921875,-15.13671875,34.66796875,0.0
160.09765625,-47.36328125,-35.15625,-43.45703125,-21.484375,0.48828125,0.0
160.1015625,-41.015625,-40.52734375,-44.921875,-29.78515625,74.70703125,0.0
160.10546875,-15.13671875,-38.0859375,-34.66796875,-28.80859375,56.15234375,0.0
160.109375,-8.7890625,-39.55078125,-31.73828125,-27.83203125,66.89453125,0.0
160.11328125,-30.76171875,-40.52734375,-36.62109375,-15.13671875,104.4921875,0.0
160.1171875,-42.48046875,-35.15625,-39.0625,-8.7890625,31.73828125,0.0
160.12109375,-33.203125,-34.66796875,-41.015625,-24.90234375,-49.31640625,0.0
160.125,-10.25390625,-30.2734375,-34.66796875,-30.76171875,-26.3671875,0.0
160.12890625,3.90625,-25.390625,-30.76171875,-36.1328125,-19.04296875,0.0
160.1328125,-17.578125,-26.85546875,-36.1328125,-43.45703125,-12.6953125,0.0
160.13671875,-44.43359375,-29.296875,-41.50390625,-42.96875,27.83203125,0.0
160.140625,-39.55078125,-27.83203125,-38.0859375,-38.0859375,20.01953125,0.0
160.14453125,-14.16015625,-22.4609375,-27.83203125,-18.06640625,16.6015625,0.0
160.1484375,-7.8125,-26.3671875,-24.4140625,-9.27734375,34.1796875,0.0
160.15234375,-20.01953125,-30.76171875,-27.83203125,-12.6953125,-16.6015625,0.0
160.15625,-44.921875,-28.3203125,-40.0390625,-28.80859375,-46.38671875,0.0
160.16015625,-44.921875,-20.01953125,-35.15625,-41.015625,6.34765625,0.0
160.1640625,-8.30078125,-11.71875,-23.4375,-30.2734375,15.625,0.0
160.16796875,-3.41796875,-20.01953125,-19.04296875,-24.4140625,-28.3203125,0.0
160.171875,-22.94921875,-27.83203125,-17.578125,-32.2265625,-54.19921875,0.0
160.17578125,-45.8984375,-29.296875,-28.80859375,-41.9921875,-51.26953125,0.0
160.1796875,-53.22265625,-33.203125,-22.94921875,-39.0625,-35.64453125,0.0
160.18359375,-31.73828125,-34.1796875,-15.13671875,-42.96875,-56.15234375,0.0
160.1875,-15.13671875,-27.83203125,-21.484375,-43.45703125,-34.1796875,0.0
160.19140625,-13.18359375,-23.4375,-20.01953125,-33.69140625,42.48046875,0.0
160.1953125,-32.71484375,-23.4375,-14.16015625,-29.296875,21.484375,0.0
160.19921875,-44.921875,-30.76171875,-20.5078125,-30.2734375,-101.07421875,0.0
160.203125,-22.94921875,-29.78515625,-27.34375,-32.2265625,-148.92578125,0.0
160.20703125,0.0,-23.4375,-10.7421875,-20.5078125,-60.05859375,0.0
160.2109375,-8.7890625,-23.4375,-9.27734375,-15.13671875,10.7421875,0.0
160.21484375,-48.33984375,-28.80859375,-24.90234375,-30.76171875,45.41015625,0.0
160.21875,-43.9453125,-49.31640625,-21.484375,-18.06640625,66.40625,0.0
160.22265625,-0.48828125,-43.45703125,-21.484375,0.9765625,5.37109375,0.0
160.2265625,3.41796875,-9.765625,-27.34375,-25.87890625,10.25390625,0.0
160.23046875,-41.50390625,1.46484375,-29.78515625,-58.59375,37.59765625,0.0
160.234375,-92.7734375,5.859375,-36.62109375,-91.30859375,-68.359375,0.0
160.23828125,-121.09375,8.30078125,-32.71484375,-109.86328125,-63.96484375,0.0
160.2421875,-127.44140625,10.7421875,-25.390625,-138.671875,-59.5703125,0.0
160.24609375,-129.8828125,12.20703125,-24.90234375,-150.390625,-32.71484375,0.0
160.25,-125.48828125,13.671875,-30.2734375,-144.04296875,6.8359375,0.0
160.25390625,-149.4140625,24.90234375,-44.43359375,-175.78125,-12.6953125,0.0
160.2578125,-180.6640625,37.59765625,-39.0625,-198.2421875,28.3203125,0.0
160.26171875,-181.640625,42.96875,-26.85546875,-209.9609375,45.41015625,0.0
160.265625,-162.109375,36.62109375,-33.203125,-225.5859375,54.6875,0.0
160.26953125,-152.34375,43.9453125,-40.52734375,-216.30859375,65.91796875,0.0
160.2734375,-194.3359375,48.828125,-45.8984375,-238.76953125,53.22265625,0.0
160.27734375,-208.0078125,48.828125,-50.78125,-255.859375,21.97265625,0.0
160.28125,-185.05859375,61.03515625,-44.43359375,-250.9765625,-20.5078125,0.0
160.28515625,-157.2265625,67.3828125,-47.36328125,-248.53515625,-10.7421875,0.0
160.2890625,-139.6484375,71.77734375,-53.22265625,-249.0234375,5.37109375,0.0
160.29296875,-171.38671875,74.21875,-63.96484375,-256.8359375,-4.39453125,0.0
160.296875,-163.57421875,73.73046875,-79.1015625,-213.8671875,-72.75390625,0.0
160.30078125,-125.0,74.21875,-75.1953125,-196.2890625,-68.359375,0.0
160.3046875,-121.58203125,54.19921875,-65.91796875,-217.7734375,11.71875,0.0
160.30859375,-98.6328125,63.96484375,-54.6875,-206.54296875,76.171875,0.0
160.3125,-95.21484375,73.2421875,-55.6640625,-184.08203125,71.2890625,0.0
160.31640625,-103.02734375,62.5,-68.84765625,-166.9921875,-10.25390625,0.0
160.3203125,-98.14453125,49.8046875,-78.125,-159.1796875,-57.6171875,0.0
160.32421875,-70.80078125,37.59765625,-64.453125,-147.94921875,-152.83203125,0.0
160.328125,-18.5546875,35.64453125,-62.98828125,-115.72265625,-97.16796875,0.0
160.33203125,-14.16015625,33.69140625,-76.66015625,-95.703125,1.46484375,0.0
160.3359375,-33.203125,19.53125,-77.1484375,-96.6796875,-24.4140625,0.0
160.33984375,-24.4140625,0.9765625,-76.66015625,-89.84375,-43.45703125,0.0
160.34375,21.484375,-3.41796875,-59.08203125,-60.546875,-78.61328125,0.0
160.34765625,39.55078125,-10.7421875,-49.8046875,-60.05859375,-77.1484375,0.0
160.3515625,23.92578125,-22.94921875,-65.91796875,-71.2890625,-76.171875,0.0
160.35546875,8.7890625,-35.64453125,-70.3125,-48.828125,-85.44921875,0.0
160.359375,5.859375,-42.96875,-70.3125,-41.015625,-22.94921875,0.0
160.36328125,35.15625,-45.8984375,-66.40625,-33.69140625,56.15234375,0.0
160.3671875,56.15234375,-50.78125,-56.640625,-18.06640625,41.9921875,0.0
160.37109375,51.26953125,-56.640625,-57.6171875,-16.11328125,-38.57421875,0.0
160.375,34.1796875,-64.453125,-59.5703125,-13.671875,-63.96484375,0.0
160.37890625,27.83203125,-73.73046875,-59.08203125,-5.859375,-16.11328125,0.0
160.3828125,37.59765625,-70.80078125,-55.6640625,2.9296875,1.953125,0.0
160.38671875,64.94140625,-43.45703125,-38.0859375,8.7890625,67.3828125,0.0
160.390625,84.9609375,-31.25,-19.53125,22.4609375,59.08203125,0.0
160.39453125,46.38671875,-52.24609375,-36.62109375,23.92578125,3.41796875,0.0
160.3984375,22.4609375,-62.5,-51.7578125,9.765625,-73.73046875,0.0
160.40234375,42.96875,-61.03515625,-45.41015625,6.34765625,-138.671875,0.0
160.40625,52.24609375,-65.91796875,-41.015625,12.6953125,-66.89453125,0.0
160.41015625,56.15234375,-63.96484375,-43.45703125,10.25390625,7.8125,0.0
160.4140625,33.69140625,-59.5703125,-49.8046875,11.71875,-40.52734375,0.0
160.41796875,18.5546875,-57.6171875,-43.45703125,18.06640625,-99.609375,0.0
160.421875,36.62109375,-54.6875,-40.0390625,12.20703125,-32.2265625,0.0
160.42578125,52.734375,-56.640625,-38.0859375,19.04296875,-40.0390625,0.0
160.4296875,57.6171875,-57.12890625,-29.296875,29.78515625,2.9296875,0.0
160.43359375,44.921875,-45.41015625,-15.13671875,34.1796875,43.45703125,0.0
160.4375,18.5546875,-47.8515625,-25.87890625,11.23046875,-71.2890625,0.0
160.44140625,17.08984375,-55.17578125,-34.66796875,-0.9765625,-76.171875,0.0
160.4453125,36.1328125,-51.7578125,-34.66796875,1.46484375,55.17578125,0.0
160.44921875,31.73828125,-52.734375,-39.55078125,-2.44140625,73.73046875,0.0
160.453125,17.08984375,-51.7578125,-38.0859375,9.27734375,40.0390625,0.0
160.45703125,2.9296875,-50.29296875,-39.0625,8.7890625,20.01953125,0.0
160.4609375,5.859375,-49.31640625,-35.15625,-2.44140625,-24.4140625,0.0
160.46484375,22.4609375,-47.8515625,-22.94921875,8.30078125,25.390625,0.0
160.46875,19.53125,-47.36328125,-20.01953125,7.32421875,73.73046875,0.0
160.47265625,-5.37109375,-49.31640625,-32.71484375,-11.71875,-0.9765625,0.0
160.4765625,-12.20703125,-38.57421875,-25.390625,-6.8359375,-0.48828125,0.0
160.48046875,15.13671875,-7.32421875,6.34765625,20.99609375,-18.5546875,0.0
160.484375,25.390625,-16.6015625,0.0,17.578125,-104.4921875,0.0
160.48828125,4.8828125,-41.50390625,-29.296875,-7.8125,-4.39453125,0.0
160.4921875,-17.08984375,-46.875,-40.52734375,-18.06640625,44.43359375,0.0
160.49609375,-35.15625,-50.78125,-46.38671875,-25.390625,48.828125,0.0
160.5,-38.0859375,-46.38671875,-44.921875,-34.1796875,70.80078125,0.0
160.50390625,-23.4375,-43.45703125,-35.64453125,-41.50390625,-23.92578125,0.0
160.5078125,-6.34765625,-44.921875,-27.34375,-32.2265625,-34.66796875,0.0
160.51171875,-15.625,-44.921875,-34.1796875,-22.4609375,15.625,0.0
160.515625,-37.59765625,-50.78125,-42.48046875,-31.25,-26.85546875,0.0
160.51953125,-28.80859375,-49.31640625,-34.66796875,-20.99609375,-58.59375,0.0
160.5234375,2.44140625,-20.01953125,-22.4609375,-1.46484375,18.5546875,0.0
160.52734375,3.90625,-22.94921875,-25.390625,-15.13671875,92.7734375,0.0
160.53125,-18.5546875,-44.43359375,-32.2265625,-31.25,108.3984375,0.0
160.53515625,-40.52734375,-35.15625,-28.80859375,-30.2734375,33.69140625,0.0
160.5390625,-37.109375,-28.80859375,-21.97265625,-26.85546875,70.3125,0.0
160.54296875,-16.11328125,-35.15625,-24.4140625,-27.83203125,143.5546875,0.0
160.546875,-2.44140625,-39.0625,-20.99609375,-23.4375,39.0625,0.0
160.55078125,-11.71875,-35.15625,-24.4140625,-27.83203125,16.6015625,0.0
160.5546875,-35.64453125,-37.59765625,-35.15625,-25.87890625,10.7421875,0.0
160.55859375,-43.45703125,-39.55078125,-37.59765625,-28.80859375,-68.359375,0.0
160.5625,-25.390625,-35.15625,-28.3203125,-40.52734375,-62.98828125,0.0
160.56640625,-1.46484375,-29.296875,-14.16015625,-28.80859375,9.27734375,0.0
160.5703125,-11.71875,-33.69140625,-19.53125,-28.3203125,60.546875,0.0
160.57421875,-41.50390625,-42.96875,-33.203125,-34.66796875,26.3671875,0.0
160.578125,-48.828125,-44.43359375,-38.0859375,-45.41015625,-6.34765625,0.0
160.58203125,-21.97265625,-40.52734375,-30.2734375,-38.0859375,-59.5703125,0.0
160.5859375,1.46484375,-37.109375,-20.5078125,-19.04296875,-128.41796875,0.0
160.58984375,-15.625,-46.38671875,-33.203125,-31.73828125,-70.80078125,0.0
160.59375,-36.1328125,-45.8984375,-43.45703125,-44.921875,-87.40234375,0.0
160.59765625,-39.0625,-40.52734375,-38.0859375,-41.50390625,-160.64453125,0.0
160.6015625,-33.203125,-38.0859375,-28.3203125,-36.1328125,-56.15234375,0.0
160.60546875,-12.6953125,-34.66796875,-15.13671875,-27.34375,31.25,0.0
160.609375,-0.9765625,-31.73828125,-13.671875,-16.11328125,12.6953125,0.0
160.61328125,-25.390625,-32.71484375,-20.99609375,-21.484375,10.25390625,0.0
160.6171875,-46.38671875,-37.109375,-22.94921875,-42.48046875,-37.109375,0.0
160.62109375,-40.52734375,-43.9453125,-18.5546875,-42.48046875,-6.34765625,0.0
160.625,-17.578125,-35.64453125,-18.5546875,-24.4140625,103.02734375,0.0
160.62890625,4.39453125,-19.04296875,-13.671875,-19.04296875,26.85546875,0.0
160.6328125,-28.80859375,-29.78515625,-25.390625,-38.0859375,-77.1484375,0.0
160.63671875,-58.59375,-39.55078125,-41.9921875,-48.828125,-70.80078125,0.0
160.640625,-41.50390625,-28.3203125,-30.2734375,-37.59765625,19.53125,0.0
160.64453125,-20.5078125,-24.90234375,-15.13671875,-25.87890625,88.8671875,0.0
160.6484375,-17.08984375,-29.296875,-18.5546875,-31.25,106.4453125,0.0
160.65234375,-31.25,-34.1796875,-26.85546875,-36.1328125,84.9609375,0.0
160.65625,-41.9921875,-26.3671875,-22.4609375,-28.3203125,-78.61328125,0.0
160.66015625,-39.0625,-21.484375,-18.06640625,-23.92578125,-131.34765625,0.0
160.6640625,-26.3671875,-29.296875,-22.94921875,-33.203125,-52.734375,0.0
160.66796875,-9.27734375,-29.296875,-11.71875,-27.34375,40.52734375,0.0
160.671875,-4.8828125,-21.97265625,-7.8125,-13.18359375,41.50390625,0.0
160.67578125,-33.203125,-32.2265625,-17.578125,-26.3671875,-47.36328125,0.0
160.6796875,-52.24609375,-38.0859375,-25.87890625,-41.9921875,-66.89453125,0.0
160.68359375,-29.296875,-26.3671875,-24.90234375,-36.62109375,-69.82421875,0.0
160.6875,-6.8359375,-19.04296875,-24.4140625,-27.34375,-96.6796875,0.0
160.69140625,-16.11328125,-22.4609375,-26.85546875,-27.34375,-83.984375,0.0
160.6953125,-43.9453125,-36.62109375,-27.34375,-35.15625,-52.734375,0.0
160.69921875,-47.36328125,-34.66796875,-33.203125,-34.1796875,-79.1015625,0.0
160.703125,-33.203125,-32.2265625,-30.2734375,-29.78515625,-78.61328125,0.0
160.70703125,-21.97265625,-32.2265625,-21.484375,-26.85546875,-23.4375,0.0
160.7109375,-29.78515625,-29.78515625,-27.83203125,-33.69140625,19.53125,0.0
160.71484375,-44.921875,-33.69140625,-32.2265625,-40.52734375,-41.9921875,0.0
160.71875,-47.36328125,-32.71484375,-25.390625,-33.69140625,-134.765625,0.0
160.72265625,-33.203125,-32.71484375,-23.4375,-35.64453125,-53.22265625,0.0
160.7265625,-14.6484375,-35.64453125,-24.4140625,-37.59765625,-0.48828125,0.0
160.73046875,-11.23046875,-34.1796875,-26.3671875,-20.5078125,29.296875,0.0
160.734375,-30.2734375,-34.1796875,-28.3203125,-13.671875,29.78515625,0.0
160.73828125,-46.875,-39.0625,-20.99609375,-19.04296875,-136.23046875,0.0
160.7421875,-35.15625,-38.57421875,-14.16015625,-15.625,-237.79296875,0.0
160.74609375,-11.71875,-31.25,-4.39453125,-9.765625,-138.18359375,0.0
160.75,-14.16015625,-30.76171875,-10.25390625,-28.80859375,-91.796875,0.0
160.75390625,-44.921875,-36.62109375,-29.296875,-58.10546875,-82.51953125,0.0
160.7578125,-59.08203125,-38.57421875,-30.2734375,-68.359375,-82.03125,0.0
160.76171875,-37.59765625,-28.3203125,-18.06640625,-51.7578125,-80.56640625,0.0
160.765625,-3.41796875,-15.625,-1.46484375,-19.04296875,21.484375,0.0
160.76953125,-16.11328125,-28.3203125,-11.23046875,-16.6015625,76.171875,0.0
160.7734375,-47.8515625,-40.52734375,-28.3203125,-24.4140625,8.7890625,0.0
160.77734375,-59.5703125,-42.96875,-26.85546875,-16.11328125,-20.01953125,0.0
160.78125,-48.828125,-38.57421875,-21.97265625,-17.578125,-53.7109375,0.0
160.78515625,-23.92578125,-33.69140625,-17.578125,-20.99609375,-45.8984375,0.0
160.7890625,-14.6484375,-37.59765625,-21.97265625,-21.97265625,109.375,0.0
160.79296875,-33.69140625,-40.52734375,-34.1796875,-49.31640625,155.2734375,0.0
160.796875,-53.22265625,-41.50390625,-38.57421875,-70.3125,61.03515625,0.0
160.80078125,-48.33984375,-39.0625,-37.59765625,-64.94140625,9.765625,0.0
160.8046875,-26.3671875,-35.64453125,-29.78515625,-50.78125,75.68359375,0.0
160.80859375,-10.25390625,-27.34375,-23.92578125,-31.73828125,104.98046875,0.0
160.8125,-22.94921875,-26.3671875,-31.73828125,-32.2265625,12.6953125,0.0
160.81640625,-51.7578125,-34.66796875,-32.2265625,-36.1328125,-17.578125,0.0
160.8203125,-48.33984375,-35.64453125,-29.78515625,-31.73828125,-59.5703125,0.0
160.82421875,-17.08984375,-29.296875,-27.83203125,-39.0625,-155.76171875,0.0
160.828125,-3.90625,-21.97265625,-20.01953125,-36.62109375,-142.578125,0.0
160.83203125,-17.578125,-21.97265625,-24.90234375,-26.85546875,-111.328125,0.0
160.8359375,-45.41015625,-25.390625,-31.25,-30.2734375,-155.2734375,0.0
160.83984375,-53.22265625,-24.90234375,-24.90234375,-29.296875,-115.234375,0.0
160.84375,-29.78515625,-26.3671875,-26.3671875,-30.2734375,-37.109375,0.0
160.84765625,-14.6484375,-33.69140625,-29.296875,-33.203125,27.83203125,0.0
160.8515625,-28.80859375,-35.15625,-32.71484375,-35.64453125,75.68359375,0.0
160.85546875,-42.96875,-35.64453125,-41.50390625,-40.0390625,30.2734375,0.0
160.859375,-48.33984375,-43.9453125,-33.69140625,-41.015625,-69.82421875,0.0
160.86328125,-22.4609375,-38.57421875,-31.73828125,-42.96875,-153.80859375,0.0
160.8671875,8.7890625,-27.83203125,-28.80859375,-34.1796875,-63.96484375,0.0
160.87109375,-14.6484375,-30.2734375,-26.3671875,-31.73828125,1.46484375,0.0
160.875,-48.33984375,-34.66796875,-37.59765625,-43.45703125,-27.83203125,0.0
160.87890625,-59.5703125,-43.9453125,-31.25,-47.36328125,61.03515625,0.0
160.8828125,-45.41015625,-42.96875,-24.4140625,-41.9921875,60.546875,0.0
160.88671875,-28.3203125,-34.1796875,-28.80859375,-41.015625,106.4453125,0.0
160.890625,-34.66796875,-33.203125,-32.2265625,-47.36328125,166.015625,0.0
160.89453125,-50.29296875,-28.3203125,-36.1328125,-46.38671875,-46.875,0.0
160.8984375,-57.6171875,-26.85546875,-38.57421875,-48.33984375,-132.8125,0.0
160.90234375,-42.48046875,-30.76171875,-33.69140625,-41.50390625,-28.3203125,0.0
160.90625,-20.99609375,-28.80859375,-29.296875,-37.59765625,8.7890625,0.0
160.91015625,-18.06640625,-23.4375,-34.1796875,-43.45703125,5.37109375,0.0
160.9140625,-21.484375,-15.625,-24.90234375,-20.01953125,-34.66796875,0.0
160.91796875,-41.50390625,-20.01953125,-26.3671875,-25.87890625,-3.90625,0.0
160.921875,-38.57421875,-26.85546875,-35.64453125,-46.875,32.2265625,0.0
160.92578125,-18.06640625,-23.4375,-28.80859375,-38.57421875,104.98046875,0.0
160.9296875,-23.4375,-26.85546875,-26.3671875,-32.71484375,125.9765625,0.0
160.93359375,-45.41015625,-28.80859375,-37.109375,-40.52734375,63.96484375,0.0
160.9375,-56.640625,-29.78515625,-43.9453125,-40.52734375,-1.953125,0.0
160.94140625,-37.59765625,-24.4140625,-29.78515625,-28.3203125,-55.6640625,0.0
160.9453125,-18.5546875,-24.4140625,-17.578125,-22.94921875,46.38671875,0.0
160.94921875,-19.04296875,-32.71484375,-28.80859375,-35.15625,57.12890625,0.0
160.953125,-40.52734375,-31.73828125,-37.109375,-44.921875,-13.671875,0.0
160.95703125,-59.08203125,-30.76171875,-35.64453125,-40.52734375,-86.9140625,0.0
160.9609375,-51.7578125,-30.76171875,-28.3203125,-35.64453125,-101.07421875,0.0
160.96484375,-24.4140625,-29.78515625,-26.85546875,-41.015625,5.859375,0.0
160.96875,-10.7421875,-28.80859375,-28.80859375,-45.41015625,110.3515625,0.0
160.97265625,-33.69140625,-25.390625,-28.3203125,-44.921875,87.890625,0.0
160.9765625,-60.05859375,-28.80859375,-35.64453125,-45.41015625,-4.8828125,0.0
160.98046875,-55.17578125,-30.2734375,-32.2265625,-40.0390625,-62.01171875,0.0
160.984375,-23.92578125,-26.3671875,-20.99609375,-34.66796875,-32.71484375,0.0
160.98828125,-11.71875,-28.80859375,-23.4375,-36.62109375,62.5,0.0
160.9921875,-33.203125,-29.296875,-28.3203125,-39.55078125,31.73828125,0.0
160.99609375,-59.5703125,-37.109375,-34.66796875,-39.55078125,44.921875,0.0
161.0,-59.5703125,-38.0859375,-36.1328125,-46.875,62.98828125,0.0
161.00390625,-28.3203125,-30.76171875,-19.04296875,-36.1328125,69.3359375,0.0
161.0078125,-11.23046875,-26.85546875,-19.53125,-21.97265625,129.8828125,0.0
161.01171875,-31.73828125,-26.3671875,-27.83203125,-27.34375,179.6875,0.0
161.015625,-62.01171875,-29.296875,-28.80859375,-37.59765625,78.125,0.0
161.01953125,-67.3828125,-31.25,-24.90234375,-35.64453125,-139.6484375,0.0
161.0234375,-43.9453125,-30.2734375,-13.671875,-24.90234375,-149.4140625,0.0
161.02734375,-26.3671875,-28.80859375,-9.765625,-25.390625,41.015625,0.0
161.03125,-31.73828125,-28.80859375,-10.7421875,-23.92578125,108.3984375,0.0
161.03515625,-55.17578125,-31.25,-18.06640625,-22.94921875,-35.64453125,0.0
161.0390625,-68.359375,-39.0625,-24.4140625,-37.109375,-172.36328125,0.0
161.04296875,-42.96875,-41.50390625,-21.97265625,-40.52734375,-187.01171875,0.0
161.046875,-9.765625,-28.3203125,-13.18359375,-24.90234375,-123.046875,0.0
161.05078125,-14.6484375,-22.4609375,-16.6015625,-17.08984375,-22.94921875,0.0
161.0546875,-52.24609375,-36.1328125,-31.73828125,-32.71484375,-23.4375,0.0
161.05859375,-67.3828125,-38.0859375,-37.109375,-42.48046875,-95.21484375,0.0
161.0625,-49.8046875,-28.80859375,-28.80859375,-43.9453125,-99.609375,0.0
161.06640625,-27.83203125,-23.4375,-25.390625,-41.015625,-111.328125,0.0
161.0703125,-33.69140625,-27.83203125,-26.85546875,-35.15625,-33.69140625,0.0
161.07421875,-68.359375,-30.2734375,-30.2734375,-41.015625,66.40625,0.0
161.078125,-80.078125,-29.78515625,-25.390625,-44.43359375,13.671875,0.0
161.08203125,-66.40625,-34.1796875,-20.01953125,-46.875,17.578125,0.0
161.0859375,-39.0625,-30.2734375,-23.92578125,-40.0390625,116.69921875,0.0
161.08984375,-23.92578125,-25.87890625,-24.90234375,-31.25,146.97265625,0.0
161.09375,-48.828125,-27.34375,-27.34375,-41.015625,152.34375,0.0
161.09765625,-73.73046875,-30.2734375,-33.203125,-46.38671875,133.30078125,0.0
161.1015625,-58.59375,-39.0625,-26.85546875,-44.43359375,79.58984375,0.0
161.10546875,-28.80859375,-36.62109375,-18.06640625,-42.96875,95.21484375,0.0
161.109375,-27.34375,-28.80859375,-28.3203125,-47.8515625,74.70703125,0.0
161.11328125,-51.7578125,-28.80859375,-41.50390625,-50.78125,15.13671875,0.0
161.1171875,-72.75390625,-34.66796875,-38.0859375,-52.24609375,23.92578125,0.0
161.12109375,-70.3125,-40.0390625,-35.15625,-61.5234375,-16.6015625,0.0
161.125,-38.57421875,-33.203125,-29.78515625,-52.24609375,-11.23046875,0.0
161.12890625,-22.4609375,-26.85546875,-21.484375,-41.015625,-11.71875,0.0
161.1328125,-52.24609375,-31.73828125,-34.1796875,-46.38671875,-103.515625,0.0
161.13671875,-71.77734375,-30.2734375,-45.41015625,-50.29296875,-46.38671875,0.0
161.140625,-52.734375,-26.85546875,-35.64453125,-38.57421875,-62.5,0.0
161.14453125,-24.4140625,-29.296875,-23.4375,-30.76171875,-146.484375,0.0
161.1484375,-15.13671875,-32.71484375,-24.90234375,-35.15625,-43.45703125,0.0
161.15234375,-41.50390625,-34.1796875,-31.73828125,-38.0859375,127.9296875,0.0
161.15625,-72.265625,-37.109375,-36.1328125,-43.9453125,57.12890625,0.0
161.16015625,-65.4296875,-38.0859375,-31.25,-56.640625,-58.10546875,0.0
161.1640625,-30.76171875,-35.15625,-15.625,-42.48046875,15.625,0.0
161.16796875,-13.18359375,-33.203125,-12.20703125,-22.94921875,61.03515625,0.0
161.171875,-31.25,-31.25,-25.390625,-32.71484375,23.4375,0.0
161.17578125,-59.08203125,-30.76171875,-32.2265625,-42.96875,-53.7109375,0.0
161.1796875,-59.08203125,-29.78515625,-26.3671875,-37.109375,-49.8046875,0.0
161.18359375,-10.7421875,-11.71875,0.48828125,-8.7890625,86.42578125,0.0
161.1875,1.953125,-11.23046875,-5.37109375,-10.25390625,142.08984375,0.0
161.19140625,-25.390625,-31.25,-30.76171875,-27.34375,55.17578125,0.0
161.1953125,-42.96875,-30.2734375,-28.80859375,-29.296875,-9.27734375,0.0
161.19921875,-50.78125,-25.390625,-30.76171875,-38.57421875,-38.57421875,0.0
161.203125,-31.73828125,-30.2734375,-28.3203125,-41.015625,-6.34765625,0.0
161.20703125,-12.20703125,-28.80859375,-25.390625,-40.52734375,51.7578125,0.0
161.2109375,-29.78515625,-36.62109375,-37.109375,-48.33984375,68.359375,0.0
161.21484375,-59.08203125,-41.9921875,-41.50390625,-42.96875,-40.52734375,0.0
161.21875,-64.453125,-34.1796875,-39.55078125,-38.57421875,-126.46484375,0.0
161.22265625,-44.921875,-29.296875,-30.2734375,-45.8984375,-75.1953125,0.0
161.2265625,-13.18359375,-17.08984375,-12.20703125,-30.2734375,-48.33984375,0.0
161.23046875,-5.859375,-9.27734375,-13.18359375,-13.18359375,-72.75390625,0.0
161.234375,-48.33984375,-26.3671875,-36.62109375,-29.78515625,-68.359375,0.0
161.23828125,-67.87109375,-37.59765625,-41.50390625,-41.9921875,-10.7421875,0.0
161.2421875,-37.109375,-31.25,-34.1796875,-47.36328125,5.859375,0.0
161.24609375,-9.765625,-23.92578125,-28.80859375,-40.0390625,14.6484375,0.0
161.25,-17.578125,-20.5078125,-27.83203125,-36.1328125,50.78125,0.0
161.25390625,-53.22265625,-25.390625,-42.96875,-52.24609375,32.2265625,0.0
161.2578125,-66.40625,-31.73828125,-46.38671875,-51.7578125,-49.8046875,0.0
161.26171875,-49.8046875,-32.2265625,-32.71484375,-41.015625,-23.92578125,0.0
161.265625,-22.94921875,-26.3671875,-23.92578125,-30.76171875,56.15234375,0.0
161.26953125,-20.99609375,-24.4140625,-26.3671875,-34.1796875,87.890625,0.0
161.2734375,-55.6640625,-32.71484375,-37.109375,-44.921875,44.921875,0.0
161.27734375,-78.125,-33.203125,-37.59765625,-45.41015625,-19.53125,0.0
161.28125,-63.4765625,-28.3203125,-36.62109375,-52.734375,-4.8828125,0.0
161.28515625,-24.90234375,-25.87890625,-34.1796875,-49.31640625,85.9375,0.0
161.2890625,-16.11328125,-26.85546875,-28.80859375,-36.62109375,90.33203125,0.0
161.29296875,-45.8984375,-30.76171875,-38.57421875,-38.57421875,40.0390625,0.0
161.296875,-67.87109375,-33.203125,-41.015625,-43.45703125,-4.39453125,0.0
161.30078125,-59.5703125,-29.78515625,-29.78515625,-43.45703125,-26.85546875,0.0
161.3046875,-25.390625,-30.2734375,-21.97265625,-30.2734375,16.11328125,0.0
161.30859375,-18.06640625,-34.66796875,-26.85546875,-27.83203125,97.16796875,0.0
161.3125,-49.31640625,-30.2734375,-34.66796875,-34.1796875,145.5078125,0.0
161.31640625,-71.77734375,-33.69140625,-32.71484375,-28.3203125,44.921875,0.0
161.3203125,-63.4765625,-36.62109375,-26.85546875,-39.0625,-53.7109375,0.0
161.32421875,-26.85546875,-30.76171875,-22.4609375,-40.52734375,-63.4765625,0.0
161.328125,-10.25390625,-32.71484375,-23.4375,-35.64453125,-84.9609375,0.0
161.33203125,-29.296875,-33.203125,-33.69140625,-48.33984375,-27.83203125,0.0
161.3359375,-57.12890625,-30.2734375,-39.0625,-55.17578125,-35.64453125,0.0
161.33984375,-62.5,-36.62109375,-32.2265625,-55.6640625,-109.86328125,0.0
161.34375,-29.78515625,-36.1328125,-25.390625,-48.828125,-75.1953125,0.0
161.34765625,-9.27734375,-26.3671875,-23.92578125,-40.0390625,14.6484375,0.0
161.3515625,-28.3203125,-26.3671875,-32.71484375,-35.64453125,-4.39453125,0.0
161.35546875,-63.4765625,-35.64453125,-46.38671875,-49.31640625,-111.328125,0.0
161.359375,-64.94140625,-32.2265625,-36.1328125,-47.36328125,-140.625,0.0
161.36328125,-26.3671875,-23.92578125,-21.484375,-35.64453125,-89.35546875,0.0
161.3671875,-5.859375,-24.90234375,-23.4375,-33.69140625,20.5078125,0.0
161.37109375,-22.94921875,-27.83203125,-30.76171875,-32.2265625,63.96484375,0.0
161.375,-57.12890625,-33.203125,-39.0625,-38.57421875,48.828125,0.0
161.37890625,-65.4296875,-37.109375,-36.62109375,-33.203125,16.11328125,0.0
161.3828125,-34.66796875,-38.0859375,-23.92578125,-29.296875,4.39453125,0.0
161.38671875,-15.625,-36.62109375,-19.04296875,-30.76171875,52.24609375,0.0
161.390625,-22.4609375,-37.59765625,-28.3203125,-25.390625,28.80859375,0.0
161.39453125,-51.26953125,-41.50390625,-37.109375,-30.76171875,-11.71875,0.0
161.3984375,-70.3125,-46.875,-36.1328125,-39.0625,12.20703125,0.0
161.40234375,-46.38671875,-41.015625,-26.3671875,-32.2265625,44.43359375,0.0
161.40625,-12.6953125,-30.76171875,-14.6484375,-16.11328125,-25.87890625,0.0
161.41015625,-11.71875,-29.296875,-16.11328125,-19.53125,-73.73046875,0.0
161.4140625,-45.41015625,-36.1328125,-31.73828125,-29.296875,-97.65625,0.0
161.41796875,-62.5,-43.45703125,-37.109375,-35.15625,-137.6953125,0.0
161.421875,-40.0390625,-39.55078125,-25.390625,-35.15625,-82.51953125,0.0
161.42578125,-8.30078125,-28.80859375,-11.23046875,-21.97265625,-11.71875,0.0
161.4296875,-11.71875,-28.3203125,-19.04296875,-17.578125,0.9765625,0.0
161.43359375,-46.38671875,-32.71484375,-34.1796875,-31.73828125,-9.27734375,0.0
161.4375,-61.03515625,-33.203125,-37.109375,-31.73828125,-2.44140625,0.0
161.44140625,-38.0859375,-32.71484375,-28.3203125,-20.99609375,5.37109375,0.0
161.4453125,-2.44140625,-33.203125,-22.4609375,-24.90234375,4.39453125,0.0
161.44921875,0.9765625,-32.71484375,-23.4375,-21.484375,11.23046875,0.0
161.453125,-38.0859375,-31.73828125,-32.2265625,-24.90234375,-20.01953125,0.0
161.45703125,-61.03515625,-34.66796875,-37.59765625,-38.57421875,-64.453125,0.0
161.4609375,-41.015625,-30.76171875,-32.71484375,-35.15625,-68.84765625,0.0
161.46484375,-5.37109375,-20.5078125,-21.97265625,-31.25,7.8125,0.0
161.46875,1.953125,-25.87890625,-16.6015625,-19.53125,71.77734375,0.0
161.47265625,-30.2734375,-33.69140625,-26.85546875,-11.71875,76.171875,0.0
161.4765625,-61.03515625,-30.76171875,-34.66796875,-27.34375,-6.34765625,0.0
161.48046875,-55.6640625,-30.2734375,-26.3671875,-28.3203125,-86.9140625,0.0
161.484375,-21.97265625,-24.4140625,-16.6015625,-20.5078125,-22.94921875,0.0
161.48828125,-6.34765625,-23.4375,-18.06640625,-18.06640625,17.08984375,0.0
161.4921875,-26.85546875,-27.83203125,-30.2734375,-20.5078125,-2.9296875,0.0
161.49609375,-60.546875,-32.71484375,-41.015625,-38.57421875,-45.8984375,0.0
161.5,-58.10546875,-33.203125,-31.73828125,-38.0859375,-75.1953125,0.0
161.50390625,-22.4609375,-29.296875,-18.5546875,-24.90234375,-32.2265625,0.0
161.5078125,-4.8828125,-25.87890625,-20.01953125,-23.92578125,-35.64453125,0.0
161.51171875,-22.4609375,-30.2734375,-28.3203125,-25.390625,-56.640625,0.0
161.515625,-58.10546875,-38.57421875,-30.76171875,-28.80859375,-21.484375,0.0
161.51953125,-64.453125,-38.0859375,-27.83203125,-33.69140625,-19.04296875,0.0
161.5234375,-21.484375,-34.1796875,-20.99609375,-25.390625,-25.87890625,0.0
161.52734375,0.48828125,-33.69140625,-19.53125,-23.4375,46.38671875,0.0
161.53125,-26.3671875,-33.69140625,-22.94921875,-23.92578125,184.5703125,0.0
161.53515625,-52.734375,-32.2265625,-30.2734375,-21.484375,197.265625,0.0
161.5390625,-53.7109375,-37.109375,-31.73828125,-30.2734375,88.37890625,0.0
161.54296875,-25.87890625,-40.0390625,-25.390625,-31.73828125,81.54296875,0.0
161.546875,-4.8828125,-35.64453125,-23.92578125,-33.69140625,48.828125,0.0
161.55078125,-19.04296875,-40.52734375,-25.87890625,-34.1796875,25.390625,0.0
161.5546875,-52.734375,-39.0625,-30.2734375,-29.296875,31.25,0.0
161.55859375,-60.546875,-28.3203125,-25.87890625,-23.92578125,-83.0078125,0.0
161.5625,-36.1328125,-31.73828125,-20.01953125,-22.4609375,-62.5,0.0
161.56640625,-13.18359375,-32.71484375,-19.04296875,-19.04296875,45.41015625,0.0
161.5703125,-16.11328125,-28.80859375,-26.85546875,-15.13671875,50.78125,0.0
161.57421875,-48.828125,-30.76171875,-43.9453125,-35.15625,33.69140625,0.0
161.578125,-67.87109375,-30.76171875,-45.41015625,-45.41015625,27.83203125,0.0
161.58203125,-44.921875,-35.15625,-36.1328125,-46.875,91.796875,0.0
161.5859375,-14.16015625,-30.76171875,-25.87890625,-31.73828125,114.74609375,0.0
161.58984375,-11.23046875,-24.90234375,-22.4609375,-16.11328125,88.8671875,0.0
161.59375,-38.0859375,-28.3203125,-34.66796875,-24.4140625,22.94921875,0.0
161.59765625,-63.96484375,-33.203125,-42.96875,-37.59765625,-119.140625,0.0
161.6015625,-44.43359375,-31.25,-30.2734375,-35.15625,-132.8125,0.0
161.60546875,-5.859375,-25.390625,-15.625,-20.01953125,-53.7109375,0.0
161.609375,-6.34765625,-27.83203125,-25.390625,-16.6015625,15.625,0.0
161.61328125,-43.45703125,-33.203125,-45.41015625,-30.76171875,80.078125,0.0
161.6171875,-66.89453125,-32.71484375,-48.33984375,-47.36328125,-25.390625,0.0
161.62109375,-54.19921875,-31.25,-34.1796875,-48.33984375,-16.11328125,0.0
161.625,-28.80859375,-37.109375,-22.4609375,-37.109375,37.59765625,0.0
161.62890625,-20.99609375,-31.73828125,-25.390625,-31.25,23.4375,0.0
161.6328125,-40.0390625,-26.85546875,-35.64453125,-33.69140625,38.0859375,0.0
161.63671875,-62.98828125,-36.1328125,-36.1328125,-45.41015625,-43.45703125,0.0
161.640625,-60.546875,-41.9921875,-29.296875,-49.8046875,-71.2890625,0.0
161.64453125,-30.76171875,-33.69140625,-21.484375,-33.69140625,-16.6015625,0.0
161.6484375,-14.16015625,-26.85546875,-19.53125,-22.4609375,26.3671875,0.0
161.65234375,-44.921875,-30.76171875,-31.73828125,-32.2265625,57.6171875,0.0
161.65625,-77.63671875,-37.109375,-44.43359375,-44.43359375,41.50390625,0.0
161.66015625,-67.3828125,-40.0390625,-37.109375,-43.9453125,-3.90625,0.0
161.6640625,-25.87890625,-32.71484375,-21.97265625,-34.66796875,-61.5234375,0.0
161.66796875,-9.765625,-32.71484375,-26.85546875,-33.69140625,-14.6484375,0.0
161.671875,-32.2265625,-29.296875,-38.0859375,-37.59765625,2.44140625,0.0
161.67578125,-58.10546875,-30.76171875,-38.57421875,-41.015625,-80.078125,0.0
161.6796875,-59.08203125,-37.109375,-31.25,-44.43359375,-122.55859375,0.0
161.68359375,-21.97265625,-24.4140625,-21.97265625,-31.73828125,-81.0546875,0.0
161.6875,-7.32421875,-25.390625,-20.01953125,-27.34375,-57.6171875,0.0
161.69140625,-26.85546875,-30.2734375,-20.5078125,-26.3671875,-65.91796875,0.0
161.6953125,-51.26953125,-28.3203125,-23.4375,-25.87890625,-96.19140625,0.0
161.69921875,-66.89453125,-34.66796875,-28.3203125,-39.0625,-135.7421875,0.0
161.703125,-46.875,-39.55078125,-27.83203125,-50.29296875,-81.54296875,0.0
161.70703125,-18.06640625,-31.25,-20.99609375,-37.59765625,-9.765625,0.0
161.7109375,-29.78515625,-30.2734375,-25.390625,-34.1796875,-25.390625,0.0
161.71484375,-68.359375,-41.9921875,-43.9453125,-47.8515625,-47.8515625,0.0
161.71875,-71.2890625,-41.50390625,-41.50390625,-44.43359375,-84.9609375,0.0
161.72265625,-34.1796875,-36.1328125,-28.80859375,-33.69140625,-69.3359375,0.0
161.7265625,-7.32421875,-31.73828125,-24.90234375,-26.85546875,8.7890625,0.0
161.73046875,-18.5546875,-33.69140625,-29.296875,-25.87890625,60.05859375,0.0
161.734375,-53.7109375,-36.1328125,-37.59765625,-31.25,16.11328125,0.0
161.73828125,-64.453125,-37.59765625,-30.76171875,-33.69140625,-72.75390625,0.0
161.7421875,-41.50390625,-36.62109375,-20.5078125,-38.57421875,-24.4140625,0.0
161.74609375,-13.671875,-25.87890625,-18.06640625,-30.76171875,80.56640625,0.0
161.75,-12.20703125,-24.90234375,-21.484375,-25.87890625,21.484375,0.0
161.75390625,-25.87890625,-27.83203125,-20.99609375,-23.92578125,-137.6953125,0.0
161.7578125,-53.7109375,-22.4609375,-27.83203125,-28.80859375,-117.67578125,0.0
161.76171875,-59.5703125,-26.85546875,-34.1796875,-49.8046875,-17.08984375,0.0
161.765625,-25.390625,-27.83203125,-24.90234375,-40.52734375,37.109375,0.0
161.76953125,-19.53125,-33.203125,-27.83203125,-26.85546875,82.03125,0.0
161.7734375,-55.17578125,-34.1796875,-37.109375,-41.015625,60.546875,0.0
161.77734375,-75.68359375,-33.203125,-35.15625,-48.828125,2.44140625,0.0
161.78125,-56.640625,-33.69140625,-25.87890625,-44.921875,11.23046875,0.0
161.78515625,-27.83203125,-30.2734375,-19.53125,-39.55078125,57.6171875,0.0
161.7890625,-18.06640625,-28.3203125,-25.87890625,-39.0625,40.52734375,0.0
161.79296875,-45.41015625,-29.296875,-40.52734375,-49.31640625,20.99609375,0.0
161.796875,-63.96484375,-26.85546875,-43.9453125,-50.78125,21.97265625,0.0
161.80078125,-35.15625,-18.06640625,-26.85546875,-36.62109375,-29.296875,0.0
161.8046875,-8.7890625,-21.97265625,-15.625,-25.87890625,-23.92578125,0.0
161.80859375,-8.7890625,-27.34375,-24.4140625,-26.85546875,43.9453125,0.0
161.8125,-36.1328125,-32.2265625,-37.109375,-37.59765625,20.99609375,0.0
161.81640625,-59.5703125,-31.73828125,-38.0859375,-36.1328125,-96.6796875,0.0
161.8203125,-53.7109375,-26.85546875,-28.80859375,-29.296875,-77.63671875,0.0
161.82421875,-21.484375,-29.296875,-20.99609375,-15.13671875,8.30078125,0.0
161.828125,-5.859375,-30.76171875,-20.01953125,-9.27734375,30.76171875,0.0
161.83203125,-28.3203125,-29.78515625,-25.390625,-23.4375,30.2734375,0.0
161.8359375,-53.7109375,-35.64453125,-36.62109375,-27.34375,-67.87109375,0.0
161.83984375,-52.734375,-34.66796875,-30.2734375,-27.34375,-170.41015625,0.0
161.84375,-16.11328125,-24.4140625,-9.27734375,-16.6015625,-130.37109375,0.0
161.84765625,-7.32421875,-27.34375,-13.18359375,-21.484375,-21.97265625,0.0
161.8515625,-39.55078125,-33.203125,-37.59765625,-41.9921875,39.0625,0.0
161.85546875,-60.05859375,-27.34375,-41.015625,-41.9921875,2.44140625,0.0
161.859375,-57.6171875,-31.25,-30.2734375,-34.66796875,-78.125,0.0
161.86328125,-35.64453125,-40.0390625,-28.3203125,-36.62109375,-104.4921875,0.0
161.8671875,-8.7890625,-34.1796875,-29.296875,-31.25,-69.3359375,0.0
161.87109375,-16.11328125,-31.25,-35.64453125,-28.3203125,14.16015625,0.0
161.875,-55.17578125,-35.64453125,-43.45703125,-41.9921875,85.9375,0.0
161.87890625,-69.82421875,-38.0859375,-39.0625,-44.921875,65.91796875,0.0
161.8828125,-38.57421875,-36.62109375,-30.76171875,-35.64453125,33.203125,0.0
161.88671875,-1.46484375,-26.3671875,-24.4140625,-32.2265625,49.31640625,0.0
161.890625,-0.48828125,-21.97265625,-14.6484375,-20.99609375,46.38671875,0.0
161.89453125,-46.875,-37.109375,-33.203125,-33.69140625,29.78515625,0.0
161.8984375,-65.4296875,-36.1328125,-37.109375,-44.43359375,-33.69140625,0.0
161.90234375,-35.15625,-23.4375,-18.06640625,-32.71484375,-61.5234375,0.0
161.90625,-6.8359375,-20.01953125,-12.6953125,-15.625,53.7109375,0.0
161.91015625,-10.25390625,-20.99609375,-20.99609375,-14.16015625,86.9140625,0.0
161.9140625,-43.45703125,-22.94921875,-35.64453125,-21.97265625,2.44140625,0.0
161.91796875,-58.59375,-22.4609375,-41.9921875,-34.1796875,-58.59375,0.0
161.921875,-37.59765625,-25.390625,-33.203125,-35.64453125,-126.953125,0.0
161.92578125,-12.20703125,-26.3671875,-25.390625,-28.3203125,-87.890625,0.0
161.9296875,-7.8125,-21.484375,-28.3203125,-35.64453125,61.03515625,0.0
161.93359375,-32.2265625,-16.11328125,-29.78515625,-37.59765625,71.77734375,0.0
161.9375,-54.6875,-22.4609375,-36.62109375,-51.7578125,-16.11328125,0.0
161.94140625,-54.6875,-33.69140625,-31.25,-43.9453125,26.3671875,0.0
161.9453125,-24.4140625,-29.78515625,-15.625,-25.87890625,112.79296875,0.0
161.94921875,-8.7890625,-19.04296875,-18.5546875,-25.390625,153.80859375,0.0
161.953125,-38.57421875,-27.34375,-38.0859375,-29.78515625,137.20703125,0.0
161.95703125,-57.12890625,-34.1796875,-37.109375,-31.25,28.3203125,0.0
161.9609375,-47.8515625,-29.296875,-23.92578125,-38.0859375,-77.63671875,0.0
161.96484375,-18.06640625,-20.01953125,-18.06640625,-31.73828125,-47.36328125,0.0
161.96875,-2.44140625,-17.578125,-18.5546875,-20.01953125,1.46484375,0.0
161.97265625,-34.1796875,-30.2734375,-34.66796875,-26.3671875,-10.7421875,0.0
161.9765625,-46.875,-25.87890625,-28.80859375,-29.296875,-44.921875,0.0
161.98046875,-15.625,-6.8359375,0.0,-5.859375,-30.2734375,0.0
161.984375,4.39453125,-15.625,-8.30078125,-12.20703125,54.19921875,0.0
161.98828125,-4.39453125,-32.71484375,-29.78515625,-42.96875,53.22265625,0.0
161.9921875,-32.71484375,-34.66796875,-38.57421875,-47.36328125,47.36328125,0.0
161.99609375,-56.15234375,-33.203125,-44.43359375,-48.828125,-11.71875,0.0
162.0,-55.17578125,-32.2265625,-38.0859375,-48.828125,-129.39453125,0.0
162.00390625,-27.83203125,-27.34375,-29.296875,-48.33984375,-107.421875,0.0
162.0078125,-5.37109375,-23.4375,-29.78515625,-42.96875,7.8125,0.0
162.01171875,-29.78515625,-29.78515625,-40.52734375,-45.8984375,38.0859375,0.0
162.015625,-68.359375,-38.57421875,-49.8046875,-60.05859375,-41.50390625,0.0
162.01953125,-64.94140625,-38.57421875,-38.0859375,-45.41015625,-214.35546875,0.0
162.0234375,-29.296875,-30.2734375,-21.484375,-26.3671875,-164.55078125,0.0
162.02734375,-10.7421875,-31.73828125,-29.296875,-35.15625,14.16015625,0.0
162.03125,-31.73828125,-36.62109375,-33.203125,-39.0625,26.3671875,0.0
162.03515625,-57.12890625,-32.2265625,-29.78515625,-31.25,-5.37109375,0.0
162.0390625,-58.10546875,-28.3203125,-26.3671875,-19.53125,-25.390625,0.0
162.04296875,-33.69140625,-30.2734375,-21.484375,-21.97265625,0.9765625,0.0
162.046875,-11.23046875,-32.71484375,-22.4609375,-30.76171875,33.69140625,0.0
162.05078125,-20.99609375,-34.66796875,-29.78515625,-37.109375,45.41015625,0.0
162.0546875,-55.6640625,-39.55078125,-43.45703125,-56.640625,-26.3671875,0.0
162.05859375,-62.01171875,-38.0859375,-40.52734375,-67.87109375,-91.30859375,0.0
162.0625,-32.71484375,-33.69140625,-26.3671875,-66.40625,-44.921875,0.0
162.06640625,1.46484375,-23.4375,-14.16015625,-44.43359375,14.16015625,0.0
162.0703125,-2.9296875,-18.06640625,-20.01953125,-39.0625,68.359375,0.0
162.07421875,-41.015625,-30.76171875,-38.0859375,-52.24609375,4.39453125,0.0
162.078125,-54.19921875,-41.50390625,-39.55078125,-48.33984375,-68.359375,0.0
162.08203125,-30.2734375,-30.2734375,-21.97265625,-35.64453125,-80.078125,0.0
162.0859375,-1.953125,-15.625,-11.23046875,-35.15625,-38.57421875,0.0
162.08984375,-8.7890625,-19.53125,-28.3203125,-40.52734375,138.18359375,0.0
162.09375,-47.8515625,-26.3671875,-35.15625,-44.43359375,72.75390625,0.0
162.09765625,-70.3125,-30.2734375,-33.69140625,-55.17578125,-125.48828125,0.0
162.1015625,-50.29296875,-31.25,-30.2734375,-51.7578125,-117.67578125,0.0
162.10546875,-19.53125,-29.296875,-26.85546875,-43.45703125,-0.9765625,0.0
162.109375,-17.578125,-25.87890625,-31.25,-37.109375,37.59765625,0.0
162.11328125,-50.78125,-30.76171875,-39.0625,-49.31640625,-56.640625,0.0
162.1171875,-69.82421875,-37.59765625,-40.52734375,-54.19921875,-73.73046875,0.0
162.12109375,-53.7109375,-37.59765625,-37.109375,-53.22265625,-33.203125,0.0
162.125,-21.484375,-34.1796875,-25.87890625,-38.57421875,51.7578125,0.0
162.12890625,-4.8828125,-25.390625,-16.6015625,-18.5546875,48.33984375,0.0
162.1328125,-39.0625,-26.85546875,-26.3671875,-31.73828125,-30.76171875,0.0
162.13671875,-66.40625,-36.1328125,-35.64453125,-41.015625,-87.40234375,0.0
162.140625,-47.36328125,-31.73828125,-26.3671875,-41.9921875,-135.25390625,0.0
162.14453125,-15.625,-25.87890625,-12.6953125,-28.3203125,-135.7421875,0.0
162.1484375,-9.27734375,-27.34375,-22.94921875,-18.06640625,-25.87890625,0.0
162.15234375,-39.0625,-31.73828125,-42.48046875,-36.62109375,129.8828125,0.0
162.15625,-60.546875,-26.85546875,-45.8984375,-49.8046875,28.80859375,0.0
162.16015625,-47.36328125,-26.85546875,-37.59765625,-52.734375,-64.453125,0.0
162.1640625,-19.04296875,-34.66796875,-23.92578125,-51.26953125,16.6015625,0.0
162.16796875,-7.8125,-26.85546875,-21.97265625,-46.875,43.9453125,0.0
162.171875,-21.97265625,-16.6015625,-25.390625,-47.36328125,41.50390625,0.0
162.17578125,-47.36328125,-16.6015625,-24.90234375,-45.41015625,-46.38671875,0.0
162.1796875,-59.08203125,-27.83203125,-29.296875,-54.6875,-104.98046875,0.0
162.18359375,-28.80859375,-33.69140625,-20.5078125,-51.26953125,-49.8046875,0.0
162.1875,-11.23046875,-36.1328125,-19.04296875,-41.9921875,-44.921875,0.0
162.19140625,-31.73828125,-32.71484375,-27.34375,-35.15625,-8.30078125,0.0
162.1953125,-60.05859375,-34.1796875,-33.203125,-41.50390625,23.4375,0.0
162.19921875,-57.12890625,-37.59765625,-32.2265625,-48.828125,-54.6875,0.0
162.203125,-26.85546875,-36.1328125,-20.01953125,-40.52734375,-41.015625,0.0
162.20703125,-6.8359375,-34.66796875,-17.578125,-31.25,-5.37109375,0.0
162.2109375,-25.87890625,-31.73828125,-27.34375,-30.76171875,42.96875,0.0
162.21484375,-64.94140625,-37.109375,-36.62109375,-43.45703125,38.0859375,0.0
162.21875,-58.59375,-32.71484375,-33.203125,-45.8984375,-19.04296875,0.0
162.22265625,-26.85546875,-28.3203125,-23.4375,-39.0625,3.90625,0.0
162.2265625,-11.71875,-32.2265625,-13.18359375,-33.69140625,139.16015625,0.0
162.23046875,-23.92578125,-35.64453125,-22.4609375,-39.55078125,135.25390625,0.0
162.234375,-59.08203125,-39.55078125,-38.57421875,-42.48046875,23.4375,0.0
162.23828125,-68.84765625,-40.0390625,-31.73828125,-41.015625,-48.33984375,0.0
162.2421875,-43.9453125,-39.0625,-18.5546875,-39.55078125,-62.98828125,0.0
162.24609375,-12.20703125,-29.296875,-14.6484375,-29.78515625,-7.8125,0.0
162.25,-18.5546875,-26.85546875,-21.97265625,-25.87890625,-19.53125,0.0
162.25390625,-55.6640625,-27.83203125,-30.2734375,-28.3203125,-26.3671875,0.0
162.2578125,-70.80078125,-34.1796875,-36.62109375,-41.50390625,0.9765625,0.0
162.26171875,-38.0859375,-35.64453125,-20.5078125,-36.1328125,-81.0546875,0.0
162.265625,-0.48828125,-20.01953125,0.9765625,-15.625,-47.36328125,0.0
162.26953125,-18.5546875,-22.94921875,-18.5546875,-35.15625,104.98046875,0.0
162.2734375,-52.24609375,-35.15625,-38.57421875,-50.29296875,66.89453125,0.0
162.27734375,-66.40625,-37.109375,-40.0390625,-58.10546875,-64.453125,0.0
162.28125,-50.29296875,-33.69140625,-36.62109375,-57.6171875,-69.82421875,0.0
162.28515625,-21.484375,-31.73828125,-33.203125,-41.9921875,10.25390625,0.0
162.2890625,-26.85546875,-30.76171875,-33.69140625,-41.9921875,26.3671875,0.0
162.29296875,-65.4296875,-37.59765625,-41.9921875,-49.31640625,-45.8984375,0.0
162.296875,-80.078125,-35.64453125,-39.0625,-54.19921875,-81.0546875,0.0
162.30078125,-60.546875,-20.99609375,-31.73828125,-46.38671875,-99.609375,0.0
162.3046875,-31.73828125,-17.578125,-22.4609375,-34.66796875,-134.27734375,0.0
162.30859375,-11.71875,-12.20703125,-20.99609375,-25.390625,-118.65234375,0.0
162.3125,-38.57421875,-18.5546875,-34.1796875,-33.203125,-8.7890625,0.0
162.31640625,-72.265625,-31.73828125,-39.55078125,-50.78125,-10.7421875,0.0
162.3203125,-55.6640625,-33.69140625,-32.2265625,-38.57421875,-23.92578125,0.0
162.32421875,-25.390625,-32.2265625,-27.83203125,-30.2734375,-4.8828125,0.0
162.328125,-13.18359375,-31.25,-33.203125,-43.45703125,44.921875,0.0
162.33203125,-29.78515625,-29.296875,-41.9921875,-52.24609375,90.8203125,0.0
162.3359375,-54.19921875,-34.66796875,-48.33984375,-66.40625,31.25,0.0
162.33984375,-48.33984375,-36.1328125,-39.55078125,-72.75390625,19.53125,0.0
162.34375,-12.6953125,-31.25,-25.87890625,-45.41015625,-7.8125,0.0
162.34765625,3.41796875,-32.2265625,-27.34375,-31.25,-78.61328125,0.0
162.3515625,-13.671875,-38.0859375,-38.0859375,-40.0390625,-54.6875,0.0
162.35546875,-42.96875,-37.59765625,-44.921875,-49.31640625,-75.68359375,0.0
162.359375,-45.41015625,-35.15625,-39.55078125,-41.9921875,-31.25,0.0
162.36328125,-17.08984375,-37.109375,-28.80859375,-29.78515625,45.41015625,0.0
162.3671875,-1.953125,-36.1328125,-23.4375,-27.83203125,-18.06640625,0.0
162.37109375,-15.13671875,-37.109375,-33.69140625,-24.90234375,-52.24609375,0.0
162.375,-46.38671875,-38.0859375,-47.8515625,-27.34375,-24.4140625,0.0
162.37890625,-60.05859375,-31.73828125,-41.9921875,-42.96875,34.1796875,0.0
162.3828125,-36.1328125,-23.4375,-26.85546875,-43.9453125,64.94140625,0.0
162.38671875,-15.625,-23.92578125,-24.4140625,-40.0390625,49.31640625,0.0
162.390625,-28.80859375,-35.64453125,-34.66796875,-59.08203125,55.6640625,0.0
162.39453125,-55.17578125,-37.59765625,-35.15625,-52.24609375,50.78125,0.0
162.3984375,-55.17578125,-27.34375,-27.34375,-30.76171875,-35.64453125,0.0
162.40234375,-21.484375,-20.5078125,-17.578125,-27.34375,-20.5078125,0.0
162.40625,0.9765625,-22.94921875,-16.11328125,-31.73828125,42.48046875,0.0
162.41015625,-3.41796875,-24.90234375,-25.87890625,-35.64453125,57.6171875,0.0
162.4140625,-19.53125,-21.97265625,-24.90234375,-22.94921875,-55.6640625,0.0
162.41796875,-43.45703125,-25.87890625,-28.80859375,-32.71484375,-126.46484375,0.0
162.421875,-32.71484375,-34.66796875,-33.203125,-43.45703125,-107.421875,0.0
162.42578125,-2.9296875,-25.390625,-23.4375,-30.76171875,-39.55078125,0.0
162.4296875,-1.46484375,-16.11328125,-21.97265625,-29.296875,-24.90234375,0.0
162.43359375,-40.0390625,-31.25,-36.1328125,-40.0390625,-111.81640625,0.0
162.4375,-57.6171875,-36.62109375,-41.015625,-52.734375,-152.34375,0.0
162.44140625,-35.15625,-25.390625,-23.92578125,-44.43359375,-134.765625,0.0
162.4453125,-10.25390625,-22.94921875,-14.6484375,-24.90234375,-96.6796875,0.0
162.44921875,-14.6484375,-30.76171875,-31.25,-36.62109375,-109.375,0.0
162.453125,-44.43359375,-31.73828125,-43.45703125,-49.8046875,-151.85546875,0.0
162.45703125,-46.875,-23.4375,-26.3671875,-34.66796875,-113.76953125,0.0
162.4609375,-29.78515625,-20.01953125,-16.6015625,-31.25,-50.78125,0.0
162.46484375,-18.06640625,-28.80859375,-29.296875,-41.015625,-132.32421875,0.0
162.46875,-14.16015625,-29.296875,-30.2734375,-30.76171875,-69.82421875,0.0
162.47265625,-31.25,-38.0859375,-35.15625,-34.1796875,-0.9765625,0.0
162.4765625,-45.8984375,-48.33984375,-33.69140625,-41.50390625,-148.92578125,0.0
162.48046875,-31.25,-33.69140625,-29.78515625,-34.66796875,-58.59375,0.0
162.484375,0.48828125,-19.04296875,-29.296875,-35.15625,40.52734375,0.0
162.48828125,1.46484375,-21.484375,-27.34375,-30.2734375,0.9765625,0.0
162.4921875,-23.4375,-25.87890625,-34.66796875,-31.25,21.484375,0.0
162.49609375,-42.48046875,-33.69140625,-38.0859375,-46.38671875,-51.7578125,0.0
162.5,-35.15625,-32.2265625,-33.203125,-36.62109375,-119.140625,0.0
162.50390625,-5.859375,-20.01953125,-20.01953125,-25.390625,-78.61328125,0.0
162.5078125,0.48828125,-25.390625,-22.94921875,-36.62109375,-50.78125,0.0
162.51171875,-23.4375,-36.1328125,-35.15625,-42.48046875,12.20703125,0.0
162.515625,-43.45703125,-39.55078125,-39.55078125,-50.29296875,7.32421875,0.0
162.51953125,-37.59765625,-37.109375,-34.1796875,-60.05859375,-82.03125,0.0
162.5234375,-16.6015625,-32.2265625,-32.71484375,-62.01171875,-100.09765625,0.0
162.52734375,-7.8125,-27.34375,-35.15625,-59.08203125,-38.57421875,0.0
162.53125,-23.92578125,-21.97265625,-34.1796875,-55.17578125,44.43359375,0.0
162.53515625,-53.22265625,-24.90234375,-37.109375,-64.94140625,-13.18359375,0.0
162.5390625,-62.98828125,-22.4609375,-41.015625,-68.359375,-94.7265625,0.0
162.54296875,-41.50390625,-20.01953125,-39.0625,-66.40625,-33.69140625,0.0
162.546875,-19.53125,-8.7890625,-25.390625,-50.78125,-31.25,0.0
162.55078125,-24.4140625,3.90625,-17.578125,-43.45703125,-24.90234375,0.0
162.5546875,-55.6640625,-0.9765625,-39.55078125,-70.3125,-41.9921875,0.0
162.55859375,-77.1484375,-8.30078125,-34.1796875,-71.77734375,-86.9140625,0.0
162.5625,-68.84765625,-6.8359375,-12.20703125,-81.54296875,-89.84375,0.0
162.56640625,-63.4765625,-6.8359375,-20.5078125,-105.95703125,-6.34765625,0.0
162.5703125,-82.03125,-16.11328125,-33.69140625,-106.93359375,44.43359375,0.0
162.57421875,-104.00390625,-14.6484375,-45.8984375,-125.9765625,-32.71484375,0.0
162.578125,-122.0703125,-1.953125,-30.76171875,-125.0,-13.671875,0.0
162.58203125,-114.74609375,9.27734375,-24.4140625,-120.1171875,18.06640625,0.0
162.5859375,-92.7734375,18.5546875,-8.30078125,-125.0,93.75,0.0
162.58984375,-104.98046875,12.20703125,-6.8359375,-122.55859375,94.7265625,0.0
162.59375,-138.18359375,11.71875,-25.390625,-130.37109375,-23.4375,0.0
162.59765625,-163.0859375,15.625,-18.06640625,-152.83203125,-35.64453125,0.0
162.6015625,-146.484375,25.390625,-15.625,-151.85546875,18.06640625,0.0
162.60546875,-126.46484375,34.1796875,-6.8359375,-145.5078125,85.44921875,0.0
162.609375,-136.71875,32.71484375,-5.37109375,-150.390625,119.62890625,0.0
162.61328125,-167.96875,29.296875,-15.13671875,-160.15625,115.234375,0.0
162.6171875,-191.89453125,32.71484375,-18.06640625,-169.43359375,71.77734375,0.0
162.62109375,-172.36328125,38.0859375,-10.7421875,-162.59765625,3.90625,0.0
162.625,-144.53125,38.0859375,-7.8125,-156.25,17.08984375,0.0
162.62890625,-132.8125,42.96875,-12.6953125,-143.5546875,103.02734375,0.0
162.6328125,-153.3203125,45.8984375,-19.04296875,-145.99609375,62.5,0.0
162.63671875,-169.43359375,43.9453125,-8.7890625,-146.484375,-24.4140625,0.0
162.640625,-141.6015625,38.57421875,6.8359375,-120.60546875,-26.85546875,0.0
162.64453125,-103.515625,35.64453125,-7.8125,-117.1875,7.32421875,0.0
162.6484375,-85.44921875,31.25,-10.7421875,-100.09765625,42.96875,0.0
162.65234375,-110.83984375,17.08984375,-9.765625,-94.7265625,60.546875,0.0
162.65625,-117.67578125,8.30078125,-17.08984375,-98.6328125,55.17578125,0.0
162.66015625,-83.984375,9.765625,-17.08984375,-93.75,19.04296875,0.0
162.6640625,-46.38671875,7.32421875,-14.6484375,-76.66015625,9.765625,0.0
162.66796875,-35.64453125,-4.39453125,-15.625,-61.03515625,25.87890625,0.0
162.671875,-63.96484375,-16.6015625,-20.5078125,-54.19921875,46.38671875,0.0
162.67578125,-68.84765625,-24.90234375,-30.2734375,-42.96875,15.625,0.0
162.6796875,-44.921875,-31.25,-36.62109375,-30.2734375,36.62109375,0.0
162.68359375,-3.41796875,-31.25,-20.99609375,-16.11328125,90.33203125,0.0
162.6875,18.5546875,-44.43359375,-17.578125,-11.23046875,81.54296875,0.0
162.69140625,0.9765625,-63.4765625,-41.9921875,4.39453125,-16.11328125,0.0
162.6953125,-6.34765625,-65.4296875,-44.921875,30.2734375,-95.703125,0.0
162.69921875,11.71875,-61.5234375,-42.48046875,26.3671875,-14.6484375,0.0
162.703125,36.62109375,-69.3359375,-41.9921875,29.78515625,62.5,0.0
162.70703125,53.7109375,-78.125,-35.64453125,57.6171875,56.640625,0.0
162.7109375,49.31640625,-85.9375,-34.66796875,68.359375,-16.11328125,0.0
162.71484375,36.1328125,-93.26171875,-43.9453125,70.80078125,-109.375,0.0
162.71875,44.921875,-89.84375,-46.875,74.21875,-79.1015625,0.0
162.72265625,83.49609375,-84.9609375,-38.57421875,79.58984375,-10.25390625,0.0
162.7265625,124.0234375,-75.68359375,-31.73828125,102.05078125,-15.13671875,0.0
162.73046875,133.7890625,-66.89453125,-29.296875,110.3515625,-50.78125,0.0
162.734375,97.65625,-84.9609375,-41.9921875,103.02734375,-132.8125,0.0
162.73828125,79.1015625,-96.19140625,-46.875,110.3515625,-155.76171875,0.0
162.7421875,101.07421875,-90.8203125,-41.50390625,126.46484375,-102.5390625,0.0
162.74609375,119.62890625,-84.9609375,-45.41015625,127.44140625,50.29296875,0.0
162.75,109.375,-86.9140625,-48.828125,112.3046875,114.2578125,0.0
162.75390625,71.2890625,-91.796875,-49.8046875,116.69921875,64.453125,0.0
162.7578125,66.40625,-86.42578125,-45.41015625,131.34765625,61.5234375,0.0
162.76171875,94.7265625,-89.35546875,-36.62109375,126.46484375,-12.20703125,0.0
162.765625,115.72265625,-91.30859375,-39.55078125,126.46484375,-19.04296875,0.0
162.76953125,107.421875,-94.23828125,-43.45703125,112.3046875,-10.25390625,0.0
162.7734375,80.078125,-94.7265625,-43.9453125,100.09765625,-27.83203125,0.0
162.77734375,70.3125,-91.796875,-47.36328125,103.02734375,-48.828125,0.0
162.78125,95.21484375,-94.23828125,-41.9921875,101.5625,-80.078125,0.0
162.78515625,118.65234375,-86.42578125,-31.73828125,127.9296875,-16.11328125,0.0
162.7890625,124.0234375,-80.56640625,-22.94921875,144.53125,-6.8359375,0.0
162.79296875,91.30859375,-91.30859375,-32.2265625,114.2578125,57.12890625,0.0
162.796875,59.5703125,-97.16796875,-44.921875,110.83984375,-32.2265625,0.0
162.80078125,91.30859375,-86.9140625,-35.64453125,123.53515625,-124.0234375,0.0
162.8046875,107.421875,-78.125,-22.94921875,111.81640625,-55.17578125,0.0
162.80859375,85.44921875,-80.078125,-28.3203125,115.234375,-21.97265625,0.0
162.8125,58.59375,-86.42578125,-36.62109375,109.86328125,-20.99609375,0.0
162.81640625,49.31640625,-83.0078125,-32.2265625,107.91015625,-92.28515625,0.0
162.8203125,64.453125,-78.125,-22.94921875,127.9296875,-47.8515625,0.0
162.82421875,85.9375,-87.40234375,-22.4609375,127.9296875,-4.8828125,0.0
162.828125,94.23828125,-84.47265625,-29.78515625,128.41796875,-19.04296875,0.0
162.83203125,74.70703125,-68.359375,-24.90234375,131.34765625,-6.34765625,0.0
162.8359375,42.96875,-62.01171875,-20.01953125,114.74609375,-22.4609375,0.0
162.83984375,35.64453125,-77.63671875,-34.1796875,73.73046875,-31.73828125,0.0
162.84375,72.265625,-76.66015625,-25.390625,99.12109375,-17.578125,0.0
162.84765625,86.42578125,-68.84765625,-19.04296875,110.3515625,-17.08984375,0.0
162.8515625,50.78125,-71.2890625,-27.34375,77.63671875,2.44140625,0.0
162.85546875,13.18359375,-73.73046875,-30.2734375,67.3828125,-63.4765625,0.0
162.859375,18.06640625,-72.265625,-28.3203125,64.94140625,-175.29296875,0.0
162.86328125,46.38671875,-61.5234375,-28.3203125,60.05859375,-115.72265625,0.0
162.8671875,45.8984375,-56.640625,-23.4375,68.84765625,-17.08984375,0.0
162.87109375,26.3671875,-58.59375,-28.3203125,76.171875,-28.3203125,0.0
162.875,0.48828125,-56.15234375,-36.1328125,60.05859375,-54.6875,0.0
162.87890625,-8.7890625,-41.50390625,-27.34375,48.33984375,-31.73828125,0.0
162.8828125,10.7421875,-41.015625,-23.4375,38.0859375,-25.390625,0.0
162.88671875,25.390625,-48.33984375,-29.78515625,35.15625,-22.4609375,0.0
162.890625,6.34765625,-53.22265625,-38.0859375,32.2265625,15.13671875,0.0
162.89453125,-26.3671875,-53.22265625,-43.45703125,20.01953125,23.4375,0.0
162.8984375,-28.80859375,-50.29296875,-42.96875,9.765625,-39.0625,0.0
162.90234375,-4.8828125,-51.26953125,-32.2265625,15.13671875,-46.38671875,0.0
162.90625,27.83203125,-40.52734375,-30.2734375,26.85546875,28.3203125,0.0
162.91015625,7.8125,-40.52734375,-37.109375,14.16015625,114.2578125,0.0
162.9140625,-41.9921875,-44.921875,-37.59765625,10.7421875,102.5390625,0.0
162.91796875,-47.36328125,-46.38671875,-39.0625,7.8125,6.34765625,0.0
162.921875,-13.671875,-38.0859375,-22.4609375,13.18359375,-50.78125,0.0
162.92578125,30.2734375,-15.625,1.953125,49.31640625,-30.76171875,0.0
162.9296875,23.92578125,-18.06640625,-9.27734375,42.96875,-32.71484375,0.0
162.93359375,-20.5078125,-34.1796875,-37.59765625,11.71875,-80.078125,0.0
162.9375,-35.15625,-39.0625,-37.59765625,1.953125,-91.30859375,0.0
162.94140625,-21.97265625,-42.96875,-17.08984375,13.18359375,13.18359375,0.0
162.9453125,4.39453125,-37.59765625,-16.6015625,24.90234375,50.29296875,0.0
162.94921875,10.25390625,-29.296875,-22.94921875,16.6015625,39.0625,0.0
162.953125,-26.85546875,-32.2265625,-21.97265625,15.13671875,-32.71484375,0.0
162.95703125,-46.875,-33.203125,-28.3203125,17.08984375,-76.171875,0.0
162.9609375,-29.78515625,-32.2265625,-27.34375,33.69140625,-18.06640625,0.0
162.96484375,-11.71875,-30.2734375,-22.94921875,12.6953125,57.6171875,0.0
162.96875,-5.37109375,-27.83203125,-17.08984375,16.11328125,13.671875,0.0
162.97265625,-30.76171875,-29.78515625,-19.53125,23.4375,-46.875,0.0
162.9765625,-51.7578125,-37.109375,-29.296875,1.46484375,-33.69140625,0.0
162.98046875,-36.1328125,-34.1796875,-26.85546875,-14.16015625,-10.25390625,0.0
162.984375,-9.765625,-34.66796875,-23.4375,7.32421875,68.359375,0.0
162.98828125,-6.8359375,-37.59765625,-20.99609375,19.04296875,119.140625,0.0
162.9921875,-37.59765625,-41.50390625,-33.203125,-2.44140625,108.88671875,0.0
162.99609375,-62.98828125,-40.52734375,-42.96875,-23.4375,105.95703125,0.0
163.0,-56.640625,-40.52734375,-33.69140625,-30.2734375,5.859375,0.0
163.00390625,-18.06640625,-37.59765625,-27.34375,-2.44140625,-69.3359375,0.0
163.0078125,-5.859375,-30.76171875,-31.73828125,14.16015625,-46.875,0.0
163.01171875,-21.484375,-28.3203125,-28.3203125,13.671875,-131.8359375,0.0
163.015625,-32.2265625,-19.04296875,-14.6484375,11.71875,-120.1171875,0.0
163.01953125,-46.38671875,-23.4375,-22.4609375,6.8359375,-39.55078125,0.0
163.0234375,-32.2265625,-29.78515625,-29.78515625,1.953125,25.87890625,0.0
163.02734375,-13.671875,-31.73828125,-18.06640625,8.30078125,70.3125,0.0
163.03125,-35.64453125,-37.109375,-25.390625,-14.6484375,72.75390625,0.0
163.03515625,-63.96484375,-39.0625,-35.64453125,-26.85546875,27.34375,0.0
163.0390625,-67.87109375,-42.96875,-29.78515625,-0.9765625,11.71875,0.0
163.04296875,-41.9921875,-38.57421875,-20.99609375,1.953125,82.03125,0.0
163.046875,-9.765625,-34.1796875,-20.01953125,9.27734375,115.234375,0.0
163.05078125,-27.34375,-42.48046875,-30.2734375,7.32421875,27.83203125,0.0
163.0546875,-67.3828125,-43.9453125,-45.8984375,-25.390625,-85.9375,0.0
163.05859375,-72.265625,-31.73828125,-40.0390625,-28.80859375,-104.98046875,0.0
163.0625,-44.43359375,-34.1796875,-15.13671875,19.53125,-17.578125,0.0
163.06640625,-20.01953125,-40.0390625,-16.6015625,33.69140625,40.0390625,0.0
163.0703125,-40.0390625,-38.0859375,-28.80859375,17.08984375,3.41796875,0.0
163.07421875,-62.98828125,-40.0390625,-32.71484375,31.73828125,-31.73828125,0.0
163.078125,-55.17578125,-45.8984375,-28.3203125,47.36328125,-112.3046875,0.0
163.08203125,-32.71484375,-46.38671875,-33.69140625,36.1328125,-108.88671875,0.0
163.0859375,-17.08984375,-29.78515625,-35.64453125,33.69140625,-4.8828125,0.0
163.08984375,-24.90234375,-26.3671875,-36.62109375,23.4375,-2.44140625,0.0
163.09375,-53.22265625,-34.66796875,-49.8046875,20.01953125,-20.01953125,0.0
163.09765625,-56.640625,-28.3203125,-52.734375,15.625,-91.30859375,0.0
163.1015625,-14.6484375,-16.6015625,-38.0859375,31.73828125,-122.55859375,0.0
163.10546875,26.3671875,-11.23046875,-12.6953125,71.77734375,-52.24609375,0.0
163.109375,8.7890625,-23.4375,-26.85546875,69.82421875,-79.1015625,0.0
163.11328125,-25.87890625,-32.2265625,-49.31640625,25.390625,-70.80078125,0.0
163.1171875,-44.43359375,-30.76171875,-41.015625,17.578125,-41.50390625,0.0
163.12109375,-41.015625,-27.83203125,-31.25,35.15625,-31.25,0.0
163.125,-15.625,-27.83203125,-30.76171875,25.390625,30.2734375,0.0
163.12890625,8.7890625,-23.4375,-33.203125,24.90234375,79.58984375,0.0
163.1328125,-4.8828125,-14.6484375,-35.64453125,40.0390625,4.39453125,0.0
163.13671875,-26.85546875,-24.90234375,-42.96875,34.66796875,-51.7578125,0.0
163.140625,-20.5078125,-30.2734375,-39.0625,20.5078125,-67.3828125,0.0
163.14453125,-11.71875,-21.484375,-23.92578125,32.71484375,-16.11328125,0.0
163.1484375,9.27734375,-18.5546875,-25.87890625,28.3203125,-20.99609375,0.0
163.15234375,-8.30078125,-22.4609375,-34.1796875,23.92578125,-30.76171875,0.0
163.15625,-58.10546875,-24.4140625,-48.33984375,4.8828125,-21.484375,0.0
163.16015625,-43.45703125,-20.5078125,-41.9921875,-21.97265625,-47.36328125,0.0
163.1640625,14.6484375,-13.671875,-20.01953125,-6.8359375,-36.1328125,0.0
163.16796875,13.18359375,-21.97265625,-16.6015625,37.109375,9.27734375,0.0
163.171875,-13.671875,-28.3203125,-30.76171875,33.203125,55.6640625,0.0
163.17578125,-21.484375,-29.296875,-43.45703125,0.48828125,58.59375,0.0
163.1796875,-9.765625,-27.83203125,-32.71484375,13.671875,-16.6015625,0.0
163.18359375,25.390625,-27.34375,-22.94921875,27.83203125,2.44140625,0.0
163.1875,33.69140625,-30.76171875,-23.92578125,25.390625,118.1640625,0.0
163.19140625,24.90234375,-15.13671875,-25.87890625,16.6015625,95.703125,0.0
163.1953125,0.9765625,-12.6953125,-22.4609375,22.94921875,24.90234375,0.0
163.19921875,-6.8359375,-24.90234375,-36.1328125,-2.44140625,44.921875,0.0
163.203125,24.4140625,-27.83203125,-36.62109375,-6.34765625,27.83203125,0.0
163.20703125,41.015625,-31.25,-26.85546875,6.8359375,-25.87890625,0.0
163.2109375,30.76171875,-29.296875,-33.203125,13.18359375,-8.7890625,0.0
163.21484375,-0.9765625,-36.1328125,-38.57421875,23.4375,-34.1796875,0.0
163.21875,-13.671875,-39.55078125,-27.83203125,1.46484375,-88.37890625,0.0
163.22265625,19.53125,-30.76171875,-15.13671875,16.6015625,-120.60546875,0.0
163.2265625,36.1328125,-23.92578125,-20.5078125,16.6015625,-24.4140625,0.0
163.23046875,19.04296875,-22.4609375,-31.73828125,-0.9765625,23.92578125,0.0
163.234375,-10.7421875,-29.296875,-37.59765625,11.71875,-41.015625,0.0
163.23828125,-13.18359375,-28.3203125,-37.109375,13.671875,-44.921875,0.0
163.2421875,19.53125,-22.4609375,-28.3203125,18.06640625,-28.3203125,0.0
163.24609375,23.4375,-29.78515625,-22.4609375,5.859375,-157.2265625,0.0
163.25,12.6953125,-33.203125,-32.71484375,-15.625,-220.21484375,0.0
163.25390625,-4.39453125,-28.3203125,-34.1796875,23.92578125,-166.015625,0.0
163.2578125,-15.13671875,-31.25,-30.76171875,34.66796875,-121.58203125,0.0
163.26171875,6.8359375,-30.2734375,-33.69140625,-0.9765625,-3.41796875,0.0
163.265625,31.73828125,-22.4609375,-28.3203125,3.41796875,139.6484375,0.0
163.26953125,28.3203125,-25.390625,-26.3671875,12.20703125,201.66015625,0.0
163.2734375,-12.20703125,-31.73828125,-34.66796875,4.39453125,83.49609375,0.0
163.27734375,-36.62109375,-30.76171875,-35.64453125,-8.30078125,7.32421875,0.0
163.28125,-17.578125,-28.3203125,-29.78515625,-10.25390625,-6.34765625,0.0
163.28515625,9.765625,-26.85546875,-15.13671875,15.625,-34.66796875,0.0
163.2890625,16.11328125,-20.5078125,-18.06640625,13.18359375,53.22265625,0.0
163.29296875,-26.3671875,-30.76171875,-32.2265625,-8.7890625,50.78125,0.0
163.296875,-35.64453125,-26.3671875,-24.90234375,2.44140625,-18.06640625,0.0
163.30078125,2.9296875,-5.37109375,-7.32421875,12.20703125,-45.8984375,0.0
163.3046875,15.13671875,-20.99609375,-14.16015625,5.859375,-2.44140625,0.0
163.30859375,6.34765625,-33.203125,-19.04296875,3.90625,122.55859375,0.0
163.3125,-29.78515625,-39.55078125,-25.390625,-11.23046875,79.1015625,0.0
163.31640625,-54.6875,-44.921875,-37.59765625,-39.0625,-104.98046875,0.0
163.3203125,-44.43359375,-39.55078125,-30.2734375,-19.53125,-107.421875,0.0
163.32421875,-19.04296875,-36.1328125,-21.484375,15.13671875,29.296875,0.0
163.328125,-7.32421875,-29.296875,-26.3671875,-5.859375,103.02734375,0.0
163.33203125,-30.76171875,-25.390625,-36.1328125,-23.92578125,99.609375,0.0
163.3359375,-61.03515625,-28.3203125,-44.43359375,-43.9453125,18.5546875,0.0
163.33984375,-52.734375,-22.4609375,-42.48046875,-36.1328125,-58.59375,0.0
163.34375,-5.859375,-7.8125,-14.6484375,7.8125,-0.9765625,0.0
163.34765625,-3.90625,-13.18359375,-18.06640625,-9.765625,20.5078125,0.0
163.3515625,-40.52734375,-35.15625,-36.62109375,-15.13671875,-89.84375,0.0
163.35546875,-61.03515625,-30.76171875,-32.71484375,-10.7421875,-190.91796875,0.0
163.359375,-52.734375,-27.34375,-22.4609375,-5.37109375,-208.0078125,0.0
163.36328125,-32.2265625,-35.64453125,-23.4375,-18.5546875,-106.93359375,0.0
163.3671875,-26.85546875,-34.66796875,-31.25,-31.25,6.34765625,0.0
163.37109375,-45.41015625,-32.2265625,-37.109375,-26.3671875,24.90234375,0.0
163.375,-69.82421875,-40.0390625,-38.57421875,-28.3203125,-5.859375,0.0
163.37890625,-73.2421875,-45.8984375,-31.25,-16.6015625,12.20703125,0.0
163.3828125,-40.0390625,-37.109375,-25.390625,-16.11328125,57.12890625,0.0
163.38671875,-8.30078125,-29.78515625,-23.92578125,-25.87890625,119.140625,0.0
163.390625,-23.92578125,-25.87890625,-25.87890625,-4.39453125,128.41796875,0.0
163.39453125,-67.87109375,-34.66796875,-36.1328125,-5.859375,-55.17578125,0.0
163.3984375,-75.1953125,-41.9921875,-33.69140625,-14.16015625,-120.1171875,0.0
163.40234375,-54.19921875,-40.0390625,-20.01953125,-0.48828125,-27.83203125,0.0
163.40625,-26.3671875,-34.1796875,-25.87890625,-23.92578125,60.546875,0.0
163.41015625,-26.85546875,-28.80859375,-30.2734375,-21.97265625,95.21484375,0.0
163.4140625,-76.66015625,-30.2734375,-31.73828125,-20.5078125,52.24609375,0.0
163.41796875,-79.1015625,-29.78515625,-34.66796875,-42.96875,-65.4296875,0.0
163.421875,-36.1328125,-29.78515625,-21.484375,-40.0390625,-19.04296875,0.0
163.42578125,-20.01953125,-29.78515625,-17.578125,-27.83203125,60.546875,0.0
163.4296875,-28.80859375,-32.71484375,-20.01953125,-35.64453125,76.171875,0.0
163.43359375,-62.01171875,-28.3203125,-28.3203125,-41.9921875,8.7890625,0.0
163.4375,-76.171875,-32.71484375,-37.109375,-39.0625,-93.75,0.0
163.44140625,-34.66796875,-38.0859375,-28.3203125,-18.5546875,-3.41796875,0.0
163.4453125,-14.6484375,-26.85546875,-27.34375,-3.90625,28.3203125,0.0
163.44921875,-53.7109375,-27.34375,-19.53125,-19.04296875,41.50390625,0.0
163.453125,-77.63671875,-44.921875,-23.4375,-27.34375,26.85546875,0.0
163.45703125,-62.98828125,-51.26953125,-33.203125,-47.36328125,-57.12890625,0.0
163.4609375,-42.96875,-46.38671875,-17.578125,-13.671875,-65.4296875,0.0
163.46484375,-15.625,-40.52734375,-14.16015625,15.13671875,-5.859375,0.0
163.46875,-3.90625,-41.50390625,-26.85546875,-5.37109375,31.73828125,0.0
163.47265625,-38.0859375,-43.9453125,-38.0859375,-5.37109375,-24.4140625,0.0
163.4765625,-62.5,-38.0859375,-30.76171875,-7.8125,-56.15234375,0.0
163.48046875,-38.57421875,-36.1328125,-23.4375,-7.8125,-77.1484375,0.0
163.484375,-2.44140625,-35.15625,-28.3203125,-16.6015625,-125.9765625,0.0
163.48828125,1.46484375,-38.57421875,-29.296875,-19.53125,-95.21484375,0.0
163.4921875,1.46484375,-23.92578125,-20.01953125,3.41796875,-79.1015625,0.0
163.49609375,9.27734375,-7.8125,4.39453125,14.6484375,-90.8203125,0.0
163.5,-5.37109375,-29.78515625,-6.34765625,19.53125,-24.4140625,0.0
163.50390625,9.27734375,-39.55078125,-21.484375,22.94921875,42.96875,0.0
163.5078125,22.94921875,-36.1328125,-21.484375,1.953125,22.94921875,0.0
163.51171875,-7.32421875,-39.55078125,-27.83203125,-3.41796875,63.4765625,0.0
163.515625,-43.9453125,-45.8984375,-32.2265625,-11.71875,42.96875,0.0
163.51953125,-37.109375,-43.45703125,-33.69140625,-29.296875,56.15234375,0.0
163.5234375,3.90625,-34.1796875,-27.34375,-16.11328125,55.17578125,0.0
163.52734375,17.08984375,-31.25,-23.4375,-14.16015625,66.40625,0.0
163.53125,0.0,-28.80859375,-30.2734375,-27.83203125,105.95703125,0.0
163.53515625,-30.76171875,-32.71484375,-36.62109375,-22.94921875,0.0,0.0
163.5390625,-33.69140625,-32.71484375,-26.85546875,-12.20703125,-124.51171875,0.0
163.54296875,-3.41796875,-29.78515625,-24.90234375,-18.06640625,-47.36328125,0.0
163.546875,12.6953125,-28.3203125,-25.87890625,-24.90234375,7.32421875,0.0
163.55078125,-0.9765625,-28.3203125,-24.90234375,-16.6015625,-77.63671875,0.0
163.5546875,-29.78515625,-31.25,-27.83203125,-18.5546875,-90.8203125,0.0
163.55859375,-33.203125,-32.71484375,-24.4140625,-30.76171875,30.76171875,0.0
163.5625,-8.30078125,-28.80859375,-19.53125,-30.76171875,53.22265625,0.0
163.56640625,20.5078125,-17.578125,-9.765625,-23.4375,22.94921875,0.0
163.5703125,2.9296875,-20.01953125,-15.625,-23.4375,43.45703125,0.0
163.57421875,-44.921875,-30.76171875,-34.1796875,-32.2265625,5.37109375,0.0
163.578125,-48.828125,-33.203125,-37.59765625,-40.52734375,-17.578125,0.0
163.58203125,-14.16015625,-27.83203125,-23.4375,-25.87890625,-61.03515625,0.0
163.5859375,13.671875,-18.06640625,-13.18359375,-4.8828125,-77.63671875,0.0
163.58984375,1.46484375,-20.01953125,-24.90234375,-24.90234375,-52.734375,0.0
163.59375,-33.203125,-29.296875,-29.296875,-35.15625,-65.4296875,0.0
163.59765625,-46.38671875,-33.203125,-29.296875,-32.71484375,-105.95703125,0.0
163.6015625,-22.94921875,-31.73828125,-27.83203125,-36.62109375,-38.0859375,0.0
163.60546875,1.46484375,-30.76171875,-30.2734375,-37.59765625,34.1796875,0.0
163.609375,0.0,-29.78515625,-33.203125,-20.01953125,74.21875,0.0
163.61328125,-32.2265625,-29.78515625,-39.55078125,-30.76171875,56.15234375,0.0
163.6171875,-47.8515625,-30.76171875,-41.015625,-56.640625,37.59765625,0.0
163.62109375,-27.83203125,-34.1796875,-29.296875,-52.24609375,128.41796875,0.0
163.625,0.0,-31.25,-21.484375,-35.15625,116.69921875,0.0
163.62890625,10.25390625,-22.94921875,-19.04296875,-19.04296875,20.01953125,0.0
163.6328125,-22.94921875,-29.296875,-25.87890625,-32.71484375,-7.8125,0.0
163.63671875,-50.29296875,-47.36328125,-37.109375,-50.78125,-48.828125,0.0
163.640625,-34.66796875,-42.48046875,-24.90234375,-40.52734375,-98.14453125,0.0
163.64453125,-1.953125,-28.80859375,-14.16015625,-28.80859375,-8.7890625,0.0
163.6484375,-0.9765625,-31.25,-27.34375,-46.38671875,120.60546875,0.0
163.65234375,-34.1796875,-33.69140625,-42.48046875,-65.91796875,98.14453125,0.0
163.65625,-54.19921875,-33.69140625,-39.55078125,-47.36328125,44.921875,0.0
163.66015625,-40.0390625,-30.2734375,-25.390625,-35.15625,10.25390625,0.0
163.6640625,-22.4609375,-34.66796875,-21.484375,-24.4140625,11.71875,0.0
163.66796875,-19.04296875,-38.57421875,-24.90234375,-20.99609375,35.15625,0.0
163.671875,-26.3671875,-23.4375,-24.4140625,-24.90234375,-22.94921875,0.0
163.67578125,-32.71484375,-8.30078125,-19.53125,-23.4375,-111.81640625,0.0
163.6796875,-41.50390625,-23.92578125,-23.92578125,-34.1796875,-184.5703125,0.0
163.68359375,-29.296875,-31.73828125,-21.97265625,-27.83203125,-226.5625,0.0
163.6875,-16.6015625,-23.4375,-17.08984375,-23.92578125,-126.953125,0.0
163.69140625,-42.48046875,-27.34375,-23.92578125,-28.80859375,-27.34375,0.0
163.6953125,-72.75390625,-34.66796875,-35.64453125,-36.62109375,-46.38671875,0.0
163.69921875,-62.01171875,-30.2734375,-36.1328125,-50.29296875,-0.9765625,0.0
163.703125,-22.4609375,-24.90234375,-34.66796875,-24.4140625,20.99609375,0.0
163.70703125,-20.5078125,-26.3671875,-24.90234375,-32.71484375,20.5078125,0.0
163.7109375,-57.12890625,-27.83203125,-16.6015625,-59.08203125,29.296875,0.0
163.71484375,-89.35546875,-28.80859375,-23.4375,-42.48046875,14.6484375,0.0
163.71875,-83.0078125,-29.78515625,-7.32421875,-30.2734375,-65.4296875,0.0
163.72265625,-57.6171875,-28.80859375,-1.953125,-37.109375,-59.08203125,0.0
163.7265625,-49.31640625,-29.296875,-16.11328125,-40.52734375,6.34765625,0.0
163.73046875,-62.5,-32.2265625,-16.6015625,-39.55078125,102.05078125,0.0
163.734375,-90.33203125,-33.69140625,-21.97265625,-59.5703125,100.5859375,0.0
163.73828125,-97.65625,-35.15625,-27.83203125,-63.4765625,15.13671875,0.0
163.7421875,-72.75390625,-34.66796875,-20.5078125,-44.921875,-45.41015625,0.0
163.74609375,-48.828125,-27.34375,-16.6015625,-37.109375,-94.23828125,0.0
163.75,-67.87109375,-32.2265625,-22.94921875,-41.50390625,-139.16015625,0.0
163.75390625,-98.14453125,-40.0390625,-30.2734375,-37.109375,-165.52734375,0.0
163.7578125,-99.609375,-38.57421875,-28.80859375,-43.9453125,-115.234375,0.0
163.76171875,-68.359375,-30.2734375,-20.5078125,-48.828125,-51.7578125,0.0
163.765625,-28.3203125,-17.578125,-8.30078125,-25.390625,-24.4140625,0.0
163.76953125,-45.41015625,-25.390625,-15.13671875,-23.92578125,-5.37109375,0.0
163.7734375,-88.8671875,-41.015625,-33.69140625,-47.8515625,-48.33984375,0.0
163.77734375,-98.6328125,-39.0625,-34.66796875,-47.36328125,-85.9375,0.0
163.78125,-83.49609375,-38.57421875,-23.92578125,-45.8984375,-34.66796875,0.0
163.78515625,-52.734375,-39.0625,-21.97265625,-44.43359375,43.9453125,0.0
163.7890625,-46.875,-31.25,-24.4140625,-47.8515625,36.1328125,0.0
163.79296875,-83.0078125,-33.69140625,-29.78515625,-65.91796875,2.9296875,0.0
163.796875,-98.6328125,-40.52734375,-37.109375,-56.15234375,7.32421875,0.0
163.80078125,-76.66015625,-34.66796875,-32.71484375,-54.19921875,14.6484375,0.0
163.8046875,-49.8046875,-29.296875,-26.3671875,-44.921875,1.46484375,0.0
163.80859375,-28.3203125,-19.53125,-13.18359375,-19.53125,37.59765625,0.0
163.8125,-60.546875,-22.4609375,-18.5546875,-22.94921875,80.078125,0.0
163.81640625,-95.21484375,-36.62109375,-35.64453125,-51.26953125,76.66015625,0.0
163.8203125,-68.84765625,-37.59765625,-25.87890625,-55.17578125,-3.41796875,0.0
163.82421875,-39.0625,-33.69140625,-12.20703125,-30.76171875,-43.45703125,0.0
163.828125,-34.1796875,-35.64453125,-22.4609375,-35.64453125,-20.01953125,0.0
163.83203125,-60.05859375,-37.59765625,-38.0859375,-45.41015625,-71.77734375,0.0
163.8359375,-75.68359375,-35.64453125,-39.0625,-37.59765625,-131.34765625,0.0
163.83984375,-60.546875,-36.62109375,-31.73828125,-33.69140625,-124.0234375,0.0
163.84375,-33.203125,-32.2265625,-19.04296875,-24.4140625,-105.46875,0.0
163.84765625,-23.92578125,-27.34375,-17.08984375,-21.97265625,-3.41796875,0.0
163.8515625,-42.96875,-24.4140625,-23.4375,-30.2734375,169.921875,0.0
163.85546875,-64.94140625,-22.94921875,-28.3203125,-48.33984375,158.69140625,0.0
163.859375,-64.94140625,-26.85546875,-27.83203125,-54.19921875,37.109375,0.0
163.86328125,-36.1328125,-30.76171875,-22.94921875,-37.59765625,44.43359375,0.0
163.8671875,-22.94921875,-31.25,-20.99609375,-20.5078125,97.16796875,0.0
163.87109375,-44.43359375,-31.73828125,-31.73828125,-43.9453125,10.25390625,0.0
163.875,-75.1953125,-38.57421875,-35.64453125,-56.15234375,-97.65625,0.0
163.87890625,-72.265625,-37.59765625,-29.78515625,-38.0859375,-89.35546875,0.0
163.8828125,-37.109375,-31.25,-26.85546875,-35.64453125,-39.55078125,0.0
163.88671875,-24.4140625,-30.76171875,-25.390625,-37.59765625,-18.5546875,0.0
163.890625,-42.48046875,-34.66796875,-29.296875,-39.55078125,30.76171875,0.0
163.89453125,-69.3359375,-36.1328125,-27.83203125,-31.25,-15.625,0.0
163.8984375,-71.2890625,-30.76171875,-28.3203125,-34.1796875,-52.734375,0.0
163.90234375,-43.9453125,-30.2734375,-24.90234375,-38.57421875,-32.71484375,0.0
163.90625,-25.390625,-30.76171875,-29.296875,-34.1796875,-36.1328125,0.0
163.91015625,-31.25,-28.3203125,-34.66796875,-39.0625,8.30078125,0.0
163.9140625,-54.19921875,-23.92578125,-28.80859375,-38.57421875,-33.203125,0.0
163.91796875,-67.3828125,-29.78515625,-32.71484375,-36.1328125,-78.125,0.0
163.921875,-45.41015625,-36.1328125,-27.83203125,-33.69140625,9.765625,0.0
163.92578125,-17.578125,-27.83203125,-20.5078125,-28.80859375,25.87890625,0.0
163.9296875,-27.34375,-26.85546875,-28.80859375,-40.0390625,-25.390625,0.0
163.93359375,-59.08203125,-35.64453125,-37.109375,-39.55078125,5.37109375,0.0
163.9375,-62.01171875,-42.48046875,-32.71484375,-17.578125,-15.13671875,0.0
163.94140625,-30.2734375,-35.15625,-28.80859375,-19.53125,-67.87109375,0.0
163.9453125,-23.92578125,-19.04296875,-30.76171875,-42.48046875,-57.12890625,0.0
163.94921875,-35.64453125,-20.5078125,-32.71484375,-49.8046875,-64.453125,0.0
163.953125,-63.4765625,-28.80859375,-37.109375,-64.94140625,-62.01171875,0.0
163.95703125,-83.0078125,-21.97265625,-34.1796875,-72.75390625,-129.39453125,0.0
163.9609375,-64.94140625,-10.25390625,-28.80859375,-61.03515625,-49.31640625,0.0
163.96484375,-46.38671875,-6.34765625,-37.109375,-61.5234375,79.1015625,0.0
163.96875,-43.9453125,-12.20703125,-47.36328125,-84.9609375,88.8671875,0.0
163.97265625,-62.5,-16.6015625,-56.640625,-87.40234375,102.05078125,0.0
163.9765625,-79.1015625,-15.625,-46.875,-76.66015625,-168.9453125,0.0
163.98046875,-58.10546875,-13.671875,-34.66796875,-81.54296875,-244.62890625,0.0
163.984375,-25.87890625,-14.16015625,-39.55078125,-69.82421875,7.8125,0.0
163.98828125,-37.109375,-17.578125,-38.0859375,-63.4765625,60.546875,0.0
163.9921875,-69.82421875,-24.90234375,-41.9921875,-81.54296875,9.27734375,0.0
163.99609375,-80.078125,-27.34375,-45.41015625,-85.9375,-46.38671875,0.0
164.0,-66.40625,-28.3203125,-35.64453125,-54.19921875,-60.05859375,0.0
164.00390625,-33.69140625,-20.5078125,-29.296875,-23.92578125,4.8828125,0.0
164.0078125,-18.5546875,-12.20703125,-28.80859375,-37.59765625,58.59375,0.0
164.01171875,-41.015625,-19.04296875,-40.52734375,-62.98828125,57.6171875,0.0
164.015625,-60.546875,-26.3671875,-48.33984375,-69.82421875,-13.18359375,0.0
164.01953125,-53.7109375,-24.90234375,-38.57421875,-74.70703125,-88.8671875,0.0
164.0234375,-21.484375,-20.99609375,-31.73828125,-47.36328125,-47.36328125,0.0
164.02734375,-10.25390625,-22.94921875,-29.78515625,-34.66796875,48.828125,0.0
164.03125,-33.203125,-25.390625,-41.50390625,-47.8515625,102.5390625,0.0
164.03515625,-63.4765625,-29.78515625,-50.78125,-57.6171875,24.90234375,0.0
164.0390625,-59.5703125,-32.2265625,-40.0390625,-65.4296875,-108.3984375,0.0
164.04296875,-24.90234375,-27.34375,-30.2734375,-59.5703125,-25.390625,0.0
164.046875,-13.671875,-31.25,-29.296875,-46.875,76.66015625,0.0
164.05078125,-30.2734375,-32.71484375,-33.69140625,-42.48046875,68.84765625,0.0
164.0546875,-58.59375,-27.34375,-38.0859375,-55.17578125,-10.25390625,0.0
164.05859375,-64.453125,-28.3203125,-34.66796875,-55.6640625,-103.515625,0.0
164.0625,-40.0390625,-34.1796875,-25.390625,-43.9453125,-101.5625,0.0
164.06640625,-16.6015625,-28.80859375,-24.4140625,-48.828125,-36.62109375,0.0
164.0703125,-28.3203125,-21.97265625,-35.15625,-54.19921875,42.48046875,0.0
164.07421875,-63.4765625,-24.90234375,-42.96875,-59.5703125,-4.39453125,0.0
164.078125,-63.4765625,-26.85546875,-34.1796875,-50.29296875,9.27734375,0.0
164.08203125,-28.80859375,-24.90234375,-28.80859375,-48.828125,41.015625,0.0
164.0859375,-5.859375,-22.4609375,-25.390625,-37.109375,56.15234375,0.0
164.08984375,-19.53125,-27.34375,-23.4375,-30.76171875,102.05078125,0.0
164.09375,-60.546875,-40.52734375,-45.8984375,-53.22265625,25.390625,0.0
164.09765625,-67.87109375,-37.59765625,-41.9921875,-49.31640625,-53.22265625,0.0
164.1015625,-36.62109375,-32.2265625,-20.01953125,-29.296875,-11.23046875,0.0
164.10546875,-12.6953125,-35.15625,-17.578125,-20.5078125,-32.71484375,0.0
164.109375,-14.6484375,-29.78515625,-29.78515625,-30.76171875,1.46484375,0.0
164.11328125,-48.33984375,-31.73828125,-39.55078125,-36.62109375,92.7734375,0.0
164.1171875,-64.94140625,-35.15625,-39.55078125,-34.1796875,-41.9921875,0.0
164.12109375,-41.015625,-31.73828125,-31.25,-39.0625,-15.625,0.0
164.125,-17.578125,-26.3671875,-19.53125,-47.8515625,39.55078125,0.0
164.12890625,-20.5078125,-24.90234375,-25.87890625,-42.96875,-13.671875,0.0
164.1328125,-56.640625,-32.2265625,-32.71484375,-46.875,-1.46484375,0.0
164.13671875,-74.70703125,-35.15625,-31.73828125,-55.6640625,-33.69140625,0.0
164.140625,-47.36328125,-32.2265625,-23.4375,-35.64453125,-80.56640625,0.0
164.14453125,-16.11328125,-28.80859375,-17.08984375,-28.3203125,-28.3203125,0.0
164.1484375,-11.23046875,-29.78515625,-23.4375,-37.109375,-63.96484375,0.0
164.15234375,-40.52734375,-31.25,-32.71484375,-38.57421875,-208.984375,0.0
164.15625,-60.05859375,-27.83203125,-38.57421875,-46.38671875,-174.8046875,0.0
164.16015625,-48.33984375,-24.90234375,-31.25,-52.24609375,-71.2890625,0.0
164.1640625,-19.04296875,-25.87890625,-24.90234375,-42.96875,49.31640625,0.0
164.16796875,-6.34765625,-23.92578125,-30.2734375,-29.296875,80.078125,0.0
164.171875,-32.2265625,-24.4140625,-36.62109375,-31.73828125,26.3671875,0.0
164.17578125,-47.36328125,-26.85546875,-37.109375,-35.15625,-36.1328125,0.0
164.1796875,-14.16015625,-19.53125,-44.43359375,-21.97265625,-42.96875,0.0
164.18359375,13.18359375,-22.94921875,-34.66796875,-11.71875,11.23046875,0.0
164.1875,-3.90625,-33.203125,-16.11328125,-33.203125,2.9296875,0.0
164.19140625,-29.78515625,-35.64453125,-17.08984375,-39.0625,28.80859375,0.0
164.1953125,-48.33984375,-45.41015625,-26.3671875,-27.34375,4.8828125,0.0
164.19921875,-41.9921875,-54.6875,-28.80859375,-31.73828125,-69.82421875,0.0
164.203125,-10.7421875,-52.24609375,-15.625,-8.7890625,-32.2265625,0.0
164.20703125,12.20703125,-45.41015625,-15.625,9.765625,150.87890625,0.0
164.2109375,-0.48828125,-44.43359375,-25.390625,3.41796875,228.02734375,0.0
164.21484375,-39.0625,-51.26953125,-32.71484375,-9.765625,31.73828125,0.0
164.21875,-41.9921875,-46.875,-27.34375,-21.97265625,-92.7734375,0.0
164.22265625,-12.6953125,-33.203125,-17.08984375,-5.859375,-102.05078125,0.0
164.2265625,4.39453125,-21.484375,-8.7890625,12.20703125,-92.28515625,0.0
164.23046875,3.41796875,-15.13671875,-6.8359375,11.71875,-26.85546875,0.0
164.234375,-38.0859375,-31.25,-21.484375,-7.32421875,33.203125,0.0
164.23828125,-60.546875,-38.57421875,-28.80859375,-19.53125,9.27734375,0.0
164.2421875,-29.78515625,-35.15625,-25.390625,-19.53125,-48.828125,0.0
164.24609375,-12.6953125,-40.52734375,-22.94921875,-12.20703125,-4.8828125,0.0
164.25,-22.4609375,-42.48046875,-34.1796875,-26.85546875,-20.01953125,0.0
164.25390625,-47.36328125,-44.43359375,-38.57421875,-37.59765625,-110.3515625,0.0
164.2578125,-53.7109375,-41.9921875,-31.25,-17.578125,-169.921875,0.0
164.26171875,-33.203125,-40.0390625,-23.4375,-20.01953125,-128.90625,0.0
164.265625,-14.16015625,-44.43359375,-27.34375,-15.625,-17.578125,0.0
164.26953125,-17.578125,-45.41015625,-37.109375,-14.16015625,42.48046875,0.0
164.2734375,-54.6875,-44.921875,-36.62109375,-47.36328125,-28.80859375,0.0
164.27734375,-67.3828125,-48.33984375,-37.59765625,-45.41015625,-112.79296875,0.0
164.28125,-41.9921875,-46.875,-37.109375,-23.92578125,-97.65625,0.0
164.28515625,-15.13671875,-38.57421875,-26.3671875,-15.625,-72.265625,0.0
164.2890625,-8.30078125,-28.80859375,-15.625,-18.06640625,-104.4921875,0.0
164.29296875,-40.52734375,-30.76171875,-33.203125,-29.296875,-54.19921875,0.0
164.296875,-61.03515625,-40.0390625,-41.015625,-20.99609375,1.953125,0.0
164.30078125,-38.0859375,-37.59765625,-24.90234375,-10.25390625,16.11328125,0.0
164.3046875,-8.7890625,-34.1796875,-22.94921875,-8.7890625,-9.27734375,0.0
164.30859375,-11.71875,-38.0859375,-31.73828125,-20.5078125,-2.44140625,0.0
164.3125,-41.015625,-38.57421875,-35.15625,-23.4375,-11.23046875,0.0
164.31640625,-44.43359375,-29.78515625,-30.2734375,-35.64453125,-41.50390625,0.0
164.3203125,-29.78515625,-29.78515625,-24.4140625,-36.62109375,-20.99609375,0.0
164.32421875,-14.6484375,-36.62109375,-25.87890625,-23.4375,25.390625,0.0
164.328125,-18.06640625,-41.50390625,-27.83203125,-37.59765625,37.109375,0.0
164.33203125,-46.38671875,-34.66796875,-22.94921875,-23.4375,-11.23046875,0.0
164.3359375,-55.17578125,-27.83203125,-22.94921875,-8.30078125,-19.53125,0.0
164.33984375,-46.38671875,-36.62109375,-28.3203125,-19.53125,-21.97265625,0.0
164.34375,-15.625,-30.2734375,-21.97265625,-51.7578125,-49.8046875,0.0
164.34765625,-4.8828125,-25.390625,-26.85546875,-55.17578125,15.625,0.0
164.3515625,-38.57421875,-32.71484375,-31.73828125,-27.34375,133.7890625,0.0
164.35546875,-61.03515625,-38.0859375,-35.15625,-40.52734375,127.9296875,0.0
164.359375,-38.57421875,-31.25,-28.80859375,-31.25,21.97265625,0.0
164.36328125,-12.6953125,-25.390625,-7.8125,-15.13671875,-8.30078125,0.0
164.3671875,-16.6015625,-28.3203125,-9.765625,-28.3203125,90.33203125,0.0
164.37109375,-42.48046875,-31.25,-24.90234375,-51.26953125,140.13671875,0.0
164.375,-65.91796875,-42.48046875,-29.78515625,-53.7109375,78.125,0.0
164.37890625,-72.75390625,-48.33984375,-21.97265625,-24.4140625,-42.96875,0.0
164.3828125,-43.9453125,-39.0625,-17.08984375,-17.08984375,-42.48046875,0.0
164.38671875,-14.6484375,-32.2265625,-24.90234375,-37.109375,20.01953125,0.0
164.390625,-36.62109375,-33.69140625,-39.0625,-41.9921875,79.58984375,0.0
164.39453125,-68.84765625,-34.66796875,-42.96875,-50.29296875,66.89453125,0.0
164.3984375,-69.3359375,-33.69140625,-36.62109375,-45.41015625,-8.7890625,0.0
164.40234375,-43.45703125,-34.1796875,-31.73828125,-31.73828125,34.66796875,0.0
164.40625,-25.390625,-33.69140625,-29.78515625,-33.69140625,7.32421875,0.0
164.41015625,-39.55078125,-29.296875,-35.64453125,-28.80859375,-40.0390625,0.0
164.4140625,-62.5,-30.76171875,-41.50390625,-32.2265625,2.44140625,0.0
164.41796875,-59.5703125,-38.0859375,-35.64453125,-44.43359375,0.0,0.0
164.421875,-30.76171875,-37.109375,-25.87890625,-36.1328125,-20.01953125,0.0
164.42578125,-7.8125,-32.71484375,-24.90234375,-36.62109375,-13.18359375,0.0
164.4296875,-10.25390625,-33.69140625,-31.73828125,-34.66796875,16.6015625,0.0
164.43359375,-39.0625,-39.55078125,-36.62109375,-25.87890625,-58.10546875,0.0
164.4375,-46.38671875,-28.80859375,-23.4375,-36.1328125,-183.10546875,0.0
164.44140625,-21.97265625,-19.53125,-15.13671875,-22.94921875,-171.875,0.0
164.4453125,-16.11328125,-28.3203125,-24.90234375,-18.06640625,-56.15234375,0.0
164.44921875,-21.484375,-27.34375,-30.76171875,-35.64453125,8.7890625,0.0
164.453125,-48.33984375,-26.85546875,-34.66796875,-47.36328125,5.859375,0.0
164.45703125,-66.40625,-30.76171875,-31.25,-35.64453125,-38.0859375,0.0
164.4609375,-41.50390625,-28.80859375,-23.92578125,-27.34375,-102.05078125,0.0
164.46484375,-6.34765625,-24.4140625,-20.01953125,-29.296875,-72.75390625,0.0
164.46875,0.9765625,-20.99609375,-20.01953125,-19.04296875,5.859375,0.0
164.47265625,-28.3203125,-20.5078125,-34.66796875,-24.4140625,69.82421875,0.0
164.4765625,-48.33984375,-25.390625,-37.109375,-36.62109375,72.75390625,0.0
164.48046875,-31.25,-27.34375,-22.4609375,-27.83203125,-37.109375,0.0
164.484375,-7.8125,-24.90234375,-24.4140625,-26.3671875,-6.8359375,0.0
164.48828125,-15.13671875,-24.90234375,-28.3203125,-37.59765625,102.5390625,0.0
164.4921875,-46.875,-29.296875,-36.62109375,-40.52734375,33.203125,0.0
164.49609375,-67.3828125,-33.203125,-38.0859375,-36.1328125,-66.89453125,0.0
164.5,-58.59375,-34.66796875,-27.34375,-38.0859375,-74.21875,0.0
164.50390625,-27.83203125,-25.87890625,-21.484375,-21.484375,-55.17578125,0.0
164.5078125,-19.04296875,-28.80859375,-30.2734375,-34.1796875,-23.4375,0.0
164.51171875,-26.3671875,-25.87890625,-27.34375,-31.25,-34.1796875,0.0
164.515625,-28.3203125,-14.16015625,-10.25390625,-14.6484375,-44.921875,0.0
164.51953125,-34.66796875,-23.4375,-20.01953125,-45.8984375,-34.66796875,0.0
164.5234375,-20.01953125,-29.296875,-27.34375,-34.1796875,-84.9609375,0.0
164.52734375,-4.39453125,-23.4375,-19.04296875,-23.92578125,-25.390625,0.0
164.53125,-31.73828125,-25.87890625,-28.80859375,-37.109375,14.16015625,0.0
164.53515625,-68.84765625,-34.1796875,-36.62109375,-42.48046875,-63.96484375,0.0
164.5390625,-67.3828125,-35.15625,-33.203125,-45.8984375,19.53125,0.0
164.54296875,-33.203125,-30.2734375,-31.73828125,-37.109375,122.0703125,0.0
164.546875,-8.30078125,-24.4140625,-30.2734375,-39.55078125,67.3828125,0.0
164.55078125,-24.90234375,-30.76171875,-31.25,-37.59765625,-5.37109375,0.0
164.5546875,-51.7578125,-31.73828125,-35.64453125,-25.87890625,-39.0625,0.0
164.55859375,-42.96875,-24.90234375,-30.76171875,-35.15625,-44.43359375,0.0
164.5625,-30.76171875,-28.3203125,-21.97265625,-49.8046875,-29.78515625,0.0
164.56640625,-26.3671875,-35.15625,-20.01953125,-24.4140625,-6.8359375,0.0
164.5703125,-28.80859375,-36.1328125,-23.4375,-12.6953125,2.9296875,0.0
164.57421875,-47.8515625,-41.9921875,-33.69140625,-32.71484375,-38.0859375,0.0
164.578125,-46.38671875,-46.875,-38.57421875,-23.4375,-64.453125,0.0
164.58203125,-14.16015625,-39.55078125,-31.25,-16.6015625,29.78515625,0.0
164.5859375,9.765625,-28.80859375,-24.90234375,-31.25,107.421875,0.0
164.58984375,1.953125,-30.2734375,-32.71484375,-27.83203125,37.109375,0.0
164.59375,-22.94921875,-34.1796875,-42.96875,-12.20703125,-52.734375,0.0
164.59765625,-33.203125,-36.1328125,-41.50390625,-16.11328125,-79.58984375,0.0
164.6015625,1.953125,-32.71484375,-26.85546875,-7.8125,-122.55859375,0.0
164.60546875,37.59765625,-28.3203125,-15.625,-0.48828125,-87.40234375,0.0
164.609375,14.16015625,-33.69140625,-23.92578125,-6.8359375,-6.8359375,0.0
164.61328125,-28.80859375,-33.203125,-34.66796875,5.37109375,1.953125,0.0
164.6171875,-35.64453125,-39.55078125,-39.0625,-5.859375,-41.015625,0.0
164.62109375,-14.16015625,-43.45703125,-34.66796875,-15.13671875,-5.859375,0.0
164.625,5.859375,-41.015625,-31.25,-7.8125,97.65625,0.0
164.62890625,16.11328125,-37.59765625,-37.59765625,-9.765625,97.16796875,0.0
164.6328125,-18.06640625,-36.1328125,-42.96875,-15.625,37.109375,0.0
164.63671875,-39.0625,-40.0390625,-42.96875,-28.80859375,-32.71484375,0.0
164.640625,-17.08984375,-38.0859375,-33.203125,-10.7421875,-59.5703125,0.0
164.64453125,5.859375,-32.71484375,-20.99609375,0.9765625,-23.4375,0.0
164.6484375,12.6953125,-28.3203125,-18.06640625,-4.8828125,-28.80859375,0.0
164.65234375,-21.97265625,-30.76171875,-26.85546875,-18.06640625,-29.296875,0.0
164.65625,-52.24609375,-36.1328125,-34.1796875,-25.87890625,-1.953125,0.0
164.66015625,-34.1796875,-35.15625,-28.80859375,-18.5546875,-85.9375,0.0
164.6640625,0.48828125,-22.94921875,-19.53125,-13.671875,-97.16796875,0.0
164.66796875,1.953125,-24.4140625,-18.06640625,-2.9296875,-14.6484375,0.0
164.671875,-23.4375,-30.76171875,-30.2734375,-11.71875,-67.3828125,0.0
164.67578125,-42.96875,-27.83203125,-35.64453125,-28.80859375,-78.125,0.0
164.6796875,-38.0859375,-34.66796875,-33.69140625,-32.71484375,-49.31640625,0.0
164.68359375,-6.34765625,-32.2265625,-30.76171875,-20.5078125,-52.24609375,0.0
164.6875,4.39453125,-25.390625,-26.3671875,-14.16015625,0.48828125,0.0
164.69140625,-12.6953125,-20.99609375,-27.83203125,-25.390625,35.64453125,0.0
164.6953125,-29.78515625,-19.53125,-20.5078125,-30.2734375,-23.92578125,0.0
164.69921875,-32.71484375,-27.34375,-12.6953125,-19.04296875,-29.296875,0.0
164.703125,-4.8828125,-27.83203125,-16.11328125,-1.46484375,19.53125,0.0
164.70703125,16.6015625,-16.6015625,-13.671875,-9.27734375,52.24609375,0.0
164.7109375,-10.25390625,-20.99609375,-17.578125,-23.92578125,65.91796875,0.0
164.71484375,-49.31640625,-37.59765625,-31.25,-4.8828125,34.1796875,0.0
164.71875,-42.48046875,-34.1796875,-27.34375,-11.23046875,0.9765625,0.0
164.72265625,-17.08984375,-29.296875,-17.578125,-24.90234375,-78.61328125,0.0
164.7265625,-1.953125,-31.73828125,-24.90234375,-28.3203125,-82.03125,0.0
164.73046875,-18.5546875,-37.109375,-42.48046875,-48.828125,-43.45703125,0.0
164.734375,-49.31640625,-39.55078125,-36.62109375,-40.52734375,-132.32421875,0.0
164.73828125,-52.734375,-39.55078125,-25.87890625,-25.87890625,-102.05078125,0.0
164.7421875,-26.3671875,-37.59765625,-27.34375,-31.25,-41.50390625,0.0
164.74609375,-4.39453125,-33.69140625,-30.2734375,-43.45703125,-72.75390625,0.0
164.75,-11.71875,-27.83203125,-26.85546875,-40.0390625,-1.953125,0.0
164.75390625,-33.69140625,-18.06640625,-13.18359375,-12.6953125,-1.953125,0.0
164.7578125,-47.8515625,-24.90234375,-20.01953125,-33.203125,-52.734375,0.0
164.76171875,-27.34375,-33.203125,-24.90234375,-36.62109375,-30.2734375,0.0
164.765625,-4.8828125,-25.390625,-21.97265625,-13.671875,-61.5234375,0.0
164.76953125,-16.6015625,-27.34375,-33.69140625,-30.2734375,-69.82421875,0.0
164.7734375,-45.8984375,-33.69140625,-38.57421875,-29.296875,-29.296875,0.0
164.77734375,-60.546875,-39.55078125,-35.64453125,-35.15625,11.23046875,0.0
164.78125,-37.59765625,-35.64453125,-28.80859375,-41.015625,10.7421875,0.0
164.78515625,-13.671875,-31.25,-22.94921875,-30.2734375,-18.06640625,0.0
164.7890625,-17.08984375,-36.1328125,-29.78515625,-28.80859375,-80.56640625,0.0
164.79296875,-50.78125,-41.50390625,-47.36328125,-47.36328125,-92.7734375,0.0
164.796875,-51.7578125,-29.78515625,-41.9921875,-53.22265625,-92.7734375,0.0
164.80078125,-11.23046875,-8.30078125,-10.25390625,-20.5078125,-108.3984375,0.0
164.8046875,0.48828125,-19.53125,-8.7890625,-10.25390625,9.765625,0.0
164.80859375,-9.765625,-29.296875,-30.76171875,-33.69140625,139.6484375,0.0
164.8125,-42.48046875,-31.73828125,-39.55078125,-31.73828125,92.28515625,0.0
164.81640625,-62.5,-31.73828125,-43.45703125,-35.64453125,42.48046875,0.0
164.8203125,-48.828125,-30.2734375,-43.9453125,-40.52734375,65.4296875,0.0
164.82421875,-18.5546875,-32.2265625,-37.59765625,-27.34375,72.265625,0.0
164.828125,-5.859375,-33.203125,-33.69140625,-21.484375,44.921875,0.0
164.83203125,-36.1328125,-36.1328125,-37.109375,-34.1796875,-15.625,0.0
164.8359375,-64.94140625,-35.64453125,-42.96875,-51.26953125,-82.51953125,0.0
164.83984375,-49.8046875,-27.83203125,-35.64453125,-41.50390625,-62.01171875,0.0
164.84375,-0.48828125,-12.6953125,-17.08984375,-15.625,-63.96484375,0.0
164.84765625,6.34765625,-17.08984375,-20.5078125,-16.6015625,-16.6015625,0.0
164.8515625,-36.62109375,-31.73828125,-40.0390625,-25.390625,20.01953125,0.0
164.85546875,-55.6640625,-27.83203125,-40.0390625,-32.71484375,1.46484375,0.0
164.859375,-34.1796875,-26.85546875,-32.2265625,-32.2265625,-86.9140625,0.0
164.86328125,-15.13671875,-32.71484375,-30.76171875,-31.73828125,-87.890625,0.0
164.8671875,-10.7421875,-31.73828125,-31.73828125,-26.85546875,30.76171875,0.0
164.87109375,-30.2734375,-35.15625,-40.52734375,-20.5078125,-3.41796875,0.0
164.875,-59.08203125,-37.109375,-45.8984375,-47.36328125,-52.24609375,0.0
164.87890625,-55.6640625,-37.109375,-38.0859375,-51.7578125,-109.375,0.0
164.8828125,-22.94921875,-36.62109375,-30.2734375,-33.69140625,-58.10546875,0.0
164.88671875,2.44140625,-29.296875,-21.484375,-24.4140625,50.29296875,0.0
164.890625,0.9765625,-24.90234375,-13.18359375,0.0,17.578125,0.0
164.89453125,-33.69140625,-34.66796875,-23.92578125,-0.9765625,22.94921875,0.0
164.8984375,-40.52734375,-40.52734375,-34.66796875,-28.3203125,31.73828125,0.0
164.90234375,-9.27734375,-35.64453125,-24.4140625,-27.83203125,20.01953125,0.0
164.90625,6.34765625,-31.25,-26.85546875,-14.6484375,133.30078125,0.0
164.91015625,-16.6015625,-31.25,-37.109375,-30.76171875,83.0078125,0.0
164.9140625,-46.38671875,-31.73828125,-37.59765625,-38.0859375,-29.78515625,0.0
164.91796875,-51.7578125,-29.78515625,-34.1796875,-41.50390625,-69.82421875,0.0
164.921875,-29.78515625,-29.296875,-29.296875,-34.66796875,-86.42578125,0.0
164.92578125,-6.8359375,-31.73828125,-23.4375,-29.296875,-44.921875,0.0
164.9296875,-13.18359375,-29.78515625,-29.296875,-27.83203125,-27.34375,0.0
164.93359375,-39.0625,-27.34375,-42.48046875,-34.1796875,3.41796875,0.0
164.9375,-55.6640625,-33.69140625,-42.48046875,-44.43359375,-26.85546875,0.0
164.94140625,-34.1796875,-32.71484375,-33.203125,-35.15625,22.4609375,0.0
164.9453125,-2.44140625,-24.90234375,-25.87890625,-19.53125,72.75390625,0.0
164.94921875,-7.32421875,-26.85546875,-28.3203125,-12.20703125,7.8125,0.0
164.953125,-46.875,-36.1328125,-42.96875,-33.203125,-76.66015625,0.0
164.95703125,-60.546875,-38.57421875,-47.36328125,-45.8984375,-77.63671875,0.0
164.9609375,-32.71484375,-32.71484375,-36.62109375,-28.80859375,-27.34375,0.0
164.96484375,-7.8125,-24.90234375,-30.76171875,-16.6015625,-42.96875,0.0
164.96875,-22.94921875,-24.4140625,-34.1796875,-34.66796875,-32.71484375,0.0
164.97265625,-62.01171875,-27.83203125,-38.57421875,-45.8984375,-51.7578125,0.0
164.9765625,-65.4296875,-20.5078125,-35.64453125,-40.52734375,-31.73828125,0.0
164.98046875,-35.15625,-15.625,-27.34375,-25.87890625,24.4140625,0.0
164.984375,-14.16015625,-22.4609375,-23.4375,-22.4609375,112.79296875,0.0
164.98828125,-16.11328125,-26.85546875,-28.3203125,-39.55078125,141.11328125,0.0
164.9921875,-48.828125,-32.71484375,-39.55078125,-60.05859375,30.76171875,0.0
164.99609375,-72.75390625,-36.1328125,-37.59765625,-59.5703125,-24.4140625,0.0
165.0,-53.7109375,-32.71484375,-29.296875,-47.36328125,-38.57421875,0.0
165.00390625,-18.06640625,-31.25,-27.34375,-36.62109375,-32.2265625,0.0
165.0078125,-13.671875,-23.4375,-26.3671875,-42.96875,-74.21875,0.0
165.01171875,-45.8984375,-22.94921875,-30.76171875,-43.45703125,-148.4375,0.0
165.015625,-67.3828125,-32.2265625,-35.64453125,-39.55078125,-72.75390625,0.0
165.01953125,-56.15234375,-28.3203125,-30.2734375,-50.78125,-88.37890625,0.0
165.0234375,-28.80859375,-17.578125,-21.484375,-44.921875,-63.4765625,0.0
165.02734375,-17.08984375,-19.04296875,-28.3203125,-45.8984375,38.57421875,0.0
165.03125,-38.57421875,-27.83203125,-37.109375,-42.48046875,-28.80859375,0.0
165.03515625,-63.4765625,-30.2734375,-32.2265625,-33.203125,-62.01171875,0.0
165.0390625,-38.57421875,-10.25390625,-4.8828125,-17.578125,-12.20703125,0.0
165.04296875,-20.99609375,-16.6015625,-8.7890625,-25.390625,-14.6484375,0.0
165.046875,-29.296875,-30.76171875,-24.4140625,-46.875,-25.87890625,0.0
165.05078125,-42.96875,-25.87890625,-29.78515625,-41.50390625,-47.8515625,0.0
165.0546875,-73.73046875,-33.203125,-39.0625,-41.9921875,-40.0390625,0.0
165.05859375,-68.84765625,-32.71484375,-31.73828125,-42.96875,-41.50390625,0.0
165.0625,-38.0859375,-33.69140625,-21.484375,-34.1796875,-55.6640625,0.0
165.06640625,-16.6015625,-24.90234375,-19.53125,-31.25,20.01953125,0.0
165.0703125,-26.85546875,-25.87890625,-29.296875,-39.0625,22.94921875,0.0
165.07421875,-63.96484375,-38.0859375,-37.109375,-42.48046875,18.5546875,0.0
165.078125,-73.73046875,-38.57421875,-31.73828125,-38.0859375,25.390625,0.0
165.08203125,-32.2265625,-24.4140625,-14.16015625,-25.87890625,-27.34375,0.0
165.0859375,7.32421875,-6.8359375,-0.48828125,-8.7890625,-62.01171875,0.0
165.08984375,-24.4140625,-26.3671875,-26.85546875,-42.48046875,-17.08984375,0.0
165.09375,-65.91796875,-40.0390625,-44.921875,-67.87109375,-12.20703125,0.0
165.09765625,-76.66015625,-38.57421875,-40.0390625,-59.5703125,-73.2421875,0.0
165.1015625,-50.78125,-38.0859375,-30.2734375,-55.6640625,-63.4765625,0.0
165.10546875,-21.484375,-38.0859375,-26.85546875,-59.08203125,-67.3828125,0.0
165.109375,-32.71484375,-36.1328125,-26.85546875,-52.24609375,-54.6875,0.0
165.11328125,-65.4296875,-34.66796875,-31.73828125,-56.640625,-12.6953125,0.0
165.1171875,-74.70703125,-36.1328125,-38.0859375,-74.21875,1.46484375,0.0
165.12109375,-58.10546875,-35.64453125,-28.3203125,-58.10546875,67.87109375,0.0
165.125,-40.52734375,-34.1796875,-23.4375,-46.875,133.30078125,0.0
165.12890625,-40.0390625,-34.1796875,-34.1796875,-47.36328125,71.77734375,0.0
165.1328125,-69.3359375,-38.0859375,-39.55078125,-45.8984375,-125.0,0.0
165.13671875,-82.03125,-39.0625,-37.59765625,-61.5234375,-211.9140625,0.0
165.140625,-51.7578125,-29.296875,-24.90234375,-55.6640625,-128.90625,0.0
165.14453125,-23.4375,-30.2734375,-22.4609375,-43.45703125,-83.0078125,0.0
165.1484375,-29.296875,-34.66796875,-36.62109375,-50.29296875,-75.1953125,0.0
165.15234375,-65.4296875,-39.0625,-41.9921875,-49.31640625,-16.6015625,0.0
165.15625,-79.1015625,-39.55078125,-35.15625,-38.0859375,6.34765625,0.0
165.16015625,-55.6640625,-30.2734375,-27.83203125,-37.59765625,-44.43359375,0.0
165.1640625,-29.296875,-30.76171875,-27.83203125,-50.29296875,-43.9453125,0.0
165.16796875,-25.390625,-31.25,-25.390625,-40.0390625,25.87890625,0.0
165.171875,-49.31640625,-29.78515625,-31.25,-27.34375,86.9140625,0.0
165.17578125,-61.03515625,-31.73828125,-33.203125,-40.0390625,53.7109375,0.0
165.1796875,-52.24609375,-32.71484375,-28.3203125,-36.1328125,-2.44140625,0.0
165.18359375,-28.3203125,-29.78515625,-18.06640625,-26.85546875,-65.4296875,0.0
165.1875,-18.5546875,-27.83203125,-21.97265625,-27.83203125,-47.36328125,0.0
165.19140625,-45.41015625,-29.296875,-32.2265625,-23.92578125,37.59765625,0.0
165.1953125,-66.40625,-33.69140625,-35.64453125,-41.015625,-60.546875,0.0
165.19921875,-55.6640625,-32.71484375,-34.66796875,-48.828125,-166.9921875,0.0
165.203125,-27.34375,-28.80859375,-26.85546875,-37.59765625,-110.83984375,0.0
165.20703125,-17.08984375,-29.78515625,-29.78515625,-37.59765625,53.7109375,0.0
165.2109375,-43.45703125,-32.2265625,-40.0390625,-37.59765625,95.21484375,0.0
165.21484375,-68.359375,-36.62109375,-42.96875,-54.19921875,-71.2890625,0.0
165.21875,-58.59375,-35.15625,-29.78515625,-44.921875,-115.72265625,0.0
165.22265625,-33.203125,-32.71484375,-18.06640625,-26.85546875,-1.46484375,0.0
165.2265625,-21.484375,-36.1328125,-23.92578125,-32.71484375,104.4921875,0.0
165.23046875,-34.66796875,-33.203125,-33.203125,-45.8984375,123.53515625,0.0
165.234375,-60.546875,-35.15625,-44.43359375,-56.640625,62.5,0.0
165.23828125,-60.546875,-38.57421875,-42.96875,-54.6875,3.90625,0.0
165.2421875,-25.87890625,-32.71484375,-34.1796875,-39.0625,45.8984375,0.0
