timestamp,TP9,AF7,AF8,TP10,AUX,Marker
552.00390625,-33.69140625,-30.2734375,-32.71484375,-11.71875,36.1328125,0.0
552.0078125,-36.62109375,-30.2734375,-33.203125,-17.08984375,-45.41015625,0.0
552.01171875,-23.92578125,-34.66796875,-32.2265625,-16.11328125,-63.4765625,0.0
552.015625,-14.6484375,-37.59765625,-35.15625,-21.484375,10.7421875,0.0
552.01953125,-19.04296875,-39.0625,-38.0859375,-25.87890625,32.2265625,0.0
552.0234375,-27.83203125,-34.1796875,-28.80859375,-19.04296875,-20.99609375,0.0
552.02734375,-36.62109375,-31.73828125,-17.578125,-20.5078125,-28.80859375,0.0
552.03125,-38.0859375,-40.0390625,-31.25,-32.2265625,29.78515625,0.0
552.03515625,-27.83203125,-43.9453125,-41.015625,-28.3203125,-62.5,0.0
552.0390625,-27.34375,-39.0625,-35.15625,-26.85546875,-104.00390625,0.0
552.04296875,-36.62109375,-35.64453125,-34.66796875,-30.2734375,20.99609375,0.0
552.046875,-45.41015625,-39.0625,-37.109375,-31.25,-12.6953125,0.0
552.05078125,-41.9921875,-39.0625,-36.62109375,-26.3671875,-87.40234375,0.0
552.0546875,-20.99609375,-32.2265625,-34.66796875,-17.08984375,-111.328125,0.0
552.05859375,-4.8828125,-25.390625,-32.2265625,-13.18359375,-88.37890625,0.0
552.0625,-11.23046875,-26.3671875,-36.62109375,-15.13671875,-104.4921875,0.0
552.06640625,-23.4375,-30.76171875,-38.57421875,-19.53125,-121.58203125,0.0
552.0703125,-18.5546875,-28.3203125,-30.76171875,-18.06640625,-153.80859375,0.0
552.07421875,-6.8359375,-29.296875,-35.15625,-15.13671875,-69.82421875,0.0
552.078125,-8.30078125,-34.66796875,-40.0390625,-24.90234375,83.49609375,0.0
552.08203125,-21.484375,-34.66796875,-37.59765625,-27.83203125,-25.390625,0.0
552.0859375,-31.73828125,-23.92578125,-23.4375,-17.08984375,-102.05078125,0.0
552.08984375,-28.3203125,-24.4140625,-22.94921875,-20.5078125,-30.2734375,0.0
552.09375,-17.578125,-32.2265625,-30.76171875,-26.3671875,33.69140625,0.0
552.09765625,-16.11328125,-33.203125,-31.73828125,-28.80859375,8.7890625,0.0
552.1015625,-31.73828125,-36.62109375,-36.62109375,-37.109375,10.7421875,0.0
552.10546875,-45.8984375,-36.1328125,-36.62109375,-37.59765625,-9.27734375,0.0
552.109375,-40.0390625,-37.59765625,-30.76171875,-29.78515625,-98.14453125,0.0
552.11328125,-19.04296875,-42.48046875,-25.87890625,-15.13671875,-100.5859375,0.0
552.1171875,-5.859375,-28.80859375,-26.3671875,-15.625,28.80859375,0.0
552.12109375,-26.3671875,-19.04296875,-32.2265625,-40.0390625,52.734375,0.0
552.125,-48.828125,-19.04296875,-38.0859375,-49.8046875,-3.90625,0.0
552.12890625,-47.8515625,-12.6953125,-32.2265625,-48.828125,-17.08984375,0.0
552.1328125,-34.1796875,-11.71875,-32.2265625,-48.33984375,-58.10546875,0.0
552.13671875,-31.73828125,-10.7421875,-40.52734375,-56.15234375,-88.37890625,0.0
552.140625,-39.0625,-10.7421875,-41.9921875,-63.96484375,-21.97265625,0.0
552.14453125,-44.43359375,-10.25390625,-48.828125,-72.265625,18.5546875,0.0
552.1484375,-54.6875,-10.25390625,-52.24609375,-85.44921875,-15.13671875,0.0
552.15234375,-49.8046875,-13.671875,-47.8515625,-78.61328125,36.1328125,0.0
552.15625,-34.66796875,-5.859375,-45.41015625,-76.171875,-18.5546875,0.0
552.16015625,-40.52734375,-2.44140625,-49.8046875,-83.0078125,-33.69140625,0.0
552.1640625,-54.6875,-6.34765625,-54.19921875,-83.0078125,-23.4375,0.0
552.16796875,-59.08203125,-3.90625,-52.24609375,-86.9140625,-89.84375,0.0
552.171875,-43.45703125,-2.44140625,-52.734375,-83.0078125,-121.09375,0.0
552.17578125,-17.578125,5.37109375,-44.921875,-71.2890625,-27.34375,0.0
552.1796875,-22.4609375,2.9296875,-44.921875,-72.75390625,5.859375,0.0
552.18359375,-40.52734375,-8.7890625,-59.08203125,-75.68359375,-18.06640625,0.0
552.1875,-36.1328125,-6.34765625,-56.15234375,-68.84765625,10.7421875,0.0
552.19140625,-11.71875,-3.41796875,-50.29296875,-58.59375,1.46484375,0.0
552.1953125,8.7890625,0.0,-54.6875,-53.22265625,-4.8828125,0.0
552.19921875,5.859375,0.0,-58.10546875,-51.26953125,-9.27734375,0.0
552.203125,-2.9296875,-3.41796875,-59.08203125,-40.0390625,-31.25,0.0
552.20703125,-2.9296875,-9.765625,-62.5,-38.57421875,-28.80859375,0.0
552.2109375,12.20703125,-7.32421875,-62.01171875,-37.59765625,-29.296875,0.0
552.21484375,25.87890625,2.44140625,-63.96484375,-31.25,-40.0390625,0.0
552.21875,35.64453125,2.9296875,-62.5,-25.390625,-21.484375,0.0
552.22265625,36.62109375,-1.953125,-57.6171875,-11.71875,-31.73828125,0.0
552.2265625,18.5546875,-9.27734375,-62.98828125,-13.671875,-38.57421875,0.0
552.23046875,21.484375,-4.39453125,-61.03515625,-14.6484375,-20.99609375,0.0
552.234375,39.0625,2.44140625,-49.31640625,-8.30078125,-100.09765625,0.0
552.23828125,43.45703125,-4.39453125,-54.6875,-15.13671875,-66.40625,0.0
552.2421875,32.71484375,-11.71875,-62.98828125,-16.11328125,0.0,0.0
552.24609375,17.08984375,-14.16015625,-59.08203125,-13.671875,-49.8046875,0.0
552.25,18.5546875,-16.6015625,-57.6171875,-18.06640625,-58.59375,0.0
552.25390625,34.66796875,-13.671875,-57.12890625,-14.6484375,-76.66015625,0.0
552.2578125,37.59765625,-12.20703125,-50.78125,-11.23046875,-58.59375,0.0
552.26171875,21.97265625,-16.6015625,-53.7109375,-13.671875,-10.7421875,0.0
552.265625,11.71875,-15.625,-45.8984375,-12.6953125,-61.5234375,0.0
552.26953125,5.37109375,-24.4140625,-42.48046875,-14.6484375,-56.640625,0.0
552.2734375,5.859375,-28.3203125,-49.31640625,-14.6484375,-45.8984375,0.0
552.27734375,15.625,-20.99609375,-43.45703125,-7.32421875,-96.19140625,0.0
552.28125,13.18359375,-19.53125,-36.1328125,-4.39453125,-38.57421875,0.0
552.28515625,-7.8125,-28.80859375,-43.45703125,-15.625,-46.38671875,0.0
552.2890625,-13.18359375,-33.203125,-46.875,-17.578125,-50.78125,0.0
552.29296875,-0.9765625,-29.78515625,-45.8984375,-18.5546875,-29.78515625,0.0
552.296875,9.765625,-25.390625,-43.45703125,-22.94921875,16.6015625,0.0
552.30078125,7.32421875,-25.87890625,-43.45703125,-20.5078125,4.8828125,0.0
552.3046875,-11.71875,-32.2265625,-47.36328125,-21.97265625,-7.8125,0.0
552.30859375,-9.765625,-18.5546875,-40.0390625,-21.97265625,-37.59765625,0.0
552.3125,14.16015625,-7.8125,-29.78515625,-14.16015625,0.0,0.0
552.31640625,11.23046875,-25.87890625,-48.828125,-22.94921875,54.6875,0.0
552.3203125,4.8828125,-30.76171875,-53.7109375,-31.73828125,62.5,0.0
552.32421875,-0.9765625,-26.3671875,-42.96875,-25.390625,27.83203125,0.0
552.328125,-4.8828125,-29.78515625,-41.9921875,-19.04296875,-39.55078125,0.0
552.33203125,4.8828125,-30.76171875,-43.9453125,-18.5546875,-38.57421875,0.0
552.3359375,11.23046875,-32.2265625,-41.50390625,-17.08984375,49.8046875,0.0
552.33984375,11.71875,-29.296875,-38.0859375,-12.20703125,143.06640625,0.0
552.34375,-2.9296875,-28.3203125,-39.55078125,-16.11328125,53.22265625,0.0
552.34765625,-21.484375,-36.62109375,-41.9921875,-25.390625,-47.8515625,0.0
552.3515625,-12.20703125,-32.71484375,-34.66796875,-22.4609375,-46.875,0.0
552.35546875,18.06640625,-9.27734375,-13.18359375,-4.39453125,5.859375,0.0
552.359375,14.16015625,-11.71875,-20.01953125,-2.44140625,63.96484375,0.0
552.36328125,-23.92578125,-32.71484375,-42.96875,-23.92578125,25.390625,0.0
552.3671875,-33.69140625,-33.203125,-39.0625,-30.2734375,10.25390625,0.0
552.37109375,-17.578125,-25.87890625,-27.83203125,-18.5546875,-2.44140625,0.0
552.375,-14.6484375,-35.64453125,-36.62109375,-26.85546875,2.44140625,0.0
552.37890625,-10.25390625,-48.33984375,-50.78125,-27.83203125,-21.97265625,0.0
552.3828125,-15.13671875,-42.96875,-48.33984375,-20.5078125,-47.36328125,0.0
552.38671875,-34.1796875,-31.73828125,-41.50390625,-29.78515625,2.9296875,0.0
552.390625,-36.62109375,-29.78515625,-43.45703125,-41.50390625,-23.92578125,0.0
552.39453125,-23.92578125,-31.25,-43.9453125,-42.96875,-59.08203125,0.0
552.3984375,-18.5546875,-20.01953125,-38.0859375,-40.0390625,30.2734375,0.0
552.40234375,-29.78515625,-17.08984375,-40.0390625,-43.45703125,3.90625,0.0
552.40625,-39.0625,-24.4140625,-48.33984375,-39.55078125,-13.671875,0.0
552.41015625,-30.76171875,-20.01953125,-41.9921875,-42.48046875,-7.32421875,0.0
552.4140625,-23.4375,-16.6015625,-31.25,-48.33984375,-92.28515625,0.0
552.41796875,-21.484375,-20.5078125,-31.25,-41.015625,-105.95703125,0.0
552.421875,-35.64453125,-24.4140625,-33.69140625,-48.33984375,-73.2421875,0.0
552.42578125,-48.33984375,-23.4375,-36.62109375,-48.33984375,-101.07421875,0.0
552.4296875,-38.0859375,-21.97265625,-33.69140625,-42.48046875,-110.83984375,0.0
552.43359375,-19.04296875,-22.4609375,-32.2265625,-44.921875,-39.0625,0.0
552.4375,-10.25390625,-22.94921875,-36.1328125,-42.48046875,4.39453125,0.0
552.44140625,-21.484375,-24.90234375,-37.59765625,-40.0390625,-72.75390625,0.0
552.4453125,-39.55078125,-23.4375,-39.0625,-36.1328125,-113.28125,0.0
552.44921875,-38.0859375,-20.5078125,-39.0625,-43.9453125,-41.9921875,0.0
552.453125,-26.85546875,-21.97265625,-35.15625,-45.8984375,-35.64453125,0.0
552.45703125,-21.97265625,-24.4140625,-39.0625,-40.52734375,-62.5,0.0
552.4609375,-31.25,-23.92578125,-41.015625,-46.875,-81.0546875,0.0
552.46484375,-51.7578125,-28.3203125,-38.0859375,-51.26953125,-81.0546875,0.0
552.46875,-50.29296875,-31.73828125,-38.0859375,-48.33984375,-46.38671875,0.0
552.47265625,-34.1796875,-28.80859375,-33.69140625,-40.0390625,-24.4140625,0.0
552.4765625,-21.484375,-26.3671875,-25.390625,-32.2265625,-42.48046875,0.0
552.48046875,-24.90234375,-29.78515625,-30.76171875,-33.203125,-35.15625,0.0
552.484375,-38.0859375,-31.73828125,-33.69140625,-35.15625,-33.203125,0.0
552.48828125,-32.2265625,-26.85546875,-37.109375,-34.66796875,-77.1484375,0.0
552.4921875,-10.25390625,-19.53125,-40.52734375,-24.4140625,-66.89453125,0.0
552.49609375,-14.6484375,-24.4140625,-28.80859375,-28.80859375,-41.015625,0.0
552.5,-43.9453125,-32.71484375,-22.4609375,-45.8984375,-23.4375,0.0
552.50390625,-52.734375,-28.80859375,-22.94921875,-41.50390625,-1.46484375,0.0
552.5078125,-50.78125,-26.3671875,-16.11328125,-35.15625,-8.30078125,0.0
552.51171875,-47.8515625,-32.71484375,-14.16015625,-32.2265625,-4.39453125,0.0
552.515625,-48.33984375,-37.59765625,-15.13671875,-36.1328125,21.97265625,0.0
552.51953125,-56.15234375,-38.0859375,-17.08984375,-45.41015625,-30.76171875,0.0
552.5234375,-69.3359375,-42.96875,-23.4375,-55.6640625,-32.71484375,0.0
552.52734375,-70.80078125,-40.0390625,-25.390625,-52.24609375,-4.39453125,0.0
552.53125,-59.5703125,-39.55078125,-23.4375,-41.50390625,-37.59765625,0.0
552.53515625,-42.48046875,-43.45703125,-24.90234375,-41.50390625,28.80859375,0.0
552.5390625,-35.15625,-38.0859375,-23.92578125,-36.62109375,34.1796875,0.0
552.54296875,-44.921875,-38.57421875,-27.83203125,-33.69140625,-48.33984375,0.0
552.546875,-46.38671875,-40.0390625,-28.3203125,-34.1796875,-57.12890625,0.0
552.55078125,-30.2734375,-30.76171875,-16.6015625,-29.296875,-40.0390625,0.0
552.5546875,-21.484375,-34.1796875,-20.99609375,-31.25,-11.71875,0.0
552.55859375,-29.78515625,-43.9453125,-28.3203125,-35.15625,-0.9765625,0.0
552.5625,-43.9453125,-41.9921875,-30.2734375,-38.57421875,-20.99609375,0.0
552.56640625,-49.31640625,-36.62109375,-29.78515625,-40.0390625,-27.83203125,0.0
552.5703125,-49.8046875,-40.0390625,-29.296875,-41.015625,11.71875,0.0
552.57421875,-39.0625,-43.45703125,-30.2734375,-39.55078125,55.17578125,0.0
552.578125,-31.73828125,-42.96875,-30.76171875,-38.57421875,74.70703125,0.0
552.58203125,-42.96875,-41.9921875,-34.1796875,-39.55078125,147.4609375,0.0
552.5859375,-55.17578125,-43.45703125,-40.0390625,-44.921875,11.71875,0.0
552.58984375,-54.19921875,-43.45703125,-39.0625,-45.8984375,-106.4453125,0.0
552.59375,-39.0625,-42.48046875,-31.73828125,-43.9453125,-20.01953125,0.0
552.59765625,-27.83203125,-44.921875,-35.64453125,-41.50390625,-3.90625,0.0
552.6015625,-36.62109375,-47.8515625,-42.48046875,-38.0859375,-69.82421875,0.0
552.60546875,-48.33984375,-41.50390625,-36.62109375,-34.66796875,-72.75390625,0.0
552.609375,-43.45703125,-39.55078125,-32.2265625,-35.64453125,-60.05859375,0.0
552.61328125,-32.2265625,-43.45703125,-33.69140625,-36.62109375,9.765625,0.0
552.6171875,-25.390625,-39.0625,-39.55078125,-34.66796875,58.10546875,0.0
552.62109375,-32.71484375,-38.0859375,-39.55078125,-36.1328125,50.78125,0.0
552.625,-44.43359375,-39.0625,-34.66796875,-37.109375,-34.1796875,0.0
552.62890625,-41.50390625,-37.109375,-31.25,-31.25,-79.58984375,0.0
552.6328125,-29.78515625,-35.64453125,-30.2734375,-32.2265625,-38.57421875,0.0
552.63671875,-19.53125,-37.109375,-29.296875,-31.73828125,13.18359375,0.0
552.640625,-23.4375,-41.015625,-26.85546875,-35.64453125,56.640625,0.0
552.64453125,-41.9921875,-42.48046875,-32.2265625,-39.55078125,-16.6015625,0.0
552.6484375,-42.96875,-38.0859375,-38.57421875,-34.1796875,-104.98046875,0.0
552.65234375,-29.78515625,-36.1328125,-36.1328125,-34.1796875,-85.9375,0.0
552.65625,-17.08984375,-31.73828125,-30.76171875,-26.3671875,-20.5078125,0.0
552.66015625,-23.92578125,-29.78515625,-38.0859375,-24.4140625,26.85546875,0.0
552.6640625,-38.0859375,-33.69140625,-41.9921875,-30.76171875,-30.2734375,0.0
552.66796875,-39.0625,-33.69140625,-33.203125,-26.3671875,-63.4765625,0.0
552.671875,-30.2734375,-30.76171875,-29.296875,-30.2734375,-47.8515625,0.0
552.67578125,-18.5546875,-31.73828125,-34.66796875,-35.64453125,-52.734375,0.0
552.6796875,-18.06640625,-31.73828125,-36.62109375,-33.69140625,-16.6015625,0.0
552.68359375,-22.4609375,-25.390625,-27.34375,-23.4375,-31.73828125,0.0
552.6875,-36.62109375,-28.3203125,-22.94921875,-22.4609375,-75.68359375,0.0
552.69140625,-39.0625,-34.1796875,-26.3671875,-29.78515625,-58.10546875,0.0
552.6953125,-24.4140625,-28.3203125,-26.85546875,-27.83203125,-64.453125,0.0
552.69921875,-28.3203125,-25.390625,-24.90234375,-25.390625,-94.7265625,0.0
552.703125,-34.1796875,-27.34375,-26.3671875,-22.94921875,-8.30078125,0.0
552.70703125,-32.2265625,-33.203125,-32.71484375,-22.4609375,77.1484375,0.0
552.7109375,-27.83203125,-30.76171875,-31.25,-31.25,33.203125,0.0
552.71484375,-19.04296875,-28.3203125,-25.87890625,-30.76171875,-15.13671875,0.0
552.71875,-17.578125,-27.83203125,-25.390625,-21.97265625,-60.05859375,0.0
552.72265625,-30.76171875,-31.73828125,-25.87890625,-24.4140625,-107.421875,0.0
552.7265625,-40.0390625,-34.1796875,-24.90234375,-33.69140625,-88.8671875,0.0
552.73046875,-33.203125,-24.90234375,-14.6484375,-31.73828125,-203.125,0.0
552.734375,-21.484375,-26.85546875,-19.53125,-26.3671875,-198.2421875,0.0
552.73828125,-19.53125,-28.3203125,-29.296875,-31.73828125,39.55078125,0.0
552.7421875,-31.25,-22.4609375,-26.85546875,-31.25,25.390625,0.0
552.74609375,-39.0625,-20.99609375,-18.5546875,-26.3671875,-36.1328125,0.0
552.75,-33.203125,-25.390625,-21.97265625,-34.66796875,42.96875,0.0
552.75390625,-23.4375,-31.25,-31.25,-35.15625,4.8828125,0.0
552.7578125,-20.99609375,-31.73828125,-32.71484375,-33.203125,-86.9140625,0.0
552.76171875,-28.3203125,-35.15625,-35.15625,-38.57421875,-134.765625,0.0
552.765625,-42.96875,-38.57421875,-35.15625,-43.9453125,-154.78515625,0.0
552.76953125,-42.48046875,-41.50390625,-34.66796875,-46.875,-121.58203125,0.0
552.7734375,-30.76171875,-39.0625,-33.69140625,-36.1328125,-28.3203125,0.0
552.77734375,-24.90234375,-32.2265625,-29.78515625,-29.296875,-14.6484375,0.0
552.78125,-31.25,-35.64453125,-31.25,-35.15625,9.765625,0.0
552.78515625,-42.48046875,-36.1328125,-33.69140625,-34.1796875,19.53125,0.0
552.7890625,-38.0859375,-28.3203125,-35.64453125,-30.2734375,-15.625,0.0
552.79296875,-25.87890625,-34.1796875,-34.66796875,-38.0859375,29.78515625,0.0
552.796875,-20.01953125,-39.55078125,-36.62109375,-41.50390625,9.765625,0.0
552.80078125,-28.3203125,-37.109375,-41.50390625,-39.55078125,-47.36328125,0.0
552.8046875,-42.48046875,-33.69140625,-38.0859375,-41.015625,-76.66015625,0.0
552.80859375,-46.875,-38.0859375,-31.73828125,-39.0625,-25.87890625,0.0
552.8125,-39.0625,-39.0625,-30.76171875,-34.66796875,-0.9765625,0.0
552.81640625,-28.80859375,-38.57421875,-30.76171875,-32.71484375,41.9921875,0.0
552.8203125,-34.1796875,-36.1328125,-32.2265625,-41.50390625,64.453125,0.0
552.82421875,-49.8046875,-31.25,-34.66796875,-49.8046875,7.8125,0.0
552.828125,-55.6640625,-36.62109375,-34.1796875,-43.9453125,10.25390625,0.0
552.83203125,-42.48046875,-35.64453125,-36.1328125,-35.64453125,-38.0859375,0.0
552.8359375,-24.90234375,-24.4140625,-27.83203125,-28.80859375,-78.125,0.0
552.83984375,-28.80859375,-25.87890625,-27.83203125,-27.34375,0.0,0.0
552.84375,-49.8046875,-37.59765625,-34.66796875,-39.55078125,-3.90625,0.0
552.84765625,-53.7109375,-44.921875,-36.1328125,-42.48046875,14.16015625,0.0
552.8515625,-39.55078125,-41.50390625,-34.1796875,-30.76171875,38.57421875,0.0
552.85546875,-29.78515625,-35.15625,-29.78515625,-31.73828125,79.1015625,0.0
552.859375,-34.66796875,-36.62109375,-23.4375,-40.52734375,152.34375,0.0
552.86328125,-48.33984375,-35.64453125,-24.4140625,-41.015625,119.140625,0.0
552.8671875,-55.6640625,-29.296875,-29.78515625,-42.96875,-17.08984375,0.0
552.87109375,-40.52734375,-27.83203125,-28.80859375,-35.64453125,-74.70703125,0.0
552.875,-26.3671875,-27.83203125,-31.73828125,-28.80859375,-5.37109375,0.0
552.87890625,-22.94921875,-27.34375,-28.3203125,-23.92578125,-28.3203125,0.0
552.8828125,-35.15625,-31.25,-26.85546875,-28.80859375,-43.9453125,0.0
552.88671875,-53.22265625,-37.109375,-33.203125,-41.50390625,-50.29296875,0.0
552.890625,-43.9453125,-39.0625,-32.71484375,-41.015625,-79.1015625,0.0
552.89453125,-34.1796875,-38.0859375,-36.1328125,-41.9921875,-38.57421875,0.0
552.8984375,-33.203125,-33.69140625,-38.57421875,-45.41015625,-10.25390625,0.0
552.90234375,-42.48046875,-33.203125,-38.57421875,-47.8515625,1.46484375,0.0
552.90625,-52.734375,-34.66796875,-36.1328125,-46.38671875,9.27734375,0.0
552.91015625,-45.41015625,-33.203125,-33.69140625,-42.48046875,75.1953125,0.0
552.9140625,-26.85546875,-28.3203125,-28.3203125,-33.203125,47.36328125,0.0
552.91796875,-23.4375,-29.296875,-23.4375,-27.34375,-48.828125,0.0
552.921875,-34.66796875,-30.76171875,-29.296875,-36.62109375,-84.47265625,0.0
552.92578125,-43.45703125,-27.83203125,-27.34375,-37.59765625,-155.2734375,0.0
552.9296875,-38.0859375,-27.34375,-26.3671875,-33.69140625,-113.28125,0.0
552.93359375,-27.83203125,-27.34375,-35.15625,-25.87890625,13.671875,0.0
552.9375,-21.484375,-28.3203125,-33.69140625,-22.94921875,29.78515625,0.0
552.94140625,-24.90234375,-27.83203125,-25.87890625,-21.484375,-18.5546875,0.0
552.9453125,-39.55078125,-25.87890625,-27.83203125,-21.97265625,-86.9140625,0.0
552.94921875,-38.0859375,-28.80859375,-33.69140625,-25.390625,-163.57421875,0.0
552.953125,-22.94921875,-26.3671875,-29.78515625,-26.3671875,-146.484375,0.0
552.95703125,-16.11328125,-20.01953125,-28.3203125,-30.76171875,-50.29296875,0.0
552.9609375,-26.3671875,-23.92578125,-31.73828125,-36.62109375,-19.04296875,0.0
552.96484375,-42.48046875,-24.90234375,-28.80859375,-40.52734375,-61.03515625,0.0
552.96875,-41.9921875,-27.34375,-27.34375,-43.9453125,-65.4296875,0.0
552.97265625,-31.73828125,-31.73828125,-29.296875,-43.45703125,-20.01953125,0.0
552.9765625,-21.484375,-28.3203125,-32.71484375,-40.0390625,-25.390625,0.0
552.98046875,-23.4375,-26.3671875,-35.15625,-28.3203125,3.41796875,0.0
552.984375,-38.0859375,-30.2734375,-35.15625,-33.203125,-72.265625,0.0
552.98828125,-39.55078125,-28.3203125,-31.73828125,-39.55078125,-101.07421875,0.0
552.9921875,-24.4140625,-27.34375,-29.296875,-25.87890625,-15.13671875,0.0
552.99609375,-13.671875,-29.296875,-30.76171875,-18.06640625,-8.30078125,0.0
553.0,-23.92578125,-25.87890625,-31.25,-28.80859375,56.640625,0.0
553.00390625,-37.59765625,-24.90234375,-29.296875,-32.71484375,71.2890625,0.0
553.0078125,-37.59765625,-28.3203125,-29.296875,-30.76171875,46.38671875,0.0
553.01171875,-25.87890625,-24.4140625,-28.80859375,-34.1796875,-18.06640625,0.0
553.015625,-11.23046875,-20.99609375,-17.578125,-29.78515625,-32.2265625,0.0
553.01953125,-12.20703125,-23.92578125,-15.13671875,-19.04296875,41.015625,0.0
553.0234375,-28.80859375,-26.3671875,-22.4609375,-20.99609375,48.33984375,0.0
553.02734375,-39.55078125,-28.3203125,-24.4140625,-29.296875,17.08984375,0.0
553.03125,-35.15625,-26.85546875,-24.90234375,-33.69140625,-66.40625,0.0
553.03515625,-21.484375,-27.34375,-29.296875,-28.3203125,0.48828125,0.0
553.0390625,-17.578125,-26.85546875,-28.3203125,-19.53125,108.3984375,0.0
553.04296875,-36.1328125,-31.73828125,-29.296875,-23.4375,66.89453125,0.0
553.046875,-44.921875,-35.64453125,-31.25,-27.83203125,3.41796875,0.0
553.05078125,-33.69140625,-33.69140625,-28.3203125,-24.90234375,6.8359375,0.0
553.0546875,-26.3671875,-29.78515625,-28.80859375,-22.94921875,48.828125,0.0
553.05859375,-33.203125,-26.3671875,-21.484375,-27.34375,54.6875,0.0
553.0625,-43.9453125,-30.2734375,-17.08984375,-33.69140625,29.78515625,0.0
553.06640625,-50.29296875,-35.64453125,-25.87890625,-34.1796875,23.4375,0.0
553.0703125,-42.96875,-36.1328125,-29.296875,-33.69140625,72.75390625,0.0
553.07421875,-23.92578125,-32.2265625,-26.3671875,-28.80859375,37.109375,0.0
553.078125,-18.06640625,-30.76171875,-29.296875,-29.296875,15.13671875,0.0
553.08203125,-27.83203125,-31.73828125,-32.2265625,-36.1328125,23.92578125,0.0
553.0859375,-41.50390625,-31.73828125,-29.296875,-40.52734375,-38.0859375,0.0
553.08984375,-41.9921875,-32.71484375,-30.2734375,-36.1328125,-74.21875,0.0
553.09375,-27.34375,-34.1796875,-34.1796875,-36.1328125,-81.54296875,0.0
553.09765625,-25.87890625,-34.1796875,-32.71484375,-43.45703125,-103.515625,0.0
553.1015625,-38.0859375,-27.83203125,-27.34375,-41.50390625,-73.73046875,0.0
553.10546875,-46.38671875,-24.90234375,-12.6953125,-31.25,-91.30859375,0.0
553.109375,-42.96875,-30.76171875,-17.08984375,-32.2265625,-93.75,0.0
553.11328125,-36.62109375,-35.64453125,-29.78515625,-40.0390625,-36.62109375,0.0
553.1171875,-32.2265625,-35.15625,-26.3671875,-43.9453125,-39.55078125,0.0
553.12109375,-36.1328125,-33.203125,-18.5546875,-40.52734375,-55.17578125,0.0
553.125,-52.24609375,-35.15625,-29.296875,-38.57421875,-93.75,0.0
553.12890625,-51.7578125,-36.1328125,-37.59765625,-40.0390625,-96.19140625,0.0
553.1328125,-38.57421875,-35.15625,-31.25,-37.109375,-75.68359375,0.0
553.13671875,-26.85546875,-32.71484375,-25.87890625,-30.76171875,-46.38671875,0.0
553.140625,-28.3203125,-31.73828125,-24.90234375,-37.59765625,-5.37109375,0.0
553.14453125,-47.36328125,-35.64453125,-30.2734375,-46.875,18.06640625,0.0
553.1484375,-41.9921875,-33.203125,-27.34375,-38.57421875,19.53125,0.0
553.15234375,-21.97265625,-31.25,-20.99609375,-28.3203125,-19.53125,0.0
553.15625,-17.578125,-30.2734375,-26.3671875,-31.73828125,-35.64453125,0.0
553.16015625,-26.85546875,-34.1796875,-32.71484375,-37.109375,37.109375,0.0
553.1640625,-39.0625,-35.15625,-34.66796875,-34.66796875,29.78515625,0.0
553.16796875,-38.57421875,-32.71484375,-34.66796875,-32.71484375,-36.62109375,0.0
553.171875,-31.25,-35.15625,-38.0859375,-35.64453125,17.578125,0.0
553.17578125,-15.625,-36.1328125,-34.1796875,-32.2265625,-46.875,0.0
553.1796875,-11.23046875,-31.73828125,-26.3671875,-25.87890625,-102.5390625,0.0
553.18359375,-35.15625,-33.203125,-34.66796875,-33.69140625,-38.0859375,0.0
553.1875,-41.015625,-33.69140625,-36.62109375,-36.1328125,3.41796875,0.0
553.19140625,-26.3671875,-33.69140625,-33.203125,-28.3203125,-25.87890625,0.0
553.1953125,-14.6484375,-31.73828125,-29.78515625,-20.99609375,-61.03515625,0.0
553.19921875,-10.7421875,-24.90234375,-24.90234375,-14.6484375,-3.41796875,0.0
553.203125,-25.87890625,-27.83203125,-28.3203125,-30.2734375,10.7421875,0.0
553.20703125,-38.57421875,-37.109375,-34.1796875,-51.26953125,-8.7890625,0.0
553.2109375,-20.99609375,-28.80859375,-25.87890625,-44.921875,-2.44140625,0.0
553.21484375,-9.27734375,-25.87890625,-24.4140625,-35.64453125,-4.8828125,0.0
553.21875,-18.06640625,-33.69140625,-38.0859375,-40.52734375,9.27734375,0.0
553.22265625,-30.2734375,-38.0859375,-38.57421875,-43.45703125,-33.69140625,0.0
553.2265625,-38.57421875,-42.48046875,-39.55078125,-40.52734375,-98.6328125,0.0
553.23046875,-30.2734375,-38.57421875,-36.1328125,-33.203125,-116.2109375,0.0
553.234375,-16.6015625,-32.71484375,-34.66796875,-30.76171875,-15.625,0.0
553.23828125,-18.06640625,-33.69140625,-35.64453125,-31.73828125,92.28515625,0.0
553.2421875,-34.66796875,-34.1796875,-34.66796875,-38.0859375,5.859375,0.0
553.24609375,-44.921875,-34.66796875,-39.55078125,-44.921875,-64.94140625,0.0
553.25,-33.69140625,-34.66796875,-44.921875,-33.69140625,-1.46484375,0.0
553.25390625,-12.6953125,-31.73828125,-35.64453125,-20.01953125,20.01953125,0.0
553.2578125,-21.484375,-34.1796875,-25.390625,-24.4140625,-78.125,0.0
553.26171875,-43.9453125,-33.69140625,-25.87890625,-36.62109375,-114.74609375,0.0
553.265625,-50.29296875,-32.71484375,-26.85546875,-37.109375,-71.2890625,0.0
553.26953125,-49.31640625,-36.1328125,-26.3671875,-36.1328125,-116.69921875,0.0
553.2734375,-35.15625,-36.1328125,-24.90234375,-33.69140625,-56.640625,0.0
553.27734375,-22.94921875,-29.296875,-27.34375,-29.78515625,73.73046875,0.0
553.28125,-35.64453125,-26.3671875,-29.296875,-30.2734375,76.171875,0.0
553.28515625,-47.36328125,-30.76171875,-28.80859375,-35.64453125,-3.90625,0.0
553.2890625,-42.96875,-24.90234375,-26.3671875,-34.1796875,-56.15234375,0.0
553.29296875,-31.25,-23.4375,-25.87890625,-36.1328125,-51.7578125,0.0
553.296875,-21.97265625,-30.2734375,-27.83203125,-40.0390625,38.57421875,0.0
553.30078125,-29.78515625,-28.3203125,-20.01953125,-33.69140625,91.30859375,0.0
553.3046875,-42.48046875,-26.3671875,-15.625,-32.71484375,72.265625,0.0
553.30859375,-44.921875,-32.2265625,-22.94921875,-35.64453125,12.20703125,0.0
553.3125,-31.25,-33.203125,-22.4609375,-29.78515625,-20.99609375,0.0
553.31640625,-20.01953125,-32.2265625,-25.87890625,-30.76171875,2.9296875,0.0
553.3203125,-29.78515625,-30.2734375,-29.296875,-42.48046875,-48.33984375,0.0
553.32421875,-41.9921875,-24.90234375,-25.87890625,-45.41015625,-67.3828125,0.0
553.328125,-43.9453125,-24.4140625,-28.3203125,-39.55078125,-19.04296875,0.0
553.33203125,-34.66796875,-28.3203125,-28.3203125,-37.59765625,-94.7265625,0.0
553.3359375,-18.06640625,-25.390625,-22.4609375,-35.64453125,-106.93359375,0.0
553.33984375,-23.92578125,-22.4609375,-23.4375,-33.69140625,-38.0859375,0.0
553.34375,-47.36328125,-30.2734375,-29.78515625,-38.57421875,-70.80078125,0.0
553.34765625,-53.7109375,-38.57421875,-29.296875,-42.48046875,-120.60546875,0.0
553.3515625,-39.55078125,-35.15625,-31.73828125,-41.015625,-88.37890625,0.0
553.35546875,-22.94921875,-29.78515625,-34.1796875,-36.62109375,-81.54296875,0.0
553.359375,-28.3203125,-29.78515625,-29.78515625,-36.1328125,-74.70703125,0.0
553.36328125,-42.96875,-32.71484375,-28.80859375,-32.2265625,-86.9140625,0.0
553.3671875,-48.33984375,-32.2265625,-28.3203125,-35.15625,-143.06640625,0.0
553.37109375,-41.9921875,-32.71484375,-27.83203125,-38.0859375,-111.81640625,0.0
553.375,-23.92578125,-31.73828125,-29.78515625,-36.62109375,-19.04296875,0.0
553.37890625,-22.4609375,-27.83203125,-32.71484375,-36.62109375,-51.7578125,0.0
553.3828125,-38.57421875,-31.25,-40.0390625,-38.0859375,-171.38671875,0.0
553.38671875,-46.38671875,-30.76171875,-43.45703125,-42.96875,-191.40625,0.0
553.390625,-36.1328125,-28.3203125,-33.203125,-34.1796875,-132.8125,0.0
553.39453125,-20.01953125,-31.73828125,-33.69140625,-35.15625,27.83203125,0.0
553.3984375,-20.99609375,-31.25,-42.48046875,-48.33984375,7.8125,0.0
553.40234375,-27.34375,-31.73828125,-54.19921875,-49.8046875,-5.37109375,0.0
553.40625,-24.90234375,-34.66796875,-47.8515625,-32.71484375,-19.04296875,0.0
553.41015625,-40.52734375,-38.0859375,-30.76171875,-41.50390625,-76.66015625,0.0
553.4140625,-61.03515625,-41.50390625,-22.94921875,-70.80078125,37.59765625,0.0
553.41796875,-59.5703125,-35.15625,-18.06640625,-72.265625,156.25,0.0
553.421875,-70.80078125,-31.73828125,-20.99609375,-71.77734375,60.546875,0.0
553.42578125,-85.44921875,-36.62109375,-17.08984375,-80.56640625,-159.66796875,0.0
553.4296875,-100.09765625,-38.0859375,-1.46484375,-87.890625,-224.609375,0.0
553.43359375,-95.21484375,-40.52734375,6.8359375,-81.54296875,-124.51171875,0.0
553.4375,-84.47265625,-43.9453125,5.37109375,-80.078125,-60.546875,0.0
553.44140625,-104.00390625,-50.29296875,0.48828125,-93.75,-44.43359375,0.0
553.4453125,-125.48828125,-53.7109375,0.9765625,-90.33203125,-32.71484375,0.0
553.44921875,-131.8359375,-53.7109375,10.25390625,-88.37890625,-17.578125,0.0
553.453125,-118.65234375,-55.17578125,15.625,-83.49609375,8.30078125,0.0
553.45703125,-103.02734375,-58.10546875,10.7421875,-66.89453125,35.15625,0.0
553.4609375,-105.46875,-60.546875,11.23046875,-62.01171875,33.69140625,0.0
553.46484375,-117.1875,-64.453125,16.6015625,-63.4765625,50.29296875,0.0
553.46875,-109.375,-67.87109375,16.6015625,-51.7578125,10.25390625,0.0
553.47265625,-86.42578125,-66.89453125,15.625,-41.015625,-90.8203125,0.0
553.4765625,-71.77734375,-62.01171875,11.71875,-38.57421875,-73.2421875,0.0
553.48046875,-80.56640625,-64.453125,13.18359375,-41.50390625,-62.01171875,0.0
553.484375,-95.703125,-76.66015625,6.8359375,-42.48046875,-6.8359375,0.0
553.48828125,-89.35546875,-78.61328125,-5.37109375,-31.73828125,83.0078125,0.0
553.4921875,-69.82421875,-67.3828125,-6.34765625,-28.80859375,70.3125,0.0
553.49609375,-58.10546875,-64.453125,-2.9296875,-30.76171875,30.2734375,0.0
553.5,-57.6171875,-65.4296875,-4.39453125,-20.5078125,78.61328125,0.0
553.50390625,-69.82421875,-62.5,-12.20703125,-20.01953125,64.453125,0.0
553.5078125,-76.171875,-64.453125,-10.25390625,-24.90234375,-55.6640625,0.0
553.51171875,-56.640625,-64.453125,-7.32421875,-21.484375,-26.85546875,0.0
553.515625,-42.96875,-61.5234375,-16.11328125,-18.5546875,41.015625,0.0
553.51953125,-46.875,-61.5234375,-18.5546875,-17.08984375,17.578125,0.0
553.5234375,-57.12890625,-52.24609375,-9.27734375,-16.11328125,22.4609375,0.0
553.52734375,-62.5,-52.24609375,-12.20703125,-16.6015625,51.26953125,0.0
553.53125,-49.8046875,-59.08203125,-21.484375,-14.6484375,-21.97265625,0.0
553.53515625,-36.62109375,-54.19921875,-22.94921875,-13.671875,-21.97265625,0.0
553.5390625,-32.2265625,-42.96875,-12.20703125,-9.765625,-15.13671875,0.0
553.54296875,-35.64453125,-37.59765625,-5.859375,-7.8125,-11.23046875,0.0
553.546875,-40.52734375,-42.48046875,-16.11328125,-12.6953125,28.3203125,0.0
553.55078125,-35.64453125,-42.48046875,-17.08984375,-9.765625,26.3671875,0.0
553.5546875,-25.390625,-45.41015625,-15.625,-9.27734375,-3.90625,0.0
553.55859375,-20.99609375,-47.36328125,-18.5546875,-14.16015625,16.11328125,0.0
553.5625,-31.25,-41.50390625,-17.08984375,-13.671875,-6.34765625,0.0
553.56640625,-43.45703125,-38.0859375,-21.484375,-14.16015625,-82.51953125,0.0
553.5703125,-40.0390625,-38.0859375,-15.13671875,-11.71875,-104.98046875,0.0
553.57421875,-31.73828125,-38.0859375,-13.18359375,-8.7890625,-72.265625,0.0
553.578125,-33.203125,-40.0390625,-27.83203125,-17.578125,-29.78515625,0.0
553.58203125,-44.43359375,-42.48046875,-25.87890625,-24.4140625,-56.640625,0.0
553.5859375,-52.734375,-38.0859375,-12.6953125,-19.53125,-68.359375,0.0
553.58984375,-41.015625,-31.25,-19.04296875,-16.6015625,-36.62109375,0.0
553.59375,-28.80859375,-32.71484375,-28.80859375,-17.08984375,-63.4765625,0.0
553.59765625,-24.90234375,-37.59765625,-28.80859375,-16.11328125,-104.00390625,0.0
553.6015625,-36.62109375,-35.64453125,-30.2734375,-24.4140625,-70.80078125,0.0
553.60546875,-50.78125,-36.1328125,-32.71484375,-29.78515625,-32.2265625,0.0
553.609375,-41.015625,-34.66796875,-36.62109375,-28.80859375,16.11328125,0.0
553.61328125,-27.83203125,-29.296875,-35.64453125,-34.1796875,115.72265625,0.0
553.6171875,-27.83203125,-29.296875,-35.64453125,-30.2734375,109.86328125,0.0
553.62109375,-35.64453125,-31.73828125,-37.109375,-24.4140625,2.44140625,0.0
553.625,-44.921875,-37.59765625,-38.57421875,-21.97265625,-47.36328125,0.0
553.62890625,-34.66796875,-34.1796875,-30.76171875,-17.08984375,-69.82421875,0.0
553.6328125,-18.06640625,-25.87890625,-16.11328125,-15.13671875,-103.02734375,0.0
553.63671875,-19.04296875,-28.80859375,-24.90234375,-25.390625,-53.7109375,0.0
553.640625,-33.203125,-35.64453125,-34.66796875,-36.62109375,-60.05859375,0.0
553.64453125,-47.8515625,-37.59765625,-33.203125,-35.64453125,-116.2109375,0.0
553.6484375,-43.9453125,-33.203125,-31.73828125,-30.76171875,-177.24609375,0.0
553.65234375,-27.83203125,-31.73828125,-29.78515625,-23.92578125,-129.39453125,0.0
553.65625,-19.53125,-31.25,-29.78515625,-24.90234375,-44.921875,0.0
553.66015625,-30.2734375,-30.2734375,-33.203125,-27.34375,-74.70703125,0.0
553.6640625,-42.48046875,-33.203125,-34.1796875,-27.34375,-94.7265625,0.0
553.66796875,-41.9921875,-29.78515625,-26.3671875,-29.78515625,-70.3125,0.0
553.671875,-31.73828125,-26.3671875,-24.4140625,-27.83203125,-80.078125,0.0
553.67578125,-10.7421875,-23.92578125,-16.11328125,-14.6484375,-100.09765625,0.0
553.6796875,-12.20703125,-25.390625,-20.99609375,-18.5546875,-28.80859375,0.0
553.68359375,-37.59765625,-37.59765625,-41.9921875,-33.69140625,-41.50390625,0.0
553.6875,-37.59765625,-35.64453125,-35.64453125,-29.296875,-55.6640625,0.0
553.69140625,-20.99609375,-27.34375,-23.4375,-20.5078125,-83.984375,0.0
553.6953125,-14.6484375,-31.73828125,-28.80859375,-24.4140625,-18.5546875,0.0
553.69921875,-20.99609375,-31.25,-28.3203125,-29.78515625,50.29296875,0.0
553.703125,-36.1328125,-29.296875,-27.83203125,-32.2265625,-21.97265625,0.0
553.70703125,-41.015625,-31.25,-28.3203125,-29.78515625,-5.37109375,0.0
553.7109375,-33.203125,-28.80859375,-22.4609375,-29.296875,65.4296875,0.0
553.71484375,-25.87890625,-28.80859375,-21.97265625,-30.76171875,68.359375,0.0
553.71875,-26.85546875,-29.78515625,-22.94921875,-29.296875,16.11328125,0.0
553.72265625,-41.015625,-32.71484375,-22.4609375,-28.80859375,-59.5703125,0.0
553.7265625,-51.26953125,-33.69140625,-24.90234375,-31.73828125,-48.828125,0.0
553.73046875,-41.015625,-34.1796875,-24.4140625,-29.296875,-14.16015625,0.0
553.734375,-28.3203125,-32.2265625,-20.99609375,-20.01953125,-7.32421875,0.0
553.73828125,-26.3671875,-29.78515625,-23.92578125,-20.5078125,6.8359375,0.0
553.7421875,-39.55078125,-34.66796875,-33.203125,-33.69140625,45.41015625,0.0
553.74609375,-53.22265625,-37.59765625,-33.69140625,-40.0390625,-10.7421875,0.0
553.75,-49.31640625,-37.59765625,-30.76171875,-38.57421875,-140.625,0.0
553.75390625,-38.57421875,-36.1328125,-32.71484375,-41.015625,-153.80859375,0.0
553.7578125,-38.57421875,-32.71484375,-36.1328125,-41.50390625,-63.4765625,0.0
553.76171875,-47.36328125,-29.78515625,-36.1328125,-45.8984375,-21.484375,0.0
553.765625,-57.6171875,-26.3671875,-27.34375,-47.36328125,2.44140625,0.0
553.76953125,-51.7578125,-26.85546875,-28.80859375,-42.96875,5.859375,0.0
553.7734375,-38.57421875,-28.3203125,-36.1328125,-36.1328125,-40.0390625,0.0
553.77734375,-32.2265625,-30.2734375,-34.66796875,-30.76171875,25.87890625,0.0
553.78125,-35.15625,-30.2734375,-29.78515625,-29.296875,28.3203125,0.0
553.78515625,-48.828125,-29.296875,-33.203125,-31.73828125,-47.36328125,0.0
553.7890625,-48.33984375,-32.2265625,-33.69140625,-32.2265625,-90.33203125,0.0
553.79296875,-35.15625,-31.73828125,-28.80859375,-29.296875,-96.19140625,0.0
553.796875,-20.01953125,-25.390625,-30.76171875,-30.2734375,-32.71484375,0.0
553.80078125,-25.390625,-26.3671875,-37.59765625,-37.59765625,20.5078125,0.0
553.8046875,-42.48046875,-31.25,-39.55078125,-45.41015625,81.54296875,0.0
553.80859375,-36.62109375,-27.83203125,-32.2265625,-39.55078125,94.7265625,0.0
553.8125,-14.16015625,-21.97265625,-24.90234375,-26.85546875,37.109375,0.0
553.81640625,-7.8125,-26.85546875,-29.78515625,-26.3671875,83.0078125,0.0
553.8203125,-23.4375,-33.203125,-40.52734375,-34.66796875,148.4375,0.0
553.82421875,-37.59765625,-35.15625,-42.48046875,-34.1796875,117.1875,0.0
553.828125,-35.15625,-31.25,-35.15625,-31.73828125,123.53515625,0.0
553.83203125,-26.85546875,-30.2734375,-32.71484375,-34.1796875,120.60546875,0.0
553.8359375,-23.92578125,-34.66796875,-35.64453125,-38.57421875,71.2890625,0.0
553.83984375,-35.64453125,-34.66796875,-39.55078125,-44.921875,91.796875,0.0
553.84375,-51.7578125,-32.2265625,-44.43359375,-46.875,112.79296875,0.0
553.84765625,-54.19921875,-33.69140625,-41.50390625,-45.41015625,36.62109375,0.0
553.8515625,-40.0390625,-31.73828125,-35.64453125,-41.9921875,52.24609375,0.0
553.85546875,-27.83203125,-27.34375,-25.87890625,-38.0859375,45.8984375,0.0
553.859375,-40.52734375,-30.76171875,-28.3203125,-40.0390625,-8.7890625,0.0
553.86328125,-51.26953125,-36.62109375,-35.64453125,-38.0859375,-61.03515625,0.0
553.8671875,-54.19921875,-38.57421875,-40.52734375,-38.57421875,-28.80859375,0.0
553.87109375,-45.8984375,-35.64453125,-39.55078125,-40.0390625,3.90625,0.0
553.875,-26.85546875,-31.73828125,-32.71484375,-31.73828125,-64.453125,0.0
553.87890625,-33.203125,-35.64453125,-42.48046875,-35.15625,-103.515625,0.0
553.8828125,-47.36328125,-33.203125,-43.9453125,-44.921875,-170.41015625,0.0
553.88671875,-49.8046875,-33.203125,-33.203125,-42.96875,-106.4453125,0.0
553.890625,-38.0859375,-39.0625,-32.71484375,-36.62109375,22.4609375,0.0
553.89453125,-22.94921875,-46.38671875,-31.25,-26.3671875,52.24609375,0.0
553.8984375,-17.08984375,-45.8984375,-29.296875,-15.13671875,-3.41796875,0.0
553.90234375,-38.0859375,-33.203125,-37.109375,-35.64453125,-40.0390625,0.0
553.90625,-58.10546875,-25.87890625,-40.0390625,-60.546875,-70.80078125,0.0
553.91015625,-43.45703125,-28.3203125,-39.55078125,-46.875,-56.15234375,0.0
553.9140625,-17.578125,-22.94921875,-34.1796875,-30.76171875,-20.5078125,0.0
553.91796875,-16.6015625,-18.06640625,-29.78515625,-34.66796875,-36.62109375,0.0
553.921875,-32.2265625,-23.4375,-40.0390625,-40.52734375,9.765625,0.0
553.92578125,-43.9453125,-25.87890625,-40.0390625,-37.59765625,22.4609375,0.0
553.9296875,-41.9921875,-25.390625,-33.69140625,-34.66796875,-49.8046875,0.0
553.93359375,-20.5078125,-23.4375,-32.71484375,-34.1796875,-95.703125,0.0
553.9375,-11.71875,-27.34375,-36.1328125,-33.203125,-10.25390625,0.0
553.94140625,-21.484375,-29.78515625,-38.57421875,-32.71484375,-38.0859375,0.0
553.9453125,-37.59765625,-28.80859375,-34.66796875,-36.1328125,-56.15234375,0.0
553.94921875,-33.69140625,-26.3671875,-30.76171875,-30.2734375,-101.07421875,0.0
553.953125,-19.04296875,-28.3203125,-27.83203125,-25.87890625,-126.46484375,0.0
553.95703125,-16.11328125,-29.296875,-24.90234375,-28.80859375,-10.7421875,0.0
553.9609375,-23.92578125,-29.296875,-17.08984375,-26.3671875,-37.109375,0.0
553.96484375,-33.203125,-29.296875,-19.04296875,-30.76171875,-124.51171875,0.0
553.96875,-35.15625,-30.76171875,-31.73828125,-36.62109375,-51.26953125,0.0
553.97265625,-24.90234375,-34.66796875,-32.71484375,-32.71484375,-50.29296875,0.0
553.9765625,-18.5546875,-38.57421875,-29.296875,-28.80859375,-33.203125,0.0
553.98046875,-31.25,-38.0859375,-28.80859375,-31.25,1.46484375,0.0
553.984375,-42.96875,-38.0859375,-33.203125,-33.203125,-20.99609375,0.0
553.98828125,-42.48046875,-41.015625,-35.64453125,-35.15625,-35.64453125,0.0
553.9921875,-29.296875,-36.1328125,-29.296875,-27.34375,50.29296875,0.0
553.99609375,-22.4609375,-32.2265625,-28.3203125,-20.01953125,89.84375,0.0
554.0,-35.15625,-35.64453125,-30.76171875,-25.87890625,32.71484375,0.0
554.00390625,-43.9453125,-32.2265625,-24.90234375,-21.484375,32.2265625,0.0
554.0078125,-34.66796875,-30.76171875,-30.76171875,-19.04296875,30.2734375,0.0
554.01171875,-19.53125,-35.15625,-39.55078125,-29.296875,-5.859375,0.0
554.015625,-10.7421875,-36.1328125,-38.57421875,-28.3203125,57.6171875,0.0
554.01953125,-17.08984375,-35.15625,-35.15625,-24.4140625,56.640625,0.0
554.0234375,-33.203125,-32.2265625,-33.203125,-30.2734375,27.83203125,0.0
554.02734375,-41.50390625,-32.71484375,-34.1796875,-35.64453125,-5.859375,0.0
554.03125,-32.2265625,-30.2734375,-35.15625,-34.1796875,-104.00390625,0.0
554.03515625,-14.6484375,-24.4140625,-35.15625,-31.25,-111.328125,0.0
554.0390625,-17.08984375,-27.34375,-28.3203125,-32.71484375,-75.68359375,0.0
554.04296875,-40.52734375,-34.1796875,-33.203125,-43.45703125,-154.296875,0.0
554.046875,-44.921875,-27.83203125,-30.76171875,-42.48046875,-181.640625,0.0
554.05078125,-24.90234375,-16.6015625,-14.16015625,-28.3203125,-109.86328125,0.0
554.0546875,-19.04296875,-20.01953125,-18.06640625,-32.71484375,-82.51953125,0.0
554.05859375,-26.85546875,-28.80859375,-30.2734375,-44.921875,-27.83203125,0.0
554.0625,-41.9921875,-29.296875,-35.64453125,-51.7578125,36.1328125,0.0
554.06640625,-50.78125,-30.76171875,-32.2265625,-48.828125,36.1328125,0.0
554.0703125,-43.45703125,-32.2265625,-33.69140625,-44.921875,-6.34765625,0.0
554.07421875,-34.66796875,-30.2734375,-40.52734375,-46.875,-44.43359375,0.0
554.078125,-31.25,-31.25,-37.109375,-46.875,-9.765625,0.0
554.08203125,-41.50390625,-31.25,-29.78515625,-48.33984375,28.3203125,0.0
554.0859375,-43.45703125,-27.83203125,-25.87890625,-43.45703125,-24.90234375,0.0
554.08984375,-31.73828125,-26.3671875,-26.3671875,-33.69140625,-20.99609375,0.0
554.09375,-21.484375,-25.390625,-23.92578125,-35.64453125,-10.25390625,0.0
554.09765625,-14.6484375,-27.83203125,-20.99609375,-36.1328125,-78.61328125,0.0
554.1015625,-30.2734375,-32.71484375,-26.3671875,-38.0859375,-38.57421875,0.0
554.10546875,-46.38671875,-32.2265625,-32.2265625,-43.45703125,-13.671875,0.0
554.109375,-45.41015625,-32.2265625,-31.73828125,-46.38671875,-55.6640625,0.0
554.11328125,-34.66796875,-37.59765625,-26.85546875,-41.50390625,9.765625,0.0
554.1171875,-30.2734375,-38.0859375,-31.25,-38.0859375,0.9765625,0.0
554.12109375,-40.0390625,-36.1328125,-34.1796875,-41.9921875,-114.74609375,0.0
554.125,-52.24609375,-31.73828125,-29.78515625,-46.38671875,-83.984375,0.0
554.12890625,-48.828125,-33.203125,-32.71484375,-43.45703125,0.0,0.0
554.1328125,-30.2734375,-32.2265625,-35.15625,-35.64453125,-6.34765625,0.0
554.13671875,-19.04296875,-27.83203125,-31.25,-39.55078125,-16.11328125,0.0
554.140625,-24.90234375,-26.85546875,-26.3671875,-37.59765625,-40.52734375,0.0
554.14453125,-40.0390625,-27.83203125,-31.25,-41.015625,-116.69921875,0.0
554.1484375,-41.50390625,-32.2265625,-37.59765625,-44.921875,-128.90625,0.0
554.15234375,-26.3671875,-30.76171875,-34.66796875,-42.48046875,-101.5625,0.0
554.15625,-20.01953125,-29.78515625,-29.296875,-41.015625,-7.8125,0.0
554.16015625,-33.69140625,-32.71484375,-34.66796875,-45.41015625,22.4609375,0.0
554.1640625,-47.36328125,-39.55078125,-41.015625,-49.31640625,32.2265625,0.0
554.16796875,-44.43359375,-42.48046875,-36.62109375,-42.48046875,64.94140625,0.0
554.171875,-29.296875,-42.48046875,-30.2734375,-30.76171875,-1.953125,0.0
554.17578125,-11.23046875,-45.8984375,-27.34375,-22.4609375,1.953125,0.0
554.1796875,-20.99609375,-40.52734375,-37.109375,-36.1328125,72.265625,0.0
554.18359375,-47.8515625,-32.2265625,-41.50390625,-48.828125,36.1328125,0.0
554.1875,-42.96875,-34.66796875,-27.34375,-31.73828125,-93.75,0.0
554.19140625,-22.4609375,-42.48046875,-38.57421875,-20.99609375,-140.13671875,0.0
554.1953125,-5.859375,-39.0625,-45.8984375,-23.4375,-57.12890625,0.0
554.19921875,-10.7421875,-33.203125,-44.43359375,-20.99609375,19.04296875,0.0
554.203125,-26.85546875,-38.57421875,-46.875,-23.92578125,6.8359375,0.0
554.20703125,-28.3203125,-39.55078125,-45.8984375,-20.01953125,-13.671875,0.0
554.2109375,-11.71875,-36.62109375,-38.57421875,-8.7890625,-60.05859375,0.0
554.21484375,10.25390625,-41.015625,-37.59765625,-5.37109375,-84.47265625,0.0
554.21875,13.18359375,-44.43359375,-41.015625,4.8828125,-67.87109375,0.0
554.22265625,-6.34765625,-46.875,-36.1328125,-0.48828125,-74.70703125,0.0
554.2265625,-17.08984375,-44.921875,-33.69140625,-3.90625,-57.6171875,0.0
554.23046875,8.7890625,-35.64453125,-25.87890625,20.99609375,-44.43359375,0.0
554.234375,28.80859375,-37.59765625,-24.90234375,29.296875,39.55078125,0.0
554.23828125,23.4375,-50.29296875,-33.69140625,26.85546875,93.26171875,0.0
554.2421875,15.13671875,-48.33984375,-28.80859375,30.76171875,50.78125,0.0
554.24609375,16.11328125,-40.0390625,-26.3671875,33.203125,-82.51953125,0.0
554.25,14.6484375,-42.96875,-26.85546875,35.15625,-140.13671875,0.0
554.25390625,25.87890625,-47.8515625,-23.92578125,36.1328125,-220.703125,0.0
554.2578125,36.1328125,-48.828125,-20.99609375,34.66796875,-269.53125,0.0
554.26171875,23.4375,-45.8984375,-18.5546875,33.203125,-130.859375,0.0
554.265625,10.25390625,-47.8515625,-25.87890625,30.76171875,-71.77734375,0.0
554.26953125,11.23046875,-55.6640625,-28.80859375,29.78515625,-106.93359375,0.0
554.2734375,27.83203125,-52.24609375,-22.94921875,40.0390625,-127.44140625,0.0
554.27734375,39.0625,-46.38671875,-17.578125,43.45703125,-127.44140625,0.0
554.28125,21.97265625,-52.24609375,-25.390625,29.296875,-48.828125,0.0
554.28515625,2.44140625,-56.15234375,-32.2265625,19.53125,-57.12890625,0.0
554.2890625,11.23046875,-42.96875,-19.53125,24.4140625,-171.38671875,0.0
554.29296875,19.53125,-40.0390625,-18.5546875,27.34375,-141.11328125,0.0
554.296875,18.06640625,-45.8984375,-27.34375,20.01953125,-49.31640625,0.0
554.30078125,9.765625,-48.33984375,-31.73828125,15.625,-29.78515625,0.0
554.3046875,-10.7421875,-55.17578125,-32.71484375,10.7421875,7.32421875,0.0
554.30859375,-10.7421875,-51.7578125,-29.296875,6.8359375,57.12890625,0.0
554.3125,8.30078125,-43.45703125,-26.3671875,13.18359375,24.4140625,0.0
554.31640625,15.13671875,-43.45703125,-27.34375,17.578125,-29.296875,0.0
554.3203125,5.37109375,-39.55078125,-27.83203125,14.16015625,17.578125,0.0
554.32421875,-5.37109375,-39.55078125,-30.2734375,7.32421875,-12.6953125,0.0
554.328125,-11.23046875,-44.921875,-37.109375,0.0,-60.05859375,0.0
554.33203125,0.48828125,-40.0390625,-32.2265625,0.48828125,0.0,0.0
554.3359375,25.87890625,-22.94921875,-10.7421875,11.71875,51.26953125,0.0
554.33984375,16.11328125,-21.484375,-12.6953125,2.44140625,113.28125,0.0
554.34375,-15.625,-36.1328125,-28.80859375,-5.37109375,93.75,0.0
554.34765625,-21.484375,-35.64453125,-27.83203125,-4.8828125,53.7109375,0.0
554.3515625,-7.32421875,-29.296875,-20.5078125,-0.9765625,12.6953125,0.0
554.35546875,3.41796875,-36.62109375,-25.390625,-4.39453125,4.39453125,0.0
554.359375,-0.9765625,-40.0390625,-31.73828125,-6.8359375,10.25390625,0.0
554.36328125,-18.06640625,-37.109375,-30.2734375,-3.90625,-33.69140625,0.0
554.3671875,-25.87890625,-30.2734375,-24.4140625,-7.8125,-14.16015625,0.0
554.37109375,-10.25390625,-23.4375,-19.04296875,-1.46484375,70.3125,0.0
554.375,5.37109375,-27.34375,-19.04296875,6.34765625,44.43359375,0.0
554.37890625,3.41796875,-25.390625,-8.7890625,6.8359375,22.4609375,0.0
554.3828125,-6.8359375,-20.5078125,-4.8828125,0.0,79.58984375,0.0
554.38671875,-27.83203125,-35.64453125,-25.390625,-16.11328125,-1.953125,0.0
554.390625,-24.4140625,-40.0390625,-31.25,-20.5078125,-33.203125,0.0
554.39453125,-10.25390625,-36.62109375,-30.76171875,-16.11328125,12.20703125,0.0
554.3984375,-9.765625,-39.0625,-33.69140625,-18.5546875,2.44140625,0.0
554.40234375,-25.390625,-42.48046875,-33.69140625,-30.2734375,-2.44140625,0.0
554.40625,-37.59765625,-41.50390625,-26.85546875,-29.78515625,24.4140625,0.0
554.41015625,-25.87890625,-35.15625,-20.5078125,-18.06640625,88.37890625,0.0
554.4140625,-16.11328125,-35.64453125,-23.92578125,-20.99609375,18.5546875,0.0
554.41796875,-18.06640625,-40.52734375,-31.25,-27.34375,-116.69921875,0.0
554.421875,-32.2265625,-39.55078125,-37.109375,-30.2734375,-79.58984375,0.0
554.42578125,-30.2734375,-19.53125,-25.87890625,-24.4140625,-17.08984375,0.0
554.4296875,-22.4609375,-19.04296875,-26.3671875,-19.04296875,-3.90625,0.0
554.43359375,-21.97265625,-31.25,-37.59765625,-25.390625,55.17578125,0.0
554.4375,-16.11328125,-26.85546875,-34.66796875,-30.2734375,34.1796875,0.0
554.44140625,-20.01953125,-26.85546875,-24.90234375,-28.3203125,-60.05859375,0.0
554.4453125,-37.109375,-36.1328125,-34.1796875,-35.64453125,-19.04296875,0.0
554.44921875,-37.109375,-39.0625,-41.9921875,-41.015625,11.23046875,0.0
554.453125,-20.99609375,-33.69140625,-34.66796875,-32.71484375,-88.37890625,0.0
554.45703125,-18.5546875,-33.69140625,-32.71484375,-26.85546875,-90.33203125,0.0
554.4609375,-33.69140625,-37.59765625,-33.203125,-33.69140625,-25.390625,0.0
554.46484375,-47.8515625,-40.0390625,-41.015625,-43.9453125,-43.45703125,0.0
554.46875,-40.52734375,-36.1328125,-33.69140625,-35.15625,-30.76171875,0.0
554.47265625,-14.16015625,-23.4375,-11.71875,-15.625,-3.41796875,0.0
554.4765625,-16.6015625,-32.71484375,-26.85546875,-27.83203125,-39.0625,0.0
554.48046875,-30.2734375,-35.64453125,-40.0390625,-36.1328125,-72.265625,0.0
554.484375,-49.31640625,-33.69140625,-37.59765625,-32.2265625,-34.1796875,0.0
554.48828125,-49.8046875,-41.015625,-38.0859375,-31.25,50.78125,0.0
554.4921875,-29.296875,-37.59765625,-37.109375,-22.94921875,93.75,0.0
554.49609375,-20.01953125,-30.76171875,-37.59765625,-22.4609375,63.96484375,0.0
554.5,-24.90234375,-33.69140625,-36.62109375,-26.85546875,35.15625,0.0
554.50390625,-38.0859375,-38.0859375,-36.62109375,-25.390625,-57.12890625,0.0
554.5078125,-42.96875,-39.0625,-34.66796875,-23.92578125,-59.5703125,0.0
554.51171875,-31.25,-41.015625,-34.1796875,-22.94921875,11.23046875,0.0
554.515625,-8.30078125,-30.76171875,-19.04296875,-10.25390625,5.37109375,0.0
554.51953125,-15.13671875,-30.76171875,-22.4609375,-17.578125,-40.52734375,0.0
554.5234375,-41.9921875,-39.0625,-39.55078125,-36.1328125,-33.203125,0.0
554.52734375,-41.015625,-32.2265625,-29.296875,-27.34375,8.30078125,0.0
554.53125,-19.53125,-20.01953125,-13.671875,-12.20703125,-24.90234375,0.0
554.53515625,-14.16015625,-28.80859375,-25.390625,-22.4609375,-35.64453125,0.0
554.5390625,-24.90234375,-30.76171875,-34.1796875,-32.2265625,-11.23046875,0.0
554.54296875,-41.015625,-29.296875,-36.1328125,-31.25,-12.20703125,0.0
554.546875,-46.875,-32.71484375,-37.59765625,-29.78515625,-38.57421875,0.0
554.55078125,-34.1796875,-35.15625,-33.69140625,-30.76171875,-26.3671875,0.0
554.5546875,-18.5546875,-33.203125,-31.73828125,-30.2734375,7.32421875,0.0
554.55859375,-16.11328125,-24.90234375,-26.3671875,-29.296875,-13.671875,0.0
554.5625,-29.78515625,-25.87890625,-27.83203125,-41.015625,-16.6015625,0.0
554.56640625,-44.921875,-35.64453125,-39.55078125,-51.26953125,-17.08984375,0.0
554.5703125,-39.55078125,-35.64453125,-40.52734375,-47.8515625,-48.33984375,0.0
554.57421875,-14.6484375,-23.92578125,-31.73828125,-31.73828125,-77.63671875,0.0
554.578125,-16.11328125,-22.94921875,-28.80859375,-31.73828125,-45.41015625,0.0
554.58203125,-45.41015625,-34.66796875,-39.55078125,-43.45703125,10.7421875,0.0
554.5859375,-52.734375,-39.55078125,-38.0859375,-45.8984375,-25.87890625,0.0
554.58984375,-41.50390625,-38.0859375,-33.203125,-42.48046875,-69.82421875,0.0
554.59375,-30.2734375,-38.0859375,-37.59765625,-41.9921875,-43.45703125,0.0
554.59765625,-29.78515625,-36.62109375,-36.62109375,-47.8515625,-2.44140625,0.0
554.6015625,-37.109375,-30.76171875,-29.296875,-42.48046875,26.85546875,0.0
554.60546875,-42.48046875,-22.94921875,-15.625,-28.3203125,-3.90625,0.0
554.609375,-42.48046875,-30.2734375,-19.53125,-29.296875,-66.89453125,0.0
554.61328125,-31.73828125,-37.109375,-33.203125,-36.62109375,-27.34375,0.0
554.6171875,-29.296875,-33.69140625,-35.15625,-40.52734375,28.80859375,0.0
554.62109375,-38.0859375,-30.76171875,-31.25,-39.55078125,-73.73046875,0.0
554.625,-52.734375,-35.64453125,-35.64453125,-46.38671875,-71.2890625,0.0
554.62890625,-50.78125,-40.52734375,-41.015625,-45.8984375,-54.6875,0.0
554.6328125,-27.83203125,-35.15625,-34.66796875,-34.1796875,-68.84765625,0.0
554.63671875,-18.06640625,-29.78515625,-34.1796875,-34.1796875,55.17578125,0.0
554.640625,-26.3671875,-34.1796875,-38.57421875,-43.9453125,-23.4375,0.0
554.64453125,-40.0390625,-36.62109375,-36.1328125,-44.43359375,-133.30078125,0.0
554.6484375,-43.45703125,-27.83203125,-31.73828125,-39.55078125,-105.46875,0.0
554.65234375,-31.73828125,-24.4140625,-30.2734375,-38.57421875,-125.0,0.0
554.65625,-23.92578125,-34.1796875,-33.203125,-44.43359375,-123.046875,0.0
554.66015625,-35.64453125,-37.109375,-32.71484375,-49.31640625,0.9765625,0.0
554.6640625,-48.828125,-31.73828125,-31.73828125,-45.8984375,-8.7890625,0.0
554.66796875,-48.33984375,-36.1328125,-34.66796875,-49.31640625,-71.2890625,0.0
554.671875,-41.015625,-43.45703125,-34.66796875,-50.29296875,-10.7421875,0.0
554.67578125,-29.296875,-41.9921875,-31.25,-40.0390625,6.8359375,0.0
554.6796875,-30.2734375,-40.52734375,-28.3203125,-34.1796875,-14.16015625,0.0
554.68359375,-46.38671875,-46.38671875,-33.203125,-38.57421875,-25.390625,0.0
554.6875,-41.9921875,-48.828125,-38.0859375,-36.1328125,25.87890625,0.0
554.69140625,-31.25,-36.1328125,-42.48046875,-37.109375,56.640625,0.0
554.6953125,-27.83203125,-26.3671875,-36.1328125,-41.50390625,17.578125,0.0
554.69921875,-41.9921875,-35.15625,-31.73828125,-45.8984375,-41.015625,0.0
554.703125,-62.01171875,-42.96875,-44.43359375,-48.33984375,-48.828125,0.0
554.70703125,-58.59375,-37.59765625,-41.015625,-44.921875,16.6015625,0.0
554.7109375,-47.36328125,-30.76171875,-20.99609375,-41.015625,20.5078125,0.0
554.71484375,-36.1328125,-32.71484375,-26.85546875,-38.57421875,31.25,0.0
554.71875,-34.1796875,-31.73828125,-34.66796875,-37.59765625,17.578125,0.0
554.72265625,-49.31640625,-31.73828125,-30.76171875,-41.50390625,-63.4765625,0.0
554.7265625,-55.6640625,-33.69140625,-31.25,-41.015625,-78.61328125,0.0
554.73046875,-46.875,-30.76171875,-32.71484375,-38.0859375,-63.96484375,0.0
554.734375,-30.76171875,-27.83203125,-29.78515625,-35.64453125,-33.203125,0.0
554.73828125,-24.90234375,-28.80859375,-25.390625,-29.296875,-64.453125,0.0
554.7421875,-43.45703125,-27.83203125,-30.76171875,-36.62109375,-108.3984375,0.0
554.74609375,-58.59375,-28.80859375,-34.1796875,-40.52734375,-93.26171875,0.0
554.75,-45.8984375,-28.3203125,-32.71484375,-34.66796875,-56.15234375,0.0
554.75390625,-27.34375,-24.90234375,-30.2734375,-34.1796875,-20.99609375,0.0
554.7578125,-27.83203125,-26.3671875,-25.390625,-36.62109375,9.765625,0.0
554.76171875,-47.36328125,-32.2265625,-35.64453125,-44.43359375,75.1953125,0.0
554.765625,-63.96484375,-35.64453125,-39.55078125,-48.33984375,143.5546875,0.0
554.76953125,-55.17578125,-35.15625,-31.25,-39.0625,47.8515625,0.0
554.7734375,-40.0390625,-34.66796875,-29.78515625,-31.73828125,-29.296875,0.0
554.77734375,-34.66796875,-34.66796875,-30.2734375,-28.3203125,3.90625,0.0
554.78125,-44.43359375,-34.1796875,-27.83203125,-29.296875,-24.4140625,0.0
554.78515625,-60.546875,-31.73828125,-33.69140625,-38.57421875,24.4140625,0.0
554.7890625,-54.19921875,-29.296875,-35.64453125,-40.0390625,6.8359375,0.0
554.79296875,-37.109375,-28.3203125,-37.109375,-35.15625,-45.41015625,0.0
554.796875,-31.73828125,-31.25,-39.0625,-35.64453125,-71.2890625,0.0
554.80078125,-41.9921875,-35.15625,-36.62109375,-36.62109375,-47.8515625,0.0
554.8046875,-54.6875,-34.66796875,-34.66796875,-34.1796875,-7.8125,0.0
554.80859375,-50.78125,-37.109375,-36.62109375,-31.25,-125.48828125,0.0
554.8125,-30.2734375,-31.73828125,-35.15625,-23.92578125,-131.34765625,0.0
554.81640625,-18.06640625,-24.4140625,-32.2265625,-21.97265625,-49.8046875,0.0
554.8203125,-27.83203125,-29.296875,-36.62109375,-31.25,-64.94140625,0.0
554.82421875,-43.9453125,-29.296875,-41.9921875,-35.15625,24.90234375,0.0
554.828125,-42.48046875,-27.83203125,-38.0859375,-29.296875,-35.64453125,0.0
554.83203125,-30.76171875,-31.73828125,-32.71484375,-28.3203125,-120.60546875,0.0
554.8359375,-22.94921875,-31.73828125,-29.78515625,-27.34375,5.37109375,0.0
554.83984375,-30.76171875,-36.1328125,-30.2734375,-27.34375,35.15625,0.0
554.84375,-40.0390625,-36.62109375,-22.94921875,-22.94921875,-43.45703125,0.0
554.84765625,-26.3671875,-36.62109375,-14.16015625,-12.20703125,-82.51953125,0.0
554.8515625,-13.671875,-35.15625,-32.2265625,-21.484375,-66.40625,0.0
554.85546875,-12.6953125,-24.4140625,-41.50390625,-41.9921875,1.46484375,0.0
554.859375,-25.390625,-20.99609375,-35.15625,-50.29296875,57.12890625,0.0
554.86328125,-50.78125,-27.83203125,-40.52734375,-52.24609375,21.484375,0.0
554.8671875,-57.6171875,-29.296875,-46.38671875,-56.640625,-35.15625,0.0
554.87109375,-41.015625,-26.85546875,-37.59765625,-52.24609375,31.25,0.0
554.875,-25.390625,-24.90234375,-27.83203125,-43.9453125,-66.89453125,0.0
554.87890625,-27.83203125,-23.4375,-25.87890625,-35.64453125,-160.64453125,0.0
554.8828125,-50.29296875,-26.3671875,-27.34375,-38.0859375,5.37109375,0.0
554.88671875,-58.59375,-30.2734375,-29.78515625,-46.38671875,86.42578125,0.0
554.890625,-40.52734375,-29.296875,-23.92578125,-38.57421875,27.34375,0.0
554.89453125,-29.296875,-29.296875,-23.92578125,-39.0625,41.015625,0.0
554.8984375,-38.57421875,-34.1796875,-34.66796875,-49.8046875,-20.99609375,0.0
554.90234375,-53.22265625,-35.15625,-35.15625,-54.19921875,2.9296875,0.0
554.90625,-60.546875,-29.78515625,-27.83203125,-50.78125,48.33984375,0.0
554.91015625,-51.26953125,-31.25,-31.25,-46.875,-1.46484375,0.0
554.9140625,-26.85546875,-34.1796875,-26.85546875,-34.66796875,-51.7578125,0.0
554.91796875,-19.53125,-34.1796875,-21.97265625,-31.25,-24.90234375,0.0
554.921875,-41.9921875,-38.57421875,-28.3203125,-42.48046875,26.85546875,0.0
554.92578125,-60.546875,-36.62109375,-28.3203125,-43.45703125,-25.390625,0.0
554.9296875,-48.33984375,-30.76171875,-27.83203125,-42.96875,-64.453125,0.0
554.93359375,-26.3671875,-34.1796875,-29.296875,-45.8984375,-66.89453125,0.0
554.9375,-20.01953125,-35.64453125,-29.296875,-49.8046875,12.20703125,0.0
554.94140625,-40.52734375,-35.64453125,-36.62109375,-60.05859375,15.625,0.0
554.9453125,-59.5703125,-36.1328125,-40.0390625,-60.05859375,-62.5,0.0
554.94921875,-46.38671875,-33.203125,-34.1796875,-52.734375,-79.58984375,0.0
554.953125,-19.53125,-30.2734375,-25.87890625,-39.55078125,-26.85546875,0.0
554.95703125,-11.23046875,-28.80859375,-23.4375,-31.73828125,79.58984375,0.0
554.9609375,-29.78515625,-26.3671875,-22.94921875,-33.69140625,59.08203125,0.0
554.96484375,-50.29296875,-25.390625,-25.390625,-39.0625,0.9765625,0.0
554.96875,-45.8984375,-25.87890625,-30.76171875,-42.96875,-34.66796875,0.0
554.97265625,-25.87890625,-30.2734375,-26.85546875,-35.15625,30.2734375,0.0
554.9765625,-12.6953125,-28.3203125,-26.85546875,-31.25,115.234375,0.0
554.98046875,-15.13671875,-18.06640625,-21.484375,-30.76171875,93.26171875,0.0
554.984375,-41.50390625,-26.85546875,-22.94921875,-34.66796875,-25.87890625,0.0
554.98828125,-52.24609375,-33.69140625,-30.76171875,-38.0859375,-74.70703125,0.0
554.9921875,-31.73828125,-28.80859375,-27.34375,-35.15625,-45.41015625,0.0
554.99609375,-12.20703125,-28.80859375,-22.4609375,-34.66796875,-21.484375,0.0
555.0,-29.296875,-31.73828125,-30.76171875,-38.57421875,53.7109375,0.0
555.00390625,-56.15234375,-29.78515625,-35.15625,-41.50390625,69.82421875,0.0
555.0078125,-49.8046875,-24.90234375,-29.78515625,-41.9921875,-12.20703125,0.0
555.01171875,-34.1796875,-32.2265625,-32.71484375,-35.64453125,-61.03515625,0.0
555.015625,-23.92578125,-34.66796875,-35.64453125,-30.2734375,19.04296875,0.0
555.01953125,-27.83203125,-31.73828125,-36.1328125,-29.78515625,58.59375,0.0
555.0234375,-46.875,-33.69140625,-36.1328125,-32.2265625,-39.55078125,0.0
555.02734375,-47.36328125,-21.97265625,-24.90234375,-23.92578125,-34.66796875,0.0
555.03125,-35.64453125,-27.34375,-26.85546875,-23.4375,2.9296875,0.0
555.03515625,-20.5078125,-40.0390625,-33.69140625,-30.2734375,-34.66796875,0.0
555.0390625,-24.4140625,-35.64453125,-29.296875,-32.2265625,-63.96484375,0.0
555.04296875,-48.828125,-32.71484375,-34.66796875,-36.62109375,-25.87890625,0.0
555.046875,-55.17578125,-38.0859375,-37.59765625,-41.50390625,-71.77734375,0.0
555.05078125,-41.015625,-37.109375,-34.66796875,-38.0859375,-62.98828125,0.0
555.0546875,-22.4609375,-28.80859375,-30.76171875,-34.66796875,-42.96875,0.0
555.05859375,-25.390625,-28.3203125,-32.2265625,-37.59765625,-33.69140625,0.0
555.0625,-52.24609375,-36.1328125,-38.57421875,-45.8984375,-28.3203125,0.0
555.06640625,-61.5234375,-39.55078125,-37.59765625,-48.828125,-111.328125,0.0
555.0703125,-41.015625,-33.203125,-27.34375,-36.62109375,-76.171875,0.0
555.07421875,-23.4375,-31.25,-30.76171875,-32.2265625,-39.0625,0.0
555.078125,-25.390625,-31.73828125,-34.66796875,-36.1328125,-37.109375,0.0
555.08203125,-39.55078125,-32.2265625,-30.76171875,-37.109375,-40.0390625,0.0
555.0859375,-45.41015625,-28.80859375,-25.87890625,-33.203125,-40.52734375,0.0
555.08984375,-35.64453125,-27.83203125,-23.92578125,-29.296875,14.16015625,0.0
555.09375,-23.4375,-35.15625,-30.76171875,-33.69140625,83.0078125,0.0
555.09765625,-23.92578125,-37.109375,-36.1328125,-40.0390625,127.44140625,0.0
555.1015625,-40.52734375,-38.0859375,-34.66796875,-41.50390625,67.3828125,0.0
555.10546875,-50.78125,-36.62109375,-34.1796875,-44.43359375,42.96875,0.0
555.109375,-41.9921875,-36.1328125,-32.2265625,-41.015625,74.70703125,0.0
555.11328125,-27.83203125,-37.59765625,-26.85546875,-33.69140625,72.265625,0.0
555.1171875,-23.92578125,-32.71484375,-29.296875,-34.66796875,31.73828125,0.0
555.12109375,-37.109375,-31.25,-31.73828125,-40.0390625,64.94140625,0.0
555.125,-51.7578125,-38.0859375,-36.1328125,-43.45703125,8.7890625,0.0
555.12890625,-44.43359375,-35.15625,-28.3203125,-36.1328125,-118.65234375,0.0
555.1328125,-21.97265625,-22.4609375,-15.625,-24.4140625,-106.93359375,0.0
555.13671875,-28.80859375,-32.71484375,-31.73828125,-32.71484375,-4.8828125,0.0
555.140625,-51.26953125,-40.52734375,-41.015625,-39.0625,35.64453125,0.0
555.14453125,-62.98828125,-34.1796875,-39.55078125,-43.45703125,24.4140625,0.0
555.1484375,-54.6875,-33.203125,-40.52734375,-46.38671875,40.52734375,0.0
555.15234375,-39.0625,-35.15625,-36.62109375,-43.45703125,116.69921875,0.0
555.15625,-31.25,-29.78515625,-36.1328125,-39.55078125,194.82421875,0.0
555.16015625,-41.9921875,-29.296875,-35.15625,-38.0859375,160.64453125,0.0
555.1640625,-59.5703125,-33.69140625,-33.69140625,-44.921875,45.41015625,0.0
555.16796875,-58.10546875,-33.203125,-35.64453125,-42.48046875,-28.3203125,0.0
555.171875,-42.96875,-33.69140625,-30.76171875,-35.15625,-42.96875,0.0
555.17578125,-20.01953125,-23.92578125,-9.27734375,-27.83203125,-31.25,0.0
555.1796875,-27.83203125,-25.390625,-13.671875,-32.71484375,-34.1796875,0.0
555.18359375,-53.22265625,-32.71484375,-30.2734375,-41.015625,-15.13671875,0.0
555.1875,-54.19921875,-34.66796875,-25.390625,-36.1328125,-32.71484375,0.0
555.19140625,-36.1328125,-26.3671875,-12.6953125,-22.4609375,-154.296875,0.0
555.1953125,-21.484375,-23.4375,-21.97265625,-27.34375,-160.64453125,0.0
555.19921875,-16.6015625,-26.3671875,-41.50390625,-35.64453125,-142.08984375,0.0
555.203125,-32.71484375,-26.85546875,-40.0390625,-36.1328125,-158.203125,0.0
555.20703125,-59.5703125,-30.76171875,-23.92578125,-42.48046875,-159.66796875,0.0
555.2109375,-63.4765625,-31.73828125,-14.16015625,-51.26953125,-194.82421875,0.0
555.21484375,-38.57421875,-40.52734375,-15.625,-35.15625,-166.9921875,0.0
555.21875,-20.5078125,-42.48046875,-18.06640625,-13.18359375,-183.59375,0.0
555.22265625,-27.83203125,-28.80859375,-18.5546875,-17.578125,-187.98828125,0.0
555.2265625,-49.8046875,-32.2265625,-26.85546875,-36.62109375,-162.59765625,0.0
555.23046875,-52.24609375,-39.0625,-26.3671875,-44.43359375,-135.25390625,0.0
555.234375,-29.296875,-37.109375,-22.94921875,-34.66796875,-48.828125,0.0
555.23828125,-27.83203125,-41.9921875,-22.94921875,-38.0859375,52.24609375,0.0
555.2421875,-42.96875,-39.0625,-23.4375,-42.48046875,135.7421875,0.0
555.24609375,-54.19921875,-36.1328125,-22.94921875,-35.15625,110.3515625,0.0
555.25,-41.9921875,-39.0625,-19.53125,-22.94921875,-41.50390625,0.0
555.25390625,-22.4609375,-37.59765625,-18.5546875,-25.87890625,-46.875,0.0
555.2578125,-25.87890625,-45.8984375,-24.90234375,-35.64453125,-48.33984375,0.0
555.26171875,-39.55078125,-48.33984375,-29.296875,-34.1796875,-115.72265625,0.0
555.265625,-41.50390625,-39.0625,-15.625,-22.4609375,-84.9609375,0.0
555.26953125,-32.2265625,-42.48046875,-17.578125,-19.53125,-36.62109375,0.0
555.2734375,-14.16015625,-42.48046875,-24.4140625,-18.5546875,-0.9765625,0.0
555.27734375,-9.765625,-39.55078125,-20.5078125,-12.20703125,58.59375,0.0
555.28125,-26.85546875,-39.0625,-18.5546875,-17.578125,46.875,0.0
555.28515625,-47.36328125,-44.43359375,-23.4375,-29.296875,17.578125,0.0
555.2890625,-43.45703125,-48.828125,-28.3203125,-30.2734375,-9.765625,0.0
555.29296875,-26.3671875,-45.41015625,-29.78515625,-26.85546875,50.29296875,0.0
555.296875,-18.5546875,-39.0625,-28.3203125,-22.4609375,42.48046875,0.0
555.30078125,-34.1796875,-40.0390625,-31.25,-25.390625,36.1328125,0.0
555.3046875,-53.22265625,-41.015625,-34.66796875,-28.80859375,26.3671875,0.0
555.30859375,-40.0390625,-34.66796875,-28.3203125,-21.97265625,-15.13671875,0.0
555.3125,-13.671875,-26.3671875,-21.484375,-11.71875,44.43359375,0.0
555.31640625,-12.6953125,-35.15625,-31.73828125,-14.6484375,67.3828125,0.0
555.3203125,-27.34375,-39.0625,-35.64453125,-18.5546875,-1.46484375,0.0
555.32421875,-39.55078125,-39.55078125,-34.1796875,-22.4609375,-71.77734375,0.0
555.328125,-43.9453125,-41.9921875,-33.69140625,-23.92578125,-38.57421875,0.0
555.33203125,-29.296875,-40.0390625,-30.2734375,-22.94921875,-19.53125,0.0
555.3359375,-9.765625,-36.62109375,-27.34375,-21.484375,-30.76171875,0.0
555.33984375,-17.08984375,-37.59765625,-31.73828125,-27.34375,-61.5234375,0.0
555.34375,-34.1796875,-37.109375,-29.296875,-26.85546875,-29.296875,0.0
555.34765625,-36.1328125,-34.1796875,-27.83203125,-21.97265625,-5.859375,0.0
555.3515625,-17.08984375,-30.76171875,-25.87890625,-18.06640625,-34.66796875,0.0
555.35546875,9.27734375,-12.6953125,-3.90625,-2.44140625,-17.578125,0.0
555.359375,-2.9296875,-13.18359375,-8.7890625,-13.18359375,5.859375,0.0
555.36328125,-36.62109375,-31.25,-28.3203125,-33.203125,-20.01953125,0.0
555.3671875,-41.9921875,-20.01953125,-16.6015625,-28.3203125,-17.08984375,0.0
555.37109375,-35.15625,-11.23046875,-5.859375,-30.2734375,-62.98828125,0.0
555.375,-30.76171875,-19.04296875,-7.8125,-34.1796875,-81.54296875,0.0
555.37890625,-40.52734375,-20.01953125,-24.4140625,-43.45703125,-48.828125,0.0
555.3828125,-65.91796875,-21.97265625,-32.2265625,-58.59375,-52.24609375,0.0
555.38671875,-68.359375,-21.97265625,-18.06640625,-55.17578125,-112.3046875,0.0
555.390625,-61.5234375,-22.4609375,-13.18359375,-59.08203125,-148.4375,0.0
555.39453125,-63.4765625,-23.4375,-14.6484375,-71.2890625,-22.94921875,0.0
555.3984375,-65.91796875,-24.90234375,-8.30078125,-70.80078125,37.109375,0.0
555.40234375,-85.9375,-26.85546875,-5.37109375,-74.70703125,11.23046875,0.0
555.40625,-95.21484375,-16.6015625,-11.71875,-84.9609375,3.90625,0.0
555.41015625,-87.890625,-12.6953125,-14.16015625,-95.21484375,7.32421875,0.0
555.4140625,-82.51953125,-15.625,0.48828125,-98.6328125,-55.17578125,0.0
555.41796875,-75.1953125,-16.6015625,3.90625,-85.9375,-69.82421875,0.0
555.421875,-88.37890625,-21.484375,-13.671875,-87.890625,-44.43359375,0.0
555.42578125,-104.00390625,-22.4609375,-12.6953125,-96.6796875,-56.15234375,0.0
555.4296875,-87.40234375,-22.4609375,-8.7890625,-83.49609375,-74.70703125,0.0
555.43359375,-52.734375,-19.53125,-11.23046875,-62.01171875,-30.2734375,0.0
555.4375,-46.875,-21.97265625,-11.71875,-59.08203125,10.25390625,0.0
555.44140625,-66.40625,-31.25,-17.08984375,-69.82421875,-14.16015625,0.0
555.4453125,-71.2890625,-31.73828125,-24.4140625,-62.01171875,-76.171875,0.0
555.44921875,-60.05859375,-29.296875,-23.92578125,-58.10546875,-92.28515625,0.0
555.453125,-42.48046875,-35.64453125,-26.85546875,-52.24609375,-48.33984375,0.0
555.45703125,-21.97265625,-38.0859375,-31.25,-38.0859375,-67.3828125,0.0
555.4609375,-27.34375,-32.71484375,-25.390625,-37.109375,-68.84765625,0.0
555.46484375,-51.7578125,-39.55078125,-28.3203125,-40.52734375,-1.46484375,0.0
555.46875,-41.015625,-44.921875,-37.109375,-35.15625,40.0390625,0.0
555.47265625,-12.20703125,-39.55078125,-36.62109375,-20.01953125,-33.203125,0.0
555.4765625,-2.9296875,-30.2734375,-35.15625,-13.18359375,85.44921875,0.0
555.48046875,-17.578125,-30.76171875,-40.0390625,-21.484375,99.12109375,0.0
555.484375,-35.64453125,-37.59765625,-43.9453125,-24.90234375,7.32421875,0.0
555.48828125,-34.66796875,-37.109375,-44.921875,-24.90234375,74.70703125,0.0
555.4921875,-14.16015625,-40.0390625,-46.38671875,-14.16015625,-4.39453125,0.0
555.49609375,6.34765625,-43.9453125,-44.921875,5.859375,-33.69140625,0.0
555.5,1.46484375,-41.9921875,-46.38671875,6.8359375,46.38671875,0.0
555.50390625,-14.6484375,-41.50390625,-44.43359375,-1.46484375,-16.11328125,0.0
555.5078125,-17.578125,-40.52734375,-40.0390625,-0.9765625,-77.1484375,0.0
555.51171875,-4.8828125,-38.57421875,-45.8984375,3.90625,-1.46484375,0.0
555.515625,9.27734375,-37.109375,-47.8515625,4.39453125,-19.53125,0.0
555.51953125,-4.39453125,-42.48046875,-48.33984375,-9.27734375,-22.4609375,0.0
555.5234375,-26.85546875,-43.45703125,-51.26953125,-14.6484375,-4.39453125,0.0
555.52734375,-28.3203125,-40.0390625,-52.734375,-9.27734375,-65.91796875,0.0
555.53125,-10.7421875,-40.52734375,-48.828125,-7.8125,-31.73828125,0.0
555.53515625,5.859375,-37.59765625,-46.38671875,-3.41796875,-0.48828125,0.0
555.5390625,-0.48828125,-34.66796875,-41.50390625,-6.8359375,0.0,0.0
555.54296875,-20.01953125,-35.64453125,-45.41015625,-14.6484375,-5.37109375,0.0
555.546875,-23.92578125,-43.9453125,-48.828125,-10.7421875,-61.5234375,0.0
555.55078125,-4.8828125,-40.52734375,-32.71484375,-2.9296875,-56.640625,0.0
555.5546875,11.23046875,-33.69140625,-32.71484375,0.0,53.7109375,0.0
555.55859375,4.39453125,-41.9921875,-47.8515625,-7.8125,71.2890625,0.0
555.5625,-19.53125,-44.43359375,-46.38671875,-17.08984375,-68.84765625,0.0
555.56640625,-27.83203125,-36.1328125,-39.55078125,-15.13671875,-135.7421875,0.0
555.5703125,-17.08984375,-34.1796875,-42.96875,-19.53125,-68.84765625,0.0
555.57421875,2.9296875,-35.64453125,-45.41015625,-16.11328125,-59.08203125,0.0
555.578125,5.37109375,-36.1328125,-45.8984375,-9.27734375,-67.3828125,0.0
555.58203125,-15.13671875,-35.15625,-44.921875,-16.11328125,-12.20703125,0.0
555.5859375,-28.3203125,-32.2265625,-39.0625,-19.53125,-102.05078125,0.0
555.58984375,-17.578125,-31.73828125,-35.15625,-18.06640625,-63.96484375,0.0
555.59375,3.41796875,-34.1796875,-31.25,-13.18359375,7.32421875,0.0
555.59765625,2.9296875,-33.203125,-29.78515625,-11.23046875,-39.0625,0.0
555.6015625,-19.53125,-32.71484375,-36.62109375,-18.5546875,-31.25,0.0
555.60546875,-42.48046875,-33.69140625,-40.52734375,-27.34375,-17.08984375,0.0
555.609375,-41.015625,-31.25,-38.0859375,-32.2265625,49.8046875,0.0
555.61328125,-18.06640625,-27.83203125,-36.62109375,-29.296875,82.51953125,0.0
555.6171875,-7.8125,-28.80859375,-39.0625,-31.73828125,35.15625,0.0
555.62109375,-27.34375,-31.25,-44.43359375,-37.59765625,14.6484375,0.0
555.625,-47.8515625,-32.71484375,-45.8984375,-42.96875,-59.08203125,0.0
555.62890625,-35.64453125,-25.87890625,-42.48046875,-41.50390625,-89.35546875,0.0
555.6328125,-13.671875,-24.90234375,-36.62109375,-29.296875,-86.42578125,0.0
555.63671875,-9.27734375,-28.80859375,-35.15625,-27.83203125,-32.2265625,0.0
555.640625,-19.04296875,-33.69140625,-36.62109375,-32.2265625,-6.34765625,0.0
555.64453125,-42.48046875,-37.109375,-36.1328125,-36.1328125,-67.87109375,0.0
555.6484375,-44.921875,-30.2734375,-37.109375,-33.69140625,-70.3125,0.0
555.65234375,-26.85546875,-29.296875,-37.109375,-34.66796875,-146.484375,0.0
555.65625,-14.6484375,-34.1796875,-33.203125,-34.1796875,-98.14453125,0.0
555.66015625,-25.87890625,-29.78515625,-36.1328125,-29.78515625,46.38671875,0.0
555.6640625,-47.36328125,-33.203125,-39.55078125,-34.1796875,-6.8359375,0.0
555.66796875,-49.31640625,-32.71484375,-37.109375,-34.1796875,-131.34765625,0.0
555.671875,-29.78515625,-27.34375,-34.1796875,-30.2734375,-124.0234375,0.0
555.67578125,-16.11328125,-29.78515625,-36.62109375,-27.34375,-111.328125,0.0
555.6796875,-26.85546875,-29.296875,-37.59765625,-27.34375,-24.90234375,0.0
555.68359375,-45.8984375,-26.3671875,-38.0859375,-31.73828125,-10.7421875,0.0
555.6875,-48.33984375,-29.296875,-39.55078125,-37.59765625,-100.5859375,0.0
555.69140625,-26.85546875,-24.90234375,-33.69140625,-32.71484375,-38.57421875,0.0
555.6953125,-11.23046875,-21.484375,-27.83203125,-24.4140625,-34.1796875,0.0
555.69921875,-18.5546875,-25.390625,-31.25,-28.3203125,-34.66796875,0.0
555.703125,-36.62109375,-31.25,-32.71484375,-32.2265625,16.11328125,0.0
555.70703125,-34.1796875,-30.76171875,-27.83203125,-27.34375,7.32421875,0.0
555.7109375,-13.18359375,-26.3671875,-23.92578125,-19.04296875,87.40234375,0.0
555.71484375,-1.953125,-24.4140625,-20.99609375,-16.11328125,149.4140625,0.0
555.71875,-6.34765625,-24.4140625,-23.4375,-17.578125,154.78515625,0.0
555.72265625,-23.92578125,-33.203125,-25.87890625,-20.99609375,142.08984375,0.0
555.7265625,-31.25,-37.59765625,-26.3671875,-21.97265625,-18.5546875,0.0
555.73046875,-15.13671875,-31.73828125,-17.08984375,-21.484375,-166.50390625,0.0
555.734375,2.44140625,-28.80859375,-15.625,-21.484375,-173.828125,0.0
555.73828125,-0.9765625,-31.73828125,-25.390625,-23.4375,-61.5234375,0.0
555.7421875,-21.97265625,-33.203125,-23.4375,-23.4375,-19.04296875,0.0
555.74609375,-28.80859375,-36.1328125,-16.6015625,-24.4140625,-94.23828125,0.0
555.75,-17.578125,-37.109375,-25.87890625,-25.390625,-116.69921875,0.0
555.75390625,-5.859375,-31.73828125,-29.78515625,-19.53125,-74.70703125,0.0
555.7578125,-10.7421875,-34.66796875,-29.296875,-22.4609375,-32.2265625,0.0
555.76171875,-36.62109375,-41.50390625,-35.64453125,-34.66796875,-34.1796875,0.0
555.765625,-53.7109375,-46.875,-38.57421875,-43.45703125,-122.0703125,0.0
555.76953125,-42.96875,-49.8046875,-39.0625,-45.41015625,-108.3984375,0.0
555.7734375,-25.390625,-41.50390625,-37.59765625,-37.109375,12.20703125,0.0
555.77734375,-26.3671875,-37.109375,-38.0859375,-35.15625,63.96484375,0.0
555.78125,-39.55078125,-42.96875,-39.0625,-37.109375,31.25,0.0
555.78515625,-44.43359375,-41.015625,-44.921875,-37.59765625,-67.3828125,0.0
555.7890625,-37.59765625,-29.78515625,-41.9921875,-45.8984375,-41.015625,0.0
555.79296875,-24.90234375,-22.94921875,-31.73828125,-49.31640625,-11.23046875,0.0
555.796875,-20.5078125,-23.92578125,-38.0859375,-41.9921875,-61.5234375,0.0
555.80078125,-32.2265625,-29.78515625,-41.50390625,-41.9921875,-26.3671875,0.0
555.8046875,-42.48046875,-30.76171875,-38.0859375,-43.9453125,-42.48046875,0.0
555.80859375,-40.0390625,-33.203125,-39.0625,-43.9453125,-82.51953125,0.0
555.8125,-24.4140625,-34.66796875,-37.109375,-33.203125,-35.64453125,0.0
555.81640625,-13.18359375,-29.296875,-33.69140625,-23.92578125,-97.16796875,0.0
555.8203125,-22.4609375,-27.83203125,-31.73828125,-33.69140625,-95.703125,0.0
555.82421875,-39.55078125,-32.2265625,-35.15625,-40.0390625,10.7421875,0.0
555.828125,-43.45703125,-32.71484375,-37.109375,-41.50390625,32.71484375,0.0
555.83203125,-35.15625,-32.71484375,-34.1796875,-43.9453125,30.2734375,0.0
555.8359375,-25.87890625,-33.69140625,-30.2734375,-43.9453125,62.01171875,0.0
555.83984375,-33.203125,-33.203125,-32.71484375,-45.41015625,67.3828125,0.0
555.84375,-48.33984375,-35.64453125,-40.0390625,-41.50390625,2.44140625,0.0
555.84765625,-49.8046875,-38.0859375,-40.0390625,-39.55078125,-108.88671875,0.0
555.8515625,-40.0390625,-40.52734375,-38.57421875,-39.55078125,-56.640625,0.0
555.85546875,-24.90234375,-40.0390625,-42.96875,-35.15625,-3.41796875,0.0
555.859375,-29.78515625,-38.57421875,-43.45703125,-37.109375,-22.4609375,0.0
555.86328125,-44.43359375,-36.1328125,-39.55078125,-37.59765625,-53.22265625,0.0
555.8671875,-40.52734375,-34.66796875,-38.57421875,-39.0625,-138.671875,0.0
555.87109375,-26.85546875,-36.1328125,-37.109375,-34.66796875,-208.984375,0.0
555.875,-14.6484375,-35.15625,-34.1796875,-31.25,-128.90625,0.0
555.87890625,-27.83203125,-41.015625,-35.15625,-38.0859375,13.671875,0.0
555.8828125,-49.31640625,-44.43359375,-38.57421875,-42.48046875,62.5,0.0
555.88671875,-51.26953125,-39.0625,-41.9921875,-40.52734375,13.18359375,0.0
555.890625,-41.9921875,-35.64453125,-40.0390625,-37.109375,17.578125,0.0
555.89453125,-24.4140625,-31.25,-34.1796875,-34.66796875,70.3125,0.0
555.8984375,-20.99609375,-28.3203125,-34.1796875,-34.66796875,53.22265625,0.0
555.90234375,-33.69140625,-25.390625,-36.62109375,-34.1796875,66.89453125,0.0
555.90625,-41.50390625,-29.78515625,-36.1328125,-34.66796875,52.734375,0.0
555.91015625,-31.73828125,-32.2265625,-25.390625,-33.203125,-71.77734375,0.0
555.9140625,-14.6484375,-27.34375,-21.484375,-30.2734375,-48.828125,0.0
555.91796875,-19.04296875,-28.3203125,-29.78515625,-33.69140625,0.48828125,0.0
555.921875,-41.015625,-34.1796875,-36.62109375,-41.9921875,17.578125,0.0
555.92578125,-53.22265625,-40.0390625,-32.71484375,-45.41015625,44.43359375,0.0
555.9296875,-39.0625,-36.1328125,-30.76171875,-39.0625,11.23046875,0.0
555.93359375,-14.16015625,-28.80859375,-31.25,-29.78515625,39.0625,0.0
555.9375,-14.16015625,-31.25,-25.87890625,-26.85546875,20.99609375,0.0
555.94140625,-31.25,-33.203125,-26.3671875,-25.87890625,-24.4140625,0.0
555.9453125,-39.0625,-35.64453125,-36.1328125,-29.78515625,-34.66796875,0.0
555.94921875,-36.1328125,-37.59765625,-35.64453125,-33.203125,3.41796875,0.0
555.953125,-22.4609375,-35.64453125,-33.69140625,-27.83203125,-22.4609375,0.0
555.95703125,-19.04296875,-41.50390625,-38.0859375,-24.4140625,-104.00390625,0.0
555.9609375,-24.4140625,-37.59765625,-42.96875,-23.92578125,-80.078125,0.0
555.96484375,-40.52734375,-29.296875,-45.8984375,-32.2265625,-43.9453125,0.0
555.96875,-49.31640625,-33.69140625,-39.55078125,-46.38671875,-38.57421875,0.0
555.97265625,-35.15625,-35.15625,-34.1796875,-49.31640625,-46.875,0.0
555.9765625,-21.484375,-35.15625,-34.1796875,-44.43359375,39.0625,0.0
555.98046875,-33.69140625,-36.62109375,-38.0859375,-38.57421875,64.453125,0.0
555.984375,-55.6640625,-39.55078125,-40.52734375,-38.57421875,-58.10546875,0.0
555.98828125,-56.15234375,-39.0625,-42.96875,-46.875,-5.859375,0.0
555.9921875,-33.203125,-33.203125,-34.1796875,-39.55078125,65.4296875,0.0
555.99609375,-15.625,-30.76171875,-24.90234375,-31.25,10.25390625,0.0
556.0,-26.3671875,-32.2265625,-33.203125,-37.109375,-16.11328125,0.0
556.00390625,-46.875,-32.2265625,-39.0625,-42.96875,-19.04296875,0.0
556.0078125,-41.9921875,-29.296875,-32.2265625,-40.52734375,-122.0703125,0.0
556.01171875,-23.92578125,-28.3203125,-29.78515625,-33.69140625,-120.60546875,0.0
556.015625,-7.8125,-27.34375,-24.90234375,-28.3203125,-38.57421875,0.0
556.01953125,-9.27734375,-25.87890625,-27.34375,-28.3203125,-42.96875,0.0
556.0234375,-35.15625,-30.76171875,-34.66796875,-30.76171875,-83.0078125,0.0
556.02734375,-44.43359375,-34.66796875,-30.2734375,-31.73828125,-136.23046875,0.0
556.03125,-30.2734375,-35.15625,-29.296875,-30.76171875,-121.58203125,0.0
556.03515625,-13.671875,-38.57421875,-32.71484375,-25.87890625,26.85546875,0.0
556.0390625,-21.484375,-37.109375,-38.0859375,-28.80859375,109.375,0.0
556.04296875,-40.0390625,-34.66796875,-37.59765625,-31.73828125,107.421875,0.0
556.046875,-47.36328125,-34.66796875,-32.2265625,-34.1796875,43.9453125,0.0
556.05078125,-37.109375,-35.64453125,-35.64453125,-35.15625,-19.53125,0.0
556.0546875,-15.13671875,-30.76171875,-33.203125,-34.66796875,24.4140625,0.0
556.05859375,-17.08984375,-28.3203125,-26.3671875,-36.62109375,3.90625,0.0
556.0625,-45.8984375,-38.0859375,-26.85546875,-38.57421875,-91.30859375,0.0
556.06640625,-54.19921875,-44.43359375,-27.83203125,-37.109375,-98.6328125,0.0
556.0703125,-31.73828125,-35.15625,-25.390625,-26.3671875,-43.45703125,0.0
556.07421875,-9.765625,-32.2265625,-23.92578125,-20.5078125,-53.22265625,0.0
556.078125,-11.71875,-37.109375,-29.78515625,-25.87890625,-39.55078125,0.0
556.08203125,-30.76171875,-39.55078125,-34.66796875,-28.3203125,2.9296875,0.0
556.0859375,-42.48046875,-42.96875,-31.25,-29.78515625,13.18359375,0.0
556.08984375,-32.2265625,-39.55078125,-26.85546875,-29.296875,-7.32421875,0.0
556.09375,-6.8359375,-30.76171875,-26.3671875,-23.4375,-28.80859375,0.0
556.09765625,-4.39453125,-28.3203125,-27.34375,-23.4375,-14.6484375,0.0
556.1015625,-22.94921875,-31.25,-31.25,-29.296875,43.9453125,0.0
556.10546875,-35.64453125,-34.1796875,-30.2734375,-35.15625,52.734375,0.0
556.109375,-31.25,-36.62109375,-32.71484375,-32.2265625,10.7421875,0.0
556.11328125,-13.671875,-33.69140625,-32.71484375,-24.90234375,18.06640625,0.0
556.1171875,-8.30078125,-31.25,-28.3203125,-27.83203125,33.203125,0.0
556.12109375,-27.34375,-37.59765625,-38.57421875,-36.62109375,-18.5546875,0.0
556.125,-47.36328125,-38.57421875,-41.015625,-38.0859375,-50.29296875,0.0
556.12890625,-45.8984375,-37.59765625,-33.69140625,-37.109375,-32.71484375,0.0
556.1328125,-20.99609375,-32.2265625,-29.78515625,-31.73828125,-45.8984375,0.0
556.13671875,-8.30078125,-31.73828125,-24.90234375,-30.76171875,-35.15625,0.0
556.140625,-25.390625,-34.1796875,-26.3671875,-33.69140625,45.8984375,0.0
556.14453125,-44.43359375,-35.15625,-29.296875,-33.203125,-60.05859375,0.0
556.1484375,-41.9921875,-34.1796875,-22.4609375,-33.203125,-92.7734375,0.0
556.15234375,-30.2734375,-35.64453125,-20.99609375,-29.296875,16.11328125,0.0
556.15625,-26.3671875,-40.0390625,-27.83203125,-28.80859375,27.83203125,0.0
556.16015625,-38.57421875,-35.15625,-33.69140625,-37.109375,21.97265625,0.0
556.1640625,-58.10546875,-35.64453125,-39.0625,-45.8984375,4.39453125,0.0
556.16796875,-56.640625,-37.59765625,-34.1796875,-49.31640625,-49.8046875,0.0
556.171875,-36.62109375,-29.78515625,-29.78515625,-41.50390625,-47.36328125,0.0
556.17578125,-25.87890625,-34.1796875,-30.76171875,-35.64453125,0.0,0.0
556.1796875,-36.1328125,-38.0859375,-33.203125,-38.57421875,-1.46484375,0.0
556.18359375,-53.22265625,-36.1328125,-34.66796875,-41.50390625,-28.3203125,0.0
556.1875,-52.734375,-38.0859375,-29.78515625,-37.109375,-71.2890625,0.0
556.19140625,-36.1328125,-37.109375,-24.4140625,-31.25,-117.1875,0.0
556.1953125,-27.83203125,-32.2265625,-18.06640625,-27.83203125,-163.0859375,0.0
556.19921875,-33.203125,-32.2265625,-21.484375,-30.76171875,-72.265625,0.0
556.203125,-53.7109375,-34.1796875,-30.2734375,-41.50390625,-20.01953125,0.0
556.20703125,-58.10546875,-33.69140625,-31.25,-45.8984375,-49.8046875,0.0
556.2109375,-41.015625,-31.25,-20.5078125,-42.96875,-82.03125,0.0
556.21484375,-29.296875,-27.34375,-20.99609375,-41.015625,-104.4921875,0.0
556.21875,-39.55078125,-26.85546875,-29.78515625,-39.0625,-37.109375,0.0
556.22265625,-59.08203125,-28.3203125,-29.78515625,-40.0390625,3.41796875,0.0
556.2265625,-68.359375,-31.25,-32.71484375,-43.9453125,-17.578125,0.0
556.23046875,-53.7109375,-34.66796875,-31.73828125,-41.50390625,9.765625,0.0
556.234375,-33.203125,-33.69140625,-27.34375,-39.0625,36.62109375,0.0
556.23828125,-38.57421875,-33.203125,-26.85546875,-41.9921875,86.9140625,0.0
556.2421875,-52.734375,-31.73828125,-34.66796875,-50.78125,71.2890625,0.0
556.24609375,-61.03515625,-30.76171875,-41.015625,-56.15234375,-70.80078125,0.0
556.25,-46.875,-32.71484375,-40.0390625,-52.734375,-91.30859375,0.0
556.25390625,-23.4375,-28.3203125,-35.64453125,-42.48046875,-57.12890625,0.0
556.2578125,-20.99609375,-26.3671875,-31.73828125,-30.76171875,-121.58203125,0.0
556.26171875,-33.69140625,-33.203125,-33.69140625,-28.80859375,-152.34375,0.0
556.265625,-45.8984375,-32.71484375,-38.0859375,-36.1328125,-52.24609375,0.0
556.26953125,-51.26953125,-28.3203125,-40.0390625,-45.8984375,-36.1328125,0.0
556.2734375,-39.55078125,-20.01953125,-41.015625,-51.7578125,-39.0625,0.0
556.27734375,-41.9921875,-21.484375,-36.62109375,-54.19921875,10.7421875,0.0
556.28125,-65.91796875,-28.80859375,-31.25,-61.03515625,6.34765625,0.0
556.28515625,-77.63671875,-31.25,-31.73828125,-64.94140625,43.45703125,0.0
556.2890625,-71.2890625,-34.66796875,-32.71484375,-63.4765625,-22.4609375,0.0
556.29296875,-49.8046875,-27.34375,-28.3203125,-58.10546875,-128.90625,0.0
556.296875,-38.57421875,-24.90234375,-25.87890625,-51.26953125,-60.546875,0.0
556.30078125,-49.8046875,-29.78515625,-14.6484375,-50.29296875,3.90625,0.0
556.3046875,-60.05859375,-31.25,-16.6015625,-55.6640625,-33.69140625,0.0
556.30859375,-52.24609375,-33.69140625,-32.2265625,-52.24609375,-30.2734375,0.0
556.3125,-35.15625,-33.69140625,-34.66796875,-42.48046875,-85.44921875,0.0
556.31640625,-27.83203125,-32.2265625,-35.64453125,-39.55078125,-153.3203125,0.0
556.3203125,-35.64453125,-29.296875,-32.71484375,-41.50390625,-87.40234375,0.0
556.32421875,-51.7578125,-31.73828125,-33.203125,-48.33984375,-90.33203125,0.0
556.328125,-52.24609375,-33.203125,-30.76171875,-43.9453125,-207.51953125,0.0
556.33203125,-35.15625,-33.69140625,-27.34375,-40.0390625,-176.7578125,0.0
556.3359375,-21.484375,-28.80859375,-29.78515625,-45.8984375,8.7890625,0.0
556.33984375,-33.69140625,-27.34375,-35.64453125,-50.78125,-4.39453125,0.0
556.34375,-48.33984375,-30.2734375,-34.1796875,-50.78125,7.8125,0.0
556.34765625,-41.50390625,-28.80859375,-24.90234375,-41.50390625,20.01953125,0.0
556.3515625,-36.62109375,-28.3203125,-31.25,-41.50390625,-84.47265625,0.0
556.35546875,-31.73828125,-31.25,-36.1328125,-41.015625,-113.76953125,0.0
556.359375,-35.15625,-28.3203125,-33.69140625,-37.109375,-53.22265625,0.0
556.36328125,-46.875,-24.4140625,-34.66796875,-43.9453125,-109.86328125,0.0
556.3671875,-49.31640625,-30.76171875,-33.69140625,-44.921875,-233.3984375,0.0
556.37109375,-36.62109375,-25.390625,-29.78515625,-36.62109375,-133.30078125,0.0
556.375,-26.3671875,-20.99609375,-28.80859375,-36.1328125,-72.265625,0.0
556.37890625,-32.71484375,-25.390625,-30.76171875,-42.96875,-81.54296875,0.0
556.3828125,-47.36328125,-30.2734375,-34.66796875,-49.31640625,-109.86328125,0.0
556.38671875,-49.8046875,-29.78515625,-34.1796875,-50.29296875,-195.3125,0.0
556.390625,-33.203125,-22.4609375,-22.4609375,-47.36328125,-222.65625,0.0
556.39453125,-21.97265625,-23.92578125,-29.296875,-44.921875,-174.31640625,0.0
556.3984375,-24.90234375,-23.92578125,-39.55078125,-46.38671875,-43.9453125,0.0
556.40234375,-34.66796875,-23.92578125,-34.66796875,-48.33984375,71.2890625,0.0
556.40625,-38.57421875,-31.25,-28.80859375,-44.921875,83.984375,0.0
556.41015625,-30.76171875,-29.296875,-27.34375,-42.48046875,176.7578125,0.0
556.4140625,-19.53125,-25.390625,-29.296875,-39.0625,164.55078125,0.0
556.41796875,-23.4375,-29.296875,-33.203125,-36.62109375,86.9140625,0.0
556.421875,-45.41015625,-34.66796875,-38.57421875,-38.57421875,91.30859375,0.0
556.42578125,-61.5234375,-40.52734375,-35.64453125,-41.9921875,133.30078125,0.0
556.4296875,-53.22265625,-41.015625,-30.2734375,-35.64453125,112.3046875,0.0
556.43359375,-31.25,-40.52734375,-26.85546875,-23.4375,-14.16015625,0.0
556.4375,-29.78515625,-36.1328125,-21.97265625,-20.5078125,-47.8515625,0.0
556.44140625,-44.43359375,-35.15625,-28.3203125,-27.34375,-52.734375,0.0
556.4453125,-52.734375,-34.1796875,-31.25,-30.76171875,-77.1484375,0.0
556.44921875,-41.9921875,-29.296875,-24.90234375,-24.90234375,-97.16796875,0.0
556.453125,-22.94921875,-32.71484375,-25.390625,-21.484375,-86.42578125,0.0
556.45703125,-21.97265625,-33.69140625,-32.2265625,-28.3203125,-122.55859375,0.0
556.4609375,-44.921875,-29.78515625,-33.69140625,-44.921875,-82.51953125,0.0
556.46484375,-63.4765625,-28.3203125,-31.73828125,-53.22265625,-44.921875,0.0
556.46875,-63.4765625,-31.73828125,-33.69140625,-48.33984375,-67.3828125,0.0
556.47265625,-53.22265625,-33.69140625,-34.1796875,-44.921875,-39.55078125,0.0
556.4765625,-47.8515625,-23.4375,-40.52734375,-47.8515625,-64.94140625,0.0
556.48046875,-62.5,-22.94921875,-41.50390625,-52.734375,-60.05859375,0.0
556.484375,-76.171875,-30.2734375,-36.1328125,-60.05859375,-85.9375,0.0
556.48828125,-61.5234375,-27.34375,-35.15625,-56.640625,-78.61328125,0.0
556.4921875,-43.45703125,-25.87890625,-29.296875,-47.8515625,-60.05859375,0.0
556.49609375,-42.96875,-32.71484375,-33.203125,-55.6640625,-19.04296875,0.0
556.5,-49.8046875,-35.15625,-38.0859375,-59.08203125,-23.4375,0.0
556.50390625,-60.05859375,-36.62109375,-40.52734375,-55.6640625,16.11328125,0.0
556.5078125,-57.12890625,-39.0625,-40.52734375,-49.8046875,37.109375,0.0
556.51171875,-38.0859375,-30.76171875,-34.1796875,-44.921875,84.9609375,0.0
556.515625,-30.2734375,-31.25,-31.73828125,-45.8984375,176.7578125,0.0
556.51953125,-41.015625,-37.59765625,-31.73828125,-46.38671875,101.07421875,0.0
556.5234375,-49.31640625,-30.76171875,-32.2265625,-39.0625,43.45703125,0.0
556.52734375,-51.26953125,-28.3203125,-29.296875,-40.0390625,28.3203125,0.0
556.53125,-46.875,-32.71484375,-33.69140625,-44.43359375,60.546875,0.0
556.53515625,-33.69140625,-32.71484375,-38.0859375,-44.43359375,155.76171875,0.0
556.5390625,-37.59765625,-33.69140625,-39.0625,-50.78125,144.53125,0.0
556.54296875,-49.8046875,-32.71484375,-40.0390625,-54.6875,116.69921875,0.0
556.546875,-47.36328125,-31.25,-36.62109375,-48.33984375,155.76171875,0.0
556.55078125,-33.69140625,-33.203125,-36.62109375,-45.41015625,96.19140625,0.0
556.5546875,-19.53125,-33.69140625,-38.0859375,-42.96875,86.42578125,0.0
556.55859375,-21.484375,-35.64453125,-34.66796875,-36.1328125,177.734375,0.0
556.5625,-36.1328125,-34.1796875,-37.109375,-37.109375,159.66796875,0.0
556.56640625,-46.875,-33.69140625,-40.52734375,-41.50390625,34.66796875,0.0
556.5703125,-38.0859375,-27.83203125,-32.2265625,-39.55078125,-112.3046875,0.0
556.57421875,-14.16015625,-23.4375,-29.296875,-33.203125,-67.87109375,0.0
556.578125,-14.6484375,-25.390625,-34.1796875,-31.25,31.25,0.0
556.58203125,-35.64453125,-25.87890625,-33.69140625,-35.15625,11.71875,0.0
556.5859375,-39.0625,-21.97265625,-19.04296875,-28.3203125,58.59375,0.0
556.58984375,-26.85546875,-20.5078125,-13.18359375,-20.01953125,60.546875,0.0
556.59375,-14.16015625,-23.4375,-23.92578125,-25.87890625,33.69140625,0.0
556.59765625,-16.11328125,-26.3671875,-28.80859375,-32.2265625,-4.39453125,0.0
556.6015625,-36.62109375,-27.34375,-31.25,-33.69140625,-27.34375,0.0
556.60546875,-46.875,-28.3203125,-35.15625,-34.1796875,-71.2890625,0.0
556.609375,-35.64453125,-24.90234375,-34.66796875,-31.25,-61.5234375,0.0
556.61328125,-20.01953125,-19.53125,-31.25,-28.80859375,-68.84765625,0.0
556.6171875,-20.99609375,-19.53125,-27.34375,-29.296875,-70.80078125,0.0
556.62109375,-40.0390625,-28.80859375,-32.2265625,-39.0625,-110.83984375,0.0
556.625,-51.26953125,-33.69140625,-37.59765625,-43.9453125,-85.44921875,0.0
556.62890625,-40.0390625,-32.71484375,-26.3671875,-34.66796875,52.734375,0.0
556.6328125,-22.94921875,-32.2265625,-13.18359375,-25.87890625,-36.1328125,0.0
556.63671875,-21.97265625,-31.73828125,-24.90234375,-30.2734375,-132.8125,0.0
556.640625,-33.203125,-33.69140625,-30.76171875,-31.25,-92.28515625,0.0
556.64453125,-46.875,-32.2265625,-35.15625,-37.109375,-150.87890625,0.0
556.6484375,-42.48046875,-32.2265625,-34.66796875,-41.50390625,-145.01953125,0.0
556.65234375,-28.80859375,-37.109375,-28.3203125,-38.0859375,-141.11328125,0.0
556.65625,-25.87890625,-37.59765625,-27.83203125,-36.1328125,-169.43359375,0.0
556.66015625,-43.45703125,-43.45703125,-30.76171875,-37.59765625,-147.94921875,0.0
556.6640625,-59.08203125,-41.50390625,-33.203125,-42.96875,-180.17578125,0.0
556.66796875,-49.8046875,-34.66796875,-30.2734375,-46.38671875,-126.953125,0.0
556.671875,-33.203125,-34.1796875,-30.2734375,-41.015625,-94.23828125,0.0
556.67578125,-18.06640625,-22.4609375,-19.53125,-31.25,-62.98828125,0.0
556.6796875,-27.34375,-23.92578125,-20.99609375,-35.15625,-28.3203125,0.0
556.68359375,-50.29296875,-36.62109375,-37.59765625,-41.9921875,3.41796875,0.0
556.6875,-51.26953125,-33.203125,-40.0390625,-42.96875,72.265625,0.0
556.69140625,-41.50390625,-30.76171875,-30.76171875,-42.48046875,96.19140625,0.0
556.6953125,-34.1796875,-35.64453125,-33.69140625,-38.57421875,69.82421875,0.0
556.69921875,-43.45703125,-37.109375,-38.0859375,-34.66796875,131.34765625,0.0
556.703125,-56.640625,-34.66796875,-36.62109375,-39.0625,113.28125,0.0
556.70703125,-55.17578125,-35.15625,-37.59765625,-42.96875,20.01953125,0.0
556.7109375,-41.50390625,-33.203125,-36.1328125,-36.1328125,6.8359375,0.0
556.71484375,-30.76171875,-34.66796875,-35.64453125,-32.2265625,93.75,0.0
556.71875,-41.50390625,-39.55078125,-35.15625,-41.50390625,76.66015625,0.0
556.72265625,-58.59375,-44.43359375,-31.73828125,-47.8515625,-56.640625,0.0
556.7265625,-59.5703125,-43.45703125,-39.0625,-45.8984375,-77.1484375,0.0
556.73046875,-49.8046875,-41.9921875,-41.50390625,-44.43359375,-96.19140625,0.0
556.734375,-33.203125,-38.57421875,-35.15625,-37.59765625,-37.59765625,0.0
556.73828125,-32.2265625,-38.57421875,-36.1328125,-37.109375,47.8515625,0.0
556.7421875,-48.33984375,-40.0390625,-38.57421875,-42.48046875,58.59375,0.0
556.74609375,-56.15234375,-40.0390625,-33.69140625,-42.48046875,-26.85546875,0.0
556.75,-39.55078125,-35.15625,-26.3671875,-36.62109375,5.37109375,0.0
556.75390625,-25.87890625,-32.2265625,-28.80859375,-35.64453125,33.69140625,0.0
556.7578125,-27.34375,-32.71484375,-29.296875,-34.66796875,-16.6015625,0.0
556.76171875,-39.0625,-30.2734375,-23.4375,-30.76171875,-26.3671875,0.0
556.765625,-53.7109375,-33.69140625,-22.94921875,-31.73828125,-29.78515625,0.0
556.76953125,-45.8984375,-31.73828125,-25.87890625,-32.2265625,22.94921875,0.0
556.7734375,-31.25,-27.34375,-30.76171875,-27.83203125,21.97265625,0.0
556.77734375,-32.2265625,-24.90234375,-29.78515625,-28.80859375,-94.23828125,0.0
556.78125,-48.33984375,-26.85546875,-23.4375,-34.1796875,-140.625,0.0
556.78515625,-58.10546875,-28.3203125,-28.80859375,-37.59765625,-8.30078125,0.0
556.7890625,-45.41015625,-25.390625,-32.71484375,-33.203125,96.6796875,0.0
556.79296875,-26.85546875,-27.83203125,-30.76171875,-31.73828125,57.6171875,0.0
556.796875,-22.4609375,-30.2734375,-27.83203125,-33.69140625,-95.703125,0.0
556.80078125,-35.15625,-31.73828125,-29.296875,-33.203125,-203.125,0.0
556.8046875,-47.36328125,-28.3203125,-37.109375,-33.69140625,-195.3125,0.0
556.80859375,-36.1328125,-30.2734375,-37.109375,-33.69140625,-131.8359375,0.0
556.8125,-21.97265625,-36.1328125,-31.25,-32.71484375,-109.86328125,0.0
556.81640625,-20.5078125,-29.296875,-28.3203125,-28.80859375,-87.890625,0.0
556.8203125,-31.25,-26.3671875,-28.80859375,-30.2734375,-13.18359375,0.0
556.82421875,-45.8984375,-33.203125,-32.71484375,-38.57421875,46.38671875,0.0
556.828125,-40.0390625,-29.78515625,-31.73828125,-38.0859375,109.375,0.0
556.83203125,-28.3203125,-32.2265625,-30.76171875,-38.57421875,183.59375,0.0
556.8359375,-19.53125,-33.203125,-35.15625,-41.9921875,147.94921875,0.0
556.83984375,-34.66796875,-33.203125,-39.0625,-47.36328125,75.1953125,0.0
556.84375,-58.59375,-39.55078125,-38.57421875,-51.7578125,45.41015625,0.0
556.84765625,-52.734375,-37.109375,-39.55078125,-49.31640625,20.01953125,0.0
556.8515625,-31.73828125,-26.85546875,-35.64453125,-45.41015625,-23.4375,0.0
556.85546875,-16.11328125,-25.87890625,-25.390625,-39.0625,-104.98046875,0.0
556.859375,-25.390625,-29.78515625,-26.85546875,-39.55078125,-70.80078125,0.0
556.86328125,-39.0625,-28.3203125,-35.64453125,-41.50390625,-6.8359375,0.0
556.8671875,-41.9921875,-27.83203125,-38.57421875,-45.41015625,-63.4765625,0.0
556.87109375,-27.83203125,-28.3203125,-33.69140625,-42.48046875,-63.4765625,0.0
556.875,-9.27734375,-26.85546875,-29.78515625,-30.76171875,-5.37109375,0.0
556.87890625,-13.18359375,-25.87890625,-28.3203125,-27.83203125,1.953125,0.0
556.8828125,-30.76171875,-21.97265625,-30.76171875,-28.3203125,-14.6484375,0.0
556.88671875,-38.0859375,-22.94921875,-34.66796875,-29.78515625,-42.48046875,0.0
556.890625,-26.3671875,-27.83203125,-31.73828125,-30.76171875,41.015625,0.0
556.89453125,-11.71875,-29.296875,-28.3203125,-24.90234375,31.73828125,0.0
556.8984375,-24.90234375,-30.2734375,-30.2734375,-29.78515625,-90.33203125,0.0
556.90234375,-47.8515625,-31.73828125,-27.83203125,-35.64453125,-63.4765625,0.0
556.90625,-55.17578125,-37.59765625,-34.1796875,-39.0625,-44.921875,0.0
556.91015625,-40.0390625,-35.64453125,-36.62109375,-37.59765625,41.50390625,0.0
556.9140625,-15.13671875,-29.296875,-29.78515625,-31.25,115.72265625,0.0
556.91796875,-10.7421875,-28.80859375,-29.296875,-30.2734375,56.640625,0.0
556.921875,-28.80859375,-26.85546875,-32.71484375,-32.71484375,20.99609375,0.0
556.92578125,-43.45703125,-28.3203125,-31.25,-38.0859375,-24.90234375,0.0
556.9296875,-28.80859375,-29.296875,-27.34375,-31.25,-37.109375,0.0
556.93359375,-8.30078125,-26.85546875,-22.4609375,-19.04296875,-1.953125,0.0
556.9375,-9.27734375,-29.296875,-27.34375,-25.87890625,-2.44140625,0.0
556.94140625,-30.76171875,-31.73828125,-32.2265625,-33.69140625,-70.3125,0.0
556.9453125,-43.45703125,-32.2265625,-30.76171875,-35.64453125,-85.9375,0.0
556.94921875,-26.3671875,-31.73828125,-28.3203125,-29.78515625,-37.109375,0.0
556.953125,-11.23046875,-29.296875,-24.90234375,-20.99609375,41.50390625,0.0
556.95703125,-13.18359375,-27.83203125,-24.90234375,-18.06640625,62.01171875,0.0
556.9609375,-35.64453125,-38.0859375,-32.71484375,-32.2265625,-27.34375,0.0
556.96484375,-52.24609375,-47.36328125,-36.1328125,-36.62109375,-109.375,0.0
556.96875,-36.1328125,-38.0859375,-30.76171875,-20.99609375,-81.54296875,0.0
556.97265625,-15.625,-30.2734375,-26.85546875,-16.6015625,-45.8984375,0.0
556.9765625,-10.25390625,-27.34375,-27.34375,-20.01953125,19.04296875,0.0
556.98046875,-26.3671875,-31.25,-30.76171875,-25.87890625,-43.45703125,0.0
556.984375,-43.45703125,-33.69140625,-33.203125,-33.203125,-63.96484375,0.0
556.98828125,-38.57421875,-32.2265625,-35.64453125,-36.62109375,-2.44140625,0.0
556.9921875,-15.625,-26.3671875,-30.2734375,-28.3203125,-39.0625,0.0
556.99609375,1.953125,-17.08984375,-26.3671875,-18.06640625,-25.390625,0.0
557.0,-11.71875,-21.484375,-29.296875,-22.4609375,55.6640625,0.0
557.00390625,-37.109375,-29.78515625,-28.80859375,-32.71484375,1.953125,0.0
557.0078125,-41.9921875,-38.57421875,-28.80859375,-36.62109375,-44.921875,0.0
557.01171875,-24.90234375,-39.55078125,-33.203125,-31.73828125,-23.92578125,0.0
557.015625,-7.32421875,-33.69140625,-37.109375,-30.2734375,-9.765625,0.0
557.01953125,-20.5078125,-34.1796875,-35.64453125,-35.15625,47.8515625,0.0
557.0234375,-41.9921875,-34.1796875,-36.1328125,-43.45703125,-16.6015625,0.0
557.02734375,-45.8984375,-36.1328125,-37.109375,-52.24609375,-143.06640625,0.0
557.03125,-37.109375,-40.52734375,-34.66796875,-47.8515625,-114.74609375,0.0
557.03515625,-19.04296875,-36.62109375,-30.2734375,-42.48046875,-35.15625,0.0
557.0390625,-26.3671875,-34.1796875,-31.73828125,-47.36328125,-53.22265625,0.0
557.04296875,-51.26953125,-38.0859375,-41.50390625,-50.78125,-44.921875,0.0
557.046875,-54.6875,-39.55078125,-40.0390625,-49.31640625,-46.38671875,0.0
557.05078125,-40.0390625,-43.45703125,-29.78515625,-44.921875,-9.27734375,0.0
557.0546875,-21.97265625,-41.50390625,-27.34375,-33.203125,-48.828125,0.0
557.05859375,-24.90234375,-34.66796875,-31.25,-32.71484375,-72.75390625,0.0
557.0625,-44.921875,-34.1796875,-35.64453125,-43.9453125,-5.37109375,0.0
557.06640625,-53.7109375,-38.0859375,-32.2265625,-41.015625,-91.796875,0.0
557.0703125,-38.0859375,-32.2265625,-24.90234375,-28.80859375,-118.65234375,0.0
557.07421875,-13.18359375,-27.83203125,-20.5078125,-20.01953125,-26.85546875,0.0
557.078125,-20.01953125,-32.71484375,-23.4375,-25.390625,-32.71484375,0.0
557.08203125,-45.8984375,-35.64453125,-28.3203125,-38.57421875,-65.4296875,0.0
557.0859375,-54.6875,-35.64453125,-25.390625,-39.0625,-103.02734375,0.0
557.08984375,-37.59765625,-33.203125,-20.99609375,-33.203125,-53.7109375,0.0
557.09375,-18.5546875,-28.80859375,-20.99609375,-29.78515625,57.6171875,0.0
557.09765625,-22.4609375,-33.203125,-19.53125,-31.73828125,61.5234375,0.0
557.1015625,-36.62109375,-31.25,-23.4375,-33.203125,39.0625,0.0
557.10546875,-41.9921875,-28.3203125,-30.2734375,-29.78515625,15.625,0.0
557.109375,-26.85546875,-30.76171875,-26.85546875,-22.94921875,28.3203125,0.0
557.11328125,-7.32421875,-30.76171875,-20.01953125,-18.5546875,30.2734375,0.0
557.1171875,-2.9296875,-27.34375,-20.99609375,-18.5546875,58.10546875,0.0
557.12109375,-16.11328125,-26.3671875,-27.83203125,-19.53125,8.30078125,0.0
557.125,-32.71484375,-29.78515625,-31.73828125,-19.53125,-6.8359375,0.0
557.12890625,-25.390625,-34.66796875,-29.296875,-21.484375,73.73046875,0.0
557.1328125,-3.41796875,-33.203125,-21.97265625,-14.6484375,57.6171875,0.0
557.13671875,1.953125,-29.78515625,-27.83203125,-14.6484375,10.25390625,0.0
557.140625,-24.4140625,-41.50390625,-32.2265625,-29.78515625,-14.6484375,0.0
557.14453125,-50.29296875,-47.36328125,-31.73828125,-37.59765625,-31.25,0.0
557.1484375,-43.45703125,-33.69140625,-30.76171875,-30.2734375,-80.56640625,0.0
557.15234375,-20.01953125,-29.78515625,-28.80859375,-22.94921875,-16.11328125,0.0
557.15625,-10.7421875,-34.1796875,-27.83203125,-24.90234375,0.9765625,0.0
557.16015625,-26.85546875,-33.203125,-29.296875,-27.34375,-19.53125,0.0
557.1640625,-44.921875,-33.69140625,-34.66796875,-34.66796875,24.4140625,0.0
557.16796875,-43.9453125,-37.109375,-32.2265625,-32.71484375,-26.85546875,0.0
557.171875,-25.390625,-36.62109375,-28.80859375,-25.390625,30.2734375,0.0
557.17578125,-12.20703125,-36.1328125,-30.2734375,-24.90234375,67.3828125,0.0
557.1796875,-26.3671875,-38.0859375,-31.25,-24.4140625,-18.06640625,0.0
557.18359375,-46.875,-38.57421875,-34.66796875,-27.34375,-63.96484375,0.0
557.1875,-43.9453125,-42.96875,-29.78515625,-32.71484375,-131.8359375,0.0
557.19140625,-20.01953125,-41.9921875,-26.85546875,-21.97265625,-120.1171875,0.0
557.1953125,-5.859375,-31.25,-26.3671875,-16.6015625,-32.2265625,0.0
557.19921875,-17.578125,-30.2734375,-28.80859375,-20.01953125,51.26953125,0.0
557.203125,-36.62109375,-38.57421875,-31.25,-24.4140625,85.9375,0.0
557.20703125,-39.55078125,-41.015625,-30.76171875,-31.73828125,-6.34765625,0.0
557.2109375,-24.90234375,-36.62109375,-30.76171875,-27.34375,-8.7890625,0.0
557.21484375,-1.953125,-28.80859375,-28.80859375,-19.53125,-12.20703125,0.0
557.21875,-8.7890625,-27.83203125,-31.73828125,-27.34375,-79.1015625,0.0
557.22265625,-34.66796875,-33.69140625,-36.1328125,-34.66796875,-82.03125,0.0
557.2265625,-34.1796875,-31.25,-27.83203125,-30.76171875,0.48828125,0.0
557.23046875,-21.484375,-31.25,-25.390625,-29.296875,49.31640625,0.0
557.234375,-12.20703125,-33.69140625,-27.83203125,-26.85546875,18.5546875,0.0
557.23828125,-14.6484375,-31.25,-30.2734375,-27.83203125,-7.8125,0.0
557.2421875,-32.2265625,-31.73828125,-32.71484375,-36.1328125,-23.4375,0.0
557.24609375,-41.015625,-33.203125,-31.73828125,-43.9453125,-91.30859375,0.0
557.25,-35.64453125,-33.203125,-34.1796875,-41.015625,-68.359375,0.0
557.25390625,-21.484375,-33.203125,-35.15625,-37.59765625,-24.90234375,0.0
557.2578125,-23.4375,-36.1328125,-37.109375,-42.96875,-52.734375,0.0
557.26171875,-40.52734375,-37.59765625,-38.0859375,-40.0390625,-43.9453125,0.0
557.265625,-50.78125,-38.0859375,-33.69140625,-44.921875,-17.08984375,0.0
557.26953125,-38.57421875,-39.0625,-33.69140625,-43.45703125,-19.04296875,0.0
557.2734375,-15.625,-35.64453125,-28.80859375,-31.25,20.01953125,0.0
557.27734375,-16.11328125,-37.59765625,-30.2734375,-26.85546875,42.48046875,0.0
557.28125,-34.66796875,-41.9921875,-39.0625,-28.3203125,43.9453125,0.0
557.28515625,-42.96875,-36.1328125,-35.64453125,-32.2265625,53.22265625,0.0
557.2890625,-36.62109375,-27.83203125,-28.80859375,-32.71484375,5.37109375,0.0
557.29296875,-24.90234375,-26.85546875,-27.34375,-26.85546875,-31.73828125,0.0
557.296875,-18.5546875,-28.3203125,-29.78515625,-22.4609375,-74.70703125,0.0
557.30078125,-29.296875,-30.76171875,-32.2265625,-30.2734375,-103.515625,0.0
557.3046875,-44.921875,-30.2734375,-30.2734375,-39.55078125,-109.86328125,0.0
557.30859375,-38.57421875,-25.87890625,-27.83203125,-34.1796875,-81.0546875,0.0
557.3125,-20.01953125,-24.4140625,-35.15625,-30.76171875,11.23046875,0.0
557.31640625,-19.04296875,-25.390625,-36.1328125,-33.203125,-26.3671875,0.0
557.3203125,-37.109375,-25.390625,-33.69140625,-33.203125,-48.33984375,0.0
557.32421875,-46.875,-25.390625,-34.66796875,-31.73828125,-76.171875,0.0
557.328125,-41.50390625,-23.92578125,-32.71484375,-30.76171875,-106.93359375,0.0
557.33203125,-30.76171875,-26.85546875,-29.78515625,-28.80859375,-41.015625,0.0
557.3359375,-22.94921875,-24.4140625,-26.85546875,-23.4375,-42.48046875,0.0
557.33984375,-34.66796875,-24.4140625,-25.390625,-24.90234375,-66.40625,0.0
557.34375,-52.24609375,-31.73828125,-29.78515625,-33.69140625,57.12890625,0.0
557.34765625,-50.29296875,-33.203125,-33.203125,-35.64453125,48.828125,0.0
557.3515625,-37.109375,-32.2265625,-30.2734375,-37.59765625,47.36328125,0.0
557.35546875,-29.296875,-36.1328125,-34.66796875,-42.48046875,93.26171875,0.0
557.359375,-37.59765625,-36.62109375,-38.57421875,-44.43359375,19.53125,0.0
557.36328125,-58.10546875,-37.109375,-38.0859375,-46.38671875,5.859375,0.0
557.3671875,-55.17578125,-31.73828125,-34.66796875,-45.8984375,18.06640625,0.0
557.37109375,-33.69140625,-23.4375,-31.73828125,-39.55078125,-46.875,0.0
557.375,-23.92578125,-27.83203125,-35.15625,-36.1328125,-24.4140625,0.0
557.37890625,-23.92578125,-29.78515625,-31.73828125,-33.203125,-70.80078125,0.0
557.3828125,-38.0859375,-30.2734375,-28.80859375,-35.64453125,-206.54296875,0.0
557.38671875,-45.8984375,-35.64453125,-37.59765625,-42.96875,-238.76953125,0.0
557.390625,-30.2734375,-34.1796875,-35.15625,-34.66796875,-222.16796875,0.0
557.39453125,-18.06640625,-28.80859375,-29.78515625,-31.25,-257.8125,0.0
557.3984375,-24.90234375,-30.2734375,-34.1796875,-37.59765625,-177.24609375,0.0
557.40234375,-39.0625,-35.15625,-33.69140625,-37.109375,-115.234375,0.0
557.40625,-44.43359375,-33.69140625,-31.73828125,-32.71484375,-143.5546875,0.0
557.41015625,-34.1796875,-31.73828125,-28.3203125,-30.76171875,-139.16015625,0.0
557.4140625,-19.53125,-26.85546875,-22.4609375,-26.3671875,-140.625,0.0
557.41796875,-20.01953125,-26.3671875,-26.85546875,-25.87890625,-107.421875,0.0
557.421875,-42.48046875,-35.64453125,-32.71484375,-30.76171875,-146.484375,0.0
557.42578125,-48.33984375,-36.1328125,-21.484375,-26.85546875,-188.4765625,0.0
557.4296875,-30.2734375,-29.78515625,-20.01953125,-18.06640625,-96.6796875,0.0
557.43359375,-16.6015625,-29.296875,-25.390625,-23.92578125,-104.98046875,0.0
557.4375,-20.01953125,-31.73828125,-23.4375,-27.83203125,-151.85546875,0.0
557.44140625,-36.1328125,-32.71484375,-33.203125,-30.76171875,-155.76171875,0.0
557.4453125,-46.38671875,-35.15625,-38.57421875,-36.1328125,-176.26953125,0.0
557.44921875,-38.0859375,-36.1328125,-32.2265625,-32.2265625,-91.796875,0.0
557.453125,-21.97265625,-34.66796875,-28.80859375,-26.85546875,61.5234375,0.0
557.45703125,-27.83203125,-39.0625,-32.71484375,-32.71484375,112.3046875,0.0
557.4609375,-40.52734375,-35.15625,-31.73828125,-33.69140625,79.1015625,0.0
557.46484375,-46.38671875,-33.203125,-28.80859375,-33.69140625,66.40625,0.0
557.46875,-40.52734375,-36.62109375,-30.76171875,-35.15625,51.7578125,0.0
557.47265625,-26.3671875,-34.66796875,-22.4609375,-29.78515625,74.70703125,0.0
557.4765625,-28.80859375,-34.66796875,-28.3203125,-28.3203125,158.203125,0.0
557.48046875,-41.50390625,-39.55078125,-37.59765625,-33.69140625,99.609375,0.0
557.484375,-53.7109375,-40.52734375,-35.15625,-41.015625,12.20703125,0.0
557.48828125,-51.26953125,-37.109375,-35.15625,-39.0625,-4.39453125,0.0
557.4921875,-41.50390625,-35.64453125,-31.73828125,-34.66796875,-20.01953125,0.0
557.49609375,-33.69140625,-34.1796875,-29.78515625,-34.1796875,76.66015625,0.0
557.5,-42.96875,-36.1328125,-36.62109375,-43.9453125,116.69921875,0.0
557.50390625,-57.12890625,-39.55078125,-41.015625,-49.31640625,58.59375,0.0
557.5078125,-47.36328125,-37.59765625,-36.1328125,-39.0625,94.7265625,0.0
557.51171875,-26.85546875,-34.1796875,-29.296875,-34.66796875,81.54296875,0.0
557.515625,-17.578125,-34.1796875,-28.80859375,-35.15625,13.671875,0.0
557.51953125,-32.71484375,-41.015625,-37.59765625,-41.50390625,-19.04296875,0.0
557.5234375,-48.828125,-41.9921875,-38.57421875,-42.48046875,-41.50390625,0.0
557.52734375,-43.9453125,-41.015625,-32.71484375,-36.62109375,0.0,0.0
557.53125,-34.66796875,-44.43359375,-26.3671875,-39.55078125,-15.625,0.0
557.53515625,-23.4375,-42.48046875,-27.83203125,-36.1328125,-82.51953125,0.0
557.5390625,-22.4609375,-33.203125,-33.69140625,-33.203125,-74.70703125,0.0
557.54296875,-35.64453125,-34.1796875,-38.57421875,-38.57421875,-22.94921875,0.0
557.546875,-43.9453125,-37.59765625,-36.62109375,-38.0859375,14.6484375,0.0
557.55078125,-36.62109375,-34.1796875,-34.1796875,-39.0625,7.8125,0.0
557.5546875,-27.83203125,-29.78515625,-37.109375,-40.52734375,4.39453125,0.0
557.55859375,-37.109375,-31.73828125,-35.15625,-40.52734375,67.87109375,0.0
557.5625,-54.19921875,-41.50390625,-34.66796875,-45.41015625,98.14453125,0.0
557.56640625,-48.828125,-36.1328125,-28.3203125,-37.109375,-25.390625,0.0
557.5703125,-31.25,-27.34375,-24.90234375,-24.90234375,-16.6015625,0.0
557.57421875,-19.04296875,-28.80859375,-27.83203125,-30.2734375,22.4609375,0.0
557.578125,-25.87890625,-29.296875,-32.2265625,-38.57421875,-47.8515625,0.0
557.58203125,-36.1328125,-27.34375,-38.0859375,-34.1796875,-57.6171875,0.0
557.5859375,-51.26953125,-34.66796875,-32.71484375,-37.59765625,-61.5234375,0.0
557.58984375,-51.26953125,-36.62109375,-24.90234375,-40.0390625,35.15625,0.0
557.59375,-24.4140625,-31.73828125,-21.484375,-23.4375,127.44140625,0.0
557.59765625,-14.6484375,-32.2265625,-22.4609375,-13.671875,103.02734375,0.0
557.6015625,-29.78515625,-33.69140625,-24.90234375,-22.94921875,-1.953125,0.0
557.60546875,-40.0390625,-36.1328125,-23.92578125,-26.85546875,-139.6484375,0.0
557.609375,-32.71484375,-32.71484375,-23.4375,-26.3671875,-118.65234375,0.0
557.61328125,-24.4140625,-26.85546875,-22.94921875,-29.296875,-57.6171875,0.0
557.6171875,-29.296875,-26.3671875,-24.4140625,-31.73828125,-56.15234375,0.0
557.62109375,-44.43359375,-31.25,-25.87890625,-40.52734375,-36.62109375,0.0
557.625,-59.5703125,-38.0859375,-30.76171875,-44.43359375,-42.48046875,0.0
557.62890625,-48.33984375,-37.109375,-32.2265625,-39.0625,-50.29296875,0.0
557.6328125,-28.3203125,-32.2265625,-25.87890625,-35.64453125,-77.63671875,0.0
557.63671875,-23.92578125,-27.83203125,-23.4375,-31.73828125,-33.203125,0.0
557.640625,-32.71484375,-29.296875,-26.85546875,-30.2734375,100.5859375,0.0
557.64453125,-45.8984375,-34.66796875,-31.25,-34.1796875,132.8125,0.0
557.6484375,-42.48046875,-33.69140625,-32.2265625,-36.1328125,53.22265625,0.0
557.65234375,-22.94921875,-29.296875,-24.90234375,-36.1328125,23.92578125,0.0
557.65625,-23.92578125,-37.59765625,-28.3203125,-39.0625,-13.18359375,0.0
557.66015625,-41.9921875,-40.52734375,-35.15625,-39.0625,-82.51953125,0.0
557.6640625,-54.6875,-35.15625,-34.66796875,-40.52734375,-37.109375,0.0
557.66796875,-47.8515625,-32.71484375,-28.3203125,-39.55078125,-38.0859375,0.0
557.671875,-26.3671875,-33.69140625,-21.97265625,-31.25,-66.40625,0.0
557.67578125,-20.5078125,-36.62109375,-21.97265625,-27.34375,-121.09375,0.0
557.6796875,-34.1796875,-36.62109375,-26.85546875,-33.203125,-108.88671875,0.0
557.68359375,-55.17578125,-39.0625,-33.69140625,-42.96875,-46.38671875,0.0
557.6875,-61.03515625,-41.50390625,-33.203125,-44.921875,-67.87109375,0.0
557.69140625,-40.52734375,-40.52734375,-34.66796875,-38.57421875,-41.9921875,0.0
557.6953125,-26.3671875,-40.0390625,-29.78515625,-37.109375,8.7890625,0.0
557.69921875,-35.64453125,-38.57421875,-29.296875,-35.15625,1.953125,0.0
557.703125,-41.9921875,-33.203125,-40.0390625,-31.73828125,-17.08984375,0.0
557.70703125,-44.921875,-31.73828125,-36.1328125,-28.80859375,9.27734375,0.0
557.7109375,-43.45703125,-40.0390625,-32.71484375,-26.85546875,-65.91796875,0.0
557.71484375,-23.92578125,-33.69140625,-34.1796875,-26.85546875,-133.30078125,0.0
557.71875,-23.92578125,-25.390625,-32.2265625,-28.80859375,-69.3359375,0.0
557.72265625,-41.015625,-30.76171875,-27.83203125,-32.71484375,-51.7578125,0.0
557.7265625,-49.31640625,-32.2265625,-30.2734375,-37.59765625,-25.87890625,0.0
557.73046875,-39.55078125,-30.2734375,-36.1328125,-38.57421875,-5.37109375,0.0
557.734375,-26.3671875,-26.3671875,-33.203125,-33.69140625,-24.90234375,0.0
557.73828125,-36.62109375,-23.4375,-30.2734375,-37.59765625,-3.90625,0.0
557.7421875,-52.734375,-24.90234375,-29.78515625,-41.50390625,35.64453125,0.0
557.74609375,-54.6875,-29.78515625,-35.64453125,-43.9453125,-8.7890625,0.0
557.75,-41.9921875,-23.92578125,-34.66796875,-40.52734375,24.90234375,0.0
557.75390625,-28.3203125,-23.92578125,-26.3671875,-35.64453125,61.03515625,0.0
557.7578125,-34.1796875,-34.1796875,-27.34375,-38.57421875,39.55078125,0.0
557.76171875,-49.8046875,-30.76171875,-30.76171875,-41.50390625,39.0625,0.0
557.765625,-54.19921875,-31.73828125,-31.25,-41.50390625,23.92578125,0.0
557.76953125,-40.52734375,-31.25,-32.71484375,-39.0625,33.69140625,0.0
557.7734375,-24.90234375,-24.4140625,-27.34375,-31.25,41.9921875,0.0
557.77734375,-20.5078125,-26.85546875,-22.4609375,-30.2734375,14.6484375,0.0
557.78125,-34.1796875,-32.71484375,-26.3671875,-31.73828125,-72.265625,0.0
557.78515625,-40.52734375,-31.73828125,-29.296875,-32.71484375,-65.4296875,0.0
557.7890625,-29.296875,-27.83203125,-26.85546875,-28.80859375,-63.4765625,0.0
557.79296875,-18.06640625,-28.80859375,-27.34375,-26.3671875,-73.73046875,0.0
557.796875,-16.11328125,-31.25,-30.76171875,-27.83203125,-24.4140625,0.0
557.80078125,-23.4375,-37.59765625,-23.92578125,-26.3671875,-58.10546875,0.0
557.8046875,-31.25,-35.15625,-18.5546875,-28.3203125,-86.42578125,0.0
557.80859375,-27.34375,-29.78515625,-24.90234375,-29.78515625,-125.0,0.0
557.8125,-15.625,-31.25,-25.87890625,-28.3203125,-74.21875,0.0
557.81640625,-16.6015625,-32.2265625,-27.83203125,-32.71484375,48.828125,0.0
557.8203125,-28.3203125,-32.2265625,-32.2265625,-36.1328125,45.8984375,0.0
557.82421875,-37.59765625,-33.69140625,-32.71484375,-31.73828125,-58.59375,0.0
557.828125,-32.2265625,-31.25,-32.2265625,-26.85546875,-63.96484375,0.0
557.83203125,-19.04296875,-33.203125,-35.15625,-29.78515625,-48.33984375,0.0
557.8359375,-16.6015625,-30.2734375,-32.71484375,-34.66796875,17.08984375,0.0
557.83984375,-32.71484375,-29.78515625,-33.203125,-35.64453125,65.91796875,0.0
557.84375,-45.8984375,-37.109375,-30.2734375,-37.109375,3.41796875,0.0
557.84765625,-45.8984375,-37.59765625,-23.92578125,-41.9921875,-24.4140625,0.0
557.8515625,-33.203125,-35.64453125,-29.78515625,-38.57421875,49.8046875,0.0
557.85546875,-21.97265625,-35.15625,-36.1328125,-33.69140625,1.46484375,0.0
557.859375,-32.2265625,-36.1328125,-36.1328125,-38.57421875,-77.63671875,0.0
557.86328125,-45.8984375,-39.55078125,-37.109375,-42.96875,-67.87109375,0.0
557.8671875,-36.62109375,-36.1328125,-32.2265625,-34.1796875,11.23046875,0.0
557.87109375,-18.5546875,-33.69140625,-25.87890625,-28.3203125,115.72265625,0.0
557.875,-8.30078125,-32.71484375,-28.3203125,-32.2265625,54.6875,0.0
557.87890625,-16.6015625,-32.71484375,-33.203125,-32.71484375,-29.296875,0.0
557.8828125,-37.59765625,-29.296875,-33.203125,-36.62109375,-37.109375,0.0
557.88671875,-42.96875,-23.4375,-29.296875,-38.0859375,-82.51953125,0.0
557.890625,-30.2734375,-31.73828125,-21.97265625,-37.109375,-130.37109375,0.0
557.89453125,-15.13671875,-31.73828125,-18.5546875,-34.1796875,-46.875,0.0
557.8984375,-16.6015625,-27.83203125,-22.94921875,-33.69140625,-39.55078125,0.0
557.90234375,-36.62109375,-27.83203125,-27.34375,-37.59765625,-28.3203125,0.0
557.90625,-42.48046875,-28.80859375,-17.578125,-37.109375,-63.96484375,0.0
557.91015625,-25.87890625,-31.25,-21.484375,-32.2265625,-38.0859375,0.0
557.9140625,-18.5546875,-33.69140625,-30.76171875,-31.73828125,11.23046875,0.0
557.91796875,-27.83203125,-39.0625,-30.2734375,-35.64453125,-35.15625,0.0
557.921875,-39.0625,-37.109375,-29.78515625,-38.57421875,-63.4765625,0.0
557.92578125,-48.828125,-38.57421875,-27.34375,-39.55078125,-73.2421875,0.0
557.9296875,-43.45703125,-34.1796875,-30.76171875,-35.64453125,-37.59765625,0.0
557.93359375,-28.3203125,-33.203125,-29.78515625,-29.78515625,20.01953125,0.0
557.9375,-31.25,-40.52734375,-24.90234375,-32.71484375,15.625,0.0
557.94140625,-41.50390625,-39.0625,-33.69140625,-39.0625,-46.875,0.0
557.9453125,-48.33984375,-34.1796875,-32.2265625,-37.109375,-87.890625,0.0
557.94921875,-35.15625,-30.76171875,-27.83203125,-32.71484375,-31.25,0.0
557.953125,-14.16015625,-28.80859375,-22.94921875,-26.85546875,9.27734375,0.0
557.95703125,-14.6484375,-31.73828125,-21.97265625,-20.5078125,27.83203125,0.0
557.9609375,-28.80859375,-31.25,-26.3671875,-25.390625,88.37890625,0.0
557.96484375,-43.9453125,-33.203125,-26.85546875,-32.2265625,41.015625,0.0
557.96875,-40.52734375,-37.109375,-26.3671875,-26.3671875,-10.7421875,0.0
557.97265625,-29.78515625,-33.69140625,-24.4140625,-23.92578125,31.73828125,0.0
557.9765625,-31.25,-32.71484375,-29.78515625,-36.62109375,25.87890625,0.0
557.98046875,-43.9453125,-36.62109375,-31.73828125,-41.9921875,-11.23046875,0.0
557.984375,-56.15234375,-37.109375,-35.15625,-41.50390625,-43.9453125,0.0
557.98828125,-46.38671875,-36.62109375,-38.0859375,-45.8984375,-102.5390625,0.0
557.9921875,-27.83203125,-32.71484375,-32.2265625,-41.015625,-46.875,0.0
557.99609375,-22.94921875,-29.78515625,-29.78515625,-39.0625,43.9453125,0.0
558.0,-37.109375,-34.1796875,-37.59765625,-46.38671875,20.01953125,0.0
558.00390625,-57.12890625,-36.1328125,-39.55078125,-53.22265625,-25.87890625,0.0
558.0078125,-58.59375,-40.0390625,-37.109375,-51.7578125,-125.48828125,0.0
558.01171875,-41.9921875,-35.64453125,-36.1328125,-49.8046875,-79.58984375,0.0
558.015625,-32.2265625,-32.71484375,-35.64453125,-50.29296875,9.27734375,0.0
558.01953125,-42.48046875,-39.0625,-44.43359375,-53.7109375,-9.27734375,0.0
558.0234375,-52.734375,-37.59765625,-38.0859375,-50.78125,-51.26953125,0.0
558.02734375,-49.31640625,-34.1796875,-23.92578125,-39.55078125,-51.26953125,0.0
558.03125,-32.2265625,-32.2265625,-25.87890625,-35.15625,-60.05859375,0.0
558.03515625,-19.53125,-30.76171875,-27.83203125,-27.34375,-62.98828125,0.0
558.0390625,-27.34375,-29.296875,-23.4375,-26.85546875,-81.54296875,0.0
558.04296875,-41.50390625,-30.2734375,-27.83203125,-33.203125,-2.44140625,0.0
558.046875,-40.52734375,-33.203125,-32.71484375,-31.73828125,25.390625,0.0
558.05078125,-23.92578125,-30.2734375,-28.80859375,-28.3203125,-51.7578125,0.0
558.0546875,-8.7890625,-27.34375,-27.83203125,-23.92578125,-36.1328125,0.0
558.05859375,-19.53125,-32.71484375,-30.76171875,-31.25,-11.71875,0.0
558.0625,-43.45703125,-37.59765625,-35.15625,-40.0390625,-84.47265625,0.0
558.06640625,-53.7109375,-35.64453125,-35.64453125,-43.45703125,-39.55078125,0.0
558.0703125,-35.15625,-29.296875,-35.15625,-41.9921875,-4.8828125,0.0
558.07421875,-17.578125,-22.4609375,-37.59765625,-34.66796875,33.203125,0.0
558.078125,-34.1796875,-29.296875,-34.66796875,-40.0390625,156.25,0.0
558.08203125,-53.7109375,-38.0859375,-33.69140625,-48.33984375,89.35546875,0.0
558.0859375,-47.8515625,-37.59765625,-26.85546875,-41.50390625,-84.47265625,0.0
558.08984375,-31.25,-34.66796875,-20.01953125,-33.69140625,-85.44921875,0.0
558.09375,-17.08984375,-26.3671875,-25.87890625,-34.66796875,67.87109375,0.0
558.09765625,-18.06640625,-29.296875,-31.73828125,-35.15625,76.66015625,0.0
558.1015625,-34.66796875,-38.0859375,-35.15625,-33.69140625,-63.4765625,0.0
558.10546875,-41.50390625,-33.203125,-31.73828125,-35.64453125,-94.7265625,0.0
558.109375,-29.296875,-25.390625,-28.3203125,-33.203125,56.640625,0.0
558.11328125,-16.11328125,-27.34375,-31.73828125,-27.34375,147.4609375,0.0
558.1171875,-20.5078125,-33.69140625,-35.64453125,-25.87890625,79.1015625,0.0
558.12109375,-36.62109375,-38.57421875,-37.109375,-31.25,-54.6875,0.0
558.125,-50.29296875,-37.59765625,-41.50390625,-38.0859375,-119.140625,0.0
558.12890625,-44.43359375,-36.1328125,-35.64453125,-31.73828125,-85.9375,0.0
558.1328125,-32.2265625,-34.1796875,-23.4375,-21.97265625,-27.83203125,0.0
558.13671875,-31.73828125,-31.73828125,-28.3203125,-27.83203125,-0.48828125,0.0
558.140625,-42.96875,-33.69140625,-33.203125,-28.80859375,-7.32421875,0.0
558.14453125,-51.26953125,-34.66796875,-32.2265625,-26.3671875,3.41796875,0.0
558.1484375,-39.55078125,-29.78515625,-31.73828125,-25.390625,-35.64453125,0.0
558.15234375,-25.87890625,-27.34375,-33.69140625,-22.4609375,-20.99609375,0.0
558.15625,-20.5078125,-26.3671875,-31.73828125,-24.90234375,41.015625,0.0
558.16015625,-35.15625,-27.34375,-31.25,-30.2734375,-11.71875,0.0
558.1640625,-50.29296875,-24.90234375,-33.69140625,-28.3203125,-75.1953125,0.0
558.16796875,-40.52734375,-23.4375,-30.2734375,-20.5078125,-39.55078125,0.0
558.171875,-24.90234375,-30.2734375,-26.85546875,-21.97265625,-83.49609375,0.0
558.17578125,-25.390625,-34.66796875,-26.85546875,-29.78515625,-56.640625,0.0
558.1796875,-39.0625,-35.64453125,-29.78515625,-29.296875,-12.20703125,0.0
558.18359375,-47.36328125,-34.1796875,-36.62109375,-29.78515625,-49.8046875,0.0
558.1875,-44.921875,-35.64453125,-38.0859375,-37.59765625,-133.7890625,0.0
558.19140625,-37.59765625,-35.64453125,-31.73828125,-37.59765625,-143.06640625,0.0
558.1953125,-22.4609375,-28.3203125,-28.3203125,-30.76171875,-53.7109375,0.0
