timestamp,TP9,AF7,AF8,TP10,AUX,Marker
244.00390625,-19.04296875,-26.3671875,-24.4140625,-27.83203125,-4.39453125,0.0
244.0078125,-20.99609375,-25.87890625,-28.80859375,-29.296875,36.1328125,0.0
244.01171875,-37.109375,-24.4140625,-29.296875,-25.390625,-66.89453125,0.0
244.015625,-46.875,-23.92578125,-22.94921875,-22.4609375,-130.859375,0.0
244.01953125,-41.015625,-30.76171875,-24.4140625,-35.64453125,-121.09375,0.0
244.0234375,-22.94921875,-30.2734375,-24.4140625,-45.8984375,-95.703125,0.0
244.02734375,-13.671875,-36.1328125,-26.85546875,-34.66796875,-37.59765625,0.0
244.03125,-19.53125,-41.015625,-37.109375,-22.4609375,-4.8828125,0.0
244.03515625,-41.015625,-33.203125,-44.921875,-31.25,-76.66015625,0.0
244.0390625,-63.96484375,-31.73828125,-39.55078125,-53.22265625,-98.6328125,0.0
244.04296875,-55.6640625,-24.4140625,-27.34375,-70.3125,-59.08203125,0.0
244.046875,-50.78125,-19.04296875,-28.3203125,-80.078125,26.85546875,0.0
244.05078125,-78.125,-25.87890625,-35.64453125,-86.42578125,-30.2734375,0.0
244.0546875,-105.95703125,-27.34375,-34.66796875,-96.6796875,-226.5625,0.0
244.05859375,-102.5390625,-19.04296875,-32.71484375,-96.19140625,-240.234375,0.0
244.0625,-83.984375,-23.4375,-29.296875,-94.7265625,-20.01953125,0.0
244.06640625,-64.453125,-29.78515625,-26.85546875,-86.9140625,154.296875,0.0
244.0703125,-66.89453125,-24.90234375,-29.78515625,-75.1953125,214.35546875,0.0
244.07421875,-84.9609375,-22.4609375,-31.73828125,-71.77734375,238.28125,0.0
244.078125,-83.49609375,-31.25,-34.1796875,-68.84765625,81.54296875,0.0
244.08203125,-63.96484375,-32.2265625,-29.78515625,-72.265625,35.15625,0.0
244.0859375,-43.45703125,-21.484375,-18.5546875,-65.91796875,139.16015625,0.0
244.08984375,-45.41015625,-23.92578125,-21.484375,-58.59375,38.0859375,0.0
244.09375,-71.77734375,-29.78515625,-29.78515625,-64.94140625,-55.6640625,0.0
244.09765625,-79.58984375,-32.71484375,-28.80859375,-57.12890625,-31.25,0.0
244.1015625,-53.22265625,-25.390625,-20.5078125,-35.64453125,-37.59765625,0.0
244.10546875,-27.83203125,-16.11328125,-20.01953125,-35.15625,8.30078125,0.0
244.109375,-37.109375,-31.73828125,-32.2265625,-48.828125,61.5234375,0.0
244.11328125,-59.08203125,-33.69140625,-37.109375,-50.29296875,70.80078125,0.0
244.1171875,-62.5,-22.4609375,-31.73828125,-48.828125,-13.18359375,0.0
244.12109375,-52.24609375,-28.80859375,-34.66796875,-56.640625,-70.3125,0.0
244.125,-31.25,-27.34375,-35.64453125,-59.08203125,31.73828125,0.0
244.12890625,-31.25,-30.2734375,-35.64453125,-46.875,110.3515625,0.0
244.1328125,-55.6640625,-38.0859375,-36.1328125,-45.41015625,11.23046875,0.0
244.13671875,-72.75390625,-37.59765625,-33.203125,-45.8984375,8.30078125,0.0
244.140625,-56.640625,-36.62109375,-27.83203125,-45.41015625,128.41796875,0.0
244.14453125,-25.87890625,-35.64453125,-26.85546875,-39.55078125,100.09765625,0.0
244.1484375,-22.94921875,-33.203125,-29.296875,-36.62109375,-18.06640625,0.0
244.15234375,-48.33984375,-31.73828125,-36.62109375,-47.36328125,-95.21484375,0.0
244.15625,-66.40625,-37.109375,-39.55078125,-47.8515625,-125.48828125,0.0
244.16015625,-48.33984375,-35.64453125,-30.76171875,-40.52734375,-41.9921875,0.0
244.1640625,0.0,-15.625,-13.671875,-17.08984375,-84.9609375,0.0
244.16796875,-0.48828125,-20.01953125,-17.578125,-19.04296875,-125.0,0.0
244.171875,-33.69140625,-35.15625,-29.78515625,-38.57421875,-18.5546875,0.0
244.17578125,-48.828125,-35.15625,-28.80859375,-48.33984375,-3.41796875,0.0
244.1796875,-41.50390625,-35.15625,-21.97265625,-47.36328125,2.9296875,0.0
244.18359375,-19.53125,-33.203125,-21.97265625,-36.62109375,-32.71484375,0.0
244.1875,-15.13671875,-33.69140625,-23.4375,-37.59765625,-72.265625,0.0
244.19140625,-29.296875,-24.90234375,-22.4609375,-33.69140625,-1.953125,0.0
244.1953125,-50.78125,-24.90234375,-26.85546875,-32.71484375,38.0859375,0.0
244.19921875,-49.8046875,-33.69140625,-26.3671875,-38.57421875,48.828125,0.0
244.203125,-29.296875,-31.25,-26.85546875,-40.0390625,27.83203125,0.0
244.20703125,-9.765625,-18.5546875,-19.53125,-26.85546875,-14.6484375,0.0
244.2109375,-18.5546875,-14.16015625,-13.671875,-11.71875,-38.0859375,0.0
244.21484375,-50.78125,-31.73828125,-30.76171875,-30.2734375,-49.31640625,0.0
244.21875,-50.78125,-33.203125,-32.2265625,-42.48046875,-57.6171875,0.0
244.22265625,-27.34375,-29.296875,-24.90234375,-36.1328125,53.22265625,0.0
244.2265625,-9.27734375,-28.3203125,-20.5078125,-32.71484375,158.69140625,0.0
244.23046875,-25.87890625,-27.83203125,-23.4375,-30.76171875,227.05078125,0.0
244.234375,-53.7109375,-30.76171875,-27.83203125,-30.76171875,101.07421875,0.0
244.23828125,-53.7109375,-29.296875,-24.90234375,-29.78515625,-14.6484375,0.0
244.2421875,-29.78515625,-27.83203125,-20.99609375,-31.73828125,-13.18359375,0.0
244.24609375,-10.7421875,-30.2734375,-21.484375,-32.2265625,-30.2734375,0.0
244.25,-21.484375,-29.296875,-24.90234375,-26.3671875,32.2265625,0.0
244.25390625,-39.0625,-20.01953125,-20.5078125,-20.01953125,3.90625,0.0
244.2578125,-47.36328125,-24.90234375,-21.484375,-26.85546875,-76.171875,0.0
244.26171875,-40.0390625,-31.73828125,-24.4140625,-36.1328125,-110.3515625,0.0
244.265625,-20.5078125,-32.2265625,-24.4140625,-31.25,-59.5703125,0.0
244.26953125,-25.390625,-35.64453125,-32.71484375,-32.2265625,83.49609375,0.0
244.2734375,-53.7109375,-35.15625,-39.0625,-41.015625,99.609375,0.0
244.27734375,-62.5,-38.0859375,-34.1796875,-36.62109375,-0.48828125,0.0
244.28125,-36.1328125,-29.296875,-24.4140625,-29.296875,20.01953125,0.0
244.28515625,-13.18359375,-24.90234375,-27.34375,-35.15625,93.26171875,0.0
244.2890625,-24.90234375,-36.62109375,-39.55078125,-41.9921875,84.9609375,0.0
244.29296875,-48.33984375,-36.62109375,-39.55078125,-41.50390625,47.36328125,0.0
244.296875,-55.6640625,-31.25,-31.73828125,-36.62109375,9.27734375,0.0
244.30078125,-44.921875,-30.2734375,-28.80859375,-36.62109375,-54.6875,0.0
244.3046875,-26.3671875,-28.3203125,-31.25,-45.41015625,13.671875,0.0
244.30859375,-23.92578125,-26.85546875,-33.203125,-50.29296875,112.3046875,0.0
244.3125,-49.31640625,-29.296875,-35.15625,-48.828125,19.04296875,0.0
244.31640625,-60.05859375,-29.296875,-31.73828125,-44.43359375,-25.390625,0.0
244.3203125,-36.62109375,-30.2734375,-25.390625,-34.66796875,55.6640625,0.0
244.32421875,-13.671875,-25.87890625,-24.4140625,-25.87890625,51.26953125,0.0
244.328125,-10.7421875,-22.94921875,-24.90234375,-25.87890625,31.73828125,0.0
244.33203125,-37.59765625,-31.25,-31.73828125,-32.71484375,-15.13671875,0.0
244.3359375,-60.546875,-31.25,-37.109375,-43.45703125,-118.65234375,0.0
244.33984375,-35.15625,-21.484375,-41.50390625,-36.1328125,-44.43359375,0.0
244.34375,-12.6953125,-18.06640625,-29.296875,-19.53125,8.30078125,0.0
244.34765625,-39.0625,-33.69140625,-15.625,-38.0859375,38.57421875,0.0
244.3515625,-70.3125,-36.1328125,-22.94921875,-70.3125,-15.625,0.0
244.35546875,-109.375,-24.90234375,-30.76171875,-96.6796875,-123.046875,0.0
244.359375,-128.90625,-17.578125,-27.83203125,-116.69921875,-115.72265625,0.0
244.36328125,-108.88671875,-8.7890625,-24.90234375,-118.1640625,-69.3359375,0.0
244.3671875,-130.859375,-12.6953125,-15.13671875,-140.13671875,0.48828125,0.0
244.37109375,-155.2734375,-8.30078125,-16.6015625,-155.76171875,48.33984375,0.0
244.375,-177.24609375,-5.859375,-24.4140625,-157.71484375,50.29296875,0.0
244.37890625,-205.078125,-23.4375,-28.3203125,-185.05859375,-41.015625,0.0
244.3828125,-182.6171875,-22.4609375,-29.296875,-185.05859375,-108.88671875,0.0
244.38671875,-183.59375,-21.484375,-5.859375,-182.6171875,-156.25,0.0
244.390625,-197.75390625,-24.4140625,3.90625,-188.4765625,-165.52734375,0.0
244.39453125,-225.09765625,-26.85546875,1.46484375,-198.2421875,-168.9453125,0.0
244.3984375,-240.72265625,-32.71484375,9.27734375,-216.30859375,-95.21484375,0.0
244.40234375,-204.1015625,-29.296875,3.90625,-208.0078125,-8.7890625,0.0
244.40625,-187.98828125,-22.94921875,1.46484375,-198.2421875,54.19921875,0.0
244.41015625,-208.0078125,-27.83203125,7.32421875,-207.51953125,122.0703125,0.0
244.4140625,-208.984375,-33.203125,-2.9296875,-194.82421875,77.63671875,0.0
244.41796875,-192.87109375,-31.73828125,-6.8359375,-173.33984375,80.56640625,0.0
244.421875,-165.0390625,-23.4375,-2.44140625,-162.59765625,78.125,0.0
244.42578125,-143.5546875,-15.625,-7.32421875,-164.55078125,16.11328125,0.0
244.4296875,-141.11328125,-18.06640625,-10.7421875,-154.296875,41.50390625,0.0
244.43359375,-133.30078125,-13.18359375,-1.46484375,-121.58203125,7.8125,0.0
244.4375,-123.046875,-19.04296875,-7.32421875,-109.86328125,-17.578125,0.0
244.44140625,-101.5625,-28.80859375,-19.53125,-108.3984375,88.8671875,0.0
244.4453125,-74.70703125,-27.83203125,-18.5546875,-94.23828125,97.65625,0.0
244.44921875,-80.078125,-33.203125,-18.5546875,-87.40234375,50.29296875,0.0
244.453125,-98.14453125,-36.1328125,-24.4140625,-83.984375,-25.87890625,0.0
244.45703125,-100.09765625,-38.57421875,-25.390625,-82.03125,-146.484375,0.0
244.4609375,-73.73046875,-33.69140625,-18.06640625,-69.3359375,-125.0,0.0
244.46484375,-52.24609375,-30.2734375,-20.5078125,-58.10546875,-37.109375,0.0
244.46875,-56.15234375,-37.59765625,-28.3203125,-69.3359375,61.5234375,0.0
244.47265625,-64.94140625,-37.109375,-31.25,-62.01171875,59.5703125,0.0
244.4765625,-66.89453125,-27.83203125,-24.90234375,-46.875,44.43359375,0.0
244.48046875,-50.78125,-29.78515625,-26.3671875,-44.43359375,39.55078125,0.0
244.484375,-34.66796875,-35.64453125,-28.3203125,-41.9921875,-8.30078125,0.0
244.48828125,-38.0859375,-37.59765625,-22.94921875,-46.875,7.32421875,0.0
244.4921875,-54.6875,-40.52734375,-23.92578125,-52.24609375,-45.41015625,0.0
244.49609375,-66.89453125,-43.45703125,-28.3203125,-43.45703125,-76.171875,0.0
244.5,-54.19921875,-42.48046875,-28.80859375,-41.015625,7.32421875,0.0
244.50390625,-28.3203125,-39.55078125,-26.85546875,-26.85546875,-2.9296875,0.0
244.5078125,-34.66796875,-40.0390625,-22.94921875,-29.78515625,21.484375,0.0
244.51171875,-67.3828125,-33.69140625,-26.3671875,-60.05859375,81.0546875,0.0
244.515625,-89.35546875,-25.390625,-37.109375,-82.03125,75.68359375,0.0
244.51953125,-81.54296875,-25.390625,-36.1328125,-83.49609375,135.25390625,0.0
244.5234375,-66.40625,-24.4140625,-30.2734375,-83.984375,103.515625,0.0
244.52734375,-65.91796875,-23.92578125,-32.71484375,-84.9609375,-6.34765625,0.0
244.53125,-77.63671875,-24.4140625,-37.109375,-80.078125,-65.91796875,0.0
244.53515625,-100.09765625,-25.390625,-35.64453125,-84.9609375,-105.46875,0.0
244.5390625,-79.58984375,-21.484375,-33.203125,-72.265625,-35.15625,0.0
244.54296875,-55.17578125,-19.04296875,-29.78515625,-66.89453125,-3.41796875,0.0
244.546875,-60.05859375,-22.94921875,-25.87890625,-75.1953125,12.6953125,0.0
244.55078125,-65.4296875,-28.80859375,-32.2265625,-75.1953125,-12.20703125,0.0
244.5546875,-71.2890625,-28.80859375,-36.62109375,-79.1015625,-151.85546875,0.0
244.55859375,-68.84765625,-30.2734375,-32.2265625,-65.4296875,-170.8984375,0.0
244.5625,-54.19921875,-34.1796875,-32.2265625,-56.640625,-62.01171875,0.0
244.56640625,-29.296875,-20.99609375,-27.83203125,-44.921875,-2.44140625,0.0
244.5703125,-29.296875,-18.06640625,-27.83203125,-37.109375,-30.2734375,0.0
244.57421875,-49.8046875,-27.83203125,-37.59765625,-36.62109375,-81.54296875,0.0
244.578125,-47.8515625,-28.80859375,-46.875,-36.62109375,-71.2890625,0.0
244.58203125,-28.3203125,-25.390625,-43.45703125,-36.62109375,-86.9140625,0.0
244.5859375,-10.7421875,-19.04296875,-44.43359375,-27.83203125,-116.2109375,0.0
244.58984375,-25.87890625,-26.85546875,-43.9453125,-31.25,-36.62109375,0.0
244.59375,-47.36328125,-31.25,-26.3671875,-37.109375,16.6015625,0.0
244.59765625,-44.43359375,-29.296875,-14.16015625,-30.76171875,-71.2890625,0.0
244.6015625,-32.2265625,-29.78515625,-15.13671875,-29.78515625,-94.23828125,0.0
244.60546875,-19.53125,-28.80859375,-19.04296875,-39.55078125,-66.89453125,0.0
244.609375,-25.390625,-33.203125,-19.53125,-39.55078125,-81.0546875,0.0
244.61328125,-46.38671875,-39.0625,-25.390625,-40.52734375,-56.15234375,0.0
244.6171875,-46.38671875,-37.109375,-29.78515625,-38.57421875,-50.78125,0.0
244.62109375,-30.76171875,-33.69140625,-33.203125,-26.85546875,-23.4375,0.0
244.625,-15.625,-29.78515625,-25.390625,-30.76171875,57.12890625,0.0
244.62890625,-10.7421875,-20.5078125,-17.578125,-27.83203125,67.87109375,0.0
244.6328125,-38.57421875,-31.25,-29.296875,-31.73828125,63.4765625,0.0
244.63671875,-51.7578125,-36.62109375,-34.1796875,-39.0625,9.27734375,0.0
244.640625,-36.62109375,-28.3203125,-29.78515625,-33.69140625,-14.16015625,0.0
244.64453125,-16.6015625,-25.87890625,-26.85546875,-30.2734375,83.0078125,0.0
244.6484375,-19.04296875,-26.3671875,-28.3203125,-36.1328125,112.3046875,0.0
244.65234375,-42.96875,-28.80859375,-31.73828125,-37.59765625,16.6015625,0.0
244.65625,-46.875,-28.80859375,-29.296875,-34.66796875,-96.6796875,0.0
244.66015625,-30.76171875,-24.4140625,-32.2265625,-39.0625,-178.22265625,0.0
244.6640625,-15.13671875,-24.4140625,-39.55078125,-35.64453125,-140.625,0.0
244.66796875,-15.625,-20.5078125,-35.15625,-25.87890625,-69.3359375,0.0
244.671875,-27.83203125,-19.04296875,-21.484375,-24.4140625,-81.0546875,0.0
244.67578125,-42.96875,-31.73828125,-16.11328125,-23.4375,-24.90234375,0.0
244.6796875,-39.55078125,-41.015625,-26.85546875,-34.66796875,11.71875,0.0
244.68359375,-24.4140625,-35.15625,-36.1328125,-41.50390625,-10.25390625,0.0
244.6875,-26.3671875,-31.73828125,-39.0625,-41.50390625,8.30078125,0.0
244.69140625,-44.43359375,-36.1328125,-36.62109375,-42.48046875,-135.7421875,0.0
244.6953125,-58.10546875,-39.55078125,-38.0859375,-42.96875,-262.20703125,0.0
244.69921875,-48.828125,-38.57421875,-36.62109375,-42.96875,-169.43359375,0.0
244.703125,-37.59765625,-33.203125,-31.25,-40.52734375,-120.60546875,0.0
244.70703125,-37.59765625,-34.1796875,-32.71484375,-41.50390625,-104.98046875,0.0
244.7109375,-44.43359375,-35.15625,-51.7578125,-41.015625,-105.46875,0.0
244.71484375,-57.6171875,-29.78515625,-70.3125,-39.55078125,-173.828125,0.0
244.71875,-44.43359375,-19.53125,-41.9921875,-35.64453125,-185.546875,0.0
244.72265625,-31.73828125,-25.87890625,-13.18359375,-45.8984375,-150.390625,0.0
244.7265625,-36.1328125,-34.66796875,-7.32421875,-49.31640625,-4.39453125,0.0
244.73046875,-32.2265625,-34.66796875,-20.99609375,-44.43359375,112.79296875,0.0
244.734375,-43.45703125,-36.62109375,-30.76171875,-37.59765625,27.34375,0.0
244.73828125,-65.91796875,-41.9921875,-15.13671875,-49.31640625,-72.75390625,0.0
244.7421875,-44.43359375,-42.48046875,-6.34765625,-41.015625,42.48046875,0.0
244.74609375,-15.625,-38.0859375,-11.23046875,-15.625,142.08984375,0.0
244.75,-26.85546875,-34.1796875,-23.92578125,-24.4140625,74.21875,0.0
244.75390625,-50.78125,-30.76171875,-35.15625,-40.0390625,9.27734375,0.0
244.7578125,-67.87109375,-30.2734375,-25.87890625,-64.94140625,63.96484375,0.0
244.76171875,-61.03515625,-19.53125,-6.34765625,-72.75390625,89.35546875,0.0
244.765625,-35.64453125,-2.9296875,4.8828125,-58.59375,35.64453125,0.0
244.76953125,-54.6875,-11.71875,-10.25390625,-62.5,8.7890625,0.0
244.7734375,-104.00390625,-21.97265625,-18.5546875,-93.75,3.41796875,0.0
244.77734375,-129.39453125,-17.08984375,-13.671875,-108.88671875,19.04296875,0.0
244.78125,-119.140625,-16.6015625,-19.53125,-104.98046875,79.1015625,0.0
244.78515625,-119.140625,-20.99609375,-34.66796875,-128.41796875,94.23828125,0.0
244.7890625,-135.7421875,-15.625,-30.76171875,-141.11328125,85.44921875,0.0
244.79296875,-153.80859375,-23.92578125,-18.06640625,-132.32421875,23.92578125,0.0
244.796875,-170.8984375,-32.71484375,-31.73828125,-153.3203125,16.6015625,0.0
244.80078125,-159.1796875,-22.94921875,-42.48046875,-167.96875,71.77734375,0.0
244.8046875,-126.953125,-6.8359375,-37.109375,-161.1328125,48.33984375,0.0
244.80859375,-112.3046875,5.37109375,-28.80859375,-148.92578125,81.54296875,0.0
244.8125,-143.06640625,-6.34765625,-32.2265625,-160.15625,54.6875,0.0
244.81640625,-151.3671875,-18.06640625,-41.9921875,-159.1796875,22.4609375,0.0
244.8203125,-118.65234375,-20.01953125,-43.9453125,-136.71875,15.13671875,0.0
244.82421875,-92.28515625,-11.23046875,-41.015625,-142.578125,-20.5078125,0.0
244.828125,-89.35546875,-7.8125,-46.38671875,-128.41796875,57.6171875,0.0
244.83203125,-99.12109375,-17.08984375,-55.17578125,-113.76953125,128.41796875,0.0
244.8359375,-91.796875,-16.11328125,-53.22265625,-97.16796875,24.90234375,0.0
244.83984375,-65.91796875,-11.23046875,-52.734375,-80.56640625,-39.0625,0.0
244.84375,-50.78125,-22.4609375,-60.05859375,-85.9375,-25.87890625,0.0
244.84765625,-44.43359375,-29.78515625,-58.59375,-78.61328125,48.33984375,0.0
244.8515625,-47.8515625,-28.3203125,-49.8046875,-58.59375,152.83203125,0.0
244.85546875,-52.24609375,-28.80859375,-46.875,-46.875,82.51953125,0.0
244.859375,-35.64453125,-33.203125,-47.36328125,-45.41015625,-95.703125,0.0
244.86328125,-11.71875,-36.1328125,-45.41015625,-33.203125,-85.44921875,0.0
244.8671875,3.41796875,-22.94921875,-32.71484375,-11.23046875,-62.01171875,0.0
244.87109375,-12.6953125,-22.94921875,-34.66796875,-14.16015625,-70.80078125,0.0
244.875,-33.203125,-33.69140625,-49.31640625,-22.4609375,-53.7109375,0.0
244.87890625,-18.06640625,-33.203125,-47.8515625,-12.20703125,-15.625,0.0
244.8828125,7.8125,-21.484375,-35.15625,-8.30078125,3.90625,0.0
244.88671875,5.37109375,-23.4375,-40.0390625,-15.625,14.16015625,0.0
244.890625,-14.16015625,-31.73828125,-48.828125,-20.5078125,84.9609375,0.0
244.89453125,-26.3671875,-32.71484375,-46.38671875,-17.08984375,52.734375,0.0
244.8984375,-17.08984375,-28.3203125,-44.43359375,-10.25390625,39.0625,0.0
244.90234375,2.9296875,-28.80859375,-37.109375,-1.46484375,73.73046875,0.0
244.90625,8.7890625,-36.1328125,-38.0859375,-9.765625,49.8046875,0.0
244.91015625,6.8359375,-33.69140625,-40.52734375,-15.13671875,-22.4609375,0.0
244.9140625,7.32421875,-16.11328125,-28.80859375,-1.953125,-91.30859375,0.0
244.91796875,-7.32421875,-29.78515625,-38.57421875,-11.23046875,-54.19921875,0.0
244.921875,-2.9296875,-41.015625,-46.875,-20.01953125,-23.92578125,0.0
244.92578125,14.6484375,-29.78515625,-37.59765625,-12.6953125,-11.71875,0.0
244.9296875,1.953125,-28.80859375,-37.59765625,-7.8125,-21.484375,0.0
244.93359375,-21.97265625,-35.15625,-47.36328125,-7.8125,-77.63671875,0.0
244.9375,-24.4140625,-40.52734375,-47.36328125,-19.53125,-89.84375,0.0
244.94140625,-0.9765625,-32.71484375,-40.0390625,-15.625,-115.72265625,0.0
244.9453125,16.6015625,-25.87890625,-36.1328125,-6.34765625,-43.9453125,0.0
244.94921875,1.953125,-30.2734375,-38.0859375,-14.6484375,-5.37109375,0.0
244.953125,-21.484375,-32.71484375,-45.41015625,-23.4375,-2.9296875,0.0
244.95703125,-23.4375,-26.85546875,-39.0625,-20.99609375,-93.75,0.0
244.9609375,-11.23046875,-30.76171875,-34.66796875,-7.32421875,-112.79296875,0.0
244.96484375,13.671875,-44.43359375,-33.69140625,4.8828125,26.3671875,0.0
244.96875,21.484375,-44.43359375,-36.1328125,7.8125,81.54296875,0.0
244.97265625,-11.23046875,-34.66796875,-50.29296875,-12.6953125,-9.27734375,0.0
244.9765625,-41.9921875,-26.85546875,-51.26953125,-37.59765625,-68.84765625,0.0
244.98046875,-31.25,-25.87890625,-53.22265625,-41.015625,11.23046875,0.0
244.984375,1.46484375,-20.01953125,-58.59375,-28.80859375,92.7734375,0.0
244.98828125,-2.44140625,-17.578125,-59.08203125,-43.45703125,22.4609375,0.0
244.9921875,-26.3671875,-25.390625,-59.5703125,-55.17578125,-76.171875,0.0
244.99609375,-27.34375,-30.76171875,-62.98828125,-43.9453125,-79.58984375,0.0
245.0,-9.765625,-27.83203125,-61.5234375,-37.59765625,21.484375,0.0
245.00390625,11.23046875,-20.5078125,-62.01171875,-39.55078125,-24.90234375,0.0
245.0078125,21.484375,-17.578125,-65.4296875,-46.875,-49.31640625,0.0
245.01171875,6.8359375,-22.94921875,-62.98828125,-51.7578125,70.3125,0.0
245.015625,-8.7890625,-27.34375,-66.89453125,-55.6640625,1.46484375,0.0
245.01953125,7.32421875,-23.92578125,-65.91796875,-50.29296875,-59.08203125,0.0
245.0234375,33.203125,-17.578125,-58.59375,-34.66796875,-52.24609375,0.0
245.02734375,40.0390625,-19.04296875,-61.03515625,-23.92578125,10.25390625,0.0
245.03125,25.390625,-23.4375,-65.91796875,-31.25,-3.90625,0.0
245.03515625,9.27734375,-24.4140625,-62.01171875,-48.828125,-102.05078125,0.0
245.0390625,24.4140625,-21.484375,-59.08203125,-39.55078125,-99.609375,0.0
245.04296875,46.875,-18.5546875,-59.5703125,-22.4609375,-88.8671875,0.0
245.046875,45.8984375,-20.5078125,-56.15234375,-11.71875,-72.75390625,0.0
245.05078125,25.87890625,-27.34375,-55.6640625,-8.30078125,-32.71484375,0.0
245.0546875,6.8359375,-26.85546875,-53.22265625,-20.99609375,-9.27734375,0.0
245.05859375,7.8125,-28.80859375,-51.26953125,-22.4609375,-30.76171875,0.0
245.0625,21.97265625,-29.296875,-46.875,-14.6484375,19.04296875,0.0
245.06640625,28.3203125,-27.34375,-46.38671875,-16.11328125,38.0859375,0.0
245.0703125,12.20703125,-27.34375,-48.33984375,-12.6953125,-56.15234375,0.0
245.07421875,-4.39453125,-28.80859375,-51.7578125,-8.30078125,-59.5703125,0.0
245.078125,-7.8125,-31.73828125,-60.546875,-14.16015625,3.90625,0.0
245.08203125,6.34765625,-29.296875,-50.78125,-11.71875,18.06640625,0.0
245.0859375,22.94921875,-25.87890625,-41.015625,-17.578125,52.24609375,0.0
245.08984375,15.13671875,-25.390625,-50.29296875,-21.97265625,66.40625,0.0
245.09375,-5.37109375,-31.73828125,-47.8515625,-18.06640625,6.34765625,0.0
245.09765625,-1.46484375,-32.71484375,-39.0625,-16.11328125,-25.87890625,0.0
245.1015625,18.06640625,-25.87890625,-34.1796875,-11.71875,-10.7421875,0.0
245.10546875,24.4140625,-25.390625,-31.25,-5.859375,91.30859375,0.0
245.109375,11.23046875,-30.2734375,-41.9921875,-7.32421875,26.85546875,0.0
245.11328125,-0.48828125,-30.2734375,-39.55078125,-8.7890625,-63.4765625,0.0
245.1171875,-7.8125,-25.390625,-32.2265625,-6.34765625,-58.10546875,0.0
245.12109375,-1.46484375,-22.94921875,-33.69140625,-17.08984375,-59.5703125,0.0
245.125,16.11328125,-22.4609375,-35.15625,-12.6953125,-9.765625,0.0
245.12890625,6.34765625,-28.80859375,-40.0390625,-7.8125,-26.3671875,0.0
245.1328125,-17.578125,-31.25,-38.0859375,-16.6015625,-26.3671875,0.0
245.13671875,-20.01953125,-28.80859375,-37.59765625,-9.27734375,-28.3203125,0.0
245.140625,-5.37109375,-28.80859375,-36.62109375,-2.9296875,-45.8984375,0.0
245.14453125,5.859375,-28.80859375,-32.71484375,-19.53125,-69.82421875,0.0
245.1484375,1.46484375,-25.390625,-33.203125,-31.25,34.66796875,0.0
245.15234375,-18.5546875,-27.34375,-36.62109375,-33.69140625,136.23046875,0.0
245.15625,-27.83203125,-32.71484375,-39.0625,-33.69140625,76.66015625,0.0
245.16015625,-14.16015625,-30.76171875,-39.0625,-31.73828125,-16.11328125,0.0
245.1640625,4.39453125,-27.34375,-32.2265625,-31.25,-50.29296875,0.0
245.16796875,-1.46484375,-28.3203125,-30.2734375,-26.85546875,21.97265625,0.0
245.171875,-18.06640625,-29.78515625,-32.71484375,-17.08984375,76.66015625,0.0
245.17578125,-28.80859375,-32.71484375,-30.76171875,-13.18359375,-9.765625,0.0
245.1796875,-21.97265625,-33.203125,-29.296875,-17.578125,-54.19921875,0.0
245.18359375,-1.46484375,-27.34375,-24.90234375,-13.18359375,-19.53125,0.0
245.1875,-2.9296875,-23.92578125,-30.76171875,-16.6015625,39.0625,0.0
245.19140625,-28.80859375,-33.69140625,-36.1328125,-17.08984375,11.71875,0.0
245.1953125,-46.38671875,-39.0625,-35.64453125,-21.484375,-53.7109375,0.0
245.19921875,-40.52734375,-33.69140625,-32.71484375,-35.15625,-11.23046875,0.0
245.203125,-22.94921875,-29.78515625,-27.34375,-31.73828125,69.3359375,0.0
245.20703125,-21.484375,-31.25,-26.3671875,-26.85546875,29.78515625,0.0
245.2109375,-42.48046875,-35.64453125,-27.83203125,-32.2265625,-41.9921875,0.0
245.21484375,-58.59375,-39.55078125,-26.85546875,-29.296875,-48.33984375,0.0
245.21875,-51.26953125,-34.1796875,-26.85546875,-24.90234375,31.73828125,0.0
245.22265625,-31.25,-29.78515625,-30.76171875,-30.76171875,86.42578125,0.0
245.2265625,-19.53125,-29.296875,-27.83203125,-32.2265625,13.18359375,0.0
245.23046875,-29.296875,-30.76171875,-26.85546875,-30.2734375,-62.01171875,0.0
245.234375,-42.96875,-31.73828125,-34.66796875,-27.83203125,-95.703125,0.0
245.23828125,-38.57421875,-30.2734375,-37.59765625,-34.66796875,3.90625,0.0
245.2421875,-13.671875,-28.80859375,-41.015625,-34.66796875,89.84375,0.0
245.24609375,0.0,-24.4140625,-44.921875,-27.83203125,14.16015625,0.0
245.25,-25.87890625,-26.3671875,-36.1328125,-34.66796875,-44.921875,0.0
245.25390625,-54.6875,-38.57421875,-31.73828125,-35.15625,-113.28125,0.0
245.2578125,-46.875,-38.0859375,-28.3203125,-25.390625,-173.33984375,0.0
245.26171875,-25.390625,-29.78515625,-26.85546875,-24.4140625,-197.265625,0.0
245.265625,-16.6015625,-31.25,-26.3671875,-23.4375,-155.2734375,0.0
245.26953125,-21.484375,-29.78515625,-26.3671875,-19.04296875,-125.48828125,0.0
245.2734375,-35.15625,-26.85546875,-24.4140625,-20.99609375,-118.1640625,0.0
245.27734375,-36.1328125,-29.78515625,-22.4609375,-26.85546875,-108.88671875,0.0
245.28125,-19.53125,-28.3203125,-26.3671875,-26.85546875,-176.7578125,0.0
245.28515625,-3.90625,-22.94921875,-24.90234375,-25.390625,-212.40234375,0.0
245.2890625,-3.90625,-20.99609375,-20.99609375,-20.01953125,-43.9453125,0.0
245.29296875,-29.78515625,-24.90234375,-24.90234375,-25.87890625,-0.48828125,0.0
245.296875,-39.0625,-27.34375,-29.296875,-25.390625,-95.21484375,0.0
245.30078125,-20.99609375,-25.390625,-30.2734375,-20.01953125,-33.203125,0.0
245.3046875,-7.8125,-26.85546875,-32.71484375,-27.34375,62.01171875,0.0
245.30859375,-19.53125,-31.25,-37.59765625,-38.57421875,149.90234375,0.0
245.3125,-41.50390625,-29.296875,-36.1328125,-36.1328125,77.1484375,0.0
245.31640625,-37.109375,-19.04296875,-27.83203125,-21.97265625,-4.39453125,0.0
245.3203125,-14.16015625,-13.671875,-15.13671875,-12.6953125,-66.40625,0.0
245.32421875,-7.8125,-24.90234375,-28.3203125,-21.97265625,-101.07421875,0.0
245.328125,-20.5078125,-30.2734375,-48.33984375,-37.109375,-46.38671875,0.0
245.33203125,-33.203125,-22.94921875,-42.96875,-40.0390625,-92.7734375,0.0
245.3359375,-40.52734375,-23.92578125,-38.0859375,-34.66796875,-123.53515625,0.0
245.33984375,-36.62109375,-31.25,-39.55078125,-42.96875,-29.296875,0.0
245.34375,-22.4609375,-28.3203125,-37.109375,-40.52734375,15.13671875,0.0
245.34765625,-16.11328125,-25.87890625,-35.15625,-30.2734375,-20.5078125,0.0
245.3515625,-30.76171875,-30.76171875,-37.59765625,-30.76171875,-84.9609375,0.0
245.35546875,-46.38671875,-33.203125,-37.59765625,-34.1796875,-155.2734375,0.0
245.359375,-41.015625,-31.25,-33.69140625,-36.1328125,-145.5078125,0.0
245.36328125,-22.94921875,-28.3203125,-29.78515625,-30.76171875,-114.2578125,0.0
245.3671875,-17.08984375,-26.85546875,-27.34375,-19.04296875,-22.94921875,0.0
245.37109375,-38.0859375,-29.78515625,-32.71484375,-23.4375,51.7578125,0.0
245.375,-53.7109375,-32.71484375,-30.2734375,-32.71484375,59.5703125,0.0
245.37890625,-34.66796875,-20.99609375,-17.578125,-28.3203125,2.44140625,0.0
245.3828125,-24.4140625,-25.390625,-20.99609375,-24.90234375,12.6953125,0.0
245.38671875,-25.87890625,-31.73828125,-31.73828125,-29.78515625,114.2578125,0.0
245.390625,-34.66796875,-30.76171875,-37.109375,-29.78515625,122.0703125,0.0
245.39453125,-52.24609375,-34.1796875,-41.50390625,-27.83203125,17.08984375,0.0
245.3984375,-44.921875,-30.76171875,-40.52734375,-27.34375,-38.0859375,0.0
245.40234375,-27.83203125,-29.296875,-36.62109375,-31.73828125,98.6328125,0.0
245.40625,-21.484375,-28.80859375,-33.69140625,-30.76171875,73.73046875,0.0
245.41015625,-26.85546875,-33.203125,-30.76171875,-23.92578125,-13.671875,0.0
245.4140625,-43.9453125,-34.66796875,-34.66796875,-29.78515625,-46.875,0.0
245.41796875,-49.8046875,-33.69140625,-33.203125,-38.57421875,-128.41796875,0.0
245.421875,-21.484375,-25.87890625,-21.484375,-26.85546875,-71.2890625,0.0
245.42578125,-4.8828125,-22.4609375,-19.53125,-20.5078125,-22.94921875,0.0
245.4296875,-35.64453125,-34.1796875,-37.59765625,-41.015625,-4.8828125,0.0
245.43359375,-53.7109375,-33.69140625,-37.59765625,-40.52734375,69.3359375,0.0
245.4375,-36.1328125,-20.99609375,-24.4140625,-21.97265625,-77.1484375,0.0
245.44140625,-22.4609375,-21.484375,-26.85546875,-21.97265625,-197.75390625,0.0
245.4453125,-17.578125,-29.296875,-31.25,-24.90234375,-76.66015625,0.0
245.44921875,-28.3203125,-26.3671875,-32.71484375,-29.296875,1.953125,0.0
245.453125,-52.24609375,-29.78515625,-34.66796875,-33.69140625,-41.50390625,0.0
245.45703125,-54.19921875,-33.69140625,-34.66796875,-42.96875,-155.2734375,0.0
245.4609375,-37.109375,-31.25,-33.69140625,-46.875,-208.49609375,0.0
245.46484375,-18.06640625,-25.390625,-26.3671875,-35.15625,-163.57421875,0.0
245.46875,-7.8125,-11.71875,-7.8125,-19.53125,-184.08203125,0.0
245.47265625,-33.69140625,-20.99609375,-20.5078125,-30.2734375,-194.82421875,0.0
245.4765625,-44.921875,-31.25,-37.109375,-40.0390625,-144.53125,0.0
245.48046875,-28.80859375,-26.85546875,-30.76171875,-26.85546875,-113.28125,0.0
245.484375,-16.11328125,-28.80859375,-25.390625,-22.94921875,3.90625,0.0
245.48828125,-20.5078125,-33.69140625,-30.2734375,-32.2265625,198.73046875,0.0
245.4921875,-41.015625,-33.203125,-33.203125,-33.203125,203.61328125,0.0
245.49609375,-40.0390625,-23.4375,-18.06640625,-21.97265625,91.30859375,0.0
245.5,-19.04296875,-15.625,-8.7890625,-13.671875,76.171875,0.0
245.50390625,-12.20703125,-20.5078125,-23.92578125,-28.3203125,81.54296875,0.0
245.5078125,-19.53125,-23.92578125,-32.2265625,-33.69140625,80.078125,0.0
245.51171875,-20.99609375,-15.13671875,-16.6015625,-17.578125,-10.25390625,0.0
245.515625,-34.66796875,-20.01953125,-15.625,-22.4609375,-22.94921875,0.0
245.51953125,-39.0625,-37.59765625,-38.57421875,-44.921875,20.99609375,0.0
245.5234375,-15.625,-35.15625,-38.57421875,-41.50390625,-18.06640625,0.0
245.52734375,-9.27734375,-33.69140625,-33.203125,-32.71484375,3.41796875,0.0
245.53125,-29.296875,-35.64453125,-35.15625,-33.203125,-23.92578125,0.0
245.53515625,-50.78125,-37.109375,-34.66796875,-36.1328125,-61.5234375,0.0
245.5390625,-42.96875,-31.25,-25.87890625,-26.85546875,-76.66015625,0.0
245.54296875,-16.11328125,-21.97265625,-19.04296875,-10.7421875,-49.31640625,0.0
245.546875,-17.578125,-30.76171875,-28.80859375,-23.92578125,-21.97265625,0.0
245.55078125,-41.50390625,-43.9453125,-39.0625,-45.8984375,-58.59375,0.0
245.5546875,-52.734375,-39.55078125,-37.109375,-43.9453125,-56.640625,0.0
245.55859375,-28.3203125,-17.08984375,-17.08984375,-23.4375,-178.22265625,0.0
245.5625,-19.04296875,-31.73828125,-25.87890625,-27.34375,-179.6875,0.0
245.56640625,-23.92578125,-47.36328125,-33.69140625,-33.203125,-31.73828125,0.0
245.5703125,-28.3203125,-36.62109375,-30.2734375,-30.76171875,-35.15625,0.0
245.57421875,-39.55078125,-33.203125,-36.62109375,-33.69140625,-37.109375,0.0
245.578125,-36.1328125,-36.62109375,-31.25,-32.71484375,36.1328125,0.0
245.58203125,-24.4140625,-38.0859375,-34.66796875,-38.0859375,31.73828125,0.0
245.5859375,-10.25390625,-25.87890625,-30.2734375,-26.3671875,12.20703125,0.0
245.58984375,-21.484375,-26.3671875,-28.3203125,-27.34375,39.0625,0.0
245.59375,-50.29296875,-39.55078125,-42.48046875,-44.921875,6.34765625,0.0
245.59765625,-50.29296875,-42.48046875,-48.33984375,-49.31640625,14.6484375,0.0
245.6015625,-22.4609375,-29.296875,-37.109375,-39.0625,49.31640625,0.0
245.60546875,-5.37109375,-17.08984375,-21.484375,-31.25,5.859375,0.0
245.609375,-29.78515625,-33.69140625,-30.2734375,-46.38671875,-11.23046875,0.0
245.61328125,-53.22265625,-41.50390625,-34.66796875,-43.9453125,-22.94921875,0.0
245.6171875,-41.50390625,-26.85546875,-20.99609375,-19.53125,0.9765625,0.0
245.62109375,-27.34375,-24.4140625,-25.390625,-22.4609375,0.48828125,0.0
245.625,-19.53125,-29.78515625,-29.78515625,-31.25,-20.5078125,0.0
245.62890625,-33.69140625,-32.71484375,-24.90234375,-30.2734375,-22.4609375,0.0
245.6328125,-57.12890625,-34.66796875,-30.76171875,-33.203125,-40.0390625,0.0
245.63671875,-55.17578125,-36.62109375,-29.296875,-37.59765625,-28.3203125,0.0
245.640625,-37.59765625,-34.66796875,-23.4375,-38.57421875,4.39453125,0.0
245.64453125,-21.484375,-25.87890625,-27.83203125,-31.25,-7.32421875,0.0
245.6484375,-23.4375,-25.87890625,-29.78515625,-32.71484375,79.1015625,0.0
245.65234375,-41.50390625,-30.76171875,-30.2734375,-39.0625,69.3359375,0.0
245.65625,-47.36328125,-33.69140625,-30.76171875,-37.59765625,8.7890625,0.0
245.66015625,-26.3671875,-29.78515625,-26.85546875,-30.2734375,75.1953125,0.0
245.6640625,11.71875,-4.8828125,-0.9765625,0.48828125,87.890625,0.0
245.66796875,-1.953125,-12.20703125,-7.8125,-12.20703125,71.2890625,0.0
245.671875,-39.0625,-35.15625,-31.25,-38.0859375,77.1484375,0.0
245.67578125,-50.78125,-37.109375,-33.203125,-38.0859375,28.80859375,0.0
245.6796875,-40.52734375,-34.66796875,-30.76171875,-40.52734375,3.90625,0.0
245.68359375,-24.90234375,-35.64453125,-28.3203125,-46.38671875,66.40625,0.0
245.6875,-26.85546875,-37.109375,-33.203125,-53.22265625,105.95703125,0.0
245.69140625,-39.55078125,-35.15625,-36.1328125,-44.921875,36.62109375,0.0
245.6953125,-53.7109375,-33.69140625,-36.1328125,-42.96875,83.49609375,0.0
245.69921875,-42.48046875,-33.203125,-31.73828125,-41.50390625,112.3046875,0.0
245.703125,-24.90234375,-39.0625,-33.69140625,-36.1328125,1.953125,0.0
245.70703125,-10.7421875,-22.94921875,-22.94921875,-19.53125,22.94921875,0.0
245.7109375,-6.8359375,-3.90625,-6.34765625,-15.13671875,-15.13671875,0.0
245.71484375,-41.9921875,-27.83203125,-24.90234375,-35.15625,-83.49609375,0.0
245.71875,-52.734375,-35.64453125,-34.66796875,-36.62109375,-43.9453125,0.0
245.72265625,-32.71484375,-31.25,-34.66796875,-41.015625,-2.44140625,0.0
245.7265625,-26.3671875,-36.1328125,-36.62109375,-46.38671875,17.08984375,0.0
245.73046875,-39.55078125,-32.2265625,-35.64453125,-39.55078125,-7.8125,0.0
245.734375,-59.5703125,-36.1328125,-39.55078125,-41.9921875,-47.36328125,0.0
245.73828125,-52.24609375,-36.62109375,-38.57421875,-45.8984375,-20.01953125,0.0
245.7421875,-30.2734375,-33.69140625,-34.1796875,-39.0625,7.32421875,0.0
245.74609375,-20.5078125,-38.0859375,-34.66796875,-39.0625,-2.44140625,0.0
245.75,-31.25,-38.0859375,-38.57421875,-46.38671875,-30.2734375,0.0
245.75390625,-33.69140625,-19.04296875,-21.484375,-26.85546875,1.953125,0.0
245.7578125,-38.57421875,-24.4140625,-23.92578125,-31.25,-0.48828125,0.0
245.76171875,-33.69140625,-34.1796875,-36.1328125,-45.8984375,33.203125,0.0
245.765625,-20.99609375,-29.296875,-34.1796875,-42.48046875,83.0078125,0.0
245.76953125,-35.64453125,-30.2734375,-32.71484375,-41.50390625,59.5703125,0.0
245.7734375,-59.08203125,-37.109375,-34.1796875,-48.33984375,-33.69140625,0.0
245.77734375,-57.12890625,-39.55078125,-38.0859375,-47.36328125,-96.19140625,0.0
245.78125,-37.59765625,-28.3203125,-29.296875,-31.73828125,-50.78125,0.0
245.78515625,-22.94921875,-28.80859375,-23.92578125,-27.34375,20.99609375,0.0
245.7890625,-37.109375,-37.59765625,-36.1328125,-37.59765625,19.53125,0.0
245.79296875,-50.29296875,-34.1796875,-38.0859375,-41.50390625,-45.8984375,0.0
245.796875,-42.48046875,-27.83203125,-27.34375,-33.69140625,-106.93359375,0.0
245.80078125,-18.5546875,-30.2734375,-23.92578125,-32.71484375,-33.203125,0.0
245.8046875,-10.25390625,-36.62109375,-31.73828125,-53.22265625,74.21875,0.0
245.80859375,-18.06640625,-34.1796875,-29.296875,-43.45703125,69.3359375,0.0
245.8125,-30.76171875,-32.71484375,-30.2734375,-32.2265625,68.84765625,0.0
245.81640625,-41.9921875,-38.57421875,-33.69140625,-34.66796875,-2.44140625,0.0
245.8203125,-40.0390625,-41.9921875,-27.83203125,-33.69140625,-72.75390625,0.0
245.82421875,-28.3203125,-40.52734375,-24.4140625,-34.1796875,-25.87890625,0.0
245.828125,-31.25,-36.62109375,-23.4375,-30.76171875,-71.77734375,0.0
245.83203125,-60.546875,-38.0859375,-29.296875,-34.1796875,-156.73828125,0.0
245.8359375,-74.70703125,-40.52734375,-35.15625,-37.59765625,-138.671875,0.0
245.83984375,-58.10546875,-38.57421875,-32.2265625,-40.52734375,-92.28515625,0.0
245.84375,-29.296875,-29.78515625,-22.94921875,-36.62109375,-39.0625,0.0
245.84765625,-35.64453125,-31.25,-30.76171875,-37.109375,73.2421875,0.0
245.8515625,-54.19921875,-36.62109375,-43.9453125,-39.0625,8.30078125,0.0
245.85546875,-62.01171875,-37.109375,-38.57421875,-37.109375,-59.08203125,0.0
245.859375,-53.7109375,-35.15625,-34.1796875,-39.55078125,-22.94921875,0.0
245.86328125,-24.4140625,-32.2265625,-38.0859375,-37.59765625,-66.40625,0.0
245.8671875,-19.04296875,-28.80859375,-34.66796875,-29.78515625,-70.80078125,0.0
245.87109375,-32.71484375,-24.90234375,-24.90234375,-23.92578125,-83.49609375,0.0
245.875,-40.0390625,-23.92578125,-24.90234375,-24.90234375,-51.26953125,0.0
245.87890625,-41.015625,-29.78515625,-34.1796875,-31.25,64.453125,0.0
245.8828125,-25.390625,-28.3203125,-32.71484375,-29.78515625,90.33203125,0.0
245.88671875,-12.20703125,-24.90234375,-27.34375,-23.4375,81.0546875,0.0
245.890625,-29.78515625,-30.2734375,-27.34375,-24.90234375,57.6171875,0.0
245.89453125,-50.78125,-35.15625,-31.25,-28.3203125,16.11328125,0.0
245.8984375,-39.0625,-36.1328125,-34.66796875,-22.94921875,107.421875,0.0
245.90234375,-20.5078125,-31.73828125,-31.73828125,-31.73828125,141.6015625,0.0
245.90625,-20.5078125,-29.78515625,-24.90234375,-44.43359375,54.19921875,0.0
245.91015625,-37.59765625,-35.64453125,-28.3203125,-42.48046875,1.953125,0.0
245.9140625,-49.8046875,-32.2265625,-33.203125,-35.15625,3.41796875,0.0
245.91796875,-39.55078125,-24.90234375,-33.203125,-28.80859375,-6.34765625,0.0
245.921875,-26.3671875,-25.87890625,-29.296875,-32.2265625,-63.4765625,0.0
245.92578125,-18.06640625,-29.296875,-28.80859375,-34.1796875,-62.5,0.0
245.9296875,-24.90234375,-25.87890625,-26.85546875,-19.53125,-107.91015625,0.0
245.93359375,-43.45703125,-30.2734375,-29.78515625,-23.92578125,-164.0625,0.0
245.9375,-37.59765625,-33.203125,-24.90234375,-24.90234375,-148.4375,0.0
245.94140625,-19.04296875,-29.296875,-27.34375,-15.13671875,-69.82421875,0.0
245.9453125,-7.32421875,-29.78515625,-32.71484375,-15.625,-28.3203125,0.0
245.94921875,-10.7421875,-22.4609375,-26.85546875,-19.53125,-49.31640625,0.0
245.953125,-36.62109375,-27.34375,-39.0625,-35.64453125,37.109375,0.0
245.95703125,-40.0390625,-27.83203125,-41.50390625,-41.9921875,63.4765625,0.0
245.9609375,-15.625,-21.97265625,-30.2734375,-22.94921875,-12.20703125,0.0
245.96484375,-1.46484375,-19.04296875,-30.2734375,-19.53125,-19.04296875,0.0
245.96875,-17.578125,-26.85546875,-39.55078125,-38.57421875,-52.24609375,0.0
245.97265625,-41.015625,-37.109375,-41.50390625,-47.36328125,-131.34765625,0.0
245.9765625,-44.43359375,-32.2265625,-36.1328125,-44.921875,-103.02734375,0.0
245.98046875,-28.80859375,-29.78515625,-31.73828125,-34.66796875,-20.5078125,0.0
245.984375,-16.11328125,-31.73828125,-27.83203125,-21.97265625,25.87890625,0.0
245.98828125,-23.92578125,-30.76171875,-27.83203125,-24.4140625,15.13671875,0.0
245.9921875,-39.55078125,-26.85546875,-26.85546875,-19.53125,11.71875,0.0
245.99609375,-43.9453125,-27.34375,-26.3671875,-24.4140625,-54.19921875,0.0
246.0,-34.66796875,-29.296875,-29.78515625,-43.45703125,-41.015625,0.0
246.00390625,-13.18359375,-28.3203125,-33.69140625,-44.921875,32.71484375,0.0
246.0078125,-15.13671875,-29.78515625,-31.73828125,-35.15625,68.359375,0.0
246.01171875,-35.64453125,-28.3203125,-26.3671875,-37.59765625,99.609375,0.0
246.015625,-46.38671875,-29.296875,-27.34375,-47.36328125,37.109375,0.0
246.01953125,-37.59765625,-29.78515625,-28.80859375,-47.8515625,-35.64453125,0.0
246.0234375,-17.08984375,-27.34375,-23.92578125,-43.9453125,-71.2890625,0.0
246.02734375,-14.6484375,-25.87890625,-27.83203125,-41.50390625,-36.1328125,0.0
246.03125,-38.57421875,-32.71484375,-38.0859375,-50.78125,-47.8515625,0.0
246.03515625,-50.78125,-30.76171875,-33.69140625,-52.734375,-100.5859375,0.0
246.0390625,-16.11328125,-5.859375,-8.30078125,-20.5078125,-12.6953125,0.0
246.04296875,-2.9296875,-11.23046875,-13.18359375,-22.4609375,9.765625,0.0
246.046875,-17.08984375,-31.73828125,-28.80859375,-41.9921875,-27.83203125,0.0
246.05078125,-38.57421875,-34.1796875,-29.296875,-43.9453125,7.32421875,0.0
246.0546875,-62.5,-38.0859375,-27.34375,-42.48046875,-61.03515625,0.0
246.05859375,-55.17578125,-41.9921875,-34.1796875,-53.22265625,-94.7265625,0.0
246.0625,-33.69140625,-40.52734375,-36.1328125,-50.78125,-3.90625,0.0
246.06640625,-13.18359375,-26.3671875,-19.04296875,-28.80859375,4.39453125,0.0
246.0703125,-24.90234375,-27.34375,-21.484375,-29.78515625,16.11328125,0.0
246.07421875,-53.7109375,-42.96875,-35.64453125,-39.55078125,-22.4609375,0.0
246.078125,-48.828125,-36.62109375,-39.0625,-43.9453125,-145.5078125,0.0
246.08203125,-22.4609375,-20.01953125,-35.64453125,-34.66796875,-43.45703125,0.0
246.0859375,-9.27734375,-16.6015625,-32.71484375,-35.15625,83.984375,0.0
246.08984375,-26.85546875,-29.78515625,-41.9921875,-48.828125,44.921875,0.0
246.09375,-43.45703125,-33.203125,-40.52734375,-38.0859375,29.296875,0.0
246.09765625,-38.57421875,-25.87890625,-31.25,-27.83203125,55.17578125,0.0
246.1015625,-22.4609375,-22.94921875,-35.15625,-40.0390625,-2.9296875,0.0
246.10546875,-7.8125,-22.94921875,-34.66796875,-39.0625,-5.37109375,0.0
246.109375,-21.484375,-28.80859375,-35.15625,-33.69140625,31.73828125,0.0
246.11328125,-50.78125,-35.15625,-37.59765625,-40.52734375,-77.63671875,0.0
246.1171875,-53.22265625,-31.25,-37.109375,-41.015625,-143.5546875,0.0
246.12109375,-37.59765625,-28.3203125,-35.64453125,-39.0625,-66.40625,0.0
246.125,-18.06640625,-28.3203125,-27.34375,-30.76171875,19.04296875,0.0
246.12890625,-15.625,-24.90234375,-15.13671875,-19.53125,0.9765625,0.0
246.1328125,-44.921875,-34.66796875,-26.3671875,-31.73828125,-11.71875,0.0
246.13671875,-50.29296875,-38.57421875,-40.0390625,-41.50390625,-14.16015625,0.0
246.140625,-27.34375,-32.71484375,-38.0859375,-32.71484375,-36.62109375,0.0
246.14453125,-15.13671875,-36.62109375,-30.76171875,-25.87890625,48.33984375,0.0
246.1484375,-24.4140625,-37.109375,-30.2734375,-28.80859375,10.25390625,0.0
246.15234375,-41.9921875,-35.15625,-35.15625,-31.73828125,-103.515625,0.0
246.15625,-46.875,-39.55078125,-29.78515625,-28.80859375,-106.93359375,0.0
246.16015625,-32.71484375,-35.15625,-25.87890625,-19.04296875,-120.60546875,0.0
246.1640625,-19.04296875,-31.73828125,-34.1796875,-26.3671875,-83.984375,0.0
246.16796875,-28.3203125,-36.62109375,-35.64453125,-35.64453125,11.23046875,0.0
246.171875,-48.33984375,-32.2265625,-26.85546875,-27.34375,3.90625,0.0
246.17578125,-51.26953125,-28.80859375,-21.484375,-28.3203125,-8.7890625,0.0
246.1796875,-41.50390625,-30.76171875,-26.3671875,-43.9453125,9.27734375,0.0
246.18359375,-19.04296875,-24.90234375,-26.3671875,-39.0625,38.0859375,0.0
246.1875,-19.53125,-24.4140625,-30.2734375,-38.0859375,45.41015625,0.0
246.19140625,-43.45703125,-28.80859375,-35.64453125,-39.55078125,9.27734375,0.0
246.1953125,-54.6875,-32.71484375,-33.203125,-36.62109375,25.390625,0.0
246.19921875,-42.96875,-35.64453125,-26.85546875,-34.66796875,32.2265625,0.0
246.203125,-21.484375,-35.15625,-27.34375,-31.73828125,41.9921875,0.0
246.20703125,-15.625,-29.78515625,-29.296875,-26.85546875,-2.9296875,0.0
246.2109375,-36.62109375,-28.3203125,-29.296875,-23.4375,-9.765625,0.0
246.21484375,-57.6171875,-31.25,-28.3203125,-29.296875,59.08203125,0.0
246.21875,-49.31640625,-29.78515625,-33.203125,-30.76171875,12.6953125,0.0
246.22265625,-31.25,-32.2265625,-33.69140625,-30.76171875,-28.3203125,0.0
246.2265625,-28.80859375,-38.57421875,-27.34375,-41.50390625,70.3125,0.0
246.23046875,-37.59765625,-35.15625,-33.203125,-37.109375,53.22265625,0.0
246.234375,-48.828125,-30.2734375,-32.2265625,-20.01953125,-27.34375,0.0
246.23828125,-39.55078125,-29.78515625,-27.83203125,-20.01953125,-60.546875,0.0
246.2421875,-16.6015625,-27.34375,-29.296875,-25.87890625,-14.16015625,0.0
246.24609375,-10.25390625,-28.80859375,-33.69140625,-28.3203125,107.421875,0.0
246.25,-24.4140625,-32.2265625,-33.69140625,-35.64453125,113.28125,0.0
246.25390625,-39.0625,-32.71484375,-33.69140625,-33.203125,104.00390625,0.0
246.2578125,-31.73828125,-33.203125,-39.0625,-29.78515625,39.55078125,0.0
246.26171875,-16.11328125,-29.296875,-38.0859375,-24.90234375,-4.8828125,0.0
246.265625,-6.8359375,-26.3671875,-29.296875,-9.765625,-4.8828125,0.0
246.26953125,-20.5078125,-29.296875,-28.80859375,-17.08984375,-39.55078125,0.0
246.2734375,-49.8046875,-39.0625,-32.2265625,-29.78515625,-86.42578125,0.0
246.27734375,-51.26953125,-41.9921875,-38.57421875,-35.15625,-83.984375,0.0
246.28125,-35.64453125,-36.62109375,-35.15625,-39.0625,-54.6875,0.0
246.28515625,-20.5078125,-34.66796875,-29.78515625,-34.1796875,-17.578125,0.0
246.2890625,-27.83203125,-30.2734375,-27.34375,-25.87890625,41.015625,0.0
246.29296875,-47.36328125,-30.2734375,-27.83203125,-27.34375,9.27734375,0.0
246.296875,-47.36328125,-32.2265625,-32.71484375,-31.25,-47.8515625,0.0
246.30078125,-29.296875,-26.3671875,-37.59765625,-27.83203125,-47.8515625,0.0
246.3046875,-10.25390625,-20.99609375,-30.76171875,-30.2734375,9.27734375,0.0
246.30859375,-11.23046875,-14.6484375,-24.4140625,-29.78515625,26.85546875,0.0
246.3125,-35.64453125,-23.92578125,-32.2265625,-36.1328125,-11.71875,0.0
246.31640625,-47.8515625,-33.203125,-37.109375,-43.45703125,-44.921875,0.0
246.3203125,-29.78515625,-30.2734375,-34.1796875,-37.59765625,-71.77734375,0.0
246.32421875,-8.7890625,-30.2734375,-30.76171875,-31.25,-4.8828125,0.0
246.328125,-15.13671875,-32.71484375,-31.25,-35.15625,51.7578125,0.0
246.33203125,-37.59765625,-34.1796875,-36.62109375,-36.1328125,-85.44921875,0.0
246.3359375,-41.015625,-31.73828125,-37.109375,-25.390625,-152.34375,0.0
246.33984375,-29.296875,-30.2734375,-35.64453125,-30.2734375,-130.37109375,0.0
246.34375,-19.53125,-29.78515625,-37.59765625,-32.2265625,-40.0390625,0.0
246.34765625,-23.4375,-30.2734375,-35.64453125,-26.85546875,-28.3203125,0.0
246.3515625,-41.015625,-33.69140625,-32.71484375,-22.94921875,-44.921875,0.0
246.35546875,-52.24609375,-35.64453125,-38.0859375,-23.92578125,1.46484375,0.0
246.359375,-43.45703125,-38.57421875,-34.1796875,-31.73828125,-19.53125,0.0
246.36328125,-23.4375,-33.203125,-27.34375,-34.1796875,1.46484375,0.0
246.3671875,-22.94921875,-28.3203125,-31.25,-33.203125,30.76171875,0.0
246.37109375,-42.48046875,-32.71484375,-31.25,-32.71484375,2.9296875,0.0
246.375,-57.6171875,-41.50390625,-30.76171875,-30.2734375,-13.671875,0.0
246.37890625,-48.828125,-37.59765625,-34.66796875,-35.15625,53.22265625,0.0
246.3828125,-26.85546875,-30.2734375,-28.3203125,-36.62109375,-14.6484375,0.0
246.38671875,-17.08984375,-25.87890625,-26.85546875,-31.73828125,-7.32421875,0.0
246.390625,-26.85546875,-23.92578125,-31.25,-23.92578125,130.859375,0.0
246.39453125,-50.78125,-30.76171875,-26.85546875,-26.85546875,102.5390625,0.0
246.3984375,-51.7578125,-31.73828125,-21.484375,-29.296875,2.44140625,0.0
246.40234375,-30.2734375,-27.83203125,-21.484375,-26.85546875,-33.203125,0.0
246.40625,-25.87890625,-29.78515625,-21.97265625,-32.71484375,-41.50390625,0.0
246.41015625,-40.0390625,-33.69140625,-26.3671875,-29.296875,-36.62109375,0.0
246.4140625,-54.6875,-31.25,-25.390625,-24.4140625,-29.78515625,0.0
246.41796875,-54.6875,-37.109375,-24.4140625,-28.80859375,-61.03515625,0.0
246.421875,-35.64453125,-40.0390625,-24.4140625,-30.76171875,16.6015625,0.0
246.42578125,-24.90234375,-32.2265625,-21.484375,-25.390625,86.42578125,0.0
246.4296875,-38.0859375,-34.1796875,-28.80859375,-28.3203125,26.85546875,0.0
246.43359375,-56.640625,-39.55078125,-32.2265625,-31.73828125,-34.1796875,0.0
246.4375,-48.828125,-39.0625,-32.71484375,-29.78515625,-13.671875,0.0
246.44140625,-29.78515625,-36.1328125,-34.66796875,-29.78515625,-18.5546875,0.0
246.4453125,-18.06640625,-33.203125,-30.76171875,-30.76171875,-75.68359375,0.0
246.44921875,-33.69140625,-39.0625,-35.64453125,-36.62109375,-122.0703125,0.0
246.453125,-58.59375,-43.9453125,-42.48046875,-42.96875,-102.5390625,0.0
246.45703125,-43.45703125,-31.25,-36.1328125,-31.25,-62.98828125,0.0
246.4609375,-21.97265625,-24.4140625,-27.83203125,-22.4609375,-38.0859375,0.0
246.46484375,-18.06640625,-26.3671875,-30.76171875,-31.73828125,45.41015625,0.0
246.46875,-24.90234375,-28.3203125,-37.109375,-36.1328125,38.0859375,0.0
246.47265625,-42.48046875,-33.69140625,-39.0625,-33.203125,-21.97265625,0.0
246.4765625,-46.38671875,-33.69140625,-39.0625,-25.87890625,-39.55078125,0.0
246.48046875,-31.25,-27.34375,-37.59765625,-35.64453125,-50.78125,0.0
246.484375,-13.18359375,-30.2734375,-33.203125,-32.71484375,-8.30078125,0.0
246.48828125,-17.578125,-34.1796875,-38.57421875,-25.87890625,2.9296875,0.0
246.4921875,-34.1796875,-29.296875,-44.921875,-31.73828125,-23.92578125,0.0
246.49609375,-44.43359375,-37.109375,-39.0625,-30.2734375,-10.7421875,0.0
246.5,-30.76171875,-32.2265625,-26.3671875,-22.4609375,-33.69140625,0.0
246.50390625,1.46484375,-14.16015625,-14.6484375,-6.8359375,-72.265625,0.0
246.5078125,-14.16015625,-22.94921875,-27.83203125,-23.4375,-9.27734375,0.0
246.51171875,-42.48046875,-38.0859375,-39.0625,-34.66796875,92.28515625,0.0
246.515625,-50.29296875,-41.015625,-35.15625,-24.90234375,35.64453125,0.0
246.51953125,-45.8984375,-41.9921875,-33.203125,-28.3203125,6.34765625,0.0
246.5234375,-28.3203125,-39.55078125,-32.71484375,-25.87890625,-13.18359375,0.0
246.52734375,-29.78515625,-38.57421875,-39.55078125,-28.80859375,-21.97265625,0.0
246.53125,-45.8984375,-29.296875,-32.2265625,-24.90234375,-55.6640625,0.0
246.53515625,-51.7578125,-21.484375,-27.34375,-22.94921875,-54.19921875,0.0
246.5390625,-47.36328125,-24.90234375,-34.66796875,-37.59765625,-20.01953125,0.0
246.54296875,-32.2265625,-28.80859375,-35.64453125,-40.0390625,-27.83203125,0.0
246.546875,-13.671875,-14.6484375,-23.4375,-19.04296875,58.59375,0.0
246.55078125,-19.04296875,-3.90625,-9.27734375,-7.8125,53.22265625,0.0
246.5546875,-54.6875,-29.296875,-26.85546875,-34.1796875,-30.76171875,0.0
246.55859375,-52.734375,-36.62109375,-32.2265625,-46.38671875,-37.59765625,0.0
246.5625,-28.80859375,-29.296875,-30.2734375,-46.38671875,5.37109375,0.0
246.56640625,-25.87890625,-34.1796875,-31.73828125,-36.1328125,33.203125,0.0
246.5703125,-38.57421875,-38.57421875,-37.59765625,-28.80859375,7.32421875,0.0
246.57421875,-53.7109375,-37.59765625,-42.48046875,-38.57421875,-22.94921875,0.0
246.578125,-42.48046875,-37.109375,-35.15625,-39.55078125,-44.921875,0.0
246.58203125,-19.53125,-38.57421875,-28.3203125,-33.203125,-4.39453125,0.0
246.5859375,-20.01953125,-40.0390625,-33.203125,-36.62109375,27.34375,0.0
246.58984375,-34.66796875,-34.66796875,-36.1328125,-37.109375,-13.18359375,0.0
246.59375,-25.390625,-17.578125,-18.5546875,-15.625,-79.58984375,0.0
246.59765625,-24.90234375,-25.390625,-22.94921875,-19.53125,-56.15234375,0.0
246.6015625,-23.92578125,-35.15625,-31.73828125,-39.0625,12.20703125,0.0
246.60546875,-10.7421875,-29.296875,-30.2734375,-40.0390625,100.09765625,0.0
246.609375,-23.92578125,-28.80859375,-33.69140625,-41.9921875,86.9140625,0.0
246.61328125,-45.8984375,-29.78515625,-33.69140625,-39.55078125,40.0390625,0.0
246.6171875,-41.9921875,-27.83203125,-31.73828125,-38.0859375,56.15234375,0.0
246.62109375,-19.53125,-26.3671875,-24.4140625,-29.78515625,66.40625,0.0
246.625,-10.7421875,-28.80859375,-23.4375,-33.69140625,48.33984375,0.0
246.62890625,-29.78515625,-35.64453125,-34.66796875,-44.43359375,4.39453125,0.0
246.6328125,-46.875,-38.57421875,-36.1328125,-39.0625,5.37109375,0.0
246.63671875,-45.41015625,-31.25,-34.1796875,-37.109375,-11.71875,0.0
246.640625,-29.78515625,-30.76171875,-32.2265625,-34.66796875,73.73046875,0.0
246.64453125,-21.97265625,-36.1328125,-34.1796875,-36.62109375,57.6171875,0.0
246.6484375,-31.25,-37.59765625,-40.52734375,-43.9453125,-129.8828125,0.0
246.65234375,-31.73828125,-19.04296875,-26.3671875,-32.2265625,-174.31640625,0.0
246.65625,-29.296875,-11.23046875,-16.6015625,-26.85546875,-78.61328125,0.0
246.66015625,-27.83203125,-32.71484375,-30.2734375,-41.9921875,-49.8046875,0.0
246.6640625,-15.13671875,-34.66796875,-29.296875,-35.64453125,-92.28515625,0.0
246.66796875,-20.99609375,-27.34375,-28.3203125,-32.2265625,-10.25390625,0.0
246.671875,-49.8046875,-35.15625,-35.15625,-42.96875,65.4296875,0.0
246.67578125,-62.01171875,-37.59765625,-38.0859375,-48.828125,-5.37109375,0.0
246.6796875,-44.921875,-30.2734375,-30.2734375,-43.9453125,-46.875,0.0
246.68359375,-17.578125,-20.99609375,-16.6015625,-21.97265625,-16.11328125,0.0
246.6875,-27.34375,-27.83203125,-23.92578125,-23.4375,44.921875,0.0
246.69140625,-54.6875,-37.59765625,-34.1796875,-32.2265625,28.80859375,0.0
246.6953125,-62.01171875,-33.203125,-33.69140625,-25.87890625,-115.234375,0.0
246.69921875,-47.36328125,-33.203125,-32.71484375,-27.34375,-166.9921875,0.0
246.703125,-27.83203125,-36.62109375,-26.85546875,-19.04296875,-5.37109375,0.0
246.70703125,-31.25,-39.0625,-28.3203125,-22.4609375,41.50390625,0.0
246.7109375,-40.0390625,-35.64453125,-25.87890625,-20.5078125,97.16796875,0.0
246.71484375,-43.9453125,-31.25,-23.4375,-9.27734375,85.44921875,0.0
246.71875,-38.57421875,-33.69140625,-31.73828125,-19.53125,-8.7890625,0.0
246.72265625,-18.06640625,-32.71484375,-37.59765625,-27.34375,45.41015625,0.0
246.7265625,-5.37109375,-25.390625,-28.80859375,-29.296875,84.47265625,0.0
246.73046875,-20.01953125,-22.94921875,-26.85546875,-25.87890625,9.27734375,0.0
246.734375,-42.48046875,-35.64453125,-31.73828125,-28.80859375,-59.08203125,0.0
246.73828125,-35.64453125,-39.0625,-29.296875,-32.71484375,-61.5234375,0.0
246.7421875,-9.765625,-22.4609375,-17.578125,-19.04296875,-82.51953125,0.0
246.74609375,-7.8125,-23.92578125,-24.90234375,-19.04296875,-21.97265625,0.0
246.75,-33.203125,-41.015625,-34.1796875,-28.80859375,4.39453125,0.0
246.75390625,-50.78125,-38.57421875,-29.78515625,-33.69140625,-46.38671875,0.0
246.7578125,-43.45703125,-27.83203125,-27.34375,-38.0859375,-78.125,0.0
246.76171875,-27.83203125,-26.85546875,-24.90234375,-31.25,-78.61328125,0.0
246.765625,-19.53125,-28.80859375,-31.73828125,-30.76171875,34.1796875,0.0
246.76953125,-25.390625,-30.2734375,-35.64453125,-33.203125,-15.625,0.0
246.7734375,-27.83203125,-18.06640625,-24.90234375,-22.94921875,-152.34375,0.0
246.77734375,-26.85546875,-17.08984375,-20.99609375,-21.484375,-82.03125,0.0
246.78125,-21.97265625,-26.3671875,-26.3671875,-26.3671875,-58.10546875,0.0
246.78515625,-13.18359375,-24.4140625,-22.94921875,-24.90234375,-108.3984375,0.0
246.7890625,-24.90234375,-18.06640625,-21.97265625,-25.390625,-75.1953125,0.0
246.79296875,-48.828125,-20.01953125,-27.83203125,-24.4140625,-6.34765625,0.0
246.796875,-48.33984375,-26.85546875,-25.390625,-24.4140625,-15.13671875,0.0
246.80078125,-34.66796875,-30.76171875,-23.4375,-28.80859375,-19.04296875,0.0
246.8046875,-22.94921875,-29.78515625,-19.04296875,-22.94921875,-12.20703125,0.0
246.80859375,-25.87890625,-28.80859375,-18.5546875,-18.5546875,-8.7890625,0.0
246.8125,-48.33984375,-32.71484375,-25.390625,-21.484375,0.48828125,0.0
246.81640625,-42.96875,-20.99609375,-21.97265625,-13.18359375,-27.83203125,0.0
246.8203125,-14.16015625,-6.8359375,-8.30078125,-8.30078125,-41.50390625,0.0
246.82421875,-15.625,-25.87890625,-17.578125,-27.34375,6.8359375,0.0
246.828125,-31.25,-38.0859375,-31.73828125,-31.25,61.5234375,0.0
246.83203125,-47.8515625,-34.1796875,-34.1796875,-35.64453125,17.08984375,0.0
246.8359375,-50.29296875,-33.203125,-29.78515625,-42.48046875,3.90625,0.0
246.83984375,-32.71484375,-35.64453125,-25.390625,-35.15625,38.57421875,0.0
246.84375,-17.08984375,-38.0859375,-28.80859375,-33.69140625,31.25,0.0
246.84765625,-22.94921875,-32.71484375,-35.15625,-40.0390625,95.21484375,0.0
246.8515625,-41.50390625,-34.1796875,-38.0859375,-39.55078125,53.22265625,0.0
246.85546875,-47.8515625,-39.0625,-38.57421875,-38.0859375,-34.1796875,0.0
246.859375,-37.109375,-36.1328125,-39.0625,-42.96875,-100.09765625,0.0
246.86328125,-24.90234375,-36.62109375,-37.109375,-43.45703125,-85.9375,0.0
246.8671875,-21.97265625,-36.62109375,-36.62109375,-36.1328125,23.4375,0.0
246.87109375,-34.66796875,-33.69140625,-33.203125,-33.203125,36.1328125,0.0
246.875,-42.96875,-31.73828125,-31.25,-40.52734375,-91.796875,0.0
246.87890625,-26.3671875,-30.76171875,-26.85546875,-39.0625,-236.328125,0.0
246.8828125,-9.27734375,-29.296875,-23.4375,-31.73828125,-179.6875,0.0
246.88671875,-15.13671875,-29.78515625,-33.203125,-33.69140625,-167.48046875,0.0
246.890625,-32.71484375,-30.76171875,-35.15625,-38.0859375,-193.359375,0.0
246.89453125,-47.8515625,-31.73828125,-30.76171875,-46.875,-14.16015625,0.0
246.8984375,-41.015625,-31.73828125,-33.203125,-47.8515625,27.34375,0.0
246.90234375,-23.92578125,-31.73828125,-32.71484375,-35.15625,-87.890625,0.0
246.90625,-17.578125,-29.296875,-27.34375,-23.92578125,-61.5234375,0.0
246.91015625,-30.76171875,-31.25,-31.73828125,-19.53125,-0.48828125,0.0
246.9140625,-52.24609375,-35.15625,-36.62109375,-29.296875,1.953125,0.0
246.91796875,-46.875,-36.1328125,-37.109375,-33.203125,-14.6484375,0.0
246.921875,-22.4609375,-29.296875,-32.2265625,-25.390625,5.859375,0.0
246.92578125,-9.765625,-23.92578125,-32.71484375,-23.4375,36.62109375,0.0
246.9296875,-28.3203125,-30.76171875,-34.66796875,-30.2734375,62.98828125,0.0
246.93359375,-51.26953125,-36.1328125,-31.73828125,-33.203125,40.0390625,0.0
246.9375,-45.8984375,-32.2265625,-27.83203125,-31.25,25.87890625,0.0
246.94140625,-32.2265625,-29.78515625,-23.92578125,-31.25,89.35546875,0.0
246.9453125,-26.85546875,-27.83203125,-22.94921875,-32.71484375,124.51171875,0.0
246.94921875,-41.50390625,-32.71484375,-27.34375,-36.1328125,108.88671875,0.0
246.953125,-60.546875,-36.62109375,-27.83203125,-36.62109375,57.6171875,0.0
246.95703125,-57.6171875,-36.62109375,-28.3203125,-40.0390625,46.38671875,0.0
246.9609375,-44.921875,-37.109375,-26.3671875,-33.203125,-31.25,0.0
246.96484375,-30.76171875,-31.73828125,-21.97265625,-23.4375,-107.421875,0.0
246.96875,-29.296875,-28.3203125,-17.08984375,-15.13671875,-84.47265625,0.0
246.97265625,-54.19921875,-36.62109375,-27.34375,-22.94921875,-113.76953125,0.0
246.9765625,-64.94140625,-39.0625,-30.76171875,-29.296875,-97.16796875,0.0
246.98046875,-41.9921875,-30.76171875,-26.85546875,-23.92578125,-52.734375,0.0
246.984375,-24.90234375,-27.34375,-27.34375,-25.87890625,-91.796875,0.0
246.98828125,-32.71484375,-29.78515625,-27.34375,-27.34375,-147.94921875,0.0
246.9921875,-48.33984375,-28.80859375,-34.66796875,-39.55078125,-74.21875,0.0
246.99609375,-42.48046875,-22.94921875,-25.390625,-28.3203125,13.18359375,0.0
247.0,-15.13671875,-14.6484375,-12.20703125,0.0,11.23046875,0.0
247.00390625,-5.859375,-21.97265625,-21.97265625,-5.859375,46.875,0.0
247.0078125,-20.5078125,-29.296875,-31.25,-34.1796875,41.015625,0.0
247.01171875,-27.83203125,-18.5546875,-20.01953125,-18.5546875,2.44140625,0.0
247.015625,-30.2734375,-19.04296875,-8.7890625,-4.39453125,-30.2734375,0.0
247.01953125,-31.25,-35.64453125,-25.390625,-35.64453125,-12.6953125,0.0
247.0234375,-17.08984375,-33.203125,-30.76171875,-36.1328125,9.27734375,0.0
247.02734375,-27.83203125,-33.203125,-30.76171875,-28.80859375,105.95703125,0.0
247.03125,-47.8515625,-33.203125,-42.48046875,-36.62109375,154.296875,0.0
247.03515625,-52.734375,-34.1796875,-41.50390625,-43.45703125,90.33203125,0.0
247.0390625,-41.015625,-33.69140625,-30.2734375,-36.1328125,93.26171875,0.0
247.04296875,-19.04296875,-27.34375,-24.4140625,-27.83203125,75.68359375,0.0
247.046875,-24.90234375,-33.69140625,-38.0859375,-42.48046875,93.75,0.0
247.05078125,-41.50390625,-36.1328125,-39.55078125,-43.45703125,57.12890625,0.0
247.0546875,-45.8984375,-30.2734375,-27.83203125,-31.25,-68.359375,0.0
247.05859375,-27.83203125,-18.06640625,-18.06640625,-20.01953125,-79.1015625,0.0
247.0625,-19.53125,-25.390625,-27.83203125,-27.83203125,-24.90234375,0.0
247.06640625,-23.4375,-37.109375,-36.62109375,-39.55078125,33.69140625,0.0
247.0703125,-40.52734375,-36.62109375,-35.15625,-42.96875,26.3671875,0.0
247.07421875,-55.6640625,-34.66796875,-34.1796875,-41.9921875,-51.26953125,0.0
247.078125,-49.31640625,-34.66796875,-32.71484375,-42.96875,-109.375,0.0
247.08203125,-32.2265625,-33.203125,-35.15625,-44.921875,-61.5234375,0.0
247.0859375,-17.578125,-26.3671875,-33.69140625,-39.55078125,68.84765625,0.0
247.08984375,-27.34375,-26.3671875,-27.83203125,-31.73828125,95.21484375,0.0
247.09375,-48.828125,-40.0390625,-30.2734375,-40.52734375,-27.83203125,0.0
247.09765625,-48.828125,-46.38671875,-37.59765625,-49.31640625,-109.375,0.0
247.1015625,-17.08984375,-26.85546875,-21.484375,-33.69140625,-85.9375,0.0
247.10546875,9.27734375,-7.32421875,-4.39453125,-6.34765625,0.48828125,0.0
247.109375,-24.90234375,-28.3203125,-29.296875,-32.71484375,-18.5546875,0.0
247.11328125,-53.7109375,-40.0390625,-40.0390625,-53.22265625,-73.73046875,0.0
247.1171875,-43.9453125,-35.15625,-33.69140625,-43.9453125,-27.34375,0.0
247.12109375,-31.73828125,-31.25,-32.2265625,-46.38671875,-26.85546875,0.0
247.125,-21.484375,-32.71484375,-32.71484375,-42.48046875,-32.71484375,0.0
247.12890625,-28.80859375,-33.203125,-37.59765625,-32.2265625,20.01953125,0.0
247.1328125,-52.734375,-32.71484375,-33.69140625,-40.52734375,14.16015625,0.0
247.13671875,-50.78125,-34.1796875,-29.78515625,-47.8515625,-54.19921875,0.0
247.140625,-35.64453125,-34.1796875,-33.203125,-41.9921875,-62.01171875,0.0
247.14453125,-29.78515625,-33.203125,-31.73828125,-40.0390625,5.859375,0.0
247.1484375,-28.80859375,-35.15625,-31.73828125,-41.9921875,-17.578125,0.0
247.15234375,-43.9453125,-34.66796875,-36.62109375,-41.50390625,-56.640625,0.0
247.15625,-50.29296875,-39.0625,-40.52734375,-45.8984375,-27.83203125,0.0
247.16015625,-35.15625,-38.57421875,-34.66796875,-40.52734375,-24.4140625,0.0
247.1640625,-15.13671875,-23.92578125,-23.92578125,-32.71484375,-28.80859375,0.0
247.16796875,-29.296875,-28.3203125,-32.2265625,-36.1328125,-79.58984375,0.0
247.171875,-57.12890625,-37.109375,-41.50390625,-41.9921875,-84.47265625,0.0
247.17578125,-60.546875,-33.203125,-35.15625,-44.921875,-81.0546875,0.0
247.1796875,-43.9453125,-28.80859375,-32.2265625,-46.875,-92.7734375,0.0
247.18359375,-22.94921875,-28.3203125,-32.2265625,-45.41015625,36.62109375,0.0
247.1875,-22.94921875,-27.34375,-37.109375,-44.43359375,60.05859375,0.0
247.19140625,-39.0625,-25.87890625,-33.203125,-37.109375,35.15625,0.0
247.1953125,-46.875,-30.2734375,-35.15625,-35.64453125,-12.6953125,0.0
247.19921875,-30.76171875,-33.203125,-38.0859375,-37.109375,-11.23046875,0.0
247.203125,-16.11328125,-36.62109375,-37.59765625,-29.296875,28.80859375,0.0
247.20703125,-12.20703125,-28.3203125,-26.3671875,-19.04296875,9.765625,0.0
247.2109375,-21.97265625,-21.97265625,-15.625,-14.16015625,-23.92578125,0.0
247.21484375,-49.8046875,-41.50390625,-32.2265625,-38.0859375,2.9296875,0.0
247.21875,-48.33984375,-43.45703125,-43.9453125,-53.22265625,1.953125,0.0
247.22265625,-28.80859375,-40.0390625,-37.109375,-52.24609375,16.11328125,0.0
247.2265625,-24.4140625,-36.62109375,-35.15625,-51.7578125,45.8984375,0.0
247.23046875,-41.015625,-32.2265625,-40.0390625,-51.7578125,22.4609375,0.0
247.234375,-48.33984375,-34.1796875,-40.52734375,-47.8515625,-47.8515625,0.0
247.23828125,-30.76171875,-31.25,-35.15625,-42.48046875,-49.31640625,0.0
247.2421875,-10.7421875,-27.34375,-26.85546875,-34.66796875,-3.90625,0.0
247.24609375,-9.765625,-29.78515625,-29.78515625,-29.296875,5.37109375,0.0
247.25,-26.85546875,-33.203125,-30.76171875,-26.85546875,37.109375,0.0
247.25390625,-32.71484375,-21.97265625,-20.01953125,-19.04296875,66.40625,0.0
247.2578125,-27.83203125,-26.3671875,-27.83203125,-24.90234375,2.44140625,0.0
247.26171875,-19.04296875,-34.66796875,-35.15625,-30.76171875,-92.7734375,0.0
247.265625,-10.25390625,-27.83203125,-31.25,-23.92578125,-52.734375,0.0
247.26953125,-22.94921875,-26.85546875,-27.34375,-16.6015625,60.546875,0.0
247.2734375,-48.828125,-32.2265625,-30.2734375,-23.4375,33.203125,0.0
247.27734375,-47.8515625,-35.64453125,-31.25,-28.80859375,-34.66796875,0.0
247.28125,-20.5078125,-32.2265625,-19.53125,-21.97265625,18.5546875,0.0
247.28515625,-8.7890625,-24.4140625,-13.671875,-19.04296875,91.30859375,0.0
247.2890625,-31.73828125,-27.83203125,-19.53125,-23.4375,69.3359375,0.0
247.29296875,-57.6171875,-36.1328125,-25.87890625,-34.66796875,59.5703125,0.0
247.296875,-41.9921875,-24.90234375,-17.578125,-28.80859375,-44.921875,0.0
247.30078125,-16.11328125,-13.671875,-5.859375,-10.7421875,-74.70703125,0.0
247.3046875,-12.20703125,-24.4140625,-17.08984375,-20.5078125,95.21484375,0.0
247.30859375,-18.5546875,-30.2734375,-22.4609375,-28.80859375,65.4296875,0.0
247.3125,-37.109375,-31.25,-22.4609375,-28.3203125,-23.92578125,0.0
247.31640625,-45.41015625,-32.71484375,-23.4375,-29.78515625,-5.37109375,0.0
247.3203125,-32.71484375,-31.25,-23.4375,-30.2734375,-32.2265625,0.0
247.32421875,-18.06640625,-30.2734375,-23.92578125,-27.83203125,-84.47265625,0.0
247.328125,-27.83203125,-24.4140625,-23.4375,-26.85546875,-74.21875,0.0
247.33203125,-51.7578125,-30.2734375,-33.69140625,-38.57421875,-33.203125,0.0
247.3359375,-56.640625,-36.1328125,-36.62109375,-45.41015625,-64.94140625,0.0
247.33984375,-40.0390625,-30.76171875,-27.34375,-34.1796875,-49.8046875,0.0
247.34375,-7.8125,-17.08984375,-14.16015625,-13.18359375,-62.01171875,0.0
247.34765625,-18.06640625,-20.99609375,-25.390625,-25.87890625,-56.640625,0.0
247.3515625,-47.8515625,-32.2265625,-33.69140625,-37.59765625,-34.66796875,0.0
247.35546875,-51.26953125,-32.71484375,-28.3203125,-26.3671875,-59.5703125,0.0
247.359375,-41.9921875,-31.25,-30.76171875,-30.76171875,-21.97265625,0.0
247.36328125,-25.87890625,-30.2734375,-30.2734375,-32.2265625,14.16015625,0.0
247.3671875,-27.34375,-36.62109375,-36.1328125,-32.71484375,-12.20703125,0.0
247.37109375,-42.96875,-37.109375,-35.15625,-34.66796875,-114.2578125,0.0
247.375,-46.875,-23.92578125,-23.92578125,-28.3203125,-101.07421875,0.0
247.37890625,-42.48046875,-29.296875,-35.15625,-38.57421875,-80.56640625,0.0
247.3828125,-31.73828125,-31.25,-42.48046875,-51.26953125,-64.453125,0.0
247.38671875,-23.4375,-24.90234375,-36.1328125,-41.015625,-51.7578125,0.0
247.390625,-30.2734375,-25.87890625,-28.3203125,-32.2265625,-70.80078125,0.0
247.39453125,-52.24609375,-33.69140625,-33.69140625,-41.9921875,-44.921875,0.0
247.3984375,-47.8515625,-36.1328125,-38.0859375,-44.43359375,-22.4609375,0.0
247.40234375,-28.3203125,-34.1796875,-37.109375,-43.45703125,22.4609375,0.0
247.40625,-29.296875,-27.34375,-39.0625,-40.0390625,85.44921875,0.0
247.41015625,-47.36328125,-31.25,-39.0625,-41.50390625,62.01171875,0.0
247.4140625,-61.5234375,-36.1328125,-34.1796875,-35.64453125,-18.5546875,0.0
247.41796875,-47.8515625,-31.25,-31.73828125,-26.3671875,-3.90625,0.0
247.421875,-29.296875,-31.73828125,-33.203125,-25.390625,-23.4375,0.0
247.42578125,-28.3203125,-37.109375,-41.015625,-27.34375,-70.80078125,0.0
247.4296875,-40.52734375,-32.71484375,-40.0390625,-33.69140625,-9.27734375,0.0
247.43359375,-38.57421875,-22.94921875,-28.80859375,-23.92578125,-34.66796875,0.0
247.4375,-33.69140625,-27.83203125,-29.296875,-24.4140625,-125.0,0.0
247.44140625,-29.78515625,-37.59765625,-27.34375,-27.83203125,-140.13671875,0.0
247.4453125,-15.13671875,-31.73828125,-21.484375,-16.11328125,-125.48828125,0.0
247.44921875,-28.3203125,-31.25,-27.34375,-22.4609375,-77.1484375,0.0
247.453125,-51.7578125,-36.62109375,-31.73828125,-35.64453125,-29.78515625,0.0
247.45703125,-53.22265625,-34.1796875,-32.71484375,-32.2265625,3.90625,0.0
247.4609375,-34.66796875,-31.25,-30.76171875,-30.2734375,-19.04296875,0.0
247.46484375,-20.01953125,-28.80859375,-33.69140625,-34.66796875,-13.671875,0.0
247.46875,-38.57421875,-38.0859375,-41.50390625,-24.90234375,5.859375,0.0
247.47265625,-53.22265625,-38.57421875,-37.59765625,-11.23046875,-85.9375,0.0
247.4765625,-41.50390625,-29.78515625,-29.296875,-9.765625,-121.58203125,0.0
247.48046875,-19.04296875,-27.83203125,-28.3203125,-31.25,-22.94921875,0.0
247.484375,-12.6953125,-32.71484375,-31.25,-45.41015625,45.41015625,0.0
247.48828125,-31.25,-38.57421875,-39.55078125,-48.828125,94.23828125,0.0
247.4921875,-30.2734375,-18.5546875,-24.4140625,-29.296875,36.62109375,0.0
247.49609375,-20.5078125,-9.765625,-15.13671875,-24.4140625,-30.2734375,0.0
247.5,-30.76171875,-32.71484375,-35.15625,-47.8515625,-1.46484375,0.0
247.50390625,-19.53125,-32.71484375,-34.1796875,-41.50390625,45.8984375,0.0
247.5078125,-24.90234375,-28.3203125,-34.66796875,-34.66796875,78.61328125,0.0
247.51171875,-49.31640625,-36.62109375,-37.109375,-41.015625,54.19921875,0.0
247.515625,-57.12890625,-41.015625,-33.203125,-43.45703125,72.265625,0.0
247.51953125,-41.50390625,-37.59765625,-31.25,-41.9921875,3.90625,0.0
247.5234375,-25.87890625,-30.76171875,-32.2265625,-41.9921875,-54.6875,0.0
247.52734375,-29.78515625,-30.76171875,-31.73828125,-44.921875,-44.921875,0.0
247.53125,-49.8046875,-39.55078125,-37.109375,-44.43359375,22.94921875,0.0
247.53515625,-55.17578125,-35.64453125,-36.1328125,-40.0390625,-14.6484375,0.0
247.5390625,-13.671875,-5.859375,-12.6953125,-24.90234375,-109.86328125,0.0
247.54296875,-1.953125,-13.18359375,-19.53125,-25.390625,-76.66015625,0.0
247.546875,-30.2734375,-37.59765625,-36.62109375,-35.15625,-2.9296875,0.0
247.55078125,-56.15234375,-41.50390625,-40.0390625,-47.36328125,-38.0859375,0.0
247.5546875,-70.3125,-45.8984375,-44.43359375,-57.12890625,-135.25390625,0.0
247.55859375,-55.6640625,-40.52734375,-39.55078125,-47.36328125,-138.671875,0.0
247.5625,-36.1328125,-39.55078125,-37.109375,-46.875,-34.1796875,0.0
247.56640625,-28.80859375,-40.0390625,-37.109375,-44.921875,16.11328125,0.0
247.5703125,-39.0625,-35.15625,-36.1328125,-31.73828125,-23.92578125,0.0
247.57421875,-57.12890625,-41.50390625,-38.57421875,-38.57421875,-12.20703125,0.0
247.578125,-47.36328125,-45.41015625,-41.50390625,-42.48046875,-18.06640625,0.0
247.58203125,-21.484375,-38.57421875,-38.57421875,-28.80859375,-50.29296875,0.0
247.5859375,-28.3203125,-37.59765625,-41.015625,-31.73828125,14.16015625,0.0
247.58984375,-49.31640625,-38.57421875,-45.41015625,-43.9453125,56.640625,0.0
247.59375,-55.6640625,-39.0625,-39.0625,-45.8984375,11.71875,0.0
247.59765625,-34.66796875,-32.71484375,-27.83203125,-33.203125,-34.66796875,0.0
247.6015625,-15.13671875,-31.73828125,-25.87890625,-34.66796875,9.27734375,0.0
247.60546875,-20.01953125,-40.0390625,-36.1328125,-44.43359375,76.171875,0.0
247.609375,-35.64453125,-39.0625,-40.52734375,-40.52734375,74.21875,0.0
247.61328125,-48.33984375,-41.015625,-43.9453125,-40.0390625,-31.73828125,0.0
247.6171875,-37.59765625,-36.1328125,-39.55078125,-32.71484375,-36.1328125,0.0
247.62109375,-20.99609375,-33.203125,-30.2734375,-28.3203125,18.06640625,0.0
247.625,-11.71875,-30.2734375,-32.71484375,-31.73828125,-15.625,0.0
247.62890625,-15.13671875,-20.5078125,-31.73828125,-19.53125,-48.828125,0.0
247.6328125,-45.41015625,-30.2734375,-35.64453125,-24.90234375,-76.66015625,0.0
247.63671875,-47.8515625,-34.66796875,-35.64453125,-32.71484375,-70.3125,0.0
247.640625,-24.4140625,-30.76171875,-30.2734375,-33.203125,-61.5234375,0.0
247.64453125,-16.11328125,-28.80859375,-30.2734375,-33.69140625,-18.06640625,0.0
247.6484375,-28.3203125,-25.390625,-29.78515625,-32.71484375,-63.96484375,0.0
247.65234375,-50.29296875,-25.87890625,-34.66796875,-35.64453125,-80.56640625,0.0
247.65625,-46.875,-23.92578125,-29.78515625,-24.90234375,-50.78125,0.0
247.66015625,-20.01953125,-20.99609375,-15.625,-7.8125,-28.80859375,0.0
247.6640625,-11.71875,-25.390625,-24.90234375,-14.6484375,74.21875,0.0
247.66796875,-26.85546875,-27.34375,-34.1796875,-29.78515625,134.765625,0.0
247.671875,-39.0625,-28.3203125,-33.203125,-45.8984375,135.25390625,0.0
247.67578125,-42.48046875,-30.2734375,-34.66796875,-56.640625,22.94921875,0.0
247.6796875,-35.15625,-31.73828125,-39.0625,-61.03515625,-72.265625,0.0
247.68359375,-19.53125,-30.2734375,-36.62109375,-59.08203125,-62.5,0.0
247.6875,-25.87890625,-30.76171875,-33.69140625,-50.78125,51.26953125,0.0
247.69140625,-45.41015625,-33.203125,-37.59765625,-42.48046875,74.21875,0.0
247.6953125,-53.22265625,-37.109375,-39.0625,-49.31640625,-56.15234375,0.0
247.69921875,-41.015625,-36.62109375,-37.59765625,-53.22265625,-29.296875,0.0
247.703125,-22.94921875,-37.59765625,-36.1328125,-38.0859375,17.08984375,0.0
247.70703125,-23.4375,-41.50390625,-34.1796875,-31.73828125,25.87890625,0.0
247.7109375,-42.48046875,-37.109375,-34.66796875,-34.66796875,24.90234375,0.0
247.71484375,-52.24609375,-40.0390625,-36.1328125,-38.57421875,-53.7109375,0.0
247.71875,-32.71484375,-34.66796875,-31.25,-33.203125,-16.6015625,0.0
247.72265625,-12.6953125,-31.25,-28.80859375,-35.64453125,134.765625,0.0
247.7265625,-22.94921875,-37.109375,-33.69140625,-44.43359375,95.21484375,0.0
247.73046875,-40.52734375,-38.0859375,-34.1796875,-36.1328125,10.25390625,0.0
247.734375,-50.29296875,-36.1328125,-34.1796875,-33.203125,-40.0390625,0.0
247.73828125,-42.96875,-31.73828125,-31.73828125,-35.15625,-65.4296875,0.0
247.7421875,-26.85546875,-32.2265625,-27.83203125,-35.64453125,-64.453125,0.0
247.74609375,-24.90234375,-31.73828125,-24.90234375,-28.80859375,-9.27734375,0.0
247.75,-37.59765625,-34.1796875,-28.3203125,-29.296875,91.30859375,0.0
247.75390625,-52.24609375,-42.48046875,-32.2265625,-36.62109375,79.58984375,0.0
247.7578125,-48.33984375,-39.55078125,-33.69140625,-40.52734375,-22.94921875,0.0
247.76171875,-24.4140625,-28.80859375,-25.390625,-28.3203125,-84.47265625,0.0
247.765625,-7.32421875,-19.53125,-19.53125,-16.6015625,-63.96484375,0.0
247.76953125,-33.203125,-31.25,-33.69140625,-29.296875,57.6171875,0.0
247.7734375,-56.640625,-41.50390625,-37.109375,-32.71484375,24.90234375,0.0
247.77734375,-51.26953125,-41.9921875,-29.78515625,-34.66796875,-150.87890625,0.0
247.78125,-34.1796875,-42.48046875,-32.2265625,-43.45703125,-85.9375,0.0
247.78515625,-27.34375,-39.0625,-33.203125,-45.41015625,2.9296875,0.0
247.7890625,-44.43359375,-38.0859375,-29.296875,-37.59765625,-77.63671875,0.0
247.79296875,-54.6875,-35.64453125,-34.66796875,-40.52734375,-105.95703125,0.0
247.796875,-41.9921875,-31.25,-32.2265625,-34.1796875,-81.0546875,0.0
247.80078125,-30.76171875,-31.73828125,-28.3203125,-28.80859375,-20.99609375,0.0
247.8046875,-22.94921875,-32.2265625,-26.3671875,-28.3203125,-6.8359375,0.0
247.80859375,-26.85546875,-27.34375,-23.92578125,-22.94921875,-53.7109375,0.0
247.8125,-52.734375,-35.64453125,-31.25,-35.64453125,-46.38671875,0.0
247.81640625,-61.5234375,-38.0859375,-32.71484375,-45.41015625,9.27734375,0.0
247.8203125,-41.015625,-29.78515625,-30.76171875,-39.0625,14.16015625,0.0
247.82421875,-20.01953125,-24.90234375,-32.2265625,-32.71484375,42.96875,0.0
247.828125,-33.203125,-28.80859375,-35.64453125,-34.1796875,28.80859375,0.0
247.83203125,-56.15234375,-39.0625,-36.1328125,-33.203125,-27.83203125,0.0
247.8359375,-54.19921875,-36.62109375,-33.69140625,-30.76171875,-128.90625,0.0
247.83984375,-38.57421875,-29.78515625,-34.66796875,-32.2265625,-226.5625,0.0
247.84375,-26.85546875,-30.76171875,-34.66796875,-33.69140625,-179.19921875,0.0
247.84765625,-32.71484375,-32.2265625,-35.64453125,-31.25,-67.87109375,0.0
247.8515625,-45.8984375,-27.83203125,-37.109375,-40.52734375,-75.68359375,0.0
247.85546875,-49.31640625,-26.3671875,-37.59765625,-47.8515625,-113.76953125,0.0
247.859375,-41.015625,-29.78515625,-34.1796875,-33.69140625,-81.0546875,0.0
247.86328125,-18.06640625,-30.2734375,-30.76171875,-26.85546875,-57.12890625,0.0
247.8671875,-17.578125,-27.83203125,-27.83203125,-29.296875,-16.11328125,0.0
247.87109375,-38.0859375,-23.92578125,-30.76171875,-35.64453125,-19.04296875,0.0
247.875,-47.36328125,-27.34375,-32.2265625,-43.45703125,-80.078125,0.0
247.87890625,-35.15625,-35.15625,-33.69140625,-39.0625,-47.8515625,0.0
247.8828125,-17.08984375,-36.1328125,-33.203125,-31.73828125,39.0625,0.0
247.88671875,-20.99609375,-36.62109375,-34.66796875,-31.25,10.25390625,0.0
247.890625,-44.43359375,-36.1328125,-41.50390625,-39.0625,-47.36328125,0.0
247.89453125,-56.15234375,-28.80859375,-41.9921875,-44.43359375,-10.25390625,0.0
247.8984375,-40.0390625,-28.3203125,-32.2265625,-41.9921875,-35.15625,0.0
247.90234375,-23.4375,-34.66796875,-25.87890625,-39.0625,-41.9921875,0.0
247.90625,-28.80859375,-40.0390625,-31.25,-38.0859375,23.92578125,0.0
247.91015625,-42.96875,-38.0859375,-36.62109375,-43.9453125,38.57421875,0.0
247.9140625,-47.36328125,-30.2734375,-30.76171875,-42.48046875,60.546875,0.0
247.91796875,-40.52734375,-33.69140625,-23.4375,-42.48046875,66.40625,0.0
247.921875,-23.92578125,-36.1328125,-23.4375,-40.0390625,59.5703125,0.0
247.92578125,-21.97265625,-36.1328125,-26.3671875,-34.66796875,86.9140625,0.0
247.9296875,-43.45703125,-35.15625,-35.15625,-41.9921875,49.31640625,0.0
247.93359375,-61.5234375,-36.62109375,-36.62109375,-39.55078125,12.6953125,0.0
247.9375,-53.22265625,-36.62109375,-32.71484375,-35.15625,14.6484375,0.0
247.94140625,-33.203125,-27.83203125,-28.3203125,-34.1796875,30.2734375,0.0
247.9453125,-19.53125,-23.4375,-25.87890625,-20.99609375,23.4375,0.0
247.94921875,-37.109375,-29.78515625,-29.296875,-24.90234375,57.12890625,0.0
247.953125,-55.6640625,-33.69140625,-28.3203125,-34.66796875,52.24609375,0.0
247.95703125,-40.0390625,-31.25,-24.90234375,-30.2734375,-54.19921875,0.0
247.9609375,-25.87890625,-31.73828125,-33.203125,-22.94921875,-111.328125,0.0
247.96484375,-24.4140625,-34.66796875,-37.109375,-29.78515625,-120.1171875,0.0
247.96875,-38.0859375,-34.66796875,-33.203125,-38.0859375,-140.625,0.0
247.97265625,-55.17578125,-34.66796875,-31.25,-40.52734375,-119.140625,0.0
247.9765625,-45.41015625,-34.1796875,-29.78515625,-36.62109375,-11.23046875,0.0
247.98046875,-27.83203125,-35.15625,-25.87890625,-23.4375,44.43359375,0.0
247.984375,-22.4609375,-38.57421875,-27.83203125,-21.484375,-4.8828125,0.0
247.98828125,-25.87890625,-32.71484375,-29.296875,-19.53125,-68.84765625,0.0
247.9921875,-37.109375,-27.34375,-29.296875,-27.34375,-25.87890625,0.0
247.99609375,-46.38671875,-30.2734375,-32.2265625,-37.59765625,77.63671875,0.0
248.0,-32.71484375,-31.25,-33.203125,-31.73828125,45.41015625,0.0
248.00390625,-1.46484375,-17.08984375,-23.4375,-18.5546875,-19.53125,0.0
248.0078125,-20.01953125,-25.390625,-37.59765625,-25.390625,73.2421875,0.0
248.01171875,-49.31640625,-38.57421875,-43.9453125,-43.45703125,72.75390625,0.0
248.015625,-46.38671875,-40.52734375,-36.62109375,-44.921875,-16.11328125,0.0
248.01953125,-31.73828125,-38.57421875,-40.0390625,-38.0859375,-53.22265625,0.0
248.0234375,-20.5078125,-39.0625,-34.66796875,-41.9921875,-73.73046875,0.0
248.02734375,-27.34375,-39.0625,-38.57421875,-50.29296875,-23.92578125,0.0
248.03125,-41.015625,-31.73828125,-38.57421875,-48.33984375,-11.71875,0.0
248.03515625,-46.875,-32.2265625,-29.78515625,-41.015625,-55.17578125,0.0
248.0390625,-37.59765625,-31.73828125,-32.71484375,-41.9921875,-71.77734375,0.0
248.04296875,-24.4140625,-34.1796875,-39.0625,-42.48046875,-6.34765625,0.0
248.046875,-21.97265625,-35.64453125,-36.1328125,-36.62109375,28.80859375,0.0
248.05078125,-29.78515625,-25.87890625,-28.3203125,-23.4375,-13.671875,0.0
248.0546875,-50.29296875,-32.2265625,-37.109375,-34.1796875,-28.3203125,0.0
248.05859375,-43.9453125,-33.203125,-36.62109375,-40.0390625,4.8828125,0.0
248.0625,-27.83203125,-27.83203125,-29.78515625,-37.59765625,54.6875,0.0
248.06640625,-32.71484375,-35.15625,-30.2734375,-50.29296875,-16.6015625,0.0
248.0703125,-51.26953125,-43.9453125,-37.109375,-47.8515625,-52.734375,0.0
248.07421875,-66.89453125,-43.45703125,-43.45703125,-44.921875,-45.41015625,0.0
248.078125,-55.17578125,-38.57421875,-39.0625,-37.59765625,-25.390625,0.0
248.08203125,-34.1796875,-33.69140625,-31.25,-32.71484375,12.20703125,0.0
248.0859375,-31.25,-28.80859375,-33.69140625,-35.64453125,21.484375,0.0
248.08984375,-45.8984375,-29.78515625,-43.9453125,-31.73828125,-18.5546875,0.0
248.09375,-46.38671875,-25.87890625,-34.66796875,-27.83203125,-141.11328125,0.0
248.09765625,-43.45703125,-33.69140625,-33.69140625,-36.62109375,-56.15234375,0.0
248.1015625,-29.296875,-38.57421875,-34.1796875,-41.50390625,-15.13671875,0.0
248.10546875,-21.484375,-32.2265625,-30.76171875,-34.66796875,-79.58984375,0.0
248.109375,-42.48046875,-34.1796875,-33.203125,-35.64453125,-91.30859375,0.0
248.11328125,-58.59375,-39.55078125,-32.71484375,-37.109375,-112.3046875,0.0
248.1171875,-49.31640625,-39.0625,-29.296875,-36.1328125,-66.40625,0.0
248.12109375,-22.4609375,-31.73828125,-23.92578125,-29.78515625,17.08984375,0.0
248.125,-11.23046875,-29.78515625,-26.85546875,-27.83203125,106.93359375,0.0
248.12890625,-32.71484375,-38.0859375,-34.1796875,-33.203125,98.14453125,0.0
248.1328125,-51.26953125,-36.1328125,-33.203125,-31.73828125,-25.390625,0.0
248.13671875,-35.15625,-24.90234375,-24.4140625,-13.671875,-36.1328125,0.0
248.140625,-18.06640625,-23.92578125,-20.01953125,-14.6484375,-15.13671875,0.0
248.14453125,-20.99609375,-32.71484375,-31.25,-31.73828125,35.15625,0.0
248.1484375,-34.1796875,-35.64453125,-32.71484375,-26.3671875,52.734375,0.0
248.15234375,-48.33984375,-35.15625,-28.80859375,-27.83203125,4.39453125,0.0
248.15625,-46.38671875,-37.109375,-23.92578125,-27.83203125,-46.38671875,0.0
248.16015625,-30.76171875,-34.1796875,-20.99609375,-25.87890625,-4.8828125,0.0
248.1640625,-19.53125,-30.2734375,-27.83203125,-30.2734375,63.4765625,0.0
248.16796875,-32.2265625,-32.71484375,-30.2734375,-32.71484375,77.63671875,0.0
248.171875,-55.6640625,-37.109375,-35.64453125,-40.0390625,24.4140625,0.0
248.17578125,-61.5234375,-40.52734375,-37.59765625,-45.41015625,-58.59375,0.0
248.1796875,-45.41015625,-37.109375,-28.80859375,-36.62109375,-56.15234375,0.0
248.18359375,-26.3671875,-34.1796875,-26.85546875,-31.73828125,12.6953125,0.0
248.1875,-38.57421875,-39.0625,-35.64453125,-48.828125,74.70703125,0.0
248.19140625,-61.5234375,-42.96875,-39.55078125,-57.12890625,-27.34375,0.0
248.1953125,-58.59375,-39.0625,-35.64453125,-48.33984375,-2.9296875,0.0
248.19921875,-38.57421875,-33.203125,-33.69140625,-43.45703125,-6.34765625,0.0
248.203125,-21.97265625,-33.69140625,-34.66796875,-40.0390625,-78.61328125,0.0
248.20703125,-31.73828125,-39.55078125,-36.62109375,-42.96875,-103.515625,0.0
248.2109375,-43.9453125,-33.69140625,-35.64453125,-39.0625,-95.21484375,0.0
248.21484375,-34.1796875,-18.06640625,-23.4375,-24.4140625,-29.296875,0.0
248.21875,-30.76171875,-27.83203125,-28.3203125,-33.203125,20.5078125,0.0
248.22265625,-19.04296875,-32.2265625,-32.71484375,-37.109375,0.48828125,0.0
248.2265625,-16.11328125,-26.3671875,-26.3671875,-41.015625,-7.8125,0.0
248.23046875,-36.1328125,-29.78515625,-25.87890625,-30.2734375,-61.5234375,0.0
248.234375,-49.8046875,-37.109375,-30.2734375,-22.94921875,-95.703125,0.0
248.23828125,-40.0390625,-36.62109375,-31.73828125,-29.296875,-80.078125,0.0
248.2421875,-7.8125,-17.578125,-17.578125,-20.5078125,-58.59375,0.0
248.24609375,-3.41796875,-15.13671875,-18.06640625,-24.4140625,-125.48828125,0.0
248.25,-33.203125,-28.80859375,-31.73828125,-45.8984375,-173.828125,0.0
248.25390625,-44.921875,-31.73828125,-31.73828125,-43.9453125,-47.36328125,0.0
248.2578125,-28.3203125,-27.34375,-27.34375,-39.0625,-56.15234375,0.0
248.26171875,-6.34765625,-17.578125,-26.85546875,-36.1328125,-87.890625,0.0
248.265625,-6.8359375,-22.4609375,-31.25,-37.109375,-36.62109375,0.0
248.26953125,-30.76171875,-30.76171875,-33.69140625,-41.015625,-12.20703125,0.0
248.2734375,-39.0625,-16.11328125,-23.4375,-23.92578125,7.32421875,0.0
248.27734375,-30.2734375,-15.625,-26.3671875,-24.90234375,46.875,0.0
248.28125,-20.5078125,-31.25,-35.15625,-37.109375,64.453125,0.0
248.28515625,-18.5546875,-32.71484375,-33.203125,-34.66796875,25.390625,0.0
248.2890625,-26.3671875,-23.92578125,-28.3203125,-29.78515625,-7.8125,0.0
248.29296875,-53.22265625,-35.15625,-35.15625,-29.78515625,-6.8359375,0.0
248.296875,-45.8984375,-37.109375,-39.0625,-34.1796875,-23.92578125,0.0
248.30078125,-17.578125,-27.34375,-30.2734375,-25.87890625,-120.1171875,0.0
248.3046875,-15.13671875,-32.71484375,-26.3671875,-20.99609375,-101.5625,0.0
248.30859375,-30.76171875,-41.50390625,-29.296875,-33.69140625,-63.4765625,0.0
248.3125,-48.828125,-41.015625,-30.76171875,-35.15625,-73.73046875,0.0
248.31640625,-41.015625,-28.80859375,-24.90234375,-25.390625,-24.4140625,0.0
248.3203125,-21.484375,-26.85546875,-22.94921875,-29.296875,14.6484375,0.0
248.32421875,-17.578125,-34.66796875,-30.2734375,-36.1328125,-15.625,0.0
248.328125,-33.69140625,-35.15625,-33.69140625,-38.0859375,-2.44140625,0.0
248.33203125,-36.62109375,-22.4609375,-21.484375,-25.390625,-12.6953125,0.0
248.3359375,-17.578125,-8.7890625,-1.953125,-8.30078125,-123.53515625,0.0
248.33984375,-23.4375,-29.296875,-18.5546875,-25.390625,-67.3828125,0.0
248.34375,-22.94921875,-42.96875,-31.25,-34.1796875,19.04296875,0.0
248.34765625,-28.80859375,-40.52734375,-30.76171875,-24.4140625,-3.90625,0.0
248.3515625,-48.33984375,-37.59765625,-32.71484375,-24.90234375,-107.421875,0.0
248.35546875,-48.33984375,-36.1328125,-28.80859375,-24.90234375,-95.21484375,0.0
248.359375,-30.76171875,-33.69140625,-26.85546875,-25.390625,-20.01953125,0.0
248.36328125,-10.25390625,-30.76171875,-29.296875,-20.99609375,45.8984375,0.0
248.3671875,-22.4609375,-33.203125,-33.69140625,-30.2734375,63.96484375,0.0
248.37109375,-47.36328125,-38.57421875,-38.57421875,-35.15625,51.26953125,0.0
248.375,-50.78125,-39.0625,-37.59765625,-30.76171875,45.41015625,0.0
248.37890625,-23.92578125,-30.2734375,-23.92578125,-17.578125,-104.4921875,0.0
248.3828125,-17.08984375,-33.69140625,-24.4140625,-18.06640625,-106.93359375,0.0
248.38671875,-35.15625,-41.50390625,-40.0390625,-32.2265625,66.89453125,0.0
248.390625,-49.8046875,-41.015625,-41.50390625,-30.2734375,66.40625,0.0
248.39453125,-55.6640625,-41.9921875,-36.62109375,-30.2734375,56.15234375,0.0
248.3984375,-41.50390625,-34.1796875,-30.76171875,-28.3203125,95.703125,0.0
248.40234375,-26.3671875,-33.203125,-32.2265625,-26.3671875,116.2109375,0.0
248.40625,-22.4609375,-34.66796875,-26.3671875,-22.94921875,118.65234375,0.0
248.41015625,-36.62109375,-32.71484375,-23.4375,-24.90234375,22.94921875,0.0
248.4140625,-53.22265625,-41.50390625,-29.78515625,-35.64453125,-56.15234375,0.0
248.41796875,-44.43359375,-40.0390625,-25.87890625,-36.1328125,30.2734375,0.0
248.421875,-17.578125,-29.296875,-18.5546875,-33.69140625,23.4375,0.0
248.42578125,-7.32421875,-22.94921875,-20.5078125,-32.71484375,-27.34375,0.0
248.4296875,-33.69140625,-29.78515625,-29.78515625,-37.109375,-24.90234375,0.0
248.43359375,-50.29296875,-35.64453125,-28.80859375,-38.0859375,-56.640625,0.0
248.4375,-32.2265625,-23.92578125,-13.671875,-24.4140625,-54.6875,0.0
248.44140625,-15.13671875,-24.4140625,-14.16015625,-31.25,-45.8984375,0.0
248.4453125,-14.16015625,-29.296875,-29.296875,-40.0390625,-74.21875,0.0
248.44921875,-28.3203125,-27.83203125,-27.34375,-35.15625,-12.20703125,0.0
248.453125,-40.52734375,-27.34375,-26.3671875,-36.1328125,6.34765625,0.0
248.45703125,-34.1796875,-26.85546875,-28.3203125,-29.296875,-72.75390625,0.0
248.4609375,-18.06640625,-27.83203125,-30.2734375,-30.76171875,-27.34375,0.0
248.46484375,-7.8125,-24.90234375,-28.3203125,-29.78515625,-38.0859375,0.0
248.46875,-17.08984375,-16.11328125,-17.08984375,-9.27734375,-78.125,0.0
248.47265625,-41.9921875,-23.4375,-27.34375,-25.390625,0.9765625,0.0
248.4765625,-42.48046875,-29.296875,-31.25,-50.78125,-13.671875,0.0
248.48046875,-23.92578125,-27.34375,-23.4375,-41.50390625,-23.92578125,0.0
248.484375,-15.13671875,-30.76171875,-28.3203125,-29.296875,-15.13671875,0.0
248.48828125,-32.2265625,-31.73828125,-34.1796875,-26.85546875,0.0,0.0
248.4921875,-52.24609375,-32.2265625,-36.1328125,-34.66796875,-20.5078125,0.0
248.49609375,-41.50390625,-31.25,-30.76171875,-27.34375,-6.34765625,0.0
248.5,-20.5078125,-24.90234375,-22.94921875,-14.16015625,27.83203125,0.0
248.50390625,-15.625,-29.78515625,-22.94921875,-18.06640625,8.30078125,0.0
248.5078125,-27.34375,-33.203125,-30.2734375,-31.25,43.45703125,0.0
248.51171875,-36.1328125,-22.94921875,-26.85546875,-28.3203125,15.13671875,0.0
248.515625,-30.76171875,-16.6015625,-18.06640625,-15.13671875,-20.99609375,0.0
248.51953125,-26.85546875,-31.73828125,-18.5546875,-24.90234375,-37.109375,0.0
248.5234375,-12.20703125,-32.71484375,-20.01953125,-32.71484375,6.8359375,0.0
248.52734375,-13.18359375,-25.390625,-18.06640625,-25.390625,-23.92578125,0.0
248.53125,-39.0625,-30.2734375,-23.4375,-30.76171875,-62.01171875,0.0
248.53515625,-43.45703125,-30.76171875,-22.4609375,-28.80859375,19.04296875,0.0
248.5390625,-21.97265625,-21.484375,-14.6484375,-20.5078125,22.94921875,0.0
248.54296875,-1.953125,-21.97265625,-13.671875,-16.11328125,83.984375,0.0
248.546875,-10.7421875,-30.76171875,-20.01953125,-17.08984375,82.03125,0.0
248.55078125,-37.59765625,-37.109375,-27.83203125,-30.76171875,-23.4375,0.0
248.5546875,-45.41015625,-33.69140625,-25.87890625,-32.2265625,-29.296875,0.0
248.55859375,-15.13671875,-13.671875,-7.8125,-1.953125,-43.45703125,0.0
248.5625,-1.953125,-17.578125,-11.71875,-7.32421875,-44.921875,0.0
248.56640625,-26.85546875,-35.15625,-26.85546875,-29.296875,49.8046875,0.0
248.5703125,-47.36328125,-34.1796875,-29.78515625,-33.69140625,47.36328125,0.0
248.57421875,-53.7109375,-30.2734375,-33.203125,-32.71484375,-66.89453125,0.0
248.578125,-42.48046875,-27.83203125,-27.83203125,-27.83203125,-68.84765625,0.0
248.58203125,-26.3671875,-28.3203125,-28.3203125,-35.15625,-11.23046875,0.0
248.5859375,-23.92578125,-28.80859375,-33.69140625,-33.69140625,20.5078125,0.0
248.58984375,-38.57421875,-27.83203125,-34.1796875,-19.53125,-25.87890625,0.0
248.59375,-45.41015625,-28.80859375,-34.1796875,-15.625,-73.73046875,0.0
248.59765625,-37.59765625,-33.203125,-34.66796875,-30.76171875,-73.73046875,0.0
248.6015625,-18.5546875,-25.390625,-26.3671875,-33.69140625,-43.9453125,0.0
248.60546875,-0.9765625,-13.18359375,-14.6484375,-12.20703125,-72.75390625,0.0
248.609375,-27.34375,-29.296875,-28.80859375,-22.94921875,-78.61328125,0.0
248.61328125,-46.875,-38.57421875,-33.69140625,-42.48046875,-49.31640625,0.0
248.6171875,-35.15625,-37.59765625,-28.3203125,-37.109375,-43.45703125,0.0
248.62109375,-19.04296875,-32.71484375,-25.87890625,-27.34375,3.90625,0.0
248.625,-15.625,-28.80859375,-24.90234375,-22.94921875,75.68359375,0.0
248.62890625,-32.71484375,-36.1328125,-29.296875,-26.85546875,20.01953125,0.0
248.6328125,-47.8515625,-38.0859375,-31.73828125,-35.15625,-54.6875,0.0
248.63671875,-39.55078125,-37.59765625,-32.2265625,-34.1796875,20.5078125,0.0
248.640625,-23.4375,-39.55078125,-32.2265625,-31.73828125,64.94140625,0.0
248.64453125,-18.06640625,-36.1328125,-30.76171875,-33.203125,35.15625,0.0
248.6484375,-31.25,-32.71484375,-32.2265625,-42.48046875,-2.9296875,0.0
248.65234375,-47.36328125,-36.1328125,-38.57421875,-41.50390625,-40.52734375,0.0
248.65625,-49.8046875,-41.015625,-38.57421875,-43.45703125,42.96875,0.0
248.66015625,-30.2734375,-39.55078125,-35.15625,-41.9921875,12.20703125,0.0
248.6640625,-10.25390625,-25.87890625,-29.78515625,-21.484375,-85.9375,0.0
248.66796875,-30.76171875,-31.25,-28.3203125,-20.99609375,21.484375,0.0
248.671875,-58.59375,-41.015625,-34.1796875,-32.2265625,75.68359375,0.0
248.67578125,-56.15234375,-37.109375,-30.2734375,-33.69140625,10.7421875,0.0
248.6796875,-35.64453125,-33.203125,-30.2734375,-34.66796875,-14.16015625,0.0
248.68359375,-26.85546875,-33.203125,-35.64453125,-36.62109375,45.8984375,0.0
248.6875,-39.0625,-37.109375,-32.71484375,-40.52734375,84.47265625,0.0
248.69140625,-52.734375,-36.62109375,-33.203125,-40.52734375,39.55078125,0.0
248.6953125,-49.8046875,-31.73828125,-28.3203125,-46.38671875,-16.6015625,0.0
248.69921875,-32.2265625,-32.71484375,-26.3671875,-46.38671875,-45.8984375,0.0
248.703125,-19.04296875,-37.109375,-33.203125,-46.38671875,7.32421875,0.0
248.70703125,-20.01953125,-30.2734375,-29.296875,-42.48046875,37.109375,0.0
248.7109375,-26.85546875,-19.04296875,-29.296875,-33.203125,-30.2734375,0.0
248.71484375,-37.59765625,-29.78515625,-36.1328125,-41.9921875,-51.7578125,0.0
248.71875,-30.2734375,-35.64453125,-32.2265625,-48.828125,48.828125,0.0
248.72265625,-9.27734375,-25.87890625,-26.3671875,-45.41015625,67.87109375,0.0
248.7265625,-18.5546875,-30.76171875,-28.80859375,-40.52734375,-79.58984375,0.0
248.73046875,-45.8984375,-39.0625,-31.25,-37.109375,-145.99609375,0.0
248.734375,-56.15234375,-36.1328125,-27.83203125,-35.15625,-218.26171875,0.0
248.73828125,-41.9921875,-34.1796875,-24.90234375,-34.66796875,-215.8203125,0.0
248.7421875,-22.94921875,-31.25,-25.87890625,-41.015625,-165.52734375,0.0
248.74609375,-30.76171875,-32.2265625,-29.296875,-43.45703125,-134.765625,0.0
248.75,-45.8984375,-32.71484375,-28.80859375,-34.66796875,-65.91796875,0.0
248.75390625,-38.57421875,-19.53125,-20.99609375,-17.578125,-107.91015625,0.0
248.7578125,-32.2265625,-25.390625,-25.87890625,-35.64453125,-168.45703125,0.0
248.76171875,-23.92578125,-33.203125,-37.59765625,-57.12890625,-154.78515625,0.0
248.765625,-19.04296875,-29.296875,-41.015625,-44.921875,-123.53515625,0.0
248.76953125,-38.0859375,-32.71484375,-37.59765625,-43.9453125,-78.125,0.0
248.7734375,-54.6875,-38.0859375,-37.59765625,-46.38671875,-102.5390625,0.0
248.77734375,-41.015625,-41.9921875,-38.57421875,-39.55078125,-100.5859375,0.0
248.78125,-16.6015625,-35.15625,-33.69140625,-38.0859375,-81.54296875,0.0
248.78515625,-13.18359375,-27.34375,-29.296875,-41.9921875,-39.55078125,0.0
248.7890625,-39.0625,-35.64453125,-33.203125,-52.24609375,-61.5234375,0.0
248.79296875,-66.40625,-44.43359375,-31.73828125,-52.734375,-127.44140625,0.0
248.796875,-57.6171875,-38.0859375,-18.06640625,-38.0859375,-83.49609375,0.0
248.80078125,-33.69140625,-32.2265625,-18.06640625,-29.296875,66.40625,0.0
248.8046875,-31.73828125,-34.1796875,-28.3203125,-33.203125,219.23828125,0.0
248.80859375,-45.8984375,-34.66796875,-27.83203125,-40.0390625,183.59375,0.0
248.8125,-61.03515625,-37.109375,-25.87890625,-36.62109375,111.328125,0.0
248.81640625,-53.7109375,-37.59765625,-23.4375,-33.203125,57.12890625,0.0
248.8203125,-34.1796875,-31.73828125,-23.92578125,-36.1328125,-19.04296875,0.0
248.82421875,-22.4609375,-29.78515625,-28.80859375,-37.59765625,11.71875,0.0
248.828125,-34.66796875,-31.25,-30.2734375,-35.15625,121.58203125,0.0
248.83203125,-57.6171875,-32.2265625,-32.2265625,-36.1328125,141.11328125,0.0
248.8359375,-47.8515625,-25.390625,-30.76171875,-32.71484375,52.734375,0.0
248.83984375,-21.484375,-17.08984375,-26.3671875,-29.296875,33.69140625,0.0
248.84375,-7.32421875,-14.6484375,-22.94921875,-28.80859375,46.38671875,0.0
248.84765625,-23.4375,-22.4609375,-25.390625,-36.1328125,32.71484375,0.0
248.8515625,-45.8984375,-29.296875,-30.76171875,-43.9453125,-2.44140625,0.0
248.85546875,-49.31640625,-33.69140625,-31.25,-33.203125,25.390625,0.0
248.859375,-39.0625,-37.59765625,-29.78515625,-34.1796875,114.74609375,0.0
248.86328125,-25.87890625,-39.0625,-33.69140625,-41.015625,114.74609375,0.0
248.8671875,-34.1796875,-38.57421875,-34.66796875,-41.50390625,62.98828125,0.0
248.87109375,-49.8046875,-36.1328125,-29.78515625,-33.69140625,12.20703125,0.0
248.875,-50.78125,-30.2734375,-29.78515625,-27.83203125,6.8359375,0.0
248.87890625,-40.0390625,-35.64453125,-32.71484375,-32.71484375,-12.6953125,0.0
248.8828125,-27.83203125,-40.0390625,-28.3203125,-28.3203125,-29.296875,0.0
248.88671875,-22.94921875,-30.2734375,-27.34375,-21.97265625,26.3671875,0.0
248.890625,-35.64453125,-23.92578125,-27.83203125,-17.578125,17.578125,0.0
248.89453125,-51.7578125,-34.66796875,-33.69140625,-36.62109375,28.80859375,0.0
248.8984375,-39.55078125,-36.1328125,-36.62109375,-39.55078125,41.9921875,0.0
248.90234375,-15.625,-29.78515625,-31.73828125,-24.4140625,1.953125,0.0
248.90625,-19.53125,-32.71484375,-28.80859375,-27.83203125,-1.953125,0.0
248.91015625,-37.109375,-37.109375,-36.1328125,-27.83203125,-30.2734375,0.0
248.9140625,-42.48046875,-36.62109375,-35.64453125,-23.4375,-46.38671875,0.0
248.91796875,-31.25,-33.203125,-31.25,-27.34375,-29.78515625,0.0
248.921875,-17.08984375,-32.2265625,-31.25,-29.78515625,-33.203125,0.0
248.92578125,-17.578125,-33.69140625,-33.203125,-32.71484375,-3.90625,0.0
248.9296875,-33.69140625,-32.71484375,-34.66796875,-34.66796875,-29.78515625,0.0
248.93359375,-42.96875,-24.4140625,-31.25,-32.71484375,3.90625,0.0
248.9375,-40.52734375,-28.80859375,-31.25,-38.57421875,67.3828125,0.0
248.94140625,-24.90234375,-36.62109375,-38.0859375,-39.55078125,82.51953125,0.0
248.9453125,-18.06640625,-32.71484375,-34.66796875,-38.57421875,41.015625,0.0
248.94921875,-31.25,-31.73828125,-32.71484375,-40.52734375,6.34765625,0.0
248.953125,-44.43359375,-40.52734375,-35.64453125,-46.38671875,-21.484375,0.0
248.95703125,-36.62109375,-41.50390625,-31.25,-46.38671875,-109.375,0.0
248.9609375,-21.97265625,-34.66796875,-25.87890625,-38.57421875,-95.21484375,0.0
248.96484375,-14.16015625,-30.2734375,-24.90234375,-39.55078125,15.13671875,0.0
248.96875,-30.2734375,-35.15625,-28.3203125,-43.45703125,7.32421875,0.0
248.97265625,-52.24609375,-38.0859375,-34.66796875,-47.36328125,-49.31640625,0.0
248.9765625,-36.62109375,-27.34375,-32.2265625,-38.0859375,-83.984375,0.0
248.98046875,-17.578125,-25.87890625,-29.296875,-35.64453125,-107.421875,0.0
248.984375,-15.625,-32.71484375,-32.71484375,-44.43359375,-62.5,0.0
248.98828125,-22.4609375,-31.73828125,-37.109375,-43.45703125,-2.9296875,0.0
248.9921875,-27.83203125,-18.5546875,-29.78515625,-35.64453125,-27.34375,0.0
248.99609375,-23.4375,-14.16015625,-20.5078125,-24.90234375,1.953125,0.0
249.0,-19.04296875,-31.73828125,-32.71484375,-38.0859375,-0.48828125,0.0
249.00390625,-14.6484375,-38.0859375,-36.62109375,-39.55078125,-9.765625,0.0
249.0078125,-25.87890625,-37.109375,-39.0625,-31.73828125,89.84375,0.0
249.01171875,-48.828125,-38.0859375,-46.875,-50.29296875,40.52734375,0.0
249.015625,-51.7578125,-35.64453125,-41.015625,-57.12890625,-24.90234375,0.0
249.01953125,-36.1328125,-33.203125,-37.109375,-41.9921875,-37.109375,0.0
249.0234375,-20.01953125,-29.78515625,-37.59765625,-29.78515625,-57.12890625,0.0
249.02734375,-19.04296875,-30.2734375,-39.55078125,-29.78515625,-67.87109375,0.0
249.03125,-35.64453125,-33.69140625,-43.45703125,-35.15625,-42.48046875,0.0
249.03515625,-40.0390625,-33.69140625,-37.59765625,-32.2265625,-64.453125,0.0
249.0390625,-18.5546875,-27.83203125,-20.01953125,-13.671875,-65.91796875,0.0
249.04296875,-15.13671875,-32.71484375,-29.296875,-22.4609375,17.08984375,0.0
249.046875,-33.69140625,-37.109375,-44.921875,-34.1796875,19.04296875,0.0
249.05078125,-46.875,-32.2265625,-37.59765625,-28.3203125,-58.10546875,0.0
249.0546875,-50.78125,-32.71484375,-35.64453125,-27.34375,-89.35546875,0.0
249.05859375,-37.59765625,-39.55078125,-36.1328125,-29.296875,-101.5625,0.0
249.0625,-25.390625,-42.48046875,-34.1796875,-34.66796875,-60.05859375,0.0
249.06640625,-26.3671875,-37.109375,-37.59765625,-29.78515625,0.48828125,0.0
249.0703125,-38.0859375,-33.203125,-33.203125,-20.01953125,-89.84375,0.0
249.07421875,-47.36328125,-34.66796875,-31.25,-25.390625,-175.29296875,0.0
249.078125,-31.73828125,-33.69140625,-34.1796875,-29.296875,-166.50390625,0.0
249.08203125,-10.25390625,-31.73828125,-31.25,-22.94921875,-136.71875,0.0
249.0859375,-13.671875,-30.76171875,-28.3203125,-23.4375,-20.5078125,0.0
249.08984375,-31.25,-30.2734375,-29.296875,-25.390625,58.10546875,0.0
249.09375,-41.015625,-31.73828125,-33.203125,-27.83203125,6.34765625,0.0
249.09765625,-37.59765625,-36.1328125,-33.203125,-29.296875,15.625,0.0
249.1015625,-21.484375,-30.2734375,-31.73828125,-22.4609375,63.4765625,0.0
249.10546875,-23.92578125,-30.76171875,-37.109375,-25.390625,83.49609375,0.0
249.109375,-44.921875,-36.62109375,-42.48046875,-32.2265625,73.2421875,0.0
249.11328125,-55.17578125,-35.64453125,-36.62109375,-30.76171875,32.71484375,0.0
249.1171875,-40.52734375,-33.203125,-30.76171875,-28.80859375,35.64453125,0.0
249.12109375,-20.5078125,-30.76171875,-30.76171875,-29.78515625,-22.94921875,0.0
249.125,-16.6015625,-34.66796875,-30.2734375,-27.34375,-81.0546875,0.0
249.12890625,-27.34375,-36.62109375,-33.69140625,-21.484375,-71.77734375,0.0
249.1328125,-45.41015625,-36.62109375,-35.64453125,-20.5078125,-97.16796875,0.0
249.13671875,-44.921875,-33.69140625,-30.2734375,-23.4375,-158.203125,0.0
249.140625,-24.4140625,-28.80859375,-30.76171875,-22.94921875,-88.8671875,0.0
249.14453125,-13.671875,-22.94921875,-29.78515625,-15.13671875,76.171875,0.0
249.1484375,-29.78515625,-24.4140625,-30.2734375,-25.87890625,98.14453125,0.0
249.15234375,-48.828125,-28.3203125,-29.296875,-33.69140625,-34.1796875,0.0
249.15625,-41.9921875,-32.71484375,-22.94921875,-31.73828125,-56.640625,0.0
249.16015625,-27.83203125,-37.59765625,-30.2734375,-44.921875,-28.80859375,0.0
249.1640625,-19.04296875,-31.25,-33.203125,-41.50390625,-47.36328125,0.0
249.16796875,-33.203125,-27.83203125,-25.87890625,-35.64453125,-8.30078125,0.0
249.171875,-47.8515625,-27.83203125,-26.85546875,-38.57421875,49.31640625,0.0
249.17578125,-43.9453125,-32.2265625,-35.15625,-33.69140625,20.99609375,0.0
249.1796875,-27.34375,-33.69140625,-29.78515625,-32.2265625,-54.6875,0.0
249.18359375,-14.6484375,-33.69140625,-22.94921875,-25.390625,-50.78125,0.0
249.1875,-25.87890625,-34.66796875,-30.2734375,-35.15625,-47.36328125,0.0
249.19140625,-41.015625,-34.66796875,-34.1796875,-55.6640625,-35.64453125,0.0
249.1953125,-35.64453125,-32.71484375,-29.296875,-52.734375,-20.01953125,0.0
249.19921875,-20.01953125,-32.2265625,-28.3203125,-42.96875,-32.2265625,0.0
249.203125,-3.90625,-26.3671875,-27.34375,-38.0859375,18.5546875,0.0
249.20703125,-14.6484375,-23.92578125,-26.85546875,-31.73828125,-28.3203125,0.0
249.2109375,-36.1328125,-31.73828125,-25.390625,-26.85546875,-54.19921875,0.0
249.21484375,-37.59765625,-30.2734375,-23.92578125,-26.85546875,-25.87890625,0.0
249.21875,-25.87890625,-32.2265625,-31.73828125,-26.85546875,9.765625,0.0
249.22265625,-11.71875,-34.1796875,-30.76171875,-23.4375,33.203125,0.0
249.2265625,-21.484375,-37.109375,-22.4609375,-22.94921875,-30.76171875,0.0
249.23046875,-48.33984375,-39.55078125,-26.3671875,-23.4375,3.90625,0.0
249.234375,-55.17578125,-38.57421875,-28.3203125,-29.296875,65.4296875,0.0
249.23828125,-35.15625,-39.0625,-26.3671875,-37.59765625,-38.0859375,0.0
249.2421875,-18.06640625,-34.66796875,-23.92578125,-27.83203125,-108.3984375,0.0
249.24609375,-23.4375,-35.15625,-28.3203125,-22.94921875,-53.7109375,0.0
249.25,-40.52734375,-35.15625,-33.203125,-25.87890625,-24.90234375,0.0
249.25390625,-49.31640625,-32.71484375,-31.25,-24.4140625,-19.53125,0.0
249.2578125,-31.25,-24.4140625,-23.92578125,-20.99609375,-9.27734375,0.0
249.26171875,-8.30078125,-20.99609375,-23.92578125,-16.6015625,-43.9453125,0.0
249.265625,-9.27734375,-26.85546875,-30.2734375,-21.97265625,-5.37109375,0.0
249.26953125,-30.76171875,-30.2734375,-25.87890625,-22.4609375,6.8359375,0.0
249.2734375,-38.57421875,-30.76171875,-24.4140625,-25.390625,-32.71484375,0.0
249.27734375,-28.3203125,-28.80859375,-22.94921875,-30.2734375,-31.73828125,0.0
249.28125,-13.18359375,-23.92578125,-17.578125,-27.83203125,21.97265625,0.0
249.28515625,-14.16015625,-28.3203125,-20.5078125,-35.64453125,89.35546875,0.0
249.2890625,-33.203125,-31.25,-32.71484375,-40.0390625,77.63671875,0.0
249.29296875,-48.33984375,-31.73828125,-31.73828125,-34.66796875,-6.34765625,0.0
249.296875,-43.9453125,-35.15625,-28.80859375,-37.59765625,22.4609375,0.0
249.30078125,-29.78515625,-36.1328125,-27.83203125,-41.9921875,47.36328125,0.0
249.3046875,-26.85546875,-35.64453125,-23.4375,-31.73828125,51.26953125,0.0
249.30859375,-38.57421875,-28.80859375,-21.484375,-29.78515625,65.4296875,0.0
249.3125,-51.26953125,-32.2265625,-23.92578125,-28.3203125,22.94921875,0.0
249.31640625,-47.8515625,-38.57421875,-27.34375,-31.25,-24.90234375,0.0
249.3203125,-33.69140625,-36.62109375,-27.83203125,-36.62109375,-29.296875,0.0
249.32421875,-20.5078125,-31.73828125,-22.94921875,-30.76171875,33.69140625,0.0
249.328125,-28.3203125,-28.80859375,-24.90234375,-33.203125,37.59765625,0.0
249.33203125,-50.29296875,-34.66796875,-30.2734375,-33.203125,-24.90234375,0.0
249.3359375,-46.38671875,-36.62109375,-31.25,-25.390625,-53.7109375,0.0
249.33984375,-22.94921875,-29.296875,-27.83203125,-21.484375,76.66015625,0.0
249.34375,-19.04296875,-31.25,-24.4140625,-21.484375,108.3984375,0.0
249.34765625,-36.62109375,-32.71484375,-26.3671875,-24.4140625,51.26953125,0.0
249.3515625,-54.19921875,-28.80859375,-30.2734375,-33.69140625,40.0390625,0.0
249.35546875,-52.734375,-29.296875,-21.97265625,-29.78515625,-41.50390625,0.0
249.359375,-38.0859375,-32.2265625,-22.4609375,-27.34375,-22.4609375,0.0
249.36328125,-25.390625,-32.71484375,-28.80859375,-33.203125,-13.671875,0.0
249.3671875,-31.25,-29.78515625,-34.1796875,-31.73828125,-11.23046875,0.0
249.37109375,-53.22265625,-31.25,-35.15625,-32.2265625,-39.55078125,0.0
249.375,-49.31640625,-32.2265625,-28.80859375,-36.1328125,-97.65625,0.0
249.37890625,-31.73828125,-29.296875,-24.90234375,-34.1796875,-86.42578125,0.0
249.3828125,-23.4375,-24.90234375,-22.4609375,-31.25,-84.9609375,0.0
249.38671875,-30.76171875,-26.3671875,-28.80859375,-37.59765625,-16.11328125,0.0
249.390625,-53.7109375,-31.73828125,-32.2265625,-38.57421875,-56.15234375,0.0
249.39453125,-60.05859375,-31.73828125,-30.2734375,-32.71484375,-105.95703125,0.0
249.3984375,-40.0390625,-29.78515625,-26.3671875,-29.296875,8.30078125,0.0
249.40234375,-16.11328125,-24.4140625,-23.92578125,-37.109375,65.4296875,0.0
249.40625,-12.20703125,-23.92578125,-25.87890625,-39.55078125,50.29296875,0.0
249.41015625,-31.25,-26.3671875,-34.66796875,-31.73828125,42.48046875,0.0
249.4140625,-42.48046875,-27.83203125,-40.52734375,-30.2734375,-32.2265625,0.0
249.41796875,-33.203125,-30.2734375,-30.2734375,-33.69140625,-9.27734375,0.0
249.421875,-13.671875,-24.90234375,-22.4609375,-26.3671875,41.015625,0.0
249.42578125,-12.6953125,-24.90234375,-24.4140625,-17.08984375,62.98828125,0.0
249.4296875,-38.0859375,-27.83203125,-24.4140625,-23.4375,106.93359375,0.0
249.43359375,-54.6875,-30.76171875,-27.34375,-31.73828125,71.77734375,0.0
249.4375,-43.9453125,-32.2265625,-28.80859375,-33.203125,14.6484375,0.0
249.44140625,-24.90234375,-24.90234375,-27.34375,-26.85546875,-34.66796875,0.0
249.4453125,-22.94921875,-17.578125,-27.83203125,-24.90234375,-67.87109375,0.0
249.44921875,-44.43359375,-26.85546875,-32.71484375,-38.57421875,-85.44921875,0.0
249.453125,-61.03515625,-34.66796875,-32.2265625,-44.43359375,-52.734375,0.0
249.45703125,-45.41015625,-29.296875,-23.4375,-45.41015625,-99.609375,0.0
249.4609375,-24.90234375,-23.4375,-22.4609375,-43.45703125,-53.22265625,0.0
249.46484375,-26.85546875,-29.78515625,-29.78515625,-40.0390625,10.7421875,0.0
249.46875,-38.57421875,-34.66796875,-33.203125,-40.52734375,-30.76171875,0.0
249.47265625,-46.38671875,-31.25,-32.71484375,-29.296875,-10.7421875,0.0
249.4765625,-39.55078125,-31.73828125,-30.2734375,-25.390625,44.921875,0.0
249.48046875,-27.34375,-33.69140625,-31.25,-35.15625,56.15234375,0.0
249.484375,-22.94921875,-34.66796875,-34.1796875,-41.50390625,80.56640625,0.0
249.48828125,-38.0859375,-35.15625,-33.69140625,-41.50390625,59.5703125,0.0
249.4921875,-53.22265625,-32.2265625,-36.1328125,-35.64453125,-39.55078125,0.0
249.49609375,-49.8046875,-32.71484375,-40.52734375,-34.66796875,-50.78125,0.0
249.5,-34.1796875,-31.73828125,-34.66796875,-32.2265625,-20.01953125,0.0
249.50390625,-17.08984375,-23.4375,-27.34375,-16.6015625,-41.015625,0.0
249.5078125,-31.73828125,-29.78515625,-31.25,-21.97265625,-62.01171875,0.0
249.51171875,-55.6640625,-33.203125,-38.0859375,-40.0390625,-69.82421875,0.0
249.515625,-50.78125,-34.66796875,-38.57421875,-32.71484375,-13.671875,0.0
249.51953125,-30.76171875,-36.1328125,-38.0859375,-25.87890625,-29.78515625,0.0
249.5234375,-15.625,-31.73828125,-38.0859375,-36.62109375,-67.87109375,0.0
249.52734375,-32.71484375,-38.0859375,-39.0625,-38.57421875,13.671875,0.0
249.53125,-53.22265625,-39.55078125,-41.50390625,-39.55078125,31.25,0.0
249.53515625,-46.38671875,-35.15625,-37.109375,-45.41015625,-39.55078125,0.0
249.5390625,-22.94921875,-31.73828125,-32.2265625,-51.26953125,-29.78515625,0.0
249.54296875,-11.23046875,-33.69140625,-36.1328125,-44.43359375,-76.66015625,0.0
249.546875,-12.20703125,-26.85546875,-35.64453125,-37.59765625,-61.5234375,0.0
249.55078125,-16.6015625,-15.13671875,-19.53125,-23.4375,-43.45703125,0.0
249.5546875,-38.57421875,-29.78515625,-28.80859375,-38.0859375,-126.953125,0.0
249.55859375,-32.2265625,-35.15625,-36.62109375,-50.29296875,-86.42578125,0.0
249.5625,-8.7890625,-29.296875,-33.203125,-35.64453125,53.7109375,0.0
249.56640625,-17.578125,-31.73828125,-34.66796875,-40.52734375,83.984375,0.0
249.5703125,-40.0390625,-34.66796875,-35.15625,-46.38671875,49.31640625,0.0
249.57421875,-45.41015625,-33.69140625,-26.85546875,-39.0625,-54.19921875,0.0
249.578125,-32.71484375,-36.1328125,-23.4375,-35.15625,-34.1796875,0.0
249.58203125,-18.06640625,-35.64453125,-23.92578125,-32.71484375,34.66796875,0.0
249.5859375,-26.85546875,-38.0859375,-22.4609375,-37.59765625,-48.33984375,0.0
249.58984375,-44.921875,-39.0625,-25.390625,-41.50390625,-13.671875,0.0
249.59375,-33.203125,-24.90234375,-10.25390625,-17.578125,41.50390625,0.0
249.59765625,-35.64453125,-35.64453125,-16.11328125,-25.390625,58.10546875,0.0
249.6015625,-35.64453125,-41.50390625,-32.2265625,-46.875,48.33984375,0.0
249.60546875,-30.76171875,-39.0625,-29.296875,-44.921875,-25.390625,0.0
249.609375,-45.41015625,-42.96875,-32.71484375,-46.875,-17.08984375,0.0
249.61328125,-62.01171875,-42.48046875,-33.203125,-53.7109375,-33.69140625,0.0
249.6171875,-55.17578125,-42.48046875,-33.203125,-52.734375,25.87890625,0.0
249.62109375,-25.87890625,-33.203125,-28.80859375,-35.64453125,45.8984375,0.0
249.625,-9.27734375,-23.4375,-22.94921875,-25.390625,7.8125,0.0
249.62890625,-30.2734375,-29.296875,-34.1796875,-40.0390625,-5.859375,0.0
249.6328125,-52.734375,-38.57421875,-38.57421875,-41.9921875,-55.17578125,0.0
249.63671875,-32.71484375,-29.296875,-24.4140625,-26.3671875,-109.375,0.0
249.640625,-6.34765625,-14.6484375,-10.7421875,-12.20703125,-135.7421875,0.0
249.64453125,-20.5078125,-32.71484375,-28.80859375,-33.203125,-100.5859375,0.0
249.6484375,-40.0390625,-41.9921875,-36.62109375,-45.41015625,-82.51953125,0.0
249.65234375,-53.22265625,-32.71484375,-28.3203125,-35.15625,-124.51171875,0.0
249.65625,-41.9921875,-32.71484375,-28.3203125,-35.15625,-146.484375,0.0
249.66015625,-21.484375,-39.55078125,-23.92578125,-37.109375,-69.3359375,0.0
249.6640625,-15.625,-34.66796875,-22.94921875,-33.69140625,45.8984375,0.0
249.66796875,-27.34375,-29.296875,-25.87890625,-31.73828125,73.73046875,0.0
249.671875,-51.26953125,-31.73828125,-34.66796875,-41.015625,4.8828125,0.0
249.67578125,-57.12890625,-34.1796875,-35.15625,-43.45703125,-131.8359375,0.0
249.6796875,-39.55078125,-29.78515625,-26.85546875,-36.62109375,-85.44921875,0.0
249.68359375,-3.90625,-8.7890625,-11.23046875,-11.23046875,6.34765625,0.0
249.6875,-20.01953125,-23.92578125,-21.97265625,-13.671875,-57.12890625,0.0
249.69140625,-55.6640625,-45.41015625,-36.62109375,-34.66796875,-83.984375,0.0
249.6953125,-53.22265625,-44.921875,-33.69140625,-40.52734375,-83.49609375,0.0
249.69921875,-32.2265625,-43.45703125,-32.71484375,-37.59765625,-98.6328125,0.0
249.703125,-15.625,-35.15625,-28.3203125,-27.34375,-79.58984375,0.0
249.70703125,-35.64453125,-41.015625,-34.66796875,-31.25,-6.8359375,0.0
249.7109375,-48.33984375,-39.55078125,-31.73828125,-38.57421875,24.90234375,0.0
249.71484375,-25.87890625,-16.11328125,-14.16015625,-20.01953125,-59.5703125,0.0
249.71875,-27.83203125,-28.3203125,-26.85546875,-38.57421875,-5.859375,0.0
249.72265625,-30.2734375,-39.0625,-32.2265625,-51.26953125,75.68359375,0.0
249.7265625,-33.69140625,-33.69140625,-29.78515625,-34.1796875,12.20703125,0.0
249.73046875,-57.12890625,-39.0625,-33.69140625,-39.55078125,-2.44140625,0.0
249.734375,-65.4296875,-49.8046875,-34.66796875,-49.31640625,-1.953125,0.0
249.73828125,-47.8515625,-51.26953125,-29.78515625,-41.9921875,-14.16015625,0.0
249.7421875,-23.92578125,-34.66796875,-17.08984375,-23.4375,-23.92578125,0.0
249.74609375,-27.83203125,-31.73828125,-20.01953125,-18.5546875,-57.6171875,0.0
249.75,-49.31640625,-40.0390625,-29.78515625,-26.85546875,-39.0625,0.0
249.75390625,-55.17578125,-38.57421875,-27.34375,-31.73828125,-22.94921875,0.0
249.7578125,-40.52734375,-33.69140625,-22.94921875,-31.25,-111.328125,0.0
249.76171875,-25.87890625,-31.25,-28.3203125,-31.73828125,-145.5078125,0.0
249.765625,-29.296875,-33.69140625,-35.64453125,-32.71484375,-13.18359375,0.0
249.76953125,-42.96875,-32.71484375,-32.2265625,-33.69140625,-3.90625,0.0
249.7734375,-42.48046875,-21.97265625,-27.34375,-24.90234375,-48.33984375,0.0
249.77734375,-33.203125,-27.34375,-33.69140625,-26.3671875,36.62109375,0.0
249.78125,-23.4375,-33.69140625,-36.62109375,-32.2265625,55.6640625,0.0
249.78515625,-23.4375,-33.203125,-35.64453125,-30.2734375,-41.9921875,0.0
249.7890625,-34.66796875,-28.3203125,-35.64453125,-40.0390625,-15.625,0.0
249.79296875,-48.828125,-37.59765625,-35.15625,-39.55078125,-14.16015625,0.0
249.796875,-42.96875,-40.52734375,-33.203125,-35.64453125,-23.92578125,0.0
249.80078125,-26.3671875,-34.66796875,-33.203125,-48.828125,21.484375,0.0
249.8046875,-18.5546875,-28.80859375,-35.15625,-47.36328125,-12.20703125,0.0
249.80859375,-31.25,-26.85546875,-42.48046875,-43.45703125,-22.4609375,0.0
249.8125,-48.828125,-33.69140625,-44.921875,-49.31640625,-59.08203125,0.0
249.81640625,-35.15625,-29.296875,-30.76171875,-38.0859375,-27.34375,0.0
249.8203125,-14.6484375,-17.578125,-25.390625,-35.64453125,19.53125,0.0
249.82421875,-16.11328125,-20.99609375,-38.0859375,-53.7109375,73.2421875,0.0
249.828125,-39.55078125,-33.203125,-43.9453125,-56.15234375,9.765625,0.0
249.83203125,-55.17578125,-29.78515625,-38.57421875,-41.50390625,-73.73046875,0.0
249.8359375,-39.55078125,-17.578125,-28.80859375,-25.87890625,-69.82421875,0.0
249.83984375,-29.296875,-29.296875,-35.64453125,-38.0859375,-49.8046875,0.0
249.84375,-20.99609375,-33.69140625,-41.015625,-46.38671875,-37.59765625,0.0
249.84765625,-31.25,-30.76171875,-36.1328125,-40.0390625,20.01953125,0.0
249.8515625,-55.17578125,-37.59765625,-31.73828125,-32.71484375,37.109375,0.0
249.85546875,-47.8515625,-34.1796875,-24.4140625,-25.87890625,-48.828125,0.0
249.859375,-25.87890625,-32.2265625,-21.484375,-26.85546875,-41.015625,0.0
249.86328125,-14.6484375,-33.203125,-27.34375,-22.4609375,-60.05859375,0.0
249.8671875,-29.296875,-33.69140625,-31.73828125,-29.78515625,-45.8984375,0.0
249.87109375,-57.12890625,-39.55078125,-35.64453125,-37.109375,23.92578125,0.0
249.875,-58.10546875,-36.62109375,-32.71484375,-28.3203125,-27.34375,0.0
249.87890625,-25.390625,-19.04296875,-21.97265625,-22.94921875,-91.30859375,0.0
249.8828125,-11.23046875,-20.01953125,-21.484375,-23.92578125,-77.1484375,0.0
249.88671875,-35.64453125,-35.15625,-28.3203125,-36.1328125,-76.171875,0.0
249.890625,-56.15234375,-34.66796875,-31.25,-43.45703125,-78.125,0.0
249.89453125,-58.59375,-32.2265625,-30.2734375,-41.50390625,-23.4375,0.0
249.8984375,-42.48046875,-30.2734375,-23.92578125,-35.15625,-23.4375,0.0
249.90234375,-25.390625,-29.78515625,-20.5078125,-29.296875,-23.4375,0.0
249.90625,-25.390625,-34.1796875,-23.4375,-22.4609375,10.25390625,0.0
249.91015625,-41.9921875,-36.62109375,-29.78515625,-22.94921875,11.23046875,0.0
249.9140625,-48.828125,-31.25,-30.2734375,-30.2734375,21.97265625,0.0
249.91796875,-33.69140625,-29.296875,-30.76171875,-23.4375,32.71484375,0.0
249.921875,-15.625,-31.73828125,-30.2734375,-22.94921875,98.14453125,0.0
249.92578125,-13.671875,-27.83203125,-29.78515625,-28.80859375,150.87890625,0.0
249.9296875,-36.1328125,-33.69140625,-34.66796875,-30.2734375,158.203125,0.0
249.93359375,-48.33984375,-40.0390625,-36.1328125,-34.1796875,39.0625,0.0
249.9375,-34.1796875,-35.15625,-35.15625,-31.73828125,-80.078125,0.0
249.94140625,-16.11328125,-28.80859375,-34.66796875,-26.85546875,30.2734375,0.0
249.9453125,-19.04296875,-33.69140625,-38.0859375,-33.69140625,41.9921875,0.0
249.94921875,-42.96875,-37.59765625,-44.921875,-40.52734375,12.6953125,0.0
249.953125,-55.17578125,-34.1796875,-39.0625,-33.203125,73.2421875,0.0
249.95703125,-45.41015625,-35.15625,-25.390625,-24.4140625,67.3828125,0.0
249.9609375,-20.99609375,-34.1796875,-22.4609375,-26.85546875,24.90234375,0.0
249.96484375,-17.578125,-30.2734375,-23.92578125,-31.25,-35.64453125,0.0
249.96875,-38.57421875,-27.83203125,-23.4375,-17.08984375,-47.8515625,0.0
249.97265625,-51.7578125,-30.76171875,-24.4140625,-10.25390625,-4.8828125,0.0
249.9765625,-45.8984375,-33.69140625,-30.2734375,-20.99609375,25.390625,0.0
249.98046875,-24.90234375,-33.69140625,-27.83203125,-20.99609375,39.55078125,0.0
249.984375,-16.6015625,-31.73828125,-24.4140625,-19.53125,-10.25390625,0.0
249.98828125,-32.2265625,-29.296875,-27.34375,-18.06640625,51.26953125,0.0
249.9921875,-52.24609375,-29.78515625,-30.76171875,-22.4609375,49.31640625,0.0
249.99609375,-44.43359375,-30.2734375,-22.94921875,-23.92578125,-56.640625,0.0
250.0,-15.625,-19.53125,-13.671875,-15.13671875,-101.5625,0.0
250.00390625,-17.08984375,-26.85546875,-26.85546875,-30.2734375,-77.1484375,0.0
250.0078125,-35.64453125,-39.0625,-33.203125,-46.38671875,11.71875,0.0
250.01171875,-45.8984375,-33.203125,-35.64453125,-41.50390625,-35.64453125,0.0
250.015625,-36.62109375,-24.4140625,-31.73828125,-34.66796875,-91.30859375,0.0
250.01953125,-26.3671875,-32.71484375,-35.15625,-41.015625,-103.02734375,0.0
250.0234375,-22.94921875,-38.57421875,-42.96875,-44.43359375,-70.3125,0.0
250.02734375,-30.76171875,-34.66796875,-44.43359375,-50.29296875,-0.48828125,0.0
250.03125,-47.8515625,-38.57421875,-37.109375,-49.31640625,24.4140625,0.0
250.03515625,-46.38671875,-40.52734375,-29.296875,-40.0390625,-0.9765625,0.0
250.0390625,-27.34375,-36.1328125,-35.15625,-40.52734375,7.8125,0.0
250.04296875,-17.578125,-24.90234375,-36.62109375,-41.015625,12.6953125,0.0
250.046875,-23.92578125,-26.3671875,-41.015625,-34.66796875,-13.18359375,0.0
250.05078125,-42.96875,-40.0390625,-40.52734375,-37.59765625,11.23046875,0.0
250.0546875,-45.41015625,-37.59765625,-35.64453125,-41.9921875,-30.76171875,0.0
250.05859375,-5.859375,-12.6953125,-20.5078125,-21.484375,-88.8671875,0.0
250.0625,7.32421875,-11.23046875,-19.53125,-23.4375,-17.578125,0.0
250.06640625,-21.97265625,-32.2265625,-35.15625,-44.921875,-5.859375,0.0
250.0703125,-45.8984375,-36.62109375,-35.15625,-44.921875,-76.66015625,0.0
250.07421875,-49.8046875,-32.71484375,-37.109375,-34.66796875,-55.6640625,0.0
250.078125,-33.69140625,-31.73828125,-37.109375,-35.64453125,-46.875,0.0
250.08203125,-15.625,-33.69140625,-31.73828125,-41.50390625,13.671875,0.0
250.0859375,-16.6015625,-31.25,-31.25,-39.0625,18.06640625,0.0
250.08984375,-31.73828125,-27.34375,-29.78515625,-41.9921875,-45.41015625,0.0
250.09375,-39.55078125,-34.1796875,-30.76171875,-43.9453125,-74.21875,0.0
250.09765625,-32.71484375,-36.62109375,-30.76171875,-37.59765625,-52.734375,0.0
250.1015625,-13.671875,-27.34375,-24.4140625,-33.203125,-57.12890625,0.0
250.10546875,-5.37109375,-19.04296875,-18.5546875,-21.97265625,-84.47265625,0.0
250.109375,-36.1328125,-35.64453125,-30.76171875,-31.25,-6.34765625,0.0
250.11328125,-56.15234375,-48.33984375,-36.62109375,-37.109375,-18.06640625,0.0
250.1171875,-35.15625,-40.0390625,-29.296875,-27.83203125,1.46484375,0.0
250.12109375,-15.13671875,-35.15625,-29.296875,-36.1328125,89.35546875,0.0
250.125,-18.5546875,-37.109375,-37.59765625,-39.0625,27.34375,0.0
250.12890625,-33.69140625,-37.59765625,-40.52734375,-31.73828125,-33.203125,0.0
250.1328125,-47.36328125,-35.15625,-32.2265625,-35.15625,-112.79296875,0.0
250.13671875,-41.50390625,-33.69140625,-24.4140625,-31.25,-132.32421875,0.0
250.140625,-22.94921875,-29.78515625,-23.4375,-31.25,-36.1328125,0.0
250.14453125,-21.97265625,-30.76171875,-30.76171875,-39.55078125,44.921875,0.0
250.1484375,-41.015625,-34.66796875,-35.64453125,-34.1796875,38.57421875,0.0
250.15234375,-51.7578125,-32.2265625,-33.69140625,-32.71484375,4.8828125,0.0
250.15625,-40.52734375,-32.71484375,-35.64453125,-33.203125,-43.45703125,0.0
250.16015625,-27.34375,-37.109375,-33.69140625,-24.90234375,-2.44140625,0.0
250.1640625,-19.04296875,-37.109375,-29.296875,-20.99609375,61.5234375,0.0
250.16796875,-30.76171875,-33.203125,-34.1796875,-19.53125,102.05078125,0.0
250.171875,-48.33984375,-36.62109375,-34.66796875,-16.11328125,41.50390625,0.0
250.17578125,-40.52734375,-35.64453125,-28.3203125,-19.53125,-31.25,0.0
250.1796875,-25.390625,-33.203125,-26.85546875,-21.97265625,-18.5546875,0.0
250.18359375,-16.11328125,-33.203125,-25.87890625,-24.4140625,24.90234375,0.0
250.1875,-30.2734375,-28.3203125,-26.85546875,-24.90234375,66.89453125,0.0
250.19140625,-50.78125,-33.203125,-31.25,-21.97265625,-4.39453125,0.0
250.1953125,-43.9453125,-33.203125,-29.78515625,-19.04296875,-32.2265625,0.0
250.19921875,-31.73828125,-30.76171875,-29.78515625,-17.578125,65.4296875,0.0
250.203125,-26.3671875,-36.62109375,-29.296875,-20.99609375,11.71875,0.0
