timestamp,TP9,AF7,AF8,TP10,AUX,Marker
614.00390625,-53.7109375,-36.62109375,-38.57421875,-35.64453125,1.46484375,0.0
614.0078125,-60.546875,-37.59765625,-41.50390625,-37.109375,7.8125,0.0
614.01171875,-49.31640625,-39.55078125,-42.48046875,-38.57421875,-137.20703125,0.0
614.015625,-30.76171875,-35.15625,-36.62109375,-35.15625,-125.48828125,0.0
614.01953125,-26.3671875,-31.73828125,-29.296875,-37.59765625,-20.5078125,0.0
614.0234375,-36.1328125,-36.1328125,-28.3203125,-45.8984375,28.3203125,0.0
614.02734375,-42.48046875,-31.73828125,-27.34375,-43.9453125,-53.22265625,0.0
614.03125,-36.62109375,-28.80859375,-34.1796875,-40.52734375,-106.93359375,0.0
614.03515625,-23.4375,-30.2734375,-37.59765625,-41.9921875,-3.90625,0.0
614.0390625,-17.578125,-29.78515625,-39.55078125,-40.0390625,87.40234375,0.0
614.04296875,-30.2734375,-34.1796875,-42.96875,-41.9921875,65.91796875,0.0
614.046875,-44.921875,-31.73828125,-40.52734375,-44.43359375,60.05859375,0.0
614.05078125,-41.50390625,-26.85546875,-38.0859375,-47.8515625,2.9296875,0.0
614.0546875,-23.92578125,-23.4375,-27.34375,-40.52734375,18.5546875,0.0
614.05859375,-16.11328125,-21.97265625,-21.97265625,-26.3671875,74.70703125,0.0
614.0625,-26.3671875,-30.76171875,-31.25,-23.92578125,42.96875,0.0
614.06640625,-39.55078125,-37.109375,-33.203125,-26.3671875,31.73828125,0.0
614.0703125,-46.38671875,-33.203125,-33.203125,-34.66796875,65.91796875,0.0
614.07421875,-35.15625,-28.80859375,-33.203125,-36.62109375,74.70703125,0.0
614.078125,-25.390625,-28.80859375,-31.25,-26.85546875,23.92578125,0.0
614.08203125,-40.0390625,-34.1796875,-29.78515625,-35.15625,-18.5546875,0.0
614.0859375,-42.96875,-30.2734375,-21.97265625,-31.25,-146.97265625,0.0
614.08984375,-36.1328125,-29.296875,-14.16015625,-24.4140625,-218.75,0.0
614.09375,-28.3203125,-33.203125,-27.34375,-27.83203125,-97.65625,0.0
614.09765625,-11.71875,-25.87890625,-28.80859375,-29.296875,-35.15625,0.0
614.1015625,-20.01953125,-30.2734375,-26.85546875,-39.0625,-41.9921875,0.0
614.10546875,-42.96875,-37.109375,-41.9921875,-45.41015625,-45.8984375,0.0
614.109375,-41.015625,-31.25,-43.45703125,-45.8984375,-40.0390625,0.0
614.11328125,-25.87890625,-28.80859375,-39.0625,-43.9453125,-51.26953125,0.0
614.1171875,-19.53125,-32.2265625,-40.52734375,-44.921875,-55.17578125,0.0
614.12109375,-27.83203125,-33.69140625,-41.015625,-50.29296875,-58.59375,0.0
614.125,-41.50390625,-35.15625,-41.015625,-49.8046875,-132.8125,0.0
614.12890625,-38.0859375,-28.80859375,-35.64453125,-41.9921875,-134.27734375,0.0
614.1328125,-26.3671875,-25.390625,-24.90234375,-39.0625,-93.75,0.0
614.13671875,-19.53125,-33.203125,-28.80859375,-40.0390625,-63.4765625,0.0
614.140625,-20.5078125,-33.69140625,-31.25,-33.203125,-56.15234375,0.0
614.14453125,-32.2265625,-32.71484375,-32.2265625,-31.73828125,-71.77734375,0.0
614.1484375,-34.1796875,-30.76171875,-20.99609375,-27.83203125,-38.57421875,0.0
614.15234375,-27.34375,-28.80859375,-23.4375,-25.87890625,-23.92578125,0.0
614.15625,-18.5546875,-29.296875,-35.15625,-30.2734375,-14.6484375,0.0
614.16015625,-21.484375,-38.0859375,-33.203125,-32.2265625,-25.87890625,0.0
614.1640625,-39.0625,-35.15625,-35.64453125,-32.2265625,-28.3203125,0.0
614.16796875,-44.921875,-27.34375,-35.15625,-32.71484375,-5.37109375,0.0
614.171875,-34.66796875,-24.90234375,-29.296875,-24.4140625,3.41796875,0.0
614.17578125,-20.99609375,-25.87890625,-29.78515625,-21.97265625,13.671875,0.0
614.1796875,-24.4140625,-31.73828125,-32.2265625,-27.83203125,63.4765625,0.0
614.18359375,-40.0390625,-37.59765625,-34.1796875,-35.15625,12.20703125,0.0
614.1875,-41.015625,-37.109375,-31.25,-28.3203125,-40.52734375,0.0
614.19140625,-24.90234375,-33.203125,-22.4609375,-18.5546875,6.8359375,0.0
614.1953125,-11.71875,-27.83203125,-16.6015625,-19.04296875,-20.99609375,0.0
614.19921875,-9.27734375,-25.87890625,-27.83203125,-20.01953125,-56.15234375,0.0
614.203125,-21.484375,-23.4375,-38.57421875,-29.296875,3.90625,0.0
614.20703125,-37.109375,-24.4140625,-41.50390625,-36.1328125,3.90625,0.0
614.2109375,-37.109375,-37.109375,-42.96875,-37.109375,14.16015625,0.0
614.21484375,-28.3203125,-38.57421875,-41.50390625,-37.59765625,-16.6015625,0.0
614.21875,-18.5546875,-29.296875,-38.57421875,-33.203125,-43.45703125,0.0
614.22265625,-36.1328125,-31.73828125,-40.52734375,-37.59765625,-108.3984375,0.0
614.2265625,-56.640625,-36.62109375,-37.109375,-41.9921875,-159.66796875,0.0
614.23046875,-44.921875,-33.203125,-33.203125,-31.25,-85.9375,0.0
614.234375,-30.2734375,-31.25,-28.3203125,-19.04296875,-52.734375,0.0
614.23828125,-21.97265625,-24.90234375,-15.13671875,-9.765625,-46.875,0.0
614.2421875,-36.62109375,-32.2265625,-20.5078125,-17.578125,-74.70703125,0.0
614.24609375,-52.734375,-45.8984375,-32.71484375,-24.90234375,-122.0703125,0.0
614.25,-44.921875,-41.50390625,-21.97265625,-16.6015625,-128.90625,0.0
614.25390625,-32.2265625,-31.25,-3.41796875,-13.671875,-84.9609375,0.0
614.2578125,-32.2265625,-32.71484375,-17.578125,-19.04296875,-41.015625,0.0
614.26171875,-40.52734375,-30.2734375,-29.296875,-20.99609375,3.90625,0.0
614.265625,-48.828125,-30.76171875,-31.25,-27.34375,42.96875,0.0
614.26953125,-48.828125,-35.15625,-37.59765625,-32.2265625,17.578125,0.0
614.2734375,-29.296875,-23.92578125,-33.203125,-24.4140625,-27.83203125,0.0
614.27734375,-17.08984375,-24.4140625,-35.15625,-22.94921875,-37.109375,0.0
614.28125,-18.5546875,-25.87890625,-22.4609375,-21.484375,-27.83203125,0.0
614.28515625,-25.87890625,-23.92578125,-13.671875,-18.5546875,-46.38671875,0.0
614.2890625,-38.0859375,-33.203125,-28.3203125,-26.3671875,19.53125,0.0
614.29296875,-37.109375,-37.109375,-29.78515625,-33.203125,49.31640625,0.0
614.296875,-21.97265625,-29.296875,-26.85546875,-34.66796875,-10.25390625,0.0
614.30078125,-30.2734375,-29.78515625,-31.25,-36.62109375,23.4375,0.0
614.3046875,-50.29296875,-39.55078125,-34.66796875,-42.96875,43.45703125,0.0
614.30859375,-46.875,-35.64453125,-35.15625,-45.41015625,-69.82421875,0.0
614.3125,-27.34375,-28.3203125,-41.9921875,-38.57421875,-54.6875,0.0
614.31640625,-13.18359375,-32.2265625,-48.33984375,-36.62109375,30.76171875,0.0
614.3203125,-34.1796875,-35.15625,-41.015625,-46.875,-3.41796875,0.0
614.32421875,-57.6171875,-35.64453125,-28.3203125,-45.8984375,-33.203125,0.0
614.328125,-46.38671875,-35.64453125,-12.6953125,-24.4140625,-75.1953125,0.0
614.33203125,-46.875,-44.921875,-15.625,-26.3671875,-33.69140625,0.0
614.3359375,-41.9921875,-50.78125,-24.90234375,-27.83203125,48.828125,0.0
614.33984375,-41.50390625,-52.734375,-16.11328125,-22.94921875,38.57421875,0.0
614.34375,-69.3359375,-57.6171875,-9.27734375,-31.25,4.39453125,0.0
614.34765625,-76.171875,-62.01171875,-17.578125,-31.25,-33.69140625,0.0
614.3515625,-60.05859375,-51.26953125,-20.01953125,-26.85546875,-103.02734375,0.0
614.35546875,-45.8984375,-43.9453125,-16.11328125,-21.97265625,-106.93359375,0.0
614.359375,-43.45703125,-48.33984375,-14.16015625,-14.16015625,-153.80859375,0.0
614.36328125,-55.17578125,-51.7578125,-6.8359375,-13.18359375,-169.921875,0.0
614.3671875,-62.98828125,-57.6171875,-7.32421875,-10.25390625,-215.33203125,0.0
614.37109375,-50.78125,-57.6171875,-3.90625,-6.34765625,-243.65234375,0.0
614.375,-26.3671875,-47.8515625,-1.953125,4.39453125,-107.91015625,0.0
614.37890625,-25.390625,-48.828125,-11.71875,5.37109375,20.01953125,0.0
614.3828125,-37.59765625,-49.31640625,-8.30078125,1.46484375,22.94921875,0.0
614.38671875,-42.48046875,-48.828125,-7.32421875,4.39453125,-37.109375,0.0
614.390625,-34.1796875,-50.78125,-16.11328125,9.27734375,0.9765625,0.0
614.39453125,-29.296875,-56.15234375,-17.578125,3.41796875,84.9609375,0.0
614.3984375,-27.34375,-61.5234375,-16.11328125,0.9765625,57.6171875,0.0
614.40234375,-27.83203125,-59.5703125,-16.11328125,6.8359375,-32.2265625,0.0
614.40625,-37.109375,-55.6640625,-20.99609375,-1.953125,-68.84765625,0.0
614.41015625,-33.203125,-53.7109375,-20.99609375,-4.39453125,11.23046875,0.0
614.4140625,-17.578125,-48.828125,-15.625,6.8359375,30.2734375,0.0
614.41796875,-11.23046875,-48.33984375,-14.6484375,8.7890625,-11.23046875,0.0
614.421875,-18.5546875,-49.31640625,-17.578125,3.41796875,18.06640625,0.0
614.42578125,-25.87890625,-48.33984375,-24.90234375,0.48828125,3.41796875,0.0
614.4296875,-22.94921875,-44.921875,-22.94921875,1.46484375,-56.15234375,0.0
614.43359375,-18.06640625,-46.875,-13.18359375,2.44140625,-10.25390625,0.0
614.4375,-14.6484375,-45.41015625,-11.23046875,4.39453125,73.73046875,0.0
614.44140625,-25.390625,-45.8984375,-13.671875,3.90625,29.296875,0.0
614.4453125,-40.0390625,-46.875,-12.6953125,-1.46484375,49.8046875,0.0
614.44921875,-40.0390625,-47.8515625,-12.6953125,-0.48828125,96.19140625,0.0
614.453125,-31.73828125,-48.828125,-17.578125,1.46484375,30.2734375,0.0
614.45703125,-24.90234375,-42.48046875,-21.484375,-2.9296875,41.015625,0.0
614.4609375,-31.25,-45.41015625,-18.5546875,-6.8359375,80.56640625,0.0
614.46484375,-46.875,-48.33984375,-20.99609375,-13.18359375,68.84765625,0.0
614.46875,-53.22265625,-49.31640625,-30.2734375,-22.94921875,54.19921875,0.0
614.47265625,-41.9921875,-49.8046875,-31.25,-18.5546875,-22.94921875,0.0
614.4765625,-22.4609375,-37.109375,-20.99609375,-7.8125,-14.16015625,0.0
614.48046875,-23.4375,-37.109375,-19.04296875,-10.25390625,49.8046875,0.0
614.484375,-40.52734375,-44.43359375,-26.85546875,-14.16015625,62.98828125,0.0
614.48828125,-45.41015625,-43.45703125,-22.94921875,-15.13671875,9.765625,0.0
614.4921875,-34.66796875,-40.0390625,-20.5078125,-10.25390625,-81.54296875,0.0
614.49609375,-15.13671875,-36.1328125,-21.97265625,-8.7890625,49.31640625,0.0
614.5,-11.23046875,-37.59765625,-22.4609375,-11.71875,3.90625,0.0
614.50390625,-21.97265625,-41.015625,-24.90234375,-19.53125,-104.00390625,0.0
614.5078125,-33.203125,-38.57421875,-29.296875,-29.296875,-133.7890625,0.0
614.51171875,-24.4140625,-35.15625,-26.85546875,-29.296875,-141.11328125,0.0
614.515625,-8.7890625,-38.0859375,-20.5078125,-28.80859375,-62.5,0.0
614.51953125,-8.7890625,-33.203125,-19.53125,-26.85546875,83.49609375,0.0
614.5234375,-20.5078125,-28.3203125,-11.23046875,-27.34375,87.40234375,0.0
614.52734375,-30.76171875,-34.66796875,-14.6484375,-33.69140625,-72.75390625,0.0
614.53125,-30.76171875,-40.52734375,-28.80859375,-36.62109375,-51.7578125,0.0
614.53515625,-20.5078125,-35.15625,-28.80859375,-34.1796875,20.99609375,0.0
614.5390625,-18.5546875,-34.1796875,-23.92578125,-26.3671875,92.28515625,0.0
614.54296875,-22.94921875,-41.015625,-25.87890625,-13.671875,58.59375,0.0
614.546875,-22.4609375,-41.50390625,-27.83203125,-9.765625,-28.3203125,0.0
614.55078125,-26.85546875,-33.69140625,-33.69140625,-19.53125,-11.23046875,0.0
614.5546875,-24.4140625,-22.4609375,-29.296875,-23.92578125,-3.41796875,0.0
614.55859375,-17.578125,-18.5546875,-26.3671875,-25.87890625,-4.8828125,0.0
614.5625,-28.80859375,-20.5078125,-32.71484375,-31.73828125,86.9140625,0.0
614.56640625,-38.57421875,-21.97265625,-21.97265625,-31.73828125,19.04296875,0.0
614.5703125,-32.71484375,-28.80859375,-16.11328125,-29.296875,-68.359375,0.0
614.57421875,-22.94921875,-30.2734375,-29.296875,-32.2265625,-6.34765625,0.0
614.578125,-13.671875,-32.2265625,-33.203125,-32.2265625,97.65625,0.0
614.58203125,-25.390625,-34.1796875,-32.71484375,-34.66796875,-3.41796875,0.0
614.5859375,-43.45703125,-29.78515625,-34.1796875,-43.45703125,-236.328125,0.0
614.58984375,-37.59765625,-26.3671875,-28.80859375,-41.50390625,-142.08984375,0.0
614.59375,-26.3671875,-28.3203125,-24.4140625,-41.9921875,3.41796875,0.0
614.59765625,-24.90234375,-29.296875,-20.01953125,-39.55078125,0.48828125,0.0
614.6015625,-32.2265625,-27.83203125,-24.4140625,-39.55078125,-43.9453125,0.0
614.60546875,-44.921875,-31.25,-34.1796875,-41.9921875,-17.578125,0.0
614.609375,-46.38671875,-34.66796875,-36.62109375,-37.59765625,5.859375,0.0
614.61328125,-28.80859375,-28.80859375,-26.3671875,-33.203125,-40.52734375,0.0
614.6171875,-16.11328125,-28.80859375,-29.296875,-29.78515625,-6.8359375,0.0
614.62109375,-31.73828125,-33.69140625,-36.62109375,-32.2265625,-5.859375,0.0
614.625,-47.8515625,-34.66796875,-36.1328125,-34.66796875,3.41796875,0.0
614.62890625,-43.45703125,-33.203125,-30.2734375,-35.64453125,25.390625,0.0
614.6328125,-34.1796875,-34.1796875,-35.64453125,-37.109375,19.53125,0.0
614.63671875,-23.4375,-32.2265625,-38.0859375,-36.1328125,-20.99609375,0.0
614.640625,-23.4375,-27.34375,-36.62109375,-29.78515625,-32.2265625,0.0
614.64453125,-39.55078125,-31.73828125,-43.45703125,-34.66796875,38.0859375,0.0
614.6484375,-41.015625,-33.203125,-41.9921875,-31.25,-34.66796875,0.0
614.65234375,-29.296875,-35.64453125,-41.015625,-26.3671875,-39.0625,0.0
614.65625,-17.578125,-38.57421875,-31.73828125,-29.296875,20.99609375,0.0
614.66015625,-22.4609375,-40.0390625,-26.85546875,-26.85546875,-9.27734375,0.0
614.6640625,-40.0390625,-43.45703125,-35.64453125,-29.78515625,-5.859375,0.0
614.66796875,-40.52734375,-39.0625,-41.015625,-35.64453125,-61.03515625,0.0
614.671875,-23.4375,-32.2265625,-46.38671875,-32.71484375,-77.63671875,0.0
614.67578125,-16.6015625,-29.296875,-44.921875,-27.83203125,-15.625,0.0
614.6796875,-17.08984375,-27.34375,-35.64453125,-31.73828125,-30.76171875,0.0
614.68359375,-29.78515625,-33.203125,-30.76171875,-34.66796875,-37.109375,0.0
614.6875,-40.52734375,-35.15625,-27.83203125,-33.69140625,-73.2421875,0.0
614.69140625,-31.73828125,-30.76171875,-26.85546875,-36.1328125,-87.40234375,0.0
614.6953125,-19.04296875,-25.87890625,-25.87890625,-34.66796875,-58.59375,0.0
614.69921875,-20.99609375,-29.78515625,-30.76171875,-37.109375,-36.1328125,0.0
614.703125,-39.0625,-36.1328125,-28.3203125,-41.50390625,-7.32421875,0.0
614.70703125,-49.8046875,-37.59765625,-30.2734375,-41.50390625,9.27734375,0.0
614.7109375,-46.38671875,-38.0859375,-35.64453125,-43.45703125,-11.71875,0.0
614.71484375,-37.109375,-36.62109375,-30.2734375,-42.48046875,-38.57421875,0.0
614.71875,-29.78515625,-29.296875,-28.80859375,-40.0390625,24.4140625,0.0
614.72265625,-37.59765625,-29.296875,-35.15625,-37.59765625,3.41796875,0.0
614.7265625,-50.78125,-34.66796875,-38.0859375,-42.96875,-15.625,0.0
614.73046875,-43.45703125,-36.62109375,-34.1796875,-43.9453125,-34.1796875,0.0
614.734375,-26.3671875,-33.203125,-30.2734375,-35.15625,-51.7578125,0.0
614.73828125,-20.99609375,-36.62109375,-36.1328125,-31.73828125,-112.79296875,0.0
614.7421875,-28.3203125,-34.66796875,-35.15625,-37.109375,-204.58984375,0.0
614.74609375,-37.109375,-31.73828125,-26.3671875,-41.50390625,-122.55859375,0.0
614.75,-28.80859375,-31.25,-20.99609375,-38.0859375,-19.53125,0.0
614.75390625,-17.578125,-30.2734375,-24.4140625,-39.55078125,-10.25390625,0.0
614.7578125,-15.13671875,-33.203125,-33.69140625,-42.96875,-53.7109375,0.0
614.76171875,-27.83203125,-35.64453125,-38.57421875,-49.8046875,-109.86328125,0.0
614.765625,-41.015625,-38.0859375,-34.66796875,-51.26953125,-55.6640625,0.0
614.76953125,-37.109375,-38.57421875,-33.203125,-46.38671875,27.34375,0.0
614.7734375,-27.83203125,-38.57421875,-31.73828125,-49.8046875,12.6953125,0.0
614.77734375,-22.4609375,-33.69140625,-33.203125,-50.78125,-3.90625,0.0
614.78125,-18.5546875,-29.78515625,-43.45703125,-42.96875,29.78515625,0.0
614.78515625,-25.390625,-32.2265625,-44.921875,-40.0390625,-7.8125,0.0
614.7890625,-41.015625,-31.73828125,-30.2734375,-48.828125,-41.9921875,0.0
614.79296875,-39.55078125,-27.34375,-18.06640625,-52.734375,-6.34765625,0.0
614.796875,-34.66796875,-34.1796875,-26.85546875,-56.15234375,17.08984375,0.0
614.80078125,-32.71484375,-41.015625,-32.2265625,-48.828125,15.13671875,0.0
614.8046875,-45.8984375,-42.96875,-30.76171875,-52.24609375,27.34375,0.0
614.80859375,-58.59375,-34.1796875,-31.73828125,-58.59375,-47.8515625,0.0
614.8125,-51.7578125,-31.73828125,-29.78515625,-55.6640625,-94.7265625,0.0
614.81640625,-37.59765625,-33.69140625,-34.1796875,-58.59375,-88.37890625,0.0
614.8203125,-41.9921875,-21.97265625,-41.9921875,-67.87109375,-94.7265625,0.0
614.82421875,-63.96484375,-27.34375,-41.9921875,-69.3359375,-37.109375,0.0
614.828125,-71.2890625,-32.2265625,-40.0390625,-73.2421875,5.37109375,0.0
614.83203125,-59.5703125,-20.99609375,-32.2265625,-77.1484375,19.04296875,0.0
614.8359375,-51.7578125,-17.08984375,-23.4375,-78.61328125,31.73828125,0.0
614.83984375,-54.6875,-21.484375,-28.80859375,-81.54296875,-19.04296875,0.0
614.84375,-72.265625,-23.92578125,-31.25,-84.9609375,-40.52734375,0.0
614.84765625,-80.078125,-24.90234375,-28.3203125,-83.49609375,-9.27734375,0.0
614.8515625,-52.734375,-15.625,-16.6015625,-58.59375,-52.24609375,0.0
614.85546875,-35.15625,-15.625,-11.71875,-47.8515625,-70.80078125,0.0
614.859375,-45.8984375,-25.87890625,-21.97265625,-55.17578125,7.32421875,0.0
614.86328125,-55.17578125,-31.25,-25.390625,-54.19921875,19.53125,0.0
614.8671875,-60.546875,-32.2265625,-35.15625,-59.5703125,-22.94921875,0.0
614.87109375,-57.6171875,-32.71484375,-34.66796875,-61.03515625,-45.8984375,0.0
614.875,-42.96875,-26.3671875,-24.90234375,-51.26953125,-20.99609375,0.0
614.87890625,-36.62109375,-21.484375,-24.4140625,-52.24609375,-22.94921875,0.0
614.8828125,-50.78125,-31.73828125,-28.3203125,-60.05859375,-90.33203125,0.0
614.88671875,-62.98828125,-33.69140625,-27.83203125,-61.03515625,-78.61328125,0.0
614.890625,-55.6640625,-25.87890625,-32.2265625,-54.6875,-38.0859375,0.0
614.89453125,-42.96875,-28.80859375,-37.109375,-48.828125,-43.45703125,0.0
614.8984375,-39.0625,-30.2734375,-20.5078125,-44.43359375,58.10546875,0.0
614.90234375,-49.31640625,-34.66796875,-14.16015625,-42.48046875,136.23046875,0.0
614.90625,-63.96484375,-39.55078125,-31.25,-46.875,49.8046875,0.0
614.91015625,-58.59375,-38.0859375,-36.1328125,-49.31640625,64.453125,0.0
614.9140625,-40.0390625,-35.64453125,-24.90234375,-41.50390625,128.41796875,0.0
614.91796875,-36.62109375,-35.64453125,-30.2734375,-37.109375,96.6796875,0.0
614.921875,-48.33984375,-34.66796875,-45.8984375,-44.921875,80.56640625,0.0
614.92578125,-61.03515625,-37.109375,-40.0390625,-51.7578125,29.296875,0.0
614.9296875,-42.48046875,-33.69140625,-34.66796875,-39.55078125,-32.2265625,0.0
614.93359375,-19.04296875,-34.1796875,-45.41015625,-32.71484375,-67.87109375,0.0
614.9375,-26.85546875,-35.64453125,-33.203125,-44.921875,-57.12890625,0.0
614.94140625,-47.8515625,-37.59765625,-21.97265625,-44.43359375,-71.2890625,0.0
614.9453125,-57.12890625,-39.55078125,-30.76171875,-29.296875,-32.71484375,0.0
614.94921875,-58.10546875,-38.0859375,-28.3203125,-30.76171875,29.78515625,0.0
614.953125,-36.1328125,-41.9921875,-28.3203125,-24.4140625,-76.171875,0.0
614.95703125,-11.71875,-43.45703125,-24.4140625,-10.7421875,-65.4296875,0.0
614.9609375,-17.578125,-41.015625,-28.3203125,-20.01953125,-27.34375,0.0
614.96484375,-29.78515625,-41.9921875,-35.15625,-16.11328125,-47.36328125,0.0
614.96875,-28.80859375,-37.109375,-24.90234375,-10.25390625,-18.5546875,0.0
614.97265625,-21.97265625,-33.203125,-21.484375,-14.16015625,-68.359375,0.0
614.9765625,-17.578125,-29.296875,-19.04296875,-12.20703125,-30.76171875,0.0
614.98046875,-21.97265625,-26.85546875,-17.578125,-15.13671875,76.171875,0.0
614.984375,-27.34375,-35.15625,-24.4140625,-10.7421875,50.78125,0.0
614.98828125,-42.48046875,-43.45703125,-22.4609375,-13.671875,-28.3203125,0.0
614.9921875,-33.69140625,-39.55078125,-20.01953125,-16.6015625,32.71484375,0.0
614.99609375,-8.30078125,-38.57421875,-24.4140625,-1.953125,90.33203125,0.0
615.0,-10.25390625,-39.55078125,-25.87890625,-3.41796875,27.34375,0.0
615.00390625,-26.3671875,-41.50390625,-27.34375,-17.08984375,-63.4765625,0.0
615.0078125,-40.52734375,-34.66796875,-30.2734375,-27.34375,-36.62109375,0.0
615.01171875,-42.48046875,-32.71484375,-35.15625,-35.64453125,-49.31640625,0.0
615.015625,-33.203125,-39.55078125,-32.71484375,-29.296875,-72.265625,0.0
615.01953125,-25.87890625,-40.52734375,-35.15625,-22.94921875,-11.23046875,0.0
615.0234375,-32.2265625,-39.0625,-38.57421875,-27.34375,-19.04296875,0.0
615.02734375,-37.59765625,-38.57421875,-28.80859375,-28.3203125,-16.11328125,0.0
615.03125,-29.78515625,-44.43359375,-22.4609375,-22.4609375,-35.64453125,0.0
615.03515625,-19.53125,-42.96875,-18.5546875,-19.53125,-66.89453125,0.0
615.0390625,-9.27734375,-36.62109375,-23.92578125,-20.01953125,-19.53125,0.0
615.04296875,-18.5546875,-36.62109375,-30.2734375,-29.78515625,36.62109375,0.0
615.046875,-34.66796875,-37.59765625,-31.25,-34.1796875,-2.9296875,0.0
615.05078125,-26.3671875,-34.66796875,-28.3203125,-31.25,-112.3046875,0.0
615.0546875,-7.8125,-30.76171875,-26.85546875,-21.97265625,-127.9296875,0.0
615.05859375,-6.8359375,-28.80859375,-25.87890625,-15.625,-91.30859375,0.0
615.0625,-20.5078125,-31.73828125,-25.390625,-19.53125,-60.546875,0.0
615.06640625,-28.3203125,-35.64453125,-24.4140625,-23.4375,-89.35546875,0.0
615.0703125,-23.4375,-33.203125,-25.87890625,-20.01953125,-116.69921875,0.0
615.07421875,-12.6953125,-27.83203125,-26.85546875,-15.625,-52.24609375,0.0
615.078125,-13.18359375,-31.25,-27.83203125,-16.11328125,-46.38671875,0.0
615.08203125,-20.5078125,-35.15625,-33.203125,-13.671875,-72.265625,0.0
615.0859375,-33.203125,-32.71484375,-34.1796875,-19.53125,-75.1953125,0.0
615.08984375,-33.203125,-29.78515625,-23.92578125,-24.90234375,-85.44921875,0.0
615.09375,-17.08984375,-32.71484375,-19.04296875,-19.04296875,4.39453125,0.0
615.09765625,-13.18359375,-35.64453125,-20.01953125,-18.5546875,-19.53125,0.0
615.1015625,-27.34375,-35.64453125,-24.90234375,-26.3671875,-71.2890625,0.0
615.10546875,-43.9453125,-40.0390625,-31.25,-27.34375,-116.2109375,0.0
615.109375,-41.015625,-39.55078125,-33.69140625,-25.390625,-137.6953125,0.0
615.11328125,-30.2734375,-34.1796875,-37.59765625,-28.80859375,-48.828125,0.0
615.1171875,-23.92578125,-33.69140625,-31.25,-31.25,2.9296875,0.0
615.12109375,-21.484375,-29.78515625,-20.5078125,-24.4140625,9.27734375,0.0
615.125,-32.71484375,-26.85546875,-22.94921875,-24.90234375,14.16015625,0.0
615.12890625,-37.59765625,-32.2265625,-31.25,-33.203125,4.39453125,0.0
615.1328125,-27.83203125,-29.78515625,-26.3671875,-28.80859375,-17.578125,0.0
615.13671875,-18.5546875,-24.4140625,-26.85546875,-24.4140625,-48.33984375,0.0
615.140625,-26.85546875,-34.1796875,-29.296875,-25.390625,-71.77734375,0.0
615.14453125,-30.76171875,-49.8046875,-26.3671875,-10.25390625,-68.359375,0.0
615.1484375,-13.18359375,-39.0625,-33.69140625,-6.8359375,-82.03125,0.0
615.15234375,-21.97265625,-10.25390625,-36.1328125,-35.15625,-66.40625,0.0
615.15625,-44.43359375,-6.8359375,-35.64453125,-60.546875,-28.3203125,0.0
615.16015625,-59.08203125,-10.7421875,-38.0859375,-76.66015625,-61.5234375,0.0
615.1640625,-65.91796875,-5.859375,-40.52734375,-83.0078125,-140.625,0.0
615.16796875,-79.58984375,-8.7890625,-35.64453125,-86.9140625,-123.046875,0.0
615.171875,-93.75,-4.8828125,-33.203125,-106.93359375,-67.87109375,0.0
615.17578125,-96.6796875,-3.41796875,-39.55078125,-123.046875,-100.5859375,0.0
615.1796875,-92.28515625,-10.25390625,-43.9453125,-121.09375,-199.70703125,0.0
615.18359375,-93.75,-1.953125,-28.3203125,-117.67578125,-141.11328125,0.0
615.1875,-105.46875,-0.48828125,-33.69140625,-125.9765625,-32.71484375,0.0
615.19140625,-100.09765625,-9.27734375,-48.33984375,-129.39453125,42.96875,0.0
615.1953125,-84.9609375,-6.34765625,-46.38671875,-125.48828125,13.671875,0.0
615.19921875,-76.66015625,-2.9296875,-51.7578125,-116.2109375,26.85546875,0.0
615.203125,-83.0078125,-1.953125,-60.05859375,-118.1640625,98.6328125,0.0
615.20703125,-95.703125,-4.8828125,-59.08203125,-121.58203125,24.90234375,0.0
615.2109375,-79.58984375,-5.37109375,-50.78125,-109.375,-61.03515625,0.0
615.21484375,-54.19921875,-5.37109375,-59.5703125,-94.7265625,10.25390625,0.0
615.21875,-53.7109375,-10.25390625,-68.84765625,-92.28515625,104.4921875,0.0
615.22265625,-66.89453125,-15.13671875,-57.6171875,-95.21484375,80.56640625,0.0
615.2265625,-68.359375,-14.6484375,-44.921875,-88.37890625,12.6953125,0.0
615.23046875,-57.12890625,-12.6953125,-46.38671875,-77.63671875,-38.0859375,0.0
615.234375,-42.96875,-12.6953125,-51.26953125,-77.63671875,-46.875,0.0
615.23828125,-31.25,-11.71875,-49.8046875,-77.1484375,-49.8046875,0.0
615.2421875,-34.66796875,-10.7421875,-52.24609375,-67.87109375,-37.109375,0.0
615.24609375,-43.9453125,-10.7421875,-53.7109375,-64.453125,-27.34375,0.0
615.25,-39.55078125,-13.671875,-50.78125,-63.96484375,-52.24609375,0.0
615.25390625,-23.92578125,-10.25390625,-45.8984375,-52.24609375,-24.4140625,0.0
615.2578125,-18.5546875,-10.25390625,-50.29296875,-46.38671875,27.34375,0.0
615.26171875,-24.4140625,-15.13671875,-49.8046875,-49.8046875,3.41796875,0.0
615.265625,-29.78515625,-23.4375,-47.8515625,-47.36328125,-31.25,0.0
615.26953125,-28.80859375,-22.4609375,-40.0390625,-47.36328125,47.36328125,0.0
615.2734375,-11.71875,-7.32421875,-20.5078125,-35.64453125,7.32421875,0.0
615.27734375,-11.23046875,-15.625,-29.78515625,-37.59765625,-54.19921875,0.0
615.28125,-26.85546875,-25.390625,-40.0390625,-41.015625,-3.90625,0.0
615.28515625,-39.0625,-25.390625,-43.9453125,-41.50390625,25.87890625,0.0
615.2890625,-42.48046875,-27.34375,-52.734375,-41.015625,40.0390625,0.0
615.29296875,-34.66796875,-27.34375,-55.6640625,-31.73828125,1.953125,0.0
615.296875,-23.4375,-28.3203125,-44.921875,-29.78515625,34.66796875,0.0
615.30078125,-17.578125,-20.5078125,-26.3671875,-24.90234375,91.796875,0.0
615.3046875,-28.80859375,-23.4375,-25.87890625,-25.390625,10.7421875,0.0
615.30859375,-33.69140625,-23.92578125,-37.59765625,-25.87890625,-79.58984375,0.0
615.3125,-18.06640625,-16.6015625,-39.55078125,-19.04296875,-94.23828125,0.0
615.31640625,-6.8359375,-14.16015625,-32.71484375,-20.01953125,-86.42578125,0.0
615.3203125,-15.13671875,-15.13671875,-32.71484375,-21.484375,-90.33203125,0.0
615.32421875,-28.3203125,-20.5078125,-40.0390625,-22.94921875,-73.2421875,0.0
615.328125,-30.2734375,-23.4375,-42.96875,-27.83203125,4.8828125,0.0
615.33203125,-28.3203125,-27.83203125,-41.9921875,-35.64453125,-44.921875,0.0
615.3359375,-17.08984375,-27.34375,-33.69140625,-33.203125,-87.890625,0.0
615.33984375,-17.578125,-26.85546875,-36.62109375,-36.62109375,-63.96484375,0.0
615.34375,-34.66796875,-30.2734375,-40.52734375,-41.9921875,-81.0546875,0.0
615.34765625,-37.109375,-31.25,-39.55078125,-35.64453125,-57.12890625,0.0
615.3515625,-29.78515625,-29.296875,-43.9453125,-37.59765625,-40.52734375,0.0
615.35546875,-21.484375,-30.76171875,-48.33984375,-39.0625,-35.15625,0.0
615.359375,-23.4375,-35.15625,-48.33984375,-33.203125,-43.9453125,0.0
615.36328125,-39.0625,-33.69140625,-36.1328125,-33.69140625,-59.5703125,0.0
615.3671875,-50.29296875,-33.203125,-26.85546875,-39.55078125,-76.66015625,0.0
615.37109375,-42.48046875,-35.64453125,-34.66796875,-35.15625,-171.38671875,0.0
615.375,-25.87890625,-31.73828125,-37.109375,-28.3203125,-204.1015625,0.0
615.37890625,-24.4140625,-32.71484375,-32.2265625,-33.69140625,-143.06640625,0.0
615.3828125,-32.71484375,-30.2734375,-36.62109375,-36.1328125,-121.58203125,0.0
615.38671875,-36.62109375,-25.390625,-42.96875,-33.203125,-177.734375,0.0
615.390625,-38.0859375,-29.78515625,-36.1328125,-34.66796875,-175.78125,0.0
615.39453125,-26.3671875,-30.2734375,-30.2734375,-33.203125,-128.90625,0.0
615.3984375,-17.578125,-27.83203125,-32.71484375,-37.59765625,-154.296875,0.0
615.40234375,-32.2265625,-36.1328125,-32.2265625,-42.96875,-93.26171875,0.0
615.40625,-43.9453125,-38.0859375,-26.3671875,-33.203125,-20.99609375,0.0
615.41015625,-36.62109375,-32.71484375,-20.01953125,-26.3671875,-3.90625,0.0
615.4140625,-33.203125,-32.71484375,-28.80859375,-34.66796875,72.265625,0.0
615.41796875,-29.78515625,-32.2265625,-35.15625,-36.1328125,72.75390625,0.0
615.421875,-34.1796875,-33.203125,-37.59765625,-33.69140625,64.94140625,0.0
615.42578125,-49.8046875,-35.64453125,-43.9453125,-34.66796875,11.23046875,0.0
615.4296875,-50.29296875,-36.62109375,-42.96875,-38.57421875,-70.3125,0.0
615.43359375,-35.15625,-34.66796875,-32.71484375,-38.0859375,-80.56640625,0.0
615.4375,-28.3203125,-33.69140625,-35.64453125,-31.25,-39.55078125,0.0
615.44140625,-34.1796875,-36.62109375,-41.9921875,-34.66796875,-31.25,0.0
615.4453125,-44.43359375,-35.15625,-41.50390625,-38.0859375,-44.921875,0.0
615.44921875,-44.921875,-32.71484375,-40.0390625,-34.1796875,-52.24609375,0.0
615.453125,-34.66796875,-31.25,-29.296875,-29.296875,-59.08203125,0.0
615.45703125,-25.390625,-30.2734375,-31.73828125,-26.85546875,-39.55078125,0.0
615.4609375,-28.80859375,-29.296875,-44.43359375,-27.83203125,-29.296875,0.0
615.46484375,-38.0859375,-27.34375,-48.33984375,-30.2734375,-78.125,0.0
615.46875,-31.73828125,-23.92578125,-37.109375,-26.3671875,-86.42578125,0.0
615.47265625,-26.3671875,-22.94921875,-31.73828125,-29.296875,15.13671875,0.0
615.4765625,-21.97265625,-26.3671875,-31.25,-34.66796875,92.28515625,0.0
615.48046875,-24.90234375,-28.80859375,-34.66796875,-35.15625,55.6640625,0.0
615.484375,-38.57421875,-30.76171875,-38.57421875,-36.62109375,76.171875,0.0
615.48828125,-41.015625,-31.73828125,-36.62109375,-40.0390625,96.6796875,0.0
615.4921875,-33.69140625,-29.78515625,-36.62109375,-37.59765625,63.96484375,0.0
615.49609375,-16.6015625,-27.83203125,-32.71484375,-33.69140625,15.13671875,0.0
615.5,-15.13671875,-31.73828125,-30.2734375,-34.1796875,7.8125,0.0
615.50390625,-32.2265625,-32.2265625,-35.64453125,-41.9921875,32.2265625,0.0
615.5078125,-41.9921875,-32.2265625,-36.62109375,-41.9921875,-77.63671875,0.0
615.51171875,-32.2265625,-31.73828125,-37.59765625,-35.15625,-121.09375,0.0
615.515625,-20.5078125,-30.2734375,-34.1796875,-31.73828125,-23.92578125,0.0
615.51953125,-29.296875,-35.15625,-34.66796875,-34.1796875,10.25390625,0.0
615.5234375,-40.52734375,-36.1328125,-37.109375,-36.1328125,12.20703125,0.0
615.52734375,-37.59765625,-29.78515625,-32.2265625,-29.78515625,-35.64453125,0.0
615.53125,-29.296875,-31.73828125,-33.69140625,-30.2734375,-23.92578125,0.0
615.53515625,-19.04296875,-33.69140625,-36.1328125,-28.80859375,0.48828125,0.0
615.5390625,-17.578125,-27.83203125,-28.80859375,-29.296875,-29.296875,0.0
615.54296875,-24.90234375,-24.90234375,-15.625,-29.296875,-41.9921875,0.0
615.546875,-35.15625,-30.76171875,-20.99609375,-30.2734375,-1.46484375,0.0
615.55078125,-33.203125,-26.85546875,-24.4140625,-28.3203125,66.89453125,0.0
615.5546875,-25.390625,-23.4375,-20.5078125,-25.87890625,-7.32421875,0.0
615.55859375,-18.5546875,-20.5078125,-15.13671875,-23.4375,-31.25,0.0
615.5625,-30.76171875,-23.92578125,-21.97265625,-27.83203125,-1.953125,0.0
615.56640625,-46.38671875,-33.69140625,-29.78515625,-35.15625,-62.01171875,0.0
615.5703125,-41.9921875,-35.64453125,-29.296875,-36.62109375,-111.328125,0.0
615.57421875,-26.85546875,-32.2265625,-27.34375,-29.296875,-75.1953125,0.0
615.578125,-18.5546875,-30.76171875,-26.85546875,-26.3671875,-24.90234375,0.0
615.58203125,-27.83203125,-34.1796875,-27.34375,-25.87890625,14.16015625,0.0
615.5859375,-33.203125,-29.78515625,-20.01953125,-25.87890625,-19.53125,0.0
615.58984375,-29.78515625,-26.3671875,-15.625,-28.80859375,-120.1171875,0.0
615.59375,-28.3203125,-34.1796875,-26.85546875,-34.1796875,4.39453125,0.0
615.59765625,-21.97265625,-31.73828125,-30.76171875,-29.78515625,95.21484375,0.0
615.6015625,-31.73828125,-30.2734375,-27.83203125,-30.76171875,30.76171875,0.0
615.60546875,-51.7578125,-38.0859375,-28.80859375,-33.69140625,19.53125,0.0
615.609375,-46.38671875,-36.1328125,-28.80859375,-29.78515625,-34.1796875,0.0
615.61328125,-30.76171875,-29.296875,-26.85546875,-29.78515625,2.44140625,0.0
615.6171875,-24.90234375,-30.2734375,-24.4140625,-32.2265625,108.88671875,0.0
615.62109375,-34.66796875,-35.15625,-28.3203125,-35.64453125,21.484375,0.0
615.625,-44.43359375,-33.203125,-32.71484375,-34.66796875,-134.765625,0.0
615.62890625,-42.96875,-29.78515625,-26.85546875,-27.83203125,-104.98046875,0.0
615.6328125,-31.25,-24.4140625,-24.90234375,-25.390625,-11.23046875,0.0
615.63671875,-16.11328125,-20.01953125,-29.296875,-24.90234375,22.4609375,0.0
615.640625,-21.484375,-24.4140625,-33.203125,-30.2734375,2.44140625,0.0
615.64453125,-38.57421875,-29.296875,-33.69140625,-39.0625,-13.671875,0.0
615.6484375,-26.3671875,-8.7890625,-18.5546875,-24.90234375,-7.32421875,0.0
615.65234375,-16.11328125,-7.32421875,-17.08984375,-22.4609375,71.77734375,0.0
615.65625,-26.85546875,-27.83203125,-32.2265625,-38.0859375,81.54296875,0.0
615.66015625,-33.69140625,-33.69140625,-33.203125,-38.0859375,45.41015625,0.0
615.6640625,-42.48046875,-34.1796875,-27.83203125,-35.64453125,50.78125,0.0
615.66796875,-42.96875,-33.69140625,-20.5078125,-36.62109375,1.46484375,0.0
615.671875,-31.73828125,-32.71484375,-20.01953125,-28.3203125,-76.171875,0.0
615.67578125,-22.94921875,-34.1796875,-20.01953125,-23.92578125,-126.46484375,0.0
615.6796875,-22.94921875,-35.15625,-20.99609375,-31.73828125,-120.1171875,0.0
615.68359375,-34.66796875,-35.15625,-25.390625,-38.0859375,-120.1171875,0.0
615.6875,-47.8515625,-35.64453125,-37.109375,-41.9921875,-159.66796875,0.0
615.69140625,-35.64453125,-27.83203125,-21.97265625,-32.2265625,-197.265625,0.0
615.6953125,-17.578125,-23.4375,-5.37109375,-23.4375,-172.36328125,0.0
615.69921875,-22.94921875,-28.80859375,-26.85546875,-30.76171875,-72.265625,0.0
615.703125,-38.0859375,-30.76171875,-34.1796875,-34.1796875,-48.33984375,0.0
615.70703125,-47.36328125,-32.71484375,-28.80859375,-36.1328125,-56.15234375,0.0
615.7109375,-39.55078125,-30.76171875,-26.85546875,-32.71484375,-43.9453125,0.0
615.71484375,-27.83203125,-28.3203125,-31.25,-33.203125,47.8515625,0.0
615.71875,-28.3203125,-28.80859375,-35.64453125,-35.15625,82.51953125,0.0
615.72265625,-38.0859375,-28.80859375,-34.66796875,-30.76171875,-2.44140625,0.0
615.7265625,-41.9921875,-27.83203125,-30.76171875,-29.296875,2.44140625,0.0
615.73046875,-34.1796875,-29.78515625,-31.73828125,-27.34375,46.875,0.0
615.734375,-23.92578125,-27.34375,-33.69140625,-25.87890625,17.08984375,0.0
615.73828125,-19.04296875,-27.34375,-24.4140625,-25.390625,-39.0625,0.0
615.7421875,-30.2734375,-32.2265625,-27.83203125,-27.34375,20.99609375,0.0
615.74609375,-39.55078125,-33.203125,-34.66796875,-31.73828125,56.640625,0.0
615.75,-36.1328125,-35.15625,-25.390625,-31.73828125,45.8984375,0.0
615.75390625,-27.34375,-35.64453125,-20.01953125,-27.34375,61.5234375,0.0
615.7578125,-22.94921875,-36.62109375,-35.15625,-31.25,67.3828125,0.0
615.76171875,-35.64453125,-41.015625,-42.48046875,-39.0625,75.68359375,0.0
615.765625,-49.31640625,-41.50390625,-40.0390625,-40.52734375,-6.34765625,0.0
615.76953125,-45.8984375,-40.52734375,-42.48046875,-38.57421875,-62.01171875,0.0
615.7734375,-32.2265625,-36.62109375,-41.015625,-38.57421875,-64.94140625,0.0
615.77734375,-19.53125,-32.2265625,-37.109375,-37.109375,-121.58203125,0.0
615.78125,-24.90234375,-36.1328125,-33.203125,-36.62109375,-111.81640625,0.0
615.78515625,-40.52734375,-34.66796875,-36.62109375,-34.66796875,-86.9140625,0.0
615.7890625,-39.55078125,-33.69140625,-37.109375,-30.2734375,-101.07421875,0.0
615.79296875,-27.34375,-36.1328125,-30.2734375,-28.80859375,-112.79296875,0.0
615.796875,-17.578125,-29.296875,-23.4375,-24.90234375,-122.0703125,0.0
615.80078125,-24.90234375,-32.71484375,-32.2265625,-31.25,-71.77734375,0.0
615.8046875,-38.57421875,-37.59765625,-38.0859375,-35.64453125,-26.85546875,0.0
615.80859375,-37.59765625,-31.25,-31.25,-34.66796875,-93.26171875,0.0
615.8125,-23.92578125,-30.2734375,-26.85546875,-32.71484375,-121.09375,0.0
615.81640625,-19.53125,-35.64453125,-29.296875,-29.78515625,-28.3203125,0.0
615.8203125,-26.3671875,-31.73828125,-27.83203125,-29.296875,-4.39453125,0.0
615.82421875,-41.015625,-37.59765625,-34.1796875,-31.73828125,2.44140625,0.0
615.828125,-60.05859375,-53.22265625,-47.8515625,-45.8984375,-8.30078125,0.0
615.83203125,-47.36328125,-43.45703125,-40.0390625,-36.1328125,-92.28515625,0.0
615.8359375,-20.99609375,-29.296875,-27.83203125,-20.01953125,-27.34375,0.0
615.83984375,-24.4140625,-32.2265625,-31.73828125,-25.87890625,100.09765625,0.0
615.84375,-41.9921875,-35.15625,-36.1328125,-27.83203125,86.42578125,0.0
615.84765625,-50.29296875,-37.109375,-38.57421875,-26.85546875,40.52734375,0.0
615.8515625,-47.8515625,-34.66796875,-40.0390625,-31.25,64.453125,0.0
615.85546875,-41.9921875,-31.73828125,-35.15625,-36.1328125,91.796875,0.0
615.859375,-42.48046875,-36.62109375,-35.15625,-41.015625,133.30078125,0.0
615.86328125,-45.41015625,-37.109375,-39.55078125,-40.52734375,20.5078125,0.0
615.8671875,-47.8515625,-30.2734375,-35.15625,-40.52734375,-40.0390625,0.0
615.87109375,-49.8046875,-36.62109375,-38.0859375,-44.921875,-36.1328125,0.0
615.875,-37.59765625,-41.015625,-41.015625,-40.0390625,14.16015625,0.0
615.87890625,-19.53125,-29.296875,-34.1796875,-31.73828125,81.54296875,0.0
615.8828125,-31.25,-29.78515625,-31.73828125,-35.15625,105.95703125,0.0
615.88671875,-50.78125,-33.69140625,-34.66796875,-41.015625,110.83984375,0.0
615.890625,-49.31640625,-36.62109375,-40.52734375,-44.921875,29.78515625,0.0
615.89453125,-30.76171875,-34.1796875,-35.64453125,-39.55078125,3.90625,0.0
615.8984375,-22.4609375,-24.90234375,-33.203125,-34.66796875,4.39453125,0.0
615.90234375,-35.15625,-23.92578125,-33.69140625,-34.66796875,-73.73046875,0.0
615.90625,-46.38671875,-27.34375,-34.1796875,-30.2734375,-147.4609375,0.0
615.91015625,-41.015625,-27.34375,-32.71484375,-27.34375,-173.33984375,0.0
615.9140625,-30.76171875,-28.3203125,-26.3671875,-27.83203125,-104.00390625,0.0
615.91796875,-36.1328125,-38.0859375,-25.87890625,-32.2265625,39.0625,0.0
615.921875,-40.0390625,-38.57421875,-31.25,-29.78515625,54.6875,0.0
615.92578125,-41.9921875,-28.80859375,-28.3203125,-22.4609375,-16.11328125,0.0
615.9296875,-44.921875,-29.296875,-22.4609375,-24.90234375,-42.96875,0.0
615.93359375,-38.0859375,-31.25,-27.83203125,-27.83203125,11.23046875,0.0
615.9375,-31.73828125,-28.3203125,-30.76171875,-26.85546875,6.34765625,0.0
615.94140625,-43.45703125,-33.203125,-35.15625,-33.203125,7.8125,0.0
615.9453125,-54.6875,-36.1328125,-38.57421875,-36.62109375,-54.19921875,0.0
615.94921875,-41.9921875,-33.69140625,-32.71484375,-31.73828125,-184.5703125,0.0
615.953125,-25.87890625,-30.76171875,-28.3203125,-24.90234375,-118.65234375,0.0
615.95703125,-17.08984375,-28.3203125,-26.3671875,-20.5078125,-27.83203125,0.0
615.9609375,-28.3203125,-34.1796875,-35.15625,-31.25,4.39453125,0.0
615.96484375,-42.48046875,-32.2265625,-41.015625,-38.0859375,25.390625,0.0
615.96875,-38.57421875,-26.3671875,-36.1328125,-36.62109375,-47.36328125,0.0
615.97265625,-33.69140625,-29.296875,-37.59765625,-35.64453125,-56.640625,0.0
615.9765625,-28.80859375,-32.71484375,-35.15625,-33.69140625,44.921875,0.0
615.98046875,-28.80859375,-31.73828125,-30.2734375,-28.3203125,12.6953125,0.0
615.984375,-35.64453125,-24.4140625,-31.73828125,-28.80859375,-32.2265625,0.0
615.98828125,-45.41015625,-25.87890625,-29.78515625,-31.25,16.11328125,0.0
615.9921875,-37.59765625,-28.3203125,-31.73828125,-24.90234375,6.34765625,0.0
615.99609375,-21.97265625,-30.76171875,-35.15625,-30.2734375,-16.6015625,0.0
616.0,-25.87890625,-27.83203125,-31.25,-29.296875,8.7890625,0.0
616.00390625,-41.9921875,-24.90234375,-32.71484375,-27.83203125,-31.25,0.0
616.0078125,-45.41015625,-25.390625,-30.76171875,-28.80859375,-11.23046875,0.0
616.01171875,-33.203125,-24.4140625,-24.90234375,-26.85546875,4.39453125,0.0
616.015625,-20.99609375,-25.390625,-23.92578125,-21.484375,-65.4296875,0.0
616.01953125,-20.5078125,-25.87890625,-21.97265625,-18.06640625,-110.83984375,0.0
616.0234375,-45.8984375,-38.57421875,-24.90234375,-34.1796875,-85.44921875,0.0
616.02734375,-54.6875,-43.45703125,-27.83203125,-35.64453125,13.18359375,0.0
616.03125,-34.66796875,-28.3203125,-23.4375,-26.85546875,-26.85546875,0.0
616.03515625,-23.92578125,-23.92578125,-26.85546875,-23.4375,-166.9921875,0.0
616.0390625,-24.90234375,-32.2265625,-33.69140625,-23.4375,-83.984375,0.0
616.04296875,-33.69140625,-32.71484375,-31.25,-25.390625,14.16015625,0.0
616.046875,-41.015625,-30.2734375,-34.1796875,-28.80859375,-87.40234375,0.0
616.05078125,-32.2265625,-34.1796875,-38.57421875,-35.15625,-112.79296875,0.0
616.0546875,-17.578125,-31.25,-35.64453125,-32.2265625,-145.99609375,0.0
616.05859375,-21.484375,-27.34375,-35.64453125,-35.64453125,-223.14453125,0.0
616.0625,-29.78515625,-25.390625,-31.73828125,-34.66796875,-73.73046875,0.0
616.06640625,-44.921875,-32.2265625,-33.203125,-42.48046875,21.484375,0.0
616.0703125,-40.52734375,-37.59765625,-38.57421875,-44.921875,-31.25,0.0
616.07421875,-16.11328125,-29.78515625,-33.203125,-28.3203125,-55.17578125,0.0
616.078125,-12.20703125,-26.3671875,-28.80859375,-25.390625,-33.203125,0.0
616.08203125,-24.90234375,-31.73828125,-28.80859375,-29.296875,-3.90625,0.0
616.0859375,-31.25,-28.80859375,-26.85546875,-25.87890625,18.06640625,0.0
616.08984375,-29.78515625,-25.87890625,-28.80859375,-25.87890625,40.52734375,0.0
616.09375,-28.3203125,-31.25,-31.25,-31.25,88.37890625,0.0
616.09765625,-25.390625,-28.80859375,-33.203125,-29.296875,107.91015625,0.0
616.1015625,-30.76171875,-21.484375,-34.66796875,-32.71484375,45.8984375,0.0
616.10546875,-37.109375,-22.94921875,-34.66796875,-42.96875,-2.44140625,0.0
616.109375,-35.64453125,-31.73828125,-37.109375,-43.9453125,-18.5546875,0.0
616.11328125,-28.3203125,-34.66796875,-38.57421875,-42.96875,-25.87890625,0.0
616.1171875,-18.06640625,-29.296875,-38.57421875,-40.52734375,-27.34375,0.0
616.12109375,-22.4609375,-27.34375,-39.0625,-33.69140625,-17.578125,0.0
616.125,-40.52734375,-33.203125,-37.109375,-38.0859375,-26.3671875,0.0
616.12890625,-45.8984375,-38.0859375,-22.94921875,-44.43359375,-53.22265625,0.0
616.1328125,-30.76171875,-29.296875,-18.06640625,-32.71484375,-44.43359375,0.0
616.13671875,-16.6015625,-25.390625,-27.34375,-26.85546875,11.23046875,0.0
616.140625,-19.04296875,-25.87890625,-30.2734375,-24.90234375,-24.4140625,0.0
616.14453125,-38.57421875,-33.203125,-32.71484375,-29.78515625,-55.17578125,0.0
616.1484375,-41.50390625,-33.69140625,-31.73828125,-33.69140625,-104.4921875,0.0
616.15234375,-23.4375,-26.3671875,-27.83203125,-27.34375,-1.953125,0.0
616.15625,-27.34375,-36.62109375,-36.1328125,-31.73828125,156.73828125,0.0
616.16015625,-35.15625,-41.015625,-39.55078125,-35.64453125,102.05078125,0.0
616.1640625,-33.203125,-26.85546875,-30.76171875,-28.3203125,93.26171875,0.0
616.16796875,-37.59765625,-23.4375,-28.80859375,-23.92578125,32.2265625,0.0
616.171875,-29.296875,-27.34375,-35.15625,-24.4140625,4.8828125,0.0
616.17578125,-14.16015625,-28.80859375,-32.2265625,-20.99609375,78.125,0.0
616.1796875,-18.5546875,-27.34375,-27.34375,-19.04296875,34.66796875,0.0
616.18359375,-30.2734375,-27.34375,-26.85546875,-21.97265625,-35.64453125,0.0
616.1875,-38.57421875,-29.78515625,-28.3203125,-22.94921875,-67.3828125,0.0
616.19140625,-37.109375,-29.78515625,-31.73828125,-22.94921875,-64.453125,0.0
616.1953125,-24.4140625,-25.390625,-33.69140625,-27.34375,-1.46484375,0.0
616.19921875,-17.08984375,-23.4375,-34.1796875,-26.3671875,74.21875,0.0
616.203125,-18.5546875,-20.5078125,-22.94921875,-17.578125,56.15234375,0.0
616.20703125,-32.2265625,-27.34375,-29.296875,-28.3203125,-19.53125,0.0
616.2109375,-33.69140625,-33.69140625,-41.015625,-38.57421875,-26.3671875,0.0
616.21484375,-19.53125,-32.2265625,-32.71484375,-32.71484375,69.82421875,0.0
616.21875,-13.671875,-29.78515625,-22.4609375,-31.25,83.0078125,0.0
616.22265625,-26.85546875,-33.69140625,-31.73828125,-33.203125,-17.578125,0.0
616.2265625,-34.1796875,-33.69140625,-37.109375,-32.71484375,7.32421875,0.0
616.23046875,-22.4609375,-29.78515625,-31.73828125,-27.34375,-29.78515625,0.0
616.234375,-11.71875,-30.76171875,-30.76171875,-23.92578125,-58.59375,0.0
616.23828125,-12.6953125,-33.203125,-32.71484375,-28.80859375,21.97265625,0.0
616.2421875,-21.97265625,-32.71484375,-32.2265625,-31.73828125,-28.80859375,0.0
616.24609375,-36.62109375,-28.3203125,-26.3671875,-30.2734375,-104.4921875,0.0
616.25,-35.15625,-26.85546875,-16.11328125,-32.2265625,-151.85546875,0.0
616.25390625,-25.390625,-31.73828125,-22.4609375,-31.73828125,-114.2578125,0.0
616.2578125,-18.06640625,-29.78515625,-27.34375,-32.71484375,16.11328125,0.0
616.26171875,-19.53125,-24.4140625,-21.484375,-30.2734375,41.50390625,0.0
616.265625,-32.2265625,-25.87890625,-21.97265625,-30.76171875,-20.5078125,0.0
616.26953125,-38.0859375,-30.2734375,-28.80859375,-35.15625,-89.35546875,0.0
616.2734375,-26.85546875,-28.3203125,-27.83203125,-32.71484375,-125.48828125,0.0
616.27734375,-20.5078125,-24.90234375,-23.4375,-33.203125,-13.671875,0.0
616.28125,-31.25,-30.2734375,-27.83203125,-36.62109375,59.08203125,0.0
616.28515625,-41.50390625,-33.203125,-31.73828125,-34.1796875,11.23046875,0.0
616.2890625,-41.50390625,-32.2265625,-27.34375,-32.2265625,-15.625,0.0
616.29296875,-34.1796875,-33.69140625,-23.4375,-33.69140625,-8.30078125,0.0
616.296875,-19.04296875,-26.85546875,-27.34375,-31.73828125,-14.6484375,0.0
616.30078125,-30.2734375,-31.73828125,-35.15625,-37.59765625,22.4609375,0.0
616.3046875,-39.0625,-35.15625,-32.2265625,-37.109375,-26.85546875,0.0
616.30859375,-28.3203125,-25.87890625,-20.99609375,-28.3203125,-153.3203125,0.0
616.3125,-29.296875,-30.2734375,-28.3203125,-32.71484375,-128.41796875,0.0
616.31640625,-26.3671875,-36.1328125,-33.203125,-36.62109375,-89.84375,0.0
616.3203125,-27.83203125,-33.69140625,-30.2734375,-41.9921875,-37.59765625,0.0
616.32421875,-40.52734375,-35.64453125,-30.76171875,-43.45703125,-57.6171875,0.0
616.328125,-47.36328125,-38.0859375,-34.1796875,-42.48046875,-95.21484375,0.0
616.33203125,-41.50390625,-34.1796875,-35.15625,-39.55078125,-29.296875,0.0
616.3359375,-28.80859375,-31.25,-32.2265625,-32.71484375,-47.36328125,0.0
616.33984375,-26.85546875,-32.2265625,-30.76171875,-33.203125,-33.69140625,0.0
616.34375,-41.9921875,-31.73828125,-35.15625,-39.0625,-10.7421875,0.0
616.34765625,-51.7578125,-31.25,-34.66796875,-41.50390625,-126.953125,0.0
616.3515625,-40.52734375,-29.296875,-23.92578125,-40.0390625,-202.1484375,0.0
616.35546875,-24.4140625,-29.296875,-20.5078125,-32.71484375,-145.01953125,0.0
616.359375,-39.55078125,-31.25,-29.296875,-39.55078125,-132.8125,0.0
616.36328125,-61.03515625,-30.76171875,-35.15625,-50.29296875,-138.671875,0.0
616.3671875,-59.08203125,-36.62109375,-31.25,-44.921875,-95.703125,0.0
616.37109375,-49.31640625,-36.62109375,-27.34375,-38.57421875,-111.328125,0.0
616.375,-37.59765625,-36.62109375,-30.2734375,-34.66796875,-90.8203125,0.0
616.37890625,-33.203125,-36.1328125,-25.390625,-32.71484375,19.53125,0.0
616.3828125,-45.41015625,-33.69140625,-31.25,-35.64453125,-45.41015625,0.0
616.38671875,-51.26953125,-33.203125,-33.203125,-35.15625,-180.6640625,0.0
616.390625,-44.43359375,-34.1796875,-30.76171875,-33.69140625,-95.21484375,0.0
616.39453125,-26.85546875,-28.3203125,-32.2265625,-30.2734375,88.8671875,0.0
616.3984375,-19.04296875,-21.97265625,-21.484375,-26.85546875,132.32421875,0.0
616.40234375,-31.73828125,-33.203125,-24.4140625,-33.203125,83.984375,0.0
616.40625,-41.9921875,-38.57421875,-33.69140625,-36.62109375,-17.578125,0.0
616.41015625,-30.76171875,-32.2265625,-24.90234375,-29.78515625,2.44140625,0.0
616.4140625,-15.13671875,-28.80859375,-26.85546875,-25.87890625,127.9296875,0.0
616.41796875,-14.16015625,-29.296875,-36.62109375,-31.73828125,72.265625,0.0
616.421875,-23.4375,-32.71484375,-39.55078125,-34.66796875,27.83203125,0.0
616.42578125,-38.0859375,-34.1796875,-38.57421875,-33.69140625,-36.62109375,0.0
616.4296875,-41.50390625,-29.78515625,-37.109375,-40.0390625,-137.6953125,0.0
616.43359375,-35.15625,-30.2734375,-38.57421875,-41.015625,-87.890625,0.0
616.4375,-27.34375,-30.2734375,-37.59765625,-32.71484375,28.80859375,0.0
616.44140625,-35.15625,-29.78515625,-30.76171875,-36.62109375,36.1328125,0.0
616.4453125,-53.22265625,-30.2734375,-27.83203125,-41.015625,41.015625,0.0
616.44921875,-55.6640625,-34.66796875,-29.78515625,-39.55078125,10.7421875,0.0
616.453125,-41.015625,-34.66796875,-28.80859375,-36.62109375,-1.953125,0.0
616.45703125,-34.1796875,-30.76171875,-31.25,-36.1328125,-40.52734375,0.0
616.4609375,-53.7109375,-32.71484375,-30.76171875,-42.48046875,-50.78125,0.0
616.46484375,-63.96484375,-36.1328125,-32.71484375,-47.8515625,-34.1796875,0.0
616.46875,-52.24609375,-34.66796875,-30.2734375,-46.875,-26.3671875,0.0
616.47265625,-36.1328125,-28.80859375,-15.13671875,-33.69140625,-33.203125,0.0
616.4765625,-28.80859375,-29.78515625,-23.4375,-32.71484375,19.53125,0.0
616.48046875,-37.109375,-34.1796875,-38.0859375,-37.109375,6.8359375,0.0
616.484375,-52.734375,-40.0390625,-34.66796875,-40.52734375,3.41796875,0.0
616.48828125,-45.41015625,-32.71484375,-18.5546875,-38.0859375,-61.03515625,0.0
616.4921875,-36.62109375,-30.76171875,-16.11328125,-31.73828125,-129.39453125,0.0
616.49609375,-34.66796875,-36.62109375,-25.87890625,-33.69140625,-47.36328125,0.0
616.5,-29.296875,-32.2265625,-26.85546875,-31.25,-13.671875,0.0
616.50390625,-33.203125,-29.296875,-20.99609375,-29.296875,-29.78515625,0.0
616.5078125,-49.31640625,-39.55078125,-34.1796875,-41.50390625,-40.52734375,0.0
616.51171875,-44.921875,-36.62109375,-37.59765625,-42.48046875,-9.765625,0.0
616.515625,-29.296875,-32.2265625,-32.71484375,-38.57421875,-41.015625,0.0
616.51953125,-24.4140625,-33.69140625,-31.25,-33.69140625,-49.8046875,0.0
616.5234375,-33.69140625,-32.71484375,-27.83203125,-28.80859375,-55.6640625,0.0
616.52734375,-44.43359375,-35.64453125,-31.25,-31.25,-36.62109375,0.0
616.53125,-28.80859375,-22.94921875,-17.08984375,-21.484375,-2.9296875,0.0
616.53515625,-11.23046875,-12.6953125,-1.46484375,-13.671875,12.6953125,0.0
616.5390625,-24.90234375,-27.83203125,-24.4140625,-29.296875,-4.39453125,0.0
616.54296875,-40.0390625,-33.69140625,-34.66796875,-39.55078125,-25.87890625,0.0
616.546875,-50.29296875,-37.59765625,-32.71484375,-38.0859375,-25.87890625,0.0
616.55078125,-42.96875,-42.48046875,-33.69140625,-36.62109375,-68.84765625,0.0
616.5546875,-25.87890625,-36.62109375,-32.2265625,-32.2265625,-89.35546875,0.0
616.55859375,-24.90234375,-28.80859375,-34.1796875,-31.25,-48.33984375,0.0
616.5625,-34.1796875,-30.2734375,-34.66796875,-33.203125,-0.9765625,0.0
616.56640625,-45.41015625,-36.1328125,-38.0859375,-37.59765625,-4.39453125,0.0
616.5703125,-36.62109375,-28.80859375,-39.55078125,-28.3203125,-36.62109375,0.0
616.57421875,-18.5546875,-19.53125,-35.15625,-20.01953125,0.9765625,0.0
616.578125,-1.953125,-12.6953125,-15.625,-9.765625,-60.05859375,0.0
616.58203125,-7.8125,-15.13671875,-20.01953125,-11.23046875,-65.4296875,0.0
616.5859375,-31.25,-25.87890625,-40.0390625,-28.3203125,-22.94921875,0.0
616.58984375,-34.1796875,-28.3203125,-35.15625,-27.34375,-82.51953125,0.0
616.59375,-21.97265625,-24.90234375,-27.34375,-22.94921875,-55.17578125,0.0
616.59765625,-25.87890625,-32.2265625,-36.62109375,-30.2734375,-8.7890625,0.0
616.6015625,-45.41015625,-36.62109375,-38.0859375,-37.109375,32.2265625,0.0
616.60546875,-61.03515625,-33.203125,-36.62109375,-42.96875,89.35546875,0.0
616.609375,-51.7578125,-33.203125,-39.55078125,-43.9453125,48.828125,0.0
616.61328125,-39.0625,-32.71484375,-37.59765625,-39.0625,-42.96875,0.0
616.6171875,-37.59765625,-26.3671875,-41.015625,-38.57421875,-2.44140625,0.0
616.62109375,-38.57421875,-27.83203125,-37.59765625,-38.57421875,68.84765625,0.0
616.625,-44.921875,-31.25,-28.80859375,-30.76171875,-14.6484375,0.0
616.62890625,-41.9921875,-31.73828125,-40.0390625,-31.73828125,-46.875,0.0
616.6328125,-28.3203125,-27.34375,-42.48046875,-32.71484375,55.6640625,0.0
616.63671875,-15.13671875,-28.80859375,-29.296875,-21.484375,130.37109375,0.0
616.640625,-11.23046875,-41.9921875,-26.3671875,-3.90625,125.48828125,0.0
616.64453125,-31.25,-39.0625,-37.109375,-20.5078125,46.875,0.0
616.6484375,-59.5703125,-24.90234375,-34.66796875,-59.08203125,-20.01953125,0.0
616.65234375,-58.59375,-25.87890625,-27.83203125,-61.5234375,-7.8125,0.0
616.65625,-38.57421875,-27.83203125,-27.34375,-48.33984375,31.73828125,0.0
616.66015625,-44.43359375,-26.85546875,-32.71484375,-55.6640625,28.80859375,0.0
616.6640625,-57.12890625,-27.34375,-39.55078125,-62.5,-44.921875,0.0
616.66796875,-58.10546875,-27.83203125,-36.62109375,-64.453125,-142.578125,0.0
616.671875,-57.12890625,-25.87890625,-35.15625,-66.89453125,-57.12890625,0.0
616.67578125,-48.828125,-29.296875,-37.109375,-66.89453125,53.22265625,0.0
616.6796875,-42.96875,-30.76171875,-34.66796875,-65.91796875,0.0,0.0
616.68359375,-53.22265625,-20.99609375,-26.3671875,-59.08203125,-64.94140625,0.0
616.6875,-63.96484375,-24.90234375,-33.203125,-59.5703125,-72.75390625,0.0
616.69140625,-56.15234375,-32.2265625,-42.48046875,-63.4765625,-0.9765625,0.0
616.6953125,-44.921875,-29.78515625,-37.59765625,-59.5703125,-12.20703125,0.0
616.69921875,-50.29296875,-32.2265625,-34.1796875,-59.5703125,-24.4140625,0.0
616.703125,-60.05859375,-37.59765625,-40.52734375,-59.08203125,-13.18359375,0.0
616.70703125,-60.546875,-39.0625,-39.0625,-54.19921875,-28.80859375,0.0
616.7109375,-50.29296875,-32.2265625,-26.3671875,-45.41015625,-83.49609375,0.0
616.71484375,-40.52734375,-27.34375,-27.83203125,-43.45703125,-93.75,0.0
616.71875,-38.0859375,-27.83203125,-35.15625,-42.96875,-48.828125,0.0
616.72265625,-44.921875,-30.2734375,-31.73828125,-43.9453125,-46.875,0.0
616.7265625,-47.36328125,-33.69140625,-27.34375,-41.9921875,-49.8046875,0.0
616.73046875,-42.96875,-37.109375,-29.78515625,-39.0625,-33.203125,0.0
616.734375,-32.71484375,-36.1328125,-33.69140625,-40.0390625,-41.50390625,0.0
616.73828125,-24.4140625,-34.1796875,-32.71484375,-39.0625,-18.06640625,0.0
616.7421875,-35.15625,-34.66796875,-33.69140625,-38.57421875,10.7421875,0.0
616.74609375,-45.8984375,-33.203125,-35.64453125,-38.0859375,-2.44140625,0.0
616.75,-42.96875,-31.25,-32.2265625,-40.0390625,21.97265625,0.0
616.75390625,-27.83203125,-31.73828125,-27.83203125,-35.64453125,25.390625,0.0
616.7578125,-22.94921875,-29.78515625,-29.78515625,-33.203125,11.23046875,0.0
616.76171875,-35.64453125,-31.25,-37.59765625,-37.59765625,-30.76171875,0.0
616.765625,-48.33984375,-32.2265625,-40.52734375,-37.109375,-87.890625,0.0
616.76953125,-42.96875,-26.3671875,-37.109375,-33.69140625,-61.03515625,0.0
616.7734375,-25.87890625,-19.53125,-22.94921875,-32.2265625,-0.9765625,0.0
616.77734375,-20.01953125,-24.4140625,-25.390625,-34.66796875,43.45703125,0.0
616.78125,-36.62109375,-31.25,-36.1328125,-37.109375,-12.20703125,0.0
616.78515625,-51.7578125,-31.25,-36.62109375,-36.1328125,-130.37109375,0.0
616.7890625,-52.734375,-31.73828125,-33.203125,-33.203125,-141.6015625,0.0
616.79296875,-42.48046875,-32.2265625,-32.2265625,-33.203125,-106.93359375,0.0
616.796875,-26.3671875,-27.83203125,-35.15625,-31.25,-83.984375,0.0
616.80078125,-25.87890625,-30.2734375,-31.73828125,-28.80859375,-65.91796875,0.0
616.8046875,-39.0625,-31.25,-29.296875,-29.296875,-28.80859375,0.0
616.80859375,-41.50390625,-33.203125,-31.73828125,-28.3203125,-41.50390625,0.0
616.8125,-32.71484375,-35.64453125,-33.69140625,-30.76171875,-24.4140625,0.0
616.81640625,-21.97265625,-28.80859375,-25.390625,-32.2265625,50.29296875,0.0
616.8203125,-31.25,-30.2734375,-25.87890625,-35.64453125,31.73828125,0.0
616.82421875,-49.31640625,-38.57421875,-38.57421875,-40.0390625,44.43359375,0.0
616.828125,-57.12890625,-38.57421875,-42.96875,-44.43359375,69.3359375,0.0
616.83203125,-50.78125,-37.59765625,-41.50390625,-43.45703125,59.5703125,0.0
616.8359375,-33.69140625,-35.64453125,-35.15625,-34.1796875,-1.953125,0.0
616.83984375,-27.34375,-30.76171875,-33.69140625,-29.78515625,-24.90234375,0.0
616.84375,-40.0390625,-33.203125,-38.57421875,-34.1796875,-45.41015625,0.0
616.84765625,-49.8046875,-35.15625,-36.62109375,-35.15625,-101.5625,0.0
616.8515625,-42.48046875,-38.0859375,-32.2265625,-36.62109375,-94.7265625,0.0
616.85546875,-27.34375,-40.52734375,-30.2734375,-34.1796875,-64.94140625,0.0
616.859375,-22.94921875,-37.109375,-31.25,-27.83203125,-14.6484375,0.0
616.86328125,-38.57421875,-41.015625,-29.296875,-36.62109375,-5.859375,0.0
616.8671875,-52.24609375,-40.0390625,-25.87890625,-39.0625,-35.64453125,0.0
616.87109375,-43.9453125,-37.109375,-27.34375,-35.15625,-16.11328125,0.0
616.875,-26.85546875,-35.15625,-24.90234375,-32.2265625,5.37109375,0.0
616.87890625,-25.87890625,-36.1328125,-27.34375,-28.3203125,13.671875,0.0
616.8828125,-34.1796875,-39.55078125,-30.2734375,-28.3203125,22.4609375,0.0
616.88671875,-41.9921875,-39.0625,-31.25,-31.25,26.85546875,0.0
616.890625,-43.9453125,-37.59765625,-33.203125,-30.76171875,-36.1328125,0.0
616.89453125,-24.90234375,-33.69140625,-31.73828125,-29.78515625,-28.80859375,0.0
616.8984375,-13.18359375,-30.2734375,-28.3203125,-32.71484375,-8.7890625,0.0
616.90234375,-29.78515625,-28.3203125,-31.73828125,-37.59765625,26.85546875,0.0
616.90625,-41.9921875,-29.78515625,-26.3671875,-37.59765625,80.56640625,0.0
616.91015625,-36.62109375,-38.0859375,-19.53125,-32.71484375,40.0390625,0.0
616.9140625,-23.92578125,-35.15625,-29.78515625,-34.1796875,0.9765625,0.0
616.91796875,-22.94921875,-32.71484375,-38.0859375,-39.55078125,22.94921875,0.0
616.921875,-35.15625,-41.015625,-37.109375,-41.50390625,56.640625,0.0
616.92578125,-44.921875,-41.9921875,-36.1328125,-38.0859375,-15.625,0.0
616.9296875,-41.9921875,-33.203125,-31.25,-37.59765625,-42.96875,0.0
616.93359375,-32.71484375,-34.66796875,-27.34375,-34.1796875,5.859375,0.0
616.9375,-25.87890625,-33.203125,-25.390625,-31.73828125,17.08984375,0.0
616.94140625,-36.1328125,-30.76171875,-31.25,-40.0390625,20.5078125,0.0
616.9453125,-51.26953125,-35.15625,-36.1328125,-47.36328125,-64.94140625,0.0
616.94921875,-45.8984375,-33.69140625,-29.296875,-39.55078125,-144.53125,0.0
616.953125,-24.4140625,-27.34375,-24.90234375,-31.73828125,-74.70703125,0.0
616.95703125,-10.25390625,-28.80859375,-22.94921875,-32.2265625,103.02734375,0.0
616.9609375,-21.97265625,-31.73828125,-29.78515625,-32.2265625,120.60546875,0.0
616.96484375,-39.0625,-24.90234375,-30.2734375,-32.2265625,19.53125,0.0
616.96875,-37.109375,-21.484375,-21.484375,-28.80859375,4.8828125,0.0
616.97265625,-26.3671875,-30.76171875,-29.78515625,-31.73828125,21.484375,0.0
616.9765625,-15.13671875,-29.78515625,-36.1328125,-30.2734375,16.11328125,0.0
616.98046875,-18.5546875,-29.78515625,-34.1796875,-22.4609375,-22.4609375,0.0
616.984375,-36.62109375,-34.66796875,-34.1796875,-25.390625,-85.9375,0.0
616.98828125,-41.015625,-37.109375,-31.73828125,-28.80859375,-129.39453125,0.0
616.9921875,-28.3203125,-33.203125,-36.1328125,-34.1796875,-104.4921875,0.0
616.99609375,-20.01953125,-27.83203125,-34.1796875,-41.9921875,-84.47265625,0.0
617.0,-23.92578125,-26.3671875,-28.3203125,-36.1328125,-100.5859375,0.0
617.00390625,-39.55078125,-28.80859375,-36.1328125,-34.66796875,-110.3515625,0.0
617.0078125,-47.8515625,-29.78515625,-34.1796875,-34.1796875,-88.8671875,0.0
617.01171875,-37.109375,-33.203125,-25.390625,-32.71484375,-99.609375,0.0
617.015625,-23.4375,-31.73828125,-25.87890625,-28.80859375,-89.35546875,0.0
617.01953125,-23.4375,-26.85546875,-27.34375,-24.4140625,-60.546875,0.0
617.0234375,-34.1796875,-29.78515625,-27.83203125,-29.78515625,-71.2890625,0.0
617.02734375,-43.9453125,-29.296875,-25.87890625,-31.25,-61.5234375,0.0
617.03125,-35.64453125,-27.83203125,-25.390625,-28.80859375,-6.34765625,0.0
617.03515625,-24.90234375,-31.25,-27.34375,-27.83203125,16.6015625,0.0
617.0390625,-24.90234375,-26.85546875,-29.296875,-26.3671875,-6.34765625,0.0
617.04296875,-35.64453125,-26.85546875,-24.90234375,-33.69140625,-8.30078125,0.0
617.046875,-41.015625,-27.34375,-24.90234375,-35.15625,5.37109375,0.0
617.05078125,-23.92578125,-26.85546875,-24.4140625,-25.390625,-66.89453125,0.0
617.0546875,-9.27734375,-23.92578125,-26.3671875,-24.4140625,-65.91796875,0.0
617.05859375,-6.8359375,-23.4375,-30.76171875,-25.390625,25.390625,0.0
617.0625,-18.06640625,-28.3203125,-33.203125,-32.71484375,41.015625,0.0
617.06640625,-35.15625,-32.71484375,-35.64453125,-38.0859375,-7.32421875,0.0
617.0703125,-33.69140625,-32.71484375,-32.71484375,-34.66796875,-132.8125,0.0
617.07421875,-25.390625,-29.78515625,-34.1796875,-35.64453125,-119.62890625,0.0
617.078125,-23.4375,-29.296875,-37.59765625,-34.1796875,-1.46484375,0.0
617.08203125,-33.69140625,-33.203125,-39.55078125,-34.1796875,62.5,0.0
617.0859375,-46.38671875,-32.2265625,-34.66796875,-34.1796875,-8.7890625,0.0
617.08984375,-41.015625,-25.390625,-28.3203125,-34.66796875,-26.3671875,0.0
617.09375,-26.85546875,-26.3671875,-37.59765625,-36.1328125,-89.84375,0.0
617.09765625,-21.97265625,-29.296875,-38.57421875,-28.80859375,-65.4296875,0.0
617.1015625,-31.73828125,-26.85546875,-33.69140625,-29.296875,30.2734375,0.0
617.10546875,-42.48046875,-29.296875,-38.57421875,-34.66796875,61.5234375,0.0
617.109375,-36.1328125,-33.69140625,-40.0390625,-33.203125,49.31640625,0.0
617.11328125,-23.92578125,-32.2265625,-39.0625,-29.296875,-7.32421875,0.0
617.1171875,-20.5078125,-28.80859375,-37.109375,-31.25,-60.05859375,0.0
617.12109375,-27.83203125,-28.3203125,-35.64453125,-31.73828125,-60.546875,0.0
617.125,-39.0625,-30.76171875,-36.62109375,-33.203125,-28.3203125,0.0
617.12890625,-34.1796875,-28.80859375,-38.0859375,-35.15625,-60.05859375,0.0
617.1328125,-20.99609375,-24.4140625,-35.15625,-30.2734375,-89.35546875,0.0
617.13671875,-13.671875,-26.3671875,-28.3203125,-22.4609375,-27.83203125,0.0
617.140625,-17.08984375,-31.73828125,-26.3671875,-24.90234375,-31.25,0.0
617.14453125,-31.73828125,-32.71484375,-29.296875,-32.71484375,-26.85546875,0.0
617.1484375,-37.59765625,-32.71484375,-26.85546875,-32.71484375,-47.36328125,0.0
617.15234375,-22.94921875,-35.15625,-23.4375,-21.97265625,-72.75390625,0.0
617.15625,-13.18359375,-33.203125,-27.34375,-19.53125,32.2265625,0.0
617.16015625,-23.92578125,-38.57421875,-28.3203125,-22.94921875,61.5234375,0.0
617.1640625,-39.55078125,-38.0859375,-24.90234375,-33.69140625,-12.6953125,0.0
617.16796875,-43.45703125,-33.203125,-27.83203125,-36.62109375,-44.43359375,0.0
617.171875,-33.203125,-29.78515625,-23.92578125,-30.2734375,-14.6484375,0.0
617.17578125,-27.34375,-26.3671875,-20.5078125,-32.2265625,-57.6171875,0.0
617.1796875,-24.4140625,-25.87890625,-31.25,-35.15625,-127.44140625,0.0
617.18359375,-36.62109375,-30.2734375,-37.109375,-39.0625,-108.3984375,0.0
617.1875,-43.45703125,-34.66796875,-33.203125,-31.25,-93.26171875,0.0
617.19140625,-33.203125,-36.1328125,-27.83203125,-27.83203125,-68.359375,0.0
617.1953125,-23.92578125,-36.62109375,-30.2734375,-34.1796875,-17.08984375,0.0
617.19921875,-19.53125,-34.66796875,-32.71484375,-32.2265625,60.546875,0.0
617.203125,-33.69140625,-36.62109375,-34.66796875,-33.203125,93.26171875,0.0
617.20703125,-40.0390625,-31.73828125,-36.62109375,-39.0625,49.8046875,0.0
617.2109375,-26.85546875,-32.2265625,-36.62109375,-36.1328125,35.15625,0.0
617.21484375,-18.5546875,-35.15625,-35.64453125,-30.2734375,-36.62109375,0.0
617.21875,-21.97265625,-33.69140625,-33.69140625,-33.69140625,-90.33203125,0.0
617.22265625,-36.62109375,-34.66796875,-37.59765625,-40.0390625,-85.9375,0.0
617.2265625,-49.8046875,-36.62109375,-36.62109375,-43.45703125,-119.140625,0.0
617.23046875,-39.0625,-35.15625,-31.73828125,-31.73828125,-100.5859375,0.0
617.234375,-21.97265625,-33.69140625,-34.66796875,-20.99609375,5.859375,0.0
617.23828125,-23.4375,-35.15625,-34.1796875,-26.3671875,4.39453125,0.0
617.2421875,-35.64453125,-33.69140625,-35.15625,-29.78515625,-37.109375,0.0
617.24609375,-49.31640625,-34.1796875,-38.57421875,-32.2265625,-47.36328125,0.0
617.25,-46.38671875,-37.59765625,-37.109375,-32.2265625,-92.7734375,0.0
617.25390625,-26.3671875,-36.1328125,-31.25,-29.296875,-66.40625,0.0
617.2578125,-21.97265625,-32.2265625,-31.73828125,-28.80859375,15.625,0.0
617.26171875,-33.69140625,-34.1796875,-36.1328125,-28.80859375,-29.296875,0.0
617.265625,-46.875,-36.1328125,-39.55078125,-33.203125,-23.92578125,0.0
617.26953125,-42.96875,-32.2265625,-37.59765625,-24.4140625,-15.13671875,0.0
617.2734375,-26.85546875,-27.34375,-31.73828125,-20.99609375,-30.2734375,0.0
617.27734375,-20.99609375,-25.87890625,-39.55078125,-26.3671875,7.32421875,0.0
617.28125,-27.34375,-25.390625,-37.109375,-26.85546875,24.4140625,0.0
617.28515625,-39.55078125,-29.78515625,-32.71484375,-31.73828125,4.39453125,0.0
617.2890625,-45.8984375,-38.57421875,-40.0390625,-36.1328125,-86.9140625,0.0
617.29296875,-36.62109375,-37.109375,-38.57421875,-29.78515625,-93.75,0.0
617.296875,-22.94921875,-30.2734375,-33.203125,-22.94921875,-85.9375,0.0
617.30078125,-28.80859375,-31.73828125,-34.1796875,-27.34375,-38.0859375,0.0
617.3046875,-40.52734375,-32.71484375,-37.109375,-29.296875,-77.1484375,0.0
617.30859375,-39.55078125,-31.73828125,-30.76171875,-22.4609375,-96.6796875,0.0
617.3125,-28.3203125,-29.78515625,-32.2265625,-19.53125,25.390625,0.0
617.31640625,-16.6015625,-31.25,-37.109375,-19.53125,7.8125,0.0
617.3203125,-20.01953125,-28.80859375,-32.71484375,-21.97265625,-23.92578125,0.0
617.32421875,-36.1328125,-25.390625,-34.1796875,-30.76171875,-58.10546875,0.0
617.328125,-41.9921875,-27.34375,-31.73828125,-26.85546875,-77.63671875,0.0
617.33203125,-29.78515625,-28.3203125,-28.3203125,-20.5078125,21.97265625,0.0
617.3359375,-17.08984375,-24.90234375,-26.85546875,-20.01953125,38.57421875,0.0
617.33984375,-21.484375,-28.80859375,-32.71484375,-26.85546875,4.8828125,0.0
617.34375,-35.64453125,-35.15625,-36.1328125,-31.25,-76.171875,0.0
617.34765625,-42.48046875,-33.203125,-37.109375,-32.2265625,-58.10546875,0.0
617.3515625,-36.62109375,-30.2734375,-43.9453125,-36.1328125,4.39453125,0.0
617.35546875,-20.01953125,-25.390625,-35.64453125,-31.73828125,-15.625,0.0
617.359375,-17.578125,-25.87890625,-30.76171875,-32.71484375,22.94921875,0.0
617.36328125,-32.2265625,-25.87890625,-33.69140625,-38.0859375,-4.39453125,0.0
617.3671875,-36.62109375,-21.484375,-34.1796875,-36.1328125,-41.015625,0.0
617.37109375,-30.76171875,-25.390625,-29.78515625,-34.66796875,-55.6640625,0.0
617.375,-24.90234375,-26.85546875,-35.64453125,-41.015625,9.27734375,0.0
617.37890625,-21.484375,-24.90234375,-37.59765625,-39.55078125,53.22265625,0.0
617.3828125,-31.73828125,-29.78515625,-36.62109375,-34.1796875,-40.0390625,0.0
617.38671875,-44.43359375,-32.2265625,-40.0390625,-40.0390625,-84.47265625,0.0
617.390625,-40.52734375,-30.76171875,-38.0859375,-37.109375,-65.4296875,0.0
617.39453125,-24.4140625,-28.80859375,-36.1328125,-31.73828125,-80.56640625,0.0
617.3984375,-26.85546875,-28.3203125,-34.66796875,-34.66796875,-104.00390625,0.0
617.40234375,-35.15625,-28.3203125,-41.9921875,-34.1796875,-96.19140625,0.0
617.40625,-41.015625,-29.296875,-42.48046875,-42.48046875,-105.95703125,0.0
617.41015625,-35.15625,-29.296875,-41.015625,-45.8984375,-126.46484375,0.0
617.4140625,-21.484375,-30.76171875,-36.1328125,-35.64453125,-12.6953125,0.0
617.41796875,-18.06640625,-31.25,-25.87890625,-35.15625,17.08984375,0.0
617.421875,-31.25,-34.66796875,-30.2734375,-40.0390625,-91.30859375,0.0
617.42578125,-44.921875,-38.0859375,-44.921875,-43.45703125,-76.171875,0.0
617.4296875,-44.921875,-33.203125,-41.9921875,-41.9921875,-15.625,0.0
617.43359375,-41.50390625,-34.1796875,-37.109375,-43.9453125,-50.78125,0.0
617.4375,-34.66796875,-39.55078125,-39.0625,-39.55078125,-8.7890625,0.0
617.44140625,-48.33984375,-42.96875,-38.57421875,-40.52734375,-55.6640625,0.0
617.4453125,-62.98828125,-42.48046875,-39.55078125,-46.875,-113.76953125,0.0
617.44921875,-51.26953125,-34.66796875,-36.62109375,-44.43359375,-0.9765625,0.0
617.453125,-41.015625,-33.203125,-35.64453125,-40.0390625,40.0390625,0.0
617.45703125,-30.76171875,-37.109375,-42.96875,-32.2265625,-33.203125,0.0
617.4609375,-34.1796875,-30.2734375,-34.1796875,-30.76171875,-24.4140625,0.0
617.46484375,-68.84765625,-32.71484375,-28.80859375,-52.734375,29.296875,0.0
617.46875,-70.80078125,-39.0625,-34.66796875,-61.03515625,6.34765625,0.0
617.47265625,-51.7578125,-37.59765625,-33.69140625,-54.19921875,51.7578125,0.0
617.4765625,-46.38671875,-31.25,-24.90234375,-52.24609375,51.7578125,0.0
617.48046875,-49.31640625,-31.25,-25.87890625,-53.22265625,55.6640625,0.0
617.484375,-63.96484375,-37.109375,-36.1328125,-55.6640625,38.0859375,0.0
617.48828125,-73.2421875,-28.80859375,-29.78515625,-64.453125,-40.0390625,0.0
617.4921875,-63.96484375,-24.4140625,-20.99609375,-57.6171875,-0.48828125,0.0
617.49609375,-40.0390625,-22.4609375,-19.04296875,-41.015625,74.21875,0.0
617.5,-40.0390625,-24.4140625,-24.4140625,-43.9453125,47.36328125,0.0
617.50390625,-54.6875,-31.25,-27.83203125,-52.24609375,-76.66015625,0.0
617.5078125,-57.6171875,-27.83203125,-29.78515625,-46.875,-131.8359375,0.0
617.51171875,-46.875,-26.85546875,-28.80859375,-39.55078125,-135.25390625,0.0
617.515625,-42.96875,-31.25,-34.66796875,-48.828125,-59.08203125,0.0
617.51953125,-45.41015625,-30.2734375,-32.71484375,-45.41015625,-40.52734375,0.0
617.5234375,-43.9453125,-27.83203125,-19.04296875,-33.69140625,-102.5390625,0.0
617.52734375,-51.26953125,-31.25,-30.76171875,-40.52734375,-122.0703125,0.0
617.53125,-42.48046875,-34.1796875,-36.1328125,-42.96875,-77.1484375,0.0
617.53515625,-28.80859375,-30.76171875,-29.296875,-34.66796875,-37.59765625,0.0
617.5390625,-31.25,-26.3671875,-24.4140625,-29.78515625,-74.70703125,0.0
617.54296875,-48.828125,-31.73828125,-38.0859375,-32.2265625,-94.7265625,0.0
617.546875,-63.96484375,-36.62109375,-35.15625,-37.59765625,-74.70703125,0.0
617.55078125,-60.05859375,-37.59765625,-25.390625,-42.48046875,-74.21875,0.0
617.5546875,-44.43359375,-36.1328125,-27.34375,-44.921875,-62.98828125,0.0
617.55859375,-35.64453125,-37.109375,-27.34375,-40.52734375,-47.36328125,0.0
617.5625,-38.57421875,-40.0390625,-36.1328125,-41.50390625,-37.59765625,0.0
617.56640625,-41.9921875,-32.71484375,-31.25,-42.96875,-78.61328125,0.0
617.5703125,-32.71484375,-29.296875,-23.92578125,-42.96875,-22.94921875,0.0
617.57421875,-20.5078125,-34.1796875,-33.69140625,-39.0625,32.71484375,0.0
617.578125,-17.578125,-31.25,-30.2734375,-34.66796875,12.20703125,0.0
617.58203125,-28.3203125,-27.83203125,-22.4609375,-35.15625,8.30078125,0.0
617.5859375,-49.8046875,-35.15625,-30.2734375,-40.0390625,-23.92578125,0.0
617.58984375,-46.875,-37.109375,-33.69140625,-41.50390625,17.08984375,0.0
617.59375,-23.92578125,-28.3203125,-29.296875,-38.0859375,76.66015625,0.0
617.59765625,-22.4609375,-25.390625,-34.1796875,-41.50390625,33.69140625,0.0
617.6015625,-34.66796875,-22.94921875,-31.73828125,-37.109375,-0.9765625,0.0
617.60546875,-45.41015625,-24.90234375,-31.25,-37.109375,77.1484375,0.0
617.609375,-45.8984375,-30.76171875,-35.15625,-44.43359375,45.8984375,0.0
617.61328125,-21.484375,-23.4375,-17.08984375,-32.2265625,1.46484375,0.0
617.6171875,-13.18359375,-26.85546875,-20.5078125,-30.2734375,63.96484375,0.0
617.62109375,-35.64453125,-37.59765625,-39.0625,-41.9921875,79.58984375,0.0
617.625,-47.8515625,-38.57421875,-39.0625,-47.8515625,51.26953125,0.0
617.62890625,-41.9921875,-36.62109375,-31.25,-41.9921875,-29.78515625,0.0
617.6328125,-34.66796875,-32.2265625,-34.1796875,-37.109375,-67.3828125,0.0
617.63671875,-28.3203125,-31.73828125,-37.109375,-33.69140625,26.85546875,0.0
617.640625,-32.71484375,-37.109375,-32.71484375,-32.2265625,-29.296875,0.0
617.64453125,-39.55078125,-33.69140625,-31.73828125,-32.2265625,-165.0390625,0.0
617.6484375,-42.48046875,-25.87890625,-32.71484375,-32.71484375,-64.94140625,0.0
617.65234375,-40.52734375,-28.80859375,-36.62109375,-36.1328125,20.01953125,0.0
617.65625,-26.3671875,-27.83203125,-31.25,-33.69140625,9.27734375,0.0
617.66015625,-25.87890625,-27.34375,-31.25,-30.2734375,10.7421875,0.0
617.6640625,-44.43359375,-34.66796875,-43.45703125,-32.71484375,41.50390625,0.0
617.66796875,-48.33984375,-36.1328125,-41.50390625,-34.1796875,38.0859375,0.0
617.671875,-37.109375,-35.15625,-35.15625,-31.73828125,12.20703125,0.0
617.67578125,-20.99609375,-31.25,-30.2734375,-26.85546875,80.078125,0.0
617.6796875,-22.4609375,-29.78515625,-31.73828125,-29.296875,111.328125,0.0
617.68359375,-42.96875,-32.2265625,-32.2265625,-33.203125,43.45703125,0.0
617.6875,-46.875,-30.2734375,-28.3203125,-33.203125,39.0625,0.0
617.69140625,-36.62109375,-31.25,-33.69140625,-30.2734375,21.97265625,0.0
617.6953125,-28.3203125,-33.69140625,-35.64453125,-31.73828125,-23.4375,0.0
617.69921875,-28.3203125,-30.76171875,-27.83203125,-26.3671875,72.265625,0.0
617.703125,-34.1796875,-23.92578125,-13.671875,-14.16015625,2.9296875,0.0
617.70703125,-47.8515625,-30.76171875,-19.53125,-25.390625,-50.29296875,0.0
617.7109375,-44.921875,-39.0625,-34.1796875,-33.203125,14.16015625,0.0
617.71484375,-29.78515625,-36.1328125,-28.80859375,-25.390625,0.0,0.0
617.71875,-22.94921875,-31.25,-22.94921875,-19.53125,-39.55078125,0.0
617.72265625,-37.109375,-34.1796875,-29.78515625,-27.34375,-7.32421875,0.0
617.7265625,-50.78125,-39.0625,-30.76171875,-37.109375,-30.2734375,0.0
617.73046875,-42.96875,-40.52734375,-29.296875,-35.64453125,-144.04296875,0.0
617.734375,-27.83203125,-38.57421875,-30.76171875,-35.64453125,-88.37890625,0.0
617.73828125,-19.04296875,-34.66796875,-31.25,-35.15625,41.50390625,0.0
617.7421875,-31.25,-37.109375,-34.1796875,-36.62109375,31.25,0.0
617.74609375,-34.1796875,-27.34375,-25.390625,-33.203125,-41.50390625,0.0
617.75,-15.13671875,-15.625,-5.37109375,-22.94921875,-33.203125,0.0
617.75390625,-20.99609375,-29.78515625,-21.484375,-35.15625,-2.9296875,0.0
617.7578125,-29.78515625,-31.25,-35.64453125,-41.9921875,38.0859375,0.0
617.76171875,-36.1328125,-32.71484375,-33.203125,-43.45703125,94.7265625,0.0
617.765625,-43.45703125,-39.55078125,-38.0859375,-48.828125,47.8515625,0.0
617.76953125,-36.62109375,-39.0625,-37.59765625,-46.38671875,-9.765625,0.0
617.7734375,-25.390625,-37.109375,-30.2734375,-37.59765625,-36.62109375,0.0
617.77734375,-22.94921875,-33.69140625,-31.25,-33.203125,38.0859375,0.0
617.78125,-33.203125,-37.59765625,-37.109375,-41.50390625,88.37890625,0.0
617.78515625,-48.828125,-43.9453125,-41.50390625,-47.36328125,10.7421875,0.0
617.7890625,-47.36328125,-40.52734375,-35.64453125,-42.48046875,-51.26953125,0.0
617.79296875,-20.99609375,-27.83203125,-15.13671875,-26.85546875,-114.2578125,0.0
617.796875,-17.578125,-27.83203125,-23.92578125,-28.3203125,-77.63671875,0.0
617.80078125,-35.64453125,-34.66796875,-42.96875,-41.50390625,11.71875,0.0
617.8046875,-44.921875,-32.2265625,-41.9921875,-38.57421875,-19.04296875,0.0
617.80859375,-39.0625,-23.92578125,-16.6015625,-25.390625,-125.48828125,0.0
617.8125,-37.59765625,-31.73828125,-27.34375,-32.2265625,-108.3984375,0.0
617.81640625,-28.3203125,-38.57421875,-47.36328125,-31.73828125,-61.03515625,0.0
617.8203125,-28.3203125,-31.73828125,-39.55078125,-25.390625,-82.51953125,0.0
617.82421875,-39.55078125,-33.69140625,-36.1328125,-30.76171875,-83.0078125,0.0
617.828125,-41.015625,-40.52734375,-38.0859375,-31.73828125,-108.88671875,0.0
617.83203125,-35.15625,-38.0859375,-36.62109375,-30.2734375,-94.23828125,0.0
617.8359375,-23.4375,-35.15625,-32.71484375,-29.296875,-32.71484375,0.0
617.83984375,-23.92578125,-31.73828125,-35.64453125,-31.25,-39.55078125,0.0
617.84375,-41.50390625,-33.203125,-41.015625,-35.64453125,-57.6171875,0.0
617.84765625,-40.0390625,-31.25,-35.64453125,-38.57421875,-46.875,0.0
617.8515625,-17.08984375,-19.53125,-18.5546875,-33.203125,18.5546875,0.0
617.85546875,-8.30078125,-19.53125,-18.06640625,-25.87890625,37.59765625,0.0
617.859375,-27.83203125,-28.3203125,-33.203125,-35.15625,31.73828125,0.0
617.86328125,-44.921875,-30.76171875,-40.0390625,-36.1328125,-14.6484375,0.0
617.8671875,-47.36328125,-27.83203125,-26.3671875,-27.34375,-38.57421875,0.0
617.87109375,-36.1328125,-31.25,-33.203125,-25.390625,50.29296875,0.0
617.875,-8.30078125,-28.3203125,-44.921875,-14.6484375,42.96875,0.0
617.87890625,-13.18359375,-23.4375,-25.390625,-20.01953125,15.625,0.0
617.8828125,-40.52734375,-29.296875,-17.578125,-37.109375,5.37109375,0.0
617.88671875,-51.26953125,-32.2265625,-20.01953125,-38.57421875,-54.6875,0.0
617.890625,-51.7578125,-34.1796875,-19.04296875,-40.52734375,-93.75,0.0
617.89453125,-41.9921875,-41.015625,-16.6015625,-35.64453125,-57.12890625,0.0
617.8984375,-25.390625,-31.25,-1.953125,-20.01953125,21.484375,0.0
617.90234375,-37.59765625,-28.80859375,-11.71875,-32.2265625,61.5234375,0.0
617.90625,-61.5234375,-32.71484375,-32.2265625,-50.78125,-22.94921875,0.0
617.91015625,-62.01171875,-28.3203125,-23.4375,-52.24609375,-67.3828125,0.0
617.9140625,-41.9921875,-25.87890625,-17.578125,-43.45703125,10.25390625,0.0
617.91796875,-37.59765625,-28.3203125,-30.76171875,-43.45703125,43.45703125,0.0
617.921875,-49.31640625,-31.73828125,-37.59765625,-43.45703125,-51.7578125,0.0
617.92578125,-57.6171875,-31.73828125,-32.71484375,-40.52734375,-105.95703125,0.0
617.9296875,-46.875,-25.390625,-28.3203125,-40.0390625,-87.40234375,0.0
617.93359375,-34.1796875,-26.85546875,-32.2265625,-29.296875,-30.76171875,0.0
617.9375,-31.25,-31.25,-35.15625,-28.80859375,22.4609375,0.0
617.94140625,-45.8984375,-35.64453125,-38.57421875,-45.8984375,13.18359375,0.0
617.9453125,-56.640625,-35.64453125,-40.52734375,-47.36328125,27.34375,0.0
617.94921875,-45.41015625,-30.2734375,-38.0859375,-42.96875,36.1328125,0.0
617.953125,-33.69140625,-31.25,-38.57421875,-44.43359375,-20.99609375,0.0
617.95703125,-21.484375,-31.25,-38.57421875,-40.52734375,22.4609375,0.0
617.9609375,-28.80859375,-29.296875,-42.48046875,-41.9921875,62.5,0.0
617.96484375,-42.48046875,-27.83203125,-40.52734375,-41.9921875,-70.80078125,0.0
617.96875,-33.69140625,-24.90234375,-38.0859375,-35.64453125,-179.19921875,0.0
617.97265625,-16.11328125,-23.4375,-26.3671875,-26.85546875,-151.85546875,0.0
617.9765625,-11.71875,-24.90234375,-28.80859375,-24.90234375,-120.1171875,0.0
617.98046875,-23.92578125,-25.87890625,-38.57421875,-30.76171875,-136.23046875,0.0
617.984375,-36.1328125,-28.3203125,-35.15625,-32.2265625,-120.1171875,0.0
617.98828125,-34.66796875,-30.76171875,-18.5546875,-32.71484375,-146.484375,0.0
617.9921875,-34.1796875,-38.0859375,-24.4140625,-33.203125,-134.27734375,0.0
617.99609375,-24.90234375,-34.66796875,-35.15625,-31.73828125,-8.7890625,0.0
618.0,-24.4140625,-28.3203125,-34.66796875,-34.1796875,10.7421875,0.0
618.00390625,-38.57421875,-30.76171875,-37.109375,-38.0859375,-3.41796875,0.0
618.0078125,-37.59765625,-32.71484375,-39.55078125,-36.1328125,-45.41015625,0.0
618.01171875,-34.66796875,-32.71484375,-39.0625,-33.203125,-20.01953125,0.0
618.015625,-22.94921875,-27.34375,-30.76171875,-32.2265625,67.3828125,0.0
618.01953125,-19.04296875,-21.484375,-24.90234375,-30.2734375,58.59375,0.0
618.0234375,-36.62109375,-25.390625,-37.109375,-35.15625,-23.92578125,0.0
618.02734375,-43.45703125,-28.80859375,-39.55078125,-35.64453125,-65.4296875,0.0
618.03125,-33.203125,-32.2265625,-21.97265625,-27.83203125,-16.6015625,0.0
618.03515625,-22.4609375,-32.71484375,-9.765625,-28.3203125,18.06640625,0.0
618.0390625,-30.76171875,-34.1796875,-27.34375,-37.109375,-47.36328125,0.0
618.04296875,-43.45703125,-35.15625,-37.59765625,-34.66796875,-35.15625,0.0
618.046875,-47.8515625,-36.1328125,-34.1796875,-30.76171875,-13.18359375,0.0
618.05078125,-43.9453125,-37.109375,-33.69140625,-35.15625,-68.84765625,0.0
618.0546875,-30.76171875,-34.66796875,-34.66796875,-37.109375,-77.1484375,0.0
618.05859375,-28.3203125,-32.2265625,-34.1796875,-38.57421875,-61.5234375,0.0
618.0625,-46.875,-32.2265625,-33.203125,-39.55078125,-33.69140625,0.0
618.06640625,-58.59375,-34.1796875,-34.1796875,-37.109375,-142.578125,0.0
618.0703125,-46.875,-32.71484375,-32.71484375,-33.203125,-126.953125,0.0
618.07421875,-37.59765625,-32.2265625,-29.296875,-36.1328125,29.296875,0.0
618.078125,-28.3203125,-29.296875,-17.08984375,-36.62109375,23.4375,0.0
618.08203125,-28.3203125,-30.2734375,-18.06640625,-39.55078125,-3.90625,0.0
618.0859375,-48.33984375,-35.15625,-29.296875,-44.921875,-45.8984375,0.0
618.08984375,-41.015625,-32.2265625,-27.34375,-40.52734375,-66.89453125,0.0
618.09375,-21.484375,-29.78515625,-23.92578125,-34.66796875,48.33984375,0.0
618.09765625,-21.97265625,-33.69140625,-31.25,-36.62109375,127.9296875,0.0
618.1015625,-29.296875,-34.66796875,-32.2265625,-37.59765625,48.33984375,0.0
618.10546875,-37.109375,-35.15625,-31.73828125,-36.1328125,46.875,0.0
618.109375,-33.69140625,-27.83203125,-35.15625,-36.1328125,99.609375,0.0
618.11328125,-21.97265625,-23.4375,-36.62109375,-34.1796875,75.68359375,0.0
618.1171875,-20.01953125,-25.390625,-35.64453125,-33.69140625,-53.7109375,0.0
618.12109375,-27.83203125,-23.92578125,-21.97265625,-32.71484375,-67.87109375,0.0
618.125,-31.73828125,-21.484375,-15.625,-30.2734375,-41.50390625,0.0
618.12890625,-38.57421875,-29.296875,-31.25,-32.2265625,-58.10546875,0.0
618.1328125,-30.2734375,-31.73828125,-35.15625,-33.203125,-62.5,0.0
618.13671875,-16.6015625,-28.3203125,-31.25,-27.83203125,-39.0625,0.0
618.140625,-17.08984375,-27.34375,-33.203125,-29.296875,-53.22265625,0.0
618.14453125,-35.15625,-30.76171875,-40.0390625,-36.62109375,-88.37890625,0.0
618.1484375,-41.50390625,-30.76171875,-42.48046875,-32.71484375,-99.609375,0.0
618.15234375,-27.83203125,-27.83203125,-36.1328125,-29.296875,-23.4375,0.0
618.15625,-21.484375,-29.78515625,-31.73828125,-24.90234375,8.30078125,0.0
618.16015625,-29.296875,-32.2265625,-34.1796875,-25.390625,-54.6875,0.0
618.1640625,-39.0625,-32.2265625,-33.69140625,-26.3671875,-98.6328125,0.0
618.16796875,-40.0390625,-26.85546875,-18.5546875,-21.484375,-92.28515625,0.0
618.171875,-29.296875,-29.78515625,-20.99609375,-22.4609375,-113.28125,0.0
618.17578125,-16.6015625,-33.69140625,-30.2734375,-17.578125,-141.11328125,0.0
618.1796875,-18.5546875,-30.2734375,-30.2734375,-20.5078125,-75.1953125,0.0
618.18359375,-30.2734375,-27.83203125,-26.85546875,-26.85546875,-55.17578125,0.0
618.1875,-41.50390625,-28.80859375,-32.2265625,-33.203125,-73.2421875,0.0
618.19140625,-37.59765625,-31.25,-35.15625,-36.62109375,2.9296875,0.0
618.1953125,-21.97265625,-30.2734375,-26.3671875,-32.2265625,-16.11328125,0.0
618.19921875,-24.4140625,-30.2734375,-25.87890625,-32.2265625,-83.0078125,0.0
618.203125,-37.109375,-33.203125,-27.83203125,-31.73828125,-139.16015625,0.0
618.20703125,-43.45703125,-36.1328125,-29.296875,-38.0859375,-185.05859375,0.0
618.2109375,-35.15625,-31.25,-26.3671875,-36.62109375,-95.21484375,0.0
618.21484375,-21.97265625,-25.87890625,-23.92578125,-24.4140625,-18.06640625,0.0
618.21875,-32.2265625,-36.62109375,-34.66796875,-34.1796875,-15.13671875,0.0
618.22265625,-43.9453125,-43.45703125,-36.62109375,-39.0625,-28.80859375,0.0
618.2265625,-39.0625,-36.62109375,-26.85546875,-26.85546875,-70.3125,0.0
618.23046875,-36.1328125,-34.1796875,-25.390625,-29.296875,-55.6640625,0.0
618.234375,-33.203125,-34.66796875,-29.296875,-38.57421875,-6.34765625,0.0
618.23828125,-29.78515625,-36.1328125,-33.69140625,-32.71484375,13.671875,0.0
618.2421875,-34.1796875,-37.109375,-39.55078125,-28.80859375,-37.109375,0.0
618.24609375,-35.64453125,-29.78515625,-32.71484375,-27.34375,-13.671875,0.0
618.25,-32.2265625,-30.2734375,-26.3671875,-24.4140625,5.859375,0.0
618.25390625,-24.4140625,-34.1796875,-27.83203125,-29.296875,-33.203125,0.0
618.2578125,-16.6015625,-19.04296875,-17.578125,-22.4609375,-88.8671875,0.0
618.26171875,-32.71484375,-19.53125,-25.87890625,-29.78515625,-60.546875,0.0
618.265625,-54.6875,-32.2265625,-38.57421875,-41.50390625,-39.55078125,0.0
618.26953125,-47.36328125,-30.2734375,-33.69140625,-35.15625,-35.64453125,0.0
618.2734375,-23.92578125,-21.97265625,-18.06640625,-27.83203125,103.515625,0.0
618.27734375,-21.484375,-23.92578125,-25.87890625,-37.59765625,187.98828125,0.0
618.28125,-38.0859375,-30.2734375,-37.59765625,-44.43359375,143.5546875,0.0
618.28515625,-43.9453125,-28.80859375,-32.2265625,-35.64453125,80.078125,0.0
618.2890625,-37.59765625,-25.87890625,-32.71484375,-31.25,-38.57421875,0.0
618.29296875,-34.1796875,-29.78515625,-35.15625,-31.73828125,-40.0390625,0.0
618.296875,-30.76171875,-35.15625,-37.59765625,-30.76171875,-0.9765625,0.0
618.30078125,-31.73828125,-34.1796875,-35.64453125,-28.3203125,-18.5546875,0.0
618.3046875,-43.9453125,-33.203125,-35.64453125,-29.78515625,-58.59375,0.0
618.30859375,-46.875,-35.15625,-39.55078125,-31.25,-65.91796875,0.0
618.3125,-34.66796875,-37.109375,-39.55078125,-30.76171875,-5.859375,0.0
618.31640625,-24.4140625,-34.1796875,-25.390625,-28.80859375,33.69140625,0.0
618.3203125,-29.78515625,-29.78515625,-22.94921875,-28.3203125,44.921875,0.0
618.32421875,-42.48046875,-36.62109375,-41.015625,-36.1328125,57.6171875,0.0
618.328125,-41.9921875,-41.015625,-38.57421875,-41.015625,-5.37109375,0.0
618.33203125,-31.73828125,-41.015625,-34.1796875,-40.0390625,-117.67578125,0.0
618.3359375,-19.53125,-35.64453125,-33.69140625,-36.1328125,-80.078125,0.0
618.33984375,-27.34375,-33.69140625,-30.2734375,-35.64453125,-9.765625,0.0
618.34375,-42.96875,-37.109375,-30.76171875,-41.015625,16.6015625,0.0
618.34765625,-44.921875,-36.62109375,-32.2265625,-41.50390625,68.84765625,0.0
618.3515625,-39.55078125,-35.15625,-28.3203125,-38.57421875,-52.24609375,0.0
618.35546875,-31.25,-35.64453125,-30.2734375,-40.0390625,-95.21484375,0.0
618.359375,-29.296875,-39.0625,-40.0390625,-41.50390625,-10.25390625,0.0
618.36328125,-34.1796875,-34.1796875,-25.87890625,-34.1796875,13.18359375,0.0
618.3671875,-37.59765625,-28.3203125,-19.04296875,-27.83203125,-60.546875,0.0
618.37109375,-39.55078125,-41.015625,-36.1328125,-39.0625,-147.4609375,0.0
618.375,-25.87890625,-38.0859375,-32.71484375,-40.52734375,-68.359375,0.0
618.37890625,-27.34375,-31.25,-30.2734375,-34.66796875,3.90625,0.0
618.3828125,-38.0859375,-35.15625,-36.62109375,-40.52734375,24.4140625,0.0
618.38671875,-39.55078125,-33.69140625,-38.0859375,-41.015625,44.921875,0.0
618.390625,-40.0390625,-34.66796875,-36.62109375,-39.0625,88.37890625,0.0
618.39453125,-34.1796875,-34.66796875,-39.55078125,-43.9453125,78.125,0.0
618.3984375,-33.69140625,-29.296875,-42.96875,-48.33984375,50.78125,0.0
618.40234375,-46.38671875,-35.64453125,-44.43359375,-49.8046875,100.5859375,0.0
618.40625,-48.33984375,-36.1328125,-33.203125,-38.57421875,52.734375,0.0
618.41015625,-39.55078125,-29.78515625,-23.92578125,-29.296875,15.13671875,0.0
618.4140625,-35.15625,-40.52734375,-38.0859375,-40.52734375,19.04296875,0.0
618.41796875,-28.3203125,-41.50390625,-41.9921875,-40.52734375,59.08203125,0.0
618.421875,-31.25,-29.296875,-32.71484375,-35.64453125,-5.37109375,0.0
618.42578125,-48.828125,-33.203125,-42.48046875,-48.33984375,-120.1171875,0.0
618.4296875,-49.8046875,-36.1328125,-46.38671875,-47.8515625,-81.54296875,0.0
618.43359375,-32.2265625,-30.76171875,-38.0859375,-41.9921875,-7.8125,0.0
618.4375,-27.34375,-31.73828125,-39.55078125,-43.45703125,-17.578125,0.0
618.44140625,-35.15625,-30.76171875,-39.0625,-50.29296875,0.0,0.0
618.4453125,-46.875,-30.76171875,-40.0390625,-55.17578125,-63.4765625,0.0
618.44921875,-39.0625,-30.2734375,-31.73828125,-44.43359375,-76.171875,0.0
618.453125,-10.25390625,-18.5546875,-11.23046875,-23.92578125,-72.75390625,0.0
618.45703125,-13.18359375,-26.3671875,-26.3671875,-29.296875,-74.21875,0.0
618.4609375,-35.64453125,-36.1328125,-44.43359375,-40.0390625,-29.78515625,0.0
618.46484375,-51.26953125,-32.71484375,-38.57421875,-38.57421875,-40.0390625,0.0
618.46875,-48.33984375,-34.1796875,-26.85546875,-30.76171875,-143.06640625,0.0
618.47265625,-47.36328125,-38.0859375,-30.2734375,-32.2265625,-77.1484375,0.0
618.4765625,-47.36328125,-37.59765625,-37.59765625,-40.0390625,77.63671875,0.0
618.48046875,-46.38671875,-40.52734375,-39.0625,-39.55078125,48.828125,0.0
618.484375,-55.6640625,-43.9453125,-39.55078125,-43.9453125,27.83203125,0.0
618.48828125,-53.22265625,-43.45703125,-40.52734375,-44.43359375,-17.08984375,0.0
618.4921875,-43.9453125,-41.9921875,-40.0390625,-35.64453125,-112.79296875,0.0
618.49609375,-24.90234375,-29.296875,-24.90234375,-27.34375,-38.57421875,0.0
618.5,-18.06640625,-21.484375,-20.01953125,-27.83203125,0.48828125,0.0
618.50390625,-41.015625,-32.2265625,-37.109375,-42.96875,-53.22265625,0.0
618.5078125,-44.921875,-34.1796875,-35.15625,-41.015625,-63.96484375,0.0
618.51171875,-28.3203125,-28.80859375,-30.76171875,-26.3671875,-66.89453125,0.0
618.515625,-14.6484375,-28.80859375,-32.2265625,-27.34375,-53.7109375,0.0
618.51953125,-19.04296875,-31.73828125,-32.2265625,-35.15625,-44.43359375,0.0
618.5234375,-32.2265625,-30.2734375,-28.3203125,-33.203125,-59.5703125,0.0
618.52734375,-31.73828125,-28.3203125,-20.5078125,-23.4375,-57.12890625,0.0
618.53125,-27.83203125,-33.203125,-23.4375,-24.4140625,-28.80859375,0.0
618.53515625,-24.4140625,-32.2265625,-28.80859375,-26.85546875,59.08203125,0.0
618.5390625,-25.87890625,-26.85546875,-29.78515625,-23.92578125,110.83984375,0.0
618.54296875,-37.59765625,-25.87890625,-19.53125,-25.87890625,89.84375,0.0
618.546875,-45.8984375,-33.69140625,-21.484375,-29.296875,49.31640625,0.0
618.55078125,-41.9921875,-36.1328125,-33.69140625,-27.34375,1.46484375,0.0
618.5546875,-27.34375,-26.85546875,-27.34375,-28.3203125,-56.640625,0.0
618.55859375,-25.87890625,-22.4609375,-16.6015625,-26.85546875,-96.19140625,0.0
618.5625,-47.36328125,-37.109375,-31.73828125,-38.0859375,-56.640625,0.0
618.56640625,-59.08203125,-41.015625,-38.57421875,-47.36328125,-14.6484375,0.0
618.5703125,-51.7578125,-35.15625,-31.73828125,-40.0390625,-13.671875,0.0
618.57421875,-32.2265625,-31.73828125,-32.71484375,-41.015625,61.5234375,0.0
618.578125,-25.390625,-33.69140625,-32.71484375,-46.38671875,79.58984375,0.0
618.58203125,-35.15625,-38.0859375,-38.0859375,-44.43359375,24.90234375,0.0
618.5859375,-32.2265625,-25.87890625,-29.296875,-39.55078125,12.20703125,0.0
618.58984375,-15.13671875,-17.578125,-13.671875,-31.25,3.90625,0.0
618.59375,-11.23046875,-23.92578125,-23.92578125,-29.78515625,-39.55078125,0.0
618.59765625,-19.53125,-33.203125,-29.296875,-33.203125,-18.5546875,0.0
618.6015625,-23.4375,-33.69140625,-28.80859375,-33.69140625,-37.109375,0.0
618.60546875,-30.2734375,-30.76171875,-29.78515625,-33.69140625,-84.47265625,0.0
618.609375,-35.15625,-30.76171875,-33.69140625,-33.69140625,-44.921875,0.0
618.61328125,-29.296875,-31.25,-36.62109375,-33.203125,-11.71875,0.0
618.6171875,-22.94921875,-33.203125,-39.0625,-33.203125,51.7578125,0.0
618.62109375,-33.203125,-32.2265625,-39.0625,-31.25,121.58203125,0.0
618.625,-47.8515625,-34.1796875,-38.57421875,-33.69140625,65.4296875,0.0
618.62890625,-46.38671875,-38.57421875,-35.15625,-34.1796875,28.3203125,0.0
618.6328125,-38.0859375,-36.62109375,-31.25,-32.71484375,12.20703125,0.0
618.63671875,-34.66796875,-32.2265625,-33.69140625,-37.109375,85.44921875,0.0
618.640625,-42.96875,-35.64453125,-35.15625,-41.015625,66.89453125,0.0
618.64453125,-52.734375,-36.62109375,-35.64453125,-40.0390625,-45.8984375,0.0
618.6484375,-23.92578125,-12.6953125,-9.765625,-14.6484375,-1.46484375,0.0
618.65234375,-3.41796875,-2.44140625,3.90625,-3.90625,8.7890625,0.0
618.65625,-16.6015625,-25.390625,-26.85546875,-24.90234375,-86.42578125,0.0
618.66015625,-30.2734375,-36.1328125,-39.55078125,-34.1796875,-76.66015625,0.0
618.6640625,-41.9921875,-33.69140625,-33.203125,-37.109375,-18.06640625,0.0
618.66796875,-41.015625,-32.71484375,-33.203125,-42.96875,-59.08203125,0.0
618.671875,-29.78515625,-31.25,-38.57421875,-44.921875,-139.6484375,0.0
618.67578125,-21.97265625,-30.2734375,-35.64453125,-42.96875,-134.27734375,0.0
618.6796875,-27.34375,-27.34375,-34.66796875,-37.59765625,-90.33203125,0.0
618.68359375,-36.62109375,-26.85546875,-40.52734375,-35.15625,-90.33203125,0.0
618.6875,-38.57421875,-30.2734375,-41.50390625,-35.15625,-114.2578125,0.0
618.69140625,-22.94921875,-24.4140625,-23.4375,-28.80859375,-165.0390625,0.0
618.6953125,-2.9296875,-15.13671875,-6.34765625,-18.5546875,-144.04296875,0.0
618.69921875,-20.99609375,-26.85546875,-28.3203125,-29.296875,28.80859375,0.0
618.703125,-40.52734375,-38.0859375,-36.1328125,-40.52734375,36.62109375,0.0
618.70703125,-41.50390625,-36.1328125,-32.2265625,-34.66796875,-115.234375,0.0
618.7109375,-38.57421875,-34.1796875,-34.1796875,-29.78515625,-23.92578125,0.0
618.71484375,-27.83203125,-30.2734375,-33.69140625,-28.3203125,64.94140625,0.0
618.71875,-28.80859375,-29.78515625,-33.69140625,-30.76171875,17.08984375,0.0
618.72265625,-40.0390625,-35.15625,-34.66796875,-31.25,-85.44921875,0.0
618.7265625,-43.45703125,-34.66796875,-32.2265625,-29.296875,-231.93359375,0.0
618.73046875,-38.0859375,-32.71484375,-33.203125,-31.25,-239.74609375,0.0
618.734375,-29.78515625,-34.1796875,-31.25,-28.3203125,-165.52734375,0.0
618.73828125,-8.7890625,-19.53125,-6.8359375,-10.25390625,-170.8984375,0.0
618.7421875,-20.01953125,-19.53125,-14.6484375,-22.4609375,-169.921875,0.0
618.74609375,-45.8984375,-29.296875,-33.69140625,-41.9921875,-210.44921875,0.0
618.75,-37.109375,-28.3203125,-25.390625,-30.2734375,-226.5625,0.0
618.75390625,-17.578125,-22.4609375,-7.8125,-20.99609375,-175.29296875,0.0
618.7578125,-22.4609375,-21.97265625,-20.5078125,-27.83203125,-68.359375,0.0
618.76171875,-37.59765625,-28.80859375,-31.25,-42.96875,22.4609375,0.0
618.765625,-38.57421875,-33.203125,-25.87890625,-40.0390625,-67.3828125,0.0
618.76953125,-39.55078125,-33.203125,-27.34375,-33.69140625,-139.16015625,0.0
618.7734375,-30.76171875,-30.76171875,-28.80859375,-33.69140625,-121.58203125,0.0
618.77734375,-21.484375,-30.76171875,-30.2734375,-29.78515625,-55.6640625,0.0
618.78125,-33.203125,-31.25,-20.99609375,-26.85546875,51.26953125,0.0
618.78515625,-42.96875,-31.73828125,-16.11328125,-24.90234375,101.07421875,0.0
618.7890625,-41.015625,-37.109375,-33.203125,-25.390625,113.76953125,0.0
618.79296875,-34.1796875,-36.1328125,-36.62109375,-27.83203125,137.20703125,0.0
618.796875,-26.3671875,-34.66796875,-30.2734375,-28.3203125,98.14453125,0.0
618.80078125,-32.71484375,-34.1796875,-27.34375,-28.80859375,43.45703125,0.0
618.8046875,-42.96875,-38.57421875,-33.203125,-30.76171875,-2.44140625,0.0
618.80859375,-42.96875,-41.9921875,-32.2265625,-36.62109375,-1.46484375,0.0
618.8125,-25.390625,-29.78515625,-19.53125,-33.203125,15.13671875,0.0
618.81640625,-16.11328125,-31.25,-27.83203125,-32.2265625,60.546875,0.0
618.8203125,-28.80859375,-35.64453125,-39.55078125,-43.45703125,94.23828125,0.0
618.82421875,-46.38671875,-38.57421875,-39.55078125,-48.828125,22.4609375,0.0
618.828125,-43.45703125,-41.015625,-30.2734375,-42.48046875,-71.77734375,0.0
618.83203125,-30.76171875,-39.55078125,-39.55078125,-40.52734375,-4.8828125,0.0
618.8359375,-24.4140625,-40.52734375,-49.8046875,-43.9453125,31.73828125,0.0
618.83984375,-20.5078125,-37.109375,-42.96875,-33.203125,20.01953125,0.0
618.84375,-31.73828125,-27.83203125,-25.87890625,-31.25,72.75390625,0.0
618.84765625,-61.5234375,-37.109375,-28.3203125,-58.59375,136.23046875,0.0
618.8515625,-57.12890625,-45.8984375,-38.57421875,-56.15234375,2.9296875,0.0
618.85546875,-39.0625,-35.64453125,-34.1796875,-37.59765625,-103.02734375,0.0
618.859375,-50.78125,-32.71484375,-27.83203125,-44.921875,-22.4609375,0.0
618.86328125,-71.77734375,-37.59765625,-28.80859375,-60.05859375,-33.203125,0.0
618.8671875,-76.171875,-34.66796875,-29.78515625,-54.19921875,-103.02734375,0.0
618.87109375,-55.17578125,-22.4609375,-15.13671875,-34.66796875,-50.78125,0.0
618.875,-39.0625,-17.08984375,-1.953125,-25.390625,-9.765625,0.0
618.87890625,-47.8515625,-30.76171875,-19.53125,-31.73828125,7.32421875,0.0
618.8828125,-57.12890625,-33.69140625,-31.73828125,-38.57421875,18.5546875,0.0
618.88671875,-58.10546875,-30.2734375,-32.2265625,-45.41015625,9.765625,0.0
618.890625,-43.45703125,-31.73828125,-31.25,-44.921875,-30.76171875,0.0
618.89453125,-25.87890625,-29.78515625,-27.83203125,-35.64453125,-38.0859375,0.0
618.8984375,-25.390625,-28.3203125,-28.3203125,-40.0390625,31.73828125,0.0
618.90234375,-38.0859375,-31.25,-29.296875,-47.8515625,41.9921875,0.0
618.90625,-44.921875,-29.78515625,-26.3671875,-42.48046875,40.0390625,0.0
618.91015625,-41.50390625,-27.83203125,-33.203125,-42.48046875,48.33984375,0.0
618.9140625,-29.78515625,-32.71484375,-35.64453125,-44.43359375,50.29296875,0.0
618.91796875,-11.71875,-20.01953125,-4.8828125,-24.4140625,49.31640625,0.0
618.921875,-25.87890625,-17.08984375,-3.41796875,-21.484375,32.2265625,0.0
618.92578125,-53.22265625,-35.15625,-31.73828125,-38.57421875,-57.6171875,0.0
618.9296875,-41.50390625,-36.1328125,-28.3203125,-33.69140625,-83.0078125,0.0
618.93359375,-22.4609375,-32.2265625,-15.13671875,-23.92578125,-34.1796875,0.0
618.9375,-36.62109375,-41.015625,-35.15625,-32.2265625,-10.25390625,0.0
618.94140625,-43.9453125,-43.45703125,-42.96875,-38.0859375,24.90234375,0.0
618.9453125,-46.875,-40.52734375,-33.69140625,-35.64453125,-33.203125,0.0
618.94921875,-42.48046875,-37.109375,-30.76171875,-35.64453125,-83.0078125,0.0
618.953125,-28.80859375,-39.55078125,-34.1796875,-44.43359375,-19.04296875,0.0
618.95703125,-23.92578125,-41.015625,-37.59765625,-41.9921875,-5.859375,0.0
618.9609375,-22.4609375,-27.83203125,-23.92578125,-22.94921875,-23.92578125,0.0
618.96484375,-30.76171875,-24.4140625,-26.85546875,-26.85546875,-24.4140625,0.0
618.96875,-34.66796875,-30.76171875,-40.52734375,-38.57421875,-64.453125,0.0
618.97265625,-29.78515625,-34.1796875,-37.59765625,-43.9453125,-98.14453125,0.0
618.9765625,-16.6015625,-25.390625,-20.01953125,-29.78515625,-49.8046875,0.0
618.98046875,-15.13671875,-14.6484375,-9.765625,-20.01953125,51.26953125,0.0
618.984375,-41.9921875,-30.76171875,-29.78515625,-39.0625,98.6328125,0.0
618.98828125,-49.31640625,-39.55078125,-36.1328125,-45.8984375,11.71875,0.0
618.9921875,-40.0390625,-37.109375,-37.109375,-43.9453125,-35.64453125,0.0
618.99609375,-31.73828125,-35.15625,-42.48046875,-44.921875,3.90625,0.0
619.0,-37.59765625,-38.0859375,-42.48046875,-46.875,-62.5,0.0
619.00390625,-45.8984375,-36.1328125,-39.0625,-41.50390625,-70.80078125,0.0
619.0078125,-39.55078125,-27.83203125,-32.2265625,-31.73828125,-75.68359375,0.0
619.01171875,-31.25,-27.34375,-34.66796875,-30.2734375,-90.33203125,0.0
619.015625,-24.90234375,-33.69140625,-36.1328125,-27.83203125,-13.671875,0.0
619.01953125,-27.34375,-31.73828125,-34.66796875,-23.4375,56.15234375,0.0
619.0234375,-28.3203125,-13.671875,-12.6953125,-17.578125,9.27734375,0.0
619.02734375,-32.71484375,-17.578125,-8.30078125,-25.87890625,-73.2421875,0.0
619.03125,-36.62109375,-34.1796875,-30.2734375,-36.62109375,-92.7734375,0.0
619.03515625,-28.3203125,-38.0859375,-31.73828125,-38.0859375,-75.1953125,0.0
619.0390625,-29.78515625,-36.62109375,-32.71484375,-36.1328125,-45.8984375,0.0
619.04296875,-43.45703125,-39.55078125,-41.50390625,-39.55078125,-8.7890625,0.0
619.046875,-51.26953125,-42.48046875,-39.55078125,-41.015625,70.3125,0.0
619.05078125,-41.9921875,-38.0859375,-35.15625,-36.62109375,71.77734375,0.0
619.0546875,-29.78515625,-36.62109375,-36.62109375,-37.109375,-68.359375,0.0
619.05859375,-33.203125,-40.0390625,-37.109375,-43.9453125,-87.890625,0.0
619.0625,-45.8984375,-42.48046875,-40.0390625,-42.96875,-44.43359375,0.0
619.06640625,-44.921875,-33.69140625,-25.87890625,-35.15625,-73.2421875,0.0
619.0703125,-34.1796875,-29.296875,-18.06640625,-30.2734375,-84.47265625,0.0
619.07421875,-25.390625,-32.71484375,-32.71484375,-33.69140625,-86.42578125,0.0
619.078125,-24.4140625,-33.69140625,-34.66796875,-36.62109375,-22.94921875,0.0
619.08203125,-31.73828125,-30.2734375,-27.34375,-37.109375,33.203125,0.0
619.0859375,-44.43359375,-32.71484375,-31.73828125,-44.43359375,-8.30078125,0.0
619.08984375,-40.52734375,-36.62109375,-40.0390625,-42.96875,-2.44140625,0.0
619.09375,-25.390625,-36.1328125,-36.1328125,-37.109375,-20.99609375,0.0
619.09765625,-24.90234375,-33.203125,-34.66796875,-38.57421875,-21.97265625,0.0
619.1015625,-37.109375,-31.73828125,-30.76171875,-36.62109375,-19.04296875,0.0
619.10546875,-45.41015625,-37.109375,-31.25,-38.0859375,-54.6875,0.0
619.109375,-32.71484375,-32.71484375,-31.25,-36.1328125,-99.12109375,0.0
619.11328125,-10.7421875,-16.11328125,-10.25390625,-20.01953125,-51.26953125,0.0
619.1171875,-16.11328125,-20.99609375,-17.578125,-25.390625,-25.87890625,0.0
619.12109375,-36.1328125,-33.203125,-41.50390625,-41.9921875,21.97265625,0.0
619.125,-42.48046875,-22.4609375,-32.2265625,-42.48046875,31.73828125,0.0
619.12890625,-32.71484375,-11.23046875,-19.53125,-32.71484375,17.578125,0.0
619.1328125,-29.296875,-18.06640625,-31.25,-31.73828125,20.01953125,0.0
619.13671875,-21.484375,-20.99609375,-33.203125,-29.296875,33.203125,0.0
619.140625,-20.01953125,-24.4140625,-32.2265625,-30.2734375,24.4140625,0.0
619.14453125,-35.64453125,-30.2734375,-27.83203125,-39.55078125,0.48828125,0.0
619.1484375,-39.0625,-31.25,-26.85546875,-41.9921875,2.44140625,0.0
619.15234375,-30.76171875,-35.15625,-33.69140625,-37.59765625,-46.875,0.0
619.15625,-16.11328125,-31.25,-25.87890625,-25.87890625,-71.2890625,0.0
619.16015625,-20.01953125,-25.87890625,-20.01953125,-25.390625,-9.27734375,0.0
619.1640625,-42.96875,-37.59765625,-38.0859375,-37.59765625,26.85546875,0.0
619.16796875,-41.015625,-40.52734375,-39.0625,-35.64453125,10.7421875,0.0
619.171875,-30.76171875,-40.52734375,-34.1796875,-34.1796875,0.48828125,0.0
619.17578125,-28.80859375,-41.50390625,-39.0625,-39.0625,1.953125,0.0
619.1796875,-34.1796875,-41.015625,-41.9921875,-37.59765625,-1.46484375,0.0
619.18359375,-41.9921875,-41.50390625,-40.52734375,-41.015625,-50.78125,0.0
619.1875,-36.62109375,-39.55078125,-35.15625,-35.15625,-141.6015625,0.0
619.19140625,-22.94921875,-38.0859375,-31.73828125,-23.4375,-152.83203125,0.0
619.1953125,-17.08984375,-35.64453125,-33.203125,-24.4140625,-117.1875,0.0
619.19921875,-19.04296875,-33.69140625,-35.64453125,-25.390625,-69.3359375,0.0
619.203125,-15.625,-22.4609375,-15.625,-9.765625,-36.62109375,0.0
619.20703125,-25.87890625,-25.390625,-20.01953125,-11.23046875,-32.71484375,0.0
619.2109375,-37.109375,-39.0625,-42.48046875,-31.25,-56.640625,0.0
619.21484375,-29.78515625,-35.64453125,-36.1328125,-34.66796875,-29.78515625,0.0
619.21875,-29.296875,-26.85546875,-28.80859375,-27.83203125,-13.18359375,0.0
619.22265625,-43.45703125,-32.2265625,-33.203125,-28.80859375,-2.9296875,0.0
619.2265625,-50.78125,-34.66796875,-36.1328125,-27.34375,-12.20703125,0.0
619.23046875,-41.9921875,-28.3203125,-39.0625,-28.3203125,-34.1796875,0.0
619.234375,-24.4140625,-27.34375,-39.55078125,-28.3203125,31.73828125,0.0
619.23828125,-22.94921875,-30.2734375,-37.109375,-24.90234375,59.08203125,0.0
619.2421875,-39.0625,-35.15625,-41.50390625,-30.76171875,-16.6015625,0.0
619.24609375,-36.62109375,-23.92578125,-28.80859375,-19.04296875,-74.21875,0.0
619.25,-15.625,-8.30078125,-3.90625,-0.48828125,-33.69140625,0.0
619.25390625,-19.04296875,-27.34375,-23.92578125,-17.08984375,40.0390625,0.0
619.2578125,-23.4375,-37.109375,-35.15625,-28.3203125,0.0,0.0
619.26171875,-29.78515625,-31.25,-24.4140625,-24.4140625,-62.98828125,0.0
619.265625,-43.9453125,-33.69140625,-31.73828125,-27.83203125,-93.26171875,0.0
619.26953125,-45.41015625,-39.0625,-37.109375,-37.109375,-60.546875,0.0
619.2734375,-31.25,-36.1328125,-33.203125,-31.25,-76.171875,0.0
619.27734375,-23.4375,-29.296875,-35.64453125,-24.90234375,-105.46875,0.0
619.28125,-37.59765625,-34.66796875,-36.1328125,-30.2734375,-95.703125,0.0
619.28515625,-59.08203125,-43.45703125,-36.1328125,-33.69140625,-73.73046875,0.0
619.2890625,-51.26953125,-39.55078125,-27.34375,-24.4140625,-144.04296875,0.0
619.29296875,-16.11328125,-23.4375,-12.6953125,-6.34765625,-125.48828125,0.0
619.296875,-20.5078125,-31.73828125,-25.87890625,-19.53125,-75.1953125,0.0
619.30078125,-47.8515625,-49.31640625,-40.52734375,-38.0859375,-115.234375,0.0
619.3046875,-53.22265625,-45.8984375,-35.64453125,-35.64453125,-139.16015625,0.0
619.30859375,-33.203125,-28.80859375,-13.671875,-20.5078125,-220.21484375,0.0
619.3125,-30.76171875,-31.73828125,-21.484375,-24.4140625,-226.07421875,0.0
619.31640625,-38.0859375,-42.96875,-43.45703125,-35.15625,-138.671875,0.0
619.3203125,-39.0625,-41.015625,-40.52734375,-32.2265625,-97.65625,0.0
619.32421875,-45.41015625,-37.109375,-36.62109375,-33.203125,-88.8671875,0.0
619.328125,-45.41015625,-40.52734375,-38.57421875,-36.1328125,-127.44140625,0.0
619.33203125,-37.59765625,-40.0390625,-39.0625,-35.15625,-126.953125,0.0
619.3359375,-27.83203125,-33.203125,-33.203125,-25.390625,-113.28125,0.0
619.33984375,-37.109375,-37.59765625,-33.69140625,-22.94921875,-101.5625,0.0
619.34375,-49.8046875,-41.50390625,-37.109375,-33.203125,31.25,0.0
619.34765625,-41.015625,-37.109375,-31.73828125,-27.83203125,45.41015625,0.0
619.3515625,-19.04296875,-26.3671875,-17.578125,-14.16015625,23.4375,0.0
619.35546875,-11.71875,-22.94921875,-20.99609375,-18.06640625,59.08203125,0.0
619.359375,-25.87890625,-31.25,-39.0625,-31.25,61.5234375,0.0
619.36328125,-38.0859375,-30.76171875,-36.1328125,-35.64453125,-23.92578125,0.0
619.3671875,-33.69140625,-21.484375,-26.3671875,-24.90234375,54.6875,0.0
619.37109375,-29.78515625,-25.390625,-33.203125,-31.73828125,36.1328125,0.0
619.375,-23.92578125,-29.78515625,-38.57421875,-38.0859375,36.1328125,0.0
619.37890625,-23.4375,-30.2734375,-40.52734375,-33.69140625,91.796875,0.0
619.3828125,-32.71484375,-30.2734375,-36.1328125,-36.1328125,45.41015625,0.0
619.38671875,-38.0859375,-26.85546875,-40.52734375,-37.109375,-22.4609375,0.0
619.390625,-27.83203125,-25.390625,-42.48046875,-36.62109375,-45.41015625,0.0
619.39453125,-13.18359375,-25.390625,-34.66796875,-35.64453125,-19.04296875,0.0
619.3984375,-2.9296875,-15.625,-22.4609375,-22.4609375,7.8125,0.0
619.40234375,-19.04296875,-18.5546875,-33.203125,-28.80859375,17.578125,0.0
619.40625,-43.45703125,-34.1796875,-44.921875,-42.96875,-9.27734375,0.0
619.41015625,-36.62109375,-30.76171875,-37.59765625,-36.62109375,-67.3828125,0.0
619.4140625,-19.53125,-28.3203125,-33.203125,-36.62109375,-71.2890625,0.0
619.41796875,-20.99609375,-33.203125,-36.1328125,-40.0390625,9.27734375,0.0
619.421875,-34.1796875,-34.1796875,-39.0625,-41.9921875,73.73046875,0.0
619.42578125,-36.1328125,-30.76171875,-35.15625,-40.0390625,102.05078125,0.0
619.4296875,-30.76171875,-27.34375,-35.15625,-35.64453125,81.0546875,0.0
619.43359375,-25.87890625,-34.66796875,-46.38671875,-47.36328125,33.69140625,0.0
619.4375,-25.87890625,-40.0390625,-47.36328125,-55.17578125,61.03515625,0.0
619.44140625,-30.2734375,-31.73828125,-34.1796875,-43.9453125,47.36328125,0.0
619.4453125,-42.48046875,-29.296875,-32.2265625,-37.109375,0.9765625,0.0
619.44921875,-44.43359375,-37.59765625,-43.45703125,-43.45703125,-59.5703125,0.0
619.453125,-32.71484375,-37.59765625,-37.59765625,-40.52734375,-68.84765625,0.0
619.45703125,-28.80859375,-34.66796875,-32.2265625,-32.71484375,-34.66796875,0.0
619.4609375,-44.43359375,-38.0859375,-41.50390625,-43.9453125,-88.37890625,0.0
619.46484375,-58.59375,-39.0625,-39.55078125,-51.7578125,-120.1171875,0.0
619.46875,-51.26953125,-34.66796875,-28.80859375,-43.9453125,-104.00390625,0.0
619.47265625,-31.73828125,-30.2734375,-20.5078125,-33.69140625,-122.0703125,0.0
619.4765625,-25.87890625,-31.25,-24.90234375,-37.109375,-77.1484375,0.0
619.48046875,-39.55078125,-35.64453125,-34.1796875,-43.45703125,30.76171875,0.0
619.484375,-45.41015625,-36.62109375,-31.25,-41.9921875,-16.11328125,0.0
619.48828125,-31.73828125,-26.85546875,-21.97265625,-32.2265625,-50.29296875,0.0
619.4921875,-31.25,-26.85546875,-28.3203125,-37.109375,36.1328125,0.0
619.49609375,-34.66796875,-32.2265625,-38.0859375,-46.875,-39.55078125,0.0
619.5,-38.57421875,-30.76171875,-37.59765625,-47.36328125,-178.22265625,0.0
619.50390625,-47.36328125,-30.76171875,-30.76171875,-47.36328125,-83.0078125,0.0
619.5078125,-48.828125,-32.71484375,-37.59765625,-51.7578125,-78.125,0.0
619.51171875,-37.109375,-28.3203125,-38.0859375,-47.8515625,-236.328125,0.0
619.515625,-25.87890625,-27.34375,-28.80859375,-38.57421875,-249.0234375,0.0
619.51953125,-30.76171875,-31.73828125,-25.87890625,-40.0390625,-197.75390625,0.0
619.5234375,-42.96875,-31.25,-25.87890625,-41.9921875,-57.12890625,0.0
619.52734375,-49.31640625,-27.83203125,-30.2734375,-43.9453125,99.12109375,0.0
619.53125,-45.8984375,-28.80859375,-26.85546875,-42.48046875,68.359375,0.0
619.53515625,-31.25,-30.2734375,-17.08984375,-33.69140625,23.4375,0.0
619.5390625,-33.69140625,-32.71484375,-25.87890625,-34.66796875,18.5546875,0.0
619.54296875,-47.36328125,-34.1796875,-37.109375,-42.96875,84.9609375,0.0
619.546875,-51.7578125,-34.1796875,-40.0390625,-39.55078125,111.328125,0.0
619.55078125,-42.48046875,-35.64453125,-33.69140625,-35.15625,-33.69140625,0.0
619.5546875,-20.01953125,-30.76171875,-28.3203125,-33.203125,-4.39453125,0.0
619.55859375,-8.7890625,-30.2734375,-35.15625,-20.5078125,57.12890625,0.0
619.5625,-29.296875,-39.55078125,-34.66796875,-24.90234375,48.828125,0.0
619.56640625,-55.17578125,-43.9453125,-23.4375,-36.62109375,20.01953125,0.0
619.5703125,-57.6171875,-42.48046875,-20.01953125,-42.48046875,-33.69140625,0.0
619.57421875,-41.9921875,-40.0390625,-18.5546875,-45.8984375,48.33984375,0.0
619.578125,-25.390625,-35.64453125,-4.39453125,-27.34375,19.04296875,0.0
619.58203125,-41.9921875,-42.96875,-5.859375,-32.71484375,5.37109375,0.0
619.5859375,-68.84765625,-47.36328125,-18.06640625,-53.7109375,81.54296875,0.0
619.58984375,-52.734375,-39.0625,-18.5546875,-40.52734375,106.4453125,0.0
619.59375,-32.2265625,-38.0859375,-9.27734375,-28.80859375,162.109375,0.0
619.59765625,-41.50390625,-39.55078125,-15.13671875,-38.57421875,171.38671875,0.0
619.6015625,-55.6640625,-38.0859375,-22.4609375,-43.45703125,39.55078125,0.0
619.60546875,-71.2890625,-40.0390625,-25.87890625,-49.8046875,-35.64453125,0.0
619.609375,-67.3828125,-43.9453125,-26.85546875,-48.33984375,32.71484375,0.0
619.61328125,-48.33984375,-46.38671875,-23.92578125,-41.015625,4.39453125,0.0
619.6171875,-42.96875,-47.8515625,-28.80859375,-36.62109375,-52.734375,0.0
619.62109375,-46.38671875,-44.921875,-23.92578125,-31.25,-81.54296875,0.0
619.625,-49.8046875,-41.015625,-18.06640625,-26.85546875,-103.515625,0.0
619.62890625,-51.26953125,-42.96875,-29.78515625,-31.25,-13.671875,0.0
619.6328125,-38.57421875,-43.45703125,-30.2734375,-31.25,31.25,0.0
619.63671875,-20.01953125,-36.1328125,-22.4609375,-20.01953125,15.13671875,0.0
619.640625,-29.78515625,-35.15625,-23.92578125,-20.5078125,51.7578125,0.0
619.64453125,-50.78125,-39.55078125,-31.73828125,-34.66796875,42.96875,0.0
619.6484375,-49.8046875,-40.0390625,-33.69140625,-36.1328125,-10.7421875,0.0
619.65234375,-35.15625,-36.62109375,-26.3671875,-23.92578125,-34.1796875,0.0
619.65625,-25.390625,-31.25,-22.4609375,-18.5546875,0.9765625,0.0
619.66015625,-31.25,-33.203125,-33.69140625,-24.90234375,-16.11328125,0.0
619.6640625,-39.55078125,-31.73828125,-36.62109375,-29.78515625,-47.8515625,0.0
619.66796875,-34.66796875,-26.3671875,-24.4140625,-24.4140625,-32.2265625,0.0
619.671875,-24.4140625,-30.2734375,-22.4609375,-19.04296875,-9.27734375,0.0
619.67578125,-21.97265625,-35.64453125,-32.2265625,-21.484375,-4.39453125,0.0
619.6796875,-28.3203125,-35.15625,-34.1796875,-22.94921875,-23.4375,0.0
619.68359375,-37.109375,-32.2265625,-27.34375,-22.4609375,-40.52734375,0.0
619.6875,-42.96875,-34.66796875,-33.203125,-24.90234375,-52.734375,0.0
619.69140625,-30.76171875,-30.76171875,-35.64453125,-23.4375,-65.4296875,0.0
619.6953125,-12.6953125,-23.4375,-31.25,-15.13671875,-11.71875,0.0
619.69921875,-13.18359375,-27.34375,-28.3203125,-15.13671875,-28.80859375,0.0
619.703125,-31.73828125,-33.69140625,-31.25,-24.90234375,-94.23828125,0.0
619.70703125,-42.96875,-38.57421875,-37.109375,-24.4140625,-31.73828125,0.0
619.7109375,-32.2265625,-35.64453125,-30.2734375,-16.6015625,35.15625,0.0
619.71484375,-20.01953125,-34.1796875,-23.92578125,-15.625,39.55078125,0.0
619.71875,-24.90234375,-37.59765625,-29.78515625,-16.6015625,36.1328125,0.0
619.72265625,-29.78515625,-32.71484375,-30.76171875,-12.20703125,8.7890625,0.0
619.7265625,-31.73828125,-23.92578125,-22.4609375,-9.765625,-11.71875,0.0
619.73046875,-29.296875,-27.34375,-24.4140625,-12.20703125,-28.3203125,0.0
619.734375,-20.5078125,-35.15625,-28.3203125,-17.578125,-14.16015625,0.0
619.73828125,-24.90234375,-36.62109375,-26.85546875,-23.4375,9.765625,0.0
619.7421875,-44.921875,-36.62109375,-29.78515625,-28.80859375,12.20703125,0.0
619.74609375,-54.6875,-36.62109375,-30.76171875,-31.73828125,-35.64453125,0.0
619.75,-49.31640625,-41.015625,-28.80859375,-31.25,-55.17578125,0.0
619.75390625,-36.1328125,-36.62109375,-21.484375,-25.390625,1.46484375,0.0
619.7578125,-23.4375,-20.99609375,-7.32421875,-13.671875,-30.76171875,0.0
619.76171875,-41.50390625,-29.78515625,-16.11328125,-21.97265625,-15.625,0.0
619.765625,-60.546875,-42.48046875,-28.3203125,-30.2734375,-41.015625,0.0
619.76953125,-55.17578125,-38.57421875,-23.92578125,-27.83203125,-72.75390625,0.0
619.7734375,-34.66796875,-23.92578125,-10.25390625,-23.92578125,50.78125,0.0
619.77734375,-30.2734375,-25.390625,-17.08984375,-25.390625,56.640625,0.0
619.78125,-41.015625,-40.0390625,-31.73828125,-30.2734375,-20.01953125,0.0
619.78515625,-43.9453125,-41.50390625,-30.2734375,-31.73828125,8.7890625,0.0
619.7890625,-41.015625,-37.59765625,-23.92578125,-31.25,44.43359375,0.0
619.79296875,-29.78515625,-34.66796875,-27.83203125,-33.69140625,40.0390625,0.0
619.796875,-18.5546875,-31.73828125,-29.78515625,-35.15625,14.16015625,0.0
619.80078125,-21.97265625,-25.87890625,-20.5078125,-27.34375,41.015625,0.0
619.8046875,-36.1328125,-30.2734375,-19.53125,-27.83203125,28.80859375,0.0
619.80859375,-37.109375,-35.15625,-25.87890625,-28.80859375,-79.1015625,0.0
619.8125,-27.34375,-30.76171875,-27.34375,-27.34375,-161.1328125,0.0
619.81640625,-20.01953125,-30.76171875,-18.06640625,-27.34375,-167.96875,0.0
619.8203125,-21.97265625,-24.4140625,-10.25390625,-21.97265625,-200.1953125,0.0
619.82421875,-37.109375,-24.4140625,-24.90234375,-23.92578125,-198.2421875,0.0
619.828125,-41.9921875,-25.87890625,-29.78515625,-27.83203125,-142.08984375,0.0
619.83203125,-27.83203125,-22.4609375,-26.85546875,-29.296875,-97.16796875,0.0
619.8359375,-19.04296875,-24.90234375,-32.71484375,-29.296875,-85.9375,0.0
619.83984375,-25.390625,-24.90234375,-37.109375,-33.203125,-70.3125,0.0
619.84375,-41.015625,-27.34375,-35.15625,-37.109375,-3.90625,0.0
619.84765625,-42.48046875,-29.296875,-32.2265625,-36.62109375,15.625,0.0
619.8515625,-27.83203125,-25.390625,-27.83203125,-31.73828125,5.859375,0.0
619.85546875,-21.97265625,-23.4375,-29.78515625,-35.15625,17.578125,0.0
619.859375,-30.2734375,-27.34375,-33.69140625,-38.0859375,60.05859375,0.0
619.86328125,-34.66796875,-22.94921875,-15.625,-32.2265625,66.40625,0.0
619.8671875,-35.64453125,-16.6015625,-10.25390625,-30.2734375,25.390625,0.0
619.87109375,-37.59765625,-26.3671875,-29.296875,-29.296875,57.12890625,0.0
619.875,-24.4140625,-30.76171875,-37.59765625,-31.25,49.8046875,0.0
619.87890625,-27.34375,-29.78515625,-39.0625,-39.55078125,-11.23046875,0.0
619.8828125,-42.96875,-30.76171875,-35.64453125,-36.1328125,8.7890625,0.0
619.88671875,-49.31640625,-34.1796875,-38.0859375,-31.25,-6.8359375,0.0
619.890625,-37.59765625,-32.71484375,-37.59765625,-31.73828125,-58.10546875,0.0
619.89453125,-16.11328125,-26.85546875,-33.69140625,-26.3671875,-48.33984375,0.0
619.8984375,-18.06640625,-26.3671875,-33.69140625,-27.83203125,-87.40234375,0.0
619.90234375,-36.1328125,-29.296875,-38.0859375,-35.15625,-83.49609375,0.0
619.90625,-40.52734375,-24.4140625,-34.66796875,-32.71484375,-85.9375,0.0
619.91015625,-16.11328125,-17.578125,-29.296875,-20.5078125,-80.078125,0.0
619.9140625,-3.41796875,-20.01953125,-40.0390625,-24.90234375,37.59765625,0.0
619.91796875,-25.390625,-27.83203125,-37.59765625,-36.62109375,56.640625,0.0
619.921875,-47.8515625,-30.76171875,-25.390625,-38.0859375,-27.34375,0.0
619.92578125,-56.15234375,-32.2265625,-21.97265625,-38.57421875,13.18359375,0.0
619.9296875,-45.8984375,-36.62109375,-30.2734375,-36.1328125,51.26953125,0.0
619.93359375,-31.73828125,-35.64453125,-33.203125,-35.64453125,-14.6484375,0.0
619.9375,-36.1328125,-35.15625,-24.4140625,-44.43359375,-23.4375,0.0
619.94140625,-41.9921875,-37.59765625,-25.390625,-45.41015625,-1.46484375,0.0
619.9453125,-62.01171875,-38.0859375,-33.203125,-51.26953125,0.9765625,0.0
619.94921875,-59.08203125,-30.76171875,-31.73828125,-46.38671875,4.8828125,0.0
619.953125,-25.390625,-15.13671875,-11.23046875,-20.01953125,41.9921875,0.0
619.95703125,-25.87890625,-20.99609375,-15.13671875,-23.4375,-63.96484375,0.0
619.9609375,-40.0390625,-31.25,-36.1328125,-43.9453125,-203.61328125,0.0
619.96484375,-47.36328125,-29.296875,-35.64453125,-43.9453125,-217.7734375,0.0
619.96875,-30.76171875,-15.13671875,-20.01953125,-24.4140625,-227.5390625,0.0
619.97265625,-27.34375,-19.53125,-27.34375,-29.296875,-190.4296875,0.0
619.9765625,-33.203125,-26.85546875,-35.15625,-37.59765625,-45.8984375,0.0
619.98046875,-35.15625,-26.85546875,-30.2734375,-30.76171875,37.59765625,0.0
619.984375,-43.45703125,-30.76171875,-33.203125,-25.390625,26.85546875,0.0
619.98828125,-44.921875,-33.203125,-32.2265625,-25.87890625,39.0625,0.0
619.9921875,-38.0859375,-34.1796875,-28.3203125,-28.3203125,52.24609375,0.0
619.99609375,-23.92578125,-28.80859375,-23.92578125,-23.4375,0.0,0.0
620.0,-21.484375,-21.97265625,-19.04296875,-23.4375,-85.44921875,0.0
620.00390625,-41.9921875,-28.3203125,-32.71484375,-39.55078125,-84.47265625,0.0
620.0078125,-47.8515625,-35.64453125,-41.50390625,-48.33984375,-54.6875,0.0
620.01171875,-33.69140625,-36.62109375,-37.59765625,-44.43359375,-79.58984375,0.0
620.015625,-24.4140625,-35.15625,-38.57421875,-41.50390625,-28.3203125,0.0
620.01953125,-30.2734375,-39.0625,-40.0390625,-42.48046875,-48.828125,0.0
620.0234375,-41.9921875,-37.109375,-39.55078125,-40.0390625,-142.578125,0.0
620.02734375,-37.109375,-25.390625,-31.73828125,-34.1796875,-96.6796875,0.0
620.03125,-31.25,-30.2734375,-33.203125,-36.1328125,66.40625,0.0
620.03515625,-25.390625,-33.69140625,-38.57421875,-37.109375,119.62890625,0.0
620.0390625,-24.4140625,-25.87890625,-31.73828125,-33.203125,-24.90234375,0.0
620.04296875,-27.83203125,-17.578125,-20.5078125,-30.76171875,-56.15234375,0.0
620.046875,-41.015625,-27.83203125,-27.34375,-38.57421875,-40.52734375,0.0
620.05078125,-45.41015625,-41.50390625,-37.109375,-43.9453125,-12.20703125,0.0
620.0546875,-31.73828125,-38.57421875,-33.203125,-38.0859375,19.53125,0.0
620.05859375,-22.94921875,-31.25,-27.34375,-30.76171875,-32.71484375,0.0
620.0625,-32.71484375,-33.203125,-30.2734375,-37.109375,0.0,0.0
620.06640625,-41.9921875,-34.66796875,-33.69140625,-45.41015625,88.8671875,0.0
620.0703125,-29.78515625,-32.2265625,-31.73828125,-38.57421875,93.26171875,0.0
620.07421875,-16.6015625,-30.76171875,-30.2734375,-33.69140625,65.4296875,0.0
620.078125,-21.97265625,-28.3203125,-27.83203125,-36.62109375,-7.8125,0.0
620.08203125,-41.50390625,-33.203125,-34.66796875,-45.8984375,-50.29296875,0.0
620.0859375,-43.45703125,-32.71484375,-32.71484375,-43.9453125,-54.19921875,0.0
620.08984375,-22.4609375,-22.94921875,-16.11328125,-26.85546875,-71.2890625,0.0
620.09375,-16.11328125,-29.78515625,-23.92578125,-25.390625,-19.53125,0.0
620.09765625,-25.87890625,-34.66796875,-31.25,-30.76171875,51.26953125,0.0
620.1015625,-41.50390625,-35.64453125,-29.78515625,-36.1328125,44.921875,0.0
620.10546875,-50.29296875,-38.0859375,-33.203125,-42.48046875,11.23046875,0.0
620.109375,-47.8515625,-39.55078125,-36.62109375,-43.45703125,-16.6015625,0.0
620.11328125,-34.1796875,-37.59765625,-34.1796875,-41.015625,-16.11328125,0.0
620.1171875,-25.87890625,-33.203125,-31.73828125,-34.1796875,3.41796875,0.0
620.12109375,-38.0859375,-37.59765625,-34.66796875,-37.59765625,-25.390625,0.0
620.125,-50.78125,-40.52734375,-37.109375,-43.9453125,-6.8359375,0.0
620.12890625,-43.9453125,-34.66796875,-32.2265625,-44.43359375,-6.34765625,0.0
620.1328125,-28.3203125,-30.76171875,-25.390625,-46.875,20.5078125,0.0
620.13671875,-24.4140625,-32.2265625,-23.4375,-42.48046875,68.84765625,0.0
620.140625,-38.0859375,-31.73828125,-25.390625,-44.43359375,37.59765625,0.0
620.14453125,-46.875,-27.83203125,-30.76171875,-43.45703125,16.6015625,0.0
620.1484375,-36.1328125,-19.04296875,-18.06640625,-31.25,-39.55078125,0.0
620.15234375,-33.69140625,-21.484375,-16.11328125,-31.25,-36.1328125,0.0
620.15625,-33.203125,-30.76171875,-31.73828125,-39.0625,53.22265625,0.0
620.16015625,-34.1796875,-33.69140625,-35.15625,-40.0390625,22.94921875,0.0
620.1640625,-49.8046875,-33.203125,-35.64453125,-43.9453125,8.7890625,0.0
620.16796875,-50.29296875,-32.71484375,-34.1796875,-46.38671875,26.85546875,0.0
620.171875,-37.59765625,-31.25,-31.25,-43.9453125,5.859375,0.0
620.17578125,-27.34375,-29.78515625,-31.73828125,-41.9921875,17.08984375,0.0
620.1796875,-28.3203125,-27.83203125,-31.25,-41.015625,-31.73828125,0.0
620.18359375,-42.48046875,-28.80859375,-34.66796875,-40.52734375,-37.109375,0.0
620.1875,-48.33984375,-35.64453125,-38.57421875,-41.50390625,-18.06640625,0.0
620.19140625,-30.2734375,-30.2734375,-26.3671875,-33.203125,-56.640625,0.0
620.1953125,-10.25390625,-19.04296875,-10.25390625,-17.08984375,-121.09375,0.0
620.19921875,-26.85546875,-26.85546875,-23.92578125,-26.85546875,-10.25390625,0.0
620.203125,-44.43359375,-32.71484375,-33.203125,-37.59765625,67.3828125,0.0
