timestamp,TP9,AF7,AF8,TP10,AUX,Marker
315.00390625,-16.11328125,-33.203125,-30.76171875,-48.33984375,30.2734375,0.0
315.0078125,-24.90234375,-29.78515625,-30.76171875,-65.4296875,8.30078125,0.0
315.01171875,-14.16015625,-29.296875,-33.203125,-60.546875,4.8828125,0.0
315.015625,-8.30078125,-30.2734375,-33.69140625,-49.31640625,46.38671875,0.0
315.01953125,-10.25390625,-27.83203125,-35.64453125,-54.6875,27.34375,0.0
315.0234375,-20.01953125,-29.296875,-40.52734375,-67.3828125,-25.87890625,0.0
315.02734375,-25.390625,-28.80859375,-37.109375,-66.40625,-62.01171875,0.0
315.03125,-5.859375,-22.94921875,-30.2734375,-60.05859375,-105.95703125,0.0
315.03515625,-0.48828125,-25.87890625,-34.1796875,-69.3359375,-88.8671875,0.0
315.0390625,-16.11328125,-28.3203125,-33.203125,-69.82421875,-31.25,0.0
315.04296875,-24.90234375,-29.78515625,-34.1796875,-66.40625,-23.4375,0.0
315.046875,-16.6015625,-31.73828125,-32.2265625,-54.19921875,-57.6171875,0.0
315.05078125,4.8828125,-31.25,-28.80859375,-52.734375,-47.8515625,0.0
315.0546875,10.7421875,-32.2265625,-29.296875,-55.6640625,10.7421875,0.0
315.05859375,5.859375,-30.76171875,-30.76171875,-41.50390625,46.38671875,0.0
315.0625,-4.39453125,-33.69140625,-25.87890625,-38.57421875,0.9765625,0.0
315.06640625,-10.7421875,-37.59765625,-28.80859375,-56.640625,-5.37109375,0.0
315.0703125,-0.48828125,-31.25,-29.296875,-54.19921875,32.2265625,0.0
315.07421875,15.625,-27.34375,-22.4609375,-37.109375,97.65625,0.0
315.078125,6.34765625,-29.296875,-23.92578125,-40.52734375,51.26953125,0.0
315.08203125,-19.04296875,-33.69140625,-30.76171875,-58.10546875,-5.859375,0.0
315.0859375,-15.625,-34.1796875,-33.203125,-56.15234375,-50.78125,0.0
315.08984375,-0.9765625,-31.25,-33.203125,-63.4765625,-64.94140625,0.0
315.09375,6.8359375,-34.1796875,-28.80859375,-49.31640625,-29.296875,0.0
315.09765625,2.9296875,-35.15625,-31.25,-33.203125,0.48828125,0.0
315.1015625,-22.4609375,-27.83203125,-32.2265625,-62.01171875,-41.50390625,0.0
315.10546875,-19.04296875,-30.76171875,-26.85546875,-66.40625,-46.875,0.0
315.109375,12.20703125,-29.296875,-28.80859375,-60.05859375,0.48828125,0.0
315.11328125,22.94921875,-26.85546875,-34.1796875,-62.5,51.7578125,0.0
315.1171875,12.20703125,-27.34375,-33.69140625,-51.7578125,61.5234375,0.0
315.12109375,-2.9296875,-26.3671875,-33.203125,-45.8984375,14.16015625,0.0
315.125,-26.85546875,-31.73828125,-37.59765625,-60.05859375,-50.29296875,0.0
315.12890625,-24.90234375,-37.59765625,-32.71484375,-71.2890625,-19.04296875,0.0
315.1328125,9.765625,-35.64453125,-23.4375,-48.828125,2.9296875,0.0
315.13671875,6.34765625,-33.203125,-21.97265625,-40.0390625,9.27734375,0.0
315.140625,-22.4609375,-34.1796875,-32.2265625,-46.875,-23.92578125,0.0
315.14453125,-39.55078125,-36.1328125,-36.1328125,-51.7578125,-60.546875,0.0
315.1484375,-36.62109375,-33.203125,-25.390625,-63.96484375,23.92578125,0.0
315.15234375,-13.18359375,-31.73828125,-23.4375,-68.359375,60.546875,0.0
315.15625,-1.953125,-32.2265625,-29.296875,-56.15234375,-58.10546875,0.0
315.16015625,-20.01953125,-35.64453125,-32.2265625,-30.2734375,-83.984375,0.0
315.1640625,-34.66796875,-36.1328125,-30.2734375,-36.62109375,-31.73828125,0.0
315.16796875,-35.15625,-32.71484375,-23.92578125,-57.6171875,19.53125,0.0
315.171875,-23.92578125,-33.203125,-27.34375,-50.78125,54.6875,0.0
315.17578125,-16.6015625,-34.1796875,-24.4140625,-33.203125,123.046875,0.0
315.1796875,-37.59765625,-33.203125,-23.4375,-41.9921875,42.48046875,0.0
315.18359375,-62.98828125,-41.015625,-29.78515625,-43.45703125,-99.12109375,0.0
315.1875,-52.24609375,-38.57421875,-27.83203125,-34.1796875,31.25,0.0
315.19140625,-26.3671875,-29.296875,-27.83203125,-60.05859375,97.16796875,0.0
315.1953125,-25.87890625,-25.87890625,-32.2265625,-76.66015625,51.7578125,0.0
315.19921875,-35.15625,-26.85546875,-33.203125,-56.15234375,65.91796875,0.0
315.203125,-65.91796875,-30.2734375,-25.87890625,-41.9921875,58.10546875,0.0
315.20703125,-77.1484375,-32.2265625,-25.390625,-43.9453125,1.953125,0.0
315.2109375,-45.41015625,-29.78515625,-27.83203125,-45.41015625,5.37109375,0.0
315.21484375,-31.73828125,-31.73828125,-25.390625,-51.7578125,46.38671875,0.0
315.21875,-38.57421875,-34.1796875,-26.85546875,-63.96484375,4.8828125,0.0
315.22265625,-62.98828125,-34.66796875,-32.2265625,-67.87109375,-77.63671875,0.0
315.2265625,-65.4296875,-21.97265625,-29.78515625,-58.59375,-101.07421875,0.0
315.23046875,-55.17578125,-23.4375,-19.04296875,-42.48046875,-45.41015625,0.0
315.234375,-43.9453125,-32.71484375,-22.94921875,-69.82421875,9.27734375,0.0
315.23828125,-33.69140625,-25.87890625,-21.97265625,-75.1953125,26.3671875,0.0
315.2421875,-41.50390625,-20.01953125,-15.13671875,-49.31640625,-42.48046875,0.0
315.24609375,-47.36328125,-18.5546875,-13.671875,-40.0390625,-110.3515625,0.0
315.25,-46.875,-20.5078125,-7.8125,-47.36328125,-90.8203125,0.0
315.25390625,-30.76171875,-12.6953125,-9.27734375,-46.875,-82.03125,0.0
315.2578125,-27.83203125,-4.8828125,-14.16015625,-54.19921875,-118.1640625,0.0
315.26171875,-60.546875,-16.11328125,-8.30078125,-58.59375,-200.68359375,0.0
315.265625,-79.58984375,-12.20703125,-6.34765625,-44.43359375,-172.36328125,0.0
315.26953125,-77.63671875,-11.23046875,-9.765625,-62.98828125,-44.921875,0.0
315.2734375,-66.40625,-18.5546875,-5.37109375,-81.0546875,-38.57421875,0.0
315.27734375,-67.87109375,-5.37109375,-4.8828125,-82.03125,-21.484375,0.0
315.28125,-92.28515625,-5.859375,-17.08984375,-87.40234375,14.16015625,0.0
315.28515625,-138.18359375,-14.16015625,-8.7890625,-116.69921875,-25.87890625,0.0
315.2890625,-139.16015625,2.44140625,15.13671875,-129.39453125,-76.171875,0.0
315.29296875,-120.1171875,8.7890625,17.578125,-136.71875,-9.765625,0.0
315.296875,-127.9296875,14.16015625,8.7890625,-157.2265625,67.3828125,0.0
315.30078125,-151.3671875,26.3671875,5.859375,-172.36328125,-49.31640625,0.0
315.3046875,-167.48046875,36.62109375,13.671875,-175.29296875,-77.63671875,0.0
315.30859375,-164.0625,47.8515625,18.5546875,-181.15234375,-3.41796875,0.0
315.3125,-166.9921875,50.29296875,16.6015625,-185.05859375,-28.3203125,0.0
315.31640625,-164.55078125,40.0390625,8.7890625,-177.24609375,11.23046875,0.0
315.3203125,-164.55078125,42.96875,-1.953125,-189.453125,118.65234375,0.0
315.32421875,-187.01171875,45.41015625,-2.9296875,-190.91796875,41.50390625,0.0
315.328125,-187.5,37.59765625,0.48828125,-165.52734375,-12.20703125,0.0
315.33203125,-146.97265625,31.73828125,-8.7890625,-152.34375,1.953125,0.0
315.3359375,-122.0703125,26.3671875,-12.20703125,-145.99609375,-30.2734375,0.0
315.33984375,-120.60546875,22.4609375,-18.5546875,-137.6953125,-50.29296875,0.0
315.34375,-130.37109375,13.671875,-29.296875,-129.8828125,-123.53515625,0.0
315.34765625,-123.53515625,0.48828125,-31.25,-114.2578125,-134.27734375,0.0
315.3515625,-88.8671875,5.37109375,-21.484375,-106.93359375,18.06640625,0.0
315.35546875,-70.80078125,-0.9765625,-12.20703125,-70.3125,47.36328125,0.0
315.359375,-62.5,-15.13671875,-26.3671875,-46.875,-132.32421875,0.0
315.36328125,-51.7578125,-16.11328125,-42.48046875,-54.19921875,-183.10546875,0.0
315.3671875,-47.36328125,-20.5078125,-36.62109375,-42.48046875,-160.15625,0.0
315.37109375,-30.76171875,-32.71484375,-30.76171875,-20.99609375,-150.87890625,0.0
315.375,-9.27734375,-33.203125,-35.15625,-13.671875,-59.5703125,0.0
315.37890625,-16.11328125,-43.45703125,-38.0859375,-6.8359375,-48.828125,0.0
315.3828125,-34.66796875,-57.12890625,-41.015625,0.0,-22.94921875,0.0
315.38671875,-28.3203125,-58.59375,-48.828125,4.39453125,-15.625,0.0
315.390625,-7.32421875,-58.59375,-45.41015625,12.20703125,-10.7421875,0.0
315.39453125,19.04296875,-60.546875,-41.9921875,15.13671875,-7.8125,0.0
315.3984375,10.7421875,-59.5703125,-43.45703125,27.34375,-3.41796875,0.0
315.40234375,-11.23046875,-62.01171875,-42.48046875,38.57421875,44.921875,0.0
315.40625,3.90625,-58.59375,-42.96875,39.55078125,-10.25390625,0.0
315.41015625,27.34375,-58.10546875,-48.33984375,38.0859375,-35.15625,0.0
315.4140625,38.0859375,-61.03515625,-50.78125,51.7578125,17.08984375,0.0
315.41796875,33.69140625,-61.5234375,-57.6171875,49.8046875,-72.265625,0.0
315.421875,10.7421875,-73.73046875,-60.546875,50.29296875,-126.46484375,0.0
315.42578125,10.25390625,-72.265625,-54.6875,46.38671875,-62.5,0.0
315.4296875,26.3671875,-61.03515625,-50.29296875,49.31640625,-16.11328125,0.0
315.43359375,20.01953125,-61.5234375,-41.9921875,58.10546875,-34.66796875,0.0
315.4375,16.11328125,-64.453125,-42.48046875,54.19921875,-30.76171875,0.0
315.44140625,25.390625,-67.87109375,-55.17578125,60.546875,-4.39453125,0.0
315.4453125,14.16015625,-70.80078125,-56.15234375,47.8515625,-65.91796875,0.0
315.44921875,20.5078125,-60.546875,-41.9921875,33.203125,-115.234375,0.0
315.453125,48.33984375,-53.22265625,-23.92578125,45.8984375,-37.109375,0.0
315.45703125,41.015625,-62.01171875,-35.64453125,50.78125,41.50390625,0.0
315.4609375,24.90234375,-60.546875,-51.26953125,48.33984375,33.69140625,0.0
315.46484375,2.9296875,-62.5,-50.78125,38.0859375,-25.390625,0.0
315.46875,5.859375,-62.5,-56.640625,28.3203125,-6.8359375,0.0
315.47265625,30.2734375,-56.640625,-66.40625,26.85546875,16.6015625,0.0
315.4765625,38.57421875,-57.12890625,-66.40625,33.203125,8.30078125,0.0
315.48046875,17.08984375,-56.15234375,-59.5703125,29.78515625,-20.01953125,0.0
315.484375,2.44140625,-56.640625,-43.45703125,12.6953125,-0.48828125,0.0
315.48828125,7.32421875,-53.7109375,-35.64453125,23.92578125,17.578125,0.0
315.4921875,23.92578125,-48.828125,-33.203125,20.5078125,37.59765625,0.0
315.49609375,46.38671875,-40.52734375,-25.87890625,10.7421875,58.59375,0.0
315.5,24.4140625,-44.921875,-32.71484375,19.53125,51.7578125,0.0
315.50390625,-2.9296875,-59.08203125,-41.015625,13.18359375,46.875,0.0
315.5078125,3.90625,-55.17578125,-40.52734375,3.90625,-56.15234375,0.0
315.51171875,19.04296875,-45.41015625,-33.69140625,2.44140625,-72.265625,0.0
315.515625,26.3671875,-43.9453125,-37.109375,13.18359375,38.57421875,0.0
315.51953125,15.625,-45.41015625,-49.8046875,5.859375,87.890625,0.0
315.5234375,-5.37109375,-46.875,-44.921875,-8.30078125,54.19921875,0.0
315.52734375,-12.20703125,-43.9453125,-37.59765625,-0.48828125,16.6015625,0.0
315.53125,-7.8125,-41.9921875,-38.0859375,0.9765625,53.22265625,0.0
315.53515625,-7.32421875,-40.52734375,-42.48046875,0.48828125,37.109375,0.0
315.5390625,-14.16015625,-36.62109375,-40.0390625,-3.41796875,1.953125,0.0
315.54296875,-17.578125,-35.64453125,-33.69140625,-17.578125,-64.94140625,0.0
315.546875,-19.53125,-38.57421875,-33.203125,-20.99609375,-70.3125,0.0
315.55078125,-17.578125,-38.0859375,-31.25,-2.9296875,-8.30078125,0.0
315.5546875,-1.953125,-29.78515625,-21.97265625,11.23046875,78.125,0.0
315.55859375,-7.32421875,-27.83203125,-27.34375,-16.11328125,169.921875,0.0
315.5625,-35.64453125,-37.109375,-42.96875,-31.73828125,62.5,0.0
315.56640625,-43.9453125,-44.921875,-38.0859375,-12.6953125,-16.11328125,0.0
315.5703125,-36.62109375,-39.0625,-33.69140625,-23.4375,-31.73828125,0.0
315.57421875,-40.0390625,-31.73828125,-34.1796875,-41.9921875,-17.08984375,0.0
315.578125,-38.57421875,-33.203125,-35.15625,-36.62109375,39.55078125,0.0
315.58203125,-35.15625,-36.62109375,-35.64453125,-25.390625,-22.4609375,0.0
315.5859375,-36.1328125,-35.15625,-36.62109375,-29.78515625,-106.93359375,0.0
315.58984375,-25.87890625,-31.25,-33.69140625,-30.76171875,-78.61328125,0.0
315.59375,-13.671875,-31.25,-35.64453125,-17.578125,-4.39453125,0.0
315.59765625,-14.6484375,-33.69140625,-35.15625,-21.484375,21.97265625,0.0
315.6015625,-25.87890625,-23.92578125,-27.34375,-10.7421875,-12.20703125,0.0
315.60546875,-42.48046875,-22.94921875,-29.296875,-16.11328125,-26.3671875,0.0
315.609375,-32.71484375,-30.2734375,-30.76171875,-31.25,-90.8203125,0.0
315.61328125,-15.625,-33.203125,-35.15625,-12.6953125,-112.79296875,0.0
315.6171875,-14.16015625,-30.76171875,-33.203125,-9.765625,-44.921875,0.0
315.62109375,-35.64453125,-33.203125,-26.3671875,-17.578125,-9.27734375,0.0
315.625,-48.828125,-33.69140625,-33.69140625,-34.1796875,-194.3359375,0.0
315.62890625,-42.48046875,-33.69140625,-31.73828125,-23.92578125,-245.1171875,0.0
315.6328125,-36.62109375,-36.1328125,-25.87890625,-16.11328125,-94.23828125,0.0
315.63671875,-36.1328125,-36.62109375,-29.78515625,-34.66796875,-121.58203125,0.0
315.640625,-50.29296875,-34.66796875,-35.15625,-27.34375,-190.4296875,0.0
315.64453125,-53.7109375,-25.87890625,-33.69140625,-31.73828125,-119.62890625,0.0
315.6484375,-44.43359375,-23.4375,-30.2734375,-42.96875,-22.4609375,0.0
315.65234375,-50.29296875,-30.76171875,-42.48046875,-54.19921875,133.30078125,0.0
315.65625,-45.41015625,-34.1796875,-47.8515625,-59.5703125,146.484375,0.0
315.66015625,-56.15234375,-37.109375,-40.52734375,-47.36328125,51.7578125,0.0
315.6640625,-84.47265625,-40.0390625,-37.109375,-50.78125,11.71875,0.0
315.66796875,-80.078125,-41.015625,-38.0859375,-44.43359375,-12.20703125,0.0
315.671875,-53.7109375,-40.0390625,-35.64453125,-41.015625,-38.0859375,0.0
315.67578125,-42.96875,-33.69140625,-37.59765625,-56.15234375,104.4921875,0.0
315.6796875,-61.5234375,-36.62109375,-41.015625,-57.6171875,181.640625,0.0
315.68359375,-70.80078125,-37.109375,-40.52734375,-39.0625,63.96484375,0.0
315.6875,-55.17578125,-29.78515625,-35.64453125,-37.109375,-27.83203125,0.0
315.69140625,-29.78515625,-16.6015625,-17.578125,-16.11328125,-41.9921875,0.0
315.6953125,-26.3671875,-21.484375,-22.4609375,-21.97265625,-9.27734375,0.0
315.69921875,-50.29296875,-35.15625,-42.48046875,-31.25,-76.171875,0.0
315.703125,-70.3125,-35.15625,-37.59765625,-32.2265625,-98.14453125,0.0
315.70703125,-74.21875,-38.0859375,-25.390625,-51.7578125,-75.1953125,0.0
315.7109375,-65.4296875,-34.66796875,-20.5078125,-33.69140625,-42.48046875,0.0
315.71484375,-65.4296875,-36.1328125,-23.92578125,-24.4140625,18.5546875,0.0
315.71875,-62.5,-28.80859375,-28.80859375,-32.71484375,95.703125,0.0
315.72265625,-69.82421875,-21.97265625,-30.76171875,-31.73828125,101.07421875,0.0
315.7265625,-91.796875,-38.0859375,-30.2734375,-30.2734375,-5.859375,0.0
315.73046875,-86.9140625,-40.0390625,-27.34375,-39.55078125,-33.69140625,0.0
315.734375,-65.4296875,-23.92578125,-23.92578125,-38.0859375,-51.26953125,0.0
315.73828125,-70.3125,-20.01953125,-26.3671875,-29.78515625,-59.5703125,0.0
315.7421875,-97.16796875,-32.71484375,-34.1796875,-46.38671875,4.39453125,0.0
315.74609375,-101.07421875,-36.62109375,-33.69140625,-53.7109375,36.1328125,0.0
315.75,-87.890625,-32.2265625,-34.66796875,-45.41015625,-4.8828125,0.0
315.75390625,-75.1953125,-31.25,-34.66796875,-50.29296875,26.3671875,0.0
315.7578125,-71.77734375,-33.69140625,-37.109375,-50.29296875,61.5234375,0.0
315.76171875,-85.44921875,-34.1796875,-43.9453125,-46.38671875,3.90625,0.0
315.765625,-95.703125,-37.109375,-39.0625,-45.41015625,2.44140625,0.0
315.76953125,-80.56640625,-35.64453125,-32.2265625,-28.3203125,5.859375,0.0
315.7734375,-69.82421875,-36.1328125,-29.296875,-30.76171875,6.34765625,0.0
315.77734375,-74.21875,-39.55078125,-30.2734375,-41.50390625,32.2265625,0.0
315.78125,-83.49609375,-39.0625,-23.4375,-19.04296875,26.85546875,0.0
315.78515625,-92.7734375,-38.0859375,-25.390625,-26.85546875,11.23046875,0.0
315.7890625,-87.890625,-41.9921875,-31.25,-52.24609375,29.296875,0.0
315.79296875,-71.77734375,-40.0390625,-24.90234375,-35.15625,26.85546875,0.0
315.796875,-67.3828125,-37.109375,-28.3203125,-21.97265625,11.71875,0.0
315.80078125,-83.49609375,-37.59765625,-39.0625,-37.109375,7.8125,0.0
315.8046875,-100.09765625,-36.62109375,-37.59765625,-34.1796875,-20.5078125,0.0
315.80859375,-89.35546875,-37.59765625,-26.3671875,-25.87890625,-50.78125,0.0
315.8125,-77.1484375,-40.52734375,-26.3671875,-33.69140625,5.37109375,0.0
315.81640625,-80.078125,-37.59765625,-26.85546875,-34.66796875,39.55078125,0.0
315.8203125,-91.30859375,-33.203125,-32.2265625,-43.9453125,-0.48828125,0.0
315.82421875,-108.3984375,-33.203125,-29.296875,-33.69140625,-36.1328125,0.0
315.828125,-97.16796875,-33.69140625,-14.6484375,-24.90234375,-49.8046875,0.0
315.83203125,-71.77734375,-33.69140625,-22.4609375,-24.90234375,-76.66015625,0.0
315.8359375,-69.3359375,-37.109375,-32.71484375,-30.76171875,-83.0078125,0.0
315.83984375,-89.35546875,-43.45703125,-27.83203125,-30.76171875,-65.91796875,0.0
315.84375,-106.93359375,-43.45703125,-25.87890625,-28.3203125,-132.8125,0.0
315.84765625,-104.4921875,-31.25,-26.3671875,-41.9921875,-95.21484375,0.0
315.8515625,-91.796875,-31.25,-20.99609375,-40.52734375,-30.76171875,0.0
315.85546875,-82.51953125,-31.73828125,-30.2734375,-36.1328125,-7.32421875,0.0
315.859375,-84.9609375,-31.73828125,-30.76171875,-39.55078125,7.8125,0.0
315.86328125,-90.33203125,-38.0859375,-25.390625,-36.1328125,28.80859375,0.0
315.8671875,-83.0078125,-33.69140625,-29.78515625,-36.1328125,70.3125,0.0
315.87109375,-65.91796875,-29.296875,-14.6484375,-19.53125,44.43359375,0.0
315.875,-60.546875,-35.15625,-5.37109375,-14.6484375,45.41015625,0.0
315.87890625,-74.70703125,-35.15625,-19.53125,-29.78515625,56.640625,0.0
315.8828125,-82.03125,-30.76171875,-24.90234375,-30.2734375,-2.44140625,0.0
315.88671875,-81.0546875,-25.390625,-20.5078125,-40.0390625,-114.2578125,0.0
315.890625,-69.3359375,-27.83203125,-21.97265625,-32.2265625,-111.328125,0.0
315.89453125,-59.08203125,-32.2265625,-25.87890625,-24.4140625,44.921875,0.0
315.8984375,-62.5,-28.3203125,-28.80859375,-25.390625,62.98828125,0.0
315.90234375,-79.1015625,-32.71484375,-25.390625,-29.78515625,-48.828125,0.0
315.90625,-86.9140625,-34.1796875,-22.94921875,-39.0625,-84.47265625,0.0
315.91015625,-64.453125,-32.2265625,-22.94921875,-42.96875,-94.7265625,0.0
315.9140625,-49.31640625,-23.92578125,-19.53125,-41.015625,-42.96875,0.0
315.91796875,-59.08203125,-25.390625,-22.94921875,-39.55078125,33.203125,0.0
315.921875,-74.21875,-39.0625,-30.2734375,-42.96875,-48.33984375,0.0
315.92578125,-78.61328125,-39.55078125,-27.34375,-40.0390625,-191.89453125,0.0
315.9296875,-61.03515625,-33.69140625,-20.99609375,-31.25,-170.41015625,0.0
315.93359375,-37.109375,-33.203125,-22.4609375,-38.0859375,-142.08984375,0.0
315.9375,-26.85546875,-32.2265625,-20.99609375,-35.64453125,-102.05078125,0.0
315.94140625,-37.109375,-29.296875,-23.92578125,-30.2734375,-81.54296875,0.0
315.9453125,-57.12890625,-27.83203125,-29.296875,-51.7578125,-95.21484375,0.0
315.94921875,-48.828125,-29.296875,-23.4375,-41.9921875,-35.15625,0.0
315.953125,-19.53125,-27.83203125,-19.53125,-33.203125,6.34765625,0.0
315.95703125,-23.4375,-28.80859375,-20.99609375,-39.55078125,0.9765625,0.0
315.9609375,-49.31640625,-27.83203125,-21.484375,-36.1328125,28.80859375,0.0
315.96484375,-54.6875,-29.296875,-25.87890625,-35.64453125,42.48046875,0.0
315.96875,-44.43359375,-28.3203125,-23.4375,-28.3203125,55.6640625,0.0
315.97265625,-27.83203125,-26.85546875,-21.484375,-31.25,19.04296875,0.0
315.9765625,-23.92578125,-32.2265625,-25.390625,-36.1328125,-1.46484375,0.0
315.98046875,-31.25,-30.76171875,-28.3203125,-29.296875,49.31640625,0.0
315.984375,-48.828125,-34.1796875,-29.78515625,-24.90234375,54.6875,0.0
315.98828125,-54.19921875,-33.203125,-26.85546875,-31.73828125,26.85546875,0.0
315.9921875,-40.52734375,-25.390625,-28.80859375,-43.9453125,22.94921875,0.0
315.99609375,-33.203125,-25.390625,-33.69140625,-42.96875,-39.55078125,0.0
316.0,-47.8515625,-27.83203125,-33.203125,-39.55078125,-27.34375,0.0
316.00390625,-61.5234375,-27.34375,-30.2734375,-45.8984375,-12.6953125,0.0
316.0078125,-61.5234375,-26.3671875,-22.94921875,-49.8046875,-52.734375,0.0
316.01171875,-54.19921875,-23.92578125,-30.2734375,-51.7578125,-36.1328125,0.0
316.015625,-43.45703125,-25.390625,-30.76171875,-42.96875,-51.26953125,0.0
316.01953125,-49.31640625,-23.4375,-32.2265625,-42.96875,-56.640625,0.0
316.0234375,-65.91796875,-26.85546875,-34.66796875,-48.33984375,-17.08984375,0.0
316.02734375,-89.35546875,-36.62109375,-31.73828125,-42.96875,31.25,0.0
316.03125,-87.40234375,-34.66796875,-31.73828125,-44.43359375,50.29296875,0.0
316.03515625,-43.9453125,-32.2265625,-29.78515625,-30.76171875,40.52734375,0.0
316.0390625,-40.0390625,-34.1796875,-34.66796875,-19.53125,38.57421875,0.0
316.04296875,-70.3125,-35.64453125,-33.203125,-37.109375,-7.32421875,0.0
316.046875,-76.171875,-34.1796875,-27.34375,-41.015625,-25.390625,0.0
316.05078125,-58.10546875,-31.25,-24.90234375,-35.15625,-16.11328125,0.0
316.0546875,-38.57421875,-27.83203125,-23.4375,-30.2734375,20.5078125,0.0
316.05859375,-44.921875,-30.76171875,-32.2265625,-46.38671875,72.265625,0.0
316.0625,-62.98828125,-35.15625,-36.1328125,-41.9921875,58.59375,0.0
316.06640625,-52.24609375,-22.4609375,-21.484375,-15.625,14.16015625,0.0
316.0703125,-35.15625,-23.92578125,-18.06640625,-34.66796875,27.83203125,0.0
316.07421875,-25.87890625,-32.71484375,-27.34375,-42.48046875,9.765625,0.0
316.078125,-31.25,-30.2734375,-33.203125,-27.83203125,-91.796875,0.0
316.08203125,-47.36328125,-33.69140625,-38.0859375,-43.9453125,-84.47265625,0.0
316.0859375,-56.15234375,-36.62109375,-33.203125,-46.38671875,-96.6796875,0.0
316.08984375,-55.17578125,-35.15625,-34.66796875,-33.203125,-85.44921875,0.0
316.09375,-39.55078125,-32.2265625,-33.69140625,-45.8984375,-28.80859375,0.0
316.09765625,-36.62109375,-29.78515625,-20.99609375,-48.828125,-11.23046875,0.0
316.1015625,-62.98828125,-36.62109375,-23.4375,-44.43359375,12.20703125,0.0
316.10546875,-75.1953125,-42.48046875,-30.2734375,-42.96875,4.8828125,0.0
316.109375,-48.33984375,-31.25,-26.3671875,-42.96875,19.04296875,0.0
316.11328125,-25.390625,-21.97265625,-21.484375,-43.9453125,20.01953125,0.0
316.1171875,-33.203125,-28.3203125,-26.85546875,-45.41015625,33.69140625,0.0
316.12109375,-47.8515625,-31.25,-35.15625,-51.7578125,-18.06640625,0.0
316.125,-48.828125,-24.90234375,-26.3671875,-33.69140625,-87.890625,0.0
316.12890625,-40.0390625,-24.4140625,-21.484375,-28.3203125,-4.39453125,0.0
316.1328125,-28.80859375,-27.34375,-26.3671875,-29.296875,72.75390625,0.0
316.13671875,-28.3203125,-26.85546875,-29.78515625,-32.71484375,-1.46484375,0.0
316.140625,-45.8984375,-30.2734375,-34.66796875,-46.38671875,44.921875,0.0
316.14453125,-61.5234375,-32.2265625,-33.203125,-45.41015625,27.83203125,0.0
316.1484375,-41.9921875,-29.296875,-28.3203125,-30.76171875,-71.2890625,0.0
316.15234375,-18.06640625,-25.87890625,-27.34375,-32.71484375,-41.015625,0.0
316.15625,-13.671875,-24.90234375,-24.4140625,-41.50390625,-4.8828125,0.0
316.16015625,-35.64453125,-28.3203125,-27.83203125,-43.9453125,20.01953125,0.0
316.1640625,-56.640625,-31.25,-28.3203125,-40.0390625,-34.1796875,0.0
316.16796875,-53.22265625,-33.203125,-29.296875,-51.26953125,-18.06640625,0.0
316.171875,-37.109375,-26.3671875,-26.3671875,-42.48046875,62.98828125,0.0
316.17578125,-28.80859375,-23.4375,-28.80859375,-35.15625,38.0859375,0.0
316.1796875,-37.59765625,-25.87890625,-38.57421875,-45.41015625,15.625,0.0
316.18359375,-59.5703125,-34.66796875,-37.109375,-48.828125,0.0,0.0
316.1875,-59.08203125,-38.57421875,-23.92578125,-34.66796875,-38.0859375,0.0
316.19140625,-43.9453125,-37.109375,-23.92578125,-25.87890625,-63.4765625,0.0
316.1953125,-39.0625,-35.15625,-26.3671875,-26.3671875,-73.2421875,0.0
316.19921875,-38.57421875,-36.62109375,-24.4140625,-26.3671875,-64.453125,0.0
316.203125,-44.921875,-43.9453125,-28.3203125,-26.85546875,-135.7421875,0.0
316.20703125,-57.12890625,-44.43359375,-27.83203125,-37.109375,-124.0234375,0.0
316.2109375,-56.15234375,-41.50390625,-27.34375,-55.17578125,-21.484375,0.0
316.21484375,-39.0625,-36.1328125,-27.34375,-52.734375,-7.8125,0.0
316.21875,-35.15625,-29.296875,-27.83203125,-30.76171875,-22.94921875,0.0
316.22265625,-56.15234375,-30.76171875,-35.64453125,-41.9921875,44.43359375,0.0
316.2265625,-62.01171875,-33.203125,-25.87890625,-54.19921875,62.01171875,0.0
316.23046875,-53.22265625,-38.0859375,-16.6015625,-26.3671875,83.49609375,0.0
316.234375,-38.0859375,-38.0859375,-22.4609375,-19.53125,137.20703125,0.0
316.23828125,-36.62109375,-34.1796875,-32.2265625,-37.59765625,46.875,0.0
316.2421875,-48.33984375,-30.2734375,-36.62109375,-43.9453125,-80.078125,0.0
316.24609375,-55.6640625,-34.66796875,-32.71484375,-40.0390625,-84.47265625,0.0
316.25,-41.9921875,-33.69140625,-26.85546875,-31.73828125,-64.94140625,0.0
316.25390625,-20.5078125,-30.2734375,-23.4375,-50.29296875,-7.32421875,0.0
316.2578125,-27.83203125,-28.80859375,-23.4375,-40.52734375,106.4453125,0.0
316.26171875,-48.33984375,-28.3203125,-27.34375,-27.34375,36.62109375,0.0
316.265625,-67.3828125,-30.76171875,-30.2734375,-33.203125,-49.8046875,0.0
316.26953125,-60.05859375,-26.85546875,-28.3203125,-32.2265625,3.41796875,0.0
316.2734375,-34.66796875,-26.85546875,-23.92578125,-32.2265625,87.40234375,0.0
316.27734375,-27.83203125,-30.76171875,-27.83203125,-37.109375,109.375,0.0
316.28125,-40.52734375,-31.73828125,-34.1796875,-39.0625,60.05859375,0.0
316.28515625,-57.6171875,-32.2265625,-28.80859375,-40.52734375,23.92578125,0.0
316.2890625,-57.6171875,-30.76171875,-25.87890625,-35.64453125,19.53125,0.0
316.29296875,-32.2265625,-29.296875,-24.4140625,-20.99609375,23.4375,0.0
316.296875,-26.3671875,-36.1328125,-31.25,-32.71484375,21.97265625,0.0
316.30078125,-39.55078125,-37.109375,-34.66796875,-45.8984375,-18.06640625,0.0
316.3046875,-49.31640625,-34.1796875,-26.3671875,-38.0859375,-56.640625,0.0
316.30859375,-49.8046875,-35.64453125,-23.92578125,-34.66796875,-39.0625,0.0
316.3125,-43.45703125,-31.73828125,-24.4140625,-33.203125,-14.6484375,0.0
316.31640625,-39.0625,-28.80859375,-28.80859375,-31.73828125,-27.34375,0.0
316.3203125,-44.43359375,-26.3671875,-30.2734375,-30.2734375,-70.3125,0.0
316.32421875,-63.96484375,-28.80859375,-28.3203125,-39.0625,-57.6171875,0.0
316.328125,-55.17578125,-30.2734375,-29.78515625,-46.38671875,-51.7578125,0.0
316.33203125,-32.71484375,-27.34375,-27.83203125,-50.29296875,-69.3359375,0.0
316.3359375,-24.4140625,-23.4375,-20.99609375,-42.96875,-30.76171875,0.0
316.33984375,-41.015625,-28.3203125,-27.83203125,-39.0625,1.953125,0.0
316.34375,-65.91796875,-36.62109375,-34.66796875,-37.59765625,25.87890625,0.0
316.34765625,-65.4296875,-31.73828125,-30.2734375,-39.0625,71.2890625,0.0
316.3515625,-40.0390625,-23.92578125,-27.83203125,-39.0625,92.28515625,0.0
316.35546875,-29.296875,-24.4140625,-35.64453125,-41.015625,54.6875,0.0
316.359375,-41.015625,-23.92578125,-36.62109375,-38.0859375,19.53125,0.0
316.36328125,-60.546875,-31.25,-34.66796875,-46.38671875,29.296875,0.0
316.3671875,-65.4296875,-37.59765625,-34.1796875,-54.19921875,-14.16015625,0.0
316.37109375,-47.8515625,-36.1328125,-31.73828125,-41.015625,5.859375,0.0
316.375,-38.0859375,-30.76171875,-34.1796875,-40.0390625,13.671875,0.0
316.37890625,-47.36328125,-26.85546875,-30.76171875,-36.1328125,-42.48046875,0.0
316.3828125,-55.6640625,-27.34375,-32.71484375,-32.2265625,-38.0859375,0.0
316.38671875,-58.10546875,-27.83203125,-33.203125,-35.64453125,-63.4765625,0.0
316.390625,-42.96875,-27.83203125,-27.83203125,-19.53125,-69.3359375,0.0
316.39453125,-17.578125,-23.4375,-25.390625,-17.08984375,-29.296875,0.0
316.3984375,-17.08984375,-18.06640625,-13.18359375,-30.2734375,-5.37109375,0.0
316.40234375,-39.55078125,-30.2734375,-28.80859375,-29.78515625,-44.921875,0.0
316.40625,-46.38671875,-33.203125,-39.0625,-24.90234375,-41.50390625,0.0
316.41015625,-41.015625,-29.296875,-29.296875,-25.390625,-6.8359375,0.0
316.4140625,-26.85546875,-27.83203125,-29.78515625,-29.296875,-18.5546875,0.0
316.41796875,-22.4609375,-32.2265625,-32.71484375,-31.73828125,-55.17578125,0.0
316.421875,-40.0390625,-36.62109375,-34.1796875,-30.76171875,-57.12890625,0.0
316.42578125,-62.5,-39.0625,-31.73828125,-32.71484375,-41.9921875,0.0
316.4296875,-58.59375,-45.8984375,-26.85546875,-28.80859375,20.99609375,0.0
316.43359375,-33.203125,-39.0625,-28.80859375,-25.87890625,14.16015625,0.0
316.4375,-34.66796875,-31.73828125,-28.80859375,-27.83203125,-44.43359375,0.0
316.44140625,-43.9453125,-27.34375,-29.78515625,-41.015625,-77.1484375,0.0
316.4453125,-49.8046875,-29.296875,-31.73828125,-40.52734375,-77.63671875,0.0
316.44921875,-50.29296875,-32.2265625,-27.83203125,-28.3203125,-98.6328125,0.0
316.453125,-36.62109375,-31.25,-27.83203125,-41.9921875,-65.4296875,0.0
316.45703125,-39.0625,-38.0859375,-25.87890625,-46.875,-29.296875,0.0
316.4609375,-51.26953125,-41.015625,-31.73828125,-44.43359375,-31.25,0.0
316.46484375,-45.8984375,-38.0859375,-38.57421875,-49.8046875,-32.71484375,0.0
316.46875,-27.83203125,-28.3203125,-29.296875,-39.0625,-31.73828125,0.0
316.47265625,-8.30078125,-23.4375,-20.5078125,-27.34375,-66.89453125,0.0
316.4765625,-5.37109375,-29.296875,-24.4140625,-30.2734375,-10.7421875,0.0
316.48046875,-30.2734375,-35.64453125,-34.66796875,-34.66796875,34.1796875,0.0
316.484375,-38.57421875,-28.80859375,-27.83203125,-37.109375,-3.41796875,0.0
316.48828125,-25.390625,-20.99609375,-20.01953125,-33.203125,-37.109375,0.0
316.4921875,-20.01953125,-27.34375,-27.34375,-26.3671875,16.11328125,0.0
316.49609375,-13.18359375,-26.85546875,-32.2265625,-37.59765625,131.8359375,0.0
316.5,-23.92578125,-26.3671875,-29.78515625,-42.96875,24.4140625,0.0
316.50390625,-43.45703125,-33.69140625,-34.1796875,-40.52734375,-51.7578125,0.0
316.5078125,-38.57421875,-35.15625,-36.1328125,-44.921875,-66.40625,0.0
316.51171875,-26.3671875,-31.25,-31.73828125,-39.55078125,-85.44921875,0.0
316.515625,-15.13671875,-32.71484375,-28.3203125,-35.15625,12.20703125,0.0
316.51953125,-17.08984375,-35.15625,-28.3203125,-32.2265625,79.1015625,0.0
316.5234375,-38.0859375,-37.59765625,-31.25,-27.83203125,-37.59765625,0.0
316.52734375,-41.015625,-34.1796875,-29.296875,-45.41015625,-68.359375,0.0
316.53125,-14.6484375,-20.01953125,-10.7421875,-28.3203125,38.57421875,0.0
316.53515625,-10.25390625,-27.34375,-17.08984375,-19.04296875,8.30078125,0.0
316.5390625,-28.3203125,-33.69140625,-33.69140625,-36.1328125,-50.29296875,0.0
316.54296875,-38.57421875,-28.80859375,-31.25,-38.57421875,-54.19921875,0.0
316.546875,-39.0625,-31.25,-34.66796875,-49.31640625,-62.5,0.0
316.55078125,-30.2734375,-32.71484375,-34.66796875,-34.1796875,-90.33203125,0.0
316.5546875,-23.92578125,-34.66796875,-31.73828125,-29.296875,-34.1796875,0.0
316.55859375,-22.4609375,-33.203125,-30.2734375,-35.64453125,-7.8125,0.0
316.5625,-21.484375,-23.92578125,-16.6015625,-15.625,-36.62109375,0.0
316.56640625,-35.64453125,-33.69140625,-31.73828125,-40.0390625,-25.390625,0.0
316.5703125,-35.15625,-37.59765625,-44.43359375,-73.2421875,-62.5,0.0
316.57421875,-11.71875,-28.80859375,-35.64453125,-40.52734375,-34.66796875,0.0
316.578125,-13.18359375,-30.2734375,-42.96875,-28.3203125,36.1328125,0.0
316.58203125,-37.59765625,-31.25,-52.24609375,-46.38671875,38.57421875,0.0
316.5859375,-48.828125,-37.59765625,-42.96875,-44.43359375,7.8125,0.0
316.58984375,-27.34375,-28.80859375,-29.296875,-31.73828125,-24.4140625,0.0
316.59375,-11.71875,-23.4375,-34.1796875,-41.50390625,11.71875,0.0
316.59765625,-28.3203125,-31.73828125,-45.8984375,-46.875,74.21875,0.0
316.6015625,-46.875,-32.2265625,-46.875,-37.59765625,88.8671875,0.0
316.60546875,-43.9453125,-27.34375,-36.62109375,-37.59765625,-16.6015625,0.0
316.609375,-35.15625,-26.85546875,-36.62109375,-58.59375,-122.0703125,0.0
316.61328125,-25.390625,-36.62109375,-35.64453125,-41.9921875,-22.4609375,0.0
316.6171875,-17.08984375,-33.69140625,-29.78515625,-30.76171875,22.94921875,0.0
316.62109375,-21.97265625,-22.4609375,-16.6015625,-32.2265625,-72.75390625,0.0
316.625,-35.64453125,-26.3671875,-17.578125,-24.90234375,-125.0,0.0
316.62890625,-31.25,-34.66796875,-31.25,-36.62109375,-125.9765625,0.0
316.6328125,-10.7421875,-35.64453125,-32.71484375,-49.8046875,-57.12890625,0.0
316.63671875,-6.8359375,-33.203125,-35.64453125,-48.828125,-20.5078125,0.0
316.640625,-29.296875,-37.109375,-38.57421875,-46.875,-62.5,0.0
316.64453125,-48.828125,-37.59765625,-41.9921875,-66.40625,-53.22265625,0.0
316.6484375,-36.62109375,-30.2734375,-38.0859375,-56.640625,-41.015625,0.0
316.65234375,-20.99609375,-30.2734375,-34.66796875,-36.62109375,-31.25,0.0
316.65625,-25.390625,-35.15625,-34.1796875,-46.38671875,8.7890625,0.0
316.66015625,-31.25,-39.55078125,-33.203125,-50.29296875,32.2265625,0.0
316.6640625,-34.66796875,-38.0859375,-33.69140625,-31.73828125,4.39453125,0.0
316.66796875,-38.0859375,-41.015625,-31.25,-34.66796875,-54.19921875,0.0
316.671875,-25.87890625,-37.59765625,-33.203125,-50.29296875,-66.89453125,0.0
316.67578125,-20.5078125,-36.1328125,-32.2265625,-34.66796875,-33.203125,0.0
316.6796875,-30.76171875,-33.69140625,-25.390625,-21.97265625,21.97265625,0.0
316.68359375,-48.828125,-35.15625,-32.71484375,-34.1796875,17.08984375,0.0
316.6875,-61.03515625,-39.0625,-35.15625,-46.875,27.34375,0.0
316.69140625,-48.33984375,-38.57421875,-30.2734375,-53.7109375,33.203125,0.0
316.6953125,-40.52734375,-38.57421875,-31.73828125,-59.08203125,-10.25390625,0.0
316.69921875,-48.828125,-37.109375,-30.76171875,-40.52734375,-13.18359375,0.0
316.703125,-56.640625,-36.1328125,-27.34375,-34.1796875,-26.85546875,0.0
316.70703125,-50.78125,-34.66796875,-22.4609375,-37.59765625,-52.24609375,0.0
316.7109375,-32.71484375,-34.1796875,-17.578125,-34.66796875,-33.69140625,0.0
316.71484375,-27.83203125,-33.69140625,-21.97265625,-38.0859375,-4.39453125,0.0
316.71875,-36.62109375,-32.71484375,-28.80859375,-43.9453125,-61.03515625,0.0
316.72265625,-50.29296875,-32.71484375,-28.3203125,-40.52734375,-107.91015625,0.0
316.7265625,-54.6875,-34.66796875,-17.08984375,-21.484375,-146.97265625,0.0
316.73046875,-45.8984375,-41.9921875,-24.90234375,-28.80859375,-52.734375,0.0
316.734375,-38.57421875,-42.48046875,-36.62109375,-46.875,-11.71875,0.0
316.73828125,-39.0625,-36.1328125,-31.25,-45.8984375,-132.8125,0.0
316.7421875,-55.6640625,-35.64453125,-34.1796875,-45.8984375,-174.8046875,0.0
316.74609375,-60.546875,-38.0859375,-39.0625,-51.7578125,-136.71875,0.0
316.75,-48.33984375,-36.1328125,-34.66796875,-42.96875,-137.6953125,0.0
316.75390625,-23.4375,-31.25,-25.390625,-31.25,-131.8359375,0.0
316.7578125,-18.5546875,-27.34375,-13.18359375,-32.2265625,8.7890625,0.0
316.76171875,-46.875,-30.2734375,-26.85546875,-40.0390625,65.91796875,0.0
316.765625,-60.546875,-38.0859375,-37.59765625,-44.43359375,-16.6015625,0.0
316.76953125,-46.38671875,-34.66796875,-21.484375,-31.25,-8.30078125,0.0
316.7734375,-23.4375,-28.80859375,-15.625,-21.97265625,54.19921875,0.0
316.77734375,-29.78515625,-33.69140625,-29.78515625,-36.62109375,88.8671875,0.0
316.78125,-52.24609375,-36.62109375,-38.0859375,-40.52734375,2.9296875,0.0
316.78515625,-62.5,-33.203125,-32.2265625,-23.92578125,-59.5703125,0.0
316.7890625,-61.5234375,-35.64453125,-25.390625,-31.73828125,-37.59765625,0.0
316.79296875,-48.33984375,-34.66796875,-28.3203125,-53.22265625,-126.953125,0.0
316.796875,-35.15625,-32.71484375,-35.15625,-48.828125,-113.28125,0.0
316.80078125,-49.31640625,-36.1328125,-36.62109375,-34.66796875,-113.76953125,0.0
316.8046875,-72.75390625,-34.66796875,-37.109375,-31.73828125,-212.40234375,0.0
316.80859375,-66.89453125,-38.0859375,-32.71484375,-33.69140625,-178.22265625,0.0
316.8125,-44.43359375,-40.0390625,-31.25,-33.69140625,-43.9453125,0.0
316.81640625,-26.85546875,-25.87890625,-22.4609375,-23.92578125,-14.16015625,0.0
316.8203125,-50.78125,-25.390625,-26.3671875,-26.85546875,-95.21484375,0.0
316.82421875,-70.80078125,-30.2734375,-36.62109375,-34.1796875,-112.79296875,0.0
316.828125,-56.640625,-27.34375,-32.2265625,-41.015625,-56.640625,0.0
316.83203125,-33.69140625,-21.484375,-21.97265625,-36.62109375,2.44140625,0.0
316.8359375,-19.53125,-20.99609375,-24.4140625,-30.2734375,-28.3203125,0.0
316.83984375,-33.203125,-30.76171875,-34.66796875,-43.45703125,-50.29296875,0.0
316.84375,-43.9453125,-32.2265625,-30.2734375,-42.96875,-27.34375,0.0
316.84765625,-41.015625,-31.25,-18.06640625,-29.78515625,-50.78125,0.0
316.8515625,-41.015625,-36.62109375,-22.4609375,-27.34375,-38.57421875,0.0
316.85546875,-32.71484375,-35.64453125,-29.296875,-29.296875,55.17578125,0.0
316.859375,-36.1328125,-35.15625,-29.78515625,-29.296875,8.30078125,0.0
316.86328125,-52.24609375,-32.71484375,-31.73828125,-27.34375,-78.125,0.0
316.8671875,-55.17578125,-31.73828125,-35.64453125,-39.55078125,-64.94140625,0.0
316.87109375,-38.57421875,-30.2734375,-35.64453125,-39.0625,-12.6953125,0.0
316.875,-30.2734375,-25.87890625,-33.203125,-33.203125,197.75390625,0.0
316.87890625,-43.9453125,-34.1796875,-32.71484375,-27.34375,268.06640625,0.0
316.8828125,-63.4765625,-39.0625,-37.109375,-29.296875,201.66015625,0.0
316.88671875,-66.40625,-37.59765625,-34.66796875,-41.015625,147.94921875,0.0
316.890625,-45.8984375,-37.109375,-27.83203125,-32.2265625,63.96484375,0.0
316.89453125,-29.78515625,-32.71484375,-27.83203125,-29.78515625,38.57421875,0.0
316.8984375,-36.62109375,-28.80859375,-29.78515625,-33.203125,35.15625,0.0
316.90234375,-56.640625,-29.78515625,-39.0625,-38.57421875,-26.3671875,0.0
316.90625,-58.10546875,-28.80859375,-36.1328125,-35.15625,-74.70703125,0.0
316.91015625,-46.38671875,-29.296875,-33.203125,-25.87890625,13.671875,0.0
316.9140625,-35.64453125,-31.25,-32.2265625,-20.99609375,131.8359375,0.0
316.91796875,-49.8046875,-33.203125,-31.25,-29.78515625,86.42578125,0.0
316.921875,-61.03515625,-32.71484375,-30.76171875,-34.66796875,10.25390625,0.0
316.92578125,-64.94140625,-30.2734375,-29.296875,-43.45703125,106.4453125,0.0
316.9296875,-63.96484375,-24.4140625,-31.73828125,-45.41015625,120.1171875,0.0
316.93359375,-37.109375,-30.2734375,-24.90234375,-29.78515625,50.78125,0.0
316.9375,-36.62109375,-39.0625,-21.484375,-24.90234375,59.08203125,0.0
316.94140625,-54.6875,-32.2265625,-29.78515625,-26.3671875,-0.48828125,0.0
316.9453125,-65.4296875,-33.203125,-30.76171875,-37.59765625,-159.1796875,0.0
316.94921875,-49.8046875,-27.83203125,-22.94921875,-28.3203125,-152.83203125,0.0
316.953125,-30.2734375,-21.484375,-15.13671875,-20.99609375,24.90234375,0.0
316.95703125,-49.8046875,-31.73828125,-27.34375,-33.203125,112.79296875,0.0
316.9609375,-71.2890625,-35.64453125,-34.1796875,-35.64453125,44.43359375,0.0
316.96484375,-69.82421875,-38.57421875,-31.25,-30.76171875,-7.8125,0.0
316.96875,-60.546875,-40.52734375,-29.296875,-31.73828125,-25.87890625,0.0
316.97265625,-47.36328125,-36.62109375,-27.83203125,-24.90234375,20.5078125,0.0
316.9765625,-42.48046875,-38.0859375,-34.1796875,-23.92578125,47.8515625,0.0
316.98046875,-45.8984375,-38.57421875,-35.64453125,-26.85546875,28.80859375,0.0
316.984375,-52.24609375,-38.0859375,-31.73828125,-24.90234375,-35.15625,0.0
316.98828125,-50.78125,-39.0625,-32.2265625,-40.0390625,-51.7578125,0.0
316.9921875,-33.69140625,-34.1796875,-32.71484375,-42.96875,-5.37109375,0.0
316.99609375,-31.73828125,-30.2734375,-25.87890625,-30.2734375,-6.34765625,0.0
317.0,-52.734375,-36.1328125,-33.203125,-37.109375,4.8828125,0.0
317.00390625,-62.5,-41.50390625,-44.43359375,-57.12890625,-45.8984375,0.0
317.0078125,-53.7109375,-43.9453125,-35.15625,-51.7578125,-111.81640625,0.0
317.01171875,-37.59765625,-39.55078125,-28.80859375,-24.90234375,-59.08203125,0.0
317.015625,-30.76171875,-33.69140625,-37.59765625,-29.296875,-12.6953125,0.0
317.01953125,-35.64453125,-35.15625,-40.0390625,-28.80859375,10.7421875,0.0
317.0234375,-46.38671875,-30.76171875,-35.15625,-17.08984375,-3.90625,0.0
317.02734375,-49.31640625,-31.73828125,-29.296875,-20.01953125,-63.4765625,0.0
317.03125,-36.1328125,-33.203125,-33.203125,-26.3671875,-88.8671875,0.0
317.03515625,-27.34375,-29.296875,-38.0859375,-11.71875,-82.03125,0.0
317.0390625,-43.9453125,-27.83203125,-31.25,-18.06640625,-43.45703125,0.0
317.04296875,-65.4296875,-31.25,-33.203125,-41.50390625,34.1796875,0.0
317.046875,-67.87109375,-40.52734375,-38.57421875,-32.2265625,23.92578125,0.0
317.05078125,-47.8515625,-42.48046875,-35.64453125,-27.83203125,-32.71484375,0.0
317.0546875,-34.1796875,-36.1328125,-28.3203125,-37.59765625,-14.16015625,0.0
317.05859375,-42.96875,-36.62109375,-32.2265625,-26.3671875,58.59375,0.0
317.0625,-68.84765625,-45.8984375,-34.1796875,-13.671875,3.41796875,0.0
317.06640625,-75.1953125,-42.96875,-29.296875,-23.4375,-58.10546875,0.0
317.0703125,-45.41015625,-34.1796875,-25.390625,-24.90234375,39.55078125,0.0
317.07421875,-23.92578125,-29.78515625,-24.4140625,-20.5078125,38.0859375,0.0
317.078125,-29.296875,-28.80859375,-30.76171875,-26.85546875,18.5546875,0.0
317.08203125,-54.6875,-26.3671875,-37.59765625,-47.8515625,30.76171875,0.0
317.0859375,-64.453125,-22.4609375,-29.78515625,-50.78125,27.34375,0.0
317.08984375,-55.17578125,-23.92578125,-22.4609375,-24.4140625,5.37109375,0.0
317.09375,-46.875,-26.85546875,-26.3671875,-31.73828125,-5.37109375,0.0
317.09765625,-45.8984375,-32.2265625,-30.2734375,-32.2265625,42.48046875,0.0
317.1015625,-60.05859375,-32.71484375,-27.34375,-21.484375,0.48828125,0.0
317.10546875,-65.91796875,-29.296875,-26.85546875,-18.06640625,-20.99609375,0.0
317.109375,-52.734375,-27.34375,-25.390625,-21.484375,-41.50390625,0.0
317.11328125,-30.76171875,-24.90234375,-19.53125,-24.90234375,-30.76171875,0.0
317.1171875,-24.90234375,-28.80859375,-23.92578125,-28.3203125,56.640625,0.0
317.12109375,-42.96875,-38.57421875,-34.66796875,-31.73828125,77.1484375,0.0
317.125,-59.08203125,-40.0390625,-39.55078125,-35.64453125,29.296875,0.0
317.12890625,-60.546875,-34.66796875,-29.296875,-50.78125,63.4765625,0.0
317.1328125,-43.45703125,-20.01953125,-16.6015625,-34.66796875,124.0234375,0.0
317.13671875,-45.8984375,-15.13671875,-21.484375,-31.25,96.6796875,0.0
317.140625,-76.171875,-27.83203125,-24.4140625,-44.921875,-9.27734375,0.0
317.14453125,-90.8203125,-30.76171875,-27.83203125,-38.57421875,-131.8359375,0.0
317.1484375,-76.66015625,-27.34375,-18.5546875,-34.66796875,-45.41015625,0.0
317.15234375,-56.640625,-31.73828125,-12.6953125,-43.45703125,77.63671875,0.0
317.15625,-46.38671875,-34.1796875,-20.5078125,-41.50390625,43.45703125,0.0
317.16015625,-63.96484375,-35.64453125,-28.3203125,-37.59765625,-49.8046875,0.0
317.1640625,-76.171875,-34.66796875,-33.203125,-42.96875,-63.4765625,0.0
317.16796875,-67.3828125,-35.15625,-36.62109375,-52.24609375,-87.40234375,0.0
317.171875,-59.08203125,-38.0859375,-33.203125,-46.875,-95.21484375,0.0
317.17578125,-50.78125,-29.78515625,-27.83203125,-22.94921875,-3.90625,0.0
317.1796875,-58.59375,-27.83203125,-37.109375,-33.69140625,-23.4375,0.0
317.18359375,-81.54296875,-37.59765625,-44.43359375,-56.15234375,-57.6171875,0.0
317.1875,-82.03125,-40.0390625,-36.62109375,-51.7578125,-26.85546875,0.0
317.19140625,-50.78125,-28.80859375,-10.7421875,-29.296875,12.6953125,0.0
317.1953125,-46.875,-32.2265625,-17.08984375,-30.76171875,63.4765625,0.0
317.19921875,-59.5703125,-39.55078125,-39.55078125,-36.62109375,58.10546875,0.0
317.203125,-61.5234375,-36.62109375,-40.52734375,-33.203125,64.453125,0.0
317.20703125,-54.19921875,-41.9921875,-32.2265625,-25.390625,48.33984375,0.0
317.2109375,-37.109375,-43.9453125,-28.3203125,-10.7421875,34.66796875,0.0
317.21484375,-24.4140625,-33.69140625,-36.1328125,-22.94921875,15.13671875,0.0
317.21875,-54.6875,-11.71875,-35.64453125,-49.8046875,-127.44140625,0.0
317.22265625,-96.6796875,0.48828125,-26.3671875,-74.70703125,-101.5625,0.0
317.2265625,-104.4921875,-16.6015625,-31.25,-92.7734375,-26.85546875,0.0
317.23046875,-103.515625,-24.90234375,-37.109375,-99.609375,-73.73046875,0.0
317.234375,-102.05078125,-12.6953125,-25.87890625,-103.02734375,-69.82421875,0.0
317.23828125,-92.28515625,-2.9296875,-14.6484375,-85.9375,-106.93359375,0.0
317.2421875,-125.9765625,-28.3203125,-37.59765625,-95.21484375,-65.4296875,0.0
317.24609375,-125.9765625,-37.109375,-43.45703125,-103.515625,2.9296875,0.0
317.25,-97.16796875,-24.4140625,-34.66796875,-97.16796875,-158.69140625,0.0
317.25390625,-83.984375,-23.4375,-32.2265625,-92.28515625,4.8828125,0.0
317.2578125,-77.63671875,-27.34375,-35.64453125,-89.35546875,122.0703125,0.0
317.26171875,-93.26171875,-32.71484375,-42.48046875,-95.21484375,-9.27734375,0.0
317.265625,-86.9140625,-36.62109375,-48.33984375,-72.75390625,-5.859375,0.0
317.26953125,-61.03515625,-39.55078125,-39.55078125,-60.546875,-36.62109375,0.0
317.2734375,-50.78125,-41.015625,-31.25,-55.6640625,-42.96875,0.0
317.27734375,-53.7109375,-40.52734375,-33.69140625,-52.734375,29.296875,0.0
317.28125,-57.12890625,-34.1796875,-27.34375,-49.8046875,-4.39453125,0.0
317.28515625,-64.453125,-36.62109375,-28.80859375,-52.734375,-22.94921875,0.0
317.2890625,-56.15234375,-41.015625,-35.64453125,-51.7578125,-107.91015625,0.0
317.29296875,-31.25,-35.64453125,-33.69140625,-37.59765625,-268.5546875,0.0
317.296875,-17.578125,-39.0625,-35.64453125,-32.71484375,-243.65234375,0.0
317.30078125,-27.83203125,-42.96875,-38.0859375,-35.15625,-181.15234375,0.0
317.3046875,-40.52734375,-39.55078125,-39.55078125,-39.55078125,-118.1640625,0.0
317.30859375,-40.0390625,-38.57421875,-34.1796875,-39.55078125,-112.3046875,0.0
317.3125,-23.92578125,-33.203125,-25.390625,-36.1328125,-58.59375,0.0
317.31640625,-21.97265625,-35.15625,-30.76171875,-34.66796875,-29.296875,0.0
317.3203125,-47.8515625,-40.52734375,-39.0625,-51.7578125,-104.4921875,0.0
317.32421875,-61.5234375,-40.52734375,-39.0625,-52.24609375,-107.421875,0.0
317.328125,-55.6640625,-38.0859375,-29.78515625,-36.62109375,-120.60546875,0.0
317.33203125,-50.78125,-30.76171875,-26.85546875,-49.31640625,-92.28515625,0.0
317.3359375,-40.52734375,-28.3203125,-30.2734375,-55.17578125,-70.3125,0.0
317.33984375,-29.78515625,-31.73828125,-21.97265625,-29.296875,-122.55859375,0.0
317.34375,-40.52734375,-33.203125,-22.94921875,-28.3203125,-94.7265625,0.0
317.34765625,-44.921875,-34.1796875,-26.3671875,-40.0390625,-139.6484375,0.0
317.3515625,-27.34375,-29.78515625,-19.04296875,-30.76171875,-44.921875,0.0
317.35546875,-19.04296875,-26.3671875,-16.6015625,-18.06640625,126.46484375,0.0
317.359375,-36.62109375,-33.69140625,-21.97265625,-28.80859375,89.35546875,0.0
317.36328125,-57.6171875,-35.64453125,-29.78515625,-29.296875,10.7421875,0.0
317.3671875,-61.03515625,-26.3671875,-29.78515625,-31.73828125,-38.0859375,0.0
317.37109375,-38.57421875,-20.5078125,-17.578125,-41.9921875,-48.828125,0.0
317.375,-30.76171875,-27.34375,-26.3671875,-39.0625,70.3125,0.0
317.37890625,-43.9453125,-34.66796875,-41.015625,-32.2265625,25.87890625,0.0
317.3828125,-54.19921875,-30.2734375,-30.76171875,-27.34375,-82.51953125,0.0
317.38671875,-55.17578125,-26.85546875,-27.83203125,-32.71484375,-2.44140625,0.0
317.390625,-44.43359375,-29.296875,-31.25,-24.90234375,55.17578125,0.0
317.39453125,-27.34375,-33.203125,-31.73828125,-23.4375,50.78125,0.0
317.3984375,-31.25,-32.71484375,-27.83203125,-17.578125,0.9765625,0.0
317.40234375,-54.6875,-30.2734375,-27.83203125,-20.99609375,-15.13671875,0.0
317.40625,-59.5703125,-34.1796875,-30.2734375,-41.50390625,-7.8125,0.0
317.41015625,-41.50390625,-32.71484375,-30.2734375,-33.203125,-89.84375,0.0
317.4140625,-22.94921875,-24.4140625,-23.92578125,-25.87890625,-87.40234375,0.0
317.41796875,-27.83203125,-21.484375,-18.5546875,-26.3671875,31.25,0.0
317.421875,-50.29296875,-25.390625,-31.73828125,-19.53125,107.421875,0.0
317.42578125,-57.12890625,-33.69140625,-30.2734375,-22.4609375,122.55859375,0.0
317.4296875,-51.26953125,-35.64453125,-20.5078125,-29.78515625,93.75,0.0
317.43359375,-42.48046875,-22.94921875,-19.04296875,-32.2265625,66.40625,0.0
317.4375,-39.55078125,-21.97265625,-26.3671875,-35.15625,-22.94921875,0.0
317.44140625,-61.03515625,-29.78515625,-35.64453125,-36.62109375,-113.28125,0.0
317.4453125,-74.21875,-30.76171875,-29.296875,-39.0625,-94.23828125,0.0
317.44921875,-70.3125,-33.203125,-28.80859375,-57.6171875,-44.43359375,0.0
317.453125,-63.96484375,-32.71484375,-32.2265625,-54.19921875,39.0625,0.0
317.45703125,-68.84765625,-35.64453125,-34.66796875,-36.62109375,1.953125,0.0
317.4609375,-76.66015625,-36.1328125,-35.15625,-40.0390625,-75.1953125,0.0
317.46484375,-81.0546875,-36.1328125,-35.15625,-48.828125,-120.1171875,0.0
317.46875,-69.82421875,-31.73828125,-32.71484375,-43.45703125,-39.55078125,0.0
317.47265625,-47.8515625,-27.83203125,-27.83203125,-37.59765625,-11.71875,0.0
317.4765625,-35.64453125,-26.3671875,-20.5078125,-24.90234375,9.27734375,0.0
317.48046875,-48.33984375,-28.80859375,-24.4140625,-27.83203125,119.140625,0.0
317.484375,-70.3125,-32.2265625,-32.71484375,-37.59765625,51.26953125,0.0
317.48828125,-61.5234375,-28.80859375,-25.390625,-38.57421875,15.13671875,0.0
317.4921875,-45.41015625,-24.90234375,-21.484375,-40.0390625,119.140625,0.0
317.49609375,-44.43359375,-26.3671875,-26.85546875,-45.8984375,176.26953125,0.0
317.5,-55.6640625,-31.73828125,-31.25,-38.57421875,121.58203125,0.0
317.50390625,-68.359375,-38.0859375,-25.390625,-38.57421875,106.4453125,0.0
317.5078125,-65.4296875,-36.1328125,-15.13671875,-43.45703125,81.54296875,0.0
317.51171875,-51.7578125,-33.69140625,-22.94921875,-35.64453125,-24.90234375,0.0
317.515625,-33.203125,-32.2265625,-27.34375,-44.921875,-1.46484375,0.0
317.51953125,-35.64453125,-28.3203125,-29.78515625,-40.52734375,79.58984375,0.0
317.5234375,-56.15234375,-32.2265625,-35.15625,-32.2265625,24.90234375,0.0
317.52734375,-57.6171875,-33.203125,-33.203125,-38.57421875,-64.94140625,0.0
317.53125,-40.52734375,-29.78515625,-31.25,-40.52734375,-42.48046875,0.0
317.53515625,-22.4609375,-34.66796875,-27.83203125,-31.73828125,-18.06640625,0.0
317.5390625,-26.85546875,-36.62109375,-35.64453125,-29.78515625,-69.82421875,0.0
317.54296875,-47.8515625,-34.1796875,-42.96875,-33.69140625,-94.7265625,0.0
317.546875,-45.41015625,-33.69140625,-31.73828125,-41.015625,-116.69921875,0.0
317.55078125,-33.203125,-31.25,-21.484375,-37.59765625,-114.74609375,0.0
317.5546875,-23.4375,-28.80859375,-21.484375,-24.4140625,-90.8203125,0.0
317.55859375,-25.87890625,-24.4140625,-28.3203125,-39.0625,-99.12109375,0.0
317.5625,-43.9453125,-26.85546875,-33.69140625,-52.734375,-92.28515625,0.0
317.56640625,-38.0859375,-28.3203125,-19.53125,-26.85546875,-31.73828125,0.0
317.5703125,-18.5546875,-21.484375,-12.6953125,-26.85546875,-48.33984375,0.0
317.57421875,-10.25390625,-22.4609375,-19.04296875,-33.203125,10.25390625,0.0
317.578125,-20.01953125,-27.83203125,-22.94921875,-35.15625,85.44921875,0.0
317.58203125,-40.0390625,-31.73828125,-29.78515625,-41.50390625,52.734375,0.0
317.5859375,-46.875,-29.78515625,-30.76171875,-40.52734375,39.0625,0.0
317.58984375,-43.45703125,-36.1328125,-31.73828125,-38.57421875,76.171875,0.0
317.59375,-23.4375,-35.64453125,-21.97265625,-28.80859375,48.33984375,0.0
317.59765625,-22.94921875,-27.34375,-15.13671875,-38.57421875,13.671875,0.0
317.6015625,-61.03515625,-31.25,-24.4140625,-42.96875,50.78125,0.0
317.60546875,-65.4296875,-32.2265625,-33.69140625,-37.59765625,1.953125,0.0
317.609375,-40.0390625,-27.83203125,-23.4375,-47.36328125,-59.08203125,0.0
317.61328125,-11.23046875,-19.04296875,1.953125,-15.13671875,21.97265625,0.0
317.6171875,-20.01953125,-25.390625,-14.6484375,-17.578125,80.56640625,0.0
317.62109375,-46.875,-30.76171875,-28.80859375,-35.15625,14.16015625,0.0
317.625,-56.640625,-33.69140625,-29.296875,-21.97265625,-38.57421875,0.0
317.62890625,-52.24609375,-34.66796875,-31.25,-22.94921875,28.3203125,0.0
317.6328125,-28.3203125,-28.80859375,-30.76171875,-29.296875,106.4453125,0.0
317.63671875,-18.5546875,-26.85546875,-31.25,-32.2265625,148.4375,0.0
317.640625,-39.0625,-28.80859375,-34.1796875,-38.0859375,124.51171875,0.0
317.64453125,-50.29296875,-26.85546875,-35.64453125,-50.78125,8.7890625,0.0
317.6484375,-44.43359375,-24.90234375,-37.59765625,-56.640625,-35.64453125,0.0
317.65234375,-31.25,-25.87890625,-32.71484375,-51.7578125,-40.0390625,0.0
317.65625,-11.71875,-20.5078125,-13.18359375,-32.2265625,-9.27734375,0.0
317.66015625,-28.80859375,-28.3203125,-20.99609375,-31.25,-37.59765625,0.0
317.6640625,-53.22265625,-34.1796875,-34.66796875,-36.62109375,-169.921875,0.0
317.66796875,-41.9921875,-32.2265625,-25.390625,-29.78515625,-133.30078125,0.0
317.671875,-19.04296875,-30.2734375,-19.53125,-34.66796875,-13.671875,0.0
317.67578125,-12.6953125,-28.3203125,-32.2265625,-45.41015625,4.39453125,0.0
317.6796875,-28.3203125,-32.71484375,-37.59765625,-32.71484375,-26.3671875,0.0
317.68359375,-50.29296875,-35.64453125,-29.296875,-21.484375,-37.109375,0.0
317.6875,-49.31640625,-28.3203125,-20.01953125,-25.87890625,-46.38671875,0.0
317.69140625,-37.109375,-27.83203125,-26.3671875,-33.203125,-79.58984375,0.0
317.6953125,-34.66796875,-30.76171875,-33.69140625,-34.1796875,-52.24609375,0.0
317.69921875,-30.76171875,-19.04296875,-29.78515625,-25.87890625,-34.1796875,0.0
317.703125,-32.71484375,-16.6015625,-24.4140625,-23.92578125,-120.1171875,0.0
317.70703125,-47.36328125,-32.2265625,-31.25,-40.0390625,-144.53125,0.0
317.7109375,-42.96875,-34.1796875,-34.66796875,-44.43359375,-96.6796875,0.0
317.71484375,-22.4609375,-26.85546875,-33.203125,-33.69140625,-67.3828125,0.0
317.71875,-28.3203125,-23.92578125,-33.69140625,-41.9921875,-23.4375,0.0
317.72265625,-51.26953125,-33.69140625,-40.0390625,-47.8515625,-8.30078125,0.0
317.7265625,-49.8046875,-36.1328125,-38.0859375,-38.0859375,-8.30078125,0.0
317.73046875,-30.2734375,-24.4140625,-25.87890625,-30.76171875,-24.4140625,0.0
317.734375,-30.76171875,-23.4375,-29.78515625,-38.0859375,-49.8046875,0.0
317.73828125,-51.7578125,-30.2734375,-41.50390625,-48.33984375,-96.6796875,0.0
317.7421875,-62.01171875,-29.296875,-36.1328125,-48.33984375,-75.1953125,0.0
317.74609375,-41.50390625,-15.625,-18.5546875,-36.62109375,-71.2890625,0.0
317.75,-28.80859375,-24.4140625,-20.5078125,-44.921875,-32.2265625,0.0
317.75390625,-25.390625,-35.64453125,-32.2265625,-53.22265625,56.640625,0.0
317.7578125,-26.85546875,-32.71484375,-33.69140625,-38.57421875,57.6171875,0.0
317.76171875,-46.38671875,-34.1796875,-30.76171875,-43.45703125,55.6640625,0.0
317.765625,-49.31640625,-35.15625,-31.25,-54.19921875,65.4296875,0.0
317.76953125,-29.78515625,-30.2734375,-36.1328125,-42.96875,13.671875,0.0
317.7734375,-12.20703125,-24.4140625,-25.87890625,-34.66796875,-0.48828125,0.0
317.77734375,-14.6484375,-23.92578125,-13.671875,-34.1796875,8.7890625,0.0
317.78125,-41.50390625,-28.3203125,-35.64453125,-44.921875,28.80859375,0.0
317.78515625,-50.29296875,-34.66796875,-42.48046875,-46.875,83.49609375,0.0
317.7890625,-33.203125,-36.1328125,-29.296875,-37.59765625,13.671875,0.0
317.79296875,-20.01953125,-33.69140625,-24.90234375,-37.59765625,-66.89453125,0.0
317.796875,-25.87890625,-33.69140625,-35.64453125,-40.52734375,-2.9296875,0.0
317.80078125,-39.0625,-35.15625,-40.52734375,-45.8984375,16.6015625,0.0
317.8046875,-45.41015625,-33.69140625,-37.59765625,-56.640625,-37.59765625,0.0
317.80859375,-36.62109375,-36.1328125,-34.1796875,-36.62109375,5.859375,0.0
317.8125,-24.90234375,-38.57421875,-29.296875,-38.0859375,-18.06640625,0.0
317.81640625,-16.11328125,-36.62109375,-28.3203125,-36.62109375,-37.109375,0.0
317.8203125,-32.2265625,-37.59765625,-32.71484375,-30.2734375,-69.3359375,0.0
317.82421875,-54.19921875,-39.0625,-35.15625,-39.55078125,-96.19140625,0.0
317.828125,-32.71484375,-36.1328125,-32.71484375,-30.76171875,-68.359375,0.0
317.83203125,-3.90625,-28.80859375,-24.4140625,-21.484375,-27.34375,0.0
317.8359375,8.30078125,-16.6015625,-15.625,-22.94921875,38.57421875,0.0
317.83984375,-21.484375,-25.87890625,-25.87890625,-36.1328125,20.5078125,0.0
317.84375,-46.875,-37.59765625,-39.55078125,-46.38671875,4.8828125,0.0
317.84765625,-36.62109375,-36.62109375,-34.66796875,-35.64453125,11.23046875,0.0
317.8515625,-21.97265625,-28.80859375,-22.4609375,-31.25,-5.859375,0.0
317.85546875,-18.06640625,-33.69140625,-32.2265625,-42.96875,16.6015625,0.0
317.859375,-31.73828125,-50.29296875,-44.43359375,-52.24609375,39.55078125,0.0
317.86328125,-47.36328125,-45.8984375,-35.15625,-54.19921875,-9.765625,0.0
317.8671875,-48.828125,-31.25,-31.25,-41.50390625,5.37109375,0.0
317.87109375,-24.4140625,-26.85546875,-34.66796875,-38.57421875,59.5703125,0.0
317.875,-8.30078125,-26.85546875,-32.2265625,-38.57421875,2.44140625,0.0
317.87890625,-23.92578125,-25.390625,-29.296875,-27.83203125,-1.46484375,0.0
317.8828125,-39.0625,-22.4609375,-25.390625,-28.3203125,-53.22265625,0.0
317.88671875,-47.8515625,-28.3203125,-25.390625,-21.484375,-107.421875,0.0
317.890625,-33.69140625,-32.2265625,-21.484375,-18.06640625,-20.01953125,0.0
317.89453125,-16.6015625,-25.87890625,-16.11328125,-20.99609375,95.21484375,0.0
317.8984375,-28.80859375,-24.90234375,-14.6484375,-27.34375,53.22265625,0.0
317.90234375,-56.640625,-33.203125,-23.4375,-25.87890625,-73.73046875,0.0
317.90625,-64.94140625,-32.71484375,-31.25,-20.01953125,-82.03125,0.0
317.91015625,-40.0390625,-28.80859375,-29.296875,-24.90234375,12.6953125,0.0
317.9140625,-18.5546875,-28.3203125,-28.3203125,-25.390625,87.890625,0.0
317.91796875,-24.4140625,-31.73828125,-33.69140625,-24.4140625,3.41796875,0.0
317.921875,-41.9921875,-36.62109375,-34.66796875,-26.85546875,-90.33203125,0.0
317.92578125,-47.8515625,-30.76171875,-32.71484375,-36.1328125,-100.09765625,0.0
317.9296875,-35.64453125,-24.4140625,-27.83203125,-30.76171875,-62.01171875,0.0
317.93359375,-18.06640625,-22.94921875,-23.4375,-27.34375,-43.45703125,0.0
317.9375,-27.34375,-29.296875,-23.4375,-32.2265625,-97.16796875,0.0
317.94140625,-50.29296875,-30.76171875,-20.5078125,-31.25,-90.33203125,0.0
317.9453125,-66.89453125,-26.85546875,-22.4609375,-34.1796875,-14.16015625,0.0
317.94921875,-59.08203125,-32.71484375,-20.01953125,-45.8984375,-27.34375,0.0
317.953125,-37.59765625,-29.78515625,-17.08984375,-47.8515625,-17.578125,0.0
317.95703125,-33.203125,-20.99609375,-17.578125,-36.1328125,-47.36328125,0.0
317.9609375,-57.12890625,-23.92578125,-17.578125,-35.64453125,-140.13671875,0.0
317.96484375,-73.2421875,-29.296875,-14.6484375,-43.45703125,-109.86328125,0.0
317.96875,-48.33984375,-25.87890625,-16.11328125,-51.26953125,-22.94921875,0.0
317.97265625,-33.69140625,-19.53125,-26.85546875,-58.10546875,-15.625,0.0
317.9765625,-66.89453125,-18.06640625,-29.296875,-85.9375,59.08203125,0.0
317.98046875,-91.30859375,-17.08984375,-31.25,-95.21484375,74.21875,0.0
317.984375,-76.171875,-12.6953125,-25.390625,-72.75390625,-51.7578125,0.0
317.98828125,-59.5703125,-5.859375,-11.71875,-81.0546875,10.7421875,0.0
317.9921875,-65.4296875,1.953125,-21.484375,-105.46875,41.015625,0.0
317.99609375,-70.3125,10.7421875,-22.4609375,-97.16796875,-28.3203125,0.0
318.0,-85.44921875,16.11328125,-21.97265625,-110.3515625,32.2265625,0.0
318.00390625,-114.2578125,16.11328125,-31.25,-133.30078125,-26.3671875,0.0
318.0078125,-117.67578125,21.484375,-26.85546875,-141.6015625,-84.47265625,0.0
318.01171875,-111.328125,37.109375,-17.578125,-145.99609375,-9.27734375,0.0
318.015625,-117.67578125,43.9453125,-10.25390625,-143.06640625,21.97265625,0.0
318.01953125,-135.7421875,43.45703125,-10.7421875,-155.2734375,-14.16015625,0.0
318.0234375,-155.2734375,55.17578125,-14.6484375,-176.7578125,-88.8671875,0.0
318.02734375,-163.57421875,53.22265625,-22.4609375,-179.6875,-2.44140625,0.0
318.03125,-150.390625,54.6875,-20.99609375,-184.5703125,74.21875,0.0
318.03515625,-158.203125,52.24609375,-21.484375,-197.75390625,46.875,0.0
318.0390625,-173.828125,47.8515625,-34.1796875,-192.87109375,4.39453125,0.0
318.04296875,-179.19921875,49.8046875,-38.0859375,-206.0546875,-21.97265625,0.0
318.046875,-176.7578125,53.22265625,-35.15625,-206.54296875,-25.87890625,0.0
318.05078125,-160.64453125,65.91796875,-33.203125,-181.640625,-33.69140625,0.0
318.0546875,-148.92578125,71.77734375,-35.15625,-185.546875,-31.25,0.0
318.05859375,-154.78515625,66.89453125,-36.62109375,-183.10546875,-87.890625,0.0
318.0625,-153.80859375,62.5,-30.76171875,-160.64453125,-54.19921875,0.0
318.06640625,-142.08984375,52.24609375,-46.38671875,-152.83203125,-69.82421875,0.0
318.0703125,-141.11328125,46.38671875,-52.24609375,-162.59765625,-90.33203125,0.0
318.07421875,-118.65234375,51.7578125,-39.0625,-157.71484375,34.66796875,0.0
318.078125,-86.42578125,57.6171875,-36.1328125,-148.4375,59.5703125,0.0
318.08203125,-105.95703125,43.45703125,-55.6640625,-149.4140625,20.99609375,0.0
318.0859375,-110.3515625,36.1328125,-54.6875,-136.23046875,-15.13671875,0.0
318.08984375,-83.984375,31.25,-52.734375,-117.1875,-43.45703125,0.0
318.09375,-65.91796875,24.4140625,-65.91796875,-109.375,-63.96484375,0.0
318.09765625,-62.98828125,18.5546875,-67.87109375,-110.3515625,-62.01171875,0.0
318.1015625,-69.82421875,10.7421875,-62.98828125,-96.6796875,5.859375,0.0
318.10546875,-70.3125,12.6953125,-63.96484375,-93.75,67.87109375,0.0
318.109375,-57.6171875,10.25390625,-59.08203125,-92.28515625,79.58984375,0.0
318.11328125,-49.31640625,-0.9765625,-57.6171875,-77.1484375,39.55078125,0.0
318.1171875,-35.15625,-4.39453125,-62.98828125,-71.77734375,31.25,0.0
318.12109375,-22.94921875,-9.765625,-63.4765625,-58.59375,37.109375,0.0
318.125,-26.85546875,-24.4140625,-69.3359375,-41.50390625,65.91796875,0.0
318.12890625,-20.99609375,-33.69140625,-66.40625,-23.92578125,57.12890625,0.0
318.1328125,0.48828125,-38.57421875,-55.17578125,-15.625,15.13671875,0.0
318.13671875,5.37109375,-38.57421875,-57.6171875,-11.23046875,28.3203125,0.0
318.140625,-11.23046875,-46.875,-57.12890625,-0.9765625,30.2734375,0.0
318.14453125,-21.484375,-60.05859375,-52.734375,7.8125,35.64453125,0.0
318.1484375,-13.671875,-66.89453125,-45.41015625,7.8125,-73.73046875,0.0
318.15234375,9.765625,-78.61328125,-48.33984375,13.18359375,-139.16015625,0.0
318.15625,19.53125,-82.51953125,-56.15234375,25.390625,-26.85546875,0.0
318.16015625,9.765625,-87.890625,-50.78125,29.296875,52.24609375,0.0
318.1640625,1.46484375,-92.7734375,-48.828125,37.59765625,14.16015625,0.0
318.16796875,14.6484375,-91.30859375,-49.31640625,46.38671875,-86.42578125,0.0
318.171875,27.34375,-97.65625,-42.48046875,48.828125,-84.47265625,0.0
318.17578125,30.76171875,-104.98046875,-42.96875,57.12890625,18.5546875,0.0
318.1796875,29.78515625,-104.98046875,-39.55078125,72.75390625,-45.41015625,0.0
318.18359375,22.4609375,-98.6328125,-30.76171875,72.265625,-123.53515625,0.0
318.1875,20.99609375,-109.375,-32.71484375,64.453125,-41.50390625,0.0
318.19140625,46.38671875,-110.83984375,-35.15625,68.359375,-7.8125,0.0
318.1953125,58.10546875,-101.07421875,-30.2734375,83.49609375,-8.7890625,0.0
318.19921875,35.15625,-102.05078125,-29.296875,83.0078125,-4.39453125,0.0
318.203125,20.01953125,-101.5625,-35.15625,70.3125,-16.11328125,0.0
318.20703125,30.2734375,-98.14453125,-29.78515625,79.1015625,-87.890625,0.0
318.2109375,53.7109375,-93.26171875,-25.87890625,89.84375,-66.40625,0.0
318.21484375,64.453125,-91.30859375,-33.203125,73.73046875,-3.41796875,0.0
318.21875,49.31640625,-93.75,-40.0390625,62.98828125,31.25,0.0
318.22265625,34.1796875,-93.26171875,-36.62109375,62.5,115.72265625,0.0
318.2265625,35.15625,-90.8203125,-22.94921875,63.96484375,38.0859375,0.0
318.23046875,37.109375,-89.35546875,-21.97265625,63.96484375,-50.78125,0.0
318.234375,52.24609375,-84.47265625,-27.83203125,58.59375,-10.7421875,0.0
318.23828125,48.828125,-79.58984375,-31.73828125,57.12890625,-16.6015625,0.0
318.2421875,19.53125,-82.03125,-35.15625,46.875,-30.2734375,0.0
318.24609375,17.08984375,-80.078125,-34.66796875,39.55078125,27.34375,0.0
318.25,39.0625,-79.1015625,-32.2265625,37.59765625,36.1328125,0.0
318.25390625,53.7109375,-73.73046875,-23.92578125,42.48046875,-20.5078125,0.0
318.2578125,42.48046875,-62.98828125,-21.484375,41.015625,33.69140625,0.0
318.26171875,20.01953125,-62.98828125,-32.71484375,28.80859375,66.89453125,0.0
318.265625,4.8828125,-71.77734375,-34.66796875,23.92578125,-26.3671875,0.0
318.26953125,12.20703125,-66.40625,-20.99609375,18.06640625,-104.98046875,0.0
318.2734375,32.2265625,-56.15234375,-16.6015625,22.94921875,-98.6328125,0.0
318.27734375,29.296875,-61.5234375,-31.73828125,17.08984375,-55.6640625,0.0
318.28125,17.578125,-56.15234375,-33.69140625,12.20703125,8.30078125,0.0
318.28515625,-0.48828125,-54.6875,-24.4140625,20.5078125,59.08203125,0.0
318.2890625,-5.859375,-59.5703125,-20.5078125,16.11328125,46.38671875,0.0
318.29296875,14.6484375,-54.19921875,-21.97265625,5.37109375,38.0859375,0.0
318.296875,13.671875,-50.78125,-26.85546875,2.44140625,18.06640625,0.0
318.30078125,-7.8125,-51.26953125,-32.2265625,-18.5546875,1.46484375,0.0
318.3046875,-25.87890625,-54.6875,-30.76171875,-24.90234375,-26.85546875,0.0
318.30859375,-18.5546875,-56.15234375,-27.34375,-0.48828125,-45.8984375,0.0
318.3125,0.9765625,-52.24609375,-22.94921875,-1.46484375,-9.27734375,0.0
318.31640625,4.8828125,-54.6875,-15.13671875,-6.8359375,30.76171875,0.0
318.3203125,-7.32421875,-55.6640625,-19.53125,-4.39453125,30.76171875,0.0
318.32421875,-23.4375,-49.8046875,-29.296875,-2.9296875,-7.32421875,0.0
318.328125,-15.625,-42.48046875,-29.296875,-4.39453125,-17.08984375,0.0
318.33203125,4.39453125,-40.0390625,-27.83203125,-5.859375,-23.4375,0.0
318.3359375,8.30078125,-41.015625,-29.78515625,-2.44140625,-42.96875,0.0
318.33984375,-13.18359375,-43.45703125,-35.64453125,-16.11328125,-31.25,0.0
318.34375,-31.25,-47.8515625,-38.57421875,-38.0859375,0.48828125,0.0
318.34765625,-21.97265625,-44.43359375,-27.83203125,-24.4140625,-81.54296875,0.0
318.3515625,-17.578125,-40.0390625,-30.2734375,-19.04296875,-152.34375,0.0
318.35546875,-16.6015625,-45.8984375,-33.203125,-34.1796875,-54.19921875,0.0
318.359375,-19.04296875,-48.33984375,-29.296875,-35.64453125,-34.66796875,0.0
318.36328125,-26.85546875,-42.48046875,-21.484375,-22.94921875,-154.296875,0.0
318.3671875,-31.25,-47.36328125,-24.90234375,-30.2734375,-112.3046875,0.0
318.37109375,-20.99609375,-53.22265625,-26.85546875,-24.4140625,-29.296875,0.0
318.375,-10.7421875,-45.8984375,-24.4140625,-5.37109375,63.96484375,0.0
318.37890625,-26.3671875,-36.1328125,-34.1796875,-16.6015625,45.41015625,0.0
318.3828125,-46.875,-38.0859375,-42.96875,-43.9453125,-96.19140625,0.0
318.38671875,-42.48046875,-39.55078125,-34.1796875,-42.48046875,-178.22265625,0.0
318.390625,-21.97265625,-36.1328125,-26.3671875,-26.3671875,-91.796875,0.0
318.39453125,-9.765625,-34.66796875,-29.78515625,-25.87890625,53.7109375,0.0
318.3984375,-19.53125,-32.2265625,-37.59765625,-49.8046875,116.2109375,0.0
318.40234375,-36.1328125,-36.62109375,-39.55078125,-44.43359375,17.578125,0.0
318.40625,-32.71484375,-35.15625,-25.390625,-17.578125,-170.41015625,0.0
318.41015625,-25.87890625,-28.3203125,-25.390625,-24.4140625,-118.65234375,0.0
318.4140625,-24.90234375,-28.3203125,-36.62109375,-33.69140625,61.5234375,0.0
318.41796875,-26.85546875,-29.296875,-37.59765625,-32.2265625,52.734375,0.0
318.421875,-37.59765625,-27.83203125,-38.57421875,-30.76171875,15.13671875,0.0
318.42578125,-52.24609375,-33.69140625,-41.9921875,-38.57421875,21.484375,0.0
318.4296875,-39.0625,-32.71484375,-40.52734375,-39.55078125,-17.08984375,0.0
318.43359375,-1.953125,-18.06640625,-32.71484375,-29.296875,-16.6015625,0.0
318.4375,-6.8359375,-23.92578125,-24.90234375,-24.4140625,-28.80859375,0.0
318.44140625,-30.2734375,-32.71484375,-33.69140625,-25.390625,-8.30078125,0.0
318.4453125,-39.0625,-29.296875,-41.015625,-41.50390625,-67.3828125,0.0
318.44921875,-19.04296875,-21.97265625,-27.34375,-34.1796875,-96.6796875,0.0
318.453125,15.625,-1.953125,-0.48828125,-10.25390625,-41.9921875,0.0
318.45703125,2.44140625,-12.6953125,-21.97265625,-26.3671875,-8.30078125,0.0
318.4609375,-30.2734375,-34.66796875,-43.9453125,-43.45703125,-23.4375,0.0
318.46484375,-44.43359375,-33.203125,-39.0625,-36.62109375,-68.359375,0.0
318.46875,-37.59765625,-32.2265625,-37.109375,-48.33984375,-91.796875,0.0
318.47265625,-19.04296875,-35.15625,-36.62109375,-45.41015625,-80.078125,0.0
318.4765625,-15.13671875,-38.57421875,-31.25,-21.97265625,-26.3671875,0.0
318.48046875,-26.85546875,-39.55078125,-37.109375,-24.4140625,5.37109375,0.0
318.484375,-32.71484375,-36.1328125,-39.55078125,-29.78515625,-67.3828125,0.0
318.48828125,-26.85546875,-37.109375,-25.390625,-23.92578125,-70.80078125,0.0
318.4921875,-7.32421875,-28.3203125,-20.99609375,-19.53125,-29.78515625,0.0
318.49609375,11.71875,-11.71875,-4.39453125,-14.6484375,-40.52734375,0.0
318.5,-5.859375,-19.04296875,-10.25390625,-20.01953125,-19.53125,0.0
318.50390625,-34.1796875,-34.1796875,-32.71484375,-20.99609375,-62.01171875,0.0
318.5078125,-30.2734375,-34.1796875,-30.2734375,-22.94921875,-133.30078125,0.0
318.51171875,-3.90625,-25.87890625,-14.16015625,-17.08984375,-90.8203125,0.0
318.515625,-0.48828125,-30.76171875,-24.4140625,-15.13671875,-18.5546875,0.0
318.51953125,-16.11328125,-36.62109375,-36.1328125,-20.99609375,-120.1171875,0.0
318.5234375,-25.87890625,-30.76171875,-25.390625,-22.4609375,-200.68359375,0.0
318.52734375,-25.87890625,-30.76171875,-19.53125,-16.6015625,-30.76171875,0.0
318.53125,-24.90234375,-33.69140625,-30.76171875,-19.53125,87.890625,0.0
318.53515625,-7.32421875,-32.2265625,-37.59765625,-21.484375,131.8359375,0.0
318.5390625,2.44140625,-26.85546875,-31.25,-21.484375,88.37890625,0.0
318.54296875,-15.625,-23.92578125,-35.64453125,-12.6953125,-55.6640625,0.0
318.546875,-36.62109375,-28.3203125,-41.50390625,-6.8359375,-63.4765625,0.0
318.55078125,-30.2734375,-34.1796875,-30.76171875,-20.01953125,-40.0390625,0.0
318.5546875,-11.71875,-39.0625,-26.3671875,-18.06640625,-123.53515625,0.0
318.55859375,-13.671875,-37.59765625,-25.87890625,-3.90625,-86.9140625,0.0
318.5625,-34.1796875,-38.57421875,-32.71484375,-12.20703125,-60.546875,0.0
318.56640625,-35.64453125,-43.45703125,-29.296875,-15.13671875,-121.09375,0.0
318.5703125,-17.578125,-41.50390625,-21.97265625,-4.39453125,-90.8203125,0.0
318.57421875,-9.27734375,-35.64453125,-25.390625,-0.9765625,-74.21875,0.0
318.578125,-23.4375,-31.25,-31.73828125,-18.06640625,-65.4296875,0.0
318.58203125,-45.41015625,-38.57421875,-35.15625,-25.87890625,-39.0625,0.0
318.5859375,-41.015625,-35.15625,-28.80859375,-18.06640625,-44.43359375,0.0
318.58984375,-26.3671875,-30.2734375,-25.87890625,-17.578125,29.296875,0.0
318.59375,-14.16015625,-31.25,-26.85546875,-19.53125,90.33203125,0.0
318.59765625,-28.80859375,-35.15625,-33.69140625,-20.99609375,60.546875,0.0
318.6015625,-51.26953125,-40.0390625,-32.71484375,-16.6015625,74.70703125,0.0
318.60546875,-54.19921875,-38.57421875,-23.4375,-30.2734375,6.34765625,0.0
318.609375,-42.96875,-38.0859375,-24.4140625,-30.76171875,-12.6953125,0.0
318.61328125,-30.76171875,-39.55078125,-25.390625,-24.4140625,-45.41015625,0.0
318.6171875,-15.625,-25.390625,-20.01953125,-23.92578125,-40.52734375,0.0
318.62109375,-21.484375,-23.92578125,-23.92578125,-20.01953125,91.30859375,0.0
318.625,-40.52734375,-35.15625,-32.2265625,-22.4609375,93.26171875,0.0
318.62890625,-34.1796875,-39.0625,-35.15625,-30.76171875,-29.78515625,0.0
318.6328125,-22.4609375,-33.69140625,-33.203125,-32.71484375,-39.55078125,0.0
318.63671875,-35.15625,-34.66796875,-33.203125,-16.11328125,20.01953125,0.0
318.640625,-50.78125,-41.9921875,-39.0625,-16.6015625,17.578125,0.0
318.64453125,-46.875,-40.0390625,-34.1796875,-22.4609375,-66.89453125,0.0
318.6484375,-41.50390625,-33.203125,-17.08984375,-16.6015625,-87.40234375,0.0
318.65234375,-30.2734375,-30.2734375,-20.99609375,-13.18359375,-32.2265625,0.0
318.65625,-27.83203125,-33.203125,-25.87890625,-29.78515625,-38.0859375,0.0
318.66015625,-35.64453125,-34.66796875,-25.390625,-37.109375,-3.90625,0.0
318.6640625,-36.62109375,-32.71484375,-32.2265625,-34.1796875,-2.44140625,0.0
318.66796875,-32.2265625,-29.296875,-30.76171875,-33.69140625,-23.92578125,0.0
318.671875,-23.92578125,-32.2265625,-21.484375,-41.50390625,-20.5078125,0.0
318.67578125,-18.5546875,-42.48046875,-19.53125,-32.71484375,-121.58203125,0.0
318.6796875,-28.80859375,-36.1328125,-27.34375,-23.4375,-127.44140625,0.0
318.68359375,-47.8515625,-29.78515625,-33.69140625,-28.3203125,-67.87109375,0.0
318.6875,-49.31640625,-33.69140625,-35.64453125,-28.80859375,-83.0078125,0.0
318.69140625,-26.3671875,-30.76171875,-24.4140625,-23.92578125,-54.19921875,0.0
318.6953125,-16.11328125,-26.85546875,-22.94921875,-26.85546875,79.1015625,0.0
318.69921875,-32.2265625,-26.85546875,-34.1796875,-39.55078125,132.8125,0.0
318.703125,-60.546875,-30.76171875,-39.55078125,-37.109375,161.1328125,0.0
318.70703125,-58.59375,-31.25,-42.48046875,-30.76171875,161.1328125,0.0
318.7109375,-24.4140625,-30.76171875,-31.73828125,-42.96875,47.8515625,0.0
318.71484375,-21.484375,-33.203125,-27.83203125,-50.78125,11.71875,0.0
318.71875,-43.9453125,-31.25,-36.1328125,-41.9921875,-27.34375,0.0
318.72265625,-64.453125,-30.2734375,-30.76171875,-39.0625,-89.35546875,0.0
318.7265625,-70.3125,-34.66796875,-25.87890625,-37.59765625,-41.015625,0.0
318.73046875,-66.40625,-36.62109375,-30.76171875,-35.15625,18.06640625,0.0
318.734375,-53.22265625,-32.71484375,-30.2734375,-35.15625,-4.39453125,0.0
318.73828125,-44.921875,-25.390625,-16.11328125,-28.3203125,-75.68359375,0.0
318.7421875,-80.078125,-29.78515625,-30.76171875,-40.52734375,-143.06640625,0.0
318.74609375,-95.21484375,-30.76171875,-38.0859375,-51.7578125,-121.09375,0.0
318.75,-67.87109375,-33.203125,-26.85546875,-48.33984375,-76.171875,0.0
318.75390625,-44.43359375,-34.1796875,-26.3671875,-42.48046875,-58.10546875,0.0
318.7578125,-48.33984375,-33.203125,-32.2265625,-45.41015625,15.13671875,0.0
318.76171875,-67.87109375,-30.2734375,-31.73828125,-49.8046875,16.11328125,0.0
318.765625,-74.21875,-36.1328125,-31.73828125,-44.921875,-89.35546875,0.0
318.76953125,-42.48046875,-44.921875,-34.1796875,-37.109375,-92.28515625,0.0
318.7734375,-15.625,-26.85546875,-41.015625,-20.99609375,20.99609375,0.0
318.77734375,-42.96875,-20.99609375,-33.69140625,-28.3203125,31.73828125,0.0
318.78125,-72.265625,-33.203125,-11.23046875,-37.109375,26.3671875,0.0
318.78515625,-64.94140625,-40.52734375,-20.01953125,-29.296875,34.1796875,0.0
318.7890625,-49.31640625,-38.57421875,-29.78515625,-18.5546875,-75.1953125,0.0
318.79296875,-42.48046875,-34.66796875,-27.34375,-15.625,-125.9765625,0.0
318.796875,-41.9921875,-40.52734375,-32.2265625,-19.04296875,-80.078125,0.0
318.80078125,-46.38671875,-45.41015625,-28.3203125,-12.6953125,6.8359375,0.0
318.8046875,-63.4765625,-38.0859375,-34.1796875,-36.62109375,26.3671875,0.0
318.80859375,-62.01171875,-34.66796875,-32.2265625,-52.734375,29.296875,0.0
318.8125,-34.1796875,-33.203125,-16.6015625,-26.85546875,24.4140625,0.0
318.81640625,-30.76171875,-32.2265625,-20.5078125,-23.4375,65.4296875,0.0
318.8203125,-51.26953125,-32.71484375,-28.3203125,-19.04296875,72.265625,0.0
318.82421875,-56.640625,-42.96875,-21.97265625,-14.6484375,-0.9765625,0.0
318.828125,-44.921875,-34.1796875,-14.6484375,-22.4609375,20.5078125,0.0
318.83203125,-41.015625,-31.73828125,-26.3671875,-30.76171875,10.7421875,0.0
318.8359375,-36.1328125,-35.64453125,-30.2734375,-26.3671875,10.25390625,0.0
318.83984375,-47.36328125,-29.78515625,-37.59765625,-25.87890625,32.2265625,0.0
318.84375,-73.2421875,-27.83203125,-58.59375,-38.0859375,42.48046875,0.0
318.84765625,-66.89453125,-23.4375,-51.7578125,-37.59765625,39.55078125,0.0
318.8515625,-44.921875,-25.390625,-23.4375,-32.2265625,-23.92578125,0.0
318.85546875,-41.015625,-28.3203125,-17.578125,-20.5078125,-8.30078125,0.0
318.859375,-57.12890625,-27.83203125,-20.01953125,-11.71875,50.29296875,0.0
318.86328125,-69.82421875,-24.4140625,-22.94921875,-26.3671875,-25.87890625,0.0
318.8671875,-58.10546875,-22.94921875,-20.01953125,-27.34375,-43.45703125,0.0
318.87109375,-39.55078125,-21.97265625,-9.27734375,-9.765625,90.8203125,0.0
318.875,-37.59765625,-26.85546875,-20.01953125,-6.8359375,116.2109375,0.0
318.87890625,-50.29296875,-35.15625,-26.85546875,-26.3671875,54.6875,0.0
318.8828125,-58.59375,-28.80859375,-21.97265625,-21.484375,2.44140625,0.0
318.88671875,-58.59375,-36.1328125,-27.34375,-22.4609375,-26.85546875,0.0
318.890625,-41.50390625,-34.1796875,-25.390625,-17.08984375,0.9765625,0.0
318.89453125,-27.34375,-22.94921875,-24.90234375,-12.6953125,24.4140625,0.0
318.8984375,-35.15625,-20.01953125,-22.4609375,-17.08984375,-44.43359375,0.0
318.90234375,-46.38671875,-17.08984375,-10.7421875,-8.7890625,-93.26171875,0.0
318.90625,-65.91796875,-27.83203125,-19.53125,-12.6953125,-8.7890625,0.0
318.91015625,-68.359375,-30.2734375,-32.2265625,-26.3671875,40.0390625,0.0
318.9140625,-42.96875,-26.3671875,-29.78515625,-18.5546875,14.6484375,0.0
318.91796875,-34.66796875,-34.66796875,-23.4375,-11.71875,19.04296875,0.0
318.921875,-55.6640625,-40.0390625,-30.2734375,-19.53125,3.41796875,0.0
318.92578125,-54.6875,-38.0859375,-21.97265625,-19.04296875,-74.70703125,0.0
318.9296875,-38.57421875,-34.66796875,-10.25390625,-20.01953125,-100.5859375,0.0
318.93359375,-27.83203125,-26.3671875,-17.08984375,-27.83203125,5.37109375,0.0
318.9375,-29.296875,-23.92578125,-30.2734375,-32.2265625,120.1171875,0.0
318.94140625,-42.48046875,-33.203125,-34.1796875,-32.2265625,65.91796875,0.0
318.9453125,-42.96875,-30.76171875,-26.85546875,-36.62109375,-52.734375,0.0
318.94921875,-25.390625,-26.3671875,-22.4609375,-33.203125,-81.54296875,0.0
318.953125,0.9765625,-25.87890625,-20.01953125,-35.15625,41.50390625,0.0
318.95703125,0.0,-20.01953125,-20.5078125,-40.52734375,50.78125,0.0
318.9609375,-28.3203125,-23.4375,-19.04296875,-39.55078125,-35.15625,0.0
318.96484375,-43.45703125,-22.4609375,-23.4375,-41.50390625,-10.25390625,0.0
318.96875,-26.3671875,-28.80859375,-29.78515625,-52.734375,35.64453125,0.0
318.97265625,-10.25390625,-32.71484375,-33.203125,-53.22265625,59.08203125,0.0
318.9765625,-9.27734375,-34.1796875,-26.85546875,-41.50390625,83.984375,0.0
318.98046875,-26.85546875,-47.8515625,-26.3671875,-43.9453125,36.62109375,0.0
318.984375,-49.31640625,-49.8046875,-31.73828125,-56.15234375,-26.3671875,0.0
318.98828125,-47.36328125,-47.36328125,-33.69140625,-58.10546875,-2.9296875,0.0
318.9921875,-37.109375,-37.109375,-34.66796875,-58.59375,-39.0625,0.0
318.99609375,-30.76171875,-32.2265625,-36.62109375,-53.22265625,-82.03125,0.0
319.0,-35.15625,-46.38671875,-43.45703125,-57.6171875,-45.8984375,0.0
319.00390625,-28.80859375,-46.38671875,-34.1796875,-52.24609375,-0.48828125,0.0
319.0078125,9.765625,-31.25,-4.8828125,-23.4375,-13.671875,0.0
319.01171875,13.18359375,-36.1328125,-14.6484375,-37.59765625,-5.859375,0.0
319.015625,4.8828125,-41.015625,-37.109375,-55.6640625,5.37109375,0.0
319.01953125,4.39453125,-36.62109375,-35.15625,-55.17578125,120.60546875,0.0
319.0234375,-4.8828125,-43.9453125,-30.76171875,-62.5,36.1328125,0.0
319.02734375,-5.37109375,-41.50390625,-37.59765625,-55.6640625,-145.5078125,0.0
319.03125,9.765625,-30.76171875,-38.57421875,-53.7109375,-140.13671875,0.0
319.03515625,29.78515625,-39.55078125,-31.25,-41.50390625,-61.03515625,0.0
319.0390625,39.0625,-44.921875,-37.59765625,-41.015625,60.546875,0.0
319.04296875,20.01953125,-36.1328125,-45.8984375,-54.6875,-2.9296875,0.0
319.046875,5.859375,-33.69140625,-38.57421875,-50.78125,-112.79296875,0.0
319.05078125,37.59765625,-43.45703125,-28.80859375,-30.76171875,-93.75,0.0
319.0546875,58.59375,-38.57421875,-29.296875,-24.90234375,-77.1484375,0.0
319.05859375,45.41015625,-36.62109375,-32.2265625,-37.109375,34.1796875,0.0
319.0625,32.2265625,-40.0390625,-37.109375,-39.0625,25.87890625,0.0
319.06640625,33.69140625,-24.4140625,-23.92578125,-32.71484375,-66.89453125,0.0
319.0703125,45.41015625,-20.99609375,-17.578125,-33.69140625,-26.3671875,0.0
319.07421875,57.6171875,-27.83203125,-29.78515625,-36.62109375,6.8359375,0.0
319.078125,59.08203125,-31.25,-35.64453125,-51.7578125,-19.04296875,0.0
319.08203125,25.87890625,-34.66796875,-32.71484375,-45.41015625,-62.5,0.0
319.0859375,9.27734375,-27.34375,-27.83203125,-35.64453125,-83.0078125,0.0
319.08984375,21.97265625,-27.83203125,-30.76171875,-42.48046875,-131.34765625,0.0
319.09375,38.0859375,-37.109375,-26.3671875,-37.109375,-74.21875,0.0
319.09765625,44.43359375,-29.296875,-27.83203125,-33.69140625,20.99609375,0.0
319.1015625,25.390625,-21.97265625,-32.71484375,-36.62109375,3.41796875,0.0
319.10546875,14.16015625,-29.78515625,-36.1328125,-57.6171875,-13.671875,0.0
319.109375,18.06640625,-37.59765625,-30.76171875,-51.7578125,-2.9296875,0.0
319.11328125,30.76171875,-32.71484375,-16.11328125,-20.5078125,46.875,0.0
319.1171875,30.2734375,-31.73828125,-21.97265625,-18.5546875,1.46484375,0.0
319.12109375,17.578125,-30.2734375,-28.3203125,-34.1796875,-73.73046875,0.0
319.125,8.7890625,-23.4375,-30.2734375,-41.50390625,-61.5234375,0.0
319.12890625,20.5078125,-27.83203125,-30.76171875,-28.80859375,-49.31640625,0.0
319.1328125,38.57421875,-28.80859375,-27.83203125,-25.87890625,-33.203125,0.0
319.13671875,34.66796875,-23.4375,-28.3203125,-23.92578125,-25.390625,0.0
319.140625,12.6953125,-28.80859375,-30.2734375,-25.87890625,-74.21875,0.0
319.14453125,-8.30078125,-31.73828125,-24.90234375,-29.296875,-62.01171875,0.0
319.1484375,-3.41796875,-27.34375,-20.01953125,-36.62109375,-113.28125,0.0
319.15234375,17.578125,-23.4375,-17.578125,-28.80859375,-130.859375,0.0
319.15625,26.85546875,-24.90234375,-15.625,-18.06640625,-11.71875,0.0
319.16015625,6.8359375,-33.203125,-20.99609375,-29.296875,11.23046875,0.0
319.1640625,-13.671875,-34.66796875,-22.4609375,-29.78515625,-115.72265625,0.0
319.16796875,-3.90625,-28.3203125,-17.578125,-20.5078125,-230.95703125,0.0
319.171875,9.765625,-23.4375,-16.11328125,-20.01953125,-262.6953125,0.0
319.17578125,12.6953125,-30.2734375,-22.4609375,-35.15625,-137.6953125,0.0
319.1796875,-6.34765625,-37.109375,-31.73828125,-40.52734375,-80.078125,0.0
319.18359375,-23.92578125,-36.1328125,-22.94921875,-22.4609375,-139.16015625,0.0
319.1875,0.0,-34.1796875,-9.27734375,-6.34765625,-135.25390625,0.0
319.19140625,14.16015625,-35.15625,-17.578125,-16.6015625,-40.52734375,0.0
319.1953125,14.6484375,-26.3671875,-25.87890625,-23.4375,90.8203125,0.0
319.19921875,2.9296875,-18.5546875,-27.34375,-17.578125,95.21484375,0.0
319.203125,-15.13671875,-25.390625,-20.99609375,-20.01953125,-37.109375,0.0
319.20703125,-11.23046875,-28.80859375,-25.390625,-27.83203125,-68.84765625,0.0
319.2109375,7.8125,-21.97265625,-25.87890625,-30.76171875,54.6875,0.0
319.21484375,20.01953125,-23.92578125,-24.4140625,-27.83203125,118.65234375,0.0
319.21875,5.859375,-30.76171875,-29.78515625,-23.92578125,23.4375,0.0
319.22265625,-23.4375,-32.2265625,-25.87890625,-29.296875,-77.1484375,0.0
319.2265625,-20.99609375,-29.78515625,-28.3203125,-35.15625,-43.9453125,0.0
319.23046875,4.8828125,-24.90234375,-30.2734375,-23.4375,75.68359375,0.0
319.234375,10.25390625,-25.390625,-28.80859375,-21.484375,95.703125,0.0
319.23828125,3.41796875,-26.85546875,-33.69140625,-29.78515625,15.625,0.0
319.2421875,-13.671875,-29.78515625,-29.78515625,-29.296875,-84.9609375,0.0
319.24609375,-16.11328125,-34.66796875,-18.5546875,-33.203125,-116.2109375,0.0
319.25,-3.90625,-29.78515625,-18.5546875,-32.71484375,-78.125,0.0
319.25390625,6.8359375,-22.94921875,-21.97265625,-25.87890625,-18.06640625,0.0
319.2578125,-3.41796875,-20.5078125,-32.2265625,-34.66796875,27.83203125,0.0
319.26171875,-21.97265625,-18.06640625,-38.0859375,-24.90234375,-65.4296875,0.0
319.265625,-19.53125,-20.99609375,-33.69140625,-27.83203125,-105.46875,0.0
319.26953125,-11.71875,-29.296875,-31.73828125,-22.94921875,-21.484375,0.0
319.2734375,-4.39453125,-29.296875,-24.90234375,-20.5078125,56.15234375,0.0
319.27734375,-0.9765625,-19.04296875,-16.6015625,-29.78515625,32.2265625,0.0
319.28125,-15.13671875,-22.4609375,-29.296875,-27.83203125,0.0,0.0
319.28515625,-22.4609375,-30.76171875,-39.55078125,-24.4140625,36.1328125,0.0
319.2890625,-10.7421875,-32.2265625,-31.73828125,-26.85546875,-9.765625,0.0
319.29296875,5.37109375,-28.3203125,-20.99609375,-29.78515625,-31.25,0.0
319.296875,-4.8828125,-36.62109375,-33.203125,-26.85546875,46.38671875,0.0
319.30078125,-29.296875,-45.8984375,-41.9921875,-30.2734375,19.04296875,0.0
319.3046875,-32.71484375,-37.109375,-34.1796875,-43.45703125,-47.8515625,0.0
319.30859375,-13.18359375,-30.2734375,-23.92578125,-40.0390625,-94.23828125,0.0
319.3125,2.9296875,-38.0859375,-20.5078125,-13.18359375,-43.9453125,0.0
319.31640625,1.953125,-37.59765625,-29.296875,-15.625,31.25,0.0
319.3203125,-20.99609375,-32.2265625,-34.1796875,-28.80859375,17.08984375,0.0
319.32421875,-28.3203125,-34.66796875,-28.3203125,-25.390625,-17.08984375,0.0
319.328125,-13.18359375,-45.41015625,-26.3671875,-31.25,-133.7890625,0.0
319.33203125,2.44140625,-37.59765625,-27.34375,-32.2265625,-98.6328125,0.0
319.3359375,12.20703125,-17.08984375,-22.94921875,-16.11328125,30.76171875,0.0
319.33984375,-2.9296875,-16.6015625,-24.4140625,-15.13671875,3.41796875,0.0
319.34375,-21.97265625,-22.4609375,-31.73828125,-29.296875,-57.6171875,0.0
319.34765625,-18.5546875,-23.4375,-37.109375,-42.96875,-19.04296875,0.0
319.3515625,-2.44140625,-20.5078125,-18.06640625,-22.94921875,-13.671875,0.0
319.35546875,-5.37109375,-26.3671875,-20.99609375,-26.3671875,20.01953125,0.0
319.359375,-27.34375,-35.15625,-47.36328125,-50.78125,89.84375,0.0
319.36328125,-30.76171875,-34.1796875,-41.50390625,-29.296875,34.66796875,0.0
319.3671875,-20.01953125,-31.73828125,-31.73828125,-27.34375,-55.17578125,0.0
319.37109375,-4.39453125,-30.2734375,-31.73828125,-32.71484375,-73.73046875,0.0
319.375,7.32421875,-22.94921875,-29.296875,-21.97265625,37.109375,0.0
319.37890625,-2.9296875,-21.97265625,-30.2734375,-23.4375,41.50390625,0.0
319.3828125,-28.3203125,-28.3203125,-31.25,-27.83203125,-16.11328125,0.0
319.38671875,-36.1328125,-30.2734375,-31.25,-35.64453125,-11.71875,0.0
319.390625,-21.97265625,-31.25,-32.2265625,-27.34375,-16.11328125,0.0
319.39453125,-13.18359375,-33.69140625,-21.484375,-16.6015625,13.671875,0.0
319.3984375,-13.671875,-29.78515625,-13.671875,-22.94921875,72.265625,0.0
319.40234375,-28.80859375,-35.64453125,-27.34375,-27.34375,58.59375,0.0
319.40625,-35.15625,-36.62109375,-31.73828125,-32.71484375,-64.94140625,0.0
319.41015625,-26.85546875,-35.15625,-23.92578125,-33.69140625,-77.63671875,0.0
319.4140625,-11.23046875,-36.1328125,-22.4609375,-20.5078125,-42.48046875,0.0
319.41796875,-13.18359375,-34.1796875,-23.92578125,-14.6484375,-2.44140625,0.0
319.421875,-29.78515625,-33.203125,-26.3671875,-20.99609375,-31.73828125,0.0
319.42578125,-24.90234375,-30.76171875,-26.85546875,-21.97265625,-43.9453125,0.0
319.4296875,-13.18359375,-29.78515625,-22.94921875,-22.4609375,0.0,0.0
319.43359375,-8.30078125,-26.85546875,-25.390625,-30.2734375,40.52734375,0.0
319.4375,-1.953125,-18.5546875,-27.34375,-16.6015625,22.94921875,0.0
319.44140625,-13.18359375,-14.16015625,-26.3671875,-4.39453125,-35.15625,0.0
319.4453125,-38.0859375,-31.73828125,-29.78515625,-35.64453125,-112.79296875,0.0
319.44921875,-42.48046875,-37.109375,-37.59765625,-55.6640625,-100.09765625,0.0
319.453125,-37.59765625,-30.2734375,-30.76171875,-51.26953125,13.18359375,0.0
319.45703125,-17.08984375,-25.87890625,-15.13671875,-29.296875,94.23828125,0.0
319.4609375,-30.76171875,-37.59765625,-27.83203125,-23.92578125,151.3671875,0.0
319.46484375,-57.6171875,-38.0859375,-33.203125,-40.0390625,113.28125,0.0
319.46875,-45.8984375,-30.76171875,-21.97265625,-33.69140625,99.12109375,0.0
319.47265625,-20.99609375,-20.99609375,-21.97265625,-34.66796875,165.0390625,0.0
319.4765625,-29.296875,-21.484375,-33.69140625,-48.828125,110.3515625,0.0
319.48046875,-53.7109375,-34.1796875,-36.62109375,-42.48046875,29.296875,0.0
319.484375,-56.640625,-35.15625,-24.4140625,-32.71484375,-9.27734375,0.0
319.48828125,-28.80859375,-20.5078125,-8.7890625,-21.484375,-75.1953125,0.0
319.4921875,-23.4375,-27.83203125,-25.87890625,-30.76171875,-29.296875,0.0
319.49609375,-24.90234375,-27.83203125,-37.59765625,-42.96875,30.76171875,0.0
319.5,-44.43359375,-30.76171875,-34.1796875,-26.85546875,0.48828125,0.0
319.50390625,-70.80078125,-41.50390625,-37.109375,-40.52734375,-27.83203125,0.0
319.5078125,-53.22265625,-36.62109375,-38.0859375,-56.15234375,21.97265625,0.0
319.51171875,-30.76171875,-29.296875,-31.73828125,-28.3203125,53.22265625,0.0
319.515625,-21.484375,-21.97265625,-18.06640625,-16.11328125,62.5,0.0
319.51953125,-37.59765625,-30.2734375,-23.4375,-23.4375,38.57421875,0.0
319.5234375,-59.08203125,-37.59765625,-36.62109375,-35.15625,-18.5546875,0.0
319.52734375,-49.8046875,-33.203125,-37.59765625,-41.50390625,-42.96875,0.0
319.53125,-14.6484375,-22.94921875,-18.5546875,-22.94921875,-4.8828125,0.0
319.53515625,-17.578125,-26.85546875,-20.01953125,-24.4140625,44.43359375,0.0
319.5390625,-42.48046875,-35.15625,-36.1328125,-28.80859375,44.43359375,0.0
319.54296875,-58.10546875,-35.15625,-37.59765625,-32.71484375,-2.44140625,0.0
319.546875,-64.453125,-34.1796875,-25.87890625,-45.41015625,18.06640625,0.0
319.55078125,-49.31640625,-40.0390625,-15.13671875,-39.0625,30.2734375,0.0
319.5546875,-30.2734375,-44.921875,-22.94921875,-25.390625,-16.6015625,0.0
319.55859375,-26.3671875,-38.0859375,-27.83203125,-21.97265625,-39.55078125,0.0
319.5625,-38.57421875,-32.71484375,-19.53125,-20.01953125,-23.92578125,0.0
319.56640625,-50.78125,-41.9921875,-20.01953125,-22.94921875,-53.7109375,0.0
319.5703125,-43.9453125,-46.38671875,-20.5078125,-22.4609375,-29.78515625,0.0
319.57421875,-9.765625,-36.1328125,-18.5546875,-18.5546875,-22.94921875,0.0
319.578125,-2.44140625,-33.203125,-12.6953125,11.23046875,-37.59765625,0.0
319.58203125,-35.15625,-45.8984375,-23.4375,19.53125,20.01953125,0.0
319.5859375,-46.875,-53.7109375,-24.90234375,13.18359375,0.0,0.0
319.58984375,-26.3671875,-58.59375,-15.625,16.6015625,13.671875,0.0
319.59375,-2.9296875,-54.6875,-15.13671875,23.4375,129.8828125,0.0
319.59765625,-11.71875,-60.546875,-20.01953125,20.99609375,106.4453125,0.0
319.6015625,-34.1796875,-72.75390625,-19.04296875,31.73828125,17.08984375,0.0
319.60546875,-28.3203125,-67.3828125,-18.06640625,38.0859375,-32.71484375,0.0
319.609375,-7.32421875,-63.4765625,-10.7421875,43.45703125,-63.96484375,0.0
319.61328125,13.18359375,-56.15234375,-2.9296875,60.546875,-30.76171875,0.0
319.6171875,7.32421875,-53.22265625,-11.23046875,48.33984375,108.88671875,0.0
319.62109375,-3.90625,-53.22265625,-2.9296875,49.8046875,55.6640625,0.0
319.625,-9.765625,-55.17578125,0.48828125,66.40625,-98.6328125,0.0
319.62890625,-15.625,-64.94140625,-11.71875,49.31640625,-28.3203125,0.0
319.6328125,-0.9765625,-69.3359375,-3.41796875,32.71484375,121.09375,0.0
319.63671875,13.671875,-65.91796875,0.48828125,65.91796875,143.5546875,0.0
319.640625,-0.9765625,-64.453125,-11.71875,75.1953125,78.125,0.0
319.64453125,-15.13671875,-70.80078125,-20.01953125,54.6875,-10.7421875,0.0
319.6484375,-5.859375,-68.84765625,-9.27734375,58.59375,-70.3125,0.0
319.65234375,18.06640625,-58.10546875,2.44140625,62.01171875,-21.484375,0.0
319.65625,20.01953125,-56.15234375,-16.11328125,55.6640625,24.4140625,0.0
319.66015625,-9.27734375,-55.17578125,-29.296875,55.17578125,-9.765625,0.0
319.6640625,-36.62109375,-48.828125,-17.578125,50.29296875,-26.85546875,0.0
319.66796875,-24.4140625,-44.921875,-8.30078125,54.6875,31.73828125,0.0
319.671875,-6.34765625,-51.26953125,-9.27734375,55.6640625,19.04296875,0.0
319.67578125,-11.71875,-58.10546875,-20.01953125,38.57421875,10.7421875,0.0
319.6796875,-29.296875,-53.7109375,-27.34375,31.25,-33.69140625,0.0
319.68359375,-49.31640625,-52.24609375,-18.5546875,43.9453125,-110.3515625,0.0
319.6875,-55.17578125,-58.59375,-26.3671875,27.34375,-119.140625,0.0
319.69140625,-35.15625,-50.78125,-26.85546875,21.97265625,-52.734375,0.0
319.6953125,-22.4609375,-44.43359375,-20.01953125,28.80859375,19.04296875,0.0
319.69921875,-41.015625,-47.36328125,-26.85546875,31.73828125,-32.71484375,0.0
319.703125,-72.265625,-53.7109375,-25.87890625,26.85546875,-40.52734375,0.0
319.70703125,-78.125,-55.6640625,-25.390625,6.34765625,-20.5078125,0.0
319.7109375,-47.36328125,-49.8046875,-22.4609375,12.20703125,-102.5390625,0.0
319.71484375,-29.296875,-44.43359375,-16.6015625,25.87890625,-64.94140625,0.0
319.71875,-54.19921875,-45.41015625,-20.5078125,23.4375,52.24609375,0.0
319.72265625,-74.70703125,-46.875,-25.390625,12.6953125,55.17578125,0.0
319.7265625,-65.4296875,-34.1796875,-16.6015625,13.18359375,-83.49609375,0.0
319.73046875,-57.12890625,-31.25,-12.20703125,12.20703125,-92.7734375,0.0
319.734375,-55.17578125,-34.1796875,-27.83203125,-4.39453125,-18.06640625,0.0
319.73828125,-66.89453125,-35.64453125,-30.76171875,9.27734375,-39.0625,0.0
319.7421875,-87.40234375,-38.0859375,-24.4140625,20.01953125,-68.359375,0.0
319.74609375,-97.16796875,-37.59765625,-23.4375,9.765625,-71.2890625,0.0
319.75,-75.68359375,-32.2265625,-23.4375,0.48828125,-103.515625,0.0
319.75390625,-50.78125,-27.83203125,-19.53125,1.953125,-163.0859375,0.0
319.7578125,-66.40625,-24.90234375,-17.08984375,4.8828125,-158.203125,0.0
319.76171875,-95.21484375,-30.76171875,-30.76171875,-4.39453125,-120.1171875,0.0
319.765625,-106.4453125,-40.52734375,-40.52734375,-16.11328125,-143.5546875,0.0
319.76953125,-76.66015625,-31.73828125,-22.4609375,-8.7890625,-259.765625,0.0
319.7734375,-29.296875,-17.08984375,-3.41796875,19.04296875,-175.78125,0.0
319.77734375,-40.52734375,-29.296875,-27.34375,11.71875,-98.14453125,0.0
319.78125,-75.1953125,-32.2265625,-38.0859375,0.0,-73.2421875,0.0
319.78515625,-80.56640625,-32.2265625,-23.92578125,2.9296875,-111.81640625,0.0
319.7890625,-61.03515625,-42.48046875,-15.13671875,4.8828125,-197.265625,0.0
319.79296875,-38.0859375,-46.875,-17.578125,6.34765625,-148.4375,0.0
319.796875,-33.69140625,-47.36328125,-26.3671875,-0.48828125,-110.83984375,0.0
319.80078125,-41.9921875,-41.9921875,-27.83203125,10.7421875,-112.79296875,0.0
319.8046875,-54.6875,-38.0859375,-29.78515625,5.859375,-73.2421875,0.0
319.80859375,-43.45703125,-39.55078125,-29.78515625,2.9296875,-8.30078125,0.0
319.8125,-22.94921875,-38.0859375,-21.484375,8.7890625,-10.7421875,0.0
319.81640625,-21.484375,-31.73828125,-9.27734375,9.765625,115.72265625,0.0
319.8203125,-46.875,-32.71484375,-23.92578125,11.23046875,135.25390625,0.0
319.82421875,-68.84765625,-32.71484375,-35.64453125,4.8828125,-18.5546875,0.0
319.828125,-54.19921875,-30.76171875,-29.78515625,-17.578125,6.8359375,0.0
319.83203125,-30.2734375,-35.64453125,-27.83203125,-8.7890625,62.98828125,0.0
319.8359375,-27.34375,-30.76171875,-27.34375,11.71875,-13.18359375,0.0
319.83984375,-51.7578125,-34.1796875,-28.80859375,-20.5078125,-2.9296875,0.0
319.84375,-61.5234375,-33.203125,-32.2265625,-37.59765625,57.12890625,0.0
319.84765625,-28.80859375,-17.578125,-11.71875,-2.44140625,-42.96875,0.0
319.8515625,-14.6484375,-32.2265625,-14.16015625,9.765625,-31.73828125,0.0
319.85546875,-20.5078125,-41.50390625,-34.1796875,-11.71875,57.6171875,0.0
319.859375,-28.3203125,-26.3671875,-25.87890625,-6.8359375,95.21484375,0.0
319.86328125,-47.8515625,-19.04296875,-14.6484375,1.953125,101.5625,0.0
319.8671875,-64.94140625,-36.62109375,-30.76171875,-12.6953125,46.875,0.0
319.87109375,-40.0390625,-37.109375,-26.85546875,-11.71875,45.8984375,0.0
319.875,-21.97265625,-30.76171875,-23.92578125,-17.578125,62.98828125,0.0
319.87890625,-36.62109375,-40.0390625,-34.66796875,-3.90625,71.2890625,0.0
319.8828125,-68.359375,-47.8515625,-34.66796875,-20.5078125,29.78515625,0.0
319.88671875,-68.84765625,-37.109375,-31.73828125,-34.1796875,47.8515625,0.0
319.890625,-47.36328125,-26.85546875,-24.90234375,-28.3203125,74.21875,0.0
319.89453125,-32.2265625,-32.71484375,-23.4375,-33.203125,87.40234375,0.0
319.8984375,-40.0390625,-35.15625,-34.1796875,-24.4140625,62.98828125,0.0
319.90234375,-60.05859375,-32.71484375,-33.69140625,-15.13671875,-33.203125,0.0
319.90625,-54.6875,-31.25,-20.99609375,-10.7421875,-83.0078125,0.0
319.91015625,-33.69140625,-30.2734375,-18.06640625,-9.765625,-42.96875,0.0
319.9140625,-12.6953125,-30.2734375,-22.94921875,-5.859375,-30.2734375,0.0
319.91796875,-21.484375,-28.3203125,-34.1796875,-7.32421875,4.8828125,0.0
319.921875,-46.875,-27.34375,-40.52734375,-5.859375,32.2265625,0.0
319.92578125,-45.41015625,-29.296875,-38.57421875,-7.8125,-67.87109375,0.0
319.9296875,-26.85546875,-28.3203125,-35.64453125,-15.625,-84.47265625,0.0
319.93359375,-10.7421875,-24.4140625,-31.25,-4.39453125,-17.08984375,0.0
319.9375,-7.32421875,-25.87890625,-23.92578125,-4.39453125,2.44140625,0.0
319.94140625,-41.9921875,-35.15625,-35.64453125,-20.99609375,32.2265625,0.0
319.9453125,-62.5,-39.55078125,-39.0625,-23.4375,34.66796875,0.0
319.94921875,-36.1328125,-32.71484375,-21.97265625,-20.5078125,-54.6875,0.0
319.953125,-7.8125,-29.78515625,-8.7890625,-8.30078125,-52.24609375,0.0
319.95703125,-12.20703125,-32.2265625,-25.390625,-12.20703125,7.32421875,0.0
319.9609375,-33.203125,-37.109375,-39.0625,-28.3203125,24.4140625,0.0
319.96484375,-40.0390625,-34.66796875,-26.85546875,-9.765625,4.39453125,0.0
319.96875,-31.25,-32.2265625,-23.4375,-11.23046875,-6.34765625,0.0
319.97265625,-9.765625,-33.69140625,-28.80859375,-25.390625,47.8515625,0.0
319.9765625,-1.46484375,-29.78515625,-27.34375,-11.71875,94.23828125,0.0
319.98046875,-32.71484375,-35.15625,-35.64453125,-20.01953125,19.53125,0.0
319.984375,-55.6640625,-37.59765625,-35.64453125,-29.78515625,-96.6796875,0.0
319.98828125,-43.45703125,-38.57421875,-29.296875,-24.90234375,-106.4453125,0.0
319.9921875,-16.6015625,-34.1796875,-29.296875,-32.2265625,-80.56640625,0.0
319.99609375,-3.90625,-21.484375,-18.06640625,-12.6953125,-59.5703125,0.0
320.0,-32.71484375,-29.78515625,-26.3671875,-14.16015625,-16.6015625,0.0
320.00390625,-64.94140625,-40.52734375,-39.55078125,-40.52734375,-50.29296875,0.0
320.0078125,-54.6875,-31.25,-27.34375,-34.66796875,-87.890625,0.0
320.01171875,-24.90234375,-23.92578125,-13.671875,-14.16015625,-65.91796875,0.0
320.015625,-20.5078125,-33.203125,-22.4609375,-20.01953125,-20.99609375,0.0
320.01953125,-46.38671875,-37.109375,-43.45703125,-34.1796875,-12.20703125,0.0
320.0234375,-79.1015625,-41.9921875,-45.41015625,-50.29296875,-27.34375,0.0
320.02734375,-77.63671875,-41.015625,-28.80859375,-37.109375,-65.91796875,0.0
320.03125,-40.0390625,-37.59765625,-27.83203125,-26.85546875,4.39453125,0.0
320.03515625,-14.16015625,-40.52734375,-29.296875,-36.1328125,57.6171875,0.0
320.0390625,-26.3671875,-34.1796875,-26.3671875,-25.87890625,37.59765625,0.0
320.04296875,-57.6171875,-28.3203125,-30.76171875,-39.0625,6.34765625,0.0
320.046875,-65.4296875,-29.78515625,-33.203125,-56.15234375,-69.82421875,0.0
320.05078125,-42.96875,-27.83203125,-26.85546875,-48.828125,-93.75,0.0
320.0546875,-13.671875,-21.97265625,-19.04296875,-27.83203125,-5.37109375,0.0
320.05859375,-26.85546875,-28.3203125,-28.3203125,-18.06640625,53.22265625,0.0
320.0625,-62.98828125,-36.62109375,-42.48046875,-45.41015625,-26.85546875,0.0
320.06640625,-62.5,-29.78515625,-38.57421875,-48.33984375,-81.54296875,0.0
320.0703125,-32.71484375,-21.97265625,-32.2265625,-36.1328125,-42.48046875,0.0
320.07421875,-17.08984375,-25.390625,-29.296875,-30.2734375,45.8984375,0.0
320.078125,-32.71484375,-33.69140625,-38.0859375,-36.62109375,66.40625,0.0
320.08203125,-59.5703125,-35.15625,-43.45703125,-46.875,5.37109375,0.0
320.0859375,-60.05859375,-25.87890625,-23.4375,-29.296875,-62.5,0.0
320.08984375,-39.0625,-26.3671875,-18.5546875,-18.06640625,-44.43359375,0.0
320.09375,-20.99609375,-27.83203125,-23.4375,-23.92578125,5.859375,0.0
320.09765625,-34.66796875,-26.85546875,-29.78515625,-34.66796875,32.71484375,0.0
320.1015625,-64.94140625,-29.296875,-28.80859375,-37.109375,-15.625,0.0
320.10546875,-69.3359375,-33.203125,-25.87890625,-39.55078125,-31.73828125,0.0
320.109375,-41.50390625,-35.64453125,-23.92578125,-31.73828125,9.765625,0.0
320.11328125,-7.8125,-27.34375,-21.97265625,-18.5546875,15.13671875,0.0
320.1171875,-15.625,-22.4609375,-20.99609375,-23.4375,1.46484375,0.0
320.12109375,-44.43359375,-28.80859375,-34.66796875,-34.66796875,-8.30078125,0.0
320.125,-61.5234375,-31.25,-35.64453125,-34.1796875,-65.91796875,0.0
320.12890625,-48.828125,-30.2734375,-26.85546875,-38.0859375,-65.91796875,0.0
320.1328125,-16.11328125,-25.390625,-28.3203125,-49.31640625,41.015625,0.0
320.13671875,-10.7421875,-24.90234375,-38.0859375,-44.921875,101.5625,0.0
320.140625,-32.71484375,-27.83203125,-41.50390625,-39.55078125,36.62109375,0.0
320.14453125,-44.921875,-30.76171875,-43.45703125,-51.26953125,-22.4609375,0.0
320.1484375,-36.62109375,-30.76171875,-39.55078125,-48.33984375,-23.4375,0.0
320.15234375,-15.13671875,-32.2265625,-28.3203125,-30.76171875,26.85546875,0.0
320.15625,-9.765625,-28.3203125,-34.66796875,-29.78515625,20.01953125,0.0
320.16015625,-35.64453125,-23.4375,-42.96875,-41.9921875,-28.3203125,0.0
320.1640625,-57.12890625,-19.04296875,-45.41015625,-49.31640625,-74.21875,0.0
320.16796875,-52.24609375,-24.90234375,-45.8984375,-58.59375,-83.0078125,0.0
320.171875,-22.94921875,-23.92578125,-39.0625,-47.8515625,45.41015625,0.0
320.17578125,-9.765625,-18.06640625,-34.66796875,-40.0390625,32.71484375,0.0
320.1796875,-33.203125,-25.87890625,-41.9921875,-52.24609375,-29.78515625,0.0
320.18359375,-57.6171875,-30.76171875,-44.43359375,-51.7578125,-65.91796875,0.0
320.1875,-46.38671875,-29.296875,-38.0859375,-47.8515625,-235.3515625,0.0
320.19140625,-14.16015625,-21.97265625,-23.4375,-45.41015625,-90.33203125,0.0
320.1953125,-6.8359375,-18.5546875,-25.87890625,-49.31640625,85.44921875,0.0
320.19921875,-23.92578125,-23.4375,-38.0859375,-50.78125,32.2265625,0.0
320.203125,-44.43359375,-26.85546875,-46.875,-56.15234375,-96.6796875,0.0
320.20703125,-41.015625,-23.92578125,-39.55078125,-57.6171875,-117.1875,0.0
320.2109375,-18.5546875,-21.97265625,-31.25,-50.29296875,-37.109375,0.0
320.21484375,-9.27734375,-24.90234375,-35.15625,-51.26953125,55.6640625,0.0
320.21875,-22.4609375,-26.3671875,-31.73828125,-50.78125,89.35546875,0.0
320.22265625,-41.9921875,-28.80859375,-34.1796875,-51.7578125,16.6015625,0.0
320.2265625,-40.0390625,-28.3203125,-39.55078125,-53.22265625,0.0,0.0
320.23046875,-22.4609375,-23.92578125,-38.57421875,-51.7578125,-29.296875,0.0
320.234375,-2.44140625,-20.99609375,-33.69140625,-51.26953125,-13.18359375,0.0
320.23828125,-3.90625,-23.92578125,-35.15625,-42.96875,56.640625,0.0
320.2421875,-35.64453125,-29.78515625,-37.59765625,-48.828125,-6.34765625,0.0
320.24609375,-42.96875,-28.80859375,-31.73828125,-52.734375,-5.859375,0.0
320.25,-15.13671875,-26.85546875,-22.94921875,-43.45703125,20.01953125,0.0
320.25390625,7.32421875,-24.4140625,-16.6015625,-34.66796875,-40.0390625,0.0
320.2578125,-7.32421875,-27.83203125,-23.92578125,-42.48046875,-49.31640625,0.0
320.26171875,-34.1796875,-34.66796875,-38.57421875,-59.5703125,-63.4765625,0.0
320.265625,-35.64453125,-32.71484375,-33.203125,-53.22265625,-62.5,0.0
320.26953125,-22.94921875,-33.203125,-27.83203125,-51.7578125,17.578125,0.0
320.2734375,-11.71875,-32.2265625,-35.15625,-53.7109375,26.85546875,0.0
320.27734375,-10.7421875,-28.3203125,-34.1796875,-49.31640625,1.953125,0.0
320.28125,-26.85546875,-25.390625,-25.390625,-49.31640625,21.484375,0.0
320.28515625,-34.66796875,-22.4609375,-27.34375,-53.7109375,4.39453125,0.0
320.2890625,-28.80859375,-29.78515625,-33.203125,-43.45703125,0.0,0.0
320.29296875,-6.34765625,-30.76171875,-27.83203125,-41.9921875,-21.484375,0.0
320.296875,-6.34765625,-31.73828125,-34.1796875,-41.9921875,-23.92578125,0.0
320.30078125,-30.2734375,-35.64453125,-36.1328125,-39.55078125,-70.3125,0.0
320.3046875,-41.50390625,-33.69140625,-28.3203125,-43.45703125,-122.0703125,0.0
320.30859375,-31.25,-33.203125,-28.80859375,-38.0859375,-113.28125,0.0
320.3125,-5.37109375,-29.296875,-25.87890625,-32.2265625,-136.71875,0.0
320.31640625,-2.44140625,-27.83203125,-32.71484375,-40.52734375,-49.8046875,0.0
320.3203125,-29.78515625,-29.296875,-48.828125,-53.7109375,45.8984375,0.0
320.32421875,-45.41015625,-34.1796875,-46.875,-48.33984375,-80.078125,0.0
320.328125,-25.390625,-27.83203125,-30.76171875,-43.9453125,-131.8359375,0.0
320.33203125,-3.90625,-26.85546875,-29.296875,-44.43359375,-9.765625,0.0
320.3359375,-8.7890625,-27.34375,-31.73828125,-40.0390625,-6.34765625,0.0
320.33984375,-32.2265625,-31.25,-40.0390625,-34.1796875,-44.921875,0.0
320.34375,-46.38671875,-35.64453125,-43.9453125,-44.43359375,9.765625,0.0
320.34765625,-43.45703125,-33.203125,-39.55078125,-45.41015625,-40.52734375,0.0
320.3515625,-22.94921875,-29.78515625,-35.15625,-38.0859375,-68.359375,0.0
320.35546875,-7.8125,-33.69140625,-33.203125,-41.50390625,43.45703125,0.0
320.359375,-15.625,-41.015625,-40.0390625,-34.1796875,81.54296875,0.0
320.36328125,-44.43359375,-33.203125,-52.734375,-51.26953125,28.80859375,0.0
320.3671875,-53.7109375,-19.04296875,-42.48046875,-66.89453125,-5.859375,0.0
320.37109375,-36.62109375,0.0,-17.08984375,-61.03515625,15.13671875,0.0
320.375,-47.36328125,-3.90625,-21.97265625,-84.47265625,11.71875,0.0
320.37890625,-96.19140625,-10.7421875,-44.43359375,-120.60546875,18.5546875,0.0
320.3828125,-142.578125,-9.27734375,-51.7578125,-154.296875,-0.9765625,0.0
320.38671875,-146.484375,-14.16015625,-55.6640625,-171.38671875,-37.109375,0.0
320.390625,-125.9765625,-0.9765625,-47.8515625,-184.5703125,-20.99609375,0.0
320.39453125,-125.0,5.859375,-42.96875,-195.80078125,40.0390625,0.0
320.3984375,-147.4609375,9.27734375,-47.8515625,-192.87109375,27.34375,0.0
320.40234375,-170.41015625,18.06640625,-32.71484375,-190.4296875,-40.0390625,0.0
320.40625,-170.41015625,10.7421875,-39.55078125,-188.96484375,-71.2890625,0.0
320.41015625,-166.015625,7.8125,-47.8515625,-205.078125,-70.3125,0.0
320.4140625,-156.73828125,8.7890625,-34.66796875,-208.49609375,18.06640625,0.0
320.41796875,-142.578125,6.34765625,-36.1328125,-188.4765625,54.6875,0.0
320.421875,-170.8984375,-3.41796875,-57.6171875,-196.2890625,-54.6875,0.0
320.42578125,-171.875,-8.7890625,-62.5,-199.21875,-74.70703125,0.0
320.4296875,-137.6953125,-2.44140625,-44.921875,-184.08203125,-62.01171875,0.0
320.43359375,-119.140625,-1.46484375,-35.64453125,-174.8046875,-49.8046875,0.0
320.4375,-125.9765625,-7.32421875,-42.96875,-170.8984375,-5.859375,0.0
320.44140625,-139.16015625,-11.23046875,-55.17578125,-166.015625,-5.859375,0.0
320.4453125,-136.23046875,-7.8125,-51.26953125,-167.96875,-43.9453125,0.0
320.44921875,-112.79296875,-3.41796875,-43.45703125,-160.15625,-31.25,0.0
320.453125,-75.1953125,-11.71875,-43.9453125,-145.01953125,48.33984375,0.0
320.45703125,-63.4765625,-18.5546875,-45.8984375,-118.65234375,99.12109375,0.0
320.4609375,-77.63671875,-13.671875,-36.62109375,-99.12109375,6.34765625,0.0
320.46484375,-82.03125,-18.06640625,-34.66796875,-98.6328125,-126.46484375,0.0
320.46875,-56.640625,-28.3203125,-42.48046875,-94.7265625,-213.8671875,0.0
320.47265625,-26.85546875,-23.4375,-41.50390625,-83.49609375,-199.70703125,0.0
320.4765625,-30.76171875,-17.08984375,-41.50390625,-81.54296875,-90.8203125,0.0
320.48046875,-50.78125,-22.4609375,-43.9453125,-74.70703125,-56.640625,0.0
320.484375,-64.94140625,-30.76171875,-51.26953125,-70.3125,-91.30859375,0.0
320.48828125,-50.78125,-26.85546875,-42.48046875,-69.82421875,-91.796875,0.0
320.4921875,-28.3203125,-17.08984375,-33.203125,-58.10546875,-43.9453125,0.0
320.49609375,-37.109375,-21.484375,-40.52734375,-71.77734375,92.7734375,0.0
320.5,-62.01171875,-27.34375,-52.734375,-90.33203125,110.83984375,0.0
320.50390625,-65.91796875,-27.34375,-51.7578125,-78.125,1.953125,0.0
320.5078125,-40.0390625,-16.11328125,-15.13671875,-50.29296875,-22.94921875,0.0
320.51171875,-22.94921875,-19.53125,-16.11328125,-41.015625,25.390625,0.0
320.515625,-24.4140625,-28.3203125,-37.59765625,-43.9453125,36.1328125,0.0
320.51953125,-39.0625,-26.3671875,-38.57421875,-51.26953125,27.83203125,0.0
320.5234375,-62.01171875,-26.3671875,-32.71484375,-55.6640625,-5.37109375,0.0
320.52734375,-68.84765625,-33.203125,-33.69140625,-68.84765625,-66.89453125,0.0
320.53125,-47.36328125,-34.1796875,-33.69140625,-62.5,-70.3125,0.0
320.53515625,-36.62109375,-33.203125,-31.73828125,-60.546875,-36.1328125,0.0
320.5390625,-50.29296875,-35.64453125,-32.71484375,-58.10546875,-23.4375,0.0
320.54296875,-71.77734375,-40.0390625,-38.57421875,-63.4765625,29.296875,0.0
320.546875,-70.3125,-41.50390625,-38.0859375,-69.3359375,35.64453125,0.0
320.55078125,-34.66796875,-36.62109375,-29.296875,-53.7109375,-47.36328125,0.0
320.5546875,-15.625,-29.78515625,-30.2734375,-54.6875,-59.5703125,0.0
320.55859375,-37.59765625,-33.69140625,-36.1328125,-62.5,21.484375,0.0
320.5625,-58.59375,-41.50390625,-46.38671875,-53.22265625,0.0,0.0
320.56640625,-31.25,-20.01953125,-19.53125,-31.25,-80.078125,0.0
320.5703125,-4.8828125,-10.25390625,-8.7890625,-29.78515625,-91.796875,0.0
320.57421875,-14.16015625,-29.296875,-29.296875,-36.1328125,-25.390625,0.0
320.578125,-33.69140625,-38.57421875,-34.66796875,-36.62109375,-14.6484375,0.0
320.58203125,-53.22265625,-41.50390625,-46.38671875,-57.6171875,-17.08984375,0.0
320.5859375,-61.5234375,-42.96875,-45.8984375,-69.82421875,18.5546875,0.0
320.58984375,-42.48046875,-40.52734375,-33.203125,-45.41015625,-20.5078125,0.0
320.59375,-22.4609375,-32.71484375,-25.87890625,-38.57421875,-2.44140625,0.0
320.59765625,-22.94921875,-28.80859375,-22.94921875,-48.33984375,19.53125,0.0
320.6015625,-47.8515625,-32.71484375,-29.78515625,-66.89453125,-8.7890625,0.0
320.60546875,-62.01171875,-38.57421875,-34.1796875,-65.91796875,-65.4296875,0.0
320.609375,-40.0390625,-36.62109375,-29.296875,-54.6875,-28.3203125,0.0
320.61328125,-7.32421875,-19.53125,-10.7421875,-40.52734375,29.296875,0.0
320.6171875,-28.80859375,-32.71484375,-26.3671875,-50.29296875,31.25,0.0
320.62109375,-51.7578125,-42.48046875,-47.36328125,-69.3359375,-30.2734375,0.0
320.625,-48.828125,-35.64453125,-33.203125,-68.84765625,-53.22265625,0.0
320.62890625,-34.66796875,-37.59765625,-24.90234375,-41.50390625,-47.36328125,0.0
320.6328125,-14.16015625,-33.69140625,-26.85546875,-23.92578125,-31.73828125,0.0
320.63671875,-7.8125,-30.2734375,-28.3203125,-29.78515625,61.5234375,0.0
320.640625,-24.4140625,-30.2734375,-31.73828125,-28.80859375,33.203125,0.0
320.64453125,-41.50390625,-31.25,-31.73828125,-41.50390625,-66.89453125,0.0
320.6484375,-29.78515625,-32.2265625,-27.83203125,-42.96875,-66.89453125,0.0
320.65234375,-2.9296875,-26.3671875,-23.4375,-26.85546875,1.953125,0.0
320.65625,2.9296875,-28.3203125,-18.5546875,-17.08984375,29.296875,0.0
320.66015625,-20.5078125,-33.203125,-23.92578125,-21.97265625,-4.39453125,0.0
320.6640625,-46.38671875,-30.2734375,-35.15625,-37.59765625,-83.49609375,0.0
320.66796875,-38.0859375,-28.3203125,-31.73828125,-45.41015625,-129.39453125,0.0
320.671875,-8.30078125,-28.3203125,-27.83203125,-17.578125,-113.28125,0.0
320.67578125,-1.953125,-26.3671875,-34.1796875,-33.203125,-11.71875,0.0
320.6796875,-17.578125,-27.83203125,-36.1328125,-58.59375,32.2265625,0.0
320.68359375,-25.87890625,-21.484375,-39.0625,-31.25,-66.89453125,0.0
320.6875,-6.34765625,-18.06640625,-20.01953125,-5.859375,-44.921875,0.0
320.69140625,12.6953125,-24.90234375,-19.04296875,-38.57421875,31.25,0.0
320.6953125,13.18359375,-21.97265625,-26.3671875,-53.7109375,50.29296875,0.0
320.69921875,-17.08984375,-22.94921875,-23.4375,-38.57421875,-51.7578125,0.0
320.703125,-47.36328125,-21.97265625,-18.5546875,-38.0859375,-68.359375,0.0
320.70703125,-56.15234375,-30.76171875,-22.4609375,-34.66796875,-35.15625,0.0
320.7109375,-32.2265625,-29.296875,-16.11328125,-18.06640625,-51.7578125,0.0
320.71484375,-12.20703125,-22.94921875,-11.71875,-15.13671875,3.41796875,0.0
320.71875,-39.0625,-28.3203125,-21.97265625,-27.83203125,49.8046875,0.0
320.72265625,-73.73046875,-32.71484375,-29.78515625,-26.85546875,-45.41015625,0.0
320.7265625,-76.66015625,-31.73828125,-21.484375,-24.4140625,-98.14453125,0.0
320.73046875,-40.0390625,-21.484375,-14.16015625,-30.2734375,-55.6640625,0.0
320.734375,-20.01953125,-21.484375,-21.484375,-27.34375,19.53125,0.0
320.73828125,-33.203125,-30.76171875,-29.78515625,-34.66796875,58.59375,0.0
320.7421875,-51.7578125,-29.78515625,-31.73828125,-46.38671875,32.2265625,0.0
320.74609375,-46.38671875,-17.08984375,-18.5546875,-32.71484375,-51.26953125,0.0
320.75,-38.57421875,-21.484375,-12.20703125,-37.109375,-26.85546875,0.0
320.75390625,-34.1796875,-33.203125,-23.4375,-37.109375,-3.41796875,0.0
320.7578125,-43.9453125,-29.296875,-27.83203125,-29.78515625,-35.15625,0.0
320.76171875,-54.6875,-30.76171875,-32.2265625,-35.15625,36.62109375,0.0
320.765625,-48.828125,-35.15625,-35.15625,-34.66796875,-45.8984375,0.0
320.76953125,-37.59765625,-31.25,-36.1328125,-45.41015625,-150.87890625,0.0
320.7734375,-19.04296875,-29.296875,-31.25,-36.1328125,-42.96875,0.0
320.77734375,-17.578125,-25.87890625,-25.390625,-16.6015625,80.56640625,0.0
320.78125,-33.203125,-28.80859375,-33.69140625,-17.08984375,-32.2265625,0.0
320.78515625,-36.62109375,-31.73828125,-34.1796875,-26.3671875,-189.453125,0.0
320.7890625,-14.6484375,-24.4140625,-22.4609375,-20.5078125,-122.0703125,0.0
320.79296875,18.5546875,-15.13671875,0.9765625,3.90625,-86.42578125,0.0
320.796875,12.20703125,-20.01953125,-14.16015625,-12.6953125,-100.5859375,0.0
320.80078125,-15.13671875,-26.85546875,-38.57421875,-30.76171875,-59.5703125,0.0
320.8046875,-25.87890625,-22.94921875,-33.203125,-25.87890625,-148.4375,0.0
320.80859375,-22.4609375,-21.97265625,-28.3203125,-23.4375,-139.16015625,0.0
320.8125,-12.6953125,-20.99609375,-32.2265625,-27.83203125,-72.265625,0.0
320.81640625,-18.5546875,-24.4140625,-34.66796875,-38.0859375,-13.671875,0.0
320.8203125,-37.59765625,-31.73828125,-35.64453125,-41.015625,-12.6953125,0.0
320.82421875,-43.45703125,-39.55078125,-35.64453125,-29.296875,-28.80859375,0.0
320.828125,-30.2734375,-39.55078125,-29.78515625,-15.625,4.39453125,0.0
320.83203125,-9.27734375,-34.66796875,-22.94921875,-15.13671875,26.85546875,0.0
320.8359375,1.953125,-29.296875,-23.92578125,-24.4140625,11.71875,0.0
320.83984375,-17.578125,-32.2265625,-32.71484375,-28.3203125,-39.0625,0.0
320.84375,-37.109375,-39.55078125,-36.1328125,-24.4140625,-155.76171875,0.0
320.84765625,-29.296875,-36.1328125,-33.203125,-25.87890625,-182.6171875,0.0
320.8515625,14.16015625,-16.6015625,-11.71875,-6.8359375,-81.54296875,0.0
320.85546875,22.94921875,-18.5546875,-15.13671875,-9.27734375,69.82421875,0.0
320.859375,-14.6484375,-35.15625,-39.55078125,-21.97265625,70.80078125,0.0
320.86328125,-27.34375,-41.9921875,-33.203125,-17.578125,-89.35546875,0.0
320.8671875,-20.99609375,-24.90234375,-28.80859375,-38.57421875,-121.58203125,0.0
320.87109375,-15.13671875,-20.99609375,-32.2265625,-33.203125,-31.25,0.0
320.875,8.7890625,-34.66796875,-35.15625,-9.27734375,-26.3671875,0.0
320.87890625,1.953125,-32.71484375,-34.1796875,-14.6484375,-131.8359375,0.0
320.8828125,-29.78515625,-31.73828125,-21.484375,-21.97265625,-168.45703125,0.0
320.88671875,-47.8515625,-40.52734375,-23.4375,-27.83203125,-143.5546875,0.0
320.890625,-25.390625,-39.0625,-27.83203125,-29.78515625,-29.78515625,0.0
320.89453125,0.48828125,-33.69140625,-18.06640625,-7.32421875,34.66796875,0.0
320.8984375,-16.6015625,-34.1796875,-13.18359375,4.8828125,-84.9609375,0.0
320.90234375,-46.38671875,-39.0625,-34.66796875,-18.06640625,-186.5234375,0.0
320.90625,-47.8515625,-38.57421875,-41.9921875,-29.78515625,-100.09765625,0.0
320.91015625,-27.34375,-27.83203125,-22.4609375,-15.13671875,-26.3671875,0.0
320.9140625,-21.484375,-30.76171875,-20.01953125,-22.94921875,-40.0390625,0.0
320.91796875,-34.66796875,-41.015625,-38.0859375,-37.109375,-85.44921875,0.0
320.921875,-51.7578125,-41.9921875,-40.0390625,-34.1796875,-116.69921875,0.0
320.92578125,-59.08203125,-44.43359375,-32.71484375,-18.06640625,-72.75390625,0.0
320.9296875,-38.0859375,-35.64453125,-28.3203125,-21.97265625,-72.265625,0.0
320.93359375,-30.2734375,-38.0859375,-34.66796875,-45.41015625,-96.6796875,0.0
320.9375,-41.9921875,-44.43359375,-34.1796875,-33.69140625,-58.10546875,0.0
320.94140625,-41.015625,-31.73828125,-16.11328125,-15.625,24.90234375,0.0
320.9453125,-45.8984375,-29.78515625,-20.5078125,-18.06640625,-3.90625,0.0
320.94921875,-41.9921875,-37.109375,-28.80859375,-28.3203125,-77.63671875,0.0
320.953125,-27.34375,-39.55078125,-24.4140625,-33.203125,-2.9296875,0.0
320.95703125,-33.203125,-39.0625,-26.3671875,-32.2265625,44.43359375,0.0
320.9609375,-55.17578125,-38.57421875,-33.69140625,-27.83203125,26.85546875,0.0
320.96484375,-71.77734375,-43.9453125,-38.0859375,-40.0390625,34.66796875,0.0
320.96875,-54.19921875,-41.9921875,-25.87890625,-38.0859375,-2.44140625,0.0
320.97265625,-22.94921875,-32.71484375,-16.11328125,-21.484375,-16.6015625,0.0
320.9765625,-26.3671875,-35.64453125,-28.3203125,-21.484375,11.23046875,0.0
320.98046875,-49.8046875,-45.8984375,-34.66796875,-29.78515625,0.0,0.0
320.984375,-50.29296875,-42.48046875,-26.85546875,-24.90234375,-73.73046875,0.0
320.98828125,-21.484375,-19.53125,-10.25390625,-6.8359375,-123.046875,0.0
320.9921875,-13.671875,-18.5546875,-16.6015625,-12.20703125,25.390625,0.0
320.99609375,-16.6015625,-29.78515625,-27.83203125,-15.625,107.91015625,0.0
321.0,-33.69140625,-31.25,-31.25,-22.94921875,-17.08984375,0.0
321.00390625,-53.7109375,-30.2734375,-38.57421875,-33.203125,-103.515625,0.0
321.0078125,-43.9453125,-39.0625,-37.109375,-26.85546875,-109.375,0.0
321.01171875,-24.90234375,-32.2265625,-33.69140625,-28.3203125,-53.22265625,0.0
321.015625,-20.5078125,-20.5078125,-27.34375,-28.3203125,-70.3125,0.0
321.01953125,-23.92578125,-30.2734375,-27.83203125,-15.13671875,-53.22265625,0.0
321.0234375,-51.7578125,-38.0859375,-35.15625,-31.25,22.94921875,0.0
321.02734375,-51.7578125,-35.15625,-35.15625,-36.1328125,-16.6015625,0.0
321.03125,10.25390625,-21.484375,0.0,14.16015625,-20.01953125,0.0
321.03515625,22.4609375,-23.92578125,4.8828125,23.4375,46.875,0.0
321.0390625,-15.625,-38.0859375,-24.4140625,-12.6953125,64.94140625,0.0
321.04296875,-34.1796875,-37.109375,-28.3203125,-19.53125,27.83203125,0.0
321.046875,-20.01953125,-33.203125,-31.73828125,-10.7421875,-6.34765625,0.0
321.05078125,8.7890625,-31.73828125,-28.3203125,-8.7890625,-24.4140625,0.0
321.0546875,22.4609375,-31.25,-21.484375,-6.8359375,25.87890625,0.0
321.05859375,13.18359375,-28.3203125,-24.4140625,-6.8359375,20.5078125,0.0
321.0625,6.8359375,-21.484375,-20.01953125,-4.39453125,-28.80859375,0.0
321.06640625,8.7890625,-35.64453125,-20.5078125,-1.46484375,-7.8125,0.0
321.0703125,28.80859375,-35.64453125,-24.4140625,-11.23046875,7.32421875,0.0
321.07421875,59.08203125,-26.85546875,-16.11328125,-15.625,9.765625,0.0
321.078125,52.24609375,-24.90234375,-8.7890625,-15.13671875,-11.23046875,0.0
321.08203125,8.7890625,-21.97265625,-32.71484375,-34.1796875,-75.1953125,0.0
321.0859375,-0.9765625,-28.80859375,-37.109375,-35.64453125,-158.69140625,0.0
321.08984375,31.73828125,-29.296875,-18.06640625,-19.04296875,-102.5390625,0.0
321.09375,47.36328125,-26.3671875,-20.5078125,-15.13671875,91.30859375,0.0
321.09765625,27.34375,-33.203125,-30.2734375,-13.18359375,125.0,0.0
321.1015625,-6.34765625,-41.50390625,-35.64453125,-21.97265625,-58.10546875,0.0
321.10546875,-19.04296875,-40.0390625,-34.1796875,-26.3671875,-93.75,0.0
321.109375,-1.46484375,-32.71484375,-24.90234375,-23.92578125,49.8046875,0.0
321.11328125,18.5546875,-29.296875,-23.4375,-23.92578125,18.06640625,0.0
321.1171875,13.18359375,-29.296875,-32.2265625,-24.90234375,-37.59765625,0.0
321.12109375,0.48828125,-18.5546875,-23.92578125,-23.4375,-73.2421875,0.0
321.125,-6.34765625,-16.11328125,-19.04296875,-24.90234375,-98.14453125,0.0
321.12890625,-2.44140625,-31.25,-32.71484375,-41.9921875,-52.734375,0.0
321.1328125,15.13671875,-28.3203125,-32.2265625,-49.8046875,16.6015625,0.0
321.13671875,10.25390625,-25.390625,-37.109375,-44.43359375,62.01171875,0.0
321.140625,-13.18359375,-32.2265625,-42.48046875,-41.015625,7.8125,0.0
321.14453125,-21.484375,-26.85546875,-39.55078125,-51.7578125,-87.40234375,0.0
321.1484375,-2.44140625,-20.01953125,-37.59765625,-63.4765625,-75.1953125,0.0
321.15234375,28.3203125,-18.06640625,-28.3203125,-41.50390625,-58.59375,0.0
321.15625,21.484375,-24.4140625,-24.4140625,-20.5078125,-43.9453125,0.0
321.16015625,-11.71875,-27.83203125,-33.69140625,-25.390625,56.15234375,0.0
321.1640625,-28.3203125,-21.484375,-31.25,-27.34375,-24.4140625,0.0
321.16796875,-16.11328125,-18.5546875,-25.87890625,-26.3671875,-47.36328125,0.0
321.171875,-3.41796875,-30.2734375,-25.87890625,-26.85546875,33.203125,0.0
321.17578125,-1.953125,-33.69140625,-25.87890625,-25.390625,62.01171875,0.0
321.1796875,-12.20703125,-31.25,-27.83203125,-32.71484375,40.52734375,0.0
321.18359375,-30.76171875,-32.2265625,-25.390625,-32.2265625,-20.01953125,0.0
321.1875,-31.25,-33.203125,-32.2265625,-41.50390625,-47.8515625,0.0
321.19140625,-11.23046875,-35.64453125,-32.2265625,-54.6875,-26.3671875,0.0
321.1953125,-1.46484375,-31.25,-27.34375,-40.0390625,-36.62109375,0.0
321.19921875,-20.01953125,-28.3203125,-35.15625,-33.69140625,-18.06640625,0.0
321.203125,-41.9921875,-40.52734375,-38.57421875,-34.1796875,7.32421875,0.0
321.20703125,-39.55078125,-43.9453125,-28.80859375,-33.203125,-35.15625,0.0
321.2109375,-18.5546875,-32.2265625,-18.06640625,-41.015625,-6.34765625,0.0
321.21484375,-12.20703125,-32.71484375,-23.92578125,-43.9453125,32.71484375,0.0
321.21875,-36.1328125,-36.62109375,-34.1796875,-42.96875,36.62109375,0.0
321.22265625,-62.5,-41.50390625,-41.015625,-58.59375,11.71875,0.0
321.2265625,-48.828125,-36.62109375,-26.3671875,-43.45703125,-66.89453125,0.0
321.23046875,-29.78515625,-34.66796875,-19.53125,-28.80859375,-61.5234375,0.0
