timestamp,TP9,AF7,AF8,TP10,AUX,Marker,
59.00390625,-22.4609375,-43.9453125,-27.34375,-13.18359375,-84.47265625,0.0
59.0078125,-50.29296875,-69.82421875,-52.24609375,-50.78125,-50.78125,0.0
59.01171875,-29.296875,-54.19921875,-42.48046875,-47.36328125,-16.6015625,0.0
59.015625,-20.01953125,-13.18359375,-15.625,-45.41015625,-29.296875,0.0
59.01953125,-42.48046875,-21.97265625,-24.4140625,-56.15234375,-61.03515625,0.0
59.0234375,-37.59765625,-11.71875,-37.109375,-52.734375,-31.73828125,0.0
59.02734375,-51.7578125,-28.3203125,-52.24609375,-77.1484375,-4.39453125,0.0
59.03125,-69.82421875,-55.17578125,-46.38671875,-82.03125,-66.40625,0.0
59.03515625,-69.82421875,-42.48046875,-48.33984375,-73.73046875,-84.9609375,0.0
59.0390625,-62.98828125,2.9296875,-38.0859375,-72.265625,-49.31640625,0.0
59.04296875,-48.828125,37.109375,-17.08984375,-62.98828125,-39.55078125,0.0
59.046875,-68.84765625,-35.64453125,-47.8515625,-78.61328125,-24.4140625,0.0
59.05078125,-66.40625,-78.61328125,-53.7109375,-76.171875,-39.55078125,0.0
59.0546875,-53.22265625,-29.78515625,-5.37109375,-59.08203125,-31.73828125,0.0
59.05859375,-88.8671875,-23.92578125,-10.7421875,-88.8671875,-33.69140625,0.0
59.0625,-138.671875,-51.26953125,-55.17578125,-142.08984375,-40.0390625,0.0
59.06640625,-173.33984375,-90.33203125,-53.22265625,-173.33984375,-5.37109375,0.0
59.0703125,-172.8515625,-71.77734375,-33.203125,-166.015625,76.171875,0.0
59.07421875,-165.52734375,-42.96875,-36.1328125,-162.109375,67.3828125,0.0
59.078125,-161.1328125,-37.109375,-39.0625,-163.0859375,3.90625,0.0
59.08203125,-167.48046875,-41.50390625,-45.8984375,-166.015625,2.44140625,0.0
59.0859375,-158.203125,-19.53125,-27.34375,-162.59765625,-41.015625,0.0
59.08984375,-170.41015625,-29.296875,-15.13671875,-176.7578125,-23.4375,0.0
59.09375,-185.05859375,-43.45703125,-12.6953125,-199.70703125,63.4765625,0.0
59.09765625,-169.43359375,11.71875,0.0,-196.77734375,63.96484375,0.0
59.1015625,-181.15234375,-13.18359375,-14.16015625,-200.1953125,-3.90625,0.0
59.10546875,-194.82421875,-67.3828125,-35.64453125,-205.56640625,-30.2734375,0.0
59.109375,-189.94140625,-86.42578125,-41.9921875,-202.63671875,-73.73046875,0.0
59.11328125,-176.26953125,-83.49609375,-47.36328125,-182.6171875,-88.37890625,0.0
59.1171875,-158.203125,-24.90234375,-41.50390625,-159.66796875,-57.6171875,0.0
59.12109375,-154.78515625,11.71875,-29.296875,-154.78515625,32.71484375,0.0
59.125,-158.203125,-17.08984375,-50.29296875,-159.66796875,94.7265625,0.0
59.12890625,-154.296875,-70.80078125,-74.70703125,-164.0625,-51.26953125,0.0
59.1328125,-144.04296875,-50.29296875,-47.36328125,-148.92578125,-84.47265625,0.0
59.13671875,-116.2109375,29.78515625,-0.9765625,-122.55859375,50.29296875,0.0
59.140625,-98.14453125,12.20703125,-20.99609375,-120.1171875,39.0625,0.0
59.14453125,-89.84375,-41.50390625,-50.29296875,-116.69921875,-2.44140625,0.0
59.1484375,-78.125,-42.48046875,-48.828125,-99.609375,-28.80859375,0.0
59.15234375,-68.359375,-29.78515625,-41.9921875,-88.37890625,-66.40625,0.0
59.15625,-42.96875,-12.6953125,-22.4609375,-64.94140625,-58.59375,0.0
59.16015625,-17.08984375,-0.9765625,-15.625,-40.52734375,-76.66015625,0.0
59.1640625,-21.97265625,-27.34375,-21.97265625,-38.57421875,-132.32421875,0.0
59.16796875,-35.15625,-63.4765625,-41.015625,-41.9921875,-144.53125,0.0
59.171875,-28.80859375,-65.4296875,-52.24609375,-34.1796875,-108.88671875,0.0
59.17578125,-14.16015625,-42.96875,-34.1796875,-23.4375,-43.45703125,0.0
59.1796875,1.46484375,12.20703125,-12.6953125,-12.6953125,-38.0859375,0.0
59.18359375,14.6484375,29.78515625,-27.83203125,-3.90625,-55.17578125,0.0
59.1875,20.5078125,-27.34375,-57.6171875,4.39453125,1.953125,0.0
59.19140625,21.97265625,-36.62109375,-43.9453125,11.23046875,71.77734375,0.0
59.1953125,25.87890625,6.34765625,-17.578125,12.20703125,59.08203125,0.0
59.19921875,41.015625,1.46484375,-21.484375,11.23046875,-34.1796875,0.0
59.203125,49.8046875,-20.5078125,-38.57421875,15.625,-43.45703125,0.0
59.20703125,57.6171875,-41.50390625,-44.921875,32.2265625,-74.70703125,0.0
59.2109375,55.6640625,-27.34375,-33.69140625,36.62109375,23.4375,0.0
59.21484375,52.734375,-10.7421875,-33.69140625,33.203125,83.0078125,0.0
59.21875,62.5,-21.97265625,-39.55078125,35.64453125,-60.546875,0.0
59.22265625,61.5234375,-37.59765625,-35.64453125,37.59765625,-144.53125,0.0
59.2265625,56.640625,-19.04296875,-29.78515625,37.59765625,-123.53515625,0.0
59.23046875,50.78125,-14.16015625,-31.73828125,46.38671875,-44.921875,0.0
59.234375,50.29296875,-22.94921875,-38.0859375,46.38671875,4.39453125,0.0
59.23828125,54.19921875,-6.34765625,-39.55078125,34.1796875,19.53125,0.0
59.2421875,49.31640625,-14.6484375,-53.7109375,29.78515625,11.23046875,0.0
59.24609375,43.45703125,-26.3671875,-61.5234375,35.15625,48.828125,0.0
59.25,41.015625,-45.41015625,-57.6171875,34.66796875,-3.41796875,0.0
59.25390625,49.31640625,-50.78125,-39.0625,29.296875,-53.22265625,0.0
59.2578125,63.96484375,-4.39453125,-16.11328125,32.71484375,15.625,0.0
59.26171875,62.98828125,38.57421875,-12.20703125,40.52734375,42.48046875,0.0
59.265625,56.640625,-0.48828125,-19.04296875,43.9453125,17.08984375,0.0
59.26953125,54.19921875,-65.91796875,-21.97265625,45.8984375,1.46484375,0.0
59.2734375,43.45703125,-21.484375,-14.6484375,48.33984375,-63.96484375,0.0
59.27734375,38.0859375,26.3671875,-9.27734375,54.19921875,-108.3984375,0.0
59.28125,36.62109375,-18.5546875,-8.7890625,47.36328125,-120.1171875,0.0
59.28515625,27.83203125,-31.25,-16.11328125,38.57421875,-104.4921875,0.0
59.2890625,17.08984375,-40.0390625,-34.66796875,37.59765625,-88.8671875,0.0
59.29296875,20.01953125,-62.01171875,-40.52734375,35.64453125,-32.71484375,0.0
59.296875,26.85546875,-42.48046875,-31.73828125,31.73828125,-11.71875,0.0
59.30078125,22.4609375,-28.80859375,-27.83203125,32.71484375,7.32421875,0.0
59.3046875,20.5078125,-23.92578125,-50.29296875,35.64453125,41.50390625,0.0
59.30859375,13.18359375,-45.8984375,-71.77734375,20.01953125,-1.953125,0.0
59.3125,10.25390625,-48.828125,-53.7109375,13.18359375,51.26953125,0.0
59.31640625,15.625,-22.94921875,-25.390625,13.671875,30.76171875,0.0
59.3203125,13.671875,20.99609375,-15.13671875,8.7890625,-5.37109375,0.0
59.32421875,3.90625,14.6484375,-27.34375,5.37109375,14.6484375,0.0
59.328125,-1.953125,-57.6171875,-44.43359375,6.8359375,0.9765625,0.0
59.33203125,-2.9296875,-80.56640625,-50.29296875,5.859375,-12.20703125,0.0
59.3359375,-0.48828125,-46.875,-43.45703125,0.48828125,-78.61328125,0.0
59.33984375,2.9296875,-20.99609375,-37.59765625,-1.46484375,-60.546875,0.0
59.34375,-4.8828125,-30.2734375,-38.57421875,-12.6953125,-12.6953125,0.0
59.34765625,-15.625,-70.80078125,-47.36328125,-14.16015625,-71.77734375,0.0
59.3515625,-20.01953125,-61.03515625,-44.43359375,-16.11328125,-87.890625,0.0
59.35546875,-21.484375,-29.296875,-37.59765625,-29.296875,-93.26171875,0.0
59.359375,-19.04296875,-14.16015625,-29.296875,-24.4140625,-110.3515625,0.0
59.36328125,-17.08984375,-18.06640625,-28.80859375,-22.4609375,-29.78515625,0.0
59.3671875,-20.5078125,-21.484375,-41.50390625,-31.73828125,-38.57421875,0.0
59.37109375,-25.87890625,-25.390625,-52.734375,-40.0390625,-85.9375,0.0
59.375,-12.20703125,-33.69140625,-44.921875,-32.2265625,-73.2421875,0.0
59.37890625,0.48828125,-18.06640625,-34.66796875,-15.13671875,-59.5703125,0.0
59.3828125,-11.23046875,-29.78515625,-46.875,-27.83203125,6.8359375,0.0
59.38671875,-20.5078125,-78.61328125,-54.19921875,-39.0625,73.73046875,0.0
59.390625,-34.1796875,-102.05078125,-47.36328125,-37.59765625,18.5546875,0.0
59.39453125,-28.80859375,-73.73046875,-39.0625,-24.90234375,2.9296875,0.0
59.3984375,-3.41796875,-21.97265625,-20.01953125,-3.90625,46.38671875,0.0
59.40234375,-6.34765625,-11.71875,-10.7421875,-9.27734375,35.64453125,0.0
59.40625,-35.15625,-38.57421875,-24.90234375,-27.34375,-14.6484375,0.0
59.41015625,-40.52734375,-72.75390625,-41.015625,-34.1796875,-87.890625,0.0
59.4140625,-28.80859375,-30.76171875,-31.73828125,-33.203125,-97.16796875,0.0
59.41796875,-19.53125,24.4140625,-11.23046875,-24.90234375,-25.87890625,0.0
59.421875,-18.5546875,-15.13671875,-17.08984375,-25.390625,15.13671875,0.0
59.42578125,-25.87890625,-73.73046875,-33.69140625,-31.73828125,-8.30078125,0.0
59.4296875,-29.296875,-67.3828125,-39.55078125,-23.4375,-29.78515625,0.0
59.43359375,-29.78515625,-68.84765625,-40.52734375,-14.6484375,-129.39453125,0.0
59.4375,-24.90234375,-42.48046875,-23.4375,-5.37109375,-119.140625,0.0
59.44140625,-26.85546875,-17.08984375,-26.85546875,-4.8828125,-69.82421875,0.0
59.4453125,-39.0625,-53.22265625,-63.96484375,-20.01953125,-167.96875,0.0
59.44921875,-47.36328125,-55.17578125,-68.84765625,-24.4140625,-134.765625,0.0
59.453125,-37.59765625,-27.83203125,-41.9921875,-16.11328125,2.9296875,0.0
59.45703125,-24.90234375,-18.5546875,-16.6015625,-18.06640625,38.57421875,0.0
59.4609375,-24.4140625,23.92578125,-8.7890625,-21.97265625,61.03515625,0.0
59.46484375,-29.296875,12.6953125,-36.1328125,-21.97265625,11.23046875,0.0
59.46875,-27.34375,-66.89453125,-41.50390625,-21.97265625,-23.92578125,0.0
59.47265625,-19.53125,-64.453125,-26.85546875,-20.01953125,-45.8984375,0.0
59.4765625,-10.7421875,-9.765625,-17.578125,-11.71875,-47.8515625,0.0
59.48046875,-18.5546875,-19.04296875,-14.16015625,-18.06640625,-28.80859375,0.0
59.484375,-29.296875,-43.45703125,-29.296875,-29.78515625,-119.140625,0.0
59.48828125,-21.484375,-51.7578125,-53.22265625,-23.92578125,-114.2578125,0.0
59.4921875,-20.5078125,-43.9453125,-52.734375,-23.92578125,-9.27734375,0.0
59.49609375,-16.11328125,-20.5078125,-25.87890625,-25.87890625,-20.99609375,0.0
59.5,-4.8828125,-13.671875,-3.41796875,-23.4375,-32.71484375,0.0
59.50390625,-12.20703125,-22.4609375,-9.765625,-20.5078125,-1.46484375,0.0
59.5078125,-26.85546875,-13.18359375,-21.484375,-17.08984375,-23.4375,0.0
59.51171875,-29.78515625,-17.08984375,-27.34375,-26.3671875,-37.59765625,0.0
59.515625,-27.83203125,-54.19921875,-34.1796875,-30.76171875,-100.09765625,0.0
59.51953125,-24.4140625,-41.50390625,-31.25,-23.4375,-111.81640625,0.0
59.5234375,-20.99609375,-15.13671875,-30.2734375,-23.4375,-159.66796875,0.0
59.52734375,-20.99609375,-27.34375,-40.0390625,-20.5078125,-140.13671875,0.0
59.53125,-24.90234375,-26.85546875,-49.31640625,-18.5546875,45.8984375,0.0
59.53515625,-31.73828125,-26.85546875,-32.71484375,-26.3671875,20.99609375,0.0
59.5390625,-47.36328125,-4.39453125,-24.4140625,-37.59765625,-76.66015625,0.0
59.54296875,-50.29296875,-1.46484375,-26.3671875,-40.52734375,-86.9140625,0.0
59.546875,-44.43359375,-52.734375,-27.83203125,-35.15625,-93.26171875,0.0
59.55078125,-40.52734375,-67.3828125,-32.2265625,-29.78515625,-65.4296875,0.0
59.5546875,-28.3203125,-3.90625,-28.80859375,-30.2734375,-4.39453125,0.0
59.55859375,-22.4609375,44.921875,-36.1328125,-33.69140625,8.7890625,0.0
59.5625,-25.87890625,-11.23046875,-48.33984375,-31.73828125,-50.29296875,0.0
59.56640625,-29.296875,-37.59765625,-44.43359375,-33.203125,-48.828125,0.0
59.5703125,-25.87890625,-34.66796875,-41.50390625,-37.109375,-59.08203125,0.0
59.57421875,-24.4140625,-53.7109375,-36.62109375,-35.15625,-32.71484375,0.0
59.578125,-22.94921875,-40.0390625,-31.73828125,-38.57421875,43.45703125,0.0
59.58203125,-26.85546875,-36.1328125,-24.4140625,-41.9921875,59.5703125,0.0
59.5859375,-38.57421875,-47.8515625,-20.01953125,-42.48046875,17.578125,0.0
59.58984375,-37.109375,-55.6640625,-35.15625,-44.43359375,28.3203125,0.0
59.59375,-31.25,-33.69140625,-24.90234375,-43.45703125,65.91796875,0.0
59.59765625,-27.34375,-5.859375,-4.8828125,-35.64453125,12.20703125,0.0
59.6015625,-28.3203125,8.7890625,-9.765625,-26.3671875,22.4609375,0.0
59.60546875,-37.109375,-7.32421875,-24.4140625,-23.92578125,11.23046875,0.0
59.609375,-28.80859375,-49.31640625,-39.0625,-18.5546875,42.48046875,0.0
59.61328125,-24.90234375,-69.3359375,-42.96875,-11.23046875,-3.41796875,0.0
59.6171875,-20.99609375,-46.875,-38.57421875,-7.8125,-85.44921875,0.0
59.62109375,-12.6953125,-14.16015625,-23.92578125,-8.30078125,-29.78515625,0.0
59.625,-19.53125,-25.390625,-22.4609375,-6.34765625,-35.15625,0.0
59.62890625,-25.390625,-61.5234375,-38.57421875,-6.8359375,-63.96484375,0.0
59.6328125,-23.92578125,-49.31640625,-35.64453125,-15.13671875,-26.3671875,0.0
59.63671875,-10.7421875,-16.11328125,-22.4609375,-10.25390625,-36.62109375,0.0
59.640625,-10.7421875,-6.8359375,-20.01953125,-5.859375,-90.8203125,0.0
59.64453125,-27.83203125,-13.671875,-22.94921875,-5.37109375,-40.0390625,0.0
59.6484375,-32.71484375,-20.5078125,-25.390625,-12.6953125,-29.296875,0.0
59.65234375,-28.3203125,-24.4140625,-29.78515625,-20.01953125,-123.53515625,0.0
59.65625,-31.73828125,-31.25,-30.2734375,-15.625,-144.04296875,0.0
59.66015625,-25.87890625,-5.859375,-16.11328125,-18.06640625,-59.5703125,0.0
59.6640625,-19.04296875,-3.90625,-16.6015625,-15.625,-60.05859375,0.0
59.66796875,-20.5078125,-52.734375,-25.390625,-2.9296875,-65.91796875,0.0
59.671875,-11.71875,-73.2421875,-31.73828125,-4.8828125,-83.0078125,0.0
59.67578125,-6.34765625,-57.6171875,-29.78515625,-13.18359375,-21.97265625,0.0
59.6796875,-3.90625,-19.53125,-23.92578125,-12.20703125,48.828125,0.0
59.68359375,-2.44140625,-19.04296875,-33.69140625,1.953125,-31.73828125,0.0
59.6875,-15.13671875,-39.55078125,-48.828125,-1.46484375,-55.6640625,0.0
59.69140625,-21.484375,-46.38671875,-46.38671875,-17.578125,-15.13671875,0.0
59.6953125,-21.484375,-15.13671875,-18.5546875,-16.6015625,-37.109375,0.0
59.69921875,-26.85546875,-3.90625,0.48828125,-16.11328125,-59.08203125,0.0
59.703125,-37.59765625,-35.15625,-23.4375,-20.01953125,6.8359375,0.0
59.70703125,-41.9921875,-51.26953125,-45.41015625,-26.85546875,-59.5703125,0.0
59.7109375,-39.55078125,-61.03515625,-37.109375,-35.15625,-110.3515625,0.0
59.71484375,-32.71484375,-56.15234375,-18.5546875,-33.69140625,-25.390625,0.0
59.71875,-30.2734375,-30.76171875,-2.44140625,-27.34375,36.1328125,0.0
59.72265625,-39.55078125,-30.2734375,-29.296875,-34.1796875,86.42578125,0.0
59.7265625,-46.38671875,-34.1796875,-49.31640625,-38.0859375,133.7890625,0.0
59.73046875,-42.96875,-60.05859375,-40.52734375,-33.69140625,18.06640625,0.0
59.734375,-44.43359375,-72.265625,-35.15625,-27.34375,-132.8125,0.0
59.73828125,-36.62109375,-39.0625,-21.97265625,-11.71875,-97.16796875,0.0
59.7421875,-23.4375,-0.48828125,-18.5546875,-13.671875,-48.828125,0.0
59.74609375,-27.34375,-18.06640625,-23.92578125,-27.34375,-41.9921875,0.0
59.75,-33.69140625,-76.66015625,-34.1796875,-30.2734375,-15.625,0.0
59.75390625,-25.87890625,-66.89453125,-36.1328125,-24.90234375,-25.87890625,0.0
59.7578125,-20.99609375,-31.25,-29.296875,-25.390625,0.48828125,0.0
59.76171875,-34.1796875,-32.71484375,-29.78515625,-39.55078125,-2.9296875,0.0
59.765625,-44.43359375,-47.36328125,-36.62109375,-52.24609375,4.8828125,0.0
59.76953125,-37.109375,-75.1953125,-43.45703125,-46.38671875,8.7890625,0.0
59.7734375,-24.90234375,-63.96484375,-28.3203125,-37.109375,-37.109375,0.0
59.77734375,-16.6015625,-38.0859375,-29.78515625,-35.64453125,-97.16796875,0.0
59.78125,-17.578125,-18.06640625,-42.96875,-35.15625,-42.48046875,0.0
59.78515625,-23.4375,-39.0625,-51.7578125,-35.64453125,-7.8125,0.0
59.7890625,-25.87890625,-40.0390625,-64.453125,-27.83203125,-55.17578125,0.0
59.79296875,-24.90234375,-44.43359375,-58.59375,-22.4609375,-106.4453125,0.0
59.796875,-20.5078125,-80.56640625,-42.96875,-19.53125,-153.3203125,0.0
59.80078125,-13.18359375,-54.6875,-31.73828125,-14.16015625,-13.18359375,0.0
59.8046875,-8.7890625,-30.2734375,-28.80859375,-15.13671875,27.83203125,0.0
59.80859375,-18.06640625,-54.19921875,-35.64453125,-20.01953125,-52.734375,0.0
59.8125,-19.04296875,-53.22265625,-33.203125,-23.4375,-17.08984375,0.0
59.81640625,-13.671875,-30.76171875,-37.109375,-26.3671875,-48.33984375,0.0
59.8203125,-11.71875,-11.71875,-38.0859375,-26.3671875,-0.9765625,0.0
59.82421875,-22.4609375,-39.0625,-42.96875,-27.83203125,25.87890625,0.0
59.828125,-31.73828125,-88.8671875,-58.10546875,-38.0859375,-92.28515625,0.0
59.83203125,-33.203125,-91.796875,-65.91796875,-40.52734375,-47.36328125,0.0
59.8359375,-33.203125,-26.3671875,-43.45703125,-42.48046875,-40.52734375,0.0
59.83984375,-35.64453125,21.484375,-32.71484375,-45.8984375,-60.05859375,0.0
59.84375,-39.0625,-27.83203125,-59.5703125,-46.875,-70.80078125,0.0
59.84765625,-29.78515625,-50.78125,-61.03515625,-40.52734375,-85.9375,0.0
59.8515625,-32.2265625,-43.45703125,-52.734375,-44.43359375,-63.96484375,0.0
59.85546875,-27.83203125,-53.7109375,-33.69140625,-48.828125,-67.3828125,0.0
59.859375,-21.484375,-25.87890625,-11.71875,-37.109375,-5.859375,0.0
59.86328125,-31.25,-30.2734375,-18.5546875,-37.109375,-12.6953125,0.0
59.8671875,-42.48046875,-61.5234375,-31.25,-48.828125,-120.60546875,0.0
59.87109375,-42.96875,-44.921875,-30.2734375,-44.921875,-86.9140625,0.0
59.875,-34.1796875,-7.32421875,-20.99609375,-37.109375,-23.4375,0.0
59.87890625,-24.4140625,-20.5078125,-13.18359375,-41.015625,-14.16015625,0.0
59.8828125,-35.15625,-17.08984375,-12.20703125,-46.38671875,-78.125,0.0
59.88671875,-56.15234375,-27.83203125,-47.36328125,-56.640625,-159.1796875,0.0
59.890625,-43.45703125,-95.21484375,-70.3125,-51.7578125,-229.00390625,0.0
59.89453125,-22.94921875,-96.6796875,-56.15234375,-34.1796875,-186.5234375,0.0
59.8984375,-18.06640625,-40.52734375,-33.203125,-27.34375,-111.81640625,0.0
59.90234375,-15.625,-23.92578125,-14.6484375,-23.4375,-161.62109375,0.0
59.90625,-25.390625,-41.9921875,-40.52734375,-28.3203125,-94.23828125,0.0
59.91015625,-34.66796875,-55.17578125,-53.7109375,-28.3203125,64.94140625,0.0
59.9140625,-29.78515625,-40.0390625,-24.4140625,-17.08984375,73.73046875,0.0
59.91796875,-27.83203125,-23.92578125,-6.8359375,-15.13671875,56.15234375,0.0
59.921875,-38.0859375,-44.43359375,-18.5546875,-30.76171875,47.8515625,0.0
59.92578125,-35.64453125,-66.40625,-37.59765625,-32.2265625,67.87109375,0.0
59.9296875,-32.71484375,-55.6640625,-29.296875,-22.4609375,33.203125,0.0
59.93359375,-39.0625,-38.57421875,-10.7421875,-25.390625,-32.2265625,0.0
59.9375,-38.0859375,-39.55078125,-1.953125,-22.94921875,29.78515625,0.0
59.94140625,-34.66796875,-56.15234375,-7.8125,-15.625,35.64453125,0.0
59.9453125,-45.8984375,-89.84375,-25.87890625,-20.99609375,-27.83203125,0.0
59.94921875,-61.03515625,-110.83984375,-40.0390625,-29.78515625,68.359375,0.0
59.953125,-49.31640625,-86.9140625,-31.25,-16.6015625,81.54296875,0.0
59.95703125,-34.1796875,-56.640625,-27.83203125,-2.9296875,26.3671875,0.0
59.9609375,-30.2734375,-23.92578125,-31.25,-9.27734375,54.19921875,0.0
59.96484375,-27.83203125,-31.25,-23.92578125,-5.37109375,16.11328125,0.0
59.96875,-35.15625,-59.08203125,-29.78515625,-6.8359375,6.8359375,0.0
59.97265625,-38.57421875,-42.96875,-36.1328125,-14.16015625,64.94140625,0.0
59.9765625,-29.78515625,23.92578125,-17.08984375,-7.8125,75.68359375,0.0
59.98046875,-24.4140625,22.4609375,-20.01953125,-12.20703125,31.73828125,0.0
59.984375,-30.2734375,-17.08984375,-32.71484375,-15.625,18.06640625,0.0
59.98828125,-30.2734375,-42.96875,-15.625,-8.7890625,36.62109375,0.0
59.9921875,-36.1328125,-58.10546875,-13.671875,-16.11328125,27.34375,0.0
59.99609375,-31.73828125,-28.80859375,-20.01953125,-16.11328125,7.32421875,0.0
60.0,-20.99609375,6.8359375,-8.7890625,-4.8828125,17.578125,0.0
60.00390625,-19.04296875,-1.46484375,-7.8125,-8.30078125,14.16015625,0.0
60.0078125,-24.4140625,-33.203125,-20.5078125,-10.7421875,32.2265625,0.0
60.01171875,-34.1796875,-37.59765625,-31.25,-18.06640625,39.55078125,0.0
60.015625,-27.34375,-20.99609375,-27.83203125,-21.484375,-22.94921875,0.0
60.01953125,-25.87890625,-14.16015625,-20.5078125,-22.4609375,-88.37890625,0.0
60.0234375,-38.57421875,5.37109375,-33.69140625,-26.3671875,-120.1171875,0.0
60.02734375,-37.59765625,-3.90625,-41.015625,-19.04296875,-183.10546875,0.0
60.03125,-33.69140625,-36.1328125,-26.3671875,-27.34375,-72.265625,0.0
60.03515625,-38.0859375,-6.34765625,-10.25390625,-39.55078125,20.01953125,0.0
60.0390625,-43.9453125,29.296875,-13.18359375,-47.8515625,-28.80859375,0.0
60.04296875,-38.0859375,4.8828125,-12.20703125,-41.015625,-20.99609375,0.0
60.046875,-36.62109375,-30.2734375,-13.18359375,-41.015625,88.8671875,0.0
60.05078125,-42.48046875,-44.921875,-21.484375,-53.7109375,109.375,0.0
60.0546875,-24.4140625,-29.296875,-13.18359375,-43.45703125,41.9921875,0.0
60.05859375,-7.32421875,-0.9765625,-4.8828125,-31.25,-17.08984375,0.0
60.0625,-12.6953125,-16.11328125,-13.671875,-32.2265625,-65.4296875,0.0
60.06640625,-20.99609375,-37.109375,-37.109375,-38.57421875,-34.66796875,0.0
60.0703125,-26.3671875,-4.8828125,-34.66796875,-32.2265625,-20.01953125,0.0
60.07421875,-20.99609375,20.5078125,-13.18359375,-22.4609375,17.08984375,0.0
60.078125,-24.90234375,11.71875,-9.765625,-30.2734375,74.21875,0.0
60.08203125,-32.2265625,-2.9296875,-10.7421875,-41.50390625,41.015625,0.0
60.0859375,-14.16015625,-4.8828125,-12.6953125,-29.296875,30.76171875,0.0
60.08984375,-3.90625,-6.34765625,-13.671875,-21.97265625,25.87890625,0.0
60.09375,-8.7890625,3.90625,-7.8125,-33.203125,13.18359375,0.0
60.09765625,-4.8828125,18.06640625,-13.18359375,-24.90234375,-65.4296875,0.0
60.1015625,-7.32421875,23.4375,-15.13671875,-19.53125,-26.3671875,0.0
60.10546875,-17.08984375,13.18359375,-27.34375,-23.92578125,42.48046875,0.0
60.109375,-25.87890625,-33.69140625,-34.66796875,-28.80859375,-80.078125,0.0
60.11328125,-17.578125,-48.828125,-6.34765625,-26.3671875,-138.671875,0.0
60.1171875,-3.41796875,22.94921875,16.11328125,-11.71875,-70.3125,0.0
60.12109375,-4.8828125,59.5703125,2.44140625,-12.6953125,24.90234375,0.0
60.125,-22.4609375,-20.5078125,-34.1796875,-29.78515625,-4.39453125,0.0
60.12890625,-29.296875,-63.4765625,-34.66796875,-34.66796875,-68.84765625,0.0
60.1328125,-21.97265625,-32.71484375,-26.85546875,-29.78515625,-23.4375,0.0
60.13671875,-19.53125,-37.109375,-34.1796875,-27.34375,-92.28515625,0.0
60.140625,-22.94921875,-27.34375,-26.3671875,-23.4375,-137.6953125,0.0
60.14453125,-29.78515625,-21.484375,-34.1796875,-25.87890625,-128.41796875,0.0
60.1484375,-26.3671875,-22.4609375,-32.71484375,-19.04296875,-81.0546875,0.0
60.15234375,-15.13671875,4.39453125,-11.23046875,-10.25390625,-7.32421875,0.0
60.15625,-15.13671875,15.13671875,0.48828125,-14.6484375,-1.953125,0.0
60.16015625,-17.08984375,6.8359375,-4.39453125,-22.94921875,1.953125,0.0
60.1640625,-15.13671875,32.71484375,-9.765625,-19.53125,-40.0390625,0.0
60.16796875,-20.01953125,36.62109375,-33.203125,-17.08984375,-36.62109375,0.0
60.171875,-28.3203125,-8.7890625,-48.828125,-27.83203125,4.39453125,0.0
60.17578125,-16.6015625,-7.32421875,-25.390625,-19.04296875,11.23046875,0.0
60.1796875,-0.9765625,26.3671875,-0.9765625,0.9765625,8.30078125,0.0
60.18359375,-8.7890625,19.04296875,-8.30078125,-3.41796875,44.43359375,0.0
60.1875,-10.25390625,-20.01953125,-42.48046875,-11.23046875,43.9453125,0.0
60.19140625,-6.34765625,-39.0625,-47.8515625,-8.7890625,77.63671875,0.0
60.1953125,-8.7890625,-17.578125,-25.87890625,-16.11328125,203.61328125,0.0
60.19921875,-8.7890625,14.16015625,-18.5546875,-20.01953125,209.9609375,0.0
60.203125,-17.08984375,-7.8125,-33.69140625,-21.484375,116.69921875,0.0
60.20703125,-23.4375,-36.1328125,-42.96875,-30.76171875,75.1953125,0.0
60.2109375,-10.25390625,16.6015625,-24.4140625,-27.34375,64.94140625,0.0
60.21484375,-9.27734375,44.43359375,-9.765625,-31.25,56.640625,0.0
60.21875,-7.32421875,50.78125,6.8359375,-28.3203125,112.79296875,0.0
60.22265625,-1.46484375,85.9375,35.64453125,-18.06640625,72.75390625,0.0
60.2265625,0.9765625,97.16796875,41.9921875,-20.01953125,65.4296875,0.0
60.23046875,-0.9765625,75.68359375,29.78515625,-25.390625,135.7421875,0.0
60.234375,-3.41796875,77.63671875,28.80859375,-20.99609375,123.53515625,0.0
60.23828125,8.30078125,111.328125,33.69140625,1.46484375,127.9296875,0.0
60.2421875,6.8359375,124.51171875,33.203125,11.23046875,83.0078125,0.0
60.24609375,1.46484375,98.6328125,35.64453125,9.765625,21.97265625,0.0
60.25,-4.8828125,88.37890625,34.66796875,15.13671875,56.15234375,0.0
60.25390625,0.0,100.09765625,36.1328125,12.20703125,116.69921875,0.0
60.2578125,11.71875,146.97265625,51.26953125,8.7890625,179.19921875,0.0
60.26171875,17.578125,169.921875,47.36328125,1.953125,142.08984375,0.0
60.265625,10.25390625,121.09375,27.34375,-7.32421875,125.48828125,0.0
60.26953125,-11.23046875,60.546875,17.578125,-11.71875,213.8671875,0.0
60.2734375,-7.32421875,47.8515625,21.484375,-0.48828125,161.1328125,0.0
60.27734375,12.6953125,71.2890625,25.390625,17.08984375,151.85546875,0.0
60.28125,14.16015625,57.6171875,18.06640625,27.34375,107.91015625,0.0
60.28515625,15.625,36.1328125,4.39453125,34.1796875,125.0,0.0
60.2890625,20.01953125,33.203125,-6.8359375,39.0625,196.2890625,0.0
60.29296875,28.80859375,12.20703125,-4.39453125,43.45703125,92.7734375,0.0
60.296875,37.109375,12.6953125,-2.9296875,41.9921875,48.828125,0.0
60.30078125,30.2734375,17.578125,-15.625,35.15625,112.79296875,0.0
60.3046875,14.16015625,22.4609375,-22.4609375,17.578125,145.5078125,0.0
60.30859375,-5.37109375,1.953125,-28.80859375,0.48828125,214.35546875,0.0
60.3125,-17.08984375,-72.265625,-61.03515625,-9.765625,223.14453125,0.0
60.31640625,-13.671875,-83.0078125,-68.84765625,-17.578125,134.27734375,0.0
60.3203125,-24.4140625,-41.50390625,-59.08203125,-28.3203125,127.9296875,0.0
60.32421875,-45.8984375,-87.890625,-69.82421875,-41.015625,91.30859375,0.0
60.328125,-50.78125,-149.90234375,-80.56640625,-39.0625,49.31640625,0.0
60.33203125,-51.26953125,-160.15625,-85.44921875,-32.71484375,-36.1328125,0.0
60.3359375,-52.24609375,-126.953125,-84.47265625,-38.57421875,32.2265625,0.0
60.33984375,-50.29296875,-95.21484375,-76.66015625,-45.8984375,152.34375,0.0
60.34375,-50.78125,-117.67578125,-74.21875,-44.921875,80.078125,0.0
60.34765625,-62.98828125,-155.2734375,-79.58984375,-46.38671875,15.13671875,0.0
60.3515625,-54.6875,-133.7890625,-73.73046875,-40.52734375,6.8359375,0.0
60.35546875,-38.0859375,-122.55859375,-69.3359375,-27.34375,17.08984375,0.0
60.359375,-38.57421875,-142.08984375,-74.21875,-26.85546875,83.49609375,0.0
60.36328125,-49.31640625,-156.25,-84.47265625,-29.296875,66.89453125,0.0
60.3671875,-61.5234375,-160.15625,-88.37890625,-30.76171875,7.32421875,0.0
60.37109375,-63.4765625,-188.96484375,-85.44921875,-37.59765625,-45.8984375,0.0
60.375,-55.6640625,-188.96484375,-72.265625,-39.55078125,-56.640625,0.0
60.37890625,-49.31640625,-158.69140625,-64.453125,-36.1328125,-37.59765625,0.0
60.3828125,-58.59375,-162.109375,-71.77734375,-36.62109375,-91.796875,0.0
60.38671875,-60.05859375,-166.9921875,-85.44921875,-37.109375,-26.3671875,0.0
60.390625,-61.03515625,-187.01171875,-102.05078125,-50.29296875,51.26953125,0.0
60.39453125,-72.75390625,-204.1015625,-102.5390625,-69.82421875,24.4140625,0.0
60.3984375,-67.87109375,-163.0859375,-89.35546875,-70.3125,-16.11328125,0.0
60.40234375,-79.58984375,-166.015625,-103.515625,-70.3125,-75.1953125,0.0
60.40625,-92.7734375,-256.34765625,-137.6953125,-76.171875,-124.0234375,0.0
60.41015625,-89.84375,-288.0859375,-145.01953125,-80.078125,-120.60546875,0.0
60.4140625,-97.16796875,-262.20703125,-132.8125,-85.9375,-28.80859375,0.0
60.41796875,-95.703125,-276.3671875,-140.625,-84.9609375,-35.15625,0.0
60.421875,-91.796875,-305.17578125,-158.203125,-87.40234375,-125.0,0.0
60.42578125,-97.16796875,-335.44921875,-159.66796875,-96.6796875,-158.203125,0.0
60.4296875,-87.40234375,-290.52734375,-128.41796875,-88.37890625,-119.140625,0.0
60.43359375,-74.70703125,-244.140625,-106.4453125,-74.21875,-128.90625,0.0
60.4375,-71.77734375,-245.1171875,-102.5390625,-78.125,-196.77734375,0.0
60.44140625,-68.359375,-221.19140625,-88.37890625,-78.125,-215.33203125,0.0
60.4453125,-61.03515625,-166.015625,-71.77734375,-68.84765625,-223.6328125,0.0
60.44921875,-45.41015625,-127.44140625,-61.03515625,-59.5703125,-188.96484375,0.0
60.453125,-26.85546875,-112.3046875,-37.109375,-44.921875,-194.82421875,0.0
60.45703125,-7.8125,-62.5,-4.8828125,-33.203125,-245.60546875,0.0
60.4609375,6.34765625,27.83203125,18.5546875,-18.5546875,-72.75390625,0.0
60.46484375,6.34765625,61.03515625,27.34375,-5.37109375,-51.26953125,0.0
60.46875,4.39453125,35.64453125,28.3203125,-3.90625,-202.1484375,0.0
60.47265625,4.8828125,30.76171875,20.5078125,-4.8828125,-132.32421875,0.0
60.4765625,11.23046875,52.734375,14.16015625,-1.46484375,-82.51953125,0.0
60.48046875,19.53125,62.01171875,19.53125,7.32421875,-140.13671875,0.0
60.484375,13.18359375,68.84765625,26.3671875,4.8828125,-131.34765625,0.0
60.48828125,0.0,42.96875,20.01953125,-5.37109375,-123.046875,0.0
60.4921875,2.44140625,31.73828125,10.7421875,-4.8828125,-93.75,0.0
60.49609375,8.30078125,67.87109375,12.6953125,-6.8359375,-8.30078125,0.0
60.5,-2.44140625,19.53125,-3.90625,-19.04296875,-31.25,0.0
60.50390625,-17.578125,-11.23046875,-27.83203125,-31.73828125,-65.91796875,0.0
60.5078125,-24.4140625,3.90625,-36.1328125,-29.296875,-4.39453125,0.0
60.51171875,-19.53125,-17.08984375,-12.6953125,-21.484375,-6.8359375,0.0
60.515625,-13.18359375,-1.953125,11.23046875,-19.53125,16.11328125,0.0
60.51953125,-26.85546875,-3.90625,-7.8125,-23.92578125,-58.10546875,0.0
60.5234375,-26.85546875,-23.4375,-17.08984375,-21.97265625,-139.6484375,0.0
60.52734375,-19.04296875,-13.18359375,-3.41796875,-15.625,-20.5078125,0.0
60.53125,-26.3671875,-14.6484375,-11.23046875,-11.71875,2.9296875,0.0
60.53515625,-20.01953125,-17.08984375,-19.04296875,-11.23046875,-42.96875,0.0
60.5390625,-15.625,13.671875,-10.25390625,-21.97265625,-75.1953125,0.0
60.54296875,-20.99609375,36.62109375,-14.6484375,-20.01953125,-109.86328125,0.0
60.546875,-18.06640625,-5.37109375,-31.25,-12.6953125,-151.3671875,0.0
60.55078125,-21.484375,-53.7109375,-30.2734375,-16.6015625,-132.32421875,0.0
60.5546875,-25.390625,-30.76171875,-19.53125,-25.87890625,-37.109375,0.0
60.55859375,-15.625,-6.8359375,-5.37109375,-17.578125,-101.07421875,0.0
60.5625,-14.6484375,-22.4609375,4.39453125,-12.20703125,-133.7890625,0.0
60.56640625,-24.90234375,-30.2734375,-7.32421875,-25.390625,-45.8984375,0.0
60.5703125,-26.85546875,-24.4140625,-12.6953125,-30.76171875,-64.453125,0.0
60.57421875,-19.04296875,-7.32421875,-5.859375,-27.83203125,-76.66015625,0.0
60.578125,-17.08984375,10.7421875,-1.46484375,-28.3203125,-20.01953125,0.0
60.58203125,-9.27734375,-2.9296875,-7.32421875,-31.25,3.90625,0.0
60.5859375,-11.71875,0.0,-12.20703125,-30.76171875,-51.7578125,0.0
60.58984375,-22.4609375,-14.16015625,-19.04296875,-32.2265625,-99.12109375,0.0
60.59375,-20.99609375,-53.7109375,-27.34375,-23.4375,-50.29296875,0.0
60.59765625,-14.16015625,-17.578125,-17.578125,-20.5078125,15.13671875,0.0
60.6015625,-18.5546875,22.94921875,-20.5078125,-24.90234375,-21.484375,0.0
60.60546875,-31.25,-31.73828125,-35.64453125,-30.76171875,-100.09765625,0.0
60.609375,-39.0625,-64.94140625,-24.90234375,-41.015625,-67.3828125,0.0
60.61328125,-25.87890625,-23.92578125,-19.53125,-32.2265625,-6.34765625,0.0
60.6171875,-11.71875,20.99609375,-17.578125,-19.04296875,-50.29296875,0.0
60.62109375,-12.6953125,29.78515625,-1.46484375,-15.625,-54.19921875,0.0
60.625,-16.6015625,7.32421875,-5.37109375,-16.11328125,-49.8046875,0.0
60.62890625,-10.7421875,-2.9296875,-4.8828125,-11.71875,-41.50390625,0.0
60.6328125,-2.44140625,42.48046875,8.30078125,-13.671875,9.27734375,0.0
60.63671875,2.9296875,70.3125,10.7421875,-7.32421875,-33.203125,0.0
60.640625,6.34765625,42.48046875,4.39453125,4.39453125,-67.87109375,0.0
60.64453125,-1.953125,16.11328125,-13.18359375,-6.34765625,-59.08203125,0.0
60.6484375,-5.859375,18.5546875,-6.34765625,-9.27734375,-98.14453125,0.0
60.65234375,1.46484375,62.98828125,23.92578125,-0.9765625,-53.22265625,0.0
60.65625,4.39453125,80.078125,33.203125,3.41796875,43.9453125,0.0
60.66015625,1.953125,52.24609375,19.53125,-0.9765625,9.27734375,0.0
60.6640625,-0.48828125,59.08203125,-0.9765625,-1.46484375,1.46484375,0.0
60.66796875,0.9765625,60.05859375,-1.46484375,8.7890625,-35.64453125,0.0
60.671875,10.7421875,58.59375,21.484375,20.5078125,-86.42578125,0.0
60.67578125,14.6484375,79.1015625,27.83203125,23.92578125,-112.3046875,0.0
60.6796875,9.27734375,125.48828125,28.80859375,11.71875,-61.03515625,0.0
60.68359375,-1.46484375,126.46484375,28.3203125,2.9296875,46.875,0.0
60.6875,-9.765625,44.43359375,15.13671875,1.46484375,57.6171875,0.0
60.69140625,-7.32421875,31.25,17.08984375,1.953125,75.68359375,0.0
60.6953125,-3.41796875,64.94140625,16.6015625,0.0,41.50390625,0.0
60.69921875,-12.20703125,32.71484375,1.953125,-4.8828125,44.43359375,0.0
60.703125,-26.85546875,-10.7421875,-29.296875,-18.06640625,84.47265625,0.0
60.70703125,-29.78515625,-27.34375,-41.015625,-20.99609375,78.61328125,0.0
60.7109375,-32.2265625,-27.83203125,-25.390625,-20.99609375,152.34375,0.0
60.71484375,-38.0859375,-58.59375,-33.203125,-39.55078125,135.25390625,0.0
60.71875,-46.38671875,-68.359375,-45.8984375,-48.33984375,67.3828125,0.0
60.72265625,-59.5703125,-73.73046875,-59.5703125,-50.29296875,70.80078125,0.0
60.7265625,-70.80078125,-60.546875,-73.2421875,-56.640625,83.49609375,0.0
60.73046875,-71.77734375,-44.43359375,-62.01171875,-60.05859375,68.359375,0.0
60.734375,-58.10546875,-62.98828125,-40.52734375,-55.17578125,31.73828125,0.0
60.73828125,-35.64453125,-47.36328125,-30.76171875,-50.78125,74.21875,0.0
60.7421875,-27.34375,-20.5078125,-27.34375,-48.828125,71.2890625,0.0
60.74609375,-33.203125,-46.38671875,-26.85546875,-41.015625,0.0,0.0
60.75,-30.76171875,-67.87109375,-27.34375,-26.3671875,-0.48828125,0.0
60.75390625,-6.8359375,-40.52734375,-14.6484375,0.0,3.90625,0.0
60.7578125,15.625,-9.765625,-8.7890625,16.6015625,-8.7890625,0.0
60.76171875,14.6484375,-9.27734375,-13.671875,23.92578125,-44.43359375,0.0
60.765625,6.8359375,-41.50390625,-19.53125,29.78515625,-82.51953125,0.0
60.76953125,11.23046875,-82.03125,-16.11328125,35.15625,-84.47265625,0.0
60.7734375,25.87890625,-42.48046875,6.34765625,51.26953125,-54.6875,0.0
60.77734375,29.296875,-13.18359375,17.08984375,60.546875,37.59765625,0.0
60.78125,36.1328125,-47.8515625,11.23046875,61.03515625,33.69140625,0.0
60.78515625,42.48046875,-38.0859375,14.6484375,64.453125,6.8359375,0.0
60.7890625,43.45703125,-26.3671875,16.11328125,70.80078125,14.6484375,0.0
60.79296875,44.921875,-41.015625,10.25390625,69.3359375,62.5,0.0
60.796875,44.921875,-19.04296875,9.765625,63.96484375,184.08203125,0.0
60.80078125,34.1796875,-19.04296875,1.46484375,58.10546875,163.57421875,0.0
60.8046875,27.34375,-31.25,-13.671875,60.546875,142.578125,0.0
60.80859375,31.73828125,-32.71484375,-13.671875,64.94140625,183.59375,0.0
60.8125,37.59765625,-33.203125,-3.41796875,63.96484375,105.95703125,0.0
60.81640625,33.69140625,-17.08984375,0.9765625,56.640625,31.73828125,0.0
60.8203125,18.5546875,17.08984375,-10.7421875,44.43359375,35.15625,0.0
60.82421875,5.859375,18.06640625,-17.578125,32.2265625,100.09765625,0.0
60.828125,-3.90625,-44.43359375,-26.3671875,22.94921875,77.63671875,0.0
60.83203125,-9.765625,-86.9140625,-24.90234375,20.01953125,22.94921875,0.0
60.8359375,-6.34765625,-67.3828125,-10.25390625,12.6953125,48.33984375,0.0
60.83984375,0.9765625,-63.4765625,-16.11328125,7.8125,26.85546875,0.0
60.84375,1.46484375,-84.47265625,-32.2265625,10.25390625,-16.11328125,0.0
60.84765625,-11.23046875,-116.69921875,-46.875,6.8359375,-24.90234375,0.0
60.8515625,-10.25390625,-111.81640625,-63.4765625,4.39453125,-47.8515625,0.0
60.85546875,-12.6953125,-94.7265625,-76.66015625,0.48828125,-25.87890625,0.0
60.859375,-32.2265625,-112.3046875,-76.66015625,-17.08984375,33.203125,0.0
60.86328125,-43.45703125,-160.15625,-88.37890625,-26.85546875,-46.875,0.0
60.8671875,-54.19921875,-171.38671875,-99.12109375,-39.0625,-116.69921875,0.0
60.87109375,-61.03515625,-166.9921875,-100.09765625,-49.31640625,-80.56640625,0.0
60.875,-54.6875,-188.4765625,-93.75,-45.41015625,-133.30078125,0.0
60.87890625,-54.6875,-203.125,-97.65625,-45.8984375,-271.484375,0.0
60.8828125,-58.10546875,-231.93359375,-117.1875,-49.31640625,-282.71484375,0.0
60.88671875,-67.3828125,-260.25390625,-116.69921875,-55.6640625,-200.68359375,0.0
60.890625,-67.87109375,-262.20703125,-108.3984375,-50.78125,-228.02734375,0.0
60.89453125,-55.17578125,-264.16015625,-106.93359375,-41.50390625,-274.4140625,0.0
60.8984375,-48.828125,-235.3515625,-103.515625,-43.9453125,-309.08203125,0.0
60.90234375,-44.921875,-212.890625,-102.05078125,-46.38671875,-241.2109375,0.0
60.90625,-49.8046875,-232.91015625,-109.86328125,-48.33984375,-204.1015625,0.0
60.91015625,-51.26953125,-250.0,-109.86328125,-44.921875,-198.73046875,0.0
60.9140625,-44.921875,-191.40625,-87.40234375,-44.43359375,-87.40234375,0.0
60.91796875,-41.50390625,-159.66796875,-78.125,-51.7578125,-72.75390625,0.0
60.921875,-54.6875,-227.5390625,-102.5390625,-64.453125,-147.94921875,0.0
60.92578125,-61.03515625,-259.765625,-113.28125,-64.453125,-123.046875,0.0
60.9296875,-53.7109375,-221.19140625,-86.42578125,-49.31640625,-171.38671875,0.0
60.93359375,-51.26953125,-206.54296875,-73.2421875,-45.41015625,-262.20703125,0.0
60.9375,-45.8984375,-203.125,-73.73046875,-48.33984375,-268.5546875,0.0
60.94140625,-35.15625,-172.8515625,-65.91796875,-43.9453125,-246.58203125,0.0
60.9453125,-28.3203125,-146.97265625,-65.91796875,-41.50390625,-305.6640625,0.0
60.94921875,-34.1796875,-124.0234375,-61.5234375,-47.36328125,-328.61328125,0.0
60.953125,-30.2734375,-90.33203125,-51.26953125,-41.9921875,-295.8984375,0.0
60.95703125,-7.8125,-48.828125,-41.9921875,-30.76171875,-250.48828125,0.0
60.9609375,-4.39453125,2.44140625,-35.64453125,-35.15625,-188.96484375,0.0
60.96484375,-20.01953125,-23.4375,-50.29296875,-44.921875,-209.9609375,0.0
60.96875,-25.87890625,-104.4921875,-52.24609375,-51.7578125,-284.66796875,0.0
60.97265625,-16.11328125,-86.9140625,-21.97265625,-41.9921875,-270.99609375,0.0
60.9765625,-10.7421875,-31.25,-10.25390625,-38.0859375,-210.9375,0.0
60.98046875,-20.99609375,-59.5703125,-25.87890625,-48.33984375,-197.75390625,0.0
60.984375,-28.80859375,-80.56640625,-40.52734375,-48.828125,-160.64453125,0.0
60.98828125,-34.1796875,-71.2890625,-49.8046875,-39.55078125,-149.4140625,0.0
60.9921875,-35.64453125,-83.49609375,-50.29296875,-45.8984375,-121.09375,0.0
60.99609375,-37.59765625,-80.078125,-45.8984375,-56.15234375,-89.35546875,0.0
61.0,-49.31640625,-84.9609375,-51.7578125,-60.546875,-78.125,0.0
61.00390625,-55.17578125,-122.0703125,-67.87109375,-67.87109375,-114.2578125,0.0
61.0078125,-56.15234375,-117.67578125,-71.77734375,-58.10546875,-167.48046875,0.0
61.01171875,-64.94140625,-98.6328125,-78.125,-58.59375,-190.4296875,0.0
61.015625,-61.5234375,-133.7890625,-85.44921875,-63.4765625,-157.71484375,0.0
61.01953125,-51.7578125,-151.85546875,-81.0546875,-56.15234375,-87.890625,0.0
61.0234375,-62.5,-149.90234375,-89.35546875,-58.59375,-104.98046875,0.0
61.02734375,-74.21875,-180.17578125,-97.65625,-69.3359375,-129.39453125,0.0
61.03125,-79.58984375,-208.984375,-96.19140625,-67.87109375,-151.85546875,0.0
61.03515625,-82.03125,-207.51953125,-96.6796875,-68.359375,-121.09375,0.0
61.0390625,-88.37890625,-200.1953125,-103.02734375,-80.56640625,-119.140625,0.0
61.04296875,-94.7265625,-229.98046875,-129.8828125,-83.984375,-187.98828125,0.0
61.046875,-100.5859375,-273.92578125,-144.53125,-83.49609375,-182.12890625,0.0
61.05078125,-100.09765625,-285.15625,-129.39453125,-80.56640625,-193.84765625,0.0
61.0546875,-98.14453125,-251.953125,-121.09375,-85.44921875,-224.609375,0.0
61.05859375,-117.1875,-253.41796875,-130.859375,-103.515625,-273.4375,0.0
61.0625,-125.9765625,-320.80078125,-145.99609375,-106.4453125,-287.59765625,0.0
61.06640625,-128.90625,-356.4453125,-151.85546875,-98.14453125,-338.8671875,0.0
61.0703125,-140.13671875,-365.234375,-156.25,-104.98046875,-362.3046875,0.0
61.07421875,-143.5546875,-387.6953125,-155.2734375,-110.3515625,-355.95703125,0.0
61.078125,-126.953125,-357.91015625,-142.08984375,-102.5390625,-392.578125,0.0
61.08203125,-114.74609375,-330.078125,-130.859375,-98.14453125,-359.375,0.0
61.0859375,-107.421875,-309.5703125,-119.140625,-93.26171875,-342.7734375,0.0
61.08984375,-83.0078125,-236.81640625,-85.9375,-78.125,-287.59765625,0.0
61.09375,-54.19921875,-143.5546875,-32.71484375,-53.7109375,-285.64453125,0.0
61.09765625,-26.85546875,-41.015625,18.06640625,-35.15625,-298.828125,0.0
61.1015625,-12.20703125,30.76171875,39.0625,-29.78515625,-346.6796875,0.0
61.10546875,-4.39453125,37.59765625,31.73828125,-17.08984375,-360.83984375,0.0
61.109375,1.953125,10.25390625,27.83203125,-1.953125,-237.3046875,0.0
61.11328125,2.44140625,-1.46484375,24.4140625,0.9765625,-226.5625,0.0
61.1171875,2.44140625,24.90234375,24.90234375,0.0,-332.03125,0.0
61.12109375,13.671875,66.89453125,44.921875,10.25390625,-298.33984375,0.0
61.125,21.484375,77.1484375,61.03515625,20.01953125,-234.375,0.0
61.12890625,18.5546875,49.31640625,59.08203125,21.484375,-226.5625,0.0
61.1328125,12.6953125,71.2890625,61.03515625,13.671875,-217.28515625,0.0
61.13671875,19.04296875,118.65234375,70.3125,9.27734375,-251.46484375,0.0
61.140625,24.90234375,125.0,70.80078125,10.7421875,-245.60546875,0.0
61.14453125,23.92578125,99.609375,55.6640625,8.7890625,-230.46875,0.0
61.1484375,30.76171875,122.0703125,61.03515625,12.6953125,-185.546875,0.0
61.15234375,31.73828125,142.08984375,71.2890625,12.6953125,-176.26953125,0.0
61.15625,36.1328125,138.671875,80.078125,21.97265625,-198.73046875,0.0
61.16015625,34.1796875,144.53125,85.9375,21.484375,-214.35546875,0.0
61.1640625,26.3671875,125.0,69.82421875,11.71875,-182.6171875,0.0
61.16796875,26.3671875,107.421875,62.98828125,20.5078125,-116.2109375,0.0
61.171875,30.2734375,129.39453125,77.63671875,27.83203125,-72.265625,0.0
61.17578125,22.4609375,150.390625,59.08203125,17.578125,-23.4375,0.0
61.1796875,16.6015625,179.19921875,44.43359375,8.7890625,-34.66796875,0.0
61.18359375,31.73828125,183.10546875,75.68359375,20.99609375,-16.6015625,0.0
61.1875,23.92578125,147.94921875,80.078125,23.4375,16.11328125,0.0
61.19140625,20.99609375,146.484375,87.40234375,23.92578125,21.484375,0.0
61.1953125,26.3671875,193.359375,97.16796875,25.390625,6.34765625,0.0
61.19921875,14.6484375,203.125,76.66015625,17.08984375,-7.8125,0.0
61.203125,12.6953125,149.90234375,49.8046875,17.08984375,11.23046875,0.0
61.20703125,-7.8125,106.93359375,31.25,4.39453125,20.5078125,0.0
61.2109375,-15.625,102.5390625,37.109375,4.39453125,58.10546875,0.0
61.21484375,4.39453125,111.328125,50.29296875,21.97265625,48.828125,0.0
61.21875,2.9296875,109.86328125,45.41015625,16.6015625,-4.8828125,0.0
61.22265625,1.46484375,83.49609375,34.1796875,6.34765625,-93.75,0.0
61.2265625,-0.48828125,69.3359375,25.390625,-0.9765625,-128.90625,0.0
61.23046875,-6.34765625,80.078125,31.25,4.39453125,-43.45703125,0.0
61.234375,-7.32421875,93.26171875,30.2734375,4.8828125,-30.76171875,0.0
61.23828125,-4.8828125,96.19140625,23.92578125,-9.765625,-47.36328125,0.0
61.2421875,-7.8125,115.72265625,20.99609375,-14.16015625,29.296875,0.0
61.24609375,-23.4375,104.00390625,6.8359375,-18.5546875,105.46875,0.0
61.25,-41.015625,19.53125,-7.8125,-32.71484375,-9.765625,0.0
61.25390625,-38.0859375,3.90625,10.7421875,-35.15625,-153.3203125,0.0
61.2578125,-20.01953125,75.68359375,38.0859375,-26.3671875,-26.85546875,0.0
61.26171875,-21.97265625,84.47265625,23.4375,-30.76171875,121.09375,0.0
61.265625,-36.1328125,63.4765625,-1.953125,-42.96875,115.72265625,0.0
61.26953125,-40.52734375,11.23046875,-14.6484375,-49.8046875,21.97265625,0.0
61.2734375,-36.62109375,20.01953125,-9.765625,-44.43359375,19.04296875,0.0
61.27734375,-29.78515625,59.5703125,-2.44140625,-39.0625,6.8359375,0.0
61.28125,-29.296875,51.26953125,-8.7890625,-40.0390625,17.578125,0.0
61.28515625,-28.80859375,25.390625,-28.80859375,-33.203125,28.80859375,0.0
61.2890625,-18.5546875,38.57421875,-21.97265625,-19.53125,-32.71484375,0.0
61.29296875,-24.4140625,58.59375,-12.6953125,-22.94921875,4.8828125,0.0
61.296875,-47.36328125,14.16015625,-23.4375,-42.96875,34.66796875,0.0
61.30078125,-52.734375,-9.27734375,-20.99609375,-41.50390625,43.45703125,0.0
61.3046875,-44.43359375,-3.41796875,-4.8828125,-26.85546875,32.71484375,0.0
61.30859375,-45.8984375,-14.6484375,-2.9296875,-21.484375,49.31640625,0.0
61.3125,-42.96875,-23.92578125,-14.6484375,-13.671875,63.96484375,0.0
61.31640625,-39.0625,-24.90234375,-12.20703125,-17.08984375,21.484375,0.0
61.3203125,-36.1328125,-3.90625,-11.71875,-21.484375,-37.59765625,0.0
61.32421875,-45.41015625,-33.203125,-32.71484375,-31.73828125,-15.625,0.0
61.328125,-60.546875,-88.37890625,-47.8515625,-40.0390625,-22.94921875,0.0
61.33203125,-48.33984375,-87.40234375,-45.41015625,-37.59765625,-83.984375,0.0
61.3359375,-42.96875,-40.0390625,-32.71484375,-45.41015625,-130.859375,0.0
61.33984375,-55.6640625,-8.7890625,-38.0859375,-59.5703125,-57.6171875,0.0
61.34375,-63.4765625,-65.91796875,-56.15234375,-67.87109375,-1.953125,0.0
61.34765625,-57.6171875,-92.28515625,-41.9921875,-54.6875,18.5546875,0.0
61.3515625,-50.78125,-63.96484375,-34.1796875,-42.96875,12.20703125,0.0
61.35546875,-51.26953125,-78.125,-39.55078125,-48.828125,-77.63671875,0.0
61.359375,-48.33984375,-67.3828125,-33.69140625,-53.7109375,-9.27734375,0.0
61.36328125,-39.0625,-56.15234375,-30.76171875,-49.8046875,65.4296875,0.0
61.3671875,-38.57421875,-57.12890625,-41.9921875,-48.33984375,51.7578125,0.0
61.37109375,-33.69140625,-63.4765625,-47.8515625,-40.0390625,-49.8046875,0.0
61.375,-31.25,-28.80859375,-29.78515625,-30.2734375,-89.35546875,0.0
61.37890625,-32.2265625,9.27734375,-27.83203125,-31.73828125,-36.1328125,0.0
61.3828125,-32.2265625,-9.27734375,-37.109375,-45.41015625,-70.3125,0.0
61.38671875,-48.33984375,-58.59375,-58.10546875,-65.91796875,-169.43359375,0.0
61.390625,-46.875,-95.703125,-60.05859375,-61.5234375,-113.76953125,0.0
61.39453125,-33.203125,-67.87109375,-32.2265625,-47.8515625,-46.38671875,0.0
61.3984375,-32.71484375,-26.3671875,-15.625,-49.8046875,-40.0390625,0.0
61.40234375,-32.71484375,-10.7421875,-16.6015625,-43.9453125,-43.45703125,0.0
61.40625,-41.9921875,-44.43359375,-26.85546875,-35.64453125,-10.7421875,0.0
61.41015625,-44.43359375,-62.5,-24.90234375,-28.80859375,21.484375,0.0
61.4140625,-43.45703125,-36.1328125,-15.625,-26.3671875,40.0390625,0.0
61.41796875,-43.45703125,-14.6484375,-5.37109375,-16.6015625,43.9453125,0.0
61.421875,-29.296875,-15.625,-14.16015625,-5.37109375,36.1328125,0.0
61.42578125,-26.85546875,-53.22265625,-38.0859375,-8.30078125,-36.1328125,0.0
61.4296875,-39.55078125,-44.43359375,-27.83203125,-11.71875,-102.05078125,0.0
61.43359375,-36.62109375,0.0,-0.48828125,-22.94921875,-73.73046875,0.0
61.4375,-31.25,-13.671875,-4.39453125,-26.3671875,-98.6328125,0.0
61.44140625,-35.15625,-14.16015625,-19.04296875,-25.87890625,-69.3359375,0.0
61.4453125,-48.828125,-43.45703125,-44.921875,-41.9921875,-44.921875,0.0
61.44921875,-57.12890625,-91.796875,-59.08203125,-49.8046875,-48.33984375,0.0
61.453125,-36.1328125,-55.6640625,-26.85546875,-30.76171875,-4.8828125,0.0
61.45703125,-21.484375,-3.90625,-7.8125,-16.6015625,25.390625,0.0
61.4609375,-26.3671875,3.41796875,-10.25390625,-26.3671875,-73.73046875,0.0
61.46484375,-29.78515625,-7.8125,-10.7421875,-23.92578125,-38.0859375,0.0
61.46875,-27.34375,-17.578125,-20.99609375,-23.92578125,47.36328125,0.0
61.47265625,-20.99609375,-33.203125,-18.06640625,-29.296875,5.37109375,0.0
61.4765625,-9.765625,19.04296875,-15.625,-20.5078125,-38.57421875,0.0
61.48046875,-8.30078125,41.015625,-19.53125,-21.484375,-63.96484375,0.0
61.484375,-13.671875,-6.34765625,-20.01953125,-21.484375,-26.85546875,0.0
61.48828125,-18.06640625,-23.4375,-30.2734375,-17.578125,-44.921875,0.0
61.4921875,-22.94921875,-47.36328125,-38.57421875,-22.4609375,-122.55859375,0.0
61.49609375,-9.27734375,-35.64453125,-24.4140625,-17.08984375,-103.02734375,0.0
61.5,-1.953125,2.44140625,-12.6953125,-12.20703125,13.18359375,0.0
61.50390625,-14.6484375,-16.6015625,-25.87890625,-20.01953125,26.85546875,0.0
61.5078125,-12.6953125,-28.3203125,-41.50390625,-23.4375,-1.953125,0.0
61.51171875,-8.30078125,-13.671875,-31.73828125,-20.01953125,10.7421875,0.0
61.515625,-9.27734375,1.46484375,-12.20703125,-19.53125,49.8046875,0.0
61.51953125,-13.671875,16.6015625,-11.71875,-22.94921875,69.82421875,0.0
61.5234375,-18.06640625,21.97265625,-15.625,-21.97265625,43.9453125,0.0
61.52734375,-30.2734375,0.48828125,-35.15625,-26.85546875,21.484375,0.0
61.53125,-34.66796875,-53.7109375,-51.7578125,-30.2734375,-79.1015625,0.0
61.53515625,-33.69140625,-42.96875,-38.0859375,-33.203125,-65.4296875,0.0
61.5390625,-41.50390625,-15.625,-33.69140625,-36.62109375,-36.62109375,0.0
61.54296875,-39.0625,-40.0390625,-51.26953125,-36.62109375,-127.9296875,0.0
61.546875,-40.52734375,-50.29296875,-56.15234375,-39.0625,-38.0859375,0.0
61.55078125,-43.9453125,-63.4765625,-47.36328125,-36.62109375,-8.7890625,0.0
61.5546875,-37.59765625,-49.31640625,-26.3671875,-37.59765625,-70.3125,0.0
61.55859375,-33.69140625,-17.578125,-2.44140625,-36.62109375,-11.23046875,0.0
61.5625,-31.25,-11.71875,-7.8125,-35.64453125,33.203125,0.0
61.56640625,-36.62109375,-39.0625,-23.92578125,-40.0390625,-54.19921875,0.0
61.5703125,-42.96875,-41.015625,-26.3671875,-44.43359375,-106.93359375,0.0
61.57421875,-36.62109375,-25.87890625,-29.296875,-49.8046875,-19.53125,0.0
61.578125,-26.3671875,-31.73828125,-41.50390625,-54.19921875,27.34375,0.0
61.58203125,-28.80859375,-46.875,-50.78125,-55.17578125,12.20703125,0.0
61.5859375,-33.69140625,-55.17578125,-48.828125,-53.7109375,53.22265625,0.0
61.58984375,-31.25,-61.5234375,-37.59765625,-47.36328125,114.74609375,0.0
61.59375,-26.85546875,-54.6875,-27.34375,-43.45703125,62.5,0.0
61.59765625,-22.94921875,-22.4609375,-20.01953125,-42.96875,4.39453125,0.0
61.6015625,-28.80859375,-15.13671875,-15.625,-42.48046875,65.4296875,0.0
61.60546875,-38.0859375,-54.6875,-36.62109375,-43.45703125,41.50390625,0.0
61.609375,-38.57421875,-76.66015625,-52.734375,-49.8046875,11.71875,0.0
61.61328125,-35.64453125,-74.21875,-44.921875,-49.8046875,26.85546875,0.0
61.6171875,-35.15625,-26.3671875,-21.97265625,-45.8984375,-44.921875,0.0
61.62109375,-36.62109375,3.90625,-12.20703125,-51.7578125,-48.33984375,0.0
61.625,-48.33984375,-65.91796875,-41.9921875,-58.10546875,-60.05859375,0.0
61.62890625,-53.22265625,-91.30859375,-50.29296875,-58.59375,-17.578125,0.0
61.6328125,-39.0625,-44.921875,-35.64453125,-46.875,24.90234375,0.0
61.63671875,-33.203125,-35.15625,-25.87890625,-37.59765625,-14.6484375,0.0
61.640625,-41.015625,-28.80859375,-19.04296875,-36.62109375,-18.5546875,0.0
61.64453125,-51.26953125,-41.50390625,-33.203125,-40.52734375,-7.8125,0.0
61.6484375,-49.31640625,-54.6875,-41.50390625,-41.015625,42.48046875,0.0
61.65234375,-43.9453125,-41.9921875,-30.2734375,-34.66796875,27.34375,0.0
61.65625,-38.57421875,-18.06640625,-24.4140625,-34.66796875,1.953125,0.0
61.66015625,-34.66796875,-34.1796875,-29.78515625,-34.66796875,-23.4375,0.0
61.6640625,-32.2265625,-18.06640625,-34.66796875,-28.3203125,-33.69140625,0.0
61.66796875,-36.1328125,-2.44140625,-40.0390625,-30.76171875,24.90234375,0.0
61.671875,-44.921875,-62.01171875,-47.8515625,-35.15625,-29.296875,0.0
61.67578125,-37.59765625,-77.1484375,-38.0859375,-32.2265625,-81.0546875,0.0
61.6796875,-35.64453125,-31.25,-19.53125,-26.85546875,-42.96875,0.0
61.68359375,-35.15625,-24.90234375,-30.2734375,-12.20703125,15.13671875,0.0
61.6875,-36.62109375,-47.36328125,-38.0859375,-10.25390625,-23.92578125,0.0
61.69140625,-41.9921875,-64.94140625,-35.64453125,-18.5546875,-97.16796875,0.0
61.6953125,-37.59765625,-44.921875,-25.390625,-23.4375,-67.3828125,0.0
61.69921875,-31.73828125,-1.46484375,-12.20703125,-23.92578125,-14.6484375,0.0
61.703125,-27.34375,-14.6484375,-19.04296875,-20.99609375,-47.8515625,0.0
61.70703125,-31.73828125,-49.8046875,-31.25,-12.20703125,-112.79296875,0.0
61.7109375,-34.66796875,-8.30078125,-32.2265625,1.953125,-123.046875,0.0
61.71484375,-32.71484375,7.32421875,-27.83203125,-2.9296875,-173.33984375,0.0
61.71875,-41.50390625,-46.875,-29.78515625,-18.06640625,-187.5,0.0
61.72265625,-41.015625,-38.57421875,-22.4609375,-15.625,-123.53515625,0.0
61.7265625,-39.55078125,-24.90234375,-27.83203125,-23.92578125,-53.22265625,0.0
61.73046875,-41.015625,-58.10546875,-36.62109375,-30.76171875,-110.3515625,0.0
61.734375,-37.109375,-54.6875,-20.99609375,-16.6015625,-144.53125,0.0
61.73828125,-28.3203125,-22.4609375,-18.06640625,-9.27734375,-65.4296875,0.0
61.7421875,-27.34375,-6.8359375,-23.92578125,-17.08984375,-50.29296875,0.0
61.74609375,-39.0625,-20.5078125,-21.97265625,-27.34375,-25.87890625,0.0
61.75,-38.57421875,-44.921875,-20.99609375,-24.4140625,-20.01953125,0.0
61.75390625,-33.69140625,-47.8515625,-20.01953125,-16.6015625,-21.484375,0.0
61.7578125,-41.9921875,4.39453125,-16.6015625,-21.484375,-42.48046875,0.0
61.76171875,-51.7578125,25.87890625,-27.34375,-29.78515625,15.625,0.0
61.765625,-51.26953125,-18.5546875,-48.828125,-29.78515625,79.58984375,0.0
61.76953125,-56.15234375,-61.5234375,-58.10546875,-37.109375,68.84765625,0.0
61.7734375,-65.4296875,-56.15234375,-47.36328125,-51.7578125,85.9375,0.0
61.77734375,-62.01171875,-19.53125,-25.390625,-49.31640625,105.46875,0.0
61.78125,-50.29296875,-23.4375,-17.578125,-42.96875,51.7578125,0.0
61.78515625,-48.33984375,-53.7109375,-32.71484375,-45.41015625,27.83203125,0.0
61.7890625,-56.15234375,-66.40625,-41.50390625,-44.43359375,33.69140625,0.0
61.79296875,-51.26953125,-52.734375,-39.0625,-38.0859375,43.45703125,0.0
61.796875,-33.69140625,-27.34375,-41.9921875,-27.83203125,13.18359375,0.0
61.80078125,-25.390625,-23.4375,-28.80859375,-16.6015625,-16.11328125,0.0
61.8046875,-32.2265625,-6.8359375,-24.90234375,-23.4375,43.9453125,0.0
61.80859375,-34.66796875,-9.27734375,-36.62109375,-26.3671875,51.7578125,0.0
61.8125,-26.3671875,-54.19921875,-31.73828125,-11.71875,-0.48828125,0.0
61.81640625,-8.7890625,-31.73828125,-15.13671875,0.48828125,-39.0625,0.0
61.8203125,-9.765625,9.765625,-21.484375,-8.30078125,-94.7265625,0.0
61.82421875,-19.53125,-28.3203125,-44.921875,-22.94921875,-45.41015625,0.0
61.828125,-20.01953125,-75.68359375,-49.31640625,-6.8359375,-38.57421875,0.0
61.83203125,-15.13671875,-76.171875,-41.50390625,6.34765625,-114.2578125,0.0
61.8359375,-6.8359375,-26.85546875,-19.04296875,7.32421875,-107.91015625,0.0
61.83984375,-8.7890625,0.48828125,-14.6484375,1.46484375,-90.33203125,0.0
61.84375,-4.39453125,-17.08984375,-24.90234375,1.953125,-98.6328125,0.0
61.84765625,-4.8828125,-36.62109375,-25.390625,-3.41796875,-87.40234375,0.0
61.8515625,-11.23046875,0.48828125,-25.390625,-12.6953125,-8.7890625,0.0
61.85546875,-5.37109375,19.04296875,-21.484375,-6.34765625,8.30078125,0.0
61.859375,3.41796875,-6.8359375,-26.3671875,-2.9296875,-23.92578125,0.0
61.86328125,-3.90625,-23.92578125,-49.8046875,-9.27734375,-72.75390625,0.0
61.8671875,-12.20703125,-32.71484375,-45.41015625,-16.11328125,-41.9921875,0.0
61.87109375,-2.44140625,-39.55078125,-18.06640625,-8.30078125,-24.90234375,0.0
61.875,0.0,-6.8359375,0.48828125,-5.37109375,-30.76171875,0.0
61.87890625,-13.671875,11.23046875,-2.44140625,-18.06640625,-16.11328125,0.0
61.8828125,-20.01953125,-5.859375,-15.13671875,-22.4609375,21.97265625,0.0
61.88671875,-20.01953125,-9.27734375,-30.2734375,-21.97265625,80.078125,0.0
61.890625,-19.04296875,-21.97265625,-31.25,-22.94921875,81.54296875,0.0
61.89453125,-13.18359375,-19.04296875,-14.16015625,-26.85546875,18.5546875,0.0
61.8984375,-14.16015625,22.94921875,-7.8125,-23.4375,-19.53125,0.0
61.90234375,-20.01953125,23.4375,-19.04296875,-21.97265625,-63.4765625,0.0
61.90625,-21.484375,-45.41015625,-31.25,-22.94921875,-119.62890625,0.0
61.91015625,-24.4140625,-58.10546875,-36.1328125,-26.3671875,-85.44921875,0.0
61.9140625,-26.3671875,-26.3671875,-29.296875,-33.69140625,-35.15625,0.0
61.91796875,-13.671875,-20.5078125,-16.11328125,-18.06640625,-17.08984375,0.0
61.921875,-11.71875,-21.97265625,-30.76171875,-2.44140625,-49.31640625,0.0
61.92578125,-23.92578125,-41.9921875,-50.78125,-10.25390625,-80.56640625,0.0
61.9296875,-20.01953125,-44.921875,-41.015625,-6.34765625,-140.13671875,0.0
61.93359375,-14.6484375,-8.7890625,-31.73828125,2.9296875,-75.1953125,0.0
61.9375,-20.01953125,-8.7890625,-32.2265625,1.953125,-34.66796875,0.0
61.94140625,-20.99609375,-33.203125,-25.390625,0.0,-111.81640625,0.0
61.9453125,-23.4375,-2.9296875,-19.53125,-4.8828125,-62.98828125,0.0
61.94921875,-34.66796875,-4.39453125,-30.76171875,-0.48828125,-59.5703125,0.0
61.953125,-34.1796875,-59.5703125,-43.45703125,-5.859375,-121.09375,0.0
61.95703125,-31.73828125,-70.80078125,-32.2265625,-19.53125,-102.5390625,0.0
61.9609375,-21.484375,-22.4609375,-14.16015625,-13.671875,-59.5703125,0.0
61.96484375,-9.765625,-12.20703125,-16.6015625,0.48828125,4.8828125,0.0
61.96875,-15.13671875,-36.1328125,-24.90234375,-3.41796875,10.7421875,0.0
61.97265625,-20.99609375,-42.48046875,-26.85546875,-10.7421875,-18.5546875,0.0
61.9765625,-20.5078125,-10.7421875,-19.53125,-19.04296875,46.38671875,0.0
61.98046875,-19.53125,4.39453125,-11.23046875,-23.92578125,34.66796875,0.0
61.984375,-28.3203125,-9.765625,-14.16015625,-28.3203125,-52.24609375,0.0
61.98828125,-24.4140625,-20.5078125,-20.99609375,-24.4140625,-51.7578125,0.0
61.9921875,-19.04296875,-13.671875,-17.578125,-16.11328125,-49.31640625,0.0
61.99609375,-23.4375,2.9296875,-17.08984375,-20.99609375,-87.40234375,0.0
62.0,-21.97265625,-22.94921875,-30.76171875,-20.5078125,-92.28515625,0.0
62.00390625,-32.2265625,-15.13671875,-29.78515625,-34.1796875,45.8984375,0.0
62.0078125,-33.69140625,-32.2265625,-33.69140625,-41.015625,72.265625,0.0
62.01171875,-20.01953125,-63.96484375,-35.64453125,-33.203125,-19.53125,0.0
62.015625,-18.5546875,-38.0859375,-23.92578125,-34.66796875,41.50390625,0.0
62.01953125,-17.578125,-20.99609375,-17.578125,-48.33984375,107.421875,0.0
62.0234375,-6.34765625,-16.11328125,-21.484375,-47.8515625,11.71875,0.0
62.02734375,-5.37109375,-20.99609375,-31.73828125,-38.57421875,52.734375,0.0
62.03125,-12.20703125,-35.64453125,-31.25,-34.1796875,48.828125,0.0
62.03515625,-13.18359375,-49.8046875,-22.4609375,-30.76171875,-114.74609375,0.0
62.0390625,-9.765625,5.859375,-10.25390625,-26.85546875,-119.62890625,0.0
62.04296875,-8.7890625,41.015625,-7.32421875,-27.83203125,-131.34765625,0.0
62.046875,-26.3671875,-37.109375,-36.1328125,-46.875,-173.828125,0.0
62.05078125,-30.2734375,-91.30859375,-53.7109375,-52.734375,-75.68359375,0.0
62.0546875,-15.13671875,-41.9921875,-30.2734375,-36.62109375,73.73046875,0.0
62.05859375,-14.16015625,-8.30078125,-21.484375,-40.0390625,30.2734375,0.0
62.0625,-25.87890625,-18.5546875,-36.62109375,-44.921875,32.2265625,0.0
62.06640625,-27.83203125,-35.15625,-43.45703125,-38.57421875,119.62890625,0.0
62.0703125,-31.25,-47.8515625,-39.55078125,-45.8984375,49.8046875,0.0
62.07421875,-34.1796875,-42.96875,-33.69140625,-43.9453125,-18.5546875,0.0
62.078125,-26.85546875,-22.94921875,-30.2734375,-39.55078125,10.7421875,0.0
62.08203125,-17.08984375,-33.203125,-30.2734375,-41.9921875,-31.25,0.0
62.0859375,-21.97265625,-29.78515625,-29.296875,-33.69140625,-56.15234375,0.0
62.08984375,-37.109375,-22.94921875,-33.69140625,-32.71484375,-16.6015625,0.0
62.09375,-31.25,-59.5703125,-37.109375,-40.52734375,6.8359375,0.0
62.09765625,-16.11328125,-47.8515625,-28.80859375,-35.15625,-15.625,0.0
62.1015625,-15.13671875,-7.8125,-22.94921875,-33.203125,-83.49609375,0.0
62.10546875,-30.2734375,-41.015625,-46.875,-44.43359375,-64.453125,0.0
62.109375,-40.52734375,-92.28515625,-62.98828125,-54.19921875,-41.9921875,0.0
62.11328125,-39.0625,-89.35546875,-48.828125,-57.12890625,-96.19140625,0.0
62.1171875,-38.0859375,-27.83203125,-24.90234375,-56.640625,-70.3125,0.0
62.12109375,-35.15625,3.90625,-20.01953125,-54.6875,-75.1953125,0.0
62.125,-38.57421875,-21.484375,-39.0625,-55.17578125,-59.5703125,0.0
62.12890625,-40.0390625,-53.7109375,-38.57421875,-51.7578125,-39.0625,0.0
62.1328125,-34.1796875,-21.97265625,-25.390625,-51.7578125,-30.2734375,0.0
62.13671875,-40.52734375,2.9296875,-18.5546875,-56.640625,-89.84375,0.0
62.140625,-48.828125,-53.22265625,-31.25,-62.98828125,-189.94140625,0.0
62.14453125,-42.48046875,-73.73046875,-39.55078125,-59.08203125,-207.51953125,0.0
62.1484375,-35.15625,-62.01171875,-36.62109375,-50.78125,-170.8984375,0.0
62.15234375,-28.3203125,-24.4140625,-24.90234375,-58.59375,-23.4375,0.0
62.15625,-20.01953125,12.20703125,-9.27734375,-45.8984375,66.89453125,0.0
62.16015625,-23.4375,-26.3671875,-26.3671875,-38.0859375,21.97265625,0.0
62.1640625,-24.90234375,-40.52734375,-32.2265625,-46.38671875,2.44140625,0.0
62.16796875,-27.34375,-45.41015625,-26.85546875,-46.38671875,-2.9296875,0.0
62.171875,-36.62109375,-75.68359375,-36.1328125,-52.734375,-23.92578125,0.0
62.17578125,-41.9921875,-64.94140625,-33.203125,-58.10546875,-19.04296875,0.0
62.1796875,-37.109375,-1.953125,-24.90234375,-60.05859375,-29.296875,0.0
62.18359375,-36.62109375,14.16015625,-22.4609375,-51.7578125,9.765625,0.0
62.1875,-48.33984375,-48.828125,-24.90234375,-48.33984375,44.43359375,0.0
62.19140625,-52.24609375,-61.03515625,-19.04296875,-47.8515625,-35.15625,0.0
62.1953125,-44.43359375,-31.73828125,-6.34765625,-37.109375,-88.8671875,0.0
62.19921875,-41.015625,-31.73828125,-5.859375,-35.64453125,-66.89453125,0.0
62.203125,-43.45703125,-36.62109375,-21.97265625,-36.1328125,-61.5234375,0.0
62.20703125,-56.640625,-41.015625,-35.15625,-44.921875,20.5078125,0.0
62.2109375,-56.15234375,-38.57421875,-40.0390625,-50.29296875,58.59375,0.0
62.21484375,-46.38671875,-40.52734375,-36.1328125,-39.0625,7.32421875,0.0
62.21875,-47.36328125,-26.85546875,-22.94921875,-44.43359375,-21.97265625,0.0
62.22265625,-43.9453125,-26.3671875,-18.5546875,-42.48046875,-75.68359375,0.0
62.2265625,-47.36328125,-24.4140625,-30.2734375,-40.52734375,-31.25,0.0
62.23046875,-51.26953125,-41.50390625,-32.2265625,-42.96875,41.015625,0.0
62.234375,-43.9453125,-75.1953125,-28.80859375,-37.109375,5.37109375,0.0
62.23828125,-34.66796875,-62.5,-21.97265625,-44.43359375,-7.8125,0.0
62.2421875,-34.66796875,-22.4609375,-19.04296875,-47.8515625,23.4375,0.0
62.24609375,-48.33984375,-42.96875,-36.62109375,-52.24609375,-53.7109375,0.0
62.25,-44.921875,-65.91796875,-34.66796875,-50.78125,-17.08984375,0.0
62.25390625,-37.109375,-50.29296875,-25.390625,-42.48046875,18.06640625,0.0
62.2578125,-26.3671875,-17.578125,-17.08984375,-37.59765625,7.32421875,0.0
62.26171875,-20.5078125,-7.8125,-18.06640625,-37.109375,-24.90234375,0.0
62.265625,-27.83203125,-21.484375,-39.0625,-37.59765625,-65.4296875,0.0
62.26953125,-31.73828125,-39.0625,-50.29296875,-34.1796875,28.3203125,0.0
62.2734375,-28.3203125,-15.13671875,-31.25,-30.76171875,72.75390625,0.0
62.27734375,-27.83203125,2.44140625,-17.08984375,-36.1328125,45.8984375,0.0
62.28125,-28.3203125,-32.2265625,-26.85546875,-29.296875,4.39453125,0.0
62.28515625,-32.71484375,-49.8046875,-37.109375,-28.3203125,-68.84765625,0.0
62.2890625,-37.109375,-50.78125,-34.66796875,-37.109375,-46.38671875,0.0
62.29296875,-33.203125,-57.12890625,-28.80859375,-27.83203125,15.13671875,0.0
62.296875,-30.76171875,-35.64453125,-30.2734375,-27.34375,-58.10546875,0.0
62.30078125,-23.4375,-20.99609375,-36.1328125,-30.2734375,-115.234375,0.0
62.3046875,-19.53125,-3.90625,-41.015625,-33.203125,16.11328125,0.0
62.30859375,-29.296875,-20.99609375,-43.45703125,-37.109375,31.73828125,0.0
62.3125,-33.69140625,-41.50390625,-28.80859375,-28.80859375,24.4140625,0.0
62.31640625,-30.2734375,-26.85546875,-15.13671875,-22.94921875,51.7578125,0.0
62.3203125,-29.78515625,-4.39453125,-12.6953125,-17.08984375,5.859375,0.0
62.32421875,-32.2265625,-2.9296875,-17.578125,-16.11328125,-6.8359375,0.0
62.328125,-34.66796875,-39.55078125,-19.53125,-17.578125,-12.6953125,0.0
62.33203125,-20.5078125,-81.54296875,-10.7421875,-11.23046875,-57.6171875,0.0
62.3359375,-14.6484375,-61.5234375,3.90625,-10.7421875,-9.27734375,0.0
62.33984375,-2.44140625,-20.5078125,13.671875,-5.37109375,43.45703125,0.0
62.34375,3.41796875,-23.4375,-0.48828125,-0.48828125,41.015625,0.0
62.34765625,-6.8359375,-48.828125,-17.578125,-3.41796875,-2.9296875,0.0
62.3515625,-10.25390625,-47.36328125,-23.4375,-4.8828125,-16.11328125,0.0
62.35546875,-17.578125,-21.484375,-11.71875,-8.7890625,54.6875,0.0
62.359375,-13.18359375,1.46484375,7.32421875,-8.7890625,99.12109375,0.0
62.36328125,-11.71875,-16.6015625,-5.37109375,-11.23046875,67.3828125,0.0
62.3671875,-22.4609375,-26.3671875,-18.5546875,-22.4609375,-0.9765625,0.0
62.37109375,-27.83203125,-13.671875,-18.06640625,-22.94921875,-64.453125,0.0
62.375,-32.71484375,-19.04296875,-23.4375,-30.76171875,-76.171875,0.0
62.37890625,-32.71484375,-9.27734375,-13.671875,-41.50390625,-75.68359375,0.0
62.3828125,-31.25,-32.2265625,-13.671875,-36.62109375,-62.5,0.0
62.38671875,-43.45703125,-65.91796875,-26.85546875,-33.203125,-7.8125,0.0
62.390625,-43.9453125,-72.265625,-34.1796875,-37.59765625,-34.66796875,0.0
62.39453125,-39.0625,-53.7109375,-27.34375,-40.52734375,-44.43359375,0.0
62.3984375,-37.109375,-3.41796875,-5.37109375,-28.3203125,-5.37109375,0.0
62.40234375,-33.203125,1.953125,-0.48828125,-27.34375,-25.87890625,0.0
62.40625,-38.57421875,-29.296875,-19.53125,-41.015625,-50.29296875,0.0
62.41015625,-43.9453125,-62.5,-34.66796875,-35.15625,-33.203125,0.0
62.4140625,-40.0390625,-33.203125,-24.90234375,-33.69140625,-12.6953125,0.0
62.41796875,-34.1796875,6.34765625,-8.30078125,-32.71484375,-40.52734375,0.0
62.421875,-36.1328125,-25.390625,-8.7890625,-38.0859375,-55.6640625,0.0
62.42578125,-50.78125,-60.546875,-27.83203125,-52.24609375,-34.1796875,0.0
62.4296875,-36.1328125,-45.8984375,-38.57421875,-42.96875,47.36328125,0.0
62.43359375,-8.7890625,-23.4375,-29.296875,-23.4375,34.1796875,0.0
62.4375,-10.25390625,-43.45703125,-24.4140625,-16.6015625,7.32421875,0.0
62.44140625,-13.671875,-50.29296875,-23.92578125,-22.94921875,-6.8359375,0.0
62.4453125,-28.3203125,-61.5234375,-32.71484375,-32.2265625,-100.5859375,0.0
62.44921875,-55.17578125,-91.796875,-40.0390625,-30.76171875,-218.26171875,0.0
62.453125,-44.43359375,-80.56640625,-24.90234375,-21.484375,-156.25,0.0
62.45703125,-23.92578125,-44.921875,-18.5546875,-20.5078125,7.32421875,0.0
62.4609375,-27.34375,8.30078125,-18.06640625,-21.484375,61.5234375,0.0
62.46484375,-22.4609375,4.8828125,-33.69140625,-26.85546875,61.5234375,0.0
62.46875,-42.48046875,-84.9609375,-65.91796875,-36.62109375,-4.39453125,0.0
62.47265625,-48.828125,-99.609375,-60.05859375,-48.33984375,-52.734375,0.0
62.4765625,-20.01953125,-49.8046875,-36.1328125,-47.36328125,-28.80859375,0.0
62.48046875,-21.484375,-45.8984375,-32.71484375,-31.73828125,-11.23046875,0.0
62.484375,-31.25,-73.73046875,-47.36328125,-30.76171875,-89.84375,0.0
62.48828125,-41.015625,-77.1484375,-51.7578125,-35.64453125,-67.87109375,0.0
62.4921875,-39.0625,-68.359375,-27.34375,-24.90234375,-12.6953125,0.0
62.49609375,-30.76171875,-54.6875,-12.6953125,-17.08984375,-45.41015625,0.0
62.5,-23.4375,-22.4609375,-12.20703125,-8.7890625,-4.39453125,0.0
62.50390625,-15.13671875,-37.59765625,-32.2265625,-8.30078125,-11.23046875,0.0
62.5078125,-6.8359375,-30.76171875,-41.015625,-7.8125,13.671875,0.0
62.51171875,-8.7890625,-26.3671875,-28.80859375,-10.25390625,22.4609375,0.0
62.515625,-7.8125,-66.89453125,-29.78515625,-15.13671875,1.46484375,0.0
62.51953125,-4.39453125,-54.19921875,-32.71484375,-4.39453125,42.48046875,0.0
62.5234375,-8.30078125,-32.2265625,-39.55078125,-10.25390625,-0.48828125,0.0
62.52734375,-18.06640625,-44.921875,-46.38671875,-12.20703125,-34.1796875,0.0
62.53125,-27.83203125,-62.01171875,-39.55078125,-12.6953125,-51.7578125,0.0
62.53515625,-26.3671875,-51.26953125,-17.08984375,-13.671875,-45.8984375,0.0
62.5390625,-17.578125,-12.20703125,-2.44140625,-12.20703125,15.625,0.0
62.54296875,-20.5078125,1.953125,-10.7421875,-23.4375,36.1328125,0.0
62.546875,-35.15625,-44.921875,-38.57421875,-35.15625,38.57421875,0.0
62.55078125,-37.59765625,-76.171875,-46.875,-34.66796875,64.94140625,0.0
62.5546875,-44.43359375,-20.01953125,-29.296875,-30.2734375,65.91796875,0.0
62.55859375,-37.59765625,10.7421875,-20.99609375,-30.2734375,23.4375,0.0
62.5625,-25.390625,-35.15625,-25.390625,-31.73828125,24.4140625,0.0
62.56640625,-38.57421875,-45.8984375,-41.9921875,-33.69140625,42.96875,0.0
62.5703125,-38.0859375,-30.2734375,-43.45703125,-32.71484375,50.78125,0.0
62.57421875,-46.38671875,-39.55078125,-26.85546875,-31.73828125,11.23046875,0.0
62.578125,-41.50390625,-24.90234375,-12.6953125,-36.62109375,-25.87890625,0.0
62.58203125,-31.73828125,-29.78515625,-22.94921875,-41.50390625,24.90234375,0.0
62.5859375,-41.015625,-57.6171875,-42.48046875,-38.0859375,31.25,0.0
62.58984375,-44.43359375,-63.96484375,-47.36328125,-30.76171875,41.50390625,0.0
62.59375,-38.0859375,-67.87109375,-39.55078125,-36.62109375,-1.46484375,0.0
62.59765625,-34.66796875,-49.8046875,-16.11328125,-36.62109375,-91.796875,0.0
62.6015625,-45.8984375,15.13671875,-3.90625,-31.25,-6.34765625,0.0
62.60546875,-52.24609375,0.9765625,-14.6484375,-37.109375,36.62109375,0.0
62.609375,-50.78125,-85.9375,-32.71484375,-33.203125,-67.87109375,0.0
62.61328125,-40.0390625,-102.5390625,-35.15625,-38.0859375,-119.62890625,0.0
62.6171875,-23.92578125,-35.64453125,-13.18359375,-42.48046875,-41.9921875,0.0
62.62109375,-17.08984375,4.39453125,-9.27734375,-28.80859375,63.96484375,0.0
62.625,-28.80859375,-21.484375,-28.3203125,-27.83203125,77.63671875,0.0
62.62890625,-32.71484375,-62.98828125,-37.59765625,-20.99609375,-3.90625,0.0
62.6328125,-23.92578125,-62.5,-23.4375,-13.18359375,-73.2421875,0.0
62.63671875,-27.34375,-39.0625,-13.671875,-23.92578125,-13.671875,0.0
62.640625,-31.25,-37.109375,-13.671875,-37.109375,0.0,0.0
62.64453125,-28.3203125,-57.6171875,-19.53125,-31.25,-87.890625,0.0
62.6484375,-31.73828125,-44.43359375,-28.3203125,-21.484375,-110.3515625,0.0
62.65234375,-28.80859375,-25.390625,-28.80859375,-23.4375,-62.98828125,0.0
62.65625,-21.97265625,-35.15625,-26.3671875,-19.53125,-66.40625,0.0
62.66015625,-17.08984375,-17.578125,-19.53125,-15.625,-52.734375,0.0
62.6640625,-21.97265625,-31.25,-29.296875,-28.3203125,-71.2890625,0.0
62.66796875,-37.109375,-76.66015625,-36.62109375,-29.296875,-116.69921875,0.0
62.671875,-43.9453125,-65.4296875,-33.203125,-25.390625,-12.20703125,0.0
62.67578125,-20.5078125,-40.52734375,-31.25,-28.80859375,28.3203125,0.0
62.6796875,-7.32421875,-3.41796875,-19.53125,-20.5078125,-5.37109375,0.0
62.68359375,-21.484375,4.39453125,-18.06640625,-29.78515625,-4.39453125,0.0
62.6875,-31.25,-30.2734375,-35.15625,-34.66796875,-82.51953125,0.0
62.69140625,-29.296875,-41.015625,-39.0625,-32.2265625,-46.875,0.0
62.6953125,-28.80859375,8.7890625,-18.5546875,-28.3203125,-109.86328125,0.0
62.69921875,-20.99609375,33.69140625,-17.08984375,-28.80859375,-242.1875,0.0
62.703125,-34.1796875,-13.18359375,-37.109375,-48.828125,-163.57421875,0.0
62.70703125,-59.5703125,-72.75390625,-44.921875,-57.12890625,-191.40625,0.0
62.7109375,-47.36328125,-39.55078125,-31.25,-48.828125,-122.55859375,0.0
62.71484375,-21.97265625,-5.37109375,-26.85546875,-50.78125,34.66796875,0.0
62.71875,-37.109375,-34.66796875,-30.2734375,-68.84765625,-5.37109375,0.0
62.72265625,-59.08203125,-49.31640625,-31.73828125,-80.56640625,-100.09765625,0.0
62.7265625,-43.45703125,-36.62109375,-28.3203125,-63.96484375,-32.71484375,0.0
62.73046875,-40.0390625,-45.41015625,-29.78515625,-43.9453125,-14.16015625,0.0
62.734375,-37.59765625,-43.45703125,-25.87890625,-39.55078125,-0.48828125,0.0
62.73828125,-38.0859375,-19.53125,-15.13671875,-42.96875,30.76171875,0.0
62.7421875,-48.33984375,6.8359375,-11.71875,-35.64453125,-40.52734375,0.0
62.74609375,-24.4140625,0.9765625,-21.484375,-31.25,0.9765625,0.0
62.75,-37.109375,-71.2890625,-41.9921875,-44.921875,31.25,0.0
62.75390625,-50.29296875,-73.2421875,-25.87890625,-48.828125,11.23046875,0.0
62.7578125,-40.0390625,-25.87890625,5.37109375,-40.52734375,3.41796875,0.0
62.76171875,-48.33984375,-38.0859375,-3.90625,-46.38671875,45.8984375,0.0
62.765625,-77.1484375,-52.734375,-20.99609375,-57.12890625,86.42578125,0.0
62.76953125,-68.359375,-59.5703125,-36.62109375,-37.59765625,69.3359375,0.0
62.7734375,29.78515625,-20.01953125,23.4375,30.76171875,23.4375,0.0
62.77734375,-11.71875,-5.859375,35.64453125,3.41796875,31.73828125,0.0
62.78125,-95.21484375,-49.8046875,-63.4765625,-72.75390625,43.45703125,0.0
62.78515625,-63.4765625,-80.56640625,-69.82421875,-62.98828125,-20.99609375,0.0
62.7890625,-72.265625,-44.921875,-20.01953125,-57.6171875,-15.625,0.0
62.79296875,-59.08203125,-18.06640625,3.90625,-47.36328125,-3.41796875,0.0
62.796875,-48.33984375,-64.453125,4.39453125,-40.52734375,48.33984375,0.0
62.80078125,-56.15234375,-64.94140625,14.16015625,-24.90234375,15.13671875,0.0
62.8046875,-106.93359375,-78.125,-11.23046875,-67.3828125,-14.6484375,0.0
62.80859375,-123.046875,-97.16796875,-37.59765625,-87.40234375,51.7578125,0.0
62.8125,-70.3125,-96.19140625,-30.76171875,-67.3828125,41.50390625,0.0
62.81640625,-62.01171875,-86.9140625,-27.34375,-62.01171875,39.55078125,0.0
62.8203125,-64.94140625,-43.9453125,-17.08984375,-47.36328125,31.25,0.0
62.82421875,-68.359375,-16.6015625,-4.8828125,-41.50390625,1.46484375,0.0
62.828125,-73.73046875,-39.0625,-0.9765625,-41.50390625,-39.0625,0.0
62.83203125,-78.125,-64.94140625,-11.71875,-66.40625,-21.484375,0.0
62.8359375,-83.49609375,25.87890625,11.23046875,-75.1953125,67.3828125,0.0
62.83984375,-97.16796875,93.26171875,40.52734375,-68.84765625,83.984375,0.0
62.84375,-80.078125,24.4140625,34.66796875,-72.265625,39.0625,0.0
62.84765625,-94.7265625,-0.48828125,-0.9765625,-76.171875,17.08984375,0.0
62.8515625,-114.74609375,35.15625,-24.4140625,-80.56640625,-21.97265625,0.0
62.85546875,-81.54296875,41.015625,7.8125,-75.1953125,-25.390625,0.0
62.859375,-88.8671875,62.98828125,22.94921875,-76.66015625,3.90625,0.0
62.86328125,-76.171875,125.9765625,31.73828125,-66.89453125,13.671875,0.0
62.8671875,-66.40625,125.9765625,36.1328125,-62.5,-24.90234375,0.0
62.87109375,-87.890625,14.6484375,23.92578125,-75.1953125,6.34765625,0.0
62.875,-75.68359375,-76.66015625,29.296875,-71.2890625,39.55078125,0.0
62.87890625,-70.3125,-118.65234375,30.76171875,-69.3359375,-14.6484375,0.0
62.8828125,-90.8203125,-140.625,25.390625,-70.80078125,-41.015625,0.0
62.88671875,-90.8203125,-207.51953125,8.30078125,-70.80078125,-88.8671875,0.0
62.890625,-70.3125,-304.19921875,-4.8828125,-67.3828125,-123.046875,0.0
62.89453125,-65.91796875,-310.05859375,4.39453125,-55.6640625,-122.0703125,0.0
62.8984375,-87.890625,-229.4921875,13.18359375,-62.98828125,-145.5078125,0.0
62.90234375,-71.77734375,-176.7578125,4.8828125,-76.66015625,-159.1796875,0.0
62.90625,-71.2890625,-185.546875,-5.37109375,-70.3125,-92.7734375,0.0
62.91015625,-92.7734375,-174.31640625,-3.41796875,-71.77734375,-69.3359375,0.0
62.9140625,-63.96484375,-133.7890625,10.25390625,-62.5,-77.1484375,0.0
62.91796875,-55.17578125,-52.24609375,29.296875,-38.0859375,-38.0859375,0.0
62.921875,-65.91796875,2.9296875,25.390625,-40.0390625,-14.16015625,0.0
62.92578125,-72.75390625,15.625,-1.953125,-65.91796875,-8.7890625,0.0
62.9296875,-82.51953125,76.66015625,-19.53125,-73.73046875,8.30078125,0.0
62.93359375,-64.94140625,135.25390625,-17.08984375,-57.6171875,-30.76171875,0.0
62.9375,-31.73828125,188.4765625,-3.41796875,-36.62109375,-39.55078125,0.0
62.94140625,-26.85546875,239.74609375,-0.9765625,-23.92578125,17.578125,0.0
62.9453125,-20.01953125,238.76953125,-6.8359375,-33.69140625,56.15234375,0.0
62.94921875,-0.48828125,223.6328125,-3.41796875,-26.85546875,125.48828125,0.0
62.953125,5.37109375,249.0234375,-6.34765625,-13.671875,117.67578125,0.0
62.95703125,7.8125,284.1796875,-13.671875,-14.16015625,-10.25390625,0.0
62.9609375,6.34765625,363.28125,-15.13671875,-13.671875,22.94921875,0.0
62.96484375,2.44140625,398.92578125,-17.08984375,-15.625,37.59765625,0.0
62.96875,-12.6953125,316.89453125,-33.69140625,-27.34375,-77.63671875,0.0
62.97265625,-13.18359375,302.24609375,-46.38671875,-23.4375,-93.75,0.0
62.9765625,27.83203125,413.57421875,-25.87890625,-4.8828125,-104.00390625,0.0
62.98046875,38.57421875,466.30859375,-15.13671875,8.7890625,-83.984375,0.0
62.984375,29.78515625,398.92578125,-40.0390625,-6.34765625,-21.97265625,0.0
62.98828125,33.69140625,338.8671875,-60.05859375,-13.18359375,-19.53125,0.0
62.9921875,27.34375,342.7734375,-58.10546875,-2.9296875,-58.59375,0.0
62.99609375,5.37109375,366.2109375,-37.109375,3.90625,-103.02734375,0.0
63.0,28.80859375,408.203125,-16.11328125,13.671875,-146.97265625,0.0
63.00390625,45.41015625,392.578125,-33.203125,2.44140625,-174.31640625,0.0
63.0078125,29.78515625,346.19140625,-56.640625,-3.90625,-189.94140625,0.0
63.01171875,39.0625,342.28515625,-46.38671875,10.7421875,-157.2265625,0.0
63.015625,43.9453125,365.234375,-19.53125,23.92578125,-105.95703125,0.0
63.01953125,20.01953125,373.53515625,-18.06640625,16.6015625,-92.7734375,0.0
63.0234375,12.20703125,392.08984375,-29.296875,1.46484375,-96.6796875,0.0
63.02734375,17.08984375,328.125,-45.41015625,-5.859375,-85.9375,0.0
63.03125,10.25390625,219.7265625,-54.19921875,-8.30078125,-56.640625,0.0
63.03515625,17.578125,269.04296875,-41.9921875,-5.37109375,-13.18359375,0.0
63.0390625,18.06640625,320.3125,-22.94921875,-3.90625,8.30078125,0.0
63.04296875,16.11328125,279.78515625,-19.04296875,-4.8828125,-62.5,0.0
63.046875,7.32421875,236.81640625,-20.01953125,-8.30078125,-81.0546875,0.0
63.05078125,3.41796875,201.171875,-24.4140625,-6.8359375,-24.90234375,0.0
63.0546875,-0.48828125,224.12109375,-28.80859375,-10.25390625,-22.94921875,0.0
63.05859375,-4.39453125,247.0703125,-18.5546875,-13.18359375,4.8828125,0.0
63.0625,0.48828125,241.2109375,-10.7421875,-13.671875,-7.8125,0.0
63.06640625,6.34765625,215.8203125,-22.4609375,-13.18359375,6.8359375,0.0
63.0703125,-3.41796875,219.7265625,-21.97265625,-5.37109375,16.11328125,0.0
63.07421875,-3.41796875,211.42578125,-13.671875,-8.30078125,0.0,0.0
63.078125,4.39453125,180.6640625,-17.08984375,-13.18359375,31.73828125,0.0
63.08203125,-7.32421875,164.0625,-12.20703125,-2.9296875,-30.2734375,0.0
63.0859375,-9.765625,129.8828125,-15.625,0.9765625,-44.921875,0.0
63.08984375,4.39453125,96.6796875,-24.90234375,-4.39453125,-21.97265625,0.0
63.09375,0.9765625,92.7734375,-23.92578125,-9.27734375,24.90234375,0.0
63.09765625,10.25390625,106.93359375,-11.71875,-14.6484375,76.66015625,0.0
63.1015625,18.5546875,133.30078125,-9.765625,-5.37109375,36.62109375,0.0
63.10546875,-1.953125,83.0078125,-30.2734375,-8.7890625,-28.80859375,0.0
63.109375,-2.9296875,22.94921875,-30.76171875,-11.71875,-43.9453125,0.0
63.11328125,-17.578125,11.23046875,-24.90234375,-7.8125,-14.6484375,0.0
63.1171875,-19.53125,55.6640625,-20.01953125,-10.7421875,-46.38671875,0.0
63.12109375,-9.27734375,98.14453125,-16.11328125,-5.859375,-61.03515625,0.0
63.125,-36.62109375,25.87890625,-31.25,-12.6953125,-45.41015625,0.0
63.12890625,-24.4140625,-32.2265625,-43.45703125,-18.06640625,-60.05859375,0.0
63.1328125,-12.20703125,-14.6484375,-41.015625,-15.13671875,-20.01953125,0.0
63.13671875,-22.94921875,-18.5546875,-29.296875,-21.484375,-7.32421875,0.0
63.140625,-18.06640625,13.18359375,-18.06640625,-28.80859375,-31.25,0.0
63.14453125,-8.7890625,15.13671875,-23.92578125,-31.25,-32.71484375,0.0
63.1484375,-28.3203125,-20.5078125,-42.48046875,-38.0859375,23.4375,0.0
63.15234375,-40.0390625,-30.2734375,-45.41015625,-41.9921875,-1.46484375,0.0
63.15625,-14.6484375,-11.23046875,-34.66796875,-30.2734375,-33.203125,0.0
63.16015625,-8.30078125,-7.8125,-35.15625,-25.87890625,24.4140625,0.0
63.1640625,-7.8125,20.5078125,-37.109375,-22.4609375,20.5078125,0.0
63.16796875,-9.765625,6.8359375,-45.41015625,-19.04296875,-38.57421875,0.0
63.171875,-39.55078125,-94.7265625,-56.640625,-24.90234375,-110.3515625,0.0
63.17578125,-20.99609375,-101.5625,-49.31640625,-26.3671875,-46.38671875,0.0
63.1796875,16.11328125,-18.5546875,-39.0625,-23.92578125,20.5078125,0.0
63.18359375,0.48828125,-8.30078125,-41.9921875,-11.71875,-9.765625,0.0
63.1875,4.39453125,-59.08203125,-53.7109375,-11.23046875,74.21875,0.0
63.19140625,4.39453125,-88.37890625,-56.640625,-15.13671875,140.13671875,0.0
63.1953125,0.0,-84.9609375,-38.0859375,-1.46484375,67.3828125,0.0
63.19921875,8.7890625,-54.6875,-22.94921875,0.0,9.765625,0.0
63.203125,-3.41796875,-66.89453125,-25.87890625,-8.30078125,-84.47265625,0.0
63.20703125,-11.71875,-114.2578125,-39.0625,-11.23046875,-76.66015625,0.0
63.2109375,-14.16015625,-91.796875,-42.96875,-13.18359375,-15.13671875,0.0
63.21484375,-22.94921875,-51.7578125,-35.64453125,-15.625,-48.33984375,0.0
63.21875,-34.66796875,-66.89453125,-32.2265625,-13.18359375,-22.4609375,0.0
63.22265625,-31.73828125,-96.19140625,-36.1328125,-21.484375,34.1796875,0.0
63.2265625,-33.69140625,-112.79296875,-47.36328125,-24.4140625,0.9765625,0.0
63.23046875,-33.69140625,-145.01953125,-46.875,-12.6953125,-2.44140625,0.0
63.234375,-24.90234375,-134.765625,-35.64453125,-8.30078125,57.6171875,0.0
63.23828125,-22.4609375,-96.6796875,-27.34375,-9.765625,76.171875,0.0
63.2421875,-36.1328125,-73.2421875,-26.85546875,-20.99609375,16.6015625,0.0
63.24609375,-52.734375,-111.81640625,-40.52734375,-17.578125,-105.95703125,0.0
63.25,-31.25,-154.78515625,-42.96875,3.41796875,-173.828125,0.0
63.25390625,-21.97265625,-156.73828125,-38.0859375,2.9296875,-156.25,0.0
63.2578125,-20.01953125,-73.73046875,-20.99609375,-3.90625,-170.41015625,0.0
63.26171875,-15.13671875,-25.87890625,-13.671875,-4.8828125,-135.7421875,0.0
63.265625,-26.85546875,-67.87109375,-33.203125,-4.8828125,-8.7890625,0.0
63.26953125,-26.3671875,-130.859375,-45.8984375,-6.34765625,-12.6953125,0.0
63.2734375,-29.296875,-202.63671875,-48.828125,-10.25390625,-154.296875,0.0
63.27734375,-25.87890625,-175.78125,-38.57421875,-12.6953125,-196.2890625,0.0
63.28125,-25.87890625,-150.390625,-34.1796875,-26.85546875,-171.875,0.0
63.28515625,-38.0859375,-176.26953125,-39.0625,-28.80859375,-196.77734375,0.0
63.2890625,-33.203125,-188.4765625,-38.57421875,-25.390625,-108.88671875,0.0
63.29296875,-30.76171875,-178.22265625,-30.2734375,-21.97265625,-0.48828125,0.0
63.296875,-29.78515625,-141.11328125,-18.06640625,-15.13671875,43.45703125,0.0
63.30078125,-39.0625,-131.34765625,-20.99609375,-18.5546875,69.3359375,0.0
63.3046875,-36.62109375,-90.8203125,-25.87890625,-28.80859375,43.9453125,0.0
63.30859375,-2.44140625,-121.09375,-29.78515625,-36.62109375,-133.30078125,0.0
63.3125,5.859375,-217.7734375,-26.3671875,-20.01953125,-169.43359375,0.0
63.31640625,4.8828125,-182.6171875,-6.8359375,-8.7890625,-144.04296875,0.0
63.3203125,-11.23046875,-92.28515625,11.71875,-15.625,-155.2734375,0.0
63.32421875,-12.20703125,-97.16796875,5.859375,-28.3203125,-65.91796875,0.0
63.328125,-10.7421875,-153.3203125,-28.3203125,-41.9921875,44.921875,0.0
63.33203125,-21.484375,-165.0390625,-43.9453125,-37.109375,105.46875,0.0
63.3359375,-1.46484375,-116.2109375,-20.99609375,-25.390625,114.74609375,0.0
63.33984375,18.5546875,-67.3828125,3.41796875,-17.08984375,166.015625,0.0
63.34375,7.32421875,-85.9375,2.44140625,-14.16015625,50.78125,0.0
63.34765625,0.9765625,-131.34765625,-17.578125,-24.4140625,-56.15234375,0.0
63.3515625,-10.7421875,-110.3515625,-24.4140625,-26.3671875,-22.4609375,0.0
63.35546875,-10.7421875,-80.078125,-21.97265625,-24.90234375,-7.8125,0.0
63.359375,3.90625,-95.703125,-16.6015625,-30.76171875,61.03515625,0.0
63.36328125,-5.859375,-97.65625,-11.23046875,-25.87890625,85.44921875,0.0
63.3671875,-4.39453125,-112.3046875,-29.296875,-21.97265625,5.859375,0.0
63.37109375,-3.41796875,-133.7890625,-35.15625,-28.3203125,-59.5703125,0.0
63.375,-6.34765625,-131.8359375,-24.90234375,-27.83203125,-113.28125,0.0
63.37890625,2.9296875,-87.890625,-11.23046875,-31.25,-94.7265625,0.0
63.3828125,-6.34765625,-78.125,-3.41796875,-41.50390625,-87.890625,0.0
63.38671875,-21.97265625,-113.76953125,-12.20703125,-50.29296875,-54.6875,0.0
63.390625,-29.296875,-126.46484375,-17.08984375,-50.78125,-37.59765625,0.0
63.39453125,-26.85546875,-112.79296875,-13.671875,-46.38671875,-23.4375,0.0
63.3984375,-17.08984375,-35.64453125,-6.34765625,-41.9921875,59.5703125,0.0
63.40234375,-16.6015625,-21.484375,-0.9765625,-39.0625,17.08984375,0.0
63.40625,-16.11328125,-102.5390625,-19.53125,-35.15625,5.37109375,0.0
63.41015625,-12.6953125,-107.421875,-36.1328125,-30.76171875,26.3671875,0.0
63.4140625,-21.97265625,-98.6328125,-24.90234375,-34.1796875,-39.0625,0.0
63.41796875,-9.765625,-125.48828125,-7.32421875,-25.87890625,-37.109375,0.0
63.421875,-13.671875,-94.7265625,-2.44140625,-23.4375,-23.4375,0.0
63.42578125,-22.4609375,-122.55859375,-14.16015625,-35.15625,-66.40625,0.0
63.4296875,-24.90234375,-137.6953125,-19.53125,-38.0859375,-37.109375,0.0
63.43359375,-28.80859375,-89.84375,-15.13671875,-35.15625,20.01953125,0.0
63.4375,-38.57421875,-80.078125,-6.8359375,-39.0625,-4.8828125,0.0
63.44140625,-48.33984375,-108.88671875,0.48828125,-47.36328125,-58.59375,0.0
63.4453125,-47.8515625,-73.73046875,-3.41796875,-46.38671875,-7.8125,0.0
63.44921875,-57.6171875,-75.68359375,-15.625,-48.33984375,19.04296875,0.0
63.453125,-56.15234375,-122.0703125,-28.3203125,-45.41015625,62.5,0.0
63.45703125,-41.50390625,-106.4453125,-25.87890625,-38.57421875,54.19921875,0.0
63.4609375,-38.0859375,-72.75390625,-17.08984375,-40.52734375,-7.8125,0.0
63.46484375,-33.69140625,-83.0078125,-20.01953125,-39.0625,-27.34375,0.0
63.46875,-27.83203125,-106.4453125,-25.87890625,-38.0859375,-23.4375,0.0
63.47265625,-34.66796875,-134.27734375,-27.83203125,-40.0390625,-94.23828125,0.0
63.4765625,-19.04296875,-107.91015625,-7.32421875,-36.62109375,-124.51171875,0.0
63.48046875,-21.484375,-58.10546875,9.765625,-37.109375,-120.1171875,0.0
63.484375,-39.55078125,-94.7265625,-6.8359375,-45.8984375,-221.19140625,0.0
63.48828125,-30.76171875,-117.67578125,-19.53125,-46.875,-138.18359375,0.0
63.4921875,-28.80859375,-57.12890625,-11.71875,-39.55078125,5.859375,0.0
63.49609375,-26.3671875,-43.45703125,-8.7890625,-37.109375,-23.4375,0.0
63.5,-21.97265625,-79.1015625,-13.18359375,-30.2734375,7.8125,0.0
63.50390625,-17.08984375,-57.12890625,-17.578125,-31.25,58.10546875,0.0
63.5078125,-22.94921875,-59.08203125,-38.0859375,-38.0859375,15.13671875,0.0
63.51171875,-26.85546875,-138.18359375,-42.96875,-40.0390625,-57.12890625,0.0
63.515625,-38.0859375,-123.046875,-20.01953125,-41.9921875,-19.53125,0.0
63.51953125,-36.1328125,-75.68359375,-10.7421875,-39.0625,-14.6484375,0.0
63.5234375,-20.5078125,-62.98828125,-9.27734375,-30.76171875,-74.21875,0.0
63.52734375,-33.203125,-67.3828125,-12.6953125,-40.0390625,-11.71875,0.0
63.53125,-48.33984375,-75.68359375,-23.92578125,-46.38671875,111.328125,0.0
63.53515625,-38.57421875,-69.3359375,-24.4140625,-32.2265625,46.38671875,0.0
63.5390625,-9.765625,-24.90234375,-10.25390625,-29.296875,-95.21484375,0.0
63.54296875,-9.27734375,24.4140625,-12.20703125,-33.203125,20.5078125,0.0
63.546875,-15.13671875,-24.90234375,-27.34375,-26.3671875,7.8125,0.0
63.55078125,-14.6484375,-121.58203125,-35.64453125,-25.390625,-128.90625,0.0
63.5546875,-21.97265625,-111.328125,-36.62109375,-26.85546875,-102.05078125,0.0
63.55859375,-14.16015625,-52.734375,-26.85546875,-30.76171875,-89.35546875,0.0
63.5625,-1.953125,-21.97265625,-7.8125,-24.4140625,-99.609375,0.0
63.56640625,-21.97265625,-40.52734375,-7.32421875,-13.671875,-67.3828125,0.0
63.5703125,-40.0390625,-82.03125,-23.4375,-34.66796875,-27.83203125,0.0
63.57421875,-26.85546875,-83.49609375,-8.7890625,-25.87890625,-95.21484375,0.0
63.578125,-27.34375,-46.38671875,24.90234375,-13.671875,-34.66796875,0.0
63.58203125,-23.92578125,-40.52734375,29.296875,-20.5078125,20.99609375,0.0
63.5859375,-22.94921875,-30.2734375,21.97265625,-8.7890625,-102.05078125,0.0
63.58984375,-13.18359375,-0.48828125,30.76171875,6.34765625,-154.296875,0.0
63.59375,-14.16015625,-90.33203125,26.85546875,-6.34765625,-74.70703125,0.0
63.59765625,-25.87890625,-132.32421875,14.6484375,-18.5546875,-24.4140625,0.0
63.6015625,-22.94921875,-61.03515625,12.6953125,-14.16015625,-97.16796875,0.0
63.60546875,-23.4375,-54.6875,8.30078125,-13.18359375,-97.16796875,0.0
63.609375,-35.64453125,-83.984375,-1.46484375,-11.23046875,-28.80859375,0.0
63.61328125,-30.76171875,-72.265625,4.39453125,-13.671875,2.9296875,0.0
63.6171875,-3.41796875,4.39453125,20.01953125,-14.16015625,58.10546875,0.0
63.62109375,-2.44140625,58.59375,22.94921875,-13.18359375,103.02734375,0.0
63.625,-29.296875,41.50390625,9.27734375,-18.06640625,68.84765625,0.0
63.62890625,-35.64453125,17.08984375,3.41796875,-19.53125,-34.66796875,0.0
63.6328125,-17.578125,86.42578125,12.6953125,-15.625,-66.89453125,0.0
63.63671875,-20.01953125,190.91796875,31.25,1.953125,-115.234375,0.0
63.640625,-9.765625,258.7890625,51.7578125,15.13671875,-34.1796875,0.0
63.64453125,-15.13671875,269.53125,45.8984375,-1.953125,62.5,0.0
63.6484375,-14.16015625,285.64453125,55.6640625,-6.8359375,-9.765625,0.0
63.65234375,-13.18359375,292.48046875,77.63671875,-4.8828125,-4.8828125,0.0
63.65625,-23.4375,327.1484375,81.0546875,-14.16015625,25.390625,0.0
63.66015625,-10.7421875,398.4375,85.44921875,-15.625,28.80859375,0.0
63.6640625,-10.7421875,432.6171875,102.05078125,-22.4609375,11.71875,0.0
63.66796875,-27.83203125,422.8515625,95.21484375,-41.9921875,-16.11328125,0.0
63.671875,-32.71484375,407.2265625,99.12109375,-29.78515625,-17.08984375,0.0
63.67578125,-31.25,463.37890625,131.34765625,-24.90234375,38.0859375,0.0
63.6796875,-22.4609375,605.95703125,161.1328125,-25.87890625,56.15234375,0.0
63.68359375,-21.97265625,681.640625,170.41015625,-20.99609375,21.484375,0.0
63.6875,-50.29296875,604.98046875,149.90234375,-30.76171875,26.3671875,0.0
63.69140625,-49.31640625,628.90625,149.4140625,-44.43359375,8.7890625,0.0
63.6953125,-28.3203125,737.3046875,196.2890625,-30.76171875,-27.83203125,0.0
63.69921875,-28.80859375,797.8515625,226.07421875,-11.71875,-70.3125,0.0
63.703125,-38.57421875,830.56640625,222.65625,-36.1328125,-81.0546875,0.0
63.70703125,-50.78125,839.35546875,224.12109375,-51.26953125,-8.7890625,0.0
63.7109375,-51.7578125,925.78125,234.375,-38.0859375,-32.2265625,0.0
63.71484375,-54.6875,971.19140625,250.0,-41.9921875,-43.45703125,0.0
63.71875,-60.05859375,963.8671875,266.11328125,-55.17578125,-22.4609375,0.0
63.72265625,-51.7578125,968.26171875,265.13671875,-52.24609375,-32.2265625,0.0
63.7265625,-51.7578125,967.7734375,239.74609375,-43.45703125,-59.08203125,0.0
63.73046875,-61.5234375,968.26171875,239.74609375,-42.96875,-45.41015625,0.0
63.734375,-59.08203125,968.26171875,253.90625,-54.19921875,46.875,0.0
63.73828125,-45.41015625,968.26171875,289.55078125,-55.17578125,53.22265625,0.0
63.7421875,-45.41015625,966.796875,327.1484375,-46.875,-25.390625,0.0
63.74609375,-45.41015625,971.19140625,315.4296875,-48.828125,-65.4296875,0.0
63.75,-48.828125,957.51953125,296.38671875,-53.22265625,-89.35546875,0.0
63.75390625,-53.22265625,949.70703125,295.41015625,-56.640625,-85.9375,0.0
63.7578125,-58.59375,966.796875,293.9453125,-58.10546875,-88.8671875,0.0
63.76171875,-57.12890625,969.23828125,291.015625,-49.31640625,-95.21484375,0.0
63.765625,-50.29296875,959.9609375,289.55078125,-44.43359375,-20.5078125,0.0
63.76953125,-50.29296875,901.3671875,277.83203125,-54.6875,-28.80859375,0.0
63.7734375,-49.8046875,845.21484375,270.01953125,-58.10546875,-111.328125,0.0
63.77734375,-46.875,790.0390625,264.6484375,-50.78125,-84.47265625,0.0
63.78125,-36.62109375,712.890625,249.51171875,-41.015625,-13.671875,0.0
63.78515625,-29.296875,715.33203125,240.234375,-31.73828125,17.578125,0.0
63.7890625,-29.78515625,661.62109375,228.515625,-35.15625,-16.11328125,0.0
63.79296875,-32.2265625,509.765625,214.35546875,-45.8984375,-36.1328125,0.0
63.796875,-32.2265625,483.3984375,213.8671875,-46.875,11.71875,0.0
63.80078125,-32.71484375,514.16015625,208.984375,-40.0390625,83.0078125,0.0
63.8046875,-40.0390625,449.21875,192.87109375,-40.52734375,75.68359375,0.0
63.80859375,-45.41015625,354.00390625,178.22265625,-32.71484375,42.48046875,0.0
63.8125,-41.9921875,296.38671875,167.48046875,-31.73828125,9.27734375,0.0
63.81640625,-32.71484375,325.68359375,160.15625,-43.45703125,-16.6015625,0.0
63.8203125,-9.27734375,447.75390625,160.64453125,-25.87890625,9.27734375,0.0
63.82421875,-6.34765625,479.4921875,155.76171875,-15.13671875,4.39453125,0.0
63.828125,-25.87890625,334.47265625,136.71875,-31.73828125,-13.18359375,0.0
63.83203125,-19.53125,209.47265625,127.44140625,-25.87890625,-23.4375,0.0
63.8359375,-9.27734375,258.30078125,122.0703125,-19.04296875,-10.25390625,0.0
63.83984375,-13.671875,333.49609375,111.328125,-26.3671875,-31.25,0.0
63.84375,-5.859375,355.95703125,110.3515625,-30.76171875,-48.828125,0.0
63.84765625,-13.671875,301.7578125,90.8203125,-36.62109375,-23.4375,0.0
63.8515625,-21.97265625,317.87109375,80.56640625,-30.2734375,-11.23046875,0.0
63.85546875,-14.16015625,388.671875,87.40234375,-23.92578125,-39.55078125,0.0
63.859375,-21.97265625,402.34375,85.44921875,-43.45703125,-47.36328125,0.0
63.86328125,-22.4609375,385.25390625,88.37890625,-55.17578125,-16.11328125,0.0
63.8671875,-13.671875,398.92578125,80.56640625,-51.7578125,15.625,0.0
63.87109375,-24.4140625,365.72265625,51.7578125,-49.31640625,26.85546875,0.0
63.875,-23.4375,223.6328125,50.29296875,-31.25,-37.59765625,0.0
63.87890625,-12.20703125,264.16015625,78.61328125,-22.4609375,-53.7109375,0.0
63.8828125,-10.7421875,344.23828125,79.58984375,-31.73828125,-43.45703125,0.0
63.88671875,-21.484375,195.80078125,57.6171875,-41.9921875,-74.21875,0.0
63.890625,-28.80859375,119.62890625,52.24609375,-45.41015625,-38.0859375,0.0
63.89453125,-27.34375,155.76171875,53.22265625,-43.9453125,-6.34765625,0.0
63.8984375,-32.2265625,256.8359375,49.31640625,-42.48046875,-5.37109375,0.0
63.90234375,-35.64453125,319.82421875,37.59765625,-40.52734375,8.7890625,0.0
63.90625,-39.55078125,240.234375,25.87890625,-36.1328125,-73.73046875,0.0
63.91015625,-47.8515625,151.85546875,21.97265625,-36.1328125,-89.35546875,0.0
63.9140625,-45.8984375,209.9609375,29.78515625,-41.015625,-66.89453125,0.0
63.91796875,-41.9921875,319.82421875,37.59765625,-46.875,-45.8984375,0.0
63.921875,-34.66796875,266.6015625,40.0390625,-32.71484375,-10.25390625,0.0
63.92578125,-33.69140625,137.6953125,34.66796875,-20.01953125,-20.01953125,0.0
63.9296875,-49.8046875,79.1015625,4.39453125,-40.0390625,-5.37109375,0.0
63.93359375,-45.41015625,91.796875,-10.25390625,-42.48046875,13.671875,0.0
63.9375,-23.92578125,98.14453125,0.48828125,-28.80859375,-20.01953125,0.0
63.94140625,-23.4375,81.54296875,6.8359375,-38.0859375,-47.36328125,0.0
63.9453125,-23.92578125,106.4453125,14.16015625,-42.48046875,-36.62109375,0.0
63.94921875,-14.16015625,65.4296875,12.6953125,-36.1328125,-66.40625,0.0
63.953125,-11.71875,10.7421875,6.34765625,-35.64453125,-111.81640625,0.0
63.95703125,-8.30078125,54.6875,4.8828125,-29.296875,-48.33984375,0.0
63.9609375,-13.18359375,175.29296875,18.06640625,-31.25,61.03515625,0.0
63.96484375,-16.6015625,166.9921875,26.3671875,-24.4140625,8.30078125,0.0
63.96875,-25.87890625,15.625,0.48828125,-22.4609375,-74.21875,0.0
63.97265625,-37.109375,2.44140625,-23.4375,-37.59765625,-95.21484375,0.0
63.9765625,-35.15625,70.80078125,-13.18359375,-41.50390625,-117.1875,0.0
63.98046875,-34.66796875,78.125,6.8359375,-45.8984375,-99.12109375,0.0
63.984375,-35.15625,57.12890625,4.8828125,-46.38671875,-104.00390625,0.0
63.98828125,-42.48046875,75.1953125,-0.48828125,-44.921875,-36.62109375,0.0
63.9921875,-45.41015625,108.3984375,-1.953125,-43.45703125,3.90625,0.0
63.99609375,-43.45703125,51.7578125,-11.71875,-45.41015625,-60.546875,0.0
64.0,-32.71484375,75.68359375,2.9296875,-36.1328125,-11.71875,0.0
64.00390625,-29.78515625,93.26171875,12.20703125,-32.2265625,64.453125,0.0
64.0078125,-37.59765625,89.84375,6.8359375,-27.83203125,16.6015625,0.0
64.01171875,-34.66796875,102.5390625,-3.41796875,-15.13671875,-14.6484375,0.0
64.015625,-32.2265625,31.73828125,-25.390625,-25.87890625,-18.5546875,0.0
64.01953125,-27.34375,63.4765625,-14.6484375,-32.71484375,66.40625,0.0
64.0234375,-26.3671875,135.7421875,2.9296875,-34.66796875,56.15234375,0.0
64.02734375,-31.25,111.328125,-10.25390625,-35.64453125,18.06640625,0.0
64.03125,-22.94921875,72.265625,-26.3671875,-27.34375,32.2265625,0.0
64.03515625,-21.97265625,51.7578125,-23.92578125,-31.73828125,5.37109375,0.0
64.0390625,-20.99609375,107.421875,-10.7421875,-36.1328125,-69.82421875,0.0
64.04296875,-26.3671875,145.01953125,-2.9296875,-41.50390625,-85.44921875,0.0
64.046875,-40.0390625,152.83203125,-3.90625,-48.828125,53.22265625,0.0
64.05078125,-35.64453125,67.3828125,-22.4609375,-45.8984375,17.578125,0.0
64.0546875,-32.2265625,117.1875,-16.6015625,-36.62109375,-43.45703125,0.0
64.05859375,-23.4375,237.79296875,5.859375,-29.78515625,-88.37890625,0.0
64.0625,-28.3203125,142.578125,-2.9296875,-36.62109375,-124.51171875,0.0
64.06640625,-43.9453125,105.95703125,-6.8359375,-46.38671875,-85.9375,0.0
64.0703125,-46.875,136.71875,-15.13671875,-51.26953125,-128.41796875,0.0
64.07421875,-50.29296875,78.61328125,-30.76171875,-51.26953125,-135.25390625,0.0
64.078125,-49.8046875,116.2109375,-25.390625,-51.26953125,-108.3984375,0.0
64.08203125,-44.43359375,206.54296875,-18.06640625,-48.33984375,-77.63671875,0.0
64.0859375,-41.9921875,235.83984375,-24.90234375,-41.9921875,-36.1328125,0.0
64.08984375,-47.8515625,202.63671875,-39.0625,-42.96875,-2.44140625,0.0
64.09375,-41.9921875,166.50390625,-42.48046875,-45.8984375,-62.5,0.0
64.09765625,-33.69140625,205.078125,-31.73828125,-50.29296875,-117.67578125,0.0
64.1015625,-32.71484375,369.62890625,-1.46484375,-44.43359375,-5.859375,0.0
64.10546875,-40.52734375,359.86328125,-9.27734375,-46.38671875,8.30078125,0.0
64.109375,-51.26953125,163.57421875,-44.921875,-55.6640625,-102.5390625,0.0
64.11328125,-52.734375,85.9375,-47.8515625,-59.5703125,-87.890625,0.0
64.1171875,-38.57421875,187.98828125,-23.4375,-50.78125,-19.53125,0.0
64.12109375,-22.94921875,260.7421875,-20.5078125,-48.828125,66.40625,0.0
64.125,-18.06640625,223.14453125,-36.62109375,-46.875,20.5078125,0.0
64.12890625,-33.69140625,131.34765625,-44.921875,-49.31640625,-107.91015625,0.0
64.1328125,-38.0859375,110.83984375,-39.0625,-59.08203125,-62.98828125,0.0
64.13671875,-29.296875,180.17578125,-27.34375,-59.08203125,92.7734375,0.0
64.140625,-25.390625,211.9140625,-20.99609375,-52.734375,141.11328125,0.0
64.14453125,-29.296875,165.0390625,-23.4375,-45.8984375,36.1328125,0.0
64.1484375,-39.0625,161.62109375,-35.15625,-51.26953125,-66.40625,0.0
64.15234375,-39.55078125,140.13671875,-52.734375,-51.7578125,-64.453125,0.0
64.15625,-25.87890625,126.46484375,-42.96875,-44.921875,34.1796875,0.0
64.16015625,-17.08984375,212.890625,-12.6953125,-37.59765625,48.828125,0.0
64.1640625,-26.3671875,179.19921875,-14.16015625,-37.109375,-43.45703125,0.0
64.16796875,-42.48046875,81.54296875,-40.52734375,-47.8515625,-47.8515625,0.0
64.171875,-42.96875,83.984375,-38.0859375,-39.0625,9.27734375,0.0
64.17578125,-31.73828125,125.0,-21.97265625,-21.97265625,0.48828125,0.0
64.1796875,-24.4140625,201.171875,-13.671875,-19.04296875,14.16015625,0.0
64.18359375,-23.4375,236.328125,-7.8125,-18.5546875,57.6171875,0.0
64.1875,-27.83203125,210.44921875,-21.97265625,-16.6015625,51.7578125,0.0
64.19140625,-33.203125,142.578125,-30.76171875,-13.671875,-12.6953125,0.0
64.1953125,-35.15625,189.453125,-32.2265625,-18.06640625,-43.9453125,0.0
64.19921875,-30.76171875,272.94921875,-28.3203125,-21.97265625,-78.61328125,0.0
64.203125,-23.92578125,231.4453125,-11.71875,-19.04296875,-86.42578125,0.0
64.20703125,-19.53125,143.5546875,-18.5546875,-11.23046875,-79.1015625,0.0
64.2109375,-13.18359375,143.5546875,-29.78515625,-8.7890625,-69.3359375,0.0
64.21484375,-3.41796875,164.55078125,-33.203125,-11.71875,-36.62109375,0.0
64.21875,-0.48828125,118.65234375,-52.24609375,-17.08984375,-28.80859375,0.0
64.22265625,-4.8828125,105.95703125,-48.828125,-13.671875,-74.70703125,0.0
64.2265625,-7.32421875,95.703125,-36.1328125,-6.8359375,-159.1796875,0.0
64.23046875,-1.46484375,71.77734375,-41.50390625,-14.16015625,-205.56640625,0.0
64.234375,0.0,63.4765625,-43.45703125,-21.484375,-165.0390625,0.0
64.23828125,-1.953125,114.74609375,-25.87890625,-17.08984375,-115.234375,0.0
64.2421875,-11.71875,206.0546875,-6.8359375,-12.6953125,-210.44921875,0.0
64.24609375,-21.484375,223.6328125,-18.5546875,-20.01953125,-98.14453125,0.0
64.25,-19.53125,134.27734375,-31.25,-19.04296875,28.80859375,0.0
64.25390625,-14.16015625,123.046875,-31.25,-15.625,-77.63671875,0.0
64.2578125,-16.11328125,173.828125,-34.66796875,-21.484375,-42.96875,0.0
64.26171875,-18.5546875,169.921875,-20.5078125,-25.87890625,48.33984375,0.0
64.265625,-18.06640625,213.8671875,-20.5078125,-15.13671875,53.22265625,0.0
64.26953125,-27.34375,163.57421875,-43.45703125,-15.13671875,60.546875,0.0
64.2734375,-35.15625,70.3125,-55.17578125,-24.90234375,11.71875,0.0
64.27734375,-31.73828125,114.74609375,-55.6640625,-23.92578125,-23.92578125,0.0
64.28125,-27.34375,179.19921875,-42.96875,-34.1796875,6.8359375,0.0
64.28515625,-24.90234375,158.69140625,-26.85546875,-43.45703125,-11.23046875,0.0
64.2890625,-24.90234375,163.57421875,-21.484375,-39.0625,-36.62109375,0.0
64.29296875,-25.390625,169.43359375,-23.92578125,-40.52734375,11.71875,0.0
64.296875,-30.2734375,98.14453125,-31.73828125,-51.7578125,27.34375,0.0
64.30078125,-21.97265625,97.65625,-31.25,-47.8515625,-9.27734375,0.0
64.3046875,-26.3671875,125.0,-41.015625,-52.24609375,-27.34375,0.0
64.30859375,-38.0859375,116.69921875,-50.29296875,-56.15234375,8.7890625,0.0
64.3125,-39.55078125,95.703125,-50.78125,-59.08203125,53.22265625,0.0
64.31640625,-28.3203125,96.19140625,-45.8984375,-50.78125,36.62109375,0.0
64.3203125,-21.484375,162.59765625,-33.69140625,-41.9921875,23.4375,0.0
64.32421875,-21.97265625,215.8203125,-24.90234375,-46.38671875,29.296875,0.0
64.328125,-22.94921875,139.6484375,-39.0625,-44.43359375,-5.859375,0.0
64.33203125,-27.83203125,49.8046875,-55.17578125,-40.52734375,-14.6484375,0.0
64.3359375,-19.04296875,133.7890625,-36.1328125,-28.3203125,-36.62109375,0.0
64.33984375,-21.484375,183.59375,-23.92578125,-24.4140625,-104.00390625,0.0
64.34375,-21.484375,112.3046875,-22.4609375,-19.53125,-88.8671875,0.0
64.34765625,-17.578125,112.79296875,-13.671875,-8.7890625,-34.66796875,0.0
64.3515625,-26.3671875,113.28125,-22.94921875,-20.5078125,-42.48046875,0.0
64.35546875,-27.34375,36.62109375,-42.96875,-28.3203125,-137.6953125,0.0
64.359375,-17.578125,50.29296875,-27.34375,-14.16015625,-178.7109375,0.0
64.36328125,-6.8359375,108.3984375,-8.30078125,-13.18359375,-134.27734375,0.0
64.3671875,-15.625,102.05078125,-15.625,-23.4375,-146.484375,0.0
64.37109375,-28.3203125,87.40234375,-26.85546875,-21.97265625,-62.5,0.0
64.375,-23.92578125,83.49609375,-32.71484375,-20.01953125,20.5078125,0.0
64.37890625,-12.20703125,122.55859375,-24.4140625,-13.671875,-18.5546875,0.0
64.3828125,-16.11328125,200.1953125,-4.39453125,-3.41796875,-44.43359375,0.0
64.38671875,-21.97265625,156.25,-32.2265625,-1.46484375,52.24609375,0.0
64.390625,-16.6015625,-5.37109375,-56.640625,-4.39453125,-13.671875,0.0
64.39453125,-14.16015625,-39.0625,-27.83203125,-10.7421875,-43.9453125,0.0
64.3984375,-13.671875,72.265625,-6.34765625,-11.23046875,-0.9765625,0.0
64.40234375,-19.04296875,110.3515625,-14.6484375,-12.6953125,-12.6953125,0.0
64.40625,-23.4375,58.10546875,-29.78515625,-15.13671875,18.06640625,0.0
64.41015625,-22.4609375,17.08984375,-38.57421875,-13.671875,25.87890625,0.0
64.4140625,-18.06640625,10.25390625,-42.48046875,-15.625,-52.24609375,0.0
64.41796875,-15.13671875,55.17578125,-31.73828125,-15.13671875,-79.58984375,0.0
64.421875,-15.13671875,82.03125,-22.94921875,-9.27734375,-113.76953125,0.0
64.42578125,-23.92578125,40.52734375,-30.76171875,-8.7890625,-149.4140625,0.0
64.4296875,-30.2734375,68.84765625,-27.34375,-7.8125,-143.06640625,0.0
64.43359375,-24.4140625,88.37890625,-20.01953125,-0.9765625,-165.52734375,0.0
64.4375,-22.94921875,40.0390625,-30.76171875,0.48828125,-113.76953125,0.0
64.44140625,-21.484375,70.3125,-25.390625,-11.23046875,-20.99609375,0.0
64.4453125,-23.4375,122.55859375,-13.18359375,-17.08984375,31.25,0.0
64.44921875,-28.3203125,31.25,-21.97265625,-2.44140625,-15.625,0.0
64.453125,-30.76171875,-30.76171875,-29.296875,-7.8125,-69.82421875,0.0
64.45703125,-25.390625,22.4609375,-25.390625,-20.5078125,3.41796875,0.0
64.4609375,-18.06640625,104.00390625,-9.765625,-13.671875,38.0859375,0.0
64.46484375,-12.6953125,125.48828125,-3.41796875,-9.27734375,32.71484375,0.0
64.46875,-4.8828125,60.546875,-14.16015625,-2.9296875,-20.01953125,0.0
64.47265625,-4.8828125,1.953125,-22.4609375,-3.41796875,-70.3125,0.0
64.4765625,-0.48828125,84.9609375,-4.8828125,-2.44140625,-0.9765625,0.0
64.48046875,8.7890625,157.2265625,13.671875,4.8828125,15.625,0.0
64.484375,0.9765625,66.89453125,-1.46484375,6.8359375,-6.8359375,0.0
64.48828125,-7.8125,12.6953125,-25.87890625,-3.90625,28.3203125,0.0
64.4921875,0.48828125,31.25,-26.3671875,-1.953125,-33.69140625,0.0
64.49609375,-5.37109375,7.32421875,-18.5546875,-3.90625,-49.8046875,0.0
64.5,-14.6484375,59.08203125,-19.04296875,-13.18359375,23.4375,0.0
64.50390625,-18.06640625,82.03125,-27.83203125,-14.6484375,-4.8828125,0.0
64.5078125,-22.94921875,66.89453125,-30.2734375,-16.11328125,-45.8984375,0.0
64.51171875,-27.34375,55.6640625,-33.69140625,-20.99609375,-31.73828125,0.0
64.515625,-29.78515625,50.29296875,-42.96875,-24.4140625,-9.765625,0.0
64.51953125,-23.4375,81.0546875,-31.73828125,-21.484375,-30.2734375,0.0
64.5234375,-16.11328125,156.73828125,-14.6484375,-22.94921875,-112.3046875,0.0
64.52734375,-25.87890625,165.52734375,-23.92578125,-28.3203125,-77.1484375,0.0
64.53125,-34.1796875,61.03515625,-50.29296875,-44.43359375,44.43359375,0.0
64.53515625,-19.04296875,72.75390625,-38.0859375,-41.015625,54.6875,0.0
64.5390625,-7.8125,130.37109375,-4.8828125,-19.53125,-26.3671875,0.0
64.54296875,-17.578125,99.12109375,-5.859375,-29.78515625,-38.57421875,0.0
64.546875,-32.2265625,77.1484375,-30.76171875,-43.45703125,-46.38671875,0.0
64.55078125,-28.3203125,5.37109375,-32.71484375,-37.109375,-144.04296875,0.0
64.5546875,-22.4609375,25.87890625,-19.53125,-35.15625,-77.1484375,0.0
64.55859375,-26.85546875,114.74609375,-17.08984375,-40.52734375,61.5234375,0.0
64.5625,-28.3203125,114.74609375,-20.01953125,-33.69140625,29.296875,0.0
64.56640625,-29.296875,57.12890625,-26.85546875,-32.2265625,-23.4375,0.0
64.5703125,-34.1796875,74.21875,-31.25,-35.64453125,-12.20703125,0.0
64.57421875,-32.71484375,74.21875,-41.9921875,-33.203125,26.85546875,0.0
64.578125,-25.87890625,10.7421875,-38.0859375,-34.66796875,4.39453125,0.0
64.58203125,-19.53125,20.01953125,-17.08984375,-29.296875,-50.29296875,0.0
64.5859375,-24.4140625,42.96875,-35.64453125,-40.0390625,-37.109375,0.0
64.58984375,-29.78515625,15.13671875,-58.10546875,-53.7109375,8.7890625,0.0
64.59375,-25.390625,-24.90234375,-46.38671875,-44.43359375,-85.9375,0.0
64.59765625,-19.53125,-7.32421875,-30.76171875,-33.203125,-109.86328125,0.0
64.6015625,-18.5546875,84.9609375,-18.06640625,-31.25,-137.20703125,0.0
64.60546875,-29.296875,85.44921875,-23.4375,-36.1328125,-175.78125,0.0
64.609375,-35.15625,7.32421875,-40.0390625,-39.0625,-161.62109375,0.0
64.61328125,-30.2734375,-40.52734375,-58.10546875,-41.50390625,-207.51953125,0.0
64.6171875,-24.4140625,32.71484375,-35.64453125,-36.1328125,-179.19921875,0.0
64.62109375,-31.25,113.28125,-10.25390625,-35.64453125,-88.8671875,0.0
64.625,-42.96875,47.36328125,-21.484375,-44.43359375,-10.25390625,0.0
64.62890625,-47.36328125,8.30078125,-32.2265625,-46.875,26.3671875,0.0
64.6328125,-44.921875,11.23046875,-32.71484375,-47.36328125,32.71484375,0.0
64.63671875,-44.921875,-9.27734375,-25.87890625,-45.41015625,64.94140625,0.0
64.640625,-31.25,37.59765625,-9.27734375,-34.66796875,38.0859375,0.0
64.64453125,-21.97265625,65.4296875,2.9296875,-16.11328125,48.828125,0.0
64.6484375,-46.38671875,32.71484375,-13.18359375,-26.85546875,-0.48828125,0.0
64.65234375,-59.08203125,-12.20703125,-35.64453125,-41.015625,-75.68359375,0.0
64.65625,-55.6640625,34.1796875,-45.41015625,-47.36328125,-6.34765625,0.0
64.66015625,-48.33984375,86.42578125,-34.66796875,-42.96875,78.125,0.0
64.6640625,-47.36328125,122.0703125,-20.01953125,-38.57421875,81.0546875,0.0
64.66796875,-57.6171875,80.078125,-35.15625,-49.31640625,2.44140625,0.0
64.671875,-52.24609375,-33.203125,-46.38671875,-41.015625,-35.64453125,0.0
64.67578125,-48.33984375,-43.45703125,-30.76171875,-37.109375,-27.34375,0.0
64.6796875,-51.26953125,12.20703125,-29.296875,-38.57421875,10.25390625,0.0
64.68359375,-42.96875,49.31640625,-28.80859375,-41.015625,-2.44140625,0.0
64.6875,-33.69140625,30.2734375,-22.94921875,-37.59765625,-62.5,0.0
64.69140625,-38.0859375,-23.92578125,-36.1328125,-38.57421875,-26.3671875,0.0
64.6953125,-39.55078125,-7.32421875,-38.57421875,-41.015625,56.15234375,0.0
64.69921875,-30.76171875,47.36328125,-19.53125,-35.15625,69.3359375,0.0
64.703125,-40.52734375,24.90234375,-18.06640625,-38.57421875,-40.52734375,0.0
64.70703125,-45.8984375,-13.671875,-33.203125,-40.0390625,-63.96484375,0.0
64.7109375,-48.828125,19.53125,-40.52734375,-42.48046875,-42.48046875,0.0
64.71484375,-46.875,83.49609375,-28.80859375,-42.48046875,-66.40625,0.0
64.71875,-40.0390625,59.08203125,-24.4140625,-48.33984375,-41.9921875,0.0
64.72265625,-43.45703125,13.18359375,-26.3671875,-49.31640625,-67.87109375,0.0
64.7265625,-38.57421875,38.0859375,-23.4375,-42.48046875,-96.6796875,0.0
64.73046875,-39.0625,-2.9296875,-35.64453125,-47.8515625,-56.15234375,0.0
64.734375,-39.55078125,-40.52734375,-38.57421875,-41.015625,-54.6875,0.0
64.73828125,-33.203125,-9.27734375,-23.92578125,-25.87890625,-55.6640625,0.0
64.7421875,-30.2734375,57.6171875,-15.13671875,-24.4140625,-39.55078125,0.0
64.74609375,-30.76171875,80.56640625,-30.2734375,-28.3203125,-14.6484375,0.0
64.75,-38.57421875,30.2734375,-42.96875,-28.3203125,49.8046875,0.0
64.75390625,-40.52734375,-38.0859375,-33.203125,-35.64453125,28.3203125,0.0
64.7578125,-31.25,57.12890625,-18.06640625,-39.55078125,0.9765625,0.0
64.76171875,-36.62109375,128.41796875,-19.04296875,-41.9921875,45.41015625,0.0
64.765625,-32.2265625,40.52734375,-31.25,-44.921875,56.640625,0.0
64.76953125,-26.3671875,-13.671875,-38.0859375,-38.57421875,57.12890625,0.0
64.7734375,-30.76171875,-25.390625,-44.921875,-34.66796875,44.43359375,0.0
64.77734375,-20.99609375,2.9296875,-38.0859375,-33.69140625,6.34765625,0.0
64.78125,-8.30078125,42.48046875,-20.5078125,-23.92578125,19.53125,0.0
64.78515625,-13.671875,16.6015625,-16.6015625,-19.53125,-18.06640625,0.0
64.7890625,-12.6953125,-4.8828125,-20.01953125,-16.6015625,32.71484375,0.0
64.79296875,-0.9765625,-19.04296875,-35.15625,-9.765625,11.23046875,0.0
64.796875,-10.7421875,-56.640625,-46.875,-17.08984375,-160.64453125,0.0
64.80078125,-35.64453125,-44.921875,-43.9453125,-39.55078125,-222.65625,0.0
64.8046875,-53.22265625,16.11328125,-29.296875,-59.5703125,-241.69921875,0.0
64.80859375,-65.91796875,32.2265625,-17.08984375,-78.125,-147.4609375,0.0
64.8125,-84.9609375,-69.3359375,-34.1796875,-96.6796875,-35.64453125,0.0
64.81640625,-96.19140625,-68.84765625,-43.9453125,-120.1171875,4.39453125,0.0
64.8203125,-102.5390625,2.44140625,-36.62109375,-135.25390625,23.92578125,0.0
64.82421875,-113.28125,0.9765625,-44.921875,-146.97265625,64.453125,0.0
64.828125,-117.67578125,-62.5,-43.45703125,-145.5078125,63.96484375,0.0
64.83203125,-117.1875,-127.44140625,-39.55078125,-139.16015625,19.04296875,0.0
64.8359375,-107.421875,-74.70703125,-49.8046875,-132.32421875,64.94140625,0.0
64.83984375,-95.21484375,-13.18359375,-49.31640625,-124.51171875,104.4921875,0.0
64.84375,-90.33203125,-27.34375,-56.15234375,-119.140625,57.12890625,0.0
64.84765625,-101.07421875,-68.359375,-68.359375,-120.1171875,39.55078125,0.0
64.8515625,-111.328125,-14.6484375,-60.05859375,-124.0234375,25.390625,0.0
64.85546875,-104.4921875,8.30078125,-52.734375,-116.69921875,41.015625,0.0
64.859375,-86.9140625,-31.25,-42.48046875,-108.3984375,70.3125,0.0
64.86328125,-79.58984375,-24.4140625,-38.57421875,-103.02734375,62.5,0.0
64.8671875,-83.0078125,-47.36328125,-49.8046875,-104.98046875,-6.8359375,0.0
64.87109375,-88.8671875,-86.9140625,-58.59375,-103.515625,3.90625,0.0
64.875,-94.7265625,-126.46484375,-60.05859375,-100.5859375,-59.08203125,0.0
64.87890625,-86.9140625,-72.75390625,-41.9921875,-95.703125,-186.5234375,0.0
64.8828125,-74.21875,20.01953125,-30.2734375,-75.68359375,-180.6640625,0.0
64.88671875,-66.40625,-19.53125,-44.921875,-66.89453125,-124.0234375,0.0
64.890625,-61.03515625,-40.0390625,-55.17578125,-68.84765625,-50.78125,0.0
64.89453125,-62.01171875,-45.41015625,-52.24609375,-65.91796875,-67.3828125,0.0
64.8984375,-53.7109375,0.9765625,-29.296875,-64.453125,-99.609375,0.0
64.90234375,-49.31640625,78.61328125,-24.4140625,-62.98828125,-41.9921875,0.0
64.90625,-51.26953125,-24.90234375,-47.36328125,-66.40625,-62.98828125,0.0
64.91015625,-52.24609375,-82.03125,-41.50390625,-64.453125,-61.03515625,0.0
64.9140625,-47.8515625,-36.62109375,-33.203125,-45.41015625,-61.5234375,0.0
64.91796875,-39.0625,-43.45703125,-34.66796875,-33.69140625,-70.80078125,0.0
64.921875,-44.921875,-6.8359375,-29.296875,-41.50390625,38.0859375,0.0
64.92578125,-51.7578125,-4.39453125,-28.80859375,-58.10546875,80.078125,0.0
64.9296875,-52.734375,-36.62109375,-34.66796875,-60.546875,34.66796875,0.0
64.93359375,-53.22265625,-66.89453125,-34.66796875,-57.12890625,-65.4296875,0.0
64.9375,-49.31640625,-35.64453125,-28.3203125,-45.41015625,-43.9453125,0.0
64.94140625,-42.96875,-15.13671875,-25.87890625,-37.109375,13.671875,0.0
64.9453125,-41.9921875,16.11328125,-20.01953125,-41.015625,-40.52734375,0.0
64.94921875,-43.9453125,4.8828125,-39.0625,-40.0390625,-24.4140625,0.0
64.953125,-54.6875,-83.49609375,-56.640625,-43.9453125,-1.46484375,0.0
64.95703125,-58.10546875,-85.9375,-47.8515625,-50.29296875,9.765625,0.0
64.9609375,-45.41015625,-5.859375,-32.71484375,-42.96875,4.39453125,0.0
64.96484375,-46.875,20.5078125,-27.83203125,-41.50390625,25.390625,0.0
64.96875,-52.24609375,-34.1796875,-31.73828125,-41.50390625,23.92578125,0.0
64.97265625,-48.828125,-75.68359375,-32.71484375,-39.0625,38.0859375,0.0
64.9765625,-49.8046875,-68.84765625,-27.83203125,-43.9453125,3.90625,0.0
64.98046875,-38.0859375,-30.2734375,-17.08984375,-32.71484375,-103.02734375,0.0
64.984375,-33.203125,10.25390625,-10.25390625,-25.87890625,-36.62109375,0.0
64.98828125,-49.8046875,-27.34375,-25.87890625,-32.2265625,-8.7890625,0.0
64.9921875,-58.59375,-30.76171875,-44.43359375,-44.43359375,-40.52734375,0.0
64.99609375,-59.08203125,18.5546875,-39.55078125,-53.22265625,-34.66796875,0.0
65.0,-53.22265625,-27.34375,-41.50390625,-48.828125,-104.00390625,0.0
65.00390625,-42.96875,-29.296875,-36.1328125,-41.50390625,-89.35546875,0.0
65.0078125,-40.0390625,0.9765625,-35.15625,-32.71484375,-74.21875,0.0
65.01171875,-38.0859375,-65.4296875,-48.33984375,-28.80859375,-73.2421875,0.0
65.015625,-25.87890625,-48.33984375,-46.875,-19.53125,3.41796875,0.0
65.01953125,-15.625,-6.8359375,-31.25,-16.6015625,12.20703125,0.0
65.0234375,-32.71484375,0.48828125,-20.99609375,-34.1796875,-41.015625,0.0
65.02734375,-41.50390625,-19.53125,-26.85546875,-40.0390625,-25.390625,0.0
65.03125,-35.15625,-41.50390625,-52.734375,-31.73828125,38.57421875,0.0
65.03515625,-35.15625,-72.265625,-65.4296875,-29.296875,-38.57421875,0.0
65.0390625,-31.25,18.5546875,-36.62109375,-22.4609375,-31.73828125,0.0
65.04296875,-34.66796875,104.4921875,-18.5546875,-24.90234375,101.07421875,0.0
65.046875,-44.921875,-13.18359375,-39.55078125,-36.62109375,-34.66796875,0.0
65.05078125,-38.57421875,-129.8828125,-57.12890625,-34.1796875,-109.86328125,0.0
65.0546875,-32.71484375,-115.234375,-47.36328125,-26.3671875,-112.3046875,0.0
65.05859375,-25.87890625,-56.640625,-28.3203125,-32.2265625,-227.05078125,0.0
65.0625,-18.06640625,14.16015625,-2.44140625,-39.55078125,-162.59765625,0.0
65.06640625,-23.92578125,29.78515625,-1.953125,-40.0390625,-48.33984375,0.0
65.0703125,-35.64453125,-4.39453125,-38.57421875,-34.66796875,-49.8046875,0.0
65.07421875,-36.62109375,-33.203125,-50.29296875,-30.76171875,-69.3359375,0.0
65.078125,-27.34375,-14.16015625,-35.15625,-30.76171875,-2.9296875,0.0
65.08203125,-27.34375,6.34765625,-26.3671875,-31.73828125,65.91796875,0.0
65.0859375,-28.3203125,52.24609375,-21.97265625,-32.71484375,39.55078125,0.0
65.08984375,-18.06640625,37.59765625,-35.64453125,-26.85546875,-38.57421875,0.0
65.09375,-23.92578125,-69.82421875,-62.98828125,-24.4140625,-83.0078125,0.0
65.09765625,-25.390625,-45.8984375,-52.24609375,-24.90234375,-47.36328125,0.0
65.1015625,-15.13671875,52.24609375,-23.4375,-23.92578125,-13.671875,0.0
65.10546875,-22.94921875,33.203125,-33.203125,-26.3671875,30.2734375,0.0
65.109375,-31.73828125,-63.4765625,-51.26953125,-34.1796875,-17.08984375,0.0
65.11328125,-27.34375,-104.98046875,-48.33984375,-35.64453125,-9.765625,0.0
65.1171875,-20.5078125,-36.62109375,-29.78515625,-29.296875,57.12890625,0.0
65.12109375,-17.578125,6.8359375,-20.5078125,-18.5546875,-16.11328125,0.0
65.125,-23.4375,-26.3671875,-38.57421875,-26.85546875,-58.59375,0.0
65.12890625,-36.1328125,-82.03125,-58.10546875,-39.0625,-75.1953125,0.0
65.1328125,-28.3203125,-33.69140625,-51.26953125,-34.66796875,-107.91015625,0.0
65.13671875,-21.484375,39.0625,-31.73828125,-29.296875,-19.53125,0.0
65.140625,-27.83203125,-6.34765625,-19.53125,-24.90234375,59.5703125,0.0
65.14453125,-21.484375,-61.03515625,-16.11328125,-13.671875,21.484375,0.0
65.1484375,-22.94921875,-61.03515625,-29.296875,-9.765625,17.578125,0.0
65.15234375,-33.203125,-79.58984375,-47.36328125,-16.11328125,31.25,0.0
65.15625,-17.578125,-47.36328125,-37.59765625,-11.23046875,18.5546875,0.0
65.16015625,-6.34765625,-13.18359375,-27.83203125,-10.7421875,-35.15625,0.0
65.1640625,-6.8359375,-47.36328125,-36.1328125,-13.671875,-145.99609375,0.0
65.16796875,-12.6953125,-69.3359375,-44.43359375,-13.18359375,-193.84765625,0.0
65.171875,-20.01953125,-82.03125,-52.734375,-21.97265625,-97.16796875,0.0
65.17578125,-13.18359375,-63.96484375,-44.43359375,-14.16015625,-19.53125,0.0
65.1796875,-4.39453125,46.875,-23.92578125,-2.9296875,32.71484375,0.0
65.18359375,-7.32421875,56.640625,-30.2734375,-16.11328125,-12.20703125,0.0
65.1875,-15.625,-76.66015625,-58.59375,-19.04296875,-22.4609375,0.0
65.19140625,-10.7421875,-86.9140625,-57.6171875,-8.7890625,-12.20703125,0.0
65.1953125,-15.13671875,-58.10546875,-31.73828125,-13.18359375,-31.73828125,0.0
65.19921875,-12.20703125,-59.5703125,-14.6484375,-17.578125,6.8359375,0.0
65.203125,2.9296875,-21.97265625,6.34765625,-8.30078125,55.6640625,0.0
65.20703125,-14.16015625,-79.58984375,-13.671875,-22.94921875,-13.671875,0.0
65.2109375,-26.85546875,-91.30859375,-39.0625,-33.69140625,-59.5703125,0.0
65.21484375,-19.04296875,-56.15234375,-39.0625,-23.4375,-38.0859375,0.0
65.21875,-12.6953125,-81.0546875,-36.62109375,-11.71875,-42.96875,0.0
65.22265625,-14.16015625,-50.78125,-31.25,-8.7890625,3.41796875,0.0
65.2265625,-13.671875,37.59765625,-27.83203125,-8.7890625,4.39453125,0.0
65.23046875,-3.90625,-2.9296875,-30.76171875,-2.44140625,-66.89453125,0.0
65.234375,9.27734375,-117.67578125,-39.0625,5.859375,-102.05078125,0.0
65.23828125,27.34375,-82.51953125,-36.1328125,11.23046875,-75.68359375,0.0
65.2421875,31.25,-4.39453125,-27.34375,15.625,-34.66796875,0.0
65.24609375,26.85546875,5.859375,-24.4140625,20.5078125,2.44140625,0.0
65.25,24.4140625,-27.83203125,-33.203125,32.71484375,24.90234375,0.0
65.25390625,20.01953125,-60.05859375,-41.9921875,40.0390625,0.0,0.0
65.2578125,30.76171875,-16.11328125,-29.78515625,36.1328125,-10.25390625,0.0
65.26171875,44.43359375,30.2734375,-19.53125,36.62109375,-19.04296875,0.0
65.265625,34.1796875,-1.46484375,-20.5078125,31.25,-50.29296875,0.0
65.26953125,15.625,-29.296875,-21.97265625,18.5546875,-34.66796875,0.0
65.2734375,16.11328125,14.16015625,-17.578125,6.8359375,-9.27734375,0.0
65.27734375,16.6015625,-2.44140625,-13.671875,4.8828125,-48.33984375,0.0
65.28125,13.671875,-65.91796875,-21.97265625,3.41796875,-54.6875,0.0
65.28515625,14.16015625,-27.83203125,-21.484375,4.39453125,-41.9921875,0.0
65.2890625,11.23046875,0.48828125,-19.53125,8.30078125,-31.73828125,0.0
65.29296875,-2.44140625,-78.125,-25.87890625,-1.46484375,6.8359375,0.0
65.296875,-0.9765625,-83.0078125,-20.5078125,-7.32421875,2.44140625,0.0
65.30078125,3.41796875,-31.73828125,-18.06640625,-12.20703125,-30.2734375,0.0
65.3046875,-6.34765625,-19.53125,-19.53125,-14.6484375,-25.390625,0.0
65.30859375,-8.7890625,-48.33984375,-18.06640625,-10.7421875,-53.7109375,0.0
65.3125,-4.39453125,-69.3359375,-19.53125,-17.578125,-16.11328125,0.0
65.31640625,0.48828125,-51.26953125,-19.53125,-23.4375,32.71484375,0.0
65.3203125,1.46484375,27.83203125,-20.99609375,-20.99609375,0.0,0.0
65.32421875,-0.48828125,55.17578125,-26.3671875,-13.671875,-89.35546875,0.0
65.328125,-9.765625,0.48828125,-28.80859375,-9.765625,-66.89453125,0.0
65.33203125,-23.4375,-93.75,-42.96875,-21.484375,-22.4609375,0.0
65.3359375,-22.94921875,-90.33203125,-45.8984375,-24.4140625,-3.90625,0.0
