timestamp,TP9,AF7,AF8,TP10,AUX,Marker,
22.00390625,-24.4140625,-19.04296875,121.58203125,-29.296875,-112.3046875,0.0
22.0078125,-11.71875,-8.30078125,223.14453125,-28.80859375,-32.71484375,0.0
22.01171875,-10.7421875,-17.08984375,335.44921875,-18.06640625,-94.7265625,0.0
22.015625,-15.625,-27.34375,338.37890625,-21.97265625,-163.0859375,0.0
22.01953125,-13.671875,-31.73828125,262.20703125,-24.90234375,-200.1953125,0.0
22.0234375,-13.671875,-33.69140625,60.05859375,-20.01953125,-92.28515625,0.0
22.02734375,-16.6015625,-36.62109375,12.20703125,-28.3203125,37.109375,0.0
22.03125,-21.484375,-42.96875,167.48046875,-44.43359375,61.03515625,0.0
22.03515625,-11.23046875,-35.15625,283.69140625,-39.55078125,56.640625,0.0
22.0390625,-5.37109375,-26.85546875,176.7578125,-46.38671875,6.34765625,0.0
22.04296875,-22.4609375,-29.296875,42.48046875,-62.98828125,-7.32421875,0.0
22.046875,-30.76171875,-28.80859375,-10.25390625,-56.640625,-38.0859375,0.0
22.05078125,-25.87890625,-38.57421875,42.48046875,-42.96875,-98.6328125,0.0
22.0546875,-15.13671875,-40.52734375,277.83203125,-39.55078125,-44.43359375,0.0
22.05859375,-7.32421875,-36.1328125,213.37890625,-39.0625,14.16015625,0.0
22.0625,-2.9296875,-39.55078125,-69.82421875,-35.15625,-54.19921875,0.0
22.06640625,-12.20703125,-40.0390625,-119.62890625,-32.2265625,-103.515625,0.0
22.0703125,-27.83203125,-28.80859375,101.07421875,-26.85546875,-52.734375,0.0
22.07421875,-25.390625,-26.3671875,265.13671875,-32.2265625,-31.25,0.0
22.078125,-30.2734375,-28.3203125,129.39453125,-46.38671875,-66.40625,0.0
22.08203125,-34.66796875,-29.78515625,7.32421875,-53.7109375,-22.94921875,0.0
22.0859375,-38.0859375,-38.0859375,-20.99609375,-65.91796875,5.859375,0.0
22.08984375,-27.34375,-33.203125,15.13671875,-60.546875,7.8125,0.0
22.09375,-18.06640625,-35.15625,145.99609375,-45.8984375,16.11328125,0.0
22.09765625,-46.875,-42.48046875,168.45703125,-45.8984375,-25.390625,0.0
22.1015625,-39.55078125,-38.0859375,72.75390625,-58.10546875,-13.671875,0.0
22.10546875,-32.2265625,-36.1328125,-120.60546875,-62.5,14.16015625,0.0
22.109375,-33.69140625,-46.875,-129.8828125,-51.7578125,-20.5078125,0.0
22.11328125,-45.41015625,-53.22265625,98.6328125,-49.31640625,-9.27734375,0.0
22.1171875,-55.17578125,-42.96875,197.265625,-41.015625,6.8359375,0.0
22.12109375,-48.33984375,-38.57421875,3.90625,-48.828125,1.953125,0.0
22.125,-24.4140625,-40.52734375,-100.09765625,-49.8046875,32.2265625,0.0
22.12890625,-41.9921875,-44.43359375,-3.90625,-40.52734375,11.23046875,0.0
22.1328125,-57.12890625,-39.55078125,106.4453125,-47.36328125,-65.91796875,0.0
22.13671875,-25.390625,-35.64453125,182.12890625,-58.59375,-51.26953125,0.0
22.140625,-32.2265625,-37.59765625,59.08203125,-70.3125,-30.2734375,0.0
22.14453125,-50.29296875,-36.62109375,-71.77734375,-61.5234375,-57.6171875,0.0
22.1484375,-51.26953125,-34.66796875,7.8125,-49.8046875,-44.921875,0.0
22.15234375,-44.921875,-36.1328125,70.3125,-49.31640625,-71.77734375,0.0
22.15625,-37.59765625,-44.43359375,45.41015625,-43.9453125,-97.65625,0.0
22.16015625,-34.1796875,-47.36328125,-7.8125,-39.55078125,35.64453125,0.0
22.1640625,-20.5078125,-38.0859375,-100.09765625,-33.203125,59.5703125,0.0
22.16796875,-16.11328125,-32.71484375,-104.98046875,-33.69140625,2.9296875,0.0
22.171875,-34.1796875,-41.50390625,-33.69140625,-41.50390625,-46.38671875,0.0
22.17578125,-31.25,-37.109375,101.07421875,-45.41015625,-15.13671875,0.0
22.1796875,-24.4140625,-33.69140625,94.23828125,-38.0859375,4.8828125,0.0
22.18359375,-32.2265625,-35.64453125,-110.83984375,-36.62109375,-18.06640625,0.0
22.1875,-21.484375,-31.25,-180.17578125,-38.57421875,29.296875,0.0
22.19140625,-15.13671875,-29.78515625,2.44140625,-31.73828125,4.8828125,0.0
22.1953125,-33.203125,-21.97265625,209.47265625,-41.015625,-18.06640625,0.0
22.19921875,-39.0625,-19.53125,49.8046875,-54.6875,-29.78515625,0.0
22.203125,-44.43359375,-33.69140625,-198.2421875,-45.8984375,-9.765625,0.0
22.20703125,-41.9921875,-30.76171875,-163.0859375,-44.921875,-43.45703125,0.0
22.2109375,-33.69140625,-20.01953125,24.90234375,-63.96484375,-125.0,0.0
22.21484375,-34.66796875,-24.90234375,112.3046875,-54.19921875,-100.09765625,0.0
22.21875,-29.296875,-36.1328125,44.43359375,-49.8046875,-24.4140625,0.0
22.22265625,-26.85546875,-41.9921875,-117.67578125,-47.8515625,-7.32421875,0.0
22.2265625,-27.83203125,-34.66796875,-147.4609375,-26.85546875,-48.828125,0.0
22.23046875,-35.64453125,-32.2265625,-23.4375,-22.4609375,-35.64453125,0.0
22.234375,-27.34375,-38.57421875,64.94140625,-17.578125,32.2265625,0.0
22.23828125,-9.765625,-32.71484375,69.3359375,-26.85546875,25.390625,0.0
22.2421875,-19.53125,-20.99609375,5.859375,-58.10546875,-24.90234375,0.0
22.24609375,-41.015625,-20.5078125,-142.08984375,-72.75390625,-38.0859375,0.0
22.25,-36.62109375,-34.66796875,-181.640625,-60.546875,-55.6640625,0.0
22.25390625,-41.9921875,-44.43359375,-46.875,-49.31640625,-8.30078125,0.0
22.2578125,-37.59765625,-35.15625,55.17578125,-54.19921875,-14.16015625,0.0
22.26171875,-19.53125,-32.71484375,-77.1484375,-44.43359375,-53.7109375,0.0
22.265625,-25.390625,-36.1328125,-180.17578125,-40.0390625,-42.96875,0.0
22.26953125,-27.34375,-32.2265625,-69.82421875,-36.62109375,-41.9921875,0.0
22.2734375,-31.25,-29.78515625,74.70703125,-24.90234375,-6.34765625,0.0
22.27734375,-34.1796875,-35.64453125,61.03515625,-11.71875,-14.6484375,0.0
22.28125,-30.2734375,-34.66796875,-95.703125,-20.99609375,-5.37109375,0.0
22.28515625,-31.73828125,-32.71484375,-225.5859375,-37.109375,-9.765625,0.0
22.2890625,-36.62109375,-36.1328125,-57.6171875,-47.8515625,-25.390625,0.0
22.29296875,-16.6015625,-36.1328125,104.98046875,-47.8515625,17.578125,0.0
22.296875,-10.7421875,-41.9921875,64.94140625,-27.83203125,-37.109375,0.0
22.30078125,-14.6484375,-52.24609375,-97.65625,-27.34375,-142.578125,0.0
22.3046875,-17.08984375,-47.36328125,-210.44921875,-29.296875,-91.30859375,0.0
22.30859375,-8.7890625,-48.828125,-152.34375,-23.92578125,29.296875,0.0
22.3125,-8.7890625,-62.01171875,-24.4140625,-23.92578125,-28.3203125,0.0
22.31640625,-31.25,-53.7109375,38.0859375,-30.2734375,-37.59765625,0.0
22.3203125,-24.4140625,-37.109375,-17.578125,-41.015625,-51.7578125,0.0
22.32421875,-9.27734375,-50.78125,-166.50390625,-34.66796875,-120.60546875,0.0
22.328125,-13.671875,-64.453125,-208.0078125,-30.76171875,-120.60546875,0.0
22.33203125,-24.4140625,-62.98828125,-57.12890625,-37.59765625,-100.09765625,0.0
22.3359375,-13.671875,-62.98828125,157.71484375,-33.69140625,-108.3984375,0.0
22.33984375,-15.13671875,-65.91796875,83.49609375,-32.71484375,-62.01171875,0.0
22.34375,-30.2734375,-73.73046875,-219.23828125,-32.71484375,-17.08984375,0.0
22.34765625,-18.06640625,-74.21875,-185.05859375,-20.99609375,-51.7578125,0.0
22.3515625,-12.20703125,-68.84765625,25.390625,-30.2734375,-88.8671875,0.0
22.35546875,-18.5546875,-77.1484375,54.6875,-37.59765625,-109.86328125,0.0
22.359375,-31.73828125,-90.33203125,-0.48828125,-45.41015625,-136.71875,0.0
22.36328125,-32.71484375,-92.7734375,-106.93359375,-28.3203125,-104.4921875,0.0
22.3671875,-15.13671875,-92.28515625,-154.78515625,-16.11328125,-48.828125,0.0
22.37109375,-17.578125,-95.21484375,-71.77734375,-27.83203125,-44.921875,0.0
22.375,-26.3671875,-93.26171875,36.62109375,-28.80859375,-36.62109375,0.0
22.37890625,-10.25390625,-91.796875,18.06640625,-34.66796875,-27.83203125,0.0
22.3828125,-7.8125,-93.26171875,-24.4140625,-25.87890625,-58.59375,0.0
22.38671875,-37.109375,-97.16796875,-136.23046875,-31.25,-107.421875,0.0
22.390625,-35.15625,-100.09765625,-145.01953125,-48.33984375,-122.0703125,0.0
22.39453125,-24.4140625,-98.14453125,54.6875,-45.8984375,-71.2890625,0.0
22.3984375,-30.2734375,-90.8203125,71.77734375,-37.109375,-6.8359375,0.0
22.40234375,-24.4140625,-88.8671875,-73.2421875,-27.83203125,-23.4375,0.0
22.40625,-23.92578125,-88.8671875,-176.7578125,-26.85546875,-54.6875,0.0
22.41015625,-37.109375,-85.9375,-110.3515625,-23.4375,-20.99609375,0.0
22.4140625,-28.80859375,-83.0078125,143.06640625,-13.18359375,-61.5234375,0.0
22.41796875,-7.8125,-77.63671875,141.6015625,-27.34375,-13.18359375,0.0
22.421875,2.9296875,-75.1953125,-83.0078125,-24.90234375,90.33203125,0.0
22.42578125,3.41796875,-78.61328125,-166.50390625,2.44140625,81.54296875,0.0
22.4296875,1.953125,-71.2890625,-19.04296875,0.48828125,49.31640625,0.0
22.43359375,-43.9453125,-65.91796875,86.42578125,-52.734375,8.30078125,0.0
22.4375,-52.24609375,-65.4296875,0.48828125,-62.98828125,-7.32421875,0.0
22.44140625,-18.5546875,-64.94140625,-92.28515625,-28.3203125,-50.29296875,0.0
22.4453125,-0.48828125,-61.5234375,-165.52734375,-20.99609375,-42.96875,0.0
22.44921875,13.671875,-58.59375,-140.13671875,-25.390625,-8.30078125,0.0
22.453125,-14.16015625,-62.98828125,-7.8125,-35.15625,43.45703125,0.0
22.45703125,-23.92578125,-68.359375,109.86328125,-19.04296875,52.24609375,0.0
22.4609375,-3.41796875,-57.6171875,44.43359375,-6.34765625,-4.39453125,0.0
22.46484375,4.8828125,-52.24609375,-195.80078125,-8.30078125,-51.26953125,0.0
22.46875,-2.44140625,-60.05859375,-173.828125,-8.7890625,-84.47265625,0.0
22.47265625,-6.34765625,-54.19921875,13.18359375,-13.671875,-63.96484375,0.0
22.4765625,0.9765625,-50.29296875,120.1171875,-26.85546875,-67.3828125,0.0
22.48046875,-4.39453125,-54.6875,-55.17578125,-26.3671875,-110.83984375,0.0
22.484375,-6.34765625,-54.6875,-275.87890625,-14.6484375,-145.5078125,0.0
22.48828125,8.30078125,-46.875,-191.40625,-12.20703125,-69.82421875,0.0
22.4921875,26.85546875,-39.0625,31.73828125,5.859375,3.41796875,0.0
22.49609375,12.20703125,-41.015625,72.265625,1.46484375,-70.80078125,0.0
22.5,-7.8125,-40.52734375,-49.31640625,-20.01953125,-34.1796875,0.0
22.50390625,0.9765625,-37.59765625,-154.296875,-29.296875,35.15625,0.0
22.5078125,-0.48828125,-32.71484375,-152.83203125,-22.4609375,27.34375,0.0
22.51171875,-7.32421875,-33.203125,-37.109375,-17.08984375,13.18359375,0.0
22.515625,2.9296875,-37.59765625,113.28125,-14.6484375,15.625,0.0
22.51953125,-5.37109375,-35.15625,81.54296875,0.9765625,-16.11328125,0.0
22.5234375,-15.625,-36.1328125,-95.21484375,-9.765625,2.44140625,0.0
22.52734375,-7.32421875,-42.48046875,-191.40625,-20.01953125,91.796875,0.0
22.53125,4.39453125,-51.26953125,-134.27734375,-7.32421875,-26.85546875,0.0
22.53515625,2.44140625,-51.26953125,39.0625,-10.7421875,-104.98046875,0.0
22.5390625,0.0,-47.8515625,54.6875,-24.90234375,-68.359375,0.0
22.54296875,-7.8125,-46.875,-143.06640625,-28.3203125,-125.9765625,0.0
22.546875,-10.25390625,-44.921875,-195.3125,-19.04296875,-120.1171875,0.0
22.55078125,-0.9765625,-38.57421875,-26.3671875,-12.20703125,-29.296875,0.0
22.5546875,4.39453125,-34.66796875,60.546875,-19.04296875,-27.83203125,0.0
22.55859375,22.4609375,-39.0625,-12.6953125,-16.6015625,-121.09375,0.0
22.5625,22.4609375,-40.0390625,-137.20703125,-24.4140625,-120.60546875,0.0
22.56640625,-18.5546875,-36.1328125,-216.796875,-41.9921875,-31.73828125,0.0
22.5703125,-11.71875,-29.78515625,-45.41015625,-43.45703125,-72.265625,0.0
22.57421875,-11.71875,-26.3671875,121.58203125,-18.06640625,-73.2421875,0.0
22.578125,-36.62109375,-27.34375,19.04296875,-22.94921875,-12.20703125,0.0
22.58203125,-12.6953125,-31.73828125,-195.80078125,-46.875,9.27734375,0.0
22.5859375,-2.44140625,-28.80859375,-229.00390625,-24.90234375,51.26953125,0.0
22.58984375,-39.0625,-32.71484375,-129.39453125,-41.015625,10.25390625,0.0
22.59375,-52.24609375,-38.0859375,23.4375,-65.4296875,0.9765625,0.0
22.59765625,-36.1328125,-35.15625,41.50390625,-53.22265625,-50.29296875,0.0
22.6015625,-25.390625,-33.69140625,-118.1640625,-38.0859375,-74.21875,0.0
22.60546875,-11.71875,-35.64453125,-219.23828125,-30.2734375,-35.64453125,0.0
22.609375,-12.6953125,-36.1328125,-159.1796875,-44.921875,-48.828125,0.0
22.61328125,-13.671875,-34.1796875,-18.5546875,-41.50390625,-44.921875,0.0
22.6171875,-16.6015625,-25.390625,109.375,-27.83203125,-44.43359375,0.0
22.62109375,-33.69140625,-26.3671875,-64.94140625,-42.48046875,-73.2421875,0.0
22.625,-35.15625,-33.203125,-338.37890625,-56.15234375,-155.2734375,0.0
22.62890625,-17.578125,-34.66796875,-266.11328125,-46.38671875,-205.078125,0.0
22.6328125,-15.13671875,-27.83203125,-49.8046875,-32.71484375,-198.2421875,0.0
22.63671875,-21.484375,-24.90234375,15.625,-12.6953125,-139.6484375,0.0
22.640625,-9.27734375,-30.2734375,-100.5859375,-18.5546875,-45.41015625,0.0
22.64453125,-13.671875,-28.3203125,-215.8203125,-55.6640625,10.7421875,0.0
22.6484375,-29.296875,-27.34375,-196.77734375,-51.7578125,39.0625,0.0
22.65234375,-37.109375,-22.94921875,-50.29296875,-41.50390625,67.3828125,0.0
22.65625,-33.203125,-30.76171875,19.04296875,-48.33984375,-4.39453125,0.0
22.66015625,-35.15625,-31.73828125,-118.65234375,-51.26953125,-3.90625,0.0
22.6640625,-40.0390625,-21.484375,-183.10546875,-56.640625,136.71875,0.0
22.66796875,-33.69140625,-24.90234375,-137.6953125,-38.0859375,106.4453125,0.0
22.671875,-35.15625,-33.203125,-92.28515625,-37.109375,54.6875,0.0
22.67578125,-41.015625,-29.78515625,-13.18359375,-56.15234375,24.4140625,0.0
22.6796875,-30.76171875,-17.08984375,1.46484375,-50.78125,0.0,0.0
22.68359375,-14.6484375,-15.625,-125.9765625,-57.12890625,13.18359375,0.0
22.6875,-20.01953125,-17.578125,-214.35546875,-45.41015625,-27.83203125,0.0
22.69140625,-3.90625,-23.92578125,-71.77734375,-33.203125,-27.34375,0.0
22.6953125,4.39453125,-26.85546875,125.0,-37.59765625,11.23046875,0.0
22.69921875,-34.1796875,-24.90234375,49.31640625,-58.10546875,49.8046875,0.0
22.703125,-36.1328125,-28.3203125,-126.46484375,-62.5,7.8125,0.0
22.70703125,-37.109375,-21.97265625,-185.05859375,-59.08203125,-87.890625,0.0
22.7109375,-30.2734375,-7.8125,0.0,-46.38671875,-173.828125,0.0
22.71484375,-27.34375,-11.23046875,104.00390625,-32.71484375,-157.2265625,0.0
22.71875,-36.62109375,-25.87890625,-62.98828125,-33.203125,-59.08203125,0.0
22.72265625,-30.76171875,-30.2734375,-167.48046875,-27.34375,17.08984375,0.0
22.7265625,-34.66796875,-29.78515625,-197.75390625,-38.0859375,-7.8125,0.0
22.73046875,-30.76171875,-27.83203125,-98.14453125,-41.015625,-53.7109375,0.0
22.734375,-15.13671875,-25.87890625,52.734375,-25.390625,4.39453125,0.0
22.73828125,-26.3671875,-21.97265625,70.80078125,-30.76171875,70.3125,0.0
22.7421875,-35.64453125,-22.4609375,-12.6953125,-38.57421875,-0.48828125,0.0
22.74609375,-35.15625,-27.83203125,-198.2421875,-32.2265625,-65.4296875,0.0
22.75,-48.33984375,-28.80859375,-153.80859375,-28.80859375,3.90625,0.0
22.75390625,-37.59765625,-26.3671875,11.71875,-34.1796875,17.08984375,0.0
22.7578125,-17.578125,-28.80859375,104.98046875,-41.015625,-44.43359375,0.0
22.76171875,-24.90234375,-30.76171875,-53.7109375,-50.78125,-41.9921875,0.0
22.765625,-20.5078125,-32.2265625,-294.43359375,-41.50390625,-32.2265625,0.0
22.76953125,-12.6953125,-30.76171875,-204.1015625,-33.203125,-63.4765625,0.0
22.7734375,-24.90234375,-31.73828125,17.08984375,-35.64453125,-44.43359375,0.0
22.77734375,-23.4375,-35.15625,85.44921875,-39.55078125,-64.94140625,0.0
22.78125,-26.85546875,-30.2734375,-92.7734375,-51.7578125,-100.5859375,0.0
22.78515625,-35.15625,-26.85546875,-219.23828125,-46.38671875,-81.54296875,0.0
22.7890625,-43.9453125,-23.4375,-116.2109375,-36.1328125,-137.20703125,0.0
22.79296875,-35.64453125,-20.99609375,55.17578125,-30.76171875,-135.7421875,0.0
22.796875,-32.2265625,-22.94921875,73.73046875,-34.66796875,-17.08984375,0.0
22.80078125,-37.109375,-26.3671875,-116.69921875,-43.9453125,-5.859375,0.0
22.8046875,-34.66796875,-23.92578125,-143.06640625,-37.59765625,22.94921875,0.0
22.80859375,-37.109375,-30.76171875,-133.7890625,-46.38671875,17.08984375,0.0
22.8125,-27.34375,-43.45703125,-100.5859375,-51.26953125,-14.16015625,0.0
22.81640625,-30.2734375,-46.875,25.390625,-51.7578125,-13.18359375,0.0
22.8203125,-33.69140625,-38.0859375,-17.578125,-52.734375,-45.8984375,0.0
22.82421875,-29.296875,-28.80859375,-169.921875,-38.0859375,-26.3671875,0.0
22.828125,-52.24609375,-21.484375,-231.4453125,-39.0625,-11.71875,0.0
22.83203125,-40.0390625,-22.94921875,15.13671875,-53.7109375,-6.8359375,0.0
22.8359375,-19.53125,-24.4140625,130.859375,-48.828125,-6.8359375,0.0
22.83984375,-28.80859375,-26.85546875,-59.08203125,-45.8984375,-9.765625,0.0
22.84375,-30.76171875,-25.390625,-230.46875,-42.48046875,39.0625,0.0
22.84765625,-21.484375,-24.90234375,-198.73046875,-31.73828125,40.0390625,0.0
22.8515625,-18.06640625,-33.69140625,31.25,-41.015625,5.37109375,0.0
22.85546875,-32.71484375,-34.66796875,92.7734375,-47.36328125,-64.94140625,0.0
22.859375,-18.5546875,-36.1328125,-65.4296875,-28.80859375,-70.80078125,0.0
22.86328125,-2.9296875,-35.64453125,-195.3125,0.9765625,-62.01171875,0.0
22.8671875,-19.53125,-23.92578125,-181.15234375,-22.4609375,-39.55078125,0.0
22.87109375,-5.859375,-24.90234375,-45.8984375,-62.98828125,-10.7421875,0.0
22.875,-1.953125,-35.15625,91.30859375,-55.6640625,-3.41796875,0.0
22.87890625,-0.9765625,-25.87890625,30.76171875,-41.9921875,29.296875,0.0
22.8828125,0.0,-23.4375,-112.79296875,-47.36328125,-6.34765625,0.0
22.88671875,-10.25390625,-27.83203125,-173.828125,-54.19921875,-24.90234375,0.0
22.890625,1.953125,-24.4140625,-83.984375,-55.6640625,-3.41796875,0.0
22.89453125,30.76171875,-28.80859375,63.4765625,-37.109375,-95.703125,0.0
22.8984375,16.6015625,-24.90234375,115.72265625,-26.3671875,-162.59765625,0.0
22.90234375,-13.671875,-22.4609375,-114.2578125,-34.1796875,-80.56640625,0.0
22.90625,-0.9765625,-23.4375,-228.02734375,-39.55078125,-45.41015625,0.0
22.91015625,17.08984375,-24.90234375,-131.8359375,-22.94921875,-74.70703125,0.0
22.9140625,24.4140625,-20.99609375,16.6015625,-13.671875,-81.0546875,0.0
22.91796875,19.53125,-18.06640625,63.4765625,-25.87890625,-79.1015625,0.0
22.921875,6.8359375,-22.94921875,-131.8359375,-25.390625,-87.40234375,0.0
22.92578125,-8.7890625,-24.90234375,-200.68359375,-29.296875,-36.62109375,0.0
22.9296875,-16.6015625,-18.06640625,-94.7265625,-47.8515625,-54.19921875,0.0
22.93359375,-19.53125,-12.20703125,41.015625,-52.734375,-41.50390625,0.0
22.9375,-29.78515625,-20.99609375,83.49609375,-47.36328125,17.578125,0.0
22.94140625,-26.85546875,-21.484375,-88.37890625,-46.38671875,-55.6640625,0.0
22.9453125,-31.73828125,-15.625,-166.50390625,-48.33984375,-33.69140625,0.0
22.94921875,-44.43359375,-15.13671875,-125.0,-45.41015625,-14.16015625,0.0
22.953125,-22.4609375,-16.6015625,11.23046875,-18.06640625,-55.17578125,0.0
22.95703125,-10.7421875,-15.13671875,115.234375,-28.3203125,60.05859375,0.0
22.9609375,-31.73828125,-18.06640625,-10.25390625,-76.66015625,118.65234375,0.0
22.96484375,-37.59765625,-22.4609375,-243.65234375,-59.5703125,-4.8828125,0.0
22.96875,-4.8828125,-19.04296875,-262.20703125,-4.8828125,-81.0546875,0.0
22.97265625,21.484375,-26.3671875,27.34375,4.8828125,-77.63671875,0.0
22.9765625,-23.4375,-31.73828125,189.453125,-32.71484375,-16.11328125,0.0
22.98046875,-47.8515625,-27.83203125,-41.015625,-59.5703125,28.3203125,0.0
22.984375,-38.0859375,-27.83203125,-285.15625,-60.05859375,-46.875,0.0
22.98828125,-49.31640625,-31.25,-256.8359375,-55.17578125,-164.0625,0.0
22.9921875,-29.78515625,-20.5078125,41.9921875,-44.43359375,-110.83984375,0.0
22.99609375,-24.4140625,-16.11328125,225.5859375,-36.1328125,-20.5078125,0.0
23.0,-41.015625,-35.15625,-13.18359375,-29.296875,-4.8828125,0.0
23.00390625,-33.203125,-34.66796875,-269.04296875,-15.625,7.8125,0.0
23.0078125,-41.015625,-26.85546875,-188.4765625,-20.01953125,-18.5546875,0.0
23.01171875,-56.640625,-28.80859375,36.62109375,-29.296875,-19.04296875,0.0
23.015625,-49.31640625,-34.1796875,222.16796875,-39.0625,70.80078125,0.0
23.01953125,-38.57421875,-39.0625,125.0,-36.62109375,111.328125,0.0
23.0234375,-38.57421875,-33.203125,-192.3828125,-35.15625,-53.7109375,0.0
23.02734375,-14.6484375,-32.71484375,-219.7265625,-35.15625,-60.546875,0.0
23.03125,-28.3203125,-38.57421875,30.76171875,-33.203125,-45.41015625,0.0
23.03515625,-49.8046875,-36.1328125,187.98828125,-41.50390625,-127.44140625,0.0
23.0390625,-30.2734375,-33.69140625,198.73046875,-39.55078125,-79.58984375,0.0
23.04296875,-21.97265625,-33.69140625,-81.0546875,-22.94921875,-79.1015625,0.0
23.046875,-33.203125,-33.69140625,-294.921875,-35.64453125,-29.296875,0.0
23.05078125,-44.43359375,-33.203125,-76.171875,-51.26953125,-20.5078125,0.0
23.0546875,-39.55078125,-24.90234375,165.0390625,-32.71484375,53.7109375,0.0
23.05859375,-32.2265625,-28.3203125,127.9296875,-23.4375,19.04296875,0.0
23.0625,-41.015625,-30.76171875,-137.20703125,-38.0859375,-40.0390625,0.0
23.06640625,-39.0625,-25.390625,-254.8828125,-58.10546875,41.015625,0.0
23.0703125,-34.1796875,-26.85546875,-37.109375,-64.453125,-136.23046875,0.0
23.07421875,-30.76171875,-22.94921875,205.56640625,-51.26953125,-165.0390625,0.0
23.078125,-36.62109375,-14.6484375,124.51171875,-45.8984375,-23.92578125,0.0
23.08203125,-28.80859375,-15.13671875,-149.90234375,-37.109375,-97.16796875,0.0
23.0859375,-21.97265625,-19.04296875,-164.55078125,-37.59765625,-127.9296875,0.0
23.08984375,-29.78515625,-24.90234375,-43.9453125,-44.43359375,-49.8046875,0.0
23.09375,-26.3671875,-29.296875,37.109375,-29.296875,-46.875,0.0
23.09765625,-10.7421875,-23.4375,137.20703125,-20.5078125,-126.953125,0.0
23.1015625,-15.13671875,-20.99609375,-3.90625,-27.83203125,-22.4609375,0.0
23.10546875,-44.921875,-26.85546875,-234.86328125,-38.0859375,45.8984375,0.0
23.109375,-44.43359375,-23.4375,-132.32421875,-27.34375,-16.6015625,0.0
23.11328125,-36.1328125,-19.53125,185.546875,-40.52734375,5.37109375,0.0
23.1171875,-40.0390625,-15.625,210.9375,-50.29296875,67.87109375,0.0
23.12109375,-38.57421875,-19.53125,-62.98828125,-24.4140625,91.796875,0.0
23.125,-20.5078125,-23.4375,-265.625,-14.16015625,10.7421875,0.0
23.12890625,-20.01953125,-16.6015625,-110.83984375,-17.578125,-10.7421875,0.0
23.1328125,-34.66796875,-22.94921875,226.07421875,-33.203125,-2.44140625,0.0
23.13671875,-24.4140625,-29.296875,189.453125,-27.83203125,-61.03515625,0.0
23.140625,-38.57421875,-29.78515625,-123.53515625,-16.11328125,-33.69140625,0.0
23.14453125,-40.52734375,-28.3203125,-308.10546875,-39.0625,55.6640625,0.0
23.1484375,-13.18359375,-30.76171875,-151.85546875,-39.55078125,49.31640625,0.0
23.15234375,-11.71875,-32.2265625,104.98046875,-31.25,32.2265625,0.0
23.15625,-23.4375,-30.76171875,194.3359375,-28.80859375,-51.7578125,0.0
23.16015625,-20.5078125,-35.15625,67.87109375,-17.578125,-32.2265625,0.0
23.1640625,-20.99609375,-35.64453125,-171.875,-36.62109375,12.6953125,0.0
23.16796875,-20.99609375,-38.0859375,-165.52734375,-46.875,10.7421875,0.0
23.171875,-31.25,-42.96875,55.6640625,-33.203125,-39.0625,0.0
23.17578125,-16.11328125,-41.9921875,187.01171875,-32.2265625,-163.0859375,0.0
23.1796875,1.46484375,-32.71484375,165.52734375,-35.64453125,-118.65234375,0.0
23.18359375,-14.6484375,-34.1796875,-87.40234375,-33.203125,-43.45703125,0.0
23.1875,-16.6015625,-38.57421875,-292.96875,-34.66796875,-70.80078125,0.0
23.19140625,-11.23046875,-34.66796875,-84.9609375,-36.62109375,-155.76171875,0.0
23.1953125,-14.6484375,-37.109375,175.29296875,-46.38671875,-81.54296875,0.0
23.19921875,-21.484375,-41.015625,109.86328125,-39.0625,22.4609375,0.0
23.203125,-16.6015625,-43.45703125,-150.87890625,-38.57421875,-39.0625,0.0
23.20703125,-28.80859375,-41.015625,-186.03515625,-38.0859375,-45.41015625,0.0
23.2109375,-37.59765625,-37.109375,9.765625,-36.1328125,-9.765625,0.0
23.21484375,-19.04296875,-36.1328125,117.67578125,-39.55078125,-57.6171875,0.0
23.21875,-16.11328125,-32.2265625,80.56640625,-32.2265625,-90.33203125,0.0
23.22265625,-14.6484375,-25.390625,-138.671875,-26.85546875,-29.296875,0.0
23.2265625,-17.08984375,-24.4140625,-175.78125,-22.4609375,-93.26171875,0.0
23.23046875,-19.04296875,-29.296875,-45.8984375,-23.92578125,-173.828125,0.0
23.234375,17.578125,-34.1796875,64.453125,-21.97265625,-100.09765625,0.0
23.23828125,29.78515625,-38.57421875,100.09765625,-6.34765625,16.6015625,0.0
23.2421875,-25.390625,-36.62109375,-102.5390625,-19.04296875,77.63671875,0.0
23.24609375,-57.6171875,-26.85546875,-298.33984375,-60.05859375,92.7734375,0.0
23.25,-34.1796875,-25.390625,-156.73828125,-41.50390625,61.03515625,0.0
23.25390625,6.8359375,-32.71484375,113.28125,-3.41796875,-23.4375,0.0
23.2578125,17.578125,-28.3203125,145.01953125,-5.859375,-27.83203125,0.0
23.26171875,-4.8828125,-29.296875,-62.5,-16.6015625,-16.6015625,0.0
23.265625,-19.04296875,-33.203125,-265.625,-24.90234375,3.90625,0.0
23.26953125,-16.6015625,-39.0625,-144.04296875,-32.71484375,10.7421875,0.0
23.2734375,-16.11328125,-29.78515625,197.75390625,-37.109375,53.22265625,0.0
23.27734375,-10.7421875,-24.4140625,224.609375,-37.109375,49.31640625,0.0
23.28125,-10.7421875,-39.0625,-99.12109375,-38.0859375,21.97265625,0.0
23.28515625,-7.8125,-37.109375,-302.24609375,-26.3671875,26.3671875,0.0
23.2890625,5.859375,-27.83203125,-159.1796875,-25.87890625,-17.578125,0.0
23.29296875,-16.11328125,-22.94921875,97.16796875,-34.1796875,-34.1796875,0.0
23.296875,-31.25,-26.3671875,179.6875,-33.203125,-3.90625,0.0
23.30078125,-23.92578125,-28.80859375,34.1796875,-44.43359375,-18.5546875,0.0
23.3046875,-30.76171875,-26.85546875,-223.14453125,-37.109375,-86.9140625,0.0
23.30859375,-28.3203125,-28.3203125,-223.14453125,-24.4140625,-64.94140625,0.0
23.3125,-15.13671875,-31.73828125,69.82421875,-34.1796875,-2.9296875,0.0
23.31640625,-12.20703125,-33.69140625,222.65625,-32.2265625,-55.17578125,0.0
23.3203125,-23.4375,-33.69140625,110.83984375,-32.2265625,-27.83203125,0.0
23.32421875,-18.06640625,-28.80859375,-166.015625,-33.69140625,43.45703125,0.0
23.328125,-16.6015625,-36.1328125,-260.25390625,-26.3671875,-16.6015625,0.0
23.33203125,-23.92578125,-48.33984375,-35.64453125,-29.296875,-32.71484375,0.0
23.3359375,-11.71875,-36.1328125,187.5,-42.48046875,-50.78125,0.0
23.33984375,-12.20703125,-30.76171875,100.5859375,-53.7109375,-66.40625,0.0
23.34375,-18.06640625,-35.64453125,-213.8671875,-55.17578125,-33.203125,0.0
23.34765625,-10.7421875,-39.0625,-254.39453125,-46.875,-46.38671875,0.0
23.3515625,-9.765625,-41.015625,85.9375,-42.48046875,-60.05859375,0.0
23.35546875,-25.87890625,-44.43359375,181.640625,-44.921875,-118.1640625,0.0
23.359375,-30.76171875,-47.36328125,17.578125,-39.0625,-193.84765625,0.0
23.36328125,-23.4375,-44.921875,-164.55078125,-40.0390625,-118.65234375,0.0
23.3671875,-37.59765625,-36.62109375,-143.5546875,-38.57421875,-31.73828125,0.0
23.37109375,-27.83203125,-41.50390625,2.9296875,-36.62109375,-40.52734375,0.0
23.375,-24.4140625,-49.8046875,78.125,-41.015625,-164.55078125,0.0
23.37890625,-36.1328125,-50.29296875,35.64453125,-38.0859375,-223.14453125,0.0
23.3828125,-16.11328125,-39.55078125,-172.36328125,-28.80859375,-112.79296875,0.0
23.38671875,-20.01953125,-29.78515625,-235.3515625,-32.71484375,-45.8984375,0.0
23.390625,-20.99609375,-42.96875,-71.2890625,-30.2734375,-17.08984375,0.0
23.39453125,-12.6953125,-42.48046875,127.44140625,-19.04296875,53.22265625,0.0
23.3984375,-13.18359375,-35.15625,160.64453125,-38.57421875,63.96484375,0.0
23.40234375,-29.296875,-44.43359375,-129.39453125,-52.24609375,-7.32421875,0.0
23.40625,-38.0859375,-40.52734375,-267.08984375,-48.33984375,-30.2734375,0.0
23.41015625,-33.203125,-37.59765625,-144.53125,-39.0625,-73.73046875,0.0
23.4140625,-46.38671875,-45.41015625,115.234375,-31.73828125,-53.22265625,0.0
23.41796875,-62.5,-37.59765625,107.91015625,-61.03515625,12.6953125,0.0
23.421875,-51.26953125,-26.3671875,-161.1328125,-62.01171875,30.76171875,0.0
23.42578125,-38.57421875,-41.50390625,-291.50390625,-52.734375,-13.671875,0.0
23.4296875,-37.59765625,-45.41015625,-159.1796875,-61.5234375,-34.66796875,0.0
23.43359375,-16.6015625,-38.0859375,171.38671875,-30.76171875,-36.1328125,0.0
23.4375,-4.39453125,-41.015625,187.98828125,-22.94921875,-76.171875,0.0
23.44140625,-25.390625,-41.9921875,-99.12109375,-44.921875,-74.70703125,0.0
23.4453125,-22.94921875,-36.62109375,-254.39453125,-48.33984375,-45.41015625,0.0
23.44921875,-10.7421875,-40.52734375,-152.83203125,-40.0390625,-135.7421875,0.0
23.453125,-7.8125,-41.9921875,61.5234375,-32.2265625,-72.265625,0.0
23.45703125,-15.13671875,-36.62109375,165.0390625,-37.109375,-3.90625,0.0
23.4609375,-27.34375,-34.66796875,44.43359375,-37.59765625,-122.0703125,0.0
23.46484375,-32.71484375,-40.0390625,-143.5546875,-41.9921875,-106.93359375,0.0
23.46875,-35.64453125,-43.45703125,-218.26171875,-39.0625,12.20703125,0.0
23.47265625,-36.62109375,-35.64453125,-63.96484375,-28.80859375,19.53125,0.0
23.4765625,-29.78515625,-41.015625,156.25,-28.3203125,-47.36328125,0.0
23.48046875,-26.85546875,-44.921875,41.50390625,-27.34375,8.30078125,0.0
23.484375,-18.5546875,-42.96875,-202.63671875,-11.23046875,-34.66796875,0.0
23.48828125,-21.97265625,-40.0390625,-163.0859375,-18.06640625,-28.80859375,0.0
23.4921875,-41.015625,-33.69140625,92.28515625,-47.8515625,26.85546875,0.0
23.49609375,-44.921875,-34.66796875,153.80859375,-43.9453125,-12.6953125,0.0
23.5,-41.015625,-42.96875,-6.8359375,-34.66796875,-56.15234375,0.0
23.50390625,-31.25,-40.0390625,-245.1171875,-32.2265625,-32.2265625,0.0
23.5078125,-39.0625,-27.83203125,-160.15625,-36.62109375,-3.90625,0.0
23.51171875,-45.8984375,-29.296875,35.64453125,-61.5234375,-57.6171875,0.0
23.515625,-35.15625,-34.1796875,98.6328125,-61.03515625,-60.05859375,0.0
23.51953125,-39.0625,-41.015625,45.8984375,-55.6640625,-42.48046875,0.0
23.5234375,-46.38671875,-41.9921875,-174.8046875,-54.6875,-21.97265625,0.0
23.52734375,-47.8515625,-39.55078125,-230.46875,-50.29296875,-39.0625,0.0
23.53125,-42.96875,-46.38671875,-18.06640625,-42.96875,-77.63671875,0.0
23.53515625,-39.55078125,-43.9453125,129.39453125,-42.48046875,-57.6171875,0.0
23.5390625,-44.43359375,-39.55078125,59.08203125,-50.78125,-8.30078125,0.0
23.54296875,-40.52734375,-29.296875,-156.73828125,-51.7578125,53.22265625,0.0
23.546875,-37.109375,-34.1796875,-278.80859375,-44.43359375,-4.39453125,0.0
23.55078125,-24.90234375,-44.43359375,-121.58203125,-36.1328125,-57.6171875,0.0
23.5546875,-26.85546875,-33.203125,194.3359375,-33.69140625,-47.36328125,0.0
23.55859375,-48.828125,-27.83203125,150.390625,-41.9921875,-41.9921875,0.0
23.5625,-36.62109375,-28.80859375,-229.4921875,-27.83203125,-45.41015625,0.0
23.56640625,-33.69140625,-29.296875,-308.10546875,-28.3203125,-44.921875,0.0
23.5703125,-39.0625,-27.83203125,-75.1953125,-48.33984375,-9.27734375,0.0
23.57421875,-26.85546875,-37.109375,153.3203125,-34.1796875,-53.7109375,0.0
23.578125,-35.64453125,-33.203125,62.01171875,-24.90234375,-106.93359375,0.0
23.58203125,-44.921875,-36.1328125,-116.2109375,-42.96875,-68.359375,0.0
23.5859375,-26.3671875,-37.109375,-231.93359375,-39.0625,-64.453125,0.0
23.58984375,-17.08984375,-20.01953125,-172.36328125,-34.1796875,-69.3359375,0.0
23.59375,-23.92578125,-23.92578125,78.125,-57.12890625,-41.50390625,0.0
23.59765625,-33.69140625,-22.4609375,101.5625,-66.89453125,-28.3203125,0.0
23.6015625,-47.36328125,-16.11328125,-9.27734375,-49.31640625,-33.203125,0.0
23.60546875,-69.3359375,-22.4609375,-221.6796875,-54.19921875,53.22265625,0.0
23.609375,-80.078125,-37.109375,-210.44921875,-82.03125,31.73828125,0.0
23.61328125,-96.6796875,-39.55078125,72.75390625,-114.2578125,-17.578125,0.0
23.6171875,-157.71484375,-27.34375,176.7578125,-172.8515625,-0.9765625,0.0
23.62109375,-207.51953125,-19.53125,-39.55078125,-219.23828125,-9.765625,0.0
23.625,-220.21484375,-16.11328125,-274.4140625,-250.0,-1.46484375,0.0
23.62890625,-231.93359375,-18.06640625,-158.69140625,-261.71875,-55.17578125,0.0
23.6328125,-239.74609375,-18.06640625,76.171875,-274.90234375,-82.51953125,0.0
23.63671875,-255.37109375,-24.4140625,153.80859375,-294.921875,-97.16796875,0.0
23.640625,-279.78515625,-32.71484375,-34.66796875,-308.10546875,-120.60546875,0.0
23.64453125,-288.0859375,-27.34375,-245.1171875,-312.5,-138.671875,0.0
23.6484375,-263.18359375,-22.4609375,-128.41796875,-288.0859375,-112.79296875,0.0
23.65234375,-241.69921875,-31.73828125,76.171875,-263.671875,-71.77734375,0.0
23.65625,-236.81640625,-41.015625,87.40234375,-277.34375,-82.03125,0.0
23.66015625,-217.28515625,-35.15625,-51.7578125,-236.328125,-48.828125,0.0
23.6640625,-192.87109375,-29.296875,-239.2578125,-187.5,-14.6484375,0.0
23.66796875,-167.96875,-31.25,-259.27734375,-197.265625,20.5078125,0.0
23.671875,-153.80859375,-35.15625,-85.44921875,-183.10546875,29.296875,0.0
23.67578125,-135.7421875,-37.59765625,80.56640625,-162.109375,-44.921875,0.0
23.6796875,-105.46875,-22.4609375,-33.69140625,-154.78515625,-96.6796875,0.0
23.68359375,-85.44921875,-13.671875,-322.265625,-134.765625,-1.46484375,0.0
23.6875,-70.80078125,-37.59765625,-401.3671875,-92.28515625,35.64453125,0.0
23.69140625,-54.19921875,-42.96875,-147.94921875,-73.2421875,-19.53125,0.0
23.6953125,-40.0390625,-25.390625,155.76171875,-74.70703125,20.99609375,0.0
23.69921875,-31.25,-34.1796875,-0.48828125,-61.03515625,-41.9921875,0.0
23.703125,-16.11328125,-45.8984375,-325.68359375,-44.43359375,-114.2578125,0.0
23.70703125,-4.39453125,-43.9453125,-313.4765625,-26.85546875,-29.78515625,0.0
23.7109375,11.23046875,-42.48046875,-44.43359375,-7.32421875,-24.4140625,0.0
23.71484375,20.99609375,-42.48046875,104.98046875,4.39453125,-75.1953125,0.0
23.71875,24.4140625,-44.43359375,39.55078125,-0.48828125,-81.0546875,0.0
23.72265625,22.94921875,-45.8984375,-193.84765625,-3.90625,-25.390625,0.0
23.7265625,32.71484375,-39.0625,-285.15625,19.04296875,33.203125,0.0
23.73046875,36.1328125,-41.50390625,-67.3828125,20.5078125,58.59375,0.0
23.734375,20.5078125,-45.41015625,125.48828125,20.99609375,83.0078125,0.0
23.73828125,26.85546875,-37.109375,87.890625,20.5078125,130.37109375,0.0
23.7421875,35.64453125,-33.203125,-114.2578125,10.25390625,34.1796875,0.0
23.74609375,31.73828125,-39.0625,-255.37109375,13.671875,-72.265625,0.0
23.75,37.59765625,-42.48046875,-174.8046875,17.578125,-60.546875,0.0
23.75390625,54.6875,-34.66796875,48.828125,25.390625,-74.70703125,0.0
23.7578125,41.9921875,-26.85546875,184.5703125,30.76171875,-61.5234375,0.0
23.76171875,29.78515625,-29.78515625,-24.4140625,31.25,-56.640625,0.0
23.765625,31.25,-30.76171875,-238.28125,23.4375,-52.734375,0.0
23.76953125,20.99609375,-29.296875,-89.84375,17.578125,-97.65625,0.0
23.7734375,17.08984375,-30.76171875,177.24609375,14.6484375,-152.83203125,0.0
23.77734375,26.85546875,-35.15625,155.76171875,11.71875,-88.8671875,0.0
23.78125,26.85546875,-35.64453125,-64.94140625,14.16015625,-67.3828125,0.0
23.78515625,15.13671875,-25.390625,-228.02734375,12.6953125,-70.3125,0.0
23.7890625,20.5078125,-21.97265625,-90.33203125,10.7421875,14.6484375,0.0
23.79296875,27.34375,-20.5078125,151.85546875,33.203125,-25.390625,0.0
23.796875,30.2734375,-38.0859375,123.046875,15.625,-177.24609375,0.0
23.80078125,14.16015625,-53.22265625,-128.90625,-30.76171875,-203.61328125,0.0
23.8046875,6.34765625,-44.921875,-229.4921875,-22.94921875,-183.59375,0.0
23.80859375,14.6484375,-41.9921875,-163.0859375,-14.16015625,-161.62109375,0.0
23.8125,0.9765625,-27.83203125,48.33984375,-19.53125,-22.94921875,0.0
23.81640625,4.8828125,-26.85546875,202.1484375,-14.6484375,29.78515625,0.0
23.8203125,9.27734375,-35.64453125,56.640625,-19.04296875,-40.52734375,0.0
23.82421875,6.34765625,-36.62109375,-224.609375,-28.80859375,16.6015625,0.0
23.828125,4.39453125,-41.9921875,-203.61328125,-24.4140625,9.765625,0.0
23.83203125,9.27734375,-33.69140625,30.76171875,-8.7890625,-11.71875,0.0
23.8359375,10.25390625,-21.97265625,312.5,0.0,-1.46484375,0.0
23.83984375,2.44140625,-33.69140625,170.41015625,-12.20703125,-48.828125,0.0
23.84375,-9.27734375,-41.015625,-270.99609375,-18.06640625,-50.78125,0.0
23.84765625,-29.296875,-40.52734375,-270.01953125,-24.4140625,-81.54296875,0.0
23.8515625,-10.25390625,-38.0859375,93.75,-23.4375,-76.66015625,0.0
23.85546875,4.8828125,-34.1796875,229.98046875,-11.23046875,33.203125,0.0
23.859375,-15.13671875,-30.76171875,16.11328125,-19.04296875,-12.6953125,0.0
23.86328125,-17.578125,-32.2265625,-149.90234375,-41.9921875,-124.51171875,0.0
23.8671875,-2.44140625,-27.34375,-192.3828125,-40.0390625,-95.703125,0.0
23.87109375,-12.6953125,-25.87890625,-75.68359375,-44.921875,-76.66015625,0.0
23.875,-17.578125,-27.34375,80.56640625,-59.5703125,-96.19140625,0.0
23.87890625,-5.37109375,-20.01953125,5.859375,-39.0625,-64.453125,0.0
23.8828125,-0.9765625,-18.5546875,-97.16796875,-22.94921875,-62.01171875,0.0
23.88671875,-8.7890625,-22.94921875,-185.546875,-27.83203125,-67.87109375,0.0
23.890625,-7.32421875,-29.296875,-129.8828125,-26.85546875,-54.6875,0.0
23.89453125,-13.18359375,-34.1796875,144.04296875,-31.25,23.4375,0.0
23.8984375,-20.5078125,-35.15625,176.26953125,-29.296875,99.12109375,0.0
23.90234375,2.44140625,-38.57421875,-121.09375,-21.97265625,56.15234375,0.0
23.90625,-11.23046875,-35.64453125,-229.4921875,-32.2265625,9.765625,0.0
23.91015625,-34.66796875,-39.0625,-92.28515625,-42.48046875,17.578125,0.0
23.9140625,-25.87890625,-30.2734375,83.984375,-55.6640625,17.578125,0.0
23.91796875,-27.83203125,-28.80859375,150.87890625,-58.10546875,32.2265625,0.0
23.921875,-38.57421875,-40.0390625,-94.23828125,-46.38671875,40.0390625,0.0
23.92578125,-28.80859375,-34.1796875,-320.3125,-43.9453125,10.7421875,0.0
23.9296875,-25.390625,-24.90234375,-99.12109375,-44.43359375,-29.78515625,0.0
23.93359375,-40.52734375,-26.85546875,147.4609375,-46.38671875,5.859375,0.0
23.9375,-22.94921875,-30.2734375,83.49609375,-42.96875,86.42578125,0.0
23.94140625,-20.01953125,-34.1796875,-109.375,-31.25,-53.22265625,0.0
23.9453125,-41.015625,-38.0859375,-260.7421875,-47.36328125,-163.57421875,0.0
23.94921875,-28.3203125,-35.64453125,-107.421875,-60.546875,-109.86328125,0.0
23.953125,-24.4140625,-36.62109375,109.375,-44.43359375,-121.09375,0.0
23.95703125,-18.5546875,-33.203125,178.22265625,-36.62109375,-102.05078125,0.0
23.9609375,-18.5546875,-26.85546875,75.68359375,-46.38671875,-41.015625,0.0
23.96484375,-22.4609375,-30.2734375,-217.7734375,-40.52734375,-33.69140625,0.0
23.96875,0.48828125,-31.25,-226.07421875,-19.04296875,-64.453125,0.0
23.97265625,-1.46484375,-23.92578125,77.1484375,-26.3671875,-63.96484375,0.0
23.9765625,-28.80859375,-25.390625,221.19140625,-48.33984375,-39.55078125,0.0
23.98046875,-31.25,-30.76171875,-28.3203125,-55.6640625,-44.43359375,0.0
23.984375,-24.90234375,-36.62109375,-347.65625,-53.22265625,-47.8515625,0.0
23.98828125,-34.66796875,-34.1796875,-237.79296875,-35.15625,16.6015625,0.0
23.9921875,-36.1328125,-26.85546875,107.91015625,-29.78515625,71.2890625,0.0
23.99609375,-33.69140625,-25.390625,215.33203125,-44.43359375,67.3828125,0.0
24.0,-38.0859375,-28.3203125,42.48046875,-56.640625,20.5078125,0.0
24.00390625,-37.109375,-30.2734375,-190.91796875,-52.734375,41.015625,0.0
24.0078125,-23.92578125,-21.97265625,-135.7421875,-43.9453125,-35.15625,0.0
24.01171875,-4.39453125,-22.4609375,108.3984375,-45.8984375,-130.859375,0.0
24.015625,-6.34765625,-37.109375,278.3203125,-46.875,-61.03515625,0.0
24.01953125,-4.39453125,-31.25,154.78515625,-37.59765625,-44.921875,0.0
24.0234375,3.90625,-13.18359375,-130.37109375,-34.1796875,-91.796875,0.0
24.02734375,-2.9296875,-15.625,-247.0703125,-32.71484375,-46.38671875,0.0
24.03125,-28.3203125,-25.87890625,-93.75,-29.296875,-8.7890625,0.0
24.03515625,-28.3203125,-32.2265625,120.60546875,-32.2265625,2.9296875,0.0
24.0390625,-20.5078125,-33.203125,79.58984375,-42.48046875,52.24609375,0.0
24.04296875,-21.97265625,-31.25,-184.5703125,-27.34375,26.3671875,0.0
24.046875,-26.3671875,-33.69140625,-336.9140625,-29.78515625,-45.8984375,0.0
24.05078125,-41.9921875,-28.80859375,-66.89453125,-46.875,-8.7890625,0.0
24.0546875,-33.69140625,-29.78515625,174.8046875,-43.45703125,26.3671875,0.0
24.05859375,-27.34375,-41.9921875,52.24609375,-61.03515625,-58.10546875,0.0
24.0625,-53.22265625,-36.1328125,-208.0078125,-59.08203125,-40.0390625,0.0
24.06640625,-53.22265625,-27.83203125,-291.9921875,-41.50390625,-10.25390625,0.0
24.0703125,-36.1328125,-28.3203125,-70.3125,-41.9921875,-96.6796875,0.0
24.07421875,-35.64453125,-36.62109375,156.73828125,-41.50390625,-81.0546875,0.0
24.078125,-34.66796875,-47.8515625,77.1484375,-41.015625,43.9453125,0.0
24.08203125,-28.80859375,-40.0390625,-215.33203125,-43.9453125,78.125,0.0
24.0859375,-14.6484375,-34.1796875,-279.78515625,-46.38671875,18.06640625,0.0
24.08984375,-17.08984375,-41.015625,-148.4375,-45.41015625,-87.40234375,0.0
24.09375,-29.78515625,-33.203125,50.29296875,-51.26953125,-39.55078125,0.0
24.09765625,-19.04296875,-24.4140625,94.23828125,-53.7109375,42.96875,0.0
24.1015625,-22.4609375,-32.71484375,-129.39453125,-55.17578125,4.39453125,0.0
24.10546875,-29.78515625,-42.96875,-295.8984375,-42.48046875,23.4375,0.0
24.109375,-32.2265625,-54.19921875,-184.08203125,-43.45703125,-21.97265625,0.0
24.11328125,-41.015625,-53.7109375,63.4765625,-50.29296875,-95.21484375,0.0
24.1171875,-17.578125,-40.52734375,246.09375,-42.96875,-41.50390625,0.0
24.12109375,-3.41796875,-7.32421875,22.94921875,-40.0390625,-28.3203125,0.0
24.125,-30.2734375,-15.625,-324.70703125,-44.921875,-14.16015625,0.0
24.12890625,-51.26953125,-40.0390625,-195.3125,-44.921875,-7.32421875,0.0
24.1328125,-30.2734375,6.8359375,58.10546875,-38.57421875,-100.09765625,0.0
24.13671875,-11.23046875,-17.08984375,118.65234375,-43.9453125,-85.44921875,0.0
24.140625,-16.11328125,-87.40234375,-42.48046875,-47.8515625,-46.38671875,0.0
24.14453125,-7.8125,-69.82421875,-267.08984375,-51.26953125,-59.08203125,0.0
24.1484375,1.953125,-37.59765625,-187.98828125,-44.921875,-55.6640625,0.0
24.15234375,-1.953125,-40.0390625,28.80859375,-38.57421875,-85.9375,0.0
24.15625,0.0,49.8046875,155.2734375,-32.2265625,-62.01171875,0.0
24.16015625,5.859375,6.8359375,25.87890625,-34.66796875,-24.90234375,0.0
24.1640625,-0.9765625,-118.65234375,-162.59765625,-36.62109375,20.99609375,0.0
24.16796875,-7.8125,-86.9140625,-164.0625,-41.9921875,24.90234375,0.0
24.171875,-18.5546875,-87.890625,-39.0625,-49.31640625,-22.94921875,0.0
24.17578125,-38.0859375,-63.4765625,119.62890625,-45.41015625,-19.53125,0.0
24.1796875,-27.34375,-47.8515625,98.14453125,-33.203125,11.71875,0.0
24.18359375,-23.92578125,-42.96875,-104.4921875,-26.3671875,30.2734375,0.0
24.1875,-44.921875,-38.0859375,-206.0546875,-47.8515625,33.69140625,0.0
24.19140625,-41.50390625,-16.11328125,-37.109375,-61.5234375,75.1953125,0.0
24.1953125,-31.73828125,-12.6953125,199.70703125,-42.96875,70.3125,0.0
24.19921875,-35.15625,-46.875,113.28125,-24.90234375,18.06640625,0.0
24.203125,-38.0859375,-23.4375,-164.55078125,-34.1796875,-33.69140625,0.0
24.20703125,-29.296875,-4.8828125,-291.9921875,-45.8984375,-62.01171875,0.0
24.2109375,-17.08984375,-52.734375,3.90625,-36.1328125,-20.99609375,0.0
24.21484375,-20.5078125,-53.22265625,252.9296875,-18.06640625,0.0,0.0
24.21875,-42.96875,-59.5703125,50.29296875,-21.97265625,-51.7578125,0.0
24.22265625,-45.41015625,-74.21875,-252.9296875,-37.59765625,-73.2421875,0.0
24.2265625,-32.2265625,-38.57421875,-334.9609375,-40.52734375,-70.80078125,0.0
24.23046875,-36.62109375,-29.78515625,-144.53125,-34.1796875,-118.1640625,0.0
24.234375,-18.06640625,-55.6640625,123.53515625,-29.78515625,-229.98046875,0.0
24.23828125,-7.8125,-46.875,168.45703125,-33.203125,-260.25390625,0.0
24.2421875,-40.0390625,-39.55078125,-61.03515625,-31.73828125,-155.76171875,0.0
24.24609375,-22.4609375,-42.48046875,-287.59765625,-25.390625,-118.1640625,0.0
24.25,-19.04296875,-50.29296875,-149.90234375,-28.3203125,-109.375,0.0
24.25390625,-54.19921875,-35.64453125,106.4453125,-40.52734375,-111.328125,0.0
24.2578125,-41.50390625,-24.90234375,186.03515625,-31.25,-111.81640625,0.0
24.26171875,-28.3203125,-28.80859375,-52.24609375,-19.53125,-74.21875,0.0
24.265625,-30.76171875,-31.73828125,-334.9609375,-35.64453125,-38.57421875,0.0
24.26953125,-32.2265625,-29.296875,-210.9375,-32.71484375,-150.390625,0.0
24.2734375,-31.25,-22.4609375,101.5625,-19.04296875,-81.54296875,0.0
24.27734375,-27.83203125,-31.25,208.0078125,-20.99609375,91.796875,0.0
24.28125,-27.83203125,-25.87890625,-35.64453125,-34.1796875,18.5546875,0.0
24.28515625,-34.66796875,-25.87890625,-283.203125,-48.33984375,0.0,0.0
24.2890625,-42.96875,-31.25,-148.4375,-42.48046875,30.76171875,0.0
24.29296875,-31.25,-24.90234375,128.41796875,-35.64453125,-6.34765625,0.0
24.296875,-15.13671875,-19.04296875,213.8671875,-25.87890625,4.8828125,0.0
24.30078125,-15.625,-16.6015625,-29.296875,-25.390625,5.37109375,0.0
24.3046875,-14.16015625,-8.30078125,-223.6328125,-25.87890625,47.8515625,0.0
24.30859375,-30.2734375,-2.9296875,-207.51953125,-28.3203125,107.91015625,0.0
24.3125,-58.59375,-11.71875,-56.640625,-44.43359375,19.53125,0.0
24.31640625,-26.3671875,-21.484375,139.6484375,-23.92578125,10.25390625,0.0
24.3203125,12.20703125,-29.78515625,90.8203125,11.23046875,41.9921875,0.0
24.32421875,5.37109375,-32.71484375,-198.2421875,1.46484375,47.8515625,0.0
24.328125,-4.8828125,-34.66796875,-341.30859375,-12.6953125,-5.37109375,0.0
24.33203125,-3.90625,-33.203125,-19.53125,-15.625,-67.3828125,0.0
24.3359375,-7.8125,-20.01953125,232.421875,-22.94921875,-22.4609375,0.0
24.33984375,-21.97265625,-20.01953125,36.1328125,-24.90234375,-32.71484375,0.0
24.34375,-13.18359375,-30.2734375,-247.55859375,-25.87890625,-88.37890625,0.0
24.34765625,-20.5078125,-25.87890625,-303.22265625,-27.83203125,-118.1640625,0.0
24.3515625,-36.62109375,-24.4140625,22.94921875,-31.73828125,-131.8359375,0.0
24.35546875,-21.484375,-17.578125,215.33203125,-36.62109375,-72.265625,0.0
24.359375,-16.6015625,-21.484375,47.36328125,-46.875,-60.05859375,0.0
24.36328125,-8.7890625,-40.0390625,-272.94921875,-37.59765625,-86.9140625,0.0
24.3671875,-1.46484375,-30.2734375,-317.3828125,-24.4140625,-94.23828125,0.0
24.37109375,-2.44140625,-30.2734375,-72.75390625,-35.64453125,-84.9609375,0.0
24.375,0.0,-26.3671875,149.4140625,-34.66796875,-59.5703125,0.0
24.37890625,0.48828125,-12.20703125,120.60546875,-15.625,24.90234375,0.0
24.3828125,-8.30078125,-38.0859375,-135.25390625,-9.27734375,7.8125,0.0
24.38671875,-12.6953125,-30.2734375,-288.0859375,-15.13671875,-50.29296875,0.0
24.390625,-1.953125,-20.99609375,-157.2265625,-12.6953125,73.73046875,0.0
24.39453125,7.8125,-39.0625,151.85546875,-16.6015625,77.63671875,0.0
24.3984375,-9.27734375,-30.76171875,286.62109375,-34.1796875,54.6875,0.0
24.40234375,-27.34375,-27.83203125,-82.03125,-45.41015625,32.71484375,0.0
24.40625,-18.06640625,-56.15234375,-312.98828125,-45.41015625,-93.26171875,0.0
24.41015625,-21.484375,-43.9453125,-129.39453125,-40.52734375,-6.34765625,0.0
24.4140625,-21.97265625,4.8828125,85.44921875,-33.69140625,33.203125,0.0
24.41796875,-5.859375,-10.7421875,143.5546875,-25.87890625,-71.77734375,0.0
24.421875,-8.30078125,-53.7109375,-64.94140625,-17.08984375,-72.75390625,0.0
24.42578125,-9.27734375,-27.34375,-247.0703125,-11.23046875,26.85546875,0.0
24.4296875,-8.30078125,-9.765625,-149.90234375,-21.97265625,40.0390625,0.0
24.43359375,-15.625,-43.45703125,100.5859375,-23.4375,95.703125,0.0
24.4375,-19.04296875,-38.0859375,165.52734375,-29.296875,103.02734375,0.0
24.44140625,-28.80859375,-1.46484375,-89.84375,-34.66796875,20.01953125,0.0
24.4453125,-27.83203125,-11.23046875,-215.8203125,-22.4609375,-50.78125,0.0
24.44921875,-10.25390625,-23.92578125,-128.90625,-19.53125,-93.26171875,0.0
24.453125,-7.8125,-24.4140625,25.87890625,-25.87890625,-86.42578125,0.0
24.45703125,-29.296875,-41.015625,162.59765625,-27.34375,-49.8046875,0.0
24.4609375,-38.0859375,-36.62109375,22.94921875,-28.3203125,-81.0546875,0.0
24.46484375,-36.1328125,-27.83203125,-232.91015625,-31.25,-90.8203125,0.0
24.46875,-40.0390625,-19.53125,-266.6015625,-26.3671875,-8.7890625,0.0
24.47265625,-34.66796875,-9.27734375,-5.859375,-27.83203125,-18.06640625,0.0
24.4765625,-42.96875,-21.97265625,192.87109375,-62.01171875,8.30078125,0.0
24.48046875,-41.50390625,-32.2265625,58.59375,-66.40625,-3.90625,0.0
24.484375,-29.296875,-35.15625,-247.0703125,-52.734375,-68.359375,0.0
24.48828125,-48.33984375,-27.34375,-307.12890625,-52.24609375,-57.6171875,0.0
24.4921875,-45.8984375,-12.6953125,71.2890625,-39.55078125,-47.8515625,0.0
24.49609375,-26.3671875,-15.625,256.34765625,-35.15625,-73.2421875,0.0
24.5,-31.73828125,-33.203125,-1.46484375,-41.50390625,-0.9765625,0.0
24.50390625,-42.96875,-35.64453125,-259.27734375,-31.25,56.15234375,0.0
24.5078125,-52.734375,-27.34375,-286.1328125,-36.62109375,-8.30078125,0.0
24.51171875,-44.43359375,-23.4375,-67.87109375,-37.109375,-15.13671875,0.0
24.515625,-36.1328125,-22.4609375,179.6875,-37.109375,12.6953125,0.0
24.51953125,-25.87890625,-18.06640625,207.51953125,-41.015625,-83.49609375,0.0
24.5234375,-20.5078125,-16.11328125,-58.10546875,-45.41015625,-114.74609375,0.0
24.52734375,-32.2265625,-17.578125,-313.96484375,-47.8515625,-34.1796875,0.0
24.53125,-28.3203125,-17.08984375,-185.546875,-32.2265625,-29.296875,0.0
24.53515625,-23.4375,-13.671875,104.4921875,-25.390625,-2.44140625,0.0
24.5390625,-26.85546875,-7.8125,215.33203125,-41.015625,-78.125,0.0
24.54296875,-16.11328125,-14.6484375,-107.91015625,-37.59765625,-80.56640625,0.0
24.546875,-26.3671875,-30.76171875,-387.20703125,-29.296875,-53.7109375,0.0
24.55078125,-47.8515625,-33.203125,-181.15234375,-49.31640625,-71.2890625,0.0
24.5546875,-22.94921875,-26.3671875,137.20703125,-43.45703125,-14.6484375,0.0
24.55859375,-0.9765625,-30.2734375,127.9296875,-6.8359375,30.76171875,0.0
24.5625,-17.578125,-29.296875,-119.62890625,-17.08984375,-11.23046875,0.0
24.56640625,-36.62109375,-26.3671875,-283.203125,-34.66796875,-59.08203125,0.0
24.5703125,-27.83203125,-22.4609375,-154.296875,-42.96875,-37.59765625,0.0
24.57421875,-14.6484375,-27.34375,112.3046875,-49.8046875,-30.2734375,0.0
24.578125,-8.7890625,-24.90234375,147.4609375,-28.3203125,38.57421875,0.0
24.58203125,-14.16015625,-20.99609375,-119.140625,-27.83203125,136.23046875,0.0
24.5859375,-8.7890625,-20.5078125,-274.4140625,-37.59765625,85.44921875,0.0
24.58984375,1.953125,-19.53125,-168.45703125,-34.1796875,29.296875,0.0
24.59375,-16.11328125,-28.3203125,21.484375,-38.57421875,-62.98828125,0.0
24.59765625,-20.01953125,-29.296875,115.72265625,-48.33984375,-66.89453125,0.0
24.6015625,-19.04296875,-22.4609375,-36.1328125,-41.9921875,-33.69140625,0.0
24.60546875,-22.4609375,-29.78515625,-250.9765625,-36.62109375,-99.12109375,0.0
24.609375,-18.5546875,-31.25,-255.37109375,-41.015625,-62.01171875,0.0
24.61328125,-23.4375,-24.90234375,70.3125,-31.25,-49.31640625,0.0
24.6171875,-10.7421875,-31.73828125,266.6015625,-29.78515625,-128.41796875,0.0
24.62109375,-3.41796875,-38.57421875,15.625,-40.52734375,-112.3046875,0.0
24.625,-24.90234375,-36.62109375,-289.55078125,-55.6640625,-26.85546875,0.0
24.62890625,-29.78515625,-37.109375,-247.55859375,-36.1328125,-26.3671875,0.0
24.6328125,-13.671875,-38.57421875,87.890625,-28.80859375,-72.265625,0.0
24.63671875,-9.27734375,-36.62109375,241.2109375,-44.921875,-56.15234375,0.0
24.640625,-24.90234375,-40.52734375,-33.203125,-42.96875,-77.1484375,0.0
24.64453125,-15.625,-40.0390625,-324.21875,-42.96875,-75.68359375,0.0
24.6484375,-15.625,-35.64453125,-231.93359375,-42.96875,-3.41796875,0.0
24.65234375,-12.6953125,-38.0859375,0.0,-29.296875,7.8125,0.0
24.65625,22.94921875,-35.64453125,168.45703125,-7.8125,45.41015625,0.0
24.66015625,28.3203125,-33.203125,114.74609375,1.953125,41.015625,0.0
24.6640625,-16.11328125,-32.71484375,-144.53125,-28.3203125,-32.71484375,0.0
24.66796875,-48.828125,-28.3203125,-249.0234375,-41.50390625,-3.90625,0.0
24.671875,-41.9921875,-29.78515625,-61.03515625,-29.296875,-37.59765625,0.0
24.67578125,-41.9921875,-28.3203125,151.3671875,-45.8984375,-71.2890625,0.0
24.6796875,-28.80859375,-22.94921875,160.15625,-47.36328125,-35.15625,0.0
24.68359375,-43.9453125,-33.203125,-116.69921875,-39.0625,-83.49609375,0.0
24.6875,-46.875,-41.015625,-346.6796875,-36.1328125,-103.02734375,0.0
24.69140625,-22.94921875,-36.1328125,-168.9453125,-27.83203125,-80.56640625,0.0
24.6953125,-34.1796875,-30.76171875,173.828125,-20.99609375,-13.18359375,0.0
24.69921875,-40.0390625,-42.48046875,172.8515625,-34.66796875,-180.6640625,0.0
24.703125,-32.2265625,-43.45703125,-162.109375,-44.43359375,-280.76171875,0.0
24.70703125,-31.25,-33.69140625,-259.27734375,-38.0859375,-81.54296875,0.0
24.7109375,-35.15625,-36.62109375,-69.3359375,-47.36328125,-30.76171875,0.0
24.71484375,-9.27734375,-36.1328125,111.81640625,-52.734375,-9.27734375,0.0
24.71875,-9.27734375,-39.55078125,132.32421875,-39.55078125,-58.10546875,0.0
24.72265625,-38.0859375,-43.45703125,-108.3984375,-43.9453125,-88.8671875,0.0
24.7265625,-32.2265625,-38.57421875,-211.42578125,-42.96875,-63.96484375,0.0
24.73046875,-27.83203125,-42.96875,-115.234375,-24.4140625,-55.17578125,0.0
24.734375,-21.484375,-49.31640625,-17.578125,-32.71484375,-85.44921875,0.0
24.73828125,-16.6015625,-45.41015625,81.0546875,-31.25,-76.66015625,0.0
24.7421875,-25.390625,-36.62109375,-3.90625,-32.71484375,20.01953125,0.0
24.74609375,-23.92578125,-30.2734375,-263.18359375,-26.85546875,30.2734375,0.0
24.75,-26.85546875,-28.80859375,-215.8203125,-16.11328125,10.25390625,0.0
24.75390625,-36.1328125,-29.296875,69.3359375,-25.87890625,-23.92578125,0.0
24.7578125,-23.4375,-25.390625,192.87109375,-35.64453125,-42.48046875,0.0
24.76171875,-20.99609375,-29.296875,11.23046875,-38.0859375,-34.66796875,0.0
24.765625,-35.64453125,-34.66796875,-281.73828125,-47.8515625,-26.3671875,0.0
24.76953125,-23.92578125,-34.1796875,-267.08984375,-56.640625,7.8125,0.0
24.7734375,-26.3671875,-29.296875,144.04296875,-43.9453125,42.96875,0.0
24.77734375,-42.96875,-42.48046875,256.8359375,-34.66796875,-7.8125,0.0
24.78125,-23.92578125,-48.33984375,-59.08203125,-38.0859375,-72.75390625,0.0
24.78515625,-13.18359375,-35.15625,-324.21875,-38.0859375,3.90625,0.0
24.7890625,-20.01953125,-32.71484375,-235.3515625,-36.1328125,25.390625,0.0
24.79296875,-13.671875,-32.71484375,66.89453125,-27.34375,-7.32421875,0.0
24.796875,-7.32421875,-31.73828125,227.5390625,-12.6953125,36.1328125,0.0
24.80078125,-19.53125,-30.2734375,99.12109375,-17.08984375,-26.85546875,0.0
24.8046875,-30.2734375,-26.3671875,-237.79296875,-29.296875,-37.59765625,0.0
24.80859375,-34.1796875,-28.3203125,-359.375,-37.59765625,-2.9296875,0.0
24.8125,-34.1796875,-33.69140625,-65.91796875,-41.015625,-91.796875,0.0
24.81640625,-30.76171875,-33.69140625,140.625,-40.52734375,-45.41015625,0.0
24.8203125,-21.97265625,-34.1796875,127.9296875,-35.64453125,26.3671875,0.0
24.82421875,-18.5546875,-35.64453125,-139.6484375,-33.69140625,-8.7890625,0.0
24.828125,-3.90625,-43.9453125,-327.1484375,-41.015625,-62.01171875,0.0
24.83203125,1.46484375,-48.33984375,-94.7265625,-40.0390625,-64.453125,0.0
24.8359375,-8.30078125,-37.59765625,150.390625,-32.71484375,15.625,0.0
24.83984375,3.41796875,-42.48046875,68.359375,-23.4375,33.69140625,0.0
24.84375,-6.8359375,-45.41015625,-184.08203125,-32.71484375,15.13671875,0.0
24.84765625,-26.3671875,-37.59765625,-321.77734375,-29.296875,51.26953125,0.0
24.8515625,-12.6953125,-40.0390625,-48.33984375,-23.92578125,82.51953125,0.0
24.85546875,-12.6953125,-42.48046875,198.2421875,-24.90234375,23.4375,0.0
24.859375,-36.1328125,-38.0859375,106.4453125,-22.94921875,12.20703125,0.0
24.86328125,-37.59765625,-34.1796875,-107.421875,-24.90234375,32.2265625,0.0
24.8671875,-24.90234375,-33.203125,-228.02734375,-20.01953125,13.18359375,0.0
24.87109375,-18.06640625,-35.64453125,-110.83984375,-13.18359375,-66.40625,0.0
24.875,-21.484375,-37.109375,46.38671875,-17.08984375,-119.140625,0.0
24.87890625,-19.04296875,-37.109375,86.42578125,-13.18359375,-58.59375,0.0
24.8828125,-26.85546875,-41.50390625,-110.83984375,-17.578125,1.953125,0.0
24.88671875,-38.0859375,-37.59765625,-302.24609375,-19.04296875,-42.48046875,0.0
24.890625,-35.64453125,-33.69140625,-178.7109375,-8.30078125,-52.734375,0.0
24.89453125,-36.1328125,-35.64453125,153.3203125,-16.6015625,19.04296875,0.0
24.8984375,-32.71484375,-36.62109375,227.5390625,-19.53125,44.43359375,0.0
24.90234375,-29.296875,-34.66796875,-145.99609375,-24.90234375,-63.96484375,0.0
24.90625,-12.6953125,-32.2265625,-265.13671875,-15.13671875,-142.08984375,0.0
24.91015625,4.8828125,-29.78515625,-145.99609375,5.859375,-158.69140625,0.0
24.9140625,5.37109375,-27.34375,101.07421875,2.44140625,-124.0234375,0.0
24.91796875,2.9296875,-27.83203125,199.70703125,-11.71875,-25.390625,0.0
24.921875,-0.48828125,-29.296875,-121.09375,-9.765625,-28.3203125,0.0
24.92578125,-5.37109375,-31.25,-333.0078125,-5.37109375,-47.8515625,0.0
24.9296875,-9.27734375,-26.3671875,-202.1484375,0.0,6.34765625,0.0
24.93359375,-1.953125,-33.203125,109.375,1.46484375,14.16015625,0.0
24.9375,9.765625,-44.921875,234.86328125,-20.01953125,-62.5,0.0
24.94140625,17.08984375,-32.71484375,-11.23046875,-17.08984375,-37.59765625,0.0
24.9453125,10.7421875,-27.83203125,-185.546875,-8.7890625,12.20703125,0.0
24.94921875,3.41796875,-43.45703125,-139.16015625,-8.7890625,-37.59765625,0.0
24.953125,3.41796875,-41.015625,39.55078125,-9.765625,-129.39453125,0.0
24.95703125,-9.765625,-49.31640625,203.61328125,-11.71875,-148.92578125,0.0
24.9609375,-12.6953125,-45.41015625,150.390625,-7.8125,-55.17578125,0.0
24.96484375,12.6953125,-28.3203125,-107.421875,-0.9765625,18.06640625,0.0
24.96875,15.13671875,-41.9921875,-274.4140625,2.44140625,48.828125,0.0
24.97265625,4.39453125,-63.96484375,-44.921875,1.953125,2.9296875,0.0
24.9765625,-0.48828125,-79.58984375,238.28125,0.0,-14.16015625,0.0
24.98046875,-1.953125,-38.0859375,123.53515625,7.32421875,-28.80859375,0.0
24.984375,0.48828125,-33.69140625,-155.76171875,3.90625,9.27734375,0.0
24.98828125,-4.8828125,-73.73046875,-208.984375,-9.27734375,28.3203125,0.0
24.9921875,0.48828125,-39.0625,22.4609375,-3.41796875,-40.52734375,0.0
24.99609375,-2.44140625,-12.20703125,183.10546875,-10.7421875,-22.4609375,0.0
25.0,-11.23046875,-13.671875,61.5234375,-11.23046875,27.83203125,0.0
25.00390625,5.37109375,-38.57421875,-196.2890625,12.6953125,7.32421875,0.0
25.0078125,17.578125,-23.4375,-163.0859375,5.859375,-33.203125,0.0
25.01171875,16.11328125,13.18359375,-2.44140625,-5.859375,-39.55078125,0.0
25.015625,20.5078125,-26.85546875,92.28515625,20.99609375,-41.50390625,0.0
25.01953125,26.3671875,-58.10546875,154.296875,29.296875,-54.19921875,0.0
25.0234375,25.87890625,-23.4375,-29.78515625,25.390625,-74.21875,0.0
25.02734375,18.5546875,-20.99609375,-266.6015625,17.08984375,-126.953125,0.0
25.03125,24.4140625,-30.76171875,-127.9296875,17.08984375,-154.78515625,0.0
25.03515625,37.59765625,-12.20703125,145.99609375,18.06640625,-121.58203125,0.0
25.0390625,39.55078125,-35.15625,173.33984375,19.04296875,-83.49609375,0.0
25.04296875,43.45703125,-62.01171875,-101.07421875,26.85546875,-93.75,0.0
25.046875,27.83203125,-54.6875,-284.1796875,14.6484375,-146.97265625,0.0
25.05078125,1.953125,-20.99609375,-141.6015625,5.37109375,-119.62890625,0.0
25.0546875,4.8828125,-15.625,233.3984375,10.7421875,-49.8046875,0.0
25.05859375,9.27734375,-30.2734375,277.83203125,14.16015625,-79.58984375,0.0
25.0625,-0.48828125,-56.15234375,-113.76953125,19.53125,-83.984375,0.0
25.06640625,6.8359375,-43.45703125,-312.01171875,25.87890625,-128.41796875,0.0
25.0703125,8.30078125,-41.015625,-181.640625,25.390625,-144.53125,0.0
25.07421875,-17.08984375,-45.41015625,152.83203125,15.13671875,-89.84375,0.0
25.078125,4.8828125,-13.671875,205.56640625,20.99609375,-87.890625,0.0
25.08203125,20.01953125,-25.87890625,2.9296875,24.90234375,-112.3046875,0.0
25.0859375,8.30078125,-41.9921875,-185.546875,13.671875,-97.16796875,0.0
25.08984375,20.5078125,-28.80859375,-212.40234375,16.6015625,-65.91796875,0.0
25.09375,21.97265625,-37.59765625,62.98828125,24.4140625,-97.65625,0.0
25.09765625,18.06640625,-22.4609375,211.42578125,24.4140625,-42.48046875,0.0
25.1015625,11.23046875,-15.625,139.16015625,22.94921875,11.71875,0.0
25.10546875,-2.44140625,-30.2734375,-189.453125,19.04296875,50.78125,0.0
25.109375,7.8125,-33.203125,-295.41015625,22.4609375,65.4296875,0.0
25.11328125,20.01953125,-54.6875,25.390625,37.109375,9.765625,0.0
25.1171875,12.6953125,-37.109375,226.5625,33.203125,-12.6953125,0.0
25.12109375,13.18359375,-23.4375,117.67578125,34.66796875,-5.859375,0.0
25.125,9.27734375,-37.109375,-200.68359375,30.2734375,66.89453125,0.0
25.12890625,9.765625,-39.0625,-191.89453125,27.83203125,95.21484375,0.0
25.1328125,15.13671875,-20.99609375,146.484375,43.9453125,70.3125,0.0
25.13671875,11.71875,-19.53125,225.09765625,39.0625,58.59375,0.0
25.140625,14.6484375,-39.0625,82.51953125,37.59765625,24.4140625,0.0
25.14453125,23.4375,-40.0390625,-177.24609375,45.8984375,6.8359375,0.0
25.1484375,16.11328125,-19.04296875,-171.875,44.43359375,113.76953125,0.0
25.15234375,26.3671875,-19.04296875,100.5859375,40.0390625,167.48046875,0.0
25.15625,37.109375,-32.2265625,244.62890625,58.59375,48.828125,0.0
25.16015625,34.1796875,-34.1796875,145.99609375,63.4765625,-24.4140625,0.0
25.1640625,44.921875,-27.34375,-127.9296875,48.33984375,6.34765625,0.0
25.16796875,22.94921875,-26.3671875,-227.05078125,48.33984375,28.3203125,0.0
25.171875,7.8125,-28.80859375,-54.6875,39.55078125,58.10546875,0.0
25.17578125,24.4140625,-31.25,241.69921875,29.78515625,3.90625,0.0
25.1796875,30.76171875,-25.390625,260.25390625,29.296875,-15.13671875,0.0
25.18359375,31.25,-15.13671875,-84.9609375,41.9921875,41.50390625,0.0
25.1875,32.71484375,-13.671875,-207.03125,52.24609375,48.33984375,0.0
25.19140625,29.78515625,-16.6015625,-50.29296875,46.875,45.41015625,0.0
25.1953125,23.4375,-15.13671875,269.04296875,49.8046875,75.68359375,0.0
25.19921875,30.76171875,-17.578125,239.74609375,52.24609375,13.18359375,0.0
25.203125,34.1796875,-40.52734375,-131.8359375,37.109375,-132.8125,0.0
25.20703125,31.73828125,-45.8984375,-261.71875,39.55078125,-140.13671875,0.0
25.2109375,29.296875,-25.390625,-71.77734375,51.26953125,-53.22265625,0.0
25.21484375,20.5078125,-19.04296875,183.10546875,42.96875,-20.99609375,0.0
25.21875,26.3671875,-29.296875,229.98046875,36.62109375,46.38671875,0.0
25.22265625,28.3203125,-31.25,-25.87890625,46.38671875,36.62109375,0.0
25.2265625,18.06640625,-23.92578125,-160.15625,48.828125,-23.92578125,0.0
25.23046875,22.4609375,-28.80859375,-53.22265625,48.33984375,-18.5546875,0.0
25.234375,39.0625,-34.66796875,179.19921875,51.7578125,-31.73828125,0.0
25.23828125,49.31640625,-33.69140625,289.0625,58.10546875,-5.37109375,0.0
25.2421875,59.08203125,-24.90234375,135.7421875,70.3125,-56.640625,0.0
25.24609375,54.6875,-25.390625,-123.53515625,73.2421875,-150.390625,0.0
25.25,32.71484375,-31.25,-195.80078125,65.91796875,-102.5390625,0.0
25.25390625,47.8515625,-31.73828125,68.359375,80.078125,-9.27734375,0.0
25.2578125,58.59375,-32.2265625,291.015625,69.3359375,16.11328125,0.0
25.26171875,69.82421875,-32.2265625,97.65625,54.6875,-20.01953125,0.0
25.265625,74.21875,-36.62109375,-176.26953125,66.40625,2.44140625,0.0
25.26953125,60.05859375,-34.1796875,-82.03125,66.40625,-61.5234375,0.0
25.2734375,68.84765625,-24.4140625,150.390625,60.546875,-145.99609375,0.0
25.27734375,65.91796875,-20.5078125,240.72265625,59.08203125,-103.02734375,0.0
25.28125,62.01171875,-26.85546875,137.6953125,60.05859375,-50.29296875,0.0
25.28515625,65.91796875,-27.83203125,-135.25390625,62.5,-86.9140625,0.0
25.2890625,65.91796875,-15.625,-114.2578125,60.546875,-81.54296875,0.0
25.29296875,68.84765625,-25.87890625,134.765625,61.5234375,12.6953125,0.0
25.296875,77.63671875,-46.875,283.203125,58.10546875,-54.19921875,0.0
25.30078125,58.59375,-46.875,136.23046875,59.5703125,-110.83984375,0.0
25.3046875,34.1796875,-38.57421875,-173.33984375,66.40625,-70.3125,0.0
25.30859375,42.48046875,-42.96875,-211.42578125,74.70703125,-52.24609375,0.0
25.3125,45.8984375,-44.43359375,62.5,79.1015625,-22.94921875,0.0
25.31640625,35.64453125,-30.76171875,278.3203125,76.66015625,4.8828125,0.0
25.3203125,32.71484375,-25.87890625,208.0078125,62.98828125,-2.44140625,0.0
25.32421875,40.0390625,-29.78515625,-77.63671875,50.78125,-2.44140625,0.0
25.328125,41.50390625,-32.71484375,-220.21484375,47.8515625,-75.68359375,0.0
25.33203125,32.2265625,-38.57421875,-24.90234375,53.22265625,-122.55859375,0.0
25.3359375,28.3203125,-35.64453125,337.40234375,62.01171875,-84.47265625,0.0
25.33984375,29.296875,-38.57421875,305.6640625,62.01171875,-81.0546875,0.0
25.34375,32.71484375,-44.921875,-174.8046875,54.6875,-34.1796875,0.0
25.34765625,29.78515625,-35.15625,-348.14453125,57.12890625,-51.26953125,0.0
25.3515625,20.99609375,-30.2734375,15.13671875,58.10546875,-38.0859375,0.0
25.35546875,20.99609375,-37.109375,303.22265625,54.19921875,-25.390625,0.0
25.359375,29.296875,-36.62109375,171.875,56.640625,-84.9609375,0.0
25.36328125,24.4140625,-38.57421875,-25.87890625,50.78125,-84.9609375,0.0
25.3671875,30.76171875,-39.0625,-186.03515625,50.78125,-67.87109375,0.0
25.37109375,54.19921875,-37.59765625,-96.6796875,55.6640625,-68.359375,0.0
25.375,46.38671875,-42.96875,182.6171875,53.7109375,-60.546875,0.0
25.37890625,41.50390625,-39.55078125,240.72265625,64.453125,-95.21484375,0.0
25.3828125,46.875,-32.2265625,104.98046875,70.3125,-64.453125,0.0
25.38671875,31.73828125,-37.109375,-189.94140625,55.6640625,-39.55078125,0.0
25.390625,24.4140625,-42.96875,-202.1484375,54.6875,-90.8203125,0.0
25.39453125,26.3671875,-41.015625,143.06640625,69.3359375,-58.10546875,0.0
25.3984375,31.73828125,-33.203125,262.6953125,67.3828125,40.0390625,0.0
25.40234375,31.73828125,-36.1328125,26.85546875,48.33984375,13.671875,0.0
25.40625,15.13671875,-44.921875,-181.640625,52.734375,-71.77734375,0.0
25.41015625,28.80859375,-39.55078125,-88.37890625,62.98828125,-84.47265625,0.0
25.4140625,33.69140625,-24.90234375,132.8125,59.08203125,-19.04296875,0.0
25.41796875,13.18359375,-30.2734375,290.52734375,49.8046875,-28.3203125,0.0
25.421875,27.83203125,-38.57421875,87.890625,41.50390625,-67.3828125,0.0
25.42578125,22.4609375,-32.71484375,-213.8671875,47.36328125,-35.15625,0.0
25.4296875,14.6484375,-18.06640625,-46.875,61.5234375,-17.578125,0.0
25.43359375,31.25,-15.625,209.47265625,58.59375,10.7421875,0.0
25.4375,27.34375,-30.2734375,225.09765625,55.17578125,-21.484375,0.0
25.44140625,14.6484375,-40.52734375,147.4609375,58.59375,-172.36328125,0.0
25.4453125,11.23046875,-37.59765625,-106.4453125,61.5234375,-214.35546875,0.0
25.44921875,16.6015625,-30.2734375,-149.90234375,64.94140625,-174.31640625,0.0
25.453125,14.6484375,-34.66796875,105.95703125,64.453125,-187.5,0.0
25.45703125,16.6015625,-42.96875,348.14453125,62.01171875,-212.890625,0.0
25.4609375,16.6015625,-35.15625,281.25,65.4296875,-164.0625,0.0
25.46484375,24.90234375,-26.85546875,-118.1640625,69.82421875,-41.50390625,0.0
25.46875,32.71484375,-31.25,-291.50390625,63.96484375,14.16015625,0.0
25.47265625,29.296875,-28.80859375,17.08984375,61.5234375,38.57421875,0.0
25.4765625,33.69140625,-22.4609375,376.46484375,59.5703125,64.453125,0.0
25.48046875,41.50390625,-20.01953125,207.51953125,61.03515625,55.6640625,0.0
25.484375,45.41015625,-27.83203125,-194.82421875,65.91796875,85.9375,0.0
25.48828125,45.41015625,-33.203125,-264.6484375,71.2890625,24.90234375,0.0
25.4921875,35.64453125,-34.1796875,23.92578125,67.87109375,19.04296875,0.0
25.49609375,38.0859375,-36.1328125,291.015625,72.75390625,93.26171875,0.0
25.5,29.78515625,-39.55078125,142.578125,73.2421875,72.75390625,0.0
25.50390625,14.6484375,-38.0859375,-148.92578125,63.96484375,76.66015625,0.0
25.5078125,15.13671875,-26.85546875,-216.796875,64.94140625,79.1015625,0.0
25.51171875,17.578125,-25.390625,-59.08203125,62.5,59.5703125,0.0
25.515625,10.7421875,-35.15625,178.22265625,50.29296875,105.95703125,0.0
25.51953125,14.16015625,-39.0625,253.41796875,54.6875,108.88671875,0.0
25.5234375,10.25390625,-29.78515625,13.671875,63.4765625,7.8125,0.0
25.52734375,8.7890625,-24.90234375,-278.3203125,58.10546875,7.8125,0.0
25.53125,18.5546875,-32.71484375,-195.3125,54.19921875,-17.578125,0.0
25.53515625,28.3203125,-44.921875,125.48828125,51.26953125,-71.2890625,0.0
25.5390625,29.296875,-39.0625,240.234375,42.96875,-70.80078125,0.0
25.54296875,20.01953125,-31.73828125,-25.390625,54.19921875,-80.56640625,0.0
25.546875,28.3203125,-35.64453125,-336.9140625,60.05859375,-31.73828125,0.0
25.55078125,40.52734375,-40.0390625,-145.99609375,54.6875,-43.9453125,0.0
25.5546875,33.203125,-36.62109375,199.70703125,62.01171875,-117.67578125,0.0
25.55859375,26.3671875,-31.25,198.2421875,65.91796875,-41.50390625,0.0
25.5625,32.2265625,-32.71484375,-29.296875,64.453125,15.625,0.0
25.56640625,35.15625,-26.85546875,-284.1796875,57.6171875,-47.8515625,0.0
25.5703125,38.0859375,-19.04296875,-138.671875,53.22265625,-91.30859375,0.0
25.57421875,48.33984375,-25.87890625,153.80859375,60.05859375,-61.5234375,0.0
25.578125,56.640625,-37.109375,145.99609375,62.98828125,12.20703125,0.0
25.58203125,21.484375,-33.203125,-113.76953125,52.734375,2.9296875,0.0
25.5859375,1.953125,-32.2265625,-267.08984375,48.33984375,21.97265625,0.0
25.58984375,22.94921875,-40.52734375,-195.3125,52.24609375,16.11328125,0.0
25.59375,33.69140625,-38.0859375,77.63671875,55.17578125,20.99609375,0.0
25.59765625,26.3671875,-37.109375,257.8125,43.45703125,79.58984375,0.0
25.6015625,24.4140625,-33.69140625,77.63671875,43.45703125,68.84765625,0.0
25.60546875,25.390625,-42.48046875,-238.28125,44.43359375,73.2421875,0.0
25.609375,22.4609375,-50.78125,-256.34765625,37.109375,104.4921875,0.0
25.61328125,16.11328125,-41.015625,5.859375,40.0390625,82.51953125,0.0
25.6171875,4.39453125,-34.1796875,254.39453125,55.17578125,28.3203125,0.0
25.62109375,5.37109375,-39.55078125,130.37109375,61.03515625,-74.21875,0.0
25.625,5.37109375,-41.9921875,-294.921875,43.45703125,-104.00390625,0.0
25.62890625,11.23046875,-30.76171875,-314.453125,41.015625,-58.59375,0.0
25.6328125,7.32421875,-29.78515625,54.19921875,32.71484375,-43.45703125,0.0
25.63671875,14.16015625,-36.62109375,200.1953125,27.83203125,-17.08984375,0.0
25.640625,11.71875,-32.2265625,121.58203125,38.57421875,-40.52734375,0.0
25.64453125,5.37109375,-32.71484375,-72.75390625,36.1328125,-49.31640625,0.0
25.6484375,14.16015625,-32.2265625,-196.77734375,41.9921875,-44.43359375,0.0
25.65234375,4.8828125,-29.78515625,-69.82421875,51.7578125,-6.8359375,0.0
25.65625,0.48828125,-35.15625,166.9921875,39.55078125,-13.18359375,0.0
25.66015625,0.0,-30.2734375,140.625,31.25,-48.828125,0.0
25.6640625,-1.953125,-32.2265625,-68.84765625,30.76171875,-97.65625,0.0
25.66796875,4.8828125,-39.0625,-254.8828125,25.87890625,-78.61328125,0.0
25.671875,9.27734375,-37.109375,-145.01953125,27.83203125,31.25,0.0
25.67578125,18.5546875,-38.0859375,161.62109375,37.59765625,9.27734375,0.0
25.6796875,13.671875,-38.57421875,187.01171875,39.55078125,-36.1328125,0.0
25.68359375,8.30078125,-36.1328125,-94.23828125,31.25,-17.578125,0.0
25.6875,1.953125,-34.1796875,-266.11328125,33.69140625,27.83203125,0.0
25.69140625,4.39453125,-27.83203125,-173.33984375,43.45703125,-44.921875,0.0
25.6953125,15.625,-20.99609375,156.73828125,50.78125,-65.91796875,0.0
25.69921875,7.8125,-28.80859375,255.37109375,37.109375,-56.15234375,0.0
25.703125,-0.48828125,-37.109375,-84.47265625,16.11328125,-94.23828125,0.0
25.70703125,2.9296875,-34.1796875,-326.171875,32.71484375,-38.57421875,0.0
25.7109375,7.32421875,-19.04296875,-56.640625,38.0859375,10.7421875,0.0
25.71484375,-1.953125,-27.83203125,242.67578125,30.76171875,-58.10546875,0.0
25.71875,-3.41796875,-43.9453125,169.921875,42.96875,-113.28125,0.0
25.72265625,12.6953125,-34.66796875,-62.98828125,33.203125,-63.96484375,0.0
25.7265625,8.7890625,-33.69140625,-253.41796875,27.83203125,-89.35546875,0.0
25.73046875,-4.39453125,-38.57421875,-189.94140625,25.390625,-36.62109375,0.0
25.734375,-3.41796875,-41.015625,119.140625,19.04296875,13.18359375,0.0
25.73828125,-1.953125,-45.41015625,243.1640625,20.01953125,-84.9609375,0.0
25.7421875,9.765625,-36.62109375,80.078125,24.90234375,-67.3828125,0.0
25.74609375,1.46484375,-32.2265625,-207.51953125,20.99609375,-65.91796875,0.0
25.75,2.9296875,-36.62109375,-287.59765625,23.4375,-112.79296875,0.0
25.75390625,13.671875,-37.59765625,-3.90625,30.76171875,-76.66015625,0.0
25.7578125,13.671875,-33.203125,323.73046875,24.90234375,-98.6328125,0.0
25.76171875,2.9296875,-33.69140625,151.85546875,12.6953125,-77.1484375,0.0
25.765625,-0.48828125,-37.109375,-304.6875,5.859375,-34.1796875,0.0
25.76953125,1.46484375,-35.64453125,-293.9453125,15.13671875,-142.578125,0.0
25.7734375,-10.25390625,-29.78515625,56.640625,23.4375,-145.99609375,0.0
25.77734375,3.41796875,-32.2265625,252.9296875,25.390625,-62.5,0.0
25.78125,0.48828125,-38.0859375,99.12109375,24.90234375,-63.96484375,0.0
25.78515625,-16.11328125,12.6953125,-232.421875,35.15625,-114.74609375,0.0
25.7890625,-2.44140625,10.7421875,-235.3515625,39.55078125,-131.8359375,0.0
25.79296875,10.25390625,-3.41796875,31.73828125,41.50390625,-74.70703125,0.0
25.796875,-13.18359375,-6.8359375,242.1875,27.34375,-130.859375,0.0
25.80078125,-18.5546875,13.671875,147.94921875,12.6953125,-94.7265625,0.0
25.8046875,6.34765625,38.57421875,-49.31640625,35.15625,-18.5546875,0.0
25.80859375,11.71875,28.3203125,-169.921875,41.9921875,13.18359375,0.0
25.8125,8.7890625,29.296875,-115.234375,33.203125,63.4765625,0.0
25.81640625,4.8828125,39.55078125,184.5703125,22.94921875,14.16015625,0.0
25.8203125,1.953125,22.4609375,203.61328125,25.87890625,-43.9453125,0.0
25.82421875,9.765625,17.578125,-143.06640625,26.85546875,-25.87890625,0.0
25.828125,18.06640625,19.04296875,-309.5703125,17.578125,-65.4296875,0.0
25.83203125,8.30078125,-46.38671875,-48.33984375,18.06640625,-104.00390625,0.0
25.8359375,-9.27734375,-41.50390625,266.11328125,12.20703125,-100.5859375,0.0
25.83984375,1.953125,-39.55078125,166.50390625,9.765625,-98.14453125,0.0
25.84375,-5.37109375,-42.48046875,-189.453125,11.23046875,-127.44140625,0.0
25.84765625,-18.5546875,-36.62109375,-345.703125,15.625,-214.84375,0.0
25.8515625,-5.37109375,-30.2734375,-72.75390625,27.34375,-182.6171875,0.0
25.85546875,-4.39453125,-33.203125,241.2109375,25.390625,-166.9921875,0.0
25.859375,-6.8359375,-34.1796875,149.90234375,17.578125,-155.76171875,0.0
25.86328125,-8.7890625,-35.15625,-165.52734375,15.625,-127.9296875,0.0
25.8671875,-8.7890625,-38.57421875,-314.94140625,12.20703125,-159.1796875,0.0
25.87109375,-20.99609375,-35.15625,-193.359375,0.48828125,-91.796875,0.0
25.875,-21.97265625,-36.1328125,97.65625,-5.859375,82.03125,0.0
25.87890625,-13.671875,-43.9453125,188.96484375,-10.25390625,88.8671875,0.0
25.8828125,-28.3203125,-40.52734375,-47.8515625,-12.20703125,42.96875,0.0
25.88671875,-29.296875,-32.71484375,-248.046875,-5.37109375,64.453125,0.0
25.890625,-20.01953125,-33.69140625,-103.02734375,0.48828125,71.2890625,0.0
25.89453125,-18.5546875,-37.109375,156.73828125,-4.39453125,19.53125,0.0
25.8984375,-18.5546875,-30.2734375,313.96484375,-15.13671875,-24.90234375,0.0
25.90234375,-37.59765625,-32.71484375,66.89453125,-26.3671875,23.4375,0.0
25.90625,-27.34375,-45.41015625,-352.05078125,-25.87890625,74.21875,0.0
25.91015625,-30.76171875,-39.0625,-266.11328125,-18.06640625,159.66796875,0.0
25.9140625,-52.734375,-26.85546875,68.84765625,-18.06640625,145.01953125,0.0
25.91796875,-28.80859375,-32.2265625,170.41015625,-8.30078125,39.55078125,0.0
25.921875,-14.16015625,-37.59765625,-22.4609375,4.39453125,49.8046875,0.0
25.92578125,-17.08984375,-32.2265625,-265.625,-12.20703125,33.69140625,0.0
25.9296875,-17.578125,-36.1328125,-255.37109375,-33.69140625,-6.34765625,0.0
25.93359375,-14.16015625,-37.109375,27.83203125,-38.0859375,47.36328125,0.0
25.9375,-20.5078125,-36.1328125,199.21875,-32.2265625,65.91796875,0.0
25.94140625,-23.4375,-28.3203125,50.78125,-27.83203125,6.8359375,0.0
25.9453125,-19.53125,-26.85546875,-138.18359375,-15.13671875,-41.9921875,0.0
25.94921875,-25.87890625,-30.76171875,-221.19140625,-10.25390625,-29.296875,0.0
25.953125,-0.9765625,-31.25,-105.95703125,-14.16015625,12.6953125,0.0
25.95703125,8.30078125,-37.109375,119.62890625,-7.8125,22.94921875,0.0
25.9609375,-27.34375,-30.76171875,119.62890625,-10.25390625,-20.5078125,0.0
25.96484375,-23.4375,-26.3671875,-163.57421875,-9.765625,-37.59765625,0.0
25.96875,-11.71875,-33.69140625,-312.98828125,-10.25390625,-1.46484375,0.0
25.97265625,-22.4609375,-27.34375,-95.21484375,-9.765625,-8.7890625,0.0
25.9765625,-32.71484375,-14.6484375,171.38671875,-11.23046875,-44.921875,0.0
25.98046875,-29.78515625,-19.53125,110.3515625,-25.87890625,-132.32421875,0.0
25.984375,-20.5078125,-23.92578125,-244.140625,-33.69140625,-112.79296875,0.0
25.98828125,-20.01953125,-15.13671875,-377.44140625,-32.71484375,-106.93359375,0.0
25.9921875,-19.53125,0.9765625,-7.32421875,-20.01953125,-130.37109375,0.0
25.99609375,-18.06640625,13.18359375,219.23828125,-4.39453125,-101.07421875,0.0
26.0,-32.71484375,3.90625,92.7734375,-15.13671875,-127.44140625,0.0
26.00390625,-54.6875,6.8359375,-145.5078125,-19.04296875,-99.12109375,0.0
26.0078125,-47.36328125,11.71875,-298.828125,-19.04296875,-83.0078125,0.0
26.01171875,-34.66796875,6.8359375,-161.1328125,-30.2734375,-14.6484375,0.0
26.015625,-33.69140625,6.8359375,85.9375,-27.83203125,40.0390625,0.0
26.01953125,-27.83203125,3.90625,154.296875,-23.4375,36.62109375,0.0
26.0234375,-27.34375,12.6953125,-7.32421875,-22.94921875,-52.734375,0.0
26.02734375,-33.69140625,26.3671875,-288.57421875,-34.66796875,-44.921875,0.0
26.03125,-41.015625,21.484375,-286.62109375,-26.3671875,13.671875,0.0
26.03515625,-38.57421875,27.83203125,22.4609375,-14.6484375,52.734375,0.0
26.0390625,-32.71484375,39.0625,245.1171875,-14.6484375,20.01953125,0.0
26.04296875,-17.08984375,28.3203125,-19.04296875,-4.39453125,-88.37890625,0.0
26.046875,-26.3671875,21.484375,-367.67578125,-20.01953125,-83.0078125,0.0
26.05078125,-44.43359375,22.94921875,-277.83203125,-29.78515625,-88.37890625,0.0
26.0546875,-25.390625,21.484375,74.70703125,-8.7890625,-70.3125,0.0
26.05859375,-12.20703125,8.30078125,190.4296875,-0.48828125,-66.89453125,0.0
26.0625,-24.90234375,0.0,-63.96484375,-12.6953125,-63.4765625,0.0
26.06640625,-28.3203125,5.859375,-303.22265625,-11.23046875,-36.1328125,0.0
26.0703125,-35.64453125,4.8828125,-208.49609375,-6.8359375,2.9296875,0.0
26.07421875,-36.62109375,2.44140625,119.62890625,-14.16015625,12.20703125,0.0
26.078125,-30.76171875,-6.34765625,210.9375,-24.90234375,-54.19921875,0.0
26.08203125,-31.25,-5.37109375,-87.40234375,-24.90234375,-27.34375,0.0
26.0859375,-33.69140625,-2.9296875,-210.9375,-18.06640625,-50.78125,0.0
26.08984375,-45.41015625,-11.71875,-185.05859375,-23.92578125,-123.53515625,0.0
26.09375,-42.96875,-14.16015625,-71.77734375,-34.1796875,-92.28515625,0.0
26.09765625,-35.64453125,-14.16015625,115.72265625,-36.62109375,-47.36328125,0.0
26.1015625,-37.59765625,-17.578125,-7.8125,-34.1796875,-32.71484375,0.0
26.10546875,-40.0390625,-20.5078125,-315.91796875,-43.45703125,-10.25390625,0.0
26.109375,-32.2265625,-25.87890625,-337.40234375,-35.15625,-16.6015625,0.0
26.11328125,-24.4140625,-34.66796875,10.25390625,-26.3671875,-25.390625,0.0
26.1171875,-28.80859375,-33.69140625,274.4140625,-31.25,35.64453125,0.0
26.12109375,-34.66796875,-33.203125,63.4765625,-36.1328125,58.59375,0.0
26.125,-31.73828125,-30.76171875,-266.6015625,-42.96875,113.28125,0.0
26.12890625,-29.78515625,-27.83203125,-333.984375,-40.52734375,94.23828125,0.0
26.1328125,-33.203125,-35.15625,-37.59765625,-33.203125,48.33984375,0.0
26.13671875,-35.15625,-37.59765625,249.0234375,-24.4140625,46.38671875,0.0
26.140625,-28.80859375,-39.0625,23.4375,-19.53125,22.4609375,0.0
26.14453125,-36.62109375,-39.0625,-338.37890625,-25.390625,-36.62109375,0.0
26.1484375,-41.9921875,-28.80859375,-334.9609375,-23.92578125,-85.44921875,0.0
26.15234375,-34.1796875,-25.87890625,-56.15234375,-13.671875,17.578125,0.0
26.15625,-27.83203125,-28.3203125,147.94921875,-18.06640625,92.7734375,0.0
26.16015625,-40.0390625,-27.34375,56.640625,-31.25,27.83203125,0.0
26.1640625,-50.29296875,-29.296875,-149.90234375,-26.3671875,6.8359375,0.0
26.16796875,-45.41015625,-29.78515625,-312.01171875,-21.97265625,47.36328125,0.0
26.171875,-43.9453125,-31.73828125,-145.99609375,-21.97265625,30.2734375,0.0
26.17578125,-48.828125,-33.203125,139.16015625,-19.53125,-4.39453125,0.0
26.1796875,-42.48046875,-30.76171875,191.89453125,-26.3671875,-59.08203125,0.0
26.18359375,-42.48046875,-42.96875,-103.02734375,-23.4375,-59.5703125,0.0
26.1875,-72.75390625,-38.57421875,-393.06640625,-19.04296875,-27.34375,0.0
26.19140625,-65.91796875,-24.90234375,-267.08984375,-20.99609375,-59.5703125,0.0
26.1953125,-52.734375,-25.87890625,111.81640625,-27.34375,-51.26953125,0.0
26.19921875,-55.17578125,-34.66796875,190.91796875,-30.2734375,-69.82421875,0.0
26.203125,-19.04296875,-44.921875,-149.90234375,-3.90625,-132.8125,0.0
26.20703125,-0.48828125,-41.9921875,-346.6796875,-1.46484375,-128.90625,0.0
26.2109375,-49.8046875,-30.76171875,-223.14453125,-55.6640625,-80.078125,0.0
26.21484375,-67.87109375,-35.64453125,-37.109375,-75.68359375,60.05859375,0.0
26.21875,-78.61328125,-44.43359375,84.47265625,-67.87109375,12.20703125,0.0
26.22265625,-93.75,-42.48046875,-85.44921875,-83.49609375,-85.44921875,0.0
26.2265625,-72.75390625,-36.62109375,-290.0390625,-73.73046875,-46.38671875,0.0
26.23046875,-90.33203125,-39.0625,-237.3046875,-78.61328125,-61.03515625,0.0
26.234375,-104.00390625,-42.48046875,-98.6328125,-85.44921875,-63.96484375,0.0
26.23828125,-73.2421875,-44.43359375,29.296875,-57.12890625,6.8359375,0.0
26.2421875,-46.38671875,-44.921875,-5.859375,-36.1328125,0.48828125,0.0
26.24609375,-57.6171875,-38.0859375,-364.74609375,-57.6171875,-112.3046875,0.0
26.25,-75.1953125,-39.0625,-411.62109375,-76.171875,-138.18359375,0.0
26.25390625,-59.5703125,-41.50390625,10.25390625,-54.6875,4.39453125,0.0
26.2578125,-49.31640625,-42.48046875,221.19140625,-55.17578125,-34.1796875,0.0
26.26171875,-46.38671875,-41.9921875,15.13671875,-58.10546875,-58.10546875,0.0
26.265625,-37.109375,-33.203125,-323.2421875,-48.828125,-26.3671875,0.0
26.26953125,-44.43359375,-31.25,-319.3359375,-56.15234375,-59.08203125,0.0
26.2734375,-56.15234375,-25.87890625,17.08984375,-49.31640625,-43.45703125,0.0
26.27734375,-36.62109375,-24.4140625,141.6015625,-45.8984375,-64.453125,0.0
26.28125,-47.36328125,-34.66796875,-73.73046875,-61.03515625,-54.19921875,0.0
26.28515625,-65.91796875,-41.015625,-349.609375,-70.80078125,-12.20703125,0.0
26.2890625,-47.8515625,-41.015625,-339.35546875,-70.80078125,-7.32421875,0.0
26.29296875,-50.78125,-31.73828125,-69.3359375,-72.265625,6.34765625,0.0
26.296875,-55.6640625,-33.69140625,162.109375,-64.94140625,2.9296875,0.0
26.30078125,-38.57421875,-44.921875,118.65234375,-52.734375,-25.390625,0.0
26.3046875,-50.29296875,-41.9921875,-260.25390625,-60.05859375,-20.01953125,0.0
26.30859375,-55.6640625,-39.0625,-452.63671875,-58.10546875,21.484375,0.0
26.3125,-37.59765625,-45.8984375,-199.70703125,-54.19921875,21.484375,0.0
26.31640625,-24.4140625,-41.50390625,91.30859375,-54.19921875,-20.5078125,0.0
26.3203125,-37.109375,-35.15625,190.91796875,-58.59375,-24.4140625,0.0
26.32421875,-31.25,-34.1796875,-115.72265625,-56.640625,-42.48046875,0.0
26.328125,-18.5546875,-37.109375,-410.15625,-59.5703125,-37.59765625,0.0
26.33203125,-22.94921875,-43.45703125,-193.359375,-61.5234375,-138.671875,0.0
26.3359375,-32.2265625,-43.9453125,152.34375,-50.78125,-268.5546875,0.0
26.33984375,-32.2265625,-43.9453125,136.23046875,-53.7109375,-240.72265625,0.0
26.34375,-36.1328125,-42.96875,-180.6640625,-57.12890625,-138.18359375,0.0
26.34765625,-32.2265625,-41.9921875,-345.21484375,-52.24609375,0.0,0.0
26.3515625,-25.87890625,-41.9921875,-187.5,-48.828125,0.9765625,0.0
26.35546875,-3.41796875,-41.015625,155.76171875,-46.38671875,20.99609375,0.0
26.359375,-10.25390625,-42.48046875,171.875,-52.24609375,81.54296875,0.0
26.36328125,-34.1796875,-46.875,-180.17578125,-45.41015625,62.98828125,0.0
26.3671875,-27.34375,-43.45703125,-260.25390625,-41.50390625,0.0,0.0
26.37109375,-30.76171875,-39.0625,-113.28125,-39.0625,18.5546875,0.0
26.375,-24.90234375,-46.875,65.91796875,-34.66796875,115.72265625,0.0
26.37890625,-27.34375,-49.31640625,138.18359375,-44.921875,116.2109375,0.0
26.3828125,-33.203125,-43.45703125,-77.1484375,-46.875,-20.5078125,0.0
26.38671875,-35.64453125,-42.96875,-302.734375,-45.41015625,-21.97265625,0.0
26.390625,-28.80859375,-42.48046875,-257.32421875,-33.203125,51.26953125,0.0
26.39453125,-19.53125,-39.55078125,108.88671875,-40.52734375,16.6015625,0.0
26.3984375,-40.52734375,-38.0859375,260.7421875,-60.05859375,-11.23046875,0.0
26.40234375,-45.41015625,-37.59765625,-64.94140625,-70.80078125,-22.4609375,0.0
26.40625,-40.52734375,-40.0390625,-347.16796875,-59.5703125,-25.390625,0.0
26.41015625,-38.57421875,-29.78515625,-278.3203125,-43.45703125,-41.015625,0.0
26.4140625,-30.2734375,-22.4609375,95.21484375,-38.0859375,-163.57421875,0.0
26.41796875,-28.3203125,-32.71484375,244.140625,-37.109375,-150.87890625,0.0
26.421875,-23.4375,-32.2265625,-32.71484375,-34.66796875,-101.5625,0.0
26.42578125,-18.06640625,-37.109375,-352.05078125,-36.62109375,-104.00390625,0.0
26.4296875,-9.765625,-38.0859375,-255.859375,-18.06640625,-111.328125,0.0
26.43359375,-25.390625,-33.203125,45.8984375,-10.25390625,-100.09765625,0.0
26.4375,-52.734375,-29.78515625,166.50390625,-45.8984375,14.16015625,0.0
26.44140625,-56.640625,-31.73828125,6.34765625,-60.546875,17.578125,0.0
26.4453125,-51.26953125,-34.1796875,-257.32421875,-47.36328125,-52.24609375,0.0
26.44921875,-44.43359375,-29.296875,-244.140625,-33.69140625,3.41796875,0.0
26.453125,-41.50390625,-34.66796875,19.04296875,-37.109375,18.5546875,0.0
26.45703125,-31.73828125,-35.15625,193.84765625,-44.43359375,-11.23046875,0.0
26.4609375,-8.7890625,-28.80859375,163.0859375,-31.25,3.90625,0.0
26.46484375,-11.23046875,-31.25,-109.375,-20.99609375,-2.9296875,0.0
26.46875,-31.73828125,-36.1328125,-362.79296875,-28.3203125,4.39453125,0.0
26.47265625,-36.62109375,-36.1328125,-193.359375,-41.015625,5.37109375,0.0
26.4765625,-39.55078125,-38.57421875,129.39453125,-50.78125,-82.03125,0.0
26.48046875,-54.19921875,-41.50390625,125.9765625,-64.453125,-70.3125,0.0
26.484375,-61.03515625,-42.96875,-226.07421875,-78.61328125,16.6015625,0.0
26.48828125,-56.15234375,-44.921875,-364.2578125,-70.3125,-49.31640625,0.0
26.4921875,-41.9921875,-37.109375,-56.640625,-62.98828125,-83.49609375,0.0
26.49609375,-41.015625,-34.66796875,153.3203125,-69.3359375,-33.69140625,0.0
26.5,-37.59765625,-35.15625,66.89453125,-62.5,-13.671875,0.0
26.50390625,-35.64453125,-24.4140625,-225.5859375,-54.19921875,1.953125,0.0
26.5078125,-34.1796875,-13.18359375,-280.2734375,-50.78125,55.17578125,0.0
26.51171875,-40.52734375,-13.671875,-142.08984375,-65.91796875,76.171875,0.0
26.515625,-52.24609375,-28.3203125,1.46484375,-68.84765625,42.48046875,0.0
26.51953125,-37.59765625,-32.2265625,89.35546875,-46.875,13.671875,0.0
26.5234375,-39.55078125,-26.85546875,-105.46875,-56.15234375,-17.08984375,0.0
26.52734375,-61.03515625,-26.85546875,-365.72265625,-66.89453125,11.23046875,0.0
26.53125,-50.78125,-28.80859375,-211.9140625,-59.08203125,-35.64453125,0.0
26.53515625,-57.12890625,-30.2734375,86.9140625,-60.546875,-125.0,0.0
26.5390625,-66.40625,-29.296875,161.1328125,-71.77734375,-123.53515625,0.0
26.54296875,-65.4296875,-30.2734375,-81.0546875,-70.3125,-145.5078125,0.0
26.546875,-66.40625,-33.69140625,-375.48828125,-70.3125,-56.15234375,0.0
26.55078125,-55.6640625,-36.62109375,-285.15625,-65.4296875,32.2265625,0.0
26.5546875,-48.828125,-29.78515625,146.484375,-55.6640625,4.39453125,0.0
26.55859375,-42.48046875,-35.64453125,217.7734375,-60.546875,-33.69140625,0.0
26.5625,-48.33984375,-44.43359375,-152.34375,-62.01171875,-78.125,0.0
26.56640625,-62.98828125,-37.59765625,-376.46484375,-55.17578125,-63.4765625,0.0
26.5703125,-68.84765625,-31.25,-250.9765625,-57.6171875,-7.32421875,0.0
26.57421875,-69.82421875,-24.90234375,95.21484375,-62.5,-48.828125,0.0
26.578125,-68.84765625,-26.3671875,230.95703125,-59.5703125,-54.6875,0.0
26.58203125,-69.3359375,-26.85546875,13.18359375,-58.59375,-31.25,0.0
26.5859375,-65.4296875,-25.390625,-305.6640625,-66.89453125,-80.56640625,0.0
26.58984375,-63.96484375,-30.76171875,-339.84375,-62.01171875,-120.1171875,0.0
26.59375,-49.8046875,-31.73828125,-41.015625,-50.78125,-164.0625,0.0
26.59765625,-23.92578125,-29.296875,132.32421875,-34.1796875,-112.3046875,0.0
26.6015625,-25.390625,-22.4609375,108.3984375,-38.57421875,-46.875,0.0
26.60546875,-59.08203125,-21.484375,-226.07421875,-57.12890625,-100.09765625,0.0
26.609375,-62.98828125,-30.76171875,-393.06640625,-44.921875,-127.9296875,0.0
26.61328125,-53.22265625,-27.83203125,-110.83984375,-44.43359375,-69.3359375,0.0
26.6171875,-56.640625,-22.94921875,188.4765625,-59.5703125,-44.921875,0.0
26.62109375,-63.96484375,-26.85546875,84.9609375,-60.05859375,-37.59765625,0.0
26.625,-57.12890625,-32.2265625,-309.08203125,-54.6875,-62.98828125,0.0
26.62890625,-49.31640625,-27.83203125,-375.0,-57.12890625,-90.8203125,0.0
26.6328125,-56.15234375,-45.41015625,-39.55078125,-54.6875,-74.70703125,0.0
26.63671875,-57.6171875,-38.57421875,151.85546875,-57.12890625,-63.4765625,0.0
26.640625,-53.7109375,-10.25390625,23.4375,-55.6640625,-47.36328125,0.0
26.64453125,-64.94140625,-34.1796875,-252.9296875,-41.9921875,-18.06640625,0.0
26.6484375,-65.91796875,-19.53125,-295.8984375,-54.6875,14.16015625,0.0
26.65234375,-46.38671875,-20.5078125,-104.00390625,-64.453125,-24.90234375,0.0
26.65625,-45.8984375,-37.59765625,81.0546875,-58.10546875,-28.3203125,0.0
26.66015625,-49.8046875,-26.85546875,103.02734375,-64.94140625,60.546875,0.0
26.6640625,-50.78125,-25.390625,-198.73046875,-54.6875,60.546875,0.0
26.66796875,-46.38671875,-32.2265625,-377.9296875,-37.59765625,66.89453125,0.0
26.671875,-42.48046875,-30.2734375,-151.85546875,-54.6875,85.9375,0.0
26.67578125,-50.78125,-28.80859375,154.296875,-69.3359375,90.8203125,0.0
26.6796875,-60.05859375,-26.85546875,166.50390625,-68.359375,36.1328125,0.0
26.68359375,-65.4296875,-32.2265625,-150.87890625,-63.4765625,11.71875,0.0
26.6875,-57.6171875,-32.2265625,-344.7265625,-51.26953125,82.03125,0.0
26.69140625,-62.01171875,-20.01953125,-241.69921875,-61.03515625,113.76953125,0.0
26.6953125,-62.5,-19.53125,160.64453125,-74.21875,67.87109375,0.0
26.69921875,-38.57421875,-31.73828125,262.20703125,-62.01171875,-3.41796875,0.0
26.703125,-51.7578125,-31.25,-125.48828125,-59.5703125,-18.5546875,0.0
26.70703125,-61.5234375,-36.1328125,-389.16015625,-75.68359375,-20.01953125,0.0
26.7109375,-44.43359375,-37.59765625,-230.46875,-60.546875,-17.578125,0.0
26.71484375,-34.1796875,-35.64453125,108.3984375,-42.48046875,-89.35546875,0.0
26.71875,-33.203125,-41.015625,162.59765625,-42.96875,-154.296875,0.0
26.72265625,-39.55078125,-40.52734375,-53.7109375,-52.734375,-143.5546875,0.0
26.7265625,-50.78125,-35.64453125,-259.27734375,-58.59375,-70.3125,0.0
26.73046875,-58.59375,-33.203125,-204.58984375,-60.546875,-20.99609375,0.0
26.734375,-49.31640625,-34.1796875,102.5390625,-62.98828125,-63.96484375,0.0
26.73828125,-46.875,-37.59765625,208.49609375,-72.265625,-80.078125,0.0
26.7421875,-50.29296875,-28.3203125,34.66796875,-81.54296875,-17.578125,0.0
26.74609375,-60.05859375,-25.390625,-188.96484375,-82.51953125,21.97265625,0.0
26.75,-50.78125,-37.109375,-267.08984375,-77.1484375,-66.40625,0.0
26.75390625,-37.59765625,-29.78515625,-104.4921875,-73.2421875,-48.828125,0.0
26.7578125,-30.2734375,-25.87890625,149.4140625,-60.546875,65.4296875,0.0
26.76171875,-5.859375,-28.80859375,66.40625,-31.25,10.25390625,0.0
26.765625,-30.2734375,-29.78515625,-318.359375,-43.45703125,-100.09765625,0.0
26.76953125,-69.3359375,-25.390625,-334.9609375,-79.58984375,-42.96875,0.0
26.7734375,-48.828125,-23.92578125,9.765625,-64.453125,-27.34375,0.0
26.77734375,-38.57421875,-27.34375,141.6015625,-40.52734375,-51.26953125,0.0
26.78125,-40.0390625,-23.4375,12.6953125,-38.57421875,-75.68359375,0.0
26.78515625,-30.76171875,-19.04296875,-303.22265625,-37.59765625,-79.1015625,0.0
26.7890625,-32.71484375,-16.11328125,-262.6953125,-37.59765625,-31.73828125,0.0
26.79296875,-34.1796875,-7.8125,-28.3203125,-35.15625,-31.25,0.0
26.796875,-24.90234375,-21.97265625,127.44140625,-33.69140625,-23.92578125,0.0
26.80078125,-27.83203125,-36.62109375,97.65625,-41.015625,-48.828125,0.0
26.8046875,-39.0625,-28.80859375,-240.234375,-45.41015625,-88.37890625,0.0
26.80859375,-35.15625,-34.66796875,-372.0703125,-42.96875,-83.984375,0.0
26.8125,-20.5078125,-32.2265625,-105.95703125,-33.69140625,-64.94140625,0.0
26.81640625,-21.97265625,-28.3203125,171.38671875,-27.83203125,-60.546875,0.0
26.8203125,-42.48046875,-28.3203125,81.0546875,-41.015625,-12.6953125,0.0
26.82421875,-45.8984375,-28.80859375,-216.30859375,-47.8515625,15.625,0.0
26.828125,-39.55078125,-34.1796875,-396.484375,-56.640625,1.953125,0.0
26.83203125,-35.15625,-29.78515625,-189.94140625,-61.03515625,-4.8828125,0.0
26.8359375,-29.296875,-25.390625,223.6328125,-58.10546875,-73.2421875,0.0
26.83984375,-23.92578125,-31.73828125,205.078125,-45.41015625,-98.14453125,0.0
26.84375,-21.97265625,-35.15625,-229.98046875,-47.8515625,-84.47265625,0.0
26.84765625,-29.78515625,-27.83203125,-409.1796875,-64.453125,-116.69921875,0.0
26.8515625,-41.9921875,-18.06640625,-161.1328125,-57.12890625,-67.3828125,0.0
26.85546875,-48.828125,-13.18359375,162.109375,-51.7578125,0.48828125,0.0
26.859375,-34.66796875,-16.6015625,142.08984375,-48.828125,-91.796875,0.0
26.86328125,-39.0625,-24.4140625,-108.3984375,-52.734375,-125.48828125,0.0
26.8671875,-44.43359375,-11.71875,-315.91796875,-48.828125,-3.90625,0.0
26.87109375,-32.2265625,-2.44140625,-197.75390625,-42.96875,67.3828125,0.0
26.875,-24.4140625,-11.23046875,107.421875,-39.55078125,14.6484375,0.0
26.87890625,-18.5546875,-9.27734375,104.98046875,-41.50390625,-31.25,0.0
26.8828125,-30.2734375,4.8828125,21.97265625,-51.26953125,-30.76171875,0.0
26.88671875,-32.2265625,16.11328125,-238.76953125,-57.12890625,-20.5078125,0.0
26.890625,-31.73828125,15.13671875,-403.3203125,-59.5703125,-53.22265625,0.0
26.89453125,-30.2734375,17.578125,-63.4765625,-47.8515625,-124.51171875,0.0
26.8984375,-29.296875,22.94921875,217.7734375,-45.41015625,-79.1015625,0.0
26.90234375,-18.5546875,23.92578125,20.01953125,-53.22265625,-32.2265625,0.0
26.90625,-21.484375,32.2265625,-342.28515625,-53.7109375,-49.8046875,0.0
26.91015625,-42.96875,26.85546875,-327.63671875,-54.6875,1.953125,0.0
26.9140625,-43.9453125,26.85546875,72.265625,-63.4765625,2.9296875,0.0
26.91796875,-41.50390625,31.73828125,197.265625,-67.3828125,0.0,0.0
26.921875,-46.875,27.83203125,-1.953125,-65.4296875,34.1796875,0.0
26.92578125,-48.33984375,17.578125,-273.92578125,-74.21875,-1.953125,0.0
26.9296875,-45.8984375,22.4609375,-230.95703125,-73.73046875,-4.8828125,0.0
26.93359375,-46.875,22.4609375,-15.13671875,-77.63671875,-3.41796875,0.0
26.9375,-32.2265625,5.37109375,87.40234375,-73.2421875,0.9765625,0.0
26.94140625,-28.80859375,-2.9296875,31.25,-68.84765625,-38.0859375,0.0
26.9453125,-32.2265625,-11.71875,-215.8203125,-80.078125,-21.484375,0.0
26.94921875,-20.01953125,-22.94921875,-267.08984375,-69.82421875,-11.23046875,0.0
26.953125,-19.04296875,-32.2265625,-63.4765625,-58.10546875,-44.43359375,0.0
26.95703125,-15.13671875,-29.78515625,184.08203125,-59.5703125,-14.6484375,0.0
26.9609375,-17.578125,-32.2265625,105.95703125,-73.2421875,-44.43359375,0.0
26.96484375,-32.71484375,-43.45703125,-185.546875,-83.984375,-111.81640625,0.0
26.96875,-33.203125,-45.8984375,-344.7265625,-67.3828125,-126.953125,0.0
26.97265625,-25.390625,-40.0390625,-170.41015625,-62.01171875,-83.984375,0.0
26.9765625,-24.4140625,-36.1328125,294.921875,-56.15234375,-31.73828125,0.0
26.98046875,-7.32421875,-45.8984375,188.96484375,-45.8984375,-44.921875,0.0
26.984375,-9.765625,-52.734375,-298.828125,-40.0390625,-98.14453125,0.0
26.98828125,-19.04296875,-52.734375,-373.046875,-31.25,-29.296875,0.0
26.9921875,-19.53125,-50.78125,-141.6015625,-48.828125,29.296875,0.0
26.99609375,-30.76171875,-56.15234375,119.62890625,-62.5,31.73828125,0.0
27.0,-41.015625,-73.2421875,152.83203125,-52.734375,39.55078125,0.0
27.00390625,-33.69140625,-73.2421875,-133.7890625,-53.22265625,-11.71875,0.0
27.0078125,-24.90234375,-62.5,-311.5234375,-57.6171875,-27.34375,0.0
27.01171875,-40.52734375,-55.17578125,-188.4765625,-59.08203125,-1.46484375,0.0
27.015625,-40.0390625,-55.17578125,81.0546875,-70.3125,-19.53125,0.0
27.01953125,-27.83203125,-51.26953125,194.3359375,-57.6171875,-27.83203125,0.0
27.0234375,-23.4375,-46.38671875,-45.41015625,-58.59375,-17.578125,0.0
27.02734375,-36.62109375,-47.36328125,-311.5234375,-64.94140625,-17.578125,0.0
27.03125,-37.59765625,-51.7578125,-255.37109375,-61.5234375,24.4140625,0.0
27.03515625,-26.85546875,-54.19921875,26.85546875,-67.87109375,109.86328125,0.0
27.0390625,-29.296875,-48.828125,190.91796875,-64.453125,130.859375,0.0
27.04296875,-38.0859375,-51.26953125,-35.64453125,-60.05859375,8.30078125,0.0
27.046875,-34.1796875,-56.15234375,-350.5859375,-55.17578125,-61.03515625,0.0
27.05078125,-41.50390625,-27.34375,-207.51953125,-50.78125,-38.0859375,0.0
27.0546875,-57.6171875,-28.80859375,138.18359375,-54.19921875,-86.42578125,0.0
27.05859375,-44.43359375,-61.03515625,141.11328125,-62.01171875,-107.421875,0.0
27.0625,-42.96875,-42.48046875,-99.609375,-57.6171875,-64.94140625,0.0
27.06640625,-56.15234375,-37.59765625,-306.640625,-61.5234375,-43.9453125,0.0
27.0703125,-74.70703125,-50.29296875,-197.75390625,-65.91796875,-15.625,0.0
27.07421875,-60.546875,-37.59765625,74.70703125,-55.17578125,-75.68359375,0.0
27.078125,-33.203125,-37.59765625,160.64453125,-51.7578125,-83.984375,0.0
27.08203125,-45.41015625,-24.4140625,-13.671875,-60.05859375,-39.55078125,0.0
27.0859375,-68.359375,-24.4140625,-286.1328125,-73.2421875,-62.98828125,0.0
27.08984375,-62.98828125,-78.61328125,-309.08203125,-77.63671875,54.6875,0.0
27.09375,-49.8046875,-69.82421875,-19.04296875,-63.4765625,23.92578125,0.0
27.09765625,-43.9453125,-52.734375,193.84765625,-50.78125,-55.6640625,0.0
27.1015625,-58.59375,-53.7109375,96.6796875,-52.24609375,-59.5703125,0.0
27.10546875,-67.3828125,-58.59375,-230.46875,-60.546875,-80.078125,0.0
27.109375,-46.38671875,-53.22265625,-357.421875,-71.2890625,-27.34375,0.0
27.11328125,-44.43359375,-47.36328125,-90.33203125,-63.96484375,7.32421875,0.0
27.1171875,-39.55078125,-41.50390625,290.0390625,-55.6640625,24.4140625,0.0
27.12109375,-35.15625,-47.8515625,203.61328125,-67.3828125,-27.83203125,0.0
27.125,-27.34375,-46.875,-248.53515625,-56.15234375,-29.78515625,0.0
27.12890625,-19.04296875,-43.45703125,-390.625,-26.3671875,28.80859375,0.0
27.1328125,-50.29296875,-43.9453125,-67.87109375,-31.73828125,13.18359375,0.0
27.13671875,-59.08203125,-42.96875,229.4921875,-48.828125,-16.6015625,0.0
27.140625,-81.54296875,-37.59765625,197.75390625,-72.75390625,-20.01953125,0.0
27.14453125,-103.515625,-28.80859375,-99.609375,-107.91015625,2.44140625,0.0
27.1484375,-89.35546875,-21.97265625,-333.984375,-88.37890625,-50.29296875,0.0
27.15234375,-92.7734375,-13.18359375,-173.828125,-75.1953125,-49.31640625,0.0
27.15625,-91.30859375,-23.4375,137.6953125,-69.82421875,-48.828125,0.0
27.16015625,-73.73046875,-16.6015625,142.08984375,-48.33984375,-40.52734375,0.0
27.1640625,-59.08203125,0.9765625,-34.66796875,-63.96484375,-14.6484375,0.0
27.16796875,-60.546875,-1.46484375,-193.84765625,-72.265625,-22.4609375,0.0
27.171875,-71.2890625,-2.9296875,-199.70703125,-83.0078125,-0.9765625,0.0
27.17578125,-74.21875,11.71875,77.63671875,-79.1015625,-71.2890625,0.0
27.1796875,-51.7578125,24.90234375,244.140625,-65.4296875,-135.7421875,0.0
27.18359375,-49.8046875,20.01953125,-71.77734375,-60.05859375,-43.9453125,0.0
27.1875,-64.94140625,33.203125,-300.29296875,-64.453125,25.87890625,0.0
27.19140625,-60.05859375,36.1328125,-189.94140625,-75.68359375,-125.0,0.0
27.1953125,-62.5,24.90234375,59.08203125,-66.40625,-185.546875,0.0
27.19921875,-60.546875,29.296875,191.40625,-53.7109375,-85.44921875,0.0
27.203125,-42.48046875,30.76171875,-87.40234375,-43.45703125,-56.15234375,0.0
27.20703125,-48.828125,41.9921875,-371.58203125,-56.15234375,-28.3203125,0.0
27.2109375,-56.640625,42.96875,-173.33984375,-63.96484375,-34.1796875,0.0
27.21484375,-42.96875,22.4609375,118.1640625,-47.8515625,-66.40625,0.0
27.21875,-47.36328125,7.32421875,94.7265625,-57.12890625,-78.61328125,0.0
27.22265625,-54.19921875,3.41796875,-120.60546875,-56.640625,-89.35546875,0.0
27.2265625,-51.7578125,1.953125,-329.58984375,-50.78125,-40.0390625,0.0
27.23046875,-50.78125,4.39453125,-230.95703125,-60.546875,-39.55078125,0.0
27.234375,-51.7578125,-4.8828125,13.18359375,-62.98828125,-7.8125,0.0
27.23828125,-40.52734375,-21.97265625,157.71484375,-61.03515625,29.296875,0.0
27.2421875,-31.73828125,-26.85546875,98.6328125,-62.01171875,-50.78125,0.0
27.24609375,-41.015625,-30.76171875,-282.71484375,-61.5234375,3.90625,0.0
27.25,-47.8515625,-42.48046875,-408.69140625,-66.40625,24.90234375,0.0
27.25390625,-47.8515625,-41.50390625,-91.30859375,-65.4296875,-20.99609375,0.0
27.2578125,-49.8046875,-41.50390625,264.16015625,-55.6640625,11.23046875,0.0
27.26171875,-34.1796875,-52.24609375,130.859375,-43.45703125,-25.87890625,0.0
27.265625,-27.83203125,-69.82421875,-339.84375,-50.29296875,-62.5,0.0
27.26953125,-47.36328125,-58.59375,-402.34375,-65.91796875,-86.42578125,0.0
27.2734375,-47.8515625,-54.19921875,-68.359375,-60.05859375,-89.84375,0.0
27.27734375,-44.43359375,-62.5,194.3359375,-58.59375,-29.296875,0.0
27.28125,-32.71484375,-57.6171875,63.4765625,-69.3359375,-88.8671875,0.0
27.28515625,-35.15625,-108.3984375,-229.98046875,-73.2421875,-147.4609375,0.0
27.2890625,-45.8984375,-105.46875,-317.3828125,-76.66015625,-82.03125,0.0
27.29296875,-30.2734375,-43.9453125,-73.2421875,-70.3125,-21.484375,0.0
27.296875,-37.109375,-41.50390625,156.25,-72.75390625,-86.9140625,0.0
27.30078125,-40.52734375,-96.6796875,76.171875,-63.4765625,-114.74609375,0.0
27.3046875,-38.57421875,-149.90234375,-135.7421875,-58.10546875,8.7890625,0.0
27.30859375,-26.85546875,-42.48046875,-309.08203125,-55.17578125,54.6875,0.0
27.3125,-36.1328125,-68.359375,-203.61328125,-60.546875,-35.64453125,0.0
27.31640625,-50.29296875,-136.23046875,50.29296875,-80.078125,-145.99609375,0.0
27.3203125,-48.828125,-34.66796875,68.84765625,-73.73046875,-9.765625,0.0
27.32421875,-45.8984375,-55.6640625,-179.19921875,-72.75390625,80.078125,0.0
27.328125,-51.26953125,-88.8671875,-385.7421875,-74.21875,-7.8125,0.0
27.33203125,-51.7578125,-33.69140625,-187.01171875,-57.12890625,21.484375,0.0
27.3359375,-35.64453125,-36.1328125,146.484375,-61.5234375,19.04296875,0.0
27.33984375,-34.66796875,-58.59375,78.61328125,-72.75390625,17.08984375,0.0
27.34375,-37.59765625,-53.7109375,-194.3359375,-58.10546875,2.9296875,0.0
27.34765625,-37.109375,-40.0390625,-382.8125,-41.50390625,46.38671875,0.0
27.3515625,-29.296875,-44.43359375,-170.8984375,-59.5703125,117.67578125,0.0
27.35546875,-36.1328125,-57.6171875,175.29296875,-82.51953125,20.99609375,0.0
27.359375,-45.41015625,-58.59375,139.6484375,-80.078125,-83.49609375,0.0
27.36328125,-40.0390625,-54.6875,-176.7578125,-69.82421875,-135.7421875,0.0
27.3671875,-33.203125,-52.24609375,-374.51171875,-47.36328125,-167.48046875,0.0
27.37109375,-24.90234375,-39.0625,-276.3671875,-54.6875,-135.7421875,0.0
27.375,-31.73828125,-39.0625,30.2734375,-61.5234375,-147.4609375,0.0
27.37890625,-29.296875,-50.78125,178.22265625,-49.31640625,-164.0625,0.0
27.3828125,-19.53125,-42.48046875,10.25390625,-53.22265625,-161.1328125,0.0
27.38671875,-27.83203125,-32.2265625,-338.8671875,-57.12890625,-139.16015625,0.0
27.390625,-24.90234375,-31.73828125,-337.40234375,-48.828125,-91.796875,0.0
27.39453125,-8.30078125,-26.3671875,26.85546875,-53.22265625,-125.9765625,0.0
27.3984375,0.48828125,-36.1328125,266.11328125,-66.89453125,-166.015625,0.0
27.40234375,-4.39453125,-37.59765625,43.45703125,-64.453125,-129.8828125,0.0
27.40625,-28.80859375,-35.15625,-395.5078125,-63.96484375,-116.2109375,0.0
27.41015625,-43.45703125,-40.0390625,-354.4921875,-67.87109375,-137.6953125,0.0
27.4140625,-48.33984375,-46.875,28.80859375,-60.05859375,-134.27734375,0.0
27.41796875,-43.45703125,-42.96875,141.11328125,-52.24609375,-87.890625,0.0
27.421875,-55.6640625,-47.8515625,-13.671875,-49.31640625,-94.23828125,0.0
27.42578125,-88.37890625,-49.8046875,-205.56640625,-61.03515625,-3.41796875,0.0
27.4296875,-71.77734375,-44.43359375,-271.97265625,-61.03515625,153.3203125,0.0
27.43359375,-55.6640625,-55.17578125,-102.5390625,-41.9921875,63.4765625,0.0
27.4375,-51.26953125,-60.05859375,140.13671875,-53.22265625,-56.15234375,0.0
27.44140625,-54.6875,-51.26953125,83.0078125,-66.40625,65.91796875,0.0
27.4453125,-59.5703125,-41.9921875,-160.15625,-57.6171875,70.80078125,0.0
27.44921875,-64.453125,-44.43359375,-329.1015625,-62.5,-0.48828125,0.0
27.453125,-67.87109375,-56.15234375,-147.4609375,-71.2890625,26.85546875,0.0
27.45703125,-58.10546875,-52.734375,159.1796875,-64.94140625,43.9453125,0.0
27.4609375,-59.08203125,-42.96875,125.9765625,-70.3125,-1.953125,0.0
27.46484375,-56.640625,-36.1328125,-179.19921875,-69.3359375,36.1328125,0.0
27.46875,-43.9453125,-39.55078125,-310.05859375,-60.546875,99.12109375,0.0
27.47265625,-43.45703125,-43.45703125,-146.97265625,-52.734375,35.15625,0.0
27.4765625,-42.96875,-35.64453125,172.36328125,-44.43359375,-26.3671875,0.0
27.48046875,-21.97265625,-40.0390625,186.5234375,-40.52734375,-6.34765625,0.0
27.484375,-29.296875,-39.55078125,-188.4765625,-38.57421875,48.33984375,0.0
27.48828125,-47.8515625,-34.66796875,-417.96875,-41.015625,-8.30078125,0.0
27.4921875,-47.36328125,-26.85546875,-104.00390625,-47.36328125,-56.15234375,0.0
27.49609375,-34.66796875,-26.85546875,208.984375,-54.6875,-80.56640625,0.0
27.5,-35.64453125,-31.73828125,56.640625,-60.546875,21.484375,0.0
27.50390625,-19.04296875,-27.83203125,-167.48046875,-49.31640625,98.6328125,0.0
27.5078125,-30.76171875,-22.4609375,-323.73046875,-55.17578125,18.5546875,0.0
27.51171875,-62.01171875,-16.6015625,-285.15625,-62.5,13.671875,0.0
27.515625,-56.640625,-22.94921875,23.4375,-53.7109375,-8.7890625,0.0
27.51953125,-50.78125,-31.73828125,155.76171875,-45.8984375,-73.2421875,0.0
27.5234375,-47.8515625,-33.203125,-77.1484375,-33.69140625,-56.640625,0.0
27.52734375,-54.6875,-28.3203125,-416.015625,-37.59765625,26.85546875,0.0
27.53125,-53.7109375,-27.83203125,-335.44921875,-48.828125,21.97265625,0.0
27.53515625,-50.29296875,-29.296875,42.48046875,-46.875,-42.96875,0.0
27.5390625,-40.52734375,-23.92578125,223.6328125,-44.921875,-130.859375,0.0
27.54296875,-34.66796875,-25.87890625,-4.39453125,-50.29296875,-97.16796875,0.0
27.546875,-40.0390625,-33.203125,-402.34375,-52.734375,-27.83203125,0.0
27.55078125,-21.97265625,-35.64453125,-364.2578125,-37.109375,-54.19921875,0.0
27.5546875,-15.13671875,-29.296875,7.8125,-46.38671875,-42.96875,0.0
27.55859375,-31.25,-35.15625,189.94140625,-57.12890625,-56.15234375,0.0
27.5625,-41.015625,-44.921875,-29.78515625,-58.10546875,-58.59375,0.0
27.56640625,-45.41015625,-41.015625,-359.86328125,-64.453125,-95.21484375,0.0
27.5703125,-42.96875,-31.25,-319.82421875,-66.89453125,-116.69921875,0.0
27.57421875,-40.0390625,-32.71484375,23.4375,-69.82421875,-61.03515625,0.0
27.578125,-43.9453125,-40.0390625,204.1015625,-62.98828125,-107.91015625,0.0
27.58203125,-48.828125,-36.1328125,-29.78515625,-62.01171875,-64.453125,0.0
27.5859375,-43.45703125,-30.76171875,-269.53125,-63.4765625,23.92578125,0.0
27.58984375,-41.9921875,-35.15625,-270.99609375,-56.640625,41.9921875,0.0
27.59375,-42.48046875,-46.875,-153.80859375,-49.31640625,18.06640625,0.0
27.59765625,-47.36328125,-45.8984375,97.65625,-55.17578125,-56.640625,0.0
27.6015625,-41.50390625,-36.1328125,94.7265625,-52.734375,-99.609375,0.0
27.60546875,-37.59765625,-31.25,-280.2734375,-46.38671875,-63.4765625,0.0
27.609375,-40.0390625,-32.71484375,-410.15625,-46.38671875,-22.4609375,0.0
27.61328125,-41.015625,-33.69140625,-89.35546875,-45.8984375,0.0,0.0
27.6171875,-53.22265625,-27.34375,206.0546875,-69.3359375,110.83984375,0.0
27.62109375,-58.59375,-27.83203125,85.44921875,-72.75390625,82.51953125,0.0
27.625,-53.22265625,-37.59765625,-217.7734375,-57.6171875,1.953125,0.0
27.62890625,-53.7109375,-32.2265625,-357.91015625,-58.59375,13.671875,0.0
27.6328125,-55.6640625,-20.99609375,-78.61328125,-48.828125,-65.91796875,0.0
27.63671875,-52.734375,-23.4375,264.6484375,-46.875,-69.82421875,0.0
27.640625,-57.6171875,-31.73828125,110.83984375,-47.8515625,90.8203125,0.0
27.64453125,-57.6171875,-38.0859375,-277.83203125,-43.45703125,92.28515625,0.0
27.6484375,-41.015625,-38.57421875,-395.5078125,-54.6875,-26.85546875,0.0
27.65234375,-38.57421875,-36.62109375,-177.734375,-35.15625,-55.17578125,0.0
27.65625,-47.8515625,-33.203125,109.86328125,-28.3203125,-51.26953125,0.0
27.66015625,-40.52734375,-38.0859375,163.0859375,-52.734375,-37.109375,0.0
27.6640625,-41.9921875,-35.15625,-94.23828125,-60.546875,-16.11328125,0.0
27.66796875,-60.05859375,-24.4140625,-373.046875,-65.4296875,-13.18359375,0.0
27.671875,-58.10546875,-26.85546875,-236.81640625,-59.5703125,18.5546875,0.0
27.67578125,-51.26953125,-26.3671875,88.37890625,-55.6640625,-13.671875,0.0
27.6796875,-53.7109375,-12.6953125,253.41796875,-45.41015625,-34.1796875,0.0
27.68359375,-50.78125,-12.20703125,-43.9453125,-44.43359375,-0.9765625,0.0
27.6875,-40.52734375,-23.92578125,-417.96875,-48.33984375,-47.36328125,0.0
27.69140625,-41.015625,-20.99609375,-288.0859375,-45.41015625,-61.5234375,0.0
27.6953125,-47.36328125,-15.625,54.6875,-44.921875,-49.31640625,0.0
27.69921875,-40.0390625,-14.6484375,194.82421875,-46.38671875,-73.2421875,0.0
27.703125,-46.38671875,-22.4609375,-84.47265625,-53.22265625,-37.109375,0.0
27.70703125,-54.6875,-23.92578125,-352.05078125,-54.19921875,-42.48046875,0.0
27.7109375,-57.12890625,-16.11328125,-261.71875,-59.08203125,22.4609375,0.0
27.71484375,-48.33984375,-16.11328125,19.53125,-53.22265625,68.84765625,0.0
27.71875,-41.015625,-20.5078125,135.25390625,-62.5,57.12890625,0.0
27.72265625,-28.80859375,-22.4609375,-79.58984375,-63.96484375,22.4609375,0.0
27.7265625,-22.4609375,-21.97265625,-245.1171875,-37.59765625,-25.87890625,0.0
27.73046875,-44.43359375,-26.3671875,-217.28515625,-38.57421875,-37.109375,0.0
27.734375,-45.8984375,-41.50390625,-73.2421875,-50.78125,-77.63671875,0.0
27.73828125,-32.71484375,-46.38671875,114.2578125,-50.78125,-65.4296875,0.0
27.7421875,-34.66796875,-43.45703125,100.09765625,-48.828125,-37.109375,0.0
27.74609375,-38.0859375,-41.50390625,-258.30078125,-47.8515625,-41.015625,0.0
27.75,-43.45703125,-34.1796875,-390.13671875,-51.7578125,-9.27734375,0.0
27.75390625,-42.96875,-36.1328125,-50.29296875,-49.8046875,11.23046875,0.0
27.7578125,-23.92578125,-41.9921875,206.0546875,-45.8984375,-11.23046875,0.0
27.76171875,-18.06640625,-45.8984375,94.23828125,-46.38671875,-74.70703125,0.0
27.765625,-26.85546875,-40.0390625,-275.87890625,-54.19921875,-73.2421875,0.0
27.76953125,-30.2734375,-34.1796875,-351.5625,-56.640625,-83.49609375,0.0
27.7734375,-25.87890625,-36.62109375,21.97265625,-50.29296875,-164.0625,0.0
27.77734375,-37.109375,-38.57421875,227.05078125,-50.78125,-142.578125,0.0
27.78125,-42.48046875,-25.390625,19.53125,-45.41015625,-8.7890625,0.0
27.78515625,-33.203125,-24.90234375,-283.69140625,-46.38671875,-47.8515625,0.0
27.7890625,-43.45703125,-33.203125,-323.73046875,-57.6171875,-98.6328125,0.0
27.79296875,-44.43359375,-41.015625,-94.7265625,-52.24609375,-10.7421875,0.0
27.796875,-36.62109375,-42.96875,155.2734375,-61.5234375,20.5078125,0.0
27.80078125,-33.203125,-39.55078125,219.23828125,-69.3359375,25.390625,0.0
27.8046875,-35.15625,-47.36328125,-64.94140625,-64.94140625,41.50390625,0.0
27.80859375,-30.2734375,-44.43359375,-411.62109375,-52.734375,20.99609375,0.0
27.8125,-32.2265625,-41.50390625,-226.07421875,-53.22265625,22.94921875,0.0
27.81640625,-26.3671875,-33.69140625,117.67578125,-55.6640625,51.7578125,0.0
27.8203125,-23.4375,-18.5546875,218.75,-50.78125,41.015625,0.0
27.82421875,-39.0625,-29.78515625,-104.00390625,-59.5703125,-39.55078125,0.0
27.828125,-25.390625,-41.015625,-440.91796875,-53.22265625,-70.80078125,0.0
27.83203125,-5.37109375,-39.0625,-257.8125,-24.90234375,24.90234375,0.0
27.8359375,-25.390625,-35.64453125,140.625,-28.3203125,-2.9296875,0.0
27.83984375,-45.8984375,-35.64453125,246.09375,-58.10546875,-1.953125,0.0
27.84375,-43.45703125,-30.2734375,-68.359375,-42.48046875,57.12890625,0.0
27.84765625,-34.1796875,-34.66796875,-379.8828125,-22.4609375,-34.66796875,0.0
27.8515625,-12.6953125,-34.66796875,-196.2890625,-29.78515625,-40.52734375,0.0
27.85546875,-13.671875,-35.15625,227.5390625,-42.96875,53.7109375,0.0
27.859375,-32.71484375,-43.9453125,222.65625,-54.6875,16.11328125,0.0
27.86328125,-41.015625,-45.8984375,-119.140625,-61.03515625,-120.1171875,0.0
27.8671875,-39.0625,-50.29296875,-251.46484375,-52.734375,-148.92578125,0.0
27.87109375,-18.5546875,-54.6875,-154.78515625,-50.29296875,-110.3515625,0.0
27.875,-25.390625,-47.8515625,70.80078125,-54.6875,-1.953125,0.0
27.87890625,-41.9921875,-45.41015625,184.08203125,-40.52734375,61.5234375,0.0
27.8828125,-33.69140625,-44.921875,-28.3203125,-33.203125,1.46484375,0.0
27.88671875,-46.875,-40.0390625,-352.5390625,-40.0390625,7.32421875,0.0
27.890625,-54.19921875,-40.52734375,-316.40625,-47.8515625,-67.87109375,0.0
27.89453125,-55.17578125,-42.48046875,78.61328125,-58.10546875,-211.42578125,0.0
27.8984375,-57.6171875,-40.0390625,248.046875,-53.7109375,-289.55078125,0.0
27.90234375,-50.29296875,-36.62109375,18.06640625,-47.36328125,-206.54296875,0.0
27.90625,-45.41015625,-41.9921875,-311.5234375,-41.9921875,-141.11328125,0.0
27.91015625,-31.73828125,-43.9453125,-290.52734375,-36.62109375,-153.3203125,0.0
27.9140625,-31.73828125,-37.59765625,144.53125,-49.8046875,-38.57421875,0.0
27.91796875,-46.38671875,-40.52734375,273.92578125,-62.98828125,12.20703125,0.0
27.921875,-34.66796875,-47.8515625,-23.92578125,-48.828125,17.08984375,0.0
27.92578125,-24.4140625,-52.24609375,-323.73046875,-33.203125,26.85546875,0.0
27.9296875,-35.64453125,-44.43359375,-319.3359375,-38.0859375,-35.64453125,0.0
27.93359375,-37.109375,-43.9453125,-33.203125,-32.2265625,-77.63671875,0.0
27.9375,-17.578125,-47.8515625,204.1015625,-30.2734375,-92.28515625,0.0
27.94140625,-21.484375,-40.52734375,71.2890625,-48.33984375,-87.40234375,0.0
27.9453125,-34.1796875,-38.0859375,-203.125,-57.12890625,-31.73828125,0.0
27.94921875,-25.390625,-41.015625,-305.17578125,-51.7578125,-18.06640625,0.0
27.953125,-35.15625,-42.48046875,-104.00390625,-56.15234375,24.4140625,0.0
27.95703125,-33.69140625,-43.45703125,144.53125,-62.01171875,39.55078125,0.0
27.9609375,-45.8984375,-39.0625,207.03125,-62.98828125,-25.87890625,0.0
27.96484375,-57.12890625,-47.36328125,-62.98828125,-68.359375,-54.6875,0.0
27.96875,-50.29296875,-56.15234375,-398.92578125,-58.59375,-31.73828125,0.0
27.97265625,-49.8046875,-44.43359375,-282.2265625,-49.31640625,-88.37890625,0.0
27.9765625,-51.26953125,-37.59765625,98.14453125,-51.7578125,-86.42578125,0.0
27.98046875,-62.5,-36.1328125,184.08203125,-60.05859375,4.39453125,0.0
27.984375,-61.03515625,-37.59765625,-144.53125,-57.6171875,-1.46484375,0.0
27.98828125,-47.8515625,-38.57421875,-351.5625,-52.734375,10.25390625,0.0
27.9921875,-40.0390625,-37.109375,-140.625,-55.6640625,55.6640625,0.0
27.99609375,-53.22265625,-35.64453125,63.96484375,-58.10546875,-27.34375,0.0
28.0,-46.875,-37.59765625,100.09765625,-53.22265625,-104.00390625,0.0
28.00390625,-48.33984375,-39.55078125,-120.60546875,-54.6875,-83.49609375,0.0
28.0078125,-49.8046875,-32.71484375,-264.6484375,-59.5703125,-105.95703125,0.0
28.01171875,-33.203125,-24.4140625,-166.9921875,-41.50390625,-92.28515625,0.0
28.015625,-30.76171875,-28.80859375,48.33984375,-35.64453125,-53.7109375,0.0
28.01953125,-40.52734375,-33.69140625,145.99609375,-61.03515625,-32.2265625,0.0
28.0234375,-55.17578125,-33.69140625,-89.35546875,-75.1953125,14.6484375,0.0
28.02734375,-43.9453125,-28.80859375,-395.5078125,-62.01171875,17.08984375,0.0
28.03125,-46.875,-30.76171875,-308.10546875,-70.80078125,-13.671875,0.0
28.03515625,-46.875,-38.57421875,41.9921875,-82.03125,-33.203125,0.0
28.0390625,-29.78515625,-28.3203125,228.515625,-69.82421875,75.1953125,0.0
28.04296875,-40.0390625,-28.3203125,12.6953125,-68.84765625,45.41015625,0.0
28.046875,-35.64453125,-37.59765625,-316.40625,-61.5234375,-27.34375,0.0
28.05078125,-28.3203125,-42.96875,-289.0625,-65.4296875,-7.8125,0.0
28.0546875,-41.50390625,-34.1796875,127.9296875,-53.7109375,28.3203125,0.0
28.05859375,-58.10546875,-29.78515625,255.37109375,-43.45703125,48.828125,0.0
28.0625,-49.31640625,-32.71484375,-69.82421875,-56.640625,-20.5078125,0.0
28.06640625,-39.55078125,-28.80859375,-360.83984375,-55.6640625,24.90234375,0.0
28.0703125,-58.59375,-27.34375,-295.41015625,-55.6640625,91.30859375,0.0
28.07421875,-57.12890625,-28.80859375,11.23046875,-54.19921875,3.90625,0.0
28.078125,-50.78125,-27.83203125,234.375,-43.9453125,-47.8515625,0.0
28.08203125,-48.828125,-33.203125,132.32421875,-45.41015625,-37.109375,0.0
28.0859375,-46.875,-30.76171875,-265.13671875,-50.29296875,-43.45703125,0.0
28.08984375,-54.19921875,-24.4140625,-365.234375,-47.8515625,-23.4375,0.0
28.09375,-62.98828125,-28.3203125,-75.68359375,-44.921875,-2.9296875,0.0
28.09765625,-48.33984375,-29.296875,160.64453125,-48.828125,-33.203125,0.0
28.1015625,-43.9453125,-22.4609375,176.26953125,-37.59765625,-26.85546875,0.0
28.10546875,-54.6875,-23.92578125,-157.2265625,-36.1328125,18.06640625,0.0
28.109375,-49.31640625,-41.9921875,-434.08203125,-59.08203125,-43.9453125,0.0
28.11328125,-37.59765625,-44.43359375,-188.96484375,-56.15234375,-130.37109375,0.0
28.1171875,-37.59765625,-26.3671875,234.86328125,-46.38671875,-147.4609375,0.0
28.12109375,-47.36328125,-29.78515625,150.390625,-51.26953125,-126.46484375,0.0
28.125,-49.31640625,-34.66796875,-218.75,-50.29296875,-70.80078125,0.0
28.12890625,-43.9453125,-29.78515625,-392.08984375,-50.78125,19.53125,0.0
28.1328125,-44.43359375,-34.1796875,-109.375,-41.50390625,-49.31640625,0.0
28.13671875,-38.0859375,-32.2265625,250.48828125,-40.0390625,-164.55078125,0.0
28.140625,-28.80859375,-22.4609375,107.421875,-54.6875,-135.25390625,0.0
28.14453125,-35.15625,-23.4375,-206.54296875,-55.17578125,-52.24609375,0.0
28.1484375,-39.0625,-22.94921875,-268.06640625,-58.10546875,38.0859375,0.0
28.15234375,-35.15625,-23.4375,-147.4609375,-56.640625,60.05859375,0.0
28.15625,-29.296875,-37.109375,72.265625,-44.921875,-36.1328125,0.0
28.16015625,-30.76171875,-36.1328125,162.109375,-38.57421875,-40.52734375,0.0
28.1640625,-30.76171875,-29.78515625,-87.40234375,-32.2265625,-39.55078125,0.0
28.16796875,-40.52734375,-31.25,-366.69921875,-37.59765625,-94.7265625,0.0
28.171875,-37.109375,-30.2734375,-258.7890625,-51.7578125,-60.546875,0.0
28.17578125,-42.96875,-28.80859375,152.83203125,-62.98828125,-63.4765625,0.0
28.1796875,-53.7109375,-26.85546875,261.23046875,-63.96484375,-114.2578125,0.0
28.18359375,-44.43359375,-27.83203125,-112.79296875,-69.3359375,-97.65625,0.0
28.1875,-42.96875,-30.2734375,-368.1640625,-63.4765625,-61.5234375,0.0
28.19140625,-47.36328125,-25.87890625,-239.2578125,-53.7109375,-4.39453125,0.0
28.1953125,-48.828125,-12.6953125,155.2734375,-48.828125,48.33984375,0.0
28.19921875,-41.015625,-13.18359375,260.25390625,-35.64453125,53.7109375,0.0
28.203125,-40.52734375,-26.85546875,-96.6796875,-40.52734375,39.0625,0.0
28.20703125,-47.8515625,-29.296875,-368.1640625,-55.6640625,40.0390625,0.0
28.2109375,-47.36328125,-21.484375,-245.1171875,-37.59765625,101.5625,0.0
28.21484375,-34.66796875,-23.92578125,109.375,-38.57421875,21.97265625,0.0
28.21875,-18.06640625,-25.87890625,208.49609375,-57.12890625,-63.4765625,0.0
28.22265625,-19.53125,-21.484375,-14.16015625,-49.8046875,-18.06640625,0.0
28.2265625,-36.1328125,-20.99609375,-298.828125,-52.734375,-44.921875,0.0
28.23046875,-20.01953125,-17.08984375,-273.4375,-38.57421875,-54.6875,0.0
28.234375,4.39453125,-18.5546875,-19.04296875,-23.92578125,-64.453125,0.0
28.23828125,-11.23046875,-20.5078125,141.6015625,-53.22265625,-30.2734375,0.0
28.2421875,-28.80859375,-16.11328125,154.296875,-68.84765625,-30.76171875,0.0
28.24609375,-30.76171875,-26.3671875,-184.08203125,-63.96484375,-79.1015625,0.0
28.25,-40.0390625,-26.85546875,-395.5078125,-74.70703125,-86.9140625,0.0
28.25390625,-29.296875,-20.5078125,-163.57421875,-44.43359375,-55.6640625,0.0
28.2578125,-20.5078125,-27.83203125,204.58984375,-36.1328125,-145.01953125,0.0
28.26171875,-42.48046875,-34.1796875,150.87890625,-70.3125,-276.85546875,0.0
28.265625,-52.734375,-39.55078125,-273.4375,-54.6875,-154.296875,0.0
28.26953125,-45.8984375,-41.50390625,-329.58984375,-52.734375,-89.35546875,0.0
28.2734375,-48.33984375,-37.109375,-52.734375,-52.24609375,-71.2890625,0.0
28.27734375,-38.0859375,-36.62109375,117.1875,-34.1796875,-67.3828125,0.0
28.28125,-12.6953125,-36.62109375,57.6171875,-40.0390625,-110.83984375,0.0
28.28515625,-30.76171875,-33.203125,-228.02734375,-50.29296875,-160.15625,0.0
28.2890625,-44.921875,-29.78515625,-264.6484375,-54.19921875,-183.59375,0.0
