timestamp,TP9,AF7,AF8,TP10,AUX,Marker,
168.00390625,-30.2734375,-22.94921875,-34.1796875,-8.30078125,3.41796875,0.0
168.0078125,-23.92578125,-27.34375,-38.0859375,-5.859375,49.8046875,0.0
168.01171875,-35.15625,-38.57421875,-38.57421875,-1.46484375,37.59765625,0.0
168.015625,-38.57421875,-42.48046875,-38.57421875,-8.30078125,-56.640625,0.0
168.01953125,-28.3203125,-26.85546875,-32.71484375,-10.7421875,-40.52734375,0.0
168.0234375,-33.69140625,-22.94921875,-32.71484375,-8.30078125,88.8671875,0.0
168.02734375,-38.0859375,-27.34375,-37.59765625,-11.71875,93.26171875,0.0
168.03125,-46.38671875,-42.96875,-46.875,-27.83203125,-33.203125,0.0
168.03515625,-67.3828125,-62.5,-61.5234375,-46.875,-152.83203125,0.0
168.0390625,-59.08203125,-50.29296875,-45.41015625,-47.8515625,-132.32421875,0.0
168.04296875,-45.41015625,-33.69140625,-35.15625,-41.50390625,-73.2421875,0.0
168.046875,-64.453125,-29.78515625,-41.015625,-35.15625,-93.26171875,0.0
168.05078125,-55.6640625,-30.76171875,-37.109375,-29.78515625,-20.01953125,0.0
168.0546875,-37.109375,-35.15625,-40.52734375,-32.2265625,17.578125,0.0
168.05859375,-37.109375,-32.2265625,-36.62109375,-31.25,-17.08984375,0.0
168.0625,-32.2265625,-21.97265625,-35.15625,-26.85546875,-61.03515625,0.0
168.06640625,-31.25,-24.90234375,-41.50390625,-26.85546875,-45.8984375,0.0
168.0703125,-40.52734375,-35.15625,-42.48046875,-20.99609375,15.625,0.0
168.07421875,-39.0625,-34.1796875,-42.48046875,-23.4375,0.0,0.0
168.078125,-47.8515625,-42.48046875,-49.8046875,-41.50390625,-62.5,0.0
168.08203125,-47.8515625,-47.8515625,-57.6171875,-42.48046875,-96.6796875,0.0
168.0859375,-35.64453125,-36.62109375,-49.31640625,-29.78515625,-5.859375,0.0
168.08984375,-46.875,-38.57421875,-48.33984375,-38.0859375,46.38671875,0.0
168.09375,-48.33984375,-45.8984375,-50.78125,-43.9453125,-11.71875,0.0
168.09765625,-48.828125,-38.57421875,-39.55078125,-41.9921875,-43.45703125,0.0
168.1015625,-45.8984375,-30.2734375,-35.64453125,-36.62109375,-37.59765625,0.0
168.10546875,-34.1796875,-32.71484375,-46.38671875,-32.2265625,-71.2890625,0.0
168.109375,-46.875,-41.50390625,-53.22265625,-33.69140625,-66.40625,0.0
168.11328125,-61.03515625,-43.45703125,-46.875,-28.3203125,-52.24609375,0.0
168.1171875,-53.7109375,-36.1328125,-34.66796875,-25.390625,-86.42578125,0.0
168.12109375,-53.7109375,-37.109375,-33.203125,-25.87890625,-95.703125,0.0
168.125,-70.80078125,-50.29296875,-52.24609375,-41.9921875,-116.69921875,0.0
168.12890625,-65.91796875,-42.48046875,-57.12890625,-46.38671875,-196.2890625,0.0
168.1328125,-47.36328125,-35.15625,-49.31640625,-35.64453125,-187.01171875,0.0
168.13671875,-46.875,-41.9921875,-48.828125,-36.62109375,-6.34765625,0.0
168.140625,-69.82421875,-34.66796875,-42.96875,-35.15625,55.6640625,0.0
168.14453125,-71.77734375,-32.71484375,-44.921875,-32.2265625,39.55078125,0.0
168.1484375,-63.96484375,-41.9921875,-53.7109375,-38.0859375,34.1796875,0.0
168.15234375,-54.6875,-42.48046875,-51.7578125,-30.76171875,27.83203125,0.0
168.15625,-48.33984375,-39.0625,-41.9921875,-32.2265625,-8.7890625,0.0
168.16015625,-47.8515625,-29.78515625,-34.66796875,-43.9453125,17.08984375,0.0
168.1640625,-42.96875,-22.94921875,-35.64453125,-34.66796875,56.640625,0.0
168.16796875,-52.24609375,-43.45703125,-58.10546875,-39.0625,-23.4375,0.0
168.171875,-71.77734375,-63.4765625,-73.2421875,-62.01171875,-28.3203125,0.0
168.17578125,-75.1953125,-43.9453125,-54.19921875,-50.78125,65.4296875,0.0
168.1796875,-58.10546875,-27.83203125,-38.57421875,-41.015625,54.6875,0.0
168.18359375,-40.0390625,-20.5078125,-36.1328125,-43.9453125,0.9765625,0.0
168.1875,-53.22265625,-26.3671875,-44.921875,-39.0625,-55.6640625,0.0
168.19140625,-58.10546875,-38.57421875,-49.8046875,-39.55078125,-149.90234375,0.0
168.1953125,-45.8984375,-42.48046875,-50.78125,-46.875,-180.17578125,0.0
168.19921875,-52.24609375,-39.0625,-46.875,-50.29296875,-142.578125,0.0
168.203125,-57.12890625,-27.34375,-40.52734375,-51.7578125,-88.37890625,0.0
168.20703125,-44.921875,-23.92578125,-39.0625,-45.41015625,-33.69140625,0.0
168.2109375,-49.8046875,-27.83203125,-43.9453125,-45.41015625,16.6015625,0.0
168.21484375,-70.3125,-42.96875,-53.22265625,-52.734375,41.015625,0.0
168.21875,-56.15234375,-38.57421875,-36.1328125,-36.62109375,-28.80859375,0.0
168.22265625,-50.29296875,-24.90234375,-25.87890625,-29.296875,-42.48046875,0.0
168.2265625,-58.59375,-35.15625,-37.109375,-32.2265625,-24.4140625,0.0
168.23046875,-53.22265625,-46.38671875,-49.31640625,-33.203125,-80.56640625,0.0
168.234375,-61.5234375,-55.17578125,-50.78125,-35.15625,-51.26953125,0.0
168.23828125,-64.94140625,-50.78125,-41.9921875,-25.87890625,5.859375,0.0
168.2421875,-62.5,-45.8984375,-47.36328125,-23.4375,-85.44921875,0.0
168.24609375,-68.359375,-52.24609375,-51.7578125,-33.69140625,-97.16796875,0.0
168.25,-48.828125,-53.22265625,-46.875,-20.99609375,-32.2265625,0.0
168.25390625,-23.4375,-45.41015625,-43.45703125,-2.9296875,-34.66796875,0.0
168.2578125,-42.96875,-38.0859375,-56.640625,-33.203125,-41.015625,0.0
168.26171875,-82.51953125,-44.921875,-73.73046875,-78.61328125,20.99609375,0.0
168.265625,-70.80078125,-37.109375,-68.84765625,-69.82421875,62.98828125,0.0
168.26953125,-66.89453125,-33.203125,-58.59375,-62.98828125,103.02734375,0.0
168.2734375,-73.73046875,-43.9453125,-56.15234375,-72.75390625,118.65234375,0.0
168.27734375,-63.4765625,-43.9453125,-52.24609375,-71.2890625,-58.10546875,0.0
168.28125,-62.01171875,-38.0859375,-49.8046875,-78.125,-167.48046875,0.0
168.28515625,-73.2421875,-38.57421875,-54.6875,-78.125,-85.44921875,0.0
168.2890625,-70.3125,-44.43359375,-62.98828125,-72.265625,-6.34765625,0.0
168.29296875,-69.3359375,-53.7109375,-68.84765625,-74.21875,-25.390625,0.0
168.296875,-75.68359375,-52.734375,-61.03515625,-62.98828125,-109.375,0.0
168.30078125,-63.96484375,-41.9921875,-58.10546875,-58.59375,-63.96484375,0.0
168.3046875,-67.87109375,-42.48046875,-67.87109375,-76.171875,84.9609375,0.0
168.30859375,-66.40625,-45.41015625,-72.265625,-80.56640625,35.15625,0.0
168.3125,-67.87109375,-53.22265625,-76.171875,-78.125,-109.375,0.0
168.31640625,-74.70703125,-61.03515625,-77.63671875,-89.84375,-137.6953125,0.0
168.3203125,-60.05859375,-56.15234375,-79.58984375,-99.609375,-103.02734375,0.0
168.32421875,-52.24609375,-48.828125,-78.61328125,-84.9609375,-68.359375,0.0
168.328125,-58.10546875,-48.828125,-80.56640625,-79.58984375,-77.1484375,0.0
168.33203125,-59.08203125,-53.7109375,-81.54296875,-83.0078125,-123.53515625,0.0
168.3359375,-49.31640625,-50.29296875,-75.1953125,-73.73046875,-68.84765625,0.0
168.33984375,-41.9921875,-39.55078125,-67.3828125,-61.03515625,-42.96875,0.0
168.34375,-45.8984375,-35.15625,-70.80078125,-49.8046875,-45.41015625,0.0
168.34765625,-59.5703125,-41.015625,-80.078125,-55.6640625,-3.90625,0.0
168.3515625,-69.3359375,-50.78125,-79.1015625,-57.6171875,20.01953125,0.0
168.35546875,-67.87109375,-51.7578125,-76.171875,-46.875,-9.27734375,0.0
168.359375,-60.546875,-51.26953125,-71.77734375,-44.43359375,-27.83203125,0.0
168.36328125,-69.3359375,-68.359375,-84.47265625,-62.01171875,-3.90625,0.0
168.3671875,-84.9609375,-79.58984375,-92.28515625,-61.5234375,-78.61328125,0.0
168.37109375,-89.35546875,-70.3125,-80.56640625,-42.96875,-161.1328125,0.0
168.375,-88.8671875,-71.2890625,-80.078125,-39.0625,-175.78125,0.0
168.37890625,-74.70703125,-62.98828125,-73.2421875,-39.55078125,-206.54296875,0.0
168.3828125,-69.3359375,-51.7578125,-66.89453125,-43.45703125,-195.80078125,0.0
168.38671875,-68.359375,-50.29296875,-74.21875,-48.33984375,-111.81640625,0.0
168.390625,-77.63671875,-62.98828125,-81.54296875,-51.7578125,-93.26171875,0.0
168.39453125,-87.890625,-70.80078125,-82.03125,-55.6640625,-83.49609375,0.0
168.3984375,-86.42578125,-58.59375,-76.66015625,-72.265625,-96.19140625,0.0
168.40234375,-90.8203125,-53.7109375,-75.1953125,-93.75,-114.2578125,0.0
168.40625,-107.91015625,-64.453125,-86.9140625,-105.46875,-76.66015625,0.0
168.41015625,-130.859375,-87.890625,-106.93359375,-119.140625,-103.515625,0.0
168.4140625,-123.53515625,-91.796875,-102.05078125,-111.81640625,-140.625,0.0
168.41796875,-109.375,-78.125,-86.9140625,-95.703125,-102.05078125,0.0
168.421875,-114.2578125,-68.359375,-81.54296875,-88.37890625,-69.3359375,0.0
168.42578125,-105.46875,-60.05859375,-81.0546875,-91.796875,-27.83203125,0.0
168.4296875,-109.375,-73.73046875,-88.37890625,-104.4921875,18.5546875,0.0
168.43359375,-114.2578125,-85.44921875,-93.26171875,-102.05078125,-47.36328125,0.0
168.4375,-114.2578125,-75.1953125,-85.44921875,-91.30859375,-65.4296875,0.0
168.44140625,-113.28125,-65.4296875,-85.44921875,-88.8671875,-95.21484375,0.0
168.4453125,-99.12109375,-67.3828125,-91.30859375,-90.8203125,-146.484375,0.0
168.44921875,-89.35546875,-75.68359375,-92.7734375,-88.37890625,-128.41796875,0.0
168.453125,-98.14453125,-88.8671875,-96.6796875,-85.44921875,-127.44140625,0.0
168.45703125,-96.6796875,-85.9375,-93.75,-84.47265625,-51.7578125,0.0
168.4609375,-89.35546875,-70.80078125,-84.47265625,-79.58984375,41.015625,0.0
168.46484375,-90.33203125,-71.77734375,-87.40234375,-83.0078125,49.31640625,0.0
168.46875,-94.7265625,-79.1015625,-96.19140625,-88.8671875,68.359375,0.0
168.47265625,-93.26171875,-80.078125,-92.28515625,-86.9140625,120.1171875,0.0
168.4765625,-101.5625,-81.0546875,-81.54296875,-87.890625,57.12890625,0.0
168.48046875,-93.26171875,-75.68359375,-78.61328125,-80.56640625,-38.57421875,0.0
168.484375,-89.84375,-76.66015625,-81.0546875,-77.1484375,-40.52734375,0.0
168.48828125,-122.0703125,-83.49609375,-83.984375,-75.68359375,-19.04296875,0.0
168.4921875,-127.9296875,-83.0078125,-82.51953125,-67.87109375,6.34765625,0.0
168.49609375,-118.1640625,-83.49609375,-77.63671875,-60.05859375,-32.2265625,0.0
168.5,-114.2578125,-86.42578125,-74.21875,-60.05859375,14.16015625,0.0
168.50390625,-113.28125,-83.0078125,-72.75390625,-66.89453125,26.85546875,0.0
168.5078125,-113.28125,-85.9375,-77.1484375,-68.84765625,-1.46484375,0.0
168.51171875,-124.0234375,-93.26171875,-81.54296875,-68.84765625,82.51953125,0.0
168.515625,-137.6953125,-98.14453125,-74.70703125,-60.05859375,92.28515625,0.0
168.51953125,-128.41796875,-93.75,-68.84765625,-54.19921875,61.5234375,0.0
168.5234375,-123.53515625,-88.8671875,-70.80078125,-57.6171875,93.75,0.0
168.52734375,-143.5546875,-94.23828125,-70.80078125,-51.26953125,68.84765625,0.0
168.53125,-141.11328125,-96.6796875,-70.3125,-43.45703125,6.8359375,0.0
168.53515625,-133.7890625,-95.21484375,-62.01171875,-45.41015625,-20.01953125,0.0
168.5390625,-122.55859375,-82.03125,-47.8515625,-47.8515625,1.953125,0.0
168.54296875,-113.76953125,-82.03125,-57.12890625,-56.640625,41.9921875,0.0
168.546875,-115.72265625,-97.65625,-66.40625,-62.5,24.4140625,0.0
168.55078125,-119.62890625,-92.7734375,-66.40625,-50.29296875,34.1796875,0.0
168.5546875,-112.79296875,-89.84375,-61.5234375,-43.45703125,-10.25390625,0.0
168.55859375,-100.09765625,-82.03125,-51.7578125,-42.96875,-62.98828125,0.0
168.5625,-109.375,-74.70703125,-61.5234375,-44.921875,66.89453125,0.0
168.56640625,-118.1640625,-79.58984375,-67.87109375,-54.19921875,58.59375,0.0
168.5703125,-120.1171875,-84.9609375,-74.70703125,-64.94140625,-28.80859375,0.0
168.57421875,-119.62890625,-86.9140625,-78.61328125,-68.359375,-37.59765625,0.0
168.578125,-128.41796875,-89.84375,-73.73046875,-67.3828125,-76.171875,0.0
168.58203125,-131.8359375,-83.0078125,-64.94140625,-70.3125,-73.2421875,0.0
168.5859375,-122.55859375,-78.125,-66.89453125,-78.61328125,10.25390625,0.0
168.58984375,-135.25390625,-91.796875,-83.49609375,-92.28515625,-55.6640625,0.0
168.59375,-147.4609375,-105.95703125,-84.9609375,-96.19140625,-125.48828125,0.0
168.59765625,-138.18359375,-95.703125,-77.63671875,-87.890625,-33.203125,0.0
168.6015625,-132.8125,-83.984375,-78.61328125,-92.7734375,-2.9296875,0.0
168.60546875,-127.9296875,-84.47265625,-74.70703125,-100.5859375,-38.57421875,0.0
168.609375,-123.046875,-87.890625,-76.66015625,-97.16796875,-76.171875,0.0
168.61328125,-142.578125,-94.23828125,-85.9375,-90.33203125,-44.43359375,0.0
168.6171875,-140.13671875,-95.21484375,-80.078125,-95.703125,17.08984375,0.0
168.62109375,-128.41796875,-91.796875,-78.61328125,-93.75,-12.6953125,0.0
168.625,-127.9296875,-87.40234375,-80.56640625,-87.40234375,-19.53125,0.0
168.62890625,-121.58203125,-87.890625,-83.984375,-91.796875,-74.70703125,0.0
168.6328125,-115.234375,-96.19140625,-85.44921875,-104.00390625,-70.80078125,0.0
168.63671875,-121.58203125,-108.88671875,-87.890625,-107.91015625,6.8359375,0.0
168.640625,-110.3515625,-104.00390625,-88.37890625,-97.16796875,74.70703125,0.0
168.64453125,-98.6328125,-92.7734375,-84.9609375,-89.35546875,69.82421875,0.0
168.6484375,-106.93359375,-95.703125,-89.35546875,-97.65625,24.90234375,0.0
168.65234375,-117.67578125,-100.5859375,-93.75,-102.05078125,25.87890625,0.0
168.65625,-121.58203125,-105.95703125,-96.19140625,-98.14453125,-16.6015625,0.0
168.66015625,-117.1875,-97.65625,-96.6796875,-102.05078125,-68.84765625,0.0
168.6640625,-126.46484375,-95.21484375,-100.09765625,-112.79296875,-34.1796875,0.0
168.66796875,-129.39453125,-99.609375,-101.07421875,-107.91015625,71.2890625,0.0
168.671875,-125.0,-106.4453125,-107.421875,-100.09765625,74.21875,0.0
168.67578125,-134.765625,-113.28125,-110.83984375,-113.28125,43.9453125,0.0
168.6796875,-136.23046875,-100.5859375,-102.5390625,-116.69921875,40.0390625,0.0
168.68359375,-119.62890625,-94.23828125,-108.3984375,-116.69921875,-41.9921875,0.0
168.6875,-128.41796875,-99.609375,-110.3515625,-114.74609375,-93.26171875,0.0
168.69140625,-141.6015625,-106.93359375,-108.88671875,-111.81640625,-39.0625,0.0
168.6953125,-136.23046875,-111.81640625,-114.2578125,-121.58203125,14.16015625,0.0
168.69921875,-128.41796875,-102.05078125,-102.05078125,-120.1171875,-38.0859375,0.0
168.703125,-118.65234375,-96.19140625,-96.6796875,-119.62890625,-22.94921875,0.0
168.70703125,-129.39453125,-98.6328125,-103.02734375,-129.39453125,42.96875,0.0
168.7109375,-131.8359375,-102.05078125,-108.88671875,-126.953125,23.4375,0.0
168.71484375,-124.51171875,-104.4921875,-111.328125,-123.53515625,-32.71484375,0.0
168.71875,-129.8828125,-97.65625,-104.00390625,-123.53515625,-51.26953125,0.0
168.72265625,-126.46484375,-85.44921875,-104.4921875,-119.62890625,-25.390625,0.0
168.7265625,-127.44140625,-81.54296875,-109.86328125,-114.2578125,3.90625,0.0
168.73046875,-132.8125,-90.8203125,-112.79296875,-114.2578125,-6.34765625,0.0
168.734375,-119.62890625,-100.5859375,-109.375,-104.98046875,15.13671875,0.0
168.73828125,-117.67578125,-97.65625,-108.3984375,-105.95703125,15.625,0.0
168.7421875,-135.25390625,-90.8203125,-112.79296875,-112.3046875,-11.23046875,0.0
168.74609375,-124.0234375,-84.9609375,-104.4921875,-101.5625,23.92578125,0.0
168.75,-123.53515625,-81.54296875,-98.14453125,-99.609375,42.96875,0.0
168.75390625,-128.90625,-88.37890625,-99.12109375,-98.14453125,-24.90234375,0.0
168.7578125,-121.09375,-84.47265625,-94.23828125,-96.19140625,-88.37890625,0.0
168.76171875,-107.421875,-73.73046875,-95.703125,-96.6796875,-69.82421875,0.0
168.765625,-106.93359375,-69.82421875,-101.07421875,-85.9375,-4.39453125,0.0
168.76953125,-117.1875,-70.3125,-96.6796875,-86.42578125,-26.85546875,0.0
168.7734375,-142.08984375,-83.0078125,-96.6796875,-111.328125,-72.75390625,0.0
168.77734375,-131.34765625,-79.58984375,-95.703125,-114.74609375,-122.55859375,0.0
168.78125,-124.51171875,-79.58984375,-92.28515625,-118.1640625,-91.796875,0.0
168.78515625,-156.73828125,-97.65625,-103.02734375,-142.578125,-16.11328125,0.0
168.7890625,-155.76171875,-97.16796875,-104.4921875,-130.859375,-23.4375,0.0
168.79296875,-146.97265625,-93.26171875,-93.26171875,-113.28125,-123.046875,0.0
168.796875,-156.73828125,-94.23828125,-92.28515625,-118.65234375,-155.76171875,0.0
168.80078125,-149.4140625,-85.9375,-90.33203125,-115.234375,-123.046875,0.0
168.8046875,-132.32421875,-82.51953125,-86.42578125,-109.86328125,-106.93359375,0.0
168.80859375,-129.39453125,-84.47265625,-89.35546875,-107.91015625,-98.14453125,0.0
168.8125,-139.16015625,-88.37890625,-93.75,-110.83984375,-88.8671875,0.0
168.81640625,-138.671875,-92.28515625,-90.33203125,-108.88671875,-43.9453125,0.0
168.8203125,-120.1171875,-79.1015625,-84.9609375,-104.4921875,-10.25390625,0.0
168.82421875,-111.328125,-70.3125,-90.33203125,-109.86328125,4.8828125,0.0
168.828125,-113.76953125,-80.078125,-96.19140625,-106.93359375,37.109375,0.0
168.83203125,-111.328125,-83.984375,-97.65625,-105.46875,-12.20703125,0.0
168.8359375,-101.07421875,-78.61328125,-90.33203125,-104.98046875,-98.14453125,0.0
168.83984375,-92.7734375,-65.91796875,-80.56640625,-101.5625,-95.21484375,0.0
168.84375,-105.46875,-73.2421875,-92.7734375,-103.515625,-39.0625,0.0
168.84765625,-102.05078125,-77.1484375,-99.12109375,-99.12109375,0.9765625,0.0
168.8515625,-85.44921875,-65.4296875,-79.58984375,-85.44921875,-45.8984375,0.0
168.85546875,-81.54296875,-69.3359375,-72.75390625,-84.9609375,-30.2734375,0.0
168.859375,-77.1484375,-67.87109375,-71.2890625,-82.03125,-36.1328125,0.0
168.86328125,-83.49609375,-58.10546875,-68.359375,-77.1484375,-105.95703125,0.0
168.8671875,-102.05078125,-54.19921875,-70.3125,-78.125,-74.21875,0.0
168.87109375,-91.796875,-59.5703125,-78.125,-81.0546875,-36.1328125,0.0
168.875,-91.796875,-68.84765625,-82.03125,-82.51953125,1.46484375,0.0
168.87890625,-99.12109375,-60.05859375,-69.82421875,-73.2421875,90.33203125,0.0
168.8828125,-90.8203125,-54.19921875,-70.80078125,-75.1953125,74.70703125,0.0
168.88671875,-83.49609375,-56.15234375,-74.70703125,-77.63671875,-14.6484375,0.0
168.890625,-81.54296875,-59.08203125,-72.75390625,-68.359375,46.875,0.0
168.89453125,-74.70703125,-61.03515625,-72.75390625,-68.359375,93.26171875,0.0
168.8984375,-78.125,-52.734375,-69.3359375,-73.73046875,40.52734375,0.0
168.90234375,-72.265625,-46.38671875,-64.453125,-74.21875,0.0,0.0
168.90625,-56.15234375,-40.52734375,-62.5,-72.265625,17.578125,0.0
168.91015625,-60.546875,-36.1328125,-62.98828125,-72.75390625,-12.20703125,0.0
168.9140625,-50.29296875,-36.62109375,-61.03515625,-79.1015625,6.34765625,0.0
168.91796875,-55.6640625,-40.0390625,-54.6875,-78.61328125,23.4375,0.0
168.921875,-66.89453125,-41.50390625,-54.19921875,-75.1953125,-46.875,0.0
168.92578125,-72.265625,-30.2734375,-53.7109375,-69.3359375,-56.15234375,0.0
168.9296875,-68.84765625,-24.90234375,-53.7109375,-61.03515625,-24.90234375,0.0
168.93359375,-70.80078125,-31.25,-56.15234375,-63.96484375,-81.0546875,0.0
168.9375,-71.77734375,-30.2734375,-49.8046875,-66.89453125,-104.98046875,0.0
168.94140625,-57.6171875,-15.625,-41.015625,-58.10546875,-33.203125,0.0
168.9453125,-50.78125,-14.16015625,-40.52734375,-58.10546875,-21.97265625,0.0
168.94921875,-47.36328125,-22.4609375,-45.8984375,-63.4765625,-49.31640625,0.0
168.953125,-60.05859375,-21.97265625,-43.9453125,-56.640625,-44.921875,0.0
168.95703125,-61.03515625,-17.08984375,-33.203125,-45.8984375,-19.53125,0.0
168.9609375,-57.12890625,-13.18359375,-35.64453125,-52.734375,-12.20703125,0.0
168.96484375,-44.43359375,-9.765625,-40.0390625,-48.828125,-51.7578125,0.0
168.96875,-35.15625,-16.11328125,-38.0859375,-39.55078125,-52.24609375,0.0
168.97265625,-28.80859375,-20.99609375,-34.1796875,-43.45703125,-59.08203125,0.0
168.9765625,-30.2734375,-13.18359375,-29.78515625,-40.0390625,-65.91796875,0.0
168.98046875,-35.64453125,-8.30078125,-28.3203125,-47.8515625,-61.5234375,0.0
168.984375,-48.828125,-15.625,-30.76171875,-57.6171875,-122.0703125,0.0
168.98828125,-68.84765625,-18.06640625,-33.69140625,-59.5703125,-140.625,0.0
168.9921875,-67.3828125,-22.4609375,-36.62109375,-56.640625,-167.48046875,0.0
168.99609375,-61.03515625,-22.94921875,-34.66796875,-52.734375,-86.9140625,0.0
169.0,-41.9921875,-5.37109375,-23.92578125,-51.7578125,38.0859375,0.0
169.00390625,-29.296875,6.8359375,-19.53125,-47.8515625,-2.9296875,0.0
169.0078125,-26.3671875,-0.48828125,-27.83203125,-47.8515625,-18.5546875,0.0
169.01171875,-30.76171875,-17.08984375,-37.59765625,-49.31640625,22.94921875,0.0
169.015625,-44.921875,-20.5078125,-29.296875,-41.9921875,-28.3203125,0.0
169.01953125,-39.55078125,-5.37109375,-13.18359375,-38.0859375,-105.95703125,0.0
169.0234375,-35.64453125,-0.9765625,-14.6484375,-40.0390625,-70.80078125,0.0
169.02734375,-34.1796875,-4.39453125,-19.53125,-40.0390625,-18.06640625,0.0
169.03125,-37.59765625,-0.9765625,-18.5546875,-37.59765625,-6.34765625,0.0
169.03515625,-32.71484375,4.8828125,-13.18359375,-28.3203125,-3.41796875,0.0
169.0390625,-21.484375,10.25390625,-2.44140625,-27.83203125,-11.71875,0.0
169.04296875,-25.390625,12.6953125,-4.8828125,-30.76171875,-5.859375,0.0
169.046875,-36.62109375,7.8125,-14.16015625,-29.296875,13.18359375,0.0
169.05078125,-38.57421875,0.0,-9.765625,-30.2734375,-8.7890625,0.0
169.0546875,-46.38671875,-5.37109375,-5.37109375,-24.90234375,-63.96484375,0.0
169.05859375,-46.38671875,-3.41796875,-2.44140625,-22.4609375,-105.46875,0.0
169.0625,-39.55078125,2.9296875,-0.48828125,-29.78515625,-86.42578125,0.0
169.06640625,-42.48046875,2.9296875,-2.44140625,-31.73828125,-72.265625,0.0
169.0703125,-54.19921875,-7.8125,-5.859375,-21.484375,-47.8515625,0.0
169.07421875,-54.19921875,-10.25390625,-6.8359375,-23.92578125,-8.7890625,0.0
169.078125,-21.484375,-3.90625,-1.953125,-32.2265625,-21.484375,0.0
169.08203125,-18.06640625,-0.9765625,-0.48828125,-30.2734375,-54.19921875,0.0
169.0859375,-20.99609375,5.859375,-6.8359375,-27.34375,8.7890625,0.0
169.08984375,-8.30078125,1.46484375,-11.23046875,-31.73828125,20.01953125,0.0
169.09375,-12.6953125,-3.41796875,-3.90625,-35.64453125,20.99609375,0.0
169.09765625,0.48828125,6.8359375,4.39453125,-21.484375,48.828125,0.0
169.1015625,5.859375,13.671875,6.34765625,-11.71875,4.8828125,0.0
169.10546875,-2.9296875,9.765625,1.953125,-9.765625,56.15234375,0.0
169.109375,-16.11328125,0.48828125,6.34765625,5.859375,83.984375,0.0
169.11328125,-34.66796875,1.46484375,19.53125,13.671875,-19.53125,0.0
169.1171875,-26.3671875,4.39453125,21.484375,11.23046875,-93.26171875,0.0
169.12109375,-2.44140625,8.30078125,19.04296875,8.7890625,-92.7734375,0.0
169.125,-20.5078125,15.625,18.5546875,7.8125,-81.0546875,0.0
169.12890625,-49.31640625,22.94921875,22.4609375,8.7890625,-163.0859375,0.0
169.1328125,-29.78515625,21.484375,24.4140625,8.7890625,-94.23828125,0.0
169.13671875,-15.625,21.97265625,27.83203125,20.99609375,-53.22265625,0.0
169.140625,-11.71875,30.2734375,30.2734375,16.11328125,-103.515625,0.0
169.14453125,-6.8359375,28.80859375,27.83203125,7.32421875,-86.42578125,0.0
169.1484375,-20.99609375,26.85546875,31.73828125,17.08984375,-38.0859375,0.0
169.15234375,-26.3671875,26.3671875,29.296875,14.6484375,-14.6484375,0.0
169.15625,-14.6484375,25.390625,26.3671875,8.30078125,-40.0390625,0.0
169.16015625,-14.16015625,35.64453125,25.390625,5.859375,-5.859375,0.0
169.1640625,0.9765625,48.33984375,22.94921875,4.8828125,-9.27734375,0.0
169.16796875,4.8828125,50.29296875,19.04296875,6.8359375,3.90625,0.0
169.171875,-5.37109375,41.50390625,16.11328125,7.8125,-29.296875,0.0
169.17578125,-2.44140625,47.8515625,21.484375,2.9296875,-40.52734375,0.0
169.1796875,9.765625,59.5703125,23.4375,1.953125,20.01953125,0.0
169.18359375,8.7890625,57.12890625,22.94921875,5.859375,-0.9765625,0.0
169.1875,-0.9765625,56.15234375,19.04296875,-1.46484375,-39.0625,0.0
169.19140625,-9.27734375,54.6875,19.04296875,0.9765625,7.32421875,0.0
169.1953125,-5.37109375,57.12890625,26.85546875,14.6484375,-14.16015625,0.0
169.19921875,12.20703125,63.96484375,30.2734375,24.90234375,-88.8671875,0.0
169.203125,9.765625,66.89453125,28.80859375,27.34375,-24.90234375,0.0
169.20703125,9.27734375,62.98828125,21.97265625,22.4609375,32.71484375,0.0
169.2109375,12.6953125,58.59375,17.08984375,15.13671875,-5.37109375,0.0
169.21484375,3.41796875,55.17578125,18.5546875,16.6015625,5.37109375,0.0
169.21875,8.7890625,65.4296875,25.87890625,28.80859375,40.0390625,0.0
169.22265625,27.34375,79.58984375,28.3203125,36.62109375,68.359375,0.0
169.2265625,23.92578125,77.1484375,21.97265625,31.25,123.53515625,0.0
169.23046875,24.90234375,73.73046875,20.99609375,35.15625,65.4296875,0.0
169.234375,18.06640625,69.82421875,23.4375,36.62109375,-23.92578125,0.0
169.23828125,7.8125,78.125,33.203125,40.52734375,31.25,0.0
169.2421875,27.34375,88.8671875,36.62109375,45.8984375,84.9609375,0.0
169.24609375,27.34375,87.890625,30.76171875,45.8984375,35.64453125,0.0
169.25,7.8125,69.3359375,20.5078125,42.96875,-104.4921875,0.0
169.25390625,8.7890625,63.96484375,20.01953125,41.015625,-106.93359375,0.0
169.2578125,21.97265625,78.61328125,28.3203125,48.33984375,-47.36328125,0.0
169.26171875,26.3671875,83.984375,23.4375,53.22265625,-60.05859375,0.0
169.265625,1.953125,78.125,17.578125,49.31640625,41.015625,0.0
169.26953125,-6.8359375,69.82421875,16.6015625,51.26953125,89.35546875,0.0
169.2734375,3.90625,64.453125,12.6953125,54.6875,56.15234375,0.0
169.27734375,-1.46484375,61.5234375,15.13671875,47.8515625,-13.18359375,0.0
169.28125,-10.25390625,65.91796875,18.06640625,51.26953125,-42.48046875,0.0
169.28515625,0.48828125,67.3828125,15.13671875,59.08203125,-58.10546875,0.0
169.2890625,-5.859375,62.5,14.16015625,62.98828125,-99.12109375,0.0
169.29296875,-13.18359375,55.17578125,3.41796875,65.4296875,-100.09765625,0.0
169.296875,-12.20703125,48.33984375,0.48828125,63.96484375,-35.64453125,0.0
169.30078125,-15.13671875,57.6171875,9.765625,63.96484375,19.53125,0.0
169.3046875,-8.30078125,64.453125,10.7421875,65.4296875,39.55078125,0.0
169.30859375,-4.39453125,61.03515625,4.8828125,65.91796875,45.41015625,0.0
169.3125,-11.23046875,55.17578125,0.9765625,71.2890625,-6.34765625,0.0
169.31640625,-6.34765625,55.17578125,3.90625,66.89453125,-77.63671875,0.0
169.3203125,-7.32421875,60.05859375,7.8125,55.17578125,-119.62890625,0.0
169.32421875,7.32421875,62.5,5.859375,53.22265625,-30.2734375,0.0
169.328125,14.6484375,57.6171875,-0.48828125,56.640625,-43.45703125,0.0
169.33203125,6.34765625,53.7109375,-0.9765625,56.640625,-92.28515625,0.0
169.3359375,15.625,61.03515625,2.9296875,49.31640625,-82.03125,0.0
169.33984375,19.04296875,66.89453125,4.39453125,41.50390625,-18.5546875,0.0
169.34375,17.08984375,58.10546875,1.46484375,46.38671875,24.4140625,0.0
169.34765625,5.859375,50.78125,-1.46484375,47.36328125,41.9921875,0.0
169.3515625,2.44140625,46.38671875,-8.30078125,34.66796875,-19.53125,0.0
169.35546875,-6.34765625,40.52734375,-10.7421875,27.34375,-89.35546875,0.0
169.359375,-3.41796875,51.7578125,-0.48828125,27.34375,-36.62109375,0.0
169.36328125,-3.41796875,60.05859375,0.0,27.83203125,6.34765625,0.0
169.3671875,0.0,51.7578125,-12.20703125,27.83203125,12.6953125,0.0
169.37109375,3.41796875,41.50390625,-14.6484375,25.87890625,7.32421875,0.0
169.375,0.0,39.0625,-6.34765625,35.64453125,-30.2734375,0.0
169.37890625,-7.32421875,42.96875,-4.39453125,47.8515625,-84.9609375,0.0
169.3828125,-6.8359375,41.50390625,-14.16015625,35.15625,-79.58984375,0.0
169.38671875,-2.9296875,34.1796875,-25.87890625,21.97265625,-60.546875,0.0
169.390625,6.34765625,31.73828125,-20.01953125,35.64453125,-61.03515625,0.0
169.39453125,-0.9765625,30.2734375,-14.6484375,40.0390625,-0.9765625,0.0
169.3984375,-14.16015625,34.1796875,-8.30078125,45.41015625,-48.33984375,0.0
169.40234375,3.90625,38.57421875,-11.23046875,50.29296875,-73.73046875,0.0
169.40625,16.6015625,36.1328125,-16.6015625,43.9453125,-28.3203125,0.0
169.41015625,5.859375,35.64453125,-19.53125,39.55078125,-20.99609375,0.0
169.4140625,-2.44140625,24.90234375,-28.3203125,39.0625,-42.48046875,0.0
169.41796875,2.44140625,28.3203125,-19.53125,41.9921875,-38.0859375,0.0
169.421875,0.48828125,35.15625,-19.53125,32.2265625,13.671875,0.0
169.42578125,-10.25390625,34.1796875,-24.4140625,27.34375,29.78515625,0.0
169.4296875,-12.20703125,32.2265625,-20.99609375,38.57421875,10.25390625,0.0
169.43359375,-13.18359375,19.04296875,-20.01953125,36.1328125,-50.29296875,0.0
169.4375,-18.06640625,20.5078125,-13.18359375,30.2734375,-36.1328125,0.0
169.44140625,-16.11328125,27.83203125,-13.671875,25.390625,1.953125,0.0
169.4453125,-20.99609375,16.11328125,-26.85546875,16.6015625,-40.0390625,0.0
169.44921875,-10.7421875,16.6015625,-26.3671875,17.578125,56.15234375,0.0
169.453125,-14.16015625,14.6484375,-18.06640625,20.99609375,77.63671875,0.0
169.45703125,-29.78515625,15.625,-10.25390625,19.53125,-26.85546875,0.0
169.4609375,-30.76171875,19.53125,-14.16015625,4.39453125,-100.09765625,0.0
169.46484375,-33.69140625,16.11328125,-19.04296875,2.9296875,-143.06640625,0.0
169.46875,-21.484375,18.06640625,-15.13671875,13.18359375,-135.25390625,0.0
169.47265625,-27.83203125,0.48828125,-28.3203125,-5.37109375,-78.125,0.0
169.4765625,-34.66796875,-10.7421875,-28.3203125,-13.18359375,-53.22265625,0.0
169.48046875,-14.6484375,10.25390625,-8.7890625,4.39453125,-36.62109375,0.0
169.484375,-11.71875,17.08984375,-8.7890625,6.8359375,15.625,0.0
169.48828125,-26.3671875,-0.9765625,-21.484375,-3.41796875,32.71484375,0.0
169.4921875,-27.34375,-2.44140625,-19.04296875,-2.44140625,-37.59765625,0.0
169.49609375,-22.94921875,11.71875,-2.9296875,8.30078125,-102.5390625,0.0
169.5,-8.7890625,23.4375,2.9296875,14.16015625,-138.671875,0.0
169.50390625,6.8359375,31.25,0.9765625,13.671875,-151.3671875,0.0
169.5078125,5.859375,23.92578125,-4.39453125,13.671875,-127.9296875,0.0
169.51171875,9.765625,13.671875,-10.25390625,17.578125,-100.09765625,0.0
169.515625,7.32421875,15.625,-8.30078125,15.625,-85.44921875,0.0
169.51953125,15.625,26.85546875,3.90625,10.7421875,-86.9140625,0.0
169.5234375,32.71484375,32.71484375,6.8359375,15.625,9.27734375,0.0
169.52734375,32.2265625,29.296875,1.953125,20.99609375,10.25390625,0.0
169.53125,13.18359375,18.5546875,-1.46484375,24.90234375,-101.07421875,0.0
169.53515625,11.23046875,21.97265625,2.44140625,26.85546875,-37.109375,0.0
169.5390625,22.4609375,32.71484375,12.6953125,26.85546875,30.76171875,0.0
169.54296875,25.87890625,37.109375,15.13671875,21.97265625,8.7890625,0.0
169.546875,20.99609375,33.203125,8.7890625,18.06640625,-9.27734375,0.0
169.55078125,0.9765625,22.94921875,0.0,13.671875,-80.078125,0.0
169.5546875,-4.8828125,21.97265625,0.9765625,10.7421875,-211.42578125,0.0
169.55859375,2.9296875,32.2265625,12.6953125,18.5546875,-267.578125,0.0
169.5625,6.8359375,44.43359375,15.625,19.04296875,-194.3359375,0.0
169.56640625,14.16015625,47.36328125,15.625,20.01953125,-37.109375,0.0
169.5703125,19.04296875,45.41015625,14.16015625,19.04296875,90.8203125,0.0
169.57421875,16.6015625,48.33984375,13.671875,20.99609375,36.1328125,0.0
169.578125,7.8125,46.38671875,14.16015625,23.4375,-7.8125,0.0
169.58203125,16.11328125,44.921875,8.30078125,13.671875,7.32421875,0.0
169.5859375,22.4609375,52.24609375,4.39453125,6.34765625,24.90234375,0.0
169.58984375,30.2734375,51.7578125,5.37109375,11.23046875,15.625,0.0
169.59375,22.4609375,47.8515625,12.6953125,18.06640625,-20.5078125,0.0
169.59765625,8.7890625,53.22265625,14.6484375,20.5078125,-73.73046875,0.0
169.6015625,10.25390625,63.96484375,15.13671875,26.3671875,-31.25,0.0
169.60546875,26.3671875,59.5703125,13.671875,33.203125,-6.8359375,0.0
169.609375,37.109375,47.8515625,10.7421875,30.76171875,-48.828125,0.0
169.61328125,20.5078125,44.921875,11.23046875,33.203125,-30.76171875,0.0
169.6171875,9.27734375,49.31640625,11.71875,24.4140625,-45.41015625,0.0
169.62109375,12.6953125,59.08203125,9.27734375,18.5546875,65.91796875,0.0
169.625,16.11328125,52.734375,5.37109375,20.5078125,124.0234375,0.0
169.62890625,8.30078125,39.0625,0.48828125,15.625,45.41015625,0.0
169.6328125,5.859375,29.78515625,-6.34765625,13.671875,20.01953125,0.0
169.63671875,-3.41796875,32.71484375,-6.34765625,12.20703125,-28.80859375,0.0
169.640625,4.39453125,37.59765625,0.9765625,4.8828125,-113.76953125,0.0
169.64453125,21.484375,39.55078125,10.7421875,9.765625,-132.32421875,0.0
169.6484375,18.5546875,38.57421875,7.32421875,14.6484375,-89.35546875,0.0
169.65234375,27.83203125,28.80859375,4.39453125,11.71875,-50.78125,0.0
169.65625,29.296875,32.71484375,17.08984375,17.08984375,-6.8359375,0.0
169.66015625,22.4609375,44.43359375,16.11328125,24.4140625,12.6953125,0.0
169.6640625,32.2265625,50.78125,14.6484375,27.34375,-31.25,0.0
169.66796875,16.11328125,41.9921875,15.13671875,26.85546875,-28.3203125,0.0
169.671875,20.99609375,31.25,6.34765625,25.87890625,-49.8046875,0.0
169.67578125,39.55078125,38.57421875,12.6953125,19.04296875,-37.59765625,0.0
169.6796875,34.1796875,48.33984375,19.53125,13.671875,12.20703125,0.0
169.68359375,30.76171875,44.43359375,11.23046875,15.625,9.27734375,0.0
169.6875,24.4140625,43.9453125,9.765625,18.5546875,35.15625,0.0
169.69140625,-0.48828125,38.57421875,7.32421875,15.625,61.5234375,0.0
169.6953125,10.7421875,32.2265625,10.7421875,22.94921875,56.640625,0.0
169.69921875,27.83203125,39.55078125,17.08984375,36.62109375,60.05859375,0.0
169.703125,20.01953125,41.015625,9.765625,28.80859375,89.84375,0.0
169.70703125,23.4375,36.1328125,11.71875,31.73828125,-8.30078125,0.0
169.7109375,12.20703125,30.2734375,12.20703125,33.203125,-145.5078125,0.0
169.71484375,8.7890625,23.92578125,1.46484375,29.78515625,-149.90234375,0.0
169.71875,30.2734375,33.69140625,11.23046875,41.9921875,-129.39453125,0.0
169.72265625,30.76171875,43.9453125,17.08984375,41.9921875,-106.4453125,0.0
169.7265625,26.85546875,48.33984375,16.11328125,47.8515625,-33.69140625,0.0
169.73046875,26.3671875,37.109375,13.671875,52.734375,-15.13671875,0.0
169.734375,12.6953125,26.85546875,10.25390625,44.921875,-58.10546875,0.0
169.73828125,19.04296875,37.59765625,15.13671875,44.921875,-50.78125,0.0
169.7421875,39.0625,46.875,14.6484375,42.96875,5.859375,0.0
169.74609375,26.85546875,40.0390625,5.37109375,37.59765625,-10.25390625,0.0
169.75,10.7421875,37.59765625,2.9296875,36.1328125,-19.53125,0.0
169.75390625,21.484375,43.45703125,8.7890625,46.875,-2.44140625,0.0
169.7578125,33.69140625,43.9453125,17.08984375,52.24609375,-17.578125,0.0
169.76171875,26.3671875,44.921875,11.71875,42.96875,22.94921875,0.0
169.765625,23.4375,36.1328125,1.46484375,39.55078125,-13.18359375,0.0
169.76953125,29.296875,32.71484375,-0.48828125,41.9921875,-47.36328125,0.0
169.7734375,30.2734375,30.2734375,-2.9296875,39.0625,-55.6640625,0.0
169.77734375,32.71484375,39.55078125,2.44140625,39.55078125,-43.45703125,0.0
169.78125,31.25,38.57421875,2.44140625,35.64453125,-51.7578125,0.0
169.78515625,22.4609375,27.83203125,-3.90625,35.15625,-72.75390625,0.0
169.7890625,25.390625,31.25,-10.25390625,38.0859375,-28.80859375,0.0
169.79296875,31.25,22.94921875,-9.765625,29.296875,-41.9921875,0.0
169.796875,34.66796875,19.04296875,-1.46484375,29.296875,-61.03515625,0.0
169.80078125,36.62109375,26.85546875,-2.9296875,24.90234375,12.20703125,0.0
169.8046875,20.01953125,21.97265625,-9.27734375,20.01953125,-2.44140625,0.0
169.80859375,3.41796875,10.25390625,-15.625,18.06640625,-83.49609375,0.0
169.8125,8.7890625,-6.8359375,-15.13671875,19.04296875,-128.41796875,0.0
169.81640625,5.37109375,-7.32421875,-8.30078125,17.08984375,-86.42578125,0.0
169.8203125,2.44140625,5.859375,-8.7890625,13.671875,-66.89453125,0.0
169.82421875,10.7421875,11.71875,-10.25390625,20.01953125,-118.1640625,0.0
169.828125,6.8359375,7.32421875,-17.08984375,16.11328125,-152.83203125,0.0
169.83203125,-7.32421875,-4.8828125,-20.99609375,9.765625,-80.078125,0.0
169.8359375,-9.765625,-9.765625,-14.6484375,6.34765625,1.953125,0.0
169.83984375,-1.953125,-4.39453125,-11.71875,4.8828125,-23.92578125,0.0
169.84375,1.46484375,-0.48828125,-12.20703125,10.25390625,-13.671875,0.0
169.84765625,-9.765625,-7.8125,-14.6484375,8.7890625,-4.8828125,0.0
169.8515625,-13.18359375,-20.5078125,-20.5078125,4.8828125,8.7890625,0.0
169.85546875,-1.46484375,-20.5078125,-18.5546875,6.8359375,19.53125,0.0
169.859375,1.953125,-17.08984375,-17.08984375,6.8359375,-44.43359375,0.0
169.86328125,0.48828125,-20.99609375,-24.4140625,-2.44140625,-45.41015625,0.0
169.8671875,-12.20703125,-22.94921875,-26.3671875,-0.9765625,-31.25,0.0
169.87109375,-25.390625,-29.296875,-31.25,1.46484375,-33.203125,0.0
169.875,-20.01953125,-34.1796875,-30.2734375,-1.46484375,-13.671875,0.0
169.87890625,-7.8125,-20.99609375,-24.90234375,-0.9765625,-8.30078125,0.0
169.8828125,-8.7890625,-19.53125,-32.2265625,-8.7890625,-19.04296875,0.0
169.88671875,-4.39453125,-29.78515625,-38.0859375,-8.7890625,-39.0625,0.0
169.890625,5.37109375,-33.203125,-38.57421875,-5.37109375,-24.4140625,0.0
169.89453125,6.8359375,-30.2734375,-30.2734375,3.41796875,-34.66796875,0.0
169.8984375,7.8125,-24.90234375,-22.4609375,4.39453125,-65.4296875,0.0
169.90234375,21.97265625,-20.5078125,-29.296875,-5.859375,-73.73046875,0.0
169.90625,24.90234375,-27.34375,-30.2734375,1.953125,-86.9140625,0.0
169.91015625,9.27734375,-34.66796875,-24.90234375,10.25390625,-223.14453125,0.0
169.9140625,-9.27734375,-39.0625,-26.3671875,15.625,-226.5625,0.0
169.91796875,-4.39453125,-37.59765625,-22.94921875,13.671875,-157.71484375,0.0
169.921875,-10.7421875,-31.25,-21.97265625,4.8828125,-136.71875,0.0
169.92578125,-29.78515625,-29.296875,-25.390625,0.48828125,-122.55859375,0.0
169.9296875,-28.3203125,-34.1796875,-27.83203125,-0.9765625,-155.76171875,0.0
169.93359375,-23.92578125,-37.109375,-28.80859375,0.0,-165.0390625,0.0
169.9375,-32.2265625,-24.90234375,-13.18359375,1.953125,-131.8359375,0.0
169.94140625,-31.25,-18.5546875,-9.765625,1.46484375,-72.75390625,0.0
169.9453125,-24.4140625,-24.4140625,-26.3671875,-4.39453125,-51.7578125,0.0
169.94921875,-31.73828125,-23.92578125,-32.2265625,-12.6953125,-54.6875,0.0
169.953125,-27.83203125,-26.85546875,-25.390625,0.9765625,-104.4921875,0.0
169.95703125,-15.625,-29.296875,-19.53125,4.8828125,-104.00390625,0.0
169.9609375,-4.8828125,-14.6484375,-17.578125,5.37109375,1.46484375,0.0
169.96484375,4.8828125,-4.8828125,-18.5546875,12.6953125,-0.48828125,0.0
169.96875,7.8125,-12.20703125,-23.4375,10.7421875,-32.2265625,0.0
169.97265625,1.953125,-16.6015625,-25.390625,0.9765625,-4.8828125,0.0
169.9765625,3.41796875,-12.20703125,-20.01953125,-2.44140625,-77.1484375,0.0
169.98046875,9.27734375,-0.9765625,-14.6484375,8.30078125,-137.20703125,0.0
169.984375,1.953125,1.953125,-14.6484375,9.765625,-87.40234375,0.0
169.98828125,-7.8125,-7.32421875,-16.6015625,7.8125,-0.48828125,0.0
169.9921875,-5.859375,-10.25390625,-16.6015625,9.27734375,18.06640625,0.0
169.99609375,2.9296875,-11.71875,-11.71875,14.6484375,-20.99609375,0.0
170.0,17.578125,-11.71875,-8.7890625,11.71875,-20.99609375,0.0
170.00390625,-1.953125,-11.71875,-13.671875,8.7890625,-90.33203125,0.0
170.0078125,0.0,-10.7421875,-17.08984375,17.08984375,-63.96484375,0.0
170.01171875,14.16015625,-11.71875,-18.06640625,9.27734375,-1.46484375,0.0
170.015625,8.30078125,-15.13671875,-17.578125,3.90625,-55.6640625,0.0
170.01953125,14.16015625,-5.37109375,-13.18359375,9.27734375,-89.35546875,0.0
170.0234375,5.859375,-6.34765625,-14.16015625,4.8828125,-124.51171875,0.0
170.02734375,3.41796875,-12.6953125,-20.5078125,11.71875,-131.34765625,0.0
170.03125,10.7421875,-7.8125,-18.06640625,23.92578125,-142.08984375,0.0
170.03515625,4.39453125,-7.32421875,-12.6953125,27.34375,-170.41015625,0.0
170.0390625,5.859375,0.9765625,-7.32421875,37.59765625,-44.921875,0.0
170.04296875,2.44140625,-8.30078125,-15.625,41.50390625,16.11328125,0.0
170.046875,-17.578125,-30.76171875,-24.90234375,36.62109375,-15.13671875,0.0
170.05078125,-15.13671875,-26.85546875,-20.01953125,42.96875,0.9765625,0.0
170.0546875,-5.37109375,-15.625,-11.71875,58.59375,24.90234375,0.0
170.05859375,9.27734375,-4.8828125,-4.39453125,67.87109375,42.96875,0.0
170.0625,10.25390625,0.0,-5.859375,74.21875,76.171875,0.0
170.06640625,-3.41796875,-1.953125,-9.765625,84.47265625,60.546875,0.0
170.0703125,-10.25390625,-11.71875,-14.16015625,90.33203125,7.8125,0.0
170.07421875,-11.71875,-16.6015625,-13.671875,96.19140625,-28.3203125,0.0
170.078125,-20.99609375,-19.53125,-16.11328125,98.6328125,27.83203125,0.0
170.08203125,-22.4609375,-20.01953125,-17.08984375,98.6328125,30.2734375,0.0
170.0859375,-11.23046875,-14.16015625,-14.16015625,96.6796875,-69.82421875,0.0
170.08984375,-18.5546875,-30.76171875,-20.01953125,81.0546875,-108.88671875,0.0
170.09375,-28.3203125,-48.33984375,-19.53125,80.56640625,-103.515625,0.0
170.09765625,-11.71875,-34.66796875,-7.32421875,91.30859375,-57.12890625,0.0
170.1015625,1.46484375,-22.4609375,0.48828125,80.078125,-20.99609375,0.0
170.10546875,-1.46484375,-24.90234375,-6.8359375,67.3828125,-3.41796875,0.0
170.109375,-2.9296875,-33.203125,-19.53125,58.59375,-70.80078125,0.0
170.11328125,3.90625,-33.203125,-14.6484375,57.6171875,-63.4765625,0.0
170.1171875,-0.48828125,-32.71484375,-7.8125,53.7109375,-39.0625,0.0
170.12109375,-0.9765625,-41.50390625,-11.23046875,51.7578125,-78.61328125,0.0
170.125,13.671875,-47.36328125,-9.765625,50.29296875,-110.83984375,0.0
170.12890625,7.8125,-48.828125,-11.23046875,43.45703125,-154.296875,0.0
170.1328125,3.90625,-52.24609375,-13.18359375,43.45703125,-137.20703125,0.0
170.13671875,8.30078125,-46.875,-3.90625,47.8515625,-7.8125,0.0
170.140625,8.7890625,-45.41015625,0.0,52.24609375,60.05859375,0.0
170.14453125,17.578125,-49.8046875,-5.859375,47.36328125,-12.20703125,0.0
170.1484375,-0.9765625,-54.19921875,-16.6015625,41.9921875,-40.0390625,0.0
170.15234375,-14.16015625,-62.01171875,-21.484375,37.109375,-7.32421875,0.0
170.15625,-1.953125,-59.08203125,-10.25390625,45.8984375,-51.7578125,0.0
170.16015625,4.8828125,-50.78125,-9.27734375,52.734375,-36.62109375,0.0
170.1640625,3.90625,-48.828125,-14.16015625,39.55078125,-20.5078125,0.0
170.16796875,0.9765625,-48.33984375,-12.20703125,27.34375,-22.4609375,0.0
170.171875,-7.32421875,-55.6640625,-10.25390625,22.94921875,35.15625,0.0
170.17578125,-6.34765625,-50.78125,1.46484375,37.109375,24.4140625,0.0
170.1796875,7.8125,-41.9921875,9.27734375,35.15625,-3.90625,0.0
170.18359375,14.16015625,-48.33984375,1.46484375,30.2734375,20.5078125,0.0
170.1875,11.71875,-52.24609375,-4.8828125,32.2265625,7.32421875,0.0
170.19140625,9.765625,-54.19921875,-5.37109375,24.90234375,13.671875,0.0
170.1953125,0.48828125,-61.03515625,-6.8359375,18.5546875,-5.859375,0.0
170.19921875,10.7421875,-50.29296875,1.46484375,19.04296875,-92.7734375,0.0
170.203125,18.5546875,-38.57421875,5.859375,24.90234375,-53.22265625,0.0
170.20703125,19.04296875,-45.8984375,0.48828125,25.87890625,-58.10546875,0.0
170.2109375,10.7421875,-56.640625,-9.27734375,14.16015625,-155.76171875,0.0
170.21484375,-1.953125,-60.05859375,-13.18359375,13.18359375,-191.89453125,0.0
170.21875,-0.9765625,-51.26953125,-3.41796875,20.01953125,-309.08203125,0.0
170.22265625,-1.953125,-44.43359375,1.46484375,22.94921875,-357.421875,0.0
170.2265625,5.37109375,-44.921875,-3.90625,28.80859375,-161.62109375,0.0
170.23046875,5.37109375,-54.6875,-9.765625,26.85546875,-35.15625,0.0
170.234375,5.37109375,-67.87109375,-4.8828125,24.90234375,-16.6015625,0.0
170.23828125,7.32421875,-63.4765625,0.0,25.390625,-4.39453125,0.0
170.2421875,13.18359375,-50.78125,-1.46484375,18.06640625,-86.42578125,0.0
170.24609375,24.90234375,-49.31640625,-0.9765625,19.04296875,-145.5078125,0.0
170.25,14.6484375,-60.546875,-5.859375,29.78515625,-186.5234375,0.0
170.25390625,7.8125,-65.4296875,-5.37109375,31.25,-188.4765625,0.0
170.2578125,16.6015625,-58.10546875,4.8828125,20.01953125,-62.5,0.0
170.26171875,3.41796875,-56.640625,3.41796875,6.34765625,-29.78515625,0.0
170.265625,-1.953125,-61.03515625,-7.32421875,-0.48828125,-98.6328125,0.0
170.26953125,11.71875,-63.96484375,-6.8359375,-1.46484375,-192.3828125,0.0
170.2734375,8.7890625,-62.98828125,-2.44140625,0.9765625,-241.69921875,0.0
170.27734375,16.6015625,-55.17578125,-0.9765625,0.0,-140.625,0.0
170.28125,25.87890625,-48.33984375,-2.44140625,-1.953125,-13.18359375,0.0
170.28515625,22.94921875,-44.43359375,-5.37109375,2.44140625,41.50390625,0.0
170.2890625,6.34765625,-48.828125,-9.765625,-0.48828125,34.66796875,0.0
170.29296875,-3.41796875,-56.15234375,-13.18359375,-4.8828125,56.640625,0.0
170.296875,1.953125,-47.8515625,-6.34765625,-0.9765625,112.79296875,0.0
170.30078125,15.625,-37.109375,-3.90625,4.39453125,139.6484375,0.0
170.3046875,1.46484375,-47.8515625,-12.20703125,3.41796875,103.515625,0.0
170.30859375,-8.7890625,-54.19921875,-18.06640625,-7.8125,24.90234375,0.0
170.3125,-3.90625,-60.05859375,-24.4140625,-22.4609375,-23.4375,0.0
170.31640625,-2.44140625,-62.5,-23.4375,-22.4609375,6.8359375,0.0
170.3203125,-13.18359375,-44.43359375,-14.6484375,-15.13671875,95.21484375,0.0
170.32421875,-8.7890625,-38.0859375,-13.671875,-8.30078125,108.3984375,0.0
170.328125,-2.9296875,-49.31640625,-25.390625,-6.8359375,108.3984375,0.0
170.33203125,-14.16015625,-56.15234375,-29.78515625,-8.7890625,62.98828125,0.0
170.3359375,-24.4140625,-45.41015625,-14.6484375,0.9765625,-58.59375,0.0
170.33984375,-25.87890625,-29.78515625,-10.25390625,3.90625,43.45703125,0.0
170.34375,-6.8359375,-21.484375,-13.671875,6.34765625,112.3046875,0.0
170.34765625,-13.671875,-22.94921875,-20.01953125,-0.9765625,17.578125,0.0
170.3515625,-15.13671875,-20.5078125,-19.53125,-2.9296875,-14.16015625,0.0
170.35546875,-7.32421875,-17.08984375,-12.6953125,-2.44140625,-20.01953125,0.0
170.359375,-13.18359375,-14.6484375,-16.11328125,-3.41796875,5.37109375,0.0
170.36328125,-14.16015625,-11.71875,-23.4375,-2.44140625,-18.5546875,0.0
170.3671875,-8.30078125,-0.9765625,-19.53125,2.44140625,14.16015625,0.0
170.37109375,-11.71875,-8.7890625,-21.97265625,14.6484375,-13.671875,0.0
170.375,-22.4609375,-32.2265625,-28.80859375,3.90625,-28.3203125,0.0
170.37890625,-18.06640625,-13.18359375,-10.7421875,3.90625,46.875,0.0
170.3828125,-0.9765625,-0.9765625,-6.34765625,15.625,52.734375,0.0
170.38671875,-1.46484375,-5.37109375,-15.625,11.23046875,76.66015625,0.0
170.390625,-8.7890625,-9.27734375,-12.20703125,7.8125,88.8671875,0.0
170.39453125,-21.484375,-16.11328125,-12.6953125,9.765625,10.25390625,0.0
170.3984375,-20.01953125,-12.6953125,-9.27734375,8.30078125,-25.390625,0.0
170.40234375,-14.16015625,-13.671875,-9.27734375,-5.37109375,-21.97265625,0.0
170.40625,-16.6015625,-12.20703125,-17.578125,-11.23046875,-23.4375,0.0
170.41015625,-16.6015625,-6.34765625,-19.04296875,-5.859375,-17.08984375,0.0
170.4140625,-15.625,-2.9296875,-12.6953125,0.48828125,-39.55078125,0.0
170.41796875,-9.765625,-6.34765625,-10.25390625,-11.23046875,-81.54296875,0.0
170.421875,-29.296875,-23.4375,-22.94921875,-20.99609375,-56.640625,0.0
170.42578125,-29.296875,-16.6015625,-17.08984375,1.46484375,-21.97265625,0.0
170.4296875,-20.99609375,-12.20703125,-5.37109375,8.30078125,-1.46484375,0.0
170.43359375,-22.4609375,-23.92578125,-9.27734375,-0.9765625,-35.64453125,0.0
170.4375,-12.20703125,-18.5546875,-3.41796875,4.8828125,-42.48046875,0.0
170.44140625,-5.37109375,-7.8125,2.44140625,2.44140625,5.37109375,0.0
170.4453125,-4.8828125,-5.859375,-4.39453125,-3.90625,54.6875,0.0
170.44921875,-10.7421875,-13.671875,-17.08984375,-10.7421875,19.04296875,0.0
170.453125,-11.23046875,-24.90234375,-19.04296875,-17.08984375,-70.80078125,0.0
170.45703125,-0.48828125,-18.06640625,-7.8125,-13.18359375,-35.64453125,0.0
170.4609375,5.37109375,-13.671875,-8.7890625,-11.71875,27.83203125,0.0
170.46484375,-17.578125,-27.34375,-22.4609375,-14.6484375,-36.62109375,0.0
170.46875,-24.90234375,-33.69140625,-21.97265625,-2.9296875,-89.35546875,0.0
170.47265625,-15.13671875,-33.203125,-9.765625,4.39453125,-14.16015625,0.0
170.4765625,-6.8359375,-33.203125,-6.8359375,4.8828125,54.6875,0.0
170.48046875,2.9296875,-29.78515625,-4.39453125,9.27734375,46.875,0.0
170.484375,19.04296875,-26.85546875,1.953125,11.71875,-4.39453125,0.0
170.48828125,16.11328125,-29.78515625,-3.41796875,2.44140625,-25.87890625,0.0
170.4921875,-4.39453125,-36.1328125,-6.8359375,-2.44140625,-25.87890625,0.0
170.49609375,1.953125,-35.15625,-0.48828125,9.765625,-1.953125,0.0
170.5,8.30078125,-30.76171875,-1.46484375,8.7890625,-27.34375,0.0
170.50390625,7.32421875,-24.90234375,-2.44140625,-0.48828125,-25.87890625,0.0
170.5078125,5.859375,-24.4140625,-9.765625,-12.20703125,77.1484375,0.0
170.51171875,-15.13671875,-45.8984375,-30.76171875,-27.83203125,23.4375,0.0
170.515625,-11.71875,-54.6875,-23.92578125,-21.484375,-44.921875,0.0
170.51953125,4.8828125,-38.0859375,-5.37109375,-10.25390625,30.2734375,0.0
170.5234375,6.34765625,-36.1328125,-9.27734375,-14.6484375,37.59765625,0.0
170.52734375,11.23046875,-47.36328125,-10.25390625,-21.484375,-41.9921875,0.0
170.53125,2.44140625,-53.22265625,-2.9296875,-23.4375,-0.48828125,0.0
170.53515625,4.8828125,-49.31640625,-0.9765625,-12.20703125,62.98828125,0.0
170.5390625,22.4609375,-42.96875,2.44140625,0.0,63.96484375,0.0
170.54296875,23.4375,-40.52734375,-5.859375,-8.30078125,89.84375,0.0
170.546875,8.30078125,-30.2734375,-18.06640625,-17.578125,117.67578125,0.0
170.55078125,-1.46484375,-30.76171875,-17.578125,-20.5078125,106.93359375,0.0
170.5546875,16.11328125,-38.0859375,-7.32421875,-11.23046875,-47.8515625,0.0
170.55859375,15.625,-36.62109375,4.8828125,-4.8828125,-142.578125,0.0
170.5625,14.16015625,-41.9921875,0.9765625,-4.8828125,-95.21484375,0.0
170.56640625,22.4609375,-51.7578125,-3.90625,-2.44140625,-100.5859375,0.0
170.5703125,12.20703125,-57.6171875,-7.8125,-3.41796875,-142.578125,0.0
170.57421875,1.953125,-54.6875,-7.8125,-4.8828125,-156.25,0.0
170.578125,16.11328125,-42.96875,-3.41796875,-5.37109375,-91.796875,0.0
170.58203125,27.83203125,-37.109375,-7.8125,-16.6015625,-8.30078125,0.0
170.5859375,6.34765625,-43.45703125,-8.30078125,-20.99609375,-17.08984375,0.0
170.58984375,-15.625,-49.8046875,-9.27734375,-13.671875,10.25390625,0.0
170.59375,-12.6953125,-55.6640625,-10.7421875,-14.16015625,-16.6015625,0.0
170.59765625,-0.48828125,-50.29296875,-4.39453125,-13.18359375,-26.3671875,0.0
170.6015625,-6.34765625,-42.96875,-3.90625,-14.16015625,-9.27734375,0.0
170.60546875,-18.5546875,-44.921875,-12.6953125,-15.13671875,-16.6015625,0.0
170.609375,-8.30078125,-57.6171875,-16.6015625,-11.71875,0.48828125,0.0
170.61328125,-9.27734375,-71.2890625,-17.08984375,-17.08984375,-99.12109375,0.0
170.6171875,-13.18359375,-67.3828125,-8.7890625,-13.18359375,-118.1640625,0.0
170.62109375,-8.30078125,-57.6171875,-7.32421875,-5.859375,-13.671875,0.0
170.625,-13.18359375,-60.546875,-16.6015625,-20.5078125,-11.71875,0.0
170.62890625,-12.6953125,-60.546875,-19.53125,-27.83203125,-5.37109375,0.0
170.6328125,-10.25390625,-65.4296875,-27.34375,-19.53125,-0.9765625,0.0
170.63671875,-11.23046875,-72.75390625,-24.4140625,-17.08984375,-33.203125,0.0
170.640625,-18.06640625,-66.89453125,-14.6484375,-11.71875,-1.953125,0.0
170.64453125,-20.99609375,-64.453125,-9.765625,-7.32421875,-30.76171875,0.0
170.6484375,-17.08984375,-66.89453125,-11.23046875,-5.859375,-64.453125,0.0
170.65234375,-9.765625,-73.73046875,-19.53125,-3.41796875,-65.91796875,0.0
170.65625,-12.20703125,-79.58984375,-15.625,1.46484375,6.8359375,0.0
170.66015625,-5.37109375,-69.3359375,-8.7890625,6.34765625,41.9921875,0.0
170.6640625,-2.44140625,-62.5,-9.765625,0.9765625,-4.8828125,0.0
170.66796875,-1.46484375,-65.4296875,-18.5546875,-0.9765625,-27.34375,0.0
170.671875,-8.7890625,-73.73046875,-24.90234375,-4.39453125,-88.37890625,0.0
170.67578125,-2.44140625,-75.1953125,-21.484375,-7.32421875,-59.08203125,0.0
170.6796875,1.953125,-66.89453125,-16.6015625,-9.765625,5.859375,0.0
170.68359375,-14.16015625,-68.359375,-18.06640625,-13.671875,35.64453125,0.0
170.6875,-19.53125,-71.77734375,-20.99609375,-11.71875,-50.29296875,0.0
170.69140625,-18.5546875,-71.77734375,-30.2734375,-21.97265625,-114.74609375,0.0
170.6953125,-29.296875,-71.77734375,-27.34375,-26.85546875,-50.29296875,0.0
170.69921875,-26.3671875,-67.3828125,-16.6015625,-20.01953125,-2.44140625,0.0
170.703125,-17.578125,-71.77734375,-20.5078125,-24.4140625,-32.2265625,0.0
170.70703125,-20.99609375,-75.1953125,-27.83203125,-28.80859375,-43.9453125,0.0
170.7109375,-29.296875,-76.171875,-28.3203125,-24.90234375,-49.31640625,0.0
170.71484375,-51.7578125,-83.0078125,-26.85546875,-19.53125,-125.9765625,0.0
170.71875,-42.96875,-83.0078125,-22.4609375,-16.6015625,-115.72265625,0.0
170.72265625,-30.76171875,-77.1484375,-22.4609375,-13.18359375,7.32421875,0.0
170.7265625,-33.203125,-78.61328125,-25.87890625,-3.90625,49.8046875,0.0
170.73046875,-35.15625,-87.40234375,-31.73828125,-10.7421875,-49.8046875,0.0
170.734375,-28.3203125,-85.44921875,-31.73828125,-20.01953125,-134.765625,0.0
170.73828125,-2.9296875,-71.2890625,-15.13671875,-9.27734375,-90.8203125,0.0
170.7421875,0.48828125,-60.546875,-14.16015625,-8.7890625,-65.91796875,0.0
170.74609375,14.6484375,-57.6171875,-22.94921875,-2.9296875,-39.55078125,0.0
170.75,10.7421875,-71.77734375,-38.57421875,-12.6953125,21.484375,0.0
170.75390625,-1.46484375,-81.54296875,-40.0390625,-20.01953125,-18.5546875,0.0
170.7578125,17.08984375,-63.96484375,-22.4609375,-4.8828125,29.78515625,0.0
170.76171875,18.5546875,-48.33984375,-22.4609375,-2.9296875,113.76953125,0.0
170.765625,6.34765625,-51.26953125,-25.87890625,1.46484375,5.37109375,0.0
170.76953125,2.9296875,-56.15234375,-26.3671875,13.18359375,-43.9453125,0.0
170.7734375,7.8125,-55.6640625,-24.90234375,9.765625,-27.83203125,0.0
170.77734375,0.48828125,-55.17578125,-20.99609375,6.8359375,-158.203125,0.0
170.78125,-9.27734375,-47.8515625,-17.578125,8.7890625,-169.921875,0.0
170.78515625,-15.13671875,-47.36328125,-16.6015625,10.7421875,-171.38671875,0.0
170.7890625,-14.16015625,-50.78125,-20.01953125,13.18359375,-153.3203125,0.0
170.79296875,-10.25390625,-62.98828125,-26.85546875,13.18359375,-141.11328125,0.0
170.796875,-19.53125,-70.80078125,-23.4375,7.32421875,-256.34765625,0.0
170.80078125,-12.6953125,-50.29296875,-13.18359375,11.23046875,-200.68359375,0.0
170.8046875,-9.27734375,-43.45703125,-16.6015625,10.25390625,-20.5078125,0.0
170.80859375,-19.53125,-50.78125,-19.04296875,-1.953125,14.6484375,0.0
170.8125,-36.1328125,-52.734375,-16.11328125,-6.8359375,-69.82421875,0.0
170.81640625,-49.31640625,-55.6640625,-14.6484375,-6.34765625,-107.421875,0.0
170.8203125,-40.52734375,-47.8515625,-11.71875,-15.13671875,-1.46484375,0.0
170.82421875,-35.64453125,-42.96875,-15.625,-11.71875,56.640625,0.0
170.828125,-28.80859375,-51.26953125,-22.94921875,-17.578125,42.96875,0.0
170.83203125,-12.6953125,-57.6171875,-21.97265625,-21.484375,38.0859375,0.0
170.8359375,-36.62109375,-54.6875,-19.53125,-14.16015625,53.7109375,0.0
170.83984375,-55.6640625,-54.19921875,-19.53125,-20.99609375,29.296875,0.0
170.84375,-39.55078125,-56.15234375,-18.06640625,-13.18359375,21.97265625,0.0
170.84765625,-45.41015625,-55.17578125,-21.97265625,-14.6484375,38.57421875,0.0
170.8515625,-46.38671875,-58.10546875,-25.390625,-22.4609375,13.18359375,0.0
170.85546875,-32.71484375,-59.08203125,-26.3671875,-20.99609375,28.80859375,0.0
170.859375,-32.2265625,-55.6640625,-23.92578125,-27.83203125,36.62109375,0.0
170.86328125,-27.34375,-44.43359375,-21.97265625,-23.92578125,17.578125,0.0
170.8671875,-22.4609375,-44.921875,-30.2734375,-26.3671875,5.859375,0.0
170.87109375,-24.4140625,-57.6171875,-39.55078125,-33.203125,5.37109375,0.0
170.875,-40.52734375,-58.59375,-34.1796875,-27.34375,-1.46484375,0.0
170.87890625,-33.203125,-42.96875,-20.01953125,-27.83203125,61.03515625,0.0
170.8828125,-24.4140625,-38.57421875,-21.484375,-32.2265625,121.58203125,0.0
170.88671875,-29.296875,-49.8046875,-31.73828125,-30.76171875,61.5234375,0.0
170.890625,-31.25,-53.22265625,-31.73828125,-23.92578125,-20.99609375,0.0
170.89453125,-35.15625,-49.8046875,-22.4609375,-10.7421875,-40.52734375,0.0
170.8984375,-35.64453125,-42.48046875,-18.06640625,7.8125,-39.55078125,0.0
170.90234375,-36.62109375,-41.50390625,-22.94921875,5.37109375,-80.078125,0.0
170.90625,-21.97265625,-44.921875,-25.390625,9.765625,-118.65234375,0.0
170.91015625,-26.3671875,-40.52734375,-28.80859375,28.80859375,-51.26953125,0.0
170.9140625,-44.43359375,-42.96875,-28.80859375,32.2265625,-29.78515625,0.0
170.91796875,-43.9453125,-42.48046875,-18.5546875,35.15625,-10.25390625,0.0
170.921875,-38.0859375,-39.0625,-24.4140625,34.66796875,69.3359375,0.0
170.92578125,-41.9921875,-41.50390625,-30.76171875,34.1796875,34.1796875,0.0
170.9296875,-51.7578125,-42.96875,-33.203125,38.0859375,-36.1328125,0.0
170.93359375,-62.98828125,-48.33984375,-33.203125,39.55078125,-126.46484375,0.0
170.9375,-58.10546875,-48.33984375,-25.87890625,41.50390625,-36.62109375,0.0
170.94140625,-53.22265625,-42.48046875,-24.90234375,43.9453125,40.52734375,0.0
170.9453125,-39.55078125,-39.0625,-27.83203125,53.7109375,15.625,0.0
170.94921875,-24.90234375,-39.55078125,-31.25,60.546875,-8.30078125,0.0
170.953125,-35.15625,-42.48046875,-26.85546875,61.5234375,-116.69921875,0.0
170.95703125,-41.50390625,-34.66796875,-20.01953125,67.3828125,-75.68359375,0.0
170.9609375,-35.64453125,-30.2734375,-21.97265625,62.5,13.18359375,0.0
170.96484375,-24.4140625,-31.25,-29.296875,51.26953125,28.3203125,0.0
170.96875,-30.76171875,-32.2265625,-32.2265625,52.734375,-77.1484375,0.0
170.97265625,-43.45703125,-48.33984375,-35.64453125,41.9921875,-133.30078125,0.0
170.9765625,-47.36328125,-56.15234375,-42.96875,16.6015625,-34.66796875,0.0
170.98046875,-42.48046875,-37.109375,-31.73828125,24.4140625,39.0625,0.0
170.984375,-26.3671875,-29.78515625,-23.4375,28.80859375,65.4296875,0.0
170.98828125,-32.71484375,-40.52734375,-35.64453125,12.6953125,7.32421875,0.0
170.9921875,-56.640625,-47.36328125,-41.50390625,1.953125,-0.9765625,0.0
170.99609375,-43.45703125,-41.50390625,-25.390625,5.37109375,4.39453125,0.0
171.0,-26.3671875,-32.2265625,-20.99609375,11.23046875,-23.4375,0.0
171.00390625,-29.78515625,-28.80859375,-25.390625,1.953125,-22.4609375,0.0
171.0078125,-34.66796875,-37.109375,-29.78515625,-6.34765625,-82.03125,0.0
171.01171875,-45.41015625,-45.8984375,-34.1796875,-3.41796875,-114.2578125,0.0
171.015625,-39.55078125,-44.921875,-28.3203125,-0.9765625,-62.98828125,0.0
171.01953125,-32.2265625,-33.203125,-22.4609375,0.9765625,-63.4765625,0.0
171.0234375,-50.78125,-34.66796875,-25.87890625,5.37109375,-137.20703125,0.0
171.02734375,-48.33984375,-41.9921875,-31.25,7.32421875,-149.4140625,0.0
171.03125,-44.43359375,-51.26953125,-35.15625,7.32421875,-41.015625,0.0
171.03515625,-54.6875,-62.01171875,-44.921875,-0.9765625,47.36328125,0.0
171.0390625,-23.92578125,-46.38671875,-34.1796875,-4.8828125,20.01953125,0.0
171.04296875,-13.18359375,-36.1328125,-19.04296875,-2.44140625,-36.62109375,0.0
171.046875,-35.64453125,-41.50390625,-22.94921875,-3.90625,-31.73828125,0.0
171.05078125,-27.34375,-44.43359375,-24.90234375,-0.48828125,-35.15625,0.0
171.0546875,-35.64453125,-45.41015625,-20.5078125,1.953125,-46.875,0.0
171.05859375,-46.875,-40.0390625,-15.13671875,-4.8828125,-73.73046875,0.0
171.0625,-52.734375,-39.0625,-18.06640625,-22.94921875,-21.97265625,0.0
171.06640625,-49.8046875,-44.43359375,-25.87890625,-20.01953125,33.203125,0.0
171.0703125,-48.828125,-45.8984375,-29.296875,-13.18359375,-9.765625,0.0
171.07421875,-63.96484375,-42.48046875,-26.85546875,-19.04296875,-55.6640625,0.0
171.078125,-70.80078125,-51.26953125,-32.71484375,-23.92578125,-67.87109375,0.0
171.08203125,-70.3125,-68.84765625,-46.875,-41.015625,-29.78515625,0.0
171.0859375,-56.15234375,-59.5703125,-36.62109375,-43.45703125,-5.859375,0.0
171.08984375,-53.7109375,-49.31640625,-27.34375,-32.2265625,0.9765625,0.0
171.09375,-59.5703125,-52.24609375,-32.2265625,-31.25,10.7421875,0.0
171.09765625,-54.19921875,-49.31640625,-30.2734375,-34.1796875,-8.30078125,0.0
171.1015625,-56.15234375,-44.921875,-26.85546875,-33.69140625,-27.83203125,0.0
171.10546875,-64.94140625,-42.48046875,-30.2734375,-25.87890625,-5.859375,0.0
171.109375,-64.94140625,-47.36328125,-29.296875,-18.5546875,-18.5546875,0.0
171.11328125,-54.19921875,-50.78125,-27.83203125,-25.390625,-55.6640625,0.0
171.1171875,-47.36328125,-39.55078125,-21.484375,-24.90234375,-74.70703125,0.0
171.12109375,-42.48046875,-36.62109375,-20.5078125,-22.4609375,-110.83984375,0.0
171.125,-49.8046875,-47.36328125,-30.2734375,-18.5546875,-165.0390625,0.0
171.12890625,-47.36328125,-47.8515625,-30.76171875,-18.5546875,-104.00390625,0.0
171.1328125,-29.78515625,-42.48046875,-25.390625,-27.34375,5.37109375,0.0
171.13671875,-37.109375,-41.015625,-22.4609375,-32.2265625,10.25390625,0.0
171.140625,-48.33984375,-37.109375,-22.4609375,-31.25,18.5546875,0.0
171.14453125,-46.38671875,-32.2265625,-20.5078125,-32.2265625,47.8515625,0.0
171.1484375,-52.24609375,-41.9921875,-24.4140625,-37.109375,-24.4140625,0.0
171.15234375,-56.15234375,-47.36328125,-31.25,-38.57421875,-51.26953125,0.0
171.15625,-46.875,-39.0625,-28.80859375,-31.25,29.78515625,0.0
171.16015625,-57.12890625,-30.76171875,-26.85546875,-31.25,30.2734375,0.0
171.1640625,-66.89453125,-35.64453125,-30.76171875,-43.45703125,28.80859375,0.0
171.16796875,-59.5703125,-46.38671875,-38.0859375,-41.015625,46.875,0.0
171.171875,-72.75390625,-61.5234375,-44.43359375,-37.59765625,-52.24609375,0.0
171.17578125,-60.05859375,-54.6875,-35.64453125,-36.1328125,-72.265625,0.0
171.1796875,-40.52734375,-39.55078125,-27.83203125,-28.3203125,-43.9453125,0.0
171.18359375,-36.62109375,-32.2265625,-28.3203125,-16.6015625,-18.06640625,0.0
171.1875,-29.296875,-32.71484375,-27.83203125,-18.06640625,-22.4609375,0.0
171.19140625,-37.109375,-40.52734375,-30.2734375,-8.7890625,-23.92578125,0.0
171.1953125,-55.6640625,-46.875,-31.25,-5.37109375,17.08984375,0.0
171.19921875,-35.64453125,-37.59765625,-26.85546875,-18.5546875,-5.37109375,0.0
171.203125,-33.203125,-36.1328125,-26.85546875,-14.6484375,-99.12109375,0.0
171.20703125,-51.26953125,-39.0625,-29.78515625,-10.7421875,-15.13671875,0.0
171.2109375,-52.24609375,-39.55078125,-34.1796875,-16.6015625,5.859375,0.0
171.21484375,-55.6640625,-50.29296875,-32.71484375,-20.5078125,-71.2890625,0.0
171.21875,-35.64453125,-46.875,-26.3671875,-18.06640625,-26.85546875,0.0
171.22265625,-28.80859375,-36.1328125,-30.76171875,-18.5546875,-75.68359375,0.0
171.2265625,-33.69140625,-38.0859375,-29.78515625,-20.01953125,-51.26953125,0.0
171.23046875,-33.69140625,-43.45703125,-30.2734375,-13.671875,-41.015625,0.0
171.234375,-38.0859375,-40.52734375,-28.80859375,-6.8359375,-97.16796875,0.0
171.23828125,-39.0625,-36.62109375,-21.97265625,-4.8828125,-85.9375,0.0
171.2421875,-45.8984375,-38.0859375,-22.94921875,-2.9296875,-94.23828125,0.0
171.24609375,-49.8046875,-42.96875,-23.4375,-6.34765625,-123.046875,0.0
171.25,-59.5703125,-47.36328125,-24.4140625,-8.7890625,43.45703125,0.0
171.25390625,-59.5703125,-40.52734375,-21.97265625,-5.37109375,135.7421875,0.0
171.2578125,-52.734375,-40.52734375,-20.5078125,-9.27734375,55.17578125,0.0
171.26171875,-56.15234375,-51.7578125,-32.2265625,-22.94921875,-17.578125,0.0
171.265625,-64.453125,-54.19921875,-33.69140625,-20.01953125,-91.30859375,0.0
171.26953125,-63.96484375,-49.31640625,-28.3203125,-19.04296875,-152.34375,0.0
171.2734375,-64.453125,-52.24609375,-32.71484375,-32.2265625,-147.4609375,0.0
171.27734375,-64.94140625,-49.31640625,-29.78515625,-26.3671875,-58.59375,0.0
171.28125,-54.6875,-40.52734375,-28.80859375,-23.4375,18.5546875,0.0
171.28515625,-60.05859375,-40.52734375,-34.1796875,-31.25,-52.24609375,0.0
171.2890625,-61.03515625,-44.921875,-41.9921875,-37.59765625,-53.7109375,0.0
171.29296875,-59.08203125,-53.22265625,-49.8046875,-40.52734375,35.15625,0.0
171.296875,-71.2890625,-48.33984375,-39.55078125,-36.1328125,13.671875,0.0
171.30078125,-64.453125,-37.109375,-29.296875,-36.1328125,0.48828125,0.0
171.3046875,-55.17578125,-39.0625,-34.1796875,-31.73828125,30.76171875,0.0
171.30859375,-56.15234375,-45.41015625,-38.57421875,-29.296875,8.30078125,0.0
171.3125,-53.7109375,-51.26953125,-40.52734375,-30.2734375,16.11328125,0.0
171.31640625,-60.05859375,-45.41015625,-33.203125,-22.4609375,17.08984375,0.0
171.3203125,-59.5703125,-42.48046875,-28.80859375,-18.06640625,-55.17578125,0.0
171.32421875,-58.10546875,-42.96875,-31.25,-16.6015625,-37.109375,0.0
171.328125,-59.08203125,-43.45703125,-34.1796875,-20.99609375,-15.625,0.0
171.33203125,-66.40625,-48.828125,-39.0625,-29.296875,-134.765625,0.0
171.3359375,-56.15234375,-48.828125,-26.3671875,-34.1796875,-209.47265625,0.0
171.33984375,-38.57421875,-36.62109375,-19.53125,-27.34375,-129.8828125,0.0
171.34375,-48.828125,-32.2265625,-32.2265625,-30.2734375,-76.171875,0.0
171.34765625,-60.546875,-40.0390625,-40.0390625,-46.875,-87.890625,0.0
171.3515625,-54.19921875,-44.921875,-40.0390625,-41.50390625,-47.36328125,0.0
171.35546875,-51.26953125,-38.57421875,-33.69140625,-32.2265625,8.30078125,0.0
171.359375,-43.9453125,-34.66796875,-32.71484375,-40.0390625,41.9921875,0.0
171.36328125,-41.015625,-39.0625,-37.59765625,-44.921875,1.46484375,0.0
171.3671875,-54.19921875,-42.48046875,-37.109375,-49.31640625,-15.13671875,0.0
171.37109375,-62.5,-49.8046875,-38.57421875,-47.8515625,5.37109375,0.0
171.375,-60.05859375,-49.31640625,-35.15625,-50.78125,-3.90625,0.0
171.37890625,-35.15625,-38.57421875,-27.34375,-50.78125,24.4140625,0.0
171.3828125,-30.2734375,-34.1796875,-24.90234375,-26.3671875,-10.25390625,0.0
171.38671875,-47.36328125,-32.2265625,-30.76171875,-26.85546875,-29.296875,0.0
171.390625,-86.42578125,-42.48046875,-40.52734375,-62.98828125,-62.98828125,0.0
171.39453125,-100.5859375,-44.43359375,-38.57421875,-71.2890625,-29.78515625,0.0
171.3984375,-86.42578125,-33.69140625,-29.296875,-78.125,71.77734375,0.0
171.40234375,-93.26171875,-33.69140625,-32.2265625,-92.28515625,-40.52734375,0.0
171.40625,-102.05078125,-43.45703125,-38.0859375,-82.51953125,-61.5234375,0.0
171.41015625,-104.98046875,-53.22265625,-39.0625,-86.9140625,-11.23046875,0.0
171.4140625,-87.40234375,-54.19921875,-35.64453125,-83.984375,-45.8984375,0.0
171.41796875,-67.87109375,-42.48046875,-25.87890625,-63.96484375,46.875,0.0
171.421875,-72.265625,-35.64453125,-27.83203125,-56.640625,139.16015625,0.0
171.42578125,-76.171875,-37.109375,-33.203125,-62.01171875,83.0078125,0.0
171.4296875,-81.54296875,-42.48046875,-36.62109375,-62.01171875,-61.5234375,0.0
171.43359375,-72.75390625,-45.8984375,-38.57421875,-58.59375,-113.76953125,0.0
171.4375,-54.6875,-31.25,-31.73828125,-47.36328125,-42.96875,0.0
171.44140625,-54.6875,-25.87890625,-31.73828125,-35.64453125,10.25390625,0.0
171.4453125,-60.546875,-30.76171875,-34.1796875,-29.296875,-13.18359375,0.0
171.44921875,-68.84765625,-33.203125,-38.0859375,-31.73828125,-6.34765625,0.0
171.453125,-69.82421875,-40.0390625,-39.55078125,-39.55078125,48.828125,0.0
171.45703125,-45.41015625,-39.0625,-33.69140625,-46.38671875,36.62109375,0.0
171.4609375,-30.2734375,-30.2734375,-31.25,-46.38671875,7.32421875,0.0
171.46484375,-33.69140625,-28.80859375,-31.25,-41.9921875,-56.15234375,0.0
171.46875,-54.19921875,-34.1796875,-37.59765625,-42.96875,-37.109375,0.0
171.47265625,-69.3359375,-38.0859375,-40.0390625,-35.64453125,-21.97265625,0.0
171.4765625,-58.10546875,-31.73828125,-35.64453125,-39.0625,-85.44921875,0.0
171.48046875,-48.33984375,-28.3203125,-38.0859375,-49.8046875,-143.06640625,0.0
171.484375,-54.6875,-32.2265625,-38.57421875,-50.78125,-182.6171875,0.0
171.48828125,-66.89453125,-30.2734375,-39.0625,-53.22265625,-77.1484375,0.0
171.4921875,-71.2890625,-36.62109375,-41.015625,-53.7109375,-68.84765625,0.0
171.49609375,-54.19921875,-35.64453125,-37.59765625,-51.26953125,-150.87890625,0.0
171.5,-66.40625,-28.80859375,-35.15625,-39.55078125,-89.84375,0.0
171.50390625,-62.5,-28.3203125,-40.0390625,-35.64453125,-43.45703125,0.0
171.5078125,-45.41015625,-28.80859375,-47.36328125,-41.9921875,-45.8984375,0.0
171.51171875,-40.0390625,-34.1796875,-49.31640625,-43.45703125,-91.30859375,0.0
171.515625,-36.1328125,-37.109375,-40.0390625,-46.875,-120.1171875,0.0
171.51953125,-38.57421875,-28.80859375,-35.64453125,-51.7578125,-59.5703125,0.0
171.5234375,-52.24609375,-26.3671875,-41.50390625,-45.8984375,-58.10546875,0.0
171.52734375,-65.4296875,-32.2265625,-39.0625,-36.62109375,-139.6484375,0.0
171.53125,-51.26953125,-34.66796875,-37.59765625,-46.38671875,-167.96875,0.0
171.53515625,-57.12890625,-38.0859375,-39.0625,-55.6640625,-133.7890625,0.0
171.5390625,-45.8984375,-28.3203125,-32.71484375,-58.10546875,-149.4140625,0.0
171.54296875,-31.25,-26.3671875,-30.76171875,-60.546875,-242.67578125,0.0
171.546875,-36.62109375,-40.0390625,-35.64453125,-63.4765625,-205.078125,0.0
171.55078125,-40.0390625,-37.59765625,-39.0625,-67.3828125,-64.453125,0.0
171.5546875,-58.59375,-35.64453125,-34.1796875,-58.10546875,-40.52734375,0.0
171.55859375,-53.7109375,-29.78515625,-29.296875,-52.24609375,-5.859375,0.0
171.5625,-44.43359375,-26.85546875,-30.76171875,-52.24609375,15.625,0.0
171.56640625,-56.640625,-28.80859375,-33.203125,-48.828125,-55.6640625,0.0
171.5703125,-58.59375,-32.2265625,-34.66796875,-50.78125,-39.55078125,0.0
171.57421875,-56.640625,-35.64453125,-38.57421875,-50.29296875,38.0859375,0.0
171.578125,-53.7109375,-28.3203125,-35.64453125,-51.7578125,53.7109375,0.0
171.58203125,-46.38671875,-26.3671875,-27.34375,-55.17578125,68.84765625,0.0
171.5859375,-42.48046875,-24.90234375,-33.203125,-55.17578125,12.20703125,0.0
171.58984375,-57.6171875,-36.1328125,-41.50390625,-50.29296875,2.44140625,0.0
171.59375,-60.05859375,-44.921875,-38.0859375,-51.7578125,32.2265625,0.0
171.59765625,-42.96875,-31.25,-33.203125,-47.8515625,-20.5078125,0.0
171.6015625,-42.48046875,-29.296875,-36.62109375,-53.22265625,-38.0859375,0.0
171.60546875,-43.45703125,-36.1328125,-43.9453125,-64.94140625,-2.9296875,0.0
171.609375,-44.921875,-39.0625,-45.41015625,-59.08203125,46.875,0.0
171.61328125,-41.015625,-42.96875,-39.0625,-47.8515625,20.01953125,0.0
171.6171875,-41.015625,-40.0390625,-29.78515625,-48.33984375,-10.7421875,0.0
171.62109375,-76.171875,-36.62109375,-31.25,-62.98828125,49.8046875,0.0
171.625,-87.890625,-37.109375,-33.69140625,-69.82421875,18.06640625,0.0
171.62890625,-72.75390625,-34.1796875,-33.69140625,-63.4765625,28.80859375,0.0
171.6328125,-84.9609375,-41.50390625,-45.8984375,-72.75390625,39.55078125,0.0
171.63671875,-82.51953125,-48.828125,-56.15234375,-94.23828125,-29.296875,0.0
171.640625,-59.5703125,-41.50390625,-49.31640625,-81.54296875,34.1796875,0.0
171.64453125,-48.828125,-39.55078125,-43.45703125,-68.84765625,70.3125,0.0
171.6484375,-40.0390625,-42.96875,-45.41015625,-70.3125,1.46484375,0.0
171.65234375,-42.96875,-45.8984375,-41.50390625,-60.546875,-62.01171875,0.0
171.65625,-46.38671875,-41.015625,-36.62109375,-60.05859375,-116.2109375,0.0
171.66015625,-43.9453125,-31.25,-29.296875,-67.87109375,-91.30859375,0.0
171.6640625,-40.52734375,-31.73828125,-27.83203125,-52.24609375,-41.50390625,0.0
171.66796875,-42.96875,-35.64453125,-40.0390625,-51.26953125,34.1796875,0.0
171.671875,-63.4765625,-40.0390625,-40.52734375,-55.17578125,38.0859375,0.0
171.67578125,-79.58984375,-44.921875,-36.1328125,-48.828125,-22.94921875,0.0
171.6796875,-71.2890625,-36.62109375,-34.1796875,-43.9453125,-87.890625,0.0
171.68359375,-80.56640625,-35.15625,-37.59765625,-53.7109375,-38.57421875,0.0
171.6875,-79.1015625,-43.45703125,-42.96875,-52.24609375,1.953125,0.0
171.69140625,-69.82421875,-52.24609375,-48.828125,-42.48046875,-32.71484375,0.0
171.6953125,-66.89453125,-54.6875,-51.7578125,-42.48046875,-52.734375,0.0
171.69921875,-51.26953125,-42.96875,-39.55078125,-37.59765625,-63.4765625,0.0
171.703125,-49.8046875,-42.48046875,-37.109375,-42.48046875,-122.0703125,0.0
171.70703125,-61.5234375,-43.45703125,-46.38671875,-46.38671875,-156.73828125,0.0
171.7109375,-56.640625,-40.0390625,-46.38671875,-39.0625,-113.28125,0.0
171.71484375,-60.05859375,-41.9921875,-41.9921875,-32.2265625,-114.74609375,0.0
171.71875,-56.15234375,-40.52734375,-31.25,-23.4375,-113.28125,0.0
171.72265625,-28.3203125,-38.57421875,-30.76171875,-17.08984375,-84.9609375,0.0
171.7265625,-42.48046875,-29.78515625,-49.31640625,-34.1796875,-20.01953125,0.0
171.73046875,-70.3125,-29.296875,-59.08203125,-60.546875,-66.40625,0.0
171.734375,-75.68359375,-33.69140625,-53.7109375,-63.4765625,-77.63671875,0.0
171.73828125,-71.2890625,-29.78515625,-54.19921875,-63.96484375,-28.80859375,0.0
171.7421875,-74.21875,-32.2265625,-56.15234375,-60.05859375,-113.76953125,0.0
171.74609375,-83.49609375,-30.76171875,-47.8515625,-49.31640625,-105.46875,0.0
171.75,-95.21484375,-32.2265625,-45.8984375,-34.1796875,-85.9375,0.0
171.75390625,-79.1015625,-34.66796875,-45.41015625,-34.1796875,-92.7734375,0.0
171.7578125,-62.01171875,-28.3203125,-39.0625,-46.875,-13.18359375,0.0
171.76171875,-61.03515625,-20.5078125,-36.62109375,-34.1796875,49.8046875,0.0
171.765625,-65.91796875,-23.92578125,-38.0859375,-27.34375,36.62109375,0.0
171.76953125,-79.58984375,-29.296875,-40.0390625,-33.69140625,-22.94921875,0.0
171.7734375,-72.265625,-25.390625,-40.52734375,-22.4609375,55.6640625,0.0
171.77734375,-49.31640625,-14.16015625,-36.62109375,-25.390625,89.84375,0.0
171.78125,-43.9453125,-19.04296875,-41.9921875,-33.69140625,86.42578125,0.0
171.78515625,-58.10546875,-32.71484375,-48.33984375,-33.203125,106.93359375,0.0
171.7890625,-64.453125,-30.76171875,-38.57421875,-22.94921875,65.4296875,0.0
171.79296875,-54.19921875,-30.2734375,-36.62109375,-9.765625,20.01953125,0.0
171.796875,-61.5234375,-32.2265625,-36.62109375,-14.6484375,-64.453125,0.0
171.80078125,-70.3125,-22.4609375,-34.1796875,-12.20703125,-84.47265625,0.0
171.8046875,-58.59375,-16.6015625,-34.1796875,0.0,-36.1328125,0.0
171.80859375,-55.6640625,-21.97265625,-35.15625,9.27734375,-76.66015625,0.0
171.8125,-61.5234375,-26.3671875,-38.57421875,11.71875,-115.234375,0.0
171.81640625,-52.24609375,-21.97265625,-33.69140625,18.06640625,-64.94140625,0.0
171.8203125,-48.828125,-17.08984375,-27.83203125,34.1796875,-25.87890625,0.0
171.82421875,-49.8046875,-19.04296875,-31.73828125,42.48046875,59.08203125,0.0
171.828125,-61.03515625,-23.4375,-37.59765625,45.41015625,141.6015625,0.0
171.83203125,-58.59375,-29.78515625,-41.015625,49.8046875,61.5234375,0.0
171.8359375,-44.43359375,-27.83203125,-37.59765625,44.921875,-54.6875,0.0
171.83984375,-55.17578125,-16.11328125,-38.0859375,37.59765625,-68.359375,0.0
171.84375,-58.10546875,-14.6484375,-41.50390625,46.875,0.48828125,0.0
171.84765625,-56.640625,-23.4375,-43.9453125,54.19921875,5.37109375,0.0
171.8515625,-51.7578125,-29.296875,-41.9921875,62.01171875,-35.64453125,0.0
171.85546875,-40.52734375,-23.92578125,-34.66796875,70.3125,-23.4375,0.0
171.859375,-42.48046875,-21.97265625,-36.1328125,56.15234375,24.4140625,0.0
171.86328125,-42.96875,-24.90234375,-38.57421875,45.8984375,46.875,0.0
171.8671875,-45.41015625,-20.99609375,-37.59765625,56.640625,-3.90625,0.0
171.87109375,-46.38671875,-23.92578125,-36.62109375,62.5,-62.98828125,0.0
171.875,-62.01171875,-35.15625,-40.52734375,45.8984375,-62.5,0.0
171.87890625,-65.91796875,-28.3203125,-35.15625,32.71484375,-72.75390625,0.0
171.8828125,-63.96484375,-19.04296875,-31.73828125,31.73828125,-45.41015625,0.0
171.88671875,-81.0546875,-26.3671875,-40.52734375,26.3671875,-41.9921875,0.0
171.890625,-70.3125,-33.203125,-44.43359375,24.4140625,-175.29296875,0.0
171.89453125,-62.5,-29.296875,-41.015625,17.578125,-185.546875,0.0
171.8984375,-57.12890625,-26.3671875,-37.59765625,8.30078125,-110.3515625,0.0
171.90234375,-58.59375,-22.94921875,-39.0625,4.8828125,-184.08203125,0.0
171.90625,-71.2890625,-19.53125,-41.015625,4.8828125,-199.70703125,0.0
171.91015625,-69.82421875,-29.296875,-42.48046875,15.13671875,-166.9921875,0.0
171.9140625,-68.359375,-32.2265625,-37.109375,22.94921875,-90.33203125,0.0
171.91796875,-71.2890625,-33.203125,-37.109375,14.6484375,7.8125,0.0
171.921875,-92.28515625,-52.734375,-54.6875,0.9765625,-88.8671875,0.0
171.92578125,-84.47265625,-46.875,-44.921875,9.765625,-157.2265625,0.0
171.9296875,-72.265625,-37.109375,-35.15625,14.6484375,-110.3515625,0.0
171.93359375,-68.359375,-38.57421875,-40.0390625,-3.41796875,-85.9375,0.0
171.9375,-54.6875,-35.15625,-32.71484375,-19.04296875,-8.30078125,0.0
171.94140625,-63.96484375,-34.66796875,-32.2265625,-17.578125,60.546875,0.0
171.9453125,-58.59375,-35.64453125,-33.203125,-14.6484375,-4.8828125,0.0
171.94921875,-47.8515625,-39.55078125,-27.83203125,-12.20703125,-40.52734375,0.0
171.953125,-53.22265625,-40.52734375,-23.92578125,-6.8359375,-31.73828125,0.0
171.95703125,-47.8515625,-30.2734375,-17.08984375,-11.23046875,-45.8984375,0.0
171.9609375,-50.78125,-24.90234375,-20.01953125,-20.99609375,11.71875,0.0
171.96484375,-64.453125,-34.1796875,-35.15625,-32.2265625,34.66796875,0.0
171.96875,-61.5234375,-42.48046875,-34.1796875,-37.109375,62.5,0.0
171.97265625,-44.921875,-40.52734375,-23.92578125,-13.18359375,54.6875,0.0
171.9765625,-46.875,-38.0859375,-16.6015625,-10.25390625,30.76171875,0.0
171.98046875,-53.7109375,-33.203125,-22.94921875,-35.15625,52.24609375,0.0
171.984375,-49.31640625,-28.3203125,-20.99609375,-32.71484375,67.3828125,0.0
171.98828125,-51.26953125,-29.296875,-22.4609375,-26.3671875,49.8046875,0.0
171.9921875,-43.9453125,-28.80859375,-29.296875,-25.390625,-27.83203125,0.0
171.99609375,-41.015625,-25.390625,-23.92578125,-27.34375,-43.45703125,0.0
172.0,-47.8515625,-14.16015625,-21.97265625,-28.80859375,24.4140625,0.0
172.00390625,-52.24609375,-7.8125,-21.484375,-16.6015625,33.203125,0.0
172.0078125,-62.01171875,-18.5546875,-29.78515625,-19.04296875,20.5078125,0.0
172.01171875,-70.80078125,-31.73828125,-43.9453125,-41.9921875,28.80859375,0.0
172.015625,-54.19921875,-22.4609375,-27.34375,-39.0625,-42.96875,0.0
172.01953125,-39.55078125,3.41796875,-12.6953125,-32.2265625,-7.8125,0.0
172.0234375,-42.48046875,12.6953125,-24.4140625,-32.71484375,13.671875,0.0
172.02734375,-59.5703125,9.765625,-27.83203125,-33.69140625,-76.66015625,0.0
172.03125,-59.08203125,9.27734375,-24.4140625,-33.203125,-104.00390625,0.0
172.03515625,-41.9921875,13.671875,-22.94921875,-35.15625,-147.4609375,0.0
172.0390625,-35.64453125,18.06640625,-21.97265625,-37.109375,-83.0078125,0.0
172.04296875,-41.015625,19.53125,-23.4375,-27.83203125,59.5703125,0.0
172.046875,-49.8046875,15.13671875,-23.4375,-21.484375,75.1953125,0.0
172.05078125,-50.78125,9.765625,-25.390625,-17.08984375,-17.08984375,0.0
172.0546875,-47.36328125,14.6484375,-23.4375,-23.4375,-59.5703125,0.0
172.05859375,-33.203125,25.390625,-15.13671875,-25.390625,-51.7578125,0.0
172.0625,-33.69140625,20.5078125,-17.08984375,-23.4375,-10.25390625,0.0
172.06640625,-50.78125,14.16015625,-24.90234375,-25.87890625,66.89453125,0.0
172.0703125,-56.15234375,6.8359375,-38.0859375,-32.71484375,13.671875,0.0
172.07421875,-51.7578125,5.859375,-32.2265625,-32.71484375,-16.11328125,0.0
172.078125,-40.52734375,21.97265625,-18.5546875,-15.625,31.25,0.0
172.08203125,-48.828125,23.4375,-26.3671875,-23.92578125,59.5703125,0.0
172.0859375,-50.29296875,24.4140625,-34.1796875,-26.3671875,99.609375,0.0
172.08984375,-29.296875,25.390625,-33.203125,-16.6015625,127.9296875,0.0
172.09375,-41.015625,19.04296875,-28.80859375,-21.97265625,39.55078125,0.0
172.09765625,-70.3125,17.08984375,-27.83203125,-24.4140625,-125.0,0.0
172.1015625,-75.68359375,16.11328125,-33.203125,-25.87890625,-148.4375,0.0
172.10546875,-54.19921875,28.3203125,-30.76171875,-16.6015625,-64.453125,0.0
172.109375,-53.7109375,26.3671875,-32.2265625,-10.7421875,-65.4296875,0.0
172.11328125,-68.84765625,9.765625,-34.66796875,-25.87890625,-74.21875,0.0
172.1171875,-62.98828125,14.16015625,-30.76171875,-40.0390625,-96.19140625,0.0
172.12109375,-54.6875,26.3671875,-24.90234375,-25.390625,-64.94140625,0.0
172.125,-60.05859375,22.4609375,-24.90234375,-21.484375,-38.0859375,0.0
172.12890625,-51.26953125,20.5078125,-27.34375,-27.34375,-68.359375,0.0
172.1328125,-42.96875,23.4375,-22.94921875,-12.6953125,-56.640625,0.0
172.13671875,-40.0390625,25.390625,-15.625,-11.23046875,34.66796875,0.0
172.140625,-39.0625,20.99609375,-18.06640625,-23.4375,4.8828125,0.0
172.14453125,-46.875,18.06640625,-24.90234375,-23.92578125,-30.76171875,0.0
172.1484375,-48.828125,21.484375,-23.92578125,-12.20703125,-20.99609375,0.0
172.15234375,-46.38671875,18.5546875,-20.99609375,-10.25390625,3.41796875,0.0
172.15625,-34.66796875,11.71875,-20.99609375,-24.4140625,22.4609375,0.0
172.16015625,-49.8046875,7.32421875,-31.73828125,-35.64453125,6.34765625,0.0
172.1640625,-46.38671875,11.71875,-33.69140625,-36.62109375,78.125,0.0
172.16796875,-36.1328125,14.16015625,-30.2734375,-29.296875,145.01953125,0.0
172.171875,-58.10546875,5.37109375,-30.76171875,-21.484375,117.67578125,0.0
172.17578125,-54.6875,4.8828125,-22.94921875,-29.296875,34.66796875,0.0
172.1796875,-39.55078125,16.11328125,-17.578125,-38.57421875,51.7578125,0.0
172.18359375,-46.875,16.6015625,-18.5546875,-38.57421875,13.671875,0.0
172.1875,-46.38671875,11.23046875,-22.94921875,-41.015625,16.6015625,0.0
172.19140625,-41.015625,2.44140625,-24.4140625,-48.828125,2.44140625,0.0
172.1953125,-53.22265625,-6.8359375,-18.06640625,-50.78125,-81.54296875,0.0
172.19921875,-43.45703125,0.48828125,-8.7890625,-37.59765625,-71.2890625,0.0
172.203125,-49.31640625,-8.30078125,-19.53125,-47.36328125,-49.8046875,0.0
172.20703125,-70.3125,-26.3671875,-34.66796875,-61.03515625,-57.12890625,0.0
172.2109375,-51.26953125,-19.04296875,-23.4375,-55.17578125,21.484375,0.0
172.21484375,-41.015625,-12.6953125,-12.20703125,-45.8984375,46.875,0.0
172.21875,-58.10546875,-12.20703125,-17.578125,-47.36328125,-64.94140625,0.0
172.22265625,-72.265625,-10.7421875,-27.34375,-54.19921875,-241.2109375,0.0
172.2265625,-63.96484375,-7.32421875,-28.3203125,-52.734375,-250.0,0.0
172.23046875,-59.5703125,-7.32421875,-30.2734375,-55.17578125,-82.03125,0.0
172.234375,-43.9453125,-5.37109375,-26.85546875,-51.7578125,-13.671875,0.0
172.23828125,-33.69140625,-0.9765625,-14.16015625,-42.96875,-4.39453125,0.0
172.2421875,-41.50390625,-2.44140625,-8.30078125,-31.73828125,-36.62109375,0.0
172.24609375,-15.13671875,-1.46484375,-10.7421875,-11.71875,-25.87890625,0.0
172.25,-19.53125,-9.27734375,-37.59765625,-40.0390625,-54.19921875,0.0
172.25390625,-59.5703125,-14.6484375,-43.45703125,-76.66015625,-101.07421875,0.0
172.2578125,-62.5,-10.25390625,-22.4609375,-68.359375,-96.19140625,0.0
172.26171875,-48.828125,-6.34765625,-22.94921875,-54.19921875,-70.80078125,0.0
172.265625,-48.33984375,-2.9296875,-24.4140625,-42.96875,-11.23046875,0.0
172.26953125,-66.89453125,-10.7421875,-26.3671875,-44.43359375,-41.015625,0.0
172.2734375,-71.2890625,-20.5078125,-25.87890625,-56.640625,-103.515625,0.0
172.27734375,-54.6875,-11.71875,-18.06640625,-65.4296875,-91.30859375,0.0
172.28125,-54.6875,-0.48828125,-19.04296875,-65.91796875,-64.94140625,0.0
172.28515625,-51.26953125,-3.90625,-23.92578125,-59.08203125,-58.59375,0.0
172.2890625,-40.0390625,-6.34765625,-25.390625,-58.10546875,-88.37890625,0.0
172.29296875,-36.62109375,-13.671875,-33.69140625,-59.5703125,-65.4296875,0.0
172.296875,-41.50390625,-17.08984375,-35.15625,-52.24609375,-99.609375,0.0
172.30078125,-39.0625,1.46484375,-24.4140625,-47.8515625,-87.890625,0.0
172.3046875,-38.57421875,3.41796875,-27.34375,-45.8984375,-40.0390625,0.0
172.30859375,-40.0390625,-5.859375,-31.25,-39.0625,-41.50390625,0.0
172.3125,-41.50390625,-7.32421875,-29.78515625,-46.875,-6.34765625,0.0
172.31640625,-40.0390625,2.44140625,-23.4375,-35.15625,-2.9296875,0.0
172.3203125,-36.62109375,4.8828125,-22.94921875,-27.83203125,40.52734375,0.0
172.32421875,-45.41015625,0.0,-24.4140625,-43.9453125,23.4375,0.0
172.328125,-43.9453125,-3.90625,-24.90234375,-25.87890625,-94.23828125,0.0
172.33203125,-39.55078125,-13.18359375,-28.3203125,-26.85546875,-110.83984375,0.0
172.3359375,-55.6640625,-16.11328125,-21.484375,-38.57421875,-68.84765625,0.0
172.33984375,-61.03515625,-10.25390625,-22.94921875,-33.69140625,0.48828125,0.0
172.34375,-38.0859375,-14.16015625,-28.80859375,-31.25,10.7421875,0.0
172.34765625,-23.4375,-15.13671875,-26.85546875,-20.99609375,-1.46484375,0.0
172.3515625,-20.5078125,-16.11328125,-31.73828125,-17.08984375,2.44140625,0.0
172.35546875,-20.5078125,-9.765625,-25.87890625,-19.04296875,-65.91796875,0.0
172.359375,-22.94921875,-4.39453125,-18.5546875,-23.92578125,-4.39453125,0.0
172.36328125,-36.1328125,-10.25390625,-24.4140625,-25.390625,73.2421875,0.0
172.3671875,-38.0859375,-19.53125,-28.80859375,-29.296875,-16.6015625,0.0
172.37109375,-33.69140625,-27.34375,-27.34375,-39.0625,-58.10546875,0.0
172.375,-40.52734375,-27.34375,-25.87890625,-37.109375,-35.15625,0.0
172.37890625,-41.9921875,-18.5546875,-26.85546875,-36.1328125,-43.9453125,0.0
172.3828125,-39.55078125,-20.99609375,-30.76171875,-50.78125,-35.64453125,0.0
172.38671875,-42.48046875,-31.25,-35.64453125,-54.19921875,-6.34765625,0.0
172.390625,-54.19921875,-34.1796875,-32.71484375,-47.8515625,11.71875,0.0
172.39453125,-62.5,-30.76171875,-25.390625,-35.15625,16.11328125,0.0
172.3984375,-62.98828125,-28.3203125,-20.99609375,-38.0859375,-1.46484375,0.0
172.40234375,-59.5703125,-24.90234375,-29.296875,-60.546875,0.9765625,0.0
172.40625,-53.7109375,-16.6015625,-27.34375,-52.24609375,36.1328125,0.0
172.41015625,-54.6875,-15.625,-21.97265625,-44.921875,67.3828125,0.0
172.4140625,-58.59375,-21.97265625,-21.484375,-48.828125,39.0625,0.0
172.41796875,-47.8515625,-24.4140625,-18.06640625,-38.57421875,20.01953125,0.0
172.421875,-51.26953125,-26.85546875,-19.53125,-30.2734375,-0.48828125,0.0
172.42578125,-54.6875,-30.2734375,-20.01953125,-33.69140625,4.39453125,0.0
172.4296875,-45.8984375,-35.64453125,-21.97265625,-27.34375,-61.5234375,0.0
172.43359375,-49.31640625,-41.015625,-21.484375,-26.85546875,-143.06640625,0.0
172.4375,-54.19921875,-37.59765625,-12.6953125,-27.83203125,-122.0703125,0.0
172.44140625,-40.0390625,-31.73828125,-11.23046875,-23.92578125,-43.45703125,0.0
172.4453125,-42.48046875,-37.109375,-11.23046875,-26.3671875,1.953125,0.0
172.44921875,-48.828125,-47.36328125,-17.578125,-27.34375,-9.765625,0.0
172.453125,-52.24609375,-54.19921875,-27.34375,-26.85546875,-105.95703125,0.0
172.45703125,-56.15234375,-49.31640625,-20.99609375,-27.34375,-151.3671875,0.0
172.4609375,-41.50390625,-41.015625,-16.11328125,-24.4140625,-51.26953125,0.0
172.46484375,-40.0390625,-42.96875,-20.01953125,-21.97265625,-43.45703125,0.0
172.46875,-52.24609375,-51.26953125,-23.92578125,-20.5078125,-77.63671875,0.0
172.47265625,-47.8515625,-53.22265625,-25.87890625,-10.7421875,-53.7109375,0.0
172.4765625,-34.66796875,-40.52734375,-17.08984375,-13.671875,-94.23828125,0.0
172.48046875,-33.203125,-41.9921875,-24.4140625,-29.78515625,-73.2421875,0.0
172.484375,-27.83203125,-49.8046875,-29.78515625,-31.73828125,7.8125,0.0
172.48828125,-42.48046875,-55.17578125,-34.66796875,-32.2265625,-22.4609375,0.0
172.4921875,-48.33984375,-56.15234375,-32.71484375,-34.1796875,-12.6953125,0.0
172.49609375,-37.59765625,-48.828125,-20.5078125,-23.4375,-45.8984375,0.0
172.5,-41.50390625,-42.48046875,-21.97265625,-19.53125,-10.7421875,0.0
172.50390625,-52.734375,-36.62109375,-23.92578125,-33.203125,65.91796875,0.0
172.5078125,-67.3828125,-41.50390625,-26.85546875,-32.71484375,85.9375,0.0
172.51171875,-60.05859375,-42.96875,-27.83203125,-20.01953125,85.44921875,0.0
172.515625,-42.48046875,-43.9453125,-22.94921875,-15.625,14.6484375,0.0
172.51953125,-41.9921875,-38.0859375,-22.94921875,-25.87890625,-39.55078125,0.0
172.5234375,-43.9453125,-36.1328125,-29.78515625,-29.78515625,-88.37890625,0.0
172.52734375,-39.55078125,-43.45703125,-32.71484375,-20.01953125,-89.35546875,0.0
172.53125,-46.875,-45.8984375,-31.73828125,-25.87890625,-90.33203125,0.0
172.53515625,-42.96875,-50.29296875,-31.73828125,-34.1796875,-144.04296875,0.0
172.5390625,-32.71484375,-40.0390625,-29.296875,-30.2734375,-66.40625,0.0
172.54296875,-28.3203125,-29.296875,-28.3203125,-30.2734375,22.4609375,0.0
172.546875,-22.4609375,-29.296875,-29.78515625,-34.1796875,48.828125,0.0
172.55078125,-18.06640625,-28.80859375,-31.73828125,-34.1796875,44.43359375,0.0
172.5546875,-17.08984375,-25.390625,-31.73828125,-32.2265625,17.08984375,0.0
172.55859375,-11.71875,-20.01953125,-28.80859375,-42.48046875,13.18359375,0.0
172.5625,-1.953125,-19.53125,-27.34375,-59.08203125,48.828125,0.0
172.56640625,-8.30078125,-25.87890625,-31.73828125,-53.22265625,39.0625,0.0
172.5703125,-9.27734375,-25.390625,-33.69140625,-45.41015625,-1.953125,0.0
172.57421875,-19.53125,-23.92578125,-30.76171875,-42.48046875,7.8125,0.0
172.578125,-41.50390625,-28.80859375,-28.3203125,-35.15625,-2.9296875,0.0
172.58203125,-54.6875,-30.76171875,-32.2265625,-30.2734375,-104.4921875,0.0
172.5859375,-55.6640625,-24.90234375,-27.83203125,-24.90234375,-132.32421875,0.0
172.58984375,-49.8046875,-22.4609375,-23.92578125,-26.3671875,-113.76953125,0.0
172.59375,-41.015625,-18.06640625,-23.92578125,-24.4140625,-106.4453125,0.0
172.59765625,-36.1328125,-3.90625,-20.01953125,-30.2734375,-36.62109375,0.0
172.6015625,-39.0625,0.48828125,-24.90234375,-38.57421875,44.43359375,0.0
172.60546875,-52.734375,-9.27734375,-29.78515625,-33.203125,64.453125,0.0
172.609375,-57.12890625,-19.04296875,-32.71484375,-34.1796875,55.6640625,0.0
172.61328125,-41.50390625,-17.08984375,-30.76171875,-40.0390625,61.03515625,0.0
172.6171875,-30.76171875,-1.46484375,-17.578125,-33.203125,2.44140625,0.0
172.62109375,-34.1796875,6.34765625,-19.04296875,-31.73828125,26.85546875,0.0
172.625,-41.50390625,-2.9296875,-26.3671875,-35.64453125,117.1875,0.0
172.62890625,-42.48046875,-4.39453125,-20.5078125,-34.1796875,0.0,0.0
172.6328125,-40.0390625,2.9296875,-14.16015625,-34.1796875,-110.3515625,0.0
172.63671875,-45.41015625,4.8828125,-10.25390625,-27.34375,-21.97265625,0.0
172.640625,-38.0859375,3.41796875,-15.13671875,-29.78515625,49.31640625,0.0
172.64453125,-33.203125,2.44140625,-17.578125,-39.0625,28.3203125,0.0
172.6484375,-31.25,-5.859375,-21.484375,-30.2734375,-1.953125,0.0
172.65234375,-44.43359375,-16.11328125,-22.94921875,-16.11328125,2.44140625,0.0
172.65625,-51.7578125,-18.5546875,-18.06640625,-31.25,-30.76171875,0.0
172.66015625,-37.109375,-10.7421875,-22.4609375,-33.69140625,-25.87890625,0.0
172.6640625,-41.015625,-3.41796875,-24.90234375,-23.92578125,55.17578125,0.0
172.66796875,-49.8046875,-10.7421875,-25.87890625,-25.87890625,-17.08984375,0.0
172.671875,-58.10546875,-33.203125,-30.76171875,-32.2265625,-62.98828125,0.0
172.67578125,-49.31640625,-27.34375,-21.97265625,-31.73828125,-18.06640625,0.0
172.6796875,-46.875,-16.6015625,-14.6484375,-20.5078125,-47.36328125,0.0
172.68359375,-50.29296875,-22.94921875,-20.5078125,-20.5078125,-83.984375,0.0
172.6875,-58.59375,-23.4375,-24.4140625,-18.06640625,-72.75390625,0.0
172.69140625,-61.5234375,-23.92578125,-23.92578125,-16.6015625,-26.85546875,0.0
172.6953125,-52.734375,-26.3671875,-22.4609375,-20.01953125,-24.4140625,0.0
172.69921875,-47.36328125,-24.4140625,-28.3203125,-19.53125,-63.96484375,0.0
172.703125,-48.828125,-29.78515625,-30.2734375,-19.53125,-16.6015625,0.0
172.70703125,-46.875,-34.66796875,-24.4140625,-7.8125,-58.10546875,0.0
172.7109375,-49.8046875,-40.0390625,-30.76171875,6.8359375,-126.46484375,0.0
172.71484375,-58.59375,-47.36328125,-40.52734375,14.16015625,23.4375,0.0
172.71875,-46.38671875,-45.8984375,-29.78515625,30.2734375,92.28515625,0.0
172.72265625,-29.296875,-41.015625,-22.4609375,60.05859375,24.90234375,0.0
172.7265625,-31.73828125,-43.9453125,-26.3671875,72.75390625,-49.31640625,0.0
172.73046875,-33.203125,-54.19921875,-34.1796875,68.359375,-151.3671875,0.0
172.734375,-34.66796875,-51.26953125,-32.2265625,78.61328125,-106.4453125,0.0
172.73828125,-40.52734375,-38.0859375,-24.4140625,86.9140625,-63.4765625,0.0
172.7421875,-37.59765625,-41.50390625,-27.83203125,79.1015625,-159.1796875,0.0
172.74609375,-29.78515625,-50.29296875,-32.2265625,75.68359375,-194.82421875,0.0
172.75,-20.5078125,-56.640625,-33.203125,71.77734375,-160.15625,0.0
172.75390625,-10.25390625,-53.22265625,-30.2734375,64.94140625,-90.33203125,0.0
172.7578125,-4.8828125,-44.921875,-28.80859375,70.3125,-42.48046875,0.0
172.76171875,-22.94921875,-49.8046875,-36.1328125,68.359375,-75.68359375,0.0
172.765625,-40.52734375,-60.05859375,-39.0625,55.17578125,-126.46484375,0.0
172.76953125,-42.96875,-59.5703125,-40.52734375,48.828125,-96.19140625,0.0
172.7734375,-42.96875,-55.6640625,-41.015625,41.015625,-32.2265625,0.0
172.77734375,-43.9453125,-50.78125,-37.109375,39.55078125,31.25,0.0
172.78125,-47.8515625,-51.7578125,-38.57421875,39.0625,29.296875,0.0
172.78515625,-55.17578125,-54.19921875,-40.52734375,34.66796875,-33.69140625,0.0
172.7890625,-50.29296875,-59.08203125,-45.41015625,29.296875,-35.64453125,0.0
172.79296875,-40.0390625,-61.03515625,-39.0625,27.83203125,-82.51953125,0.0
172.796875,-38.57421875,-50.78125,-28.3203125,23.92578125,-84.9609375,0.0
172.80078125,-43.45703125,-45.41015625,-30.76171875,16.6015625,-27.83203125,0.0
172.8046875,-42.96875,-55.17578125,-38.0859375,12.20703125,-15.625,0.0
172.80859375,-40.52734375,-65.91796875,-41.015625,12.6953125,-64.453125,0.0
172.8125,-36.1328125,-63.96484375,-37.59765625,5.37109375,-111.328125,0.0
172.81640625,-36.62109375,-55.6640625,-33.203125,-5.37109375,-112.79296875,0.0
172.8203125,-49.31640625,-57.6171875,-38.0859375,-14.16015625,-52.734375,0.0
172.82421875,-42.48046875,-52.734375,-38.57421875,-11.23046875,61.5234375,0.0
172.828125,-36.1328125,-50.29296875,-35.15625,-0.48828125,-14.6484375,0.0
172.83203125,-40.52734375,-54.6875,-36.1328125,-6.34765625,-54.19921875,0.0
172.8359375,-43.45703125,-54.19921875,-34.66796875,-16.11328125,-51.26953125,0.0
172.83984375,-45.41015625,-48.828125,-28.80859375,-5.37109375,14.6484375,0.0
172.84375,-39.55078125,-40.52734375,-25.87890625,0.0,85.9375,0.0
172.84765625,-36.1328125,-41.015625,-33.203125,-8.30078125,38.57421875,0.0
172.8515625,-49.31640625,-48.33984375,-36.62109375,-16.11328125,72.75390625,0.0
172.85546875,-42.96875,-50.29296875,-31.25,-17.578125,-21.484375,0.0
172.859375,-32.2265625,-49.8046875,-26.3671875,-19.53125,-79.1015625,0.0
172.86328125,-43.9453125,-44.921875,-26.85546875,-17.08984375,-35.15625,0.0
172.8671875,-44.921875,-43.9453125,-29.296875,-21.97265625,0.48828125,0.0
172.87109375,-40.52734375,-51.26953125,-28.80859375,-32.71484375,32.71484375,0.0
172.875,-37.109375,-50.78125,-21.97265625,-32.2265625,87.40234375,0.0
172.87890625,-35.15625,-45.8984375,-22.4609375,-34.1796875,98.6328125,0.0
172.8828125,-36.1328125,-44.43359375,-29.78515625,-43.9453125,63.4765625,0.0
172.88671875,-26.85546875,-46.875,-31.25,-38.0859375,119.140625,0.0
172.890625,-41.015625,-50.78125,-34.66796875,-33.69140625,98.14453125,0.0
172.89453125,-44.43359375,-55.17578125,-32.2265625,-35.15625,52.734375,0.0
172.8984375,-30.76171875,-52.24609375,-27.34375,-26.85546875,-22.4609375,0.0
172.90234375,-34.1796875,-47.8515625,-28.3203125,-22.94921875,-85.44921875,0.0
172.90625,-32.2265625,-46.38671875,-28.80859375,-24.90234375,-66.89453125,0.0
172.91015625,-35.64453125,-44.921875,-32.2265625,-31.73828125,-44.921875,0.0
172.9140625,-32.71484375,-44.921875,-28.3203125,-33.203125,-42.48046875,0.0
172.91796875,-33.203125,-41.9921875,-23.4375,-35.15625,-53.7109375,0.0
172.921875,-40.52734375,-40.0390625,-23.92578125,-41.50390625,-21.97265625,0.0
172.92578125,-45.8984375,-39.55078125,-25.390625,-37.59765625,-51.7578125,0.0
172.9296875,-50.29296875,-39.55078125,-27.34375,-40.0390625,3.41796875,0.0
172.93359375,-48.33984375,-43.9453125,-24.90234375,-46.38671875,125.0,0.0
172.9375,-47.8515625,-41.50390625,-16.6015625,-46.38671875,27.83203125,0.0
172.94140625,-51.26953125,-37.109375,-18.06640625,-51.26953125,-77.1484375,0.0
172.9453125,-53.22265625,-42.96875,-22.94921875,-49.8046875,-141.6015625,0.0
172.94921875,-53.7109375,-47.36328125,-26.3671875,-50.29296875,-119.62890625,0.0
172.953125,-57.12890625,-54.19921875,-28.80859375,-44.921875,-95.21484375,0.0
172.95703125,-56.640625,-54.6875,-24.4140625,-39.55078125,-197.265625,0.0
172.9609375,-53.22265625,-48.828125,-23.4375,-41.9921875,-202.1484375,0.0
172.96484375,-59.5703125,-50.29296875,-23.4375,-43.9453125,-91.30859375,0.0
172.96875,-61.03515625,-57.6171875,-28.80859375,-48.33984375,-30.76171875,0.0
172.97265625,-54.6875,-61.03515625,-33.69140625,-45.8984375,-61.5234375,0.0
172.9765625,-44.921875,-58.10546875,-26.3671875,-36.62109375,-53.22265625,0.0
172.98046875,-41.015625,-53.22265625,-20.5078125,-21.97265625,63.4765625,0.0
172.984375,-41.9921875,-56.15234375,-23.4375,-13.18359375,106.93359375,0.0
172.98828125,-53.22265625,-65.4296875,-30.2734375,-19.04296875,51.26953125,0.0
172.9921875,-60.546875,-69.3359375,-32.71484375,-21.97265625,22.94921875,0.0
172.99609375,-47.8515625,-64.94140625,-32.2265625,-24.4140625,-47.36328125,0.0
173.0,-43.45703125,-69.82421875,-38.0859375,-35.64453125,-206.54296875,0.0
173.00390625,-44.921875,-69.3359375,-33.69140625,-28.3203125,-262.6953125,0.0
173.0078125,-48.33984375,-61.5234375,-28.3203125,-20.5078125,-195.80078125,0.0
173.01171875,-43.45703125,-66.40625,-35.15625,-22.4609375,-220.703125,0.0
173.015625,-45.8984375,-64.94140625,-29.296875,-28.80859375,-137.20703125,0.0
173.01953125,-48.33984375,-54.19921875,-25.390625,-25.390625,-12.6953125,0.0
173.0234375,-34.1796875,-47.8515625,-29.296875,-19.53125,-35.15625,0.0
173.02734375,-40.52734375,-55.17578125,-33.69140625,-15.13671875,13.671875,0.0
173.03125,-57.6171875,-60.546875,-37.109375,-14.6484375,21.97265625,0.0
173.03515625,-60.05859375,-53.22265625,-24.90234375,-16.11328125,-27.83203125,0.0
173.0390625,-53.22265625,-46.875,-19.04296875,-13.18359375,71.77734375,0.0
173.04296875,-39.0625,-52.734375,-35.64453125,-23.92578125,110.83984375,0.0
173.046875,-39.0625,-66.89453125,-45.41015625,-31.25,57.6171875,0.0
173.05078125,-50.29296875,-70.80078125,-37.59765625,-27.34375,-4.39453125,0.0
173.0546875,-53.7109375,-67.3828125,-33.69140625,-18.5546875,-147.4609375,0.0
173.05859375,-45.8984375,-59.08203125,-35.15625,-18.5546875,-197.265625,0.0
173.0625,-51.26953125,-60.05859375,-36.1328125,-29.296875,-180.6640625,0.0
173.06640625,-54.6875,-65.91796875,-35.15625,-26.3671875,-166.015625,0.0
173.0703125,-58.10546875,-68.84765625,-35.64453125,-21.484375,-138.18359375,0.0
173.07421875,-54.6875,-65.91796875,-30.76171875,-15.625,-160.15625,0.0
173.078125,-46.38671875,-52.734375,-20.5078125,-7.8125,-115.234375,0.0
173.08203125,-47.36328125,-47.36328125,-20.01953125,-16.11328125,-72.265625,0.0
173.0859375,-46.875,-52.734375,-23.92578125,-22.94921875,-57.6171875,0.0
173.08984375,-41.9921875,-57.12890625,-30.76171875,-23.4375,16.11328125,0.0
173.09375,-35.64453125,-63.4765625,-30.76171875,-29.296875,79.58984375,0.0
173.09765625,-33.69140625,-62.01171875,-18.5546875,-26.3671875,102.05078125,0.0
173.1015625,-44.43359375,-61.03515625,-19.04296875,-31.73828125,103.515625,0.0
173.10546875,-51.26953125,-66.89453125,-27.83203125,-33.69140625,55.6640625,0.0
173.109375,-59.08203125,-72.265625,-32.2265625,-33.69140625,80.078125,0.0
173.11328125,-67.3828125,-68.84765625,-27.34375,-30.76171875,29.78515625,0.0
173.1171875,-62.98828125,-62.98828125,-22.94921875,-29.78515625,-12.6953125,0.0
173.12109375,-58.10546875,-58.59375,-22.94921875,-35.64453125,7.8125,0.0
173.125,-59.08203125,-54.6875,-23.92578125,-31.73828125,-81.54296875,0.0
173.12890625,-56.15234375,-55.17578125,-23.92578125,-29.296875,-37.59765625,0.0
173.1328125,-55.6640625,-58.59375,-21.484375,-35.64453125,67.3828125,0.0
173.13671875,-52.24609375,-56.15234375,-24.90234375,-36.62109375,30.2734375,0.0
173.140625,-47.36328125,-61.5234375,-30.2734375,-43.45703125,23.92578125,0.0
173.14453125,-46.875,-65.91796875,-30.2734375,-52.734375,100.09765625,0.0
173.1484375,-55.17578125,-73.73046875,-35.64453125,-51.26953125,25.87890625,0.0
173.15234375,-53.22265625,-75.1953125,-34.1796875,-35.64453125,15.13671875,0.0
173.15625,-43.45703125,-57.6171875,-22.94921875,-35.15625,73.2421875,0.0
173.16015625,-41.50390625,-52.24609375,-20.99609375,-47.36328125,-5.37109375,0.0
173.1640625,-37.109375,-52.734375,-24.90234375,-46.38671875,-42.48046875,0.0
173.16796875,-39.0625,-53.7109375,-28.80859375,-52.24609375,-12.20703125,0.0
173.171875,-44.921875,-63.4765625,-30.2734375,-51.7578125,-59.5703125,0.0
173.17578125,-34.1796875,-55.17578125,-20.5078125,-39.55078125,-74.70703125,0.0
173.1796875,-37.59765625,-49.31640625,-17.08984375,-43.45703125,-65.4296875,0.0
173.18359375,-44.43359375,-53.22265625,-26.3671875,-54.6875,-63.96484375,0.0
173.1875,-38.57421875,-55.17578125,-31.73828125,-51.26953125,-125.48828125,0.0
173.19140625,-44.43359375,-60.05859375,-30.2734375,-43.45703125,-140.13671875,0.0
173.1953125,-52.24609375,-55.6640625,-26.85546875,-51.7578125,-40.0390625,0.0
173.19921875,-55.17578125,-50.29296875,-27.34375,-57.12890625,-19.04296875,0.0
173.203125,-42.48046875,-47.36328125,-32.2265625,-46.38671875,-22.94921875,0.0
173.20703125,-37.59765625,-46.875,-36.62109375,-36.1328125,-70.80078125,0.0
173.2109375,-46.875,-52.24609375,-34.1796875,-31.25,-79.58984375,0.0
173.21484375,-44.43359375,-54.19921875,-30.2734375,-31.73828125,-65.91796875,0.0
173.21875,-48.828125,-48.828125,-28.3203125,-29.78515625,-32.71484375,0.0
173.22265625,-56.15234375,-44.43359375,-30.2734375,-27.83203125,5.859375,0.0
173.2265625,-47.8515625,-46.38671875,-36.62109375,-28.80859375,-25.390625,0.0
173.23046875,-48.828125,-49.31640625,-40.52734375,-29.296875,-104.4921875,0.0
173.234375,-53.22265625,-47.8515625,-32.71484375,-29.296875,-68.84765625,0.0
173.23828125,-35.15625,-36.62109375,-24.4140625,-32.71484375,-23.4375,0.0
173.2421875,-26.85546875,-34.66796875,-28.80859375,-34.66796875,-60.05859375,0.0
173.24609375,-39.55078125,-38.57421875,-34.66796875,-38.57421875,20.99609375,0.0
173.25,-53.7109375,-47.36328125,-41.50390625,-46.38671875,7.32421875,0.0
173.25390625,-49.31640625,-47.8515625,-31.73828125,-34.66796875,-92.7734375,0.0
173.2578125,-33.203125,-37.59765625,-24.90234375,-26.3671875,-45.8984375,0.0
173.26171875,-31.73828125,-37.109375,-34.1796875,-38.0859375,-37.109375,0.0
173.265625,-46.38671875,-42.96875,-36.62109375,-39.0625,-29.78515625,0.0
173.26953125,-50.78125,-48.33984375,-36.1328125,-39.55078125,-44.43359375,0.0
173.2734375,-53.22265625,-44.43359375,-32.71484375,-47.36328125,-68.84765625,0.0
173.27734375,-51.26953125,-35.15625,-30.2734375,-47.8515625,-87.40234375,0.0
173.28125,-44.921875,-35.64453125,-29.296875,-40.0390625,-59.08203125,0.0
173.28515625,-44.921875,-38.57421875,-30.76171875,-37.59765625,13.671875,0.0
173.2890625,-59.5703125,-38.57421875,-34.66796875,-44.921875,10.7421875,0.0
173.29296875,-58.10546875,-39.55078125,-31.25,-41.9921875,-56.15234375,0.0
173.296875,-39.0625,-29.78515625,-21.97265625,-31.73828125,-3.90625,0.0
173.30078125,-43.9453125,-24.90234375,-25.390625,-32.71484375,46.875,0.0
173.3046875,-43.9453125,-34.1796875,-31.73828125,-36.1328125,-10.25390625,0.0
173.30859375,-46.875,-40.0390625,-33.69140625,-37.59765625,-8.30078125,0.0
173.3125,-49.31640625,-37.59765625,-31.73828125,-43.45703125,69.3359375,0.0
173.31640625,-40.0390625,-37.59765625,-29.296875,-42.48046875,31.25,0.0
173.3203125,-36.62109375,-33.69140625,-25.87890625,-37.59765625,-38.57421875,0.0
173.32421875,-36.62109375,-29.296875,-26.3671875,-33.69140625,-49.31640625,0.0
173.328125,-46.38671875,-38.0859375,-36.62109375,-37.59765625,-63.96484375,0.0
173.33203125,-50.78125,-41.9921875,-41.50390625,-39.55078125,-25.390625,0.0
173.3359375,-46.875,-33.69140625,-36.1328125,-31.25,-8.7890625,0.0
173.33984375,-48.33984375,-27.83203125,-32.71484375,-27.83203125,-14.16015625,0.0
173.34375,-43.9453125,-28.80859375,-34.66796875,-34.66796875,-21.97265625,0.0
173.34765625,-39.0625,-30.76171875,-40.52734375,-41.015625,-34.66796875,0.0
173.3515625,-54.6875,-36.62109375,-40.0390625,-35.64453125,-56.640625,0.0
173.35546875,-57.6171875,-31.73828125,-29.296875,-29.296875,-15.625,0.0
173.359375,-55.6640625,-25.390625,-28.3203125,-36.62109375,19.53125,0.0
173.36328125,-57.6171875,-24.4140625,-32.2265625,-37.59765625,25.390625,0.0
173.3671875,-49.8046875,-23.92578125,-37.59765625,-31.73828125,-24.4140625,0.0
173.37109375,-64.453125,-31.73828125,-43.45703125,-34.66796875,-96.6796875,0.0
173.375,-65.91796875,-45.41015625,-42.48046875,-39.0625,-22.94921875,0.0
173.37890625,-50.29296875,-38.0859375,-34.66796875,-35.15625,95.21484375,0.0
173.3828125,-50.78125,-29.78515625,-27.83203125,-26.85546875,83.984375,0.0
173.38671875,-57.12890625,-38.57421875,-33.69140625,-25.390625,31.25,0.0
173.390625,-45.8984375,-46.875,-38.0859375,-24.4140625,-73.2421875,0.0
173.39453125,-47.36328125,-44.921875,-28.80859375,-18.5546875,-108.3984375,0.0
173.3984375,-46.38671875,-33.203125,-24.90234375,-13.671875,-64.453125,0.0
173.40234375,-37.59765625,-34.66796875,-26.85546875,-17.08984375,-29.296875,0.0
173.40625,-44.43359375,-33.203125,-28.3203125,-19.04296875,6.8359375,0.0
173.41015625,-41.50390625,-30.2734375,-26.85546875,-9.765625,-11.23046875,0.0
173.4140625,-34.66796875,-31.25,-15.13671875,-3.41796875,-28.80859375,0.0
173.41796875,-38.0859375,-36.1328125,-25.87890625,-29.296875,7.8125,0.0
173.421875,-43.9453125,-49.8046875,-47.36328125,-53.7109375,-58.59375,0.0
173.42578125,-53.7109375,-53.22265625,-45.41015625,-49.8046875,-57.12890625,0.0
173.4296875,-63.96484375,-51.7578125,-45.41015625,-46.875,-18.06640625,0.0
173.43359375,-59.5703125,-50.78125,-43.9453125,-55.17578125,-12.20703125,0.0
173.4375,-65.4296875,-56.15234375,-22.4609375,-59.08203125,41.50390625,0.0
173.44140625,-89.84375,-54.6875,-13.671875,-68.84765625,51.7578125,0.0
173.4453125,-113.28125,-59.5703125,-23.4375,-94.7265625,0.0,0.0
173.44921875,-131.34765625,-76.171875,-21.484375,-104.4921875,-21.97265625,0.0
173.453125,-145.01953125,-86.9140625,-12.6953125,-115.234375,62.5,0.0
173.45703125,-154.78515625,-79.1015625,-2.9296875,-138.671875,60.05859375,0.0
173.4609375,-176.26953125,-69.3359375,0.0,-145.5078125,-56.640625,0.0
173.46484375,-194.82421875,-88.8671875,-11.71875,-168.45703125,-29.296875,0.0
173.46875,-188.4765625,-101.07421875,-21.97265625,-178.7109375,-47.36328125,0.0
173.47265625,-173.33984375,-90.33203125,-16.6015625,-154.296875,-176.7578125,0.0
173.4765625,-179.6875,-86.9140625,-7.32421875,-153.80859375,-129.39453125,0.0
173.48046875,-177.734375,-84.47265625,-15.13671875,-165.0390625,-41.015625,0.0
173.484375,-164.0625,-79.1015625,-20.01953125,-153.80859375,-34.1796875,0.0
173.48828125,-158.69140625,-78.125,-18.5546875,-133.30078125,-48.828125,0.0
173.4921875,-151.85546875,-78.61328125,-19.04296875,-119.62890625,-57.12890625,0.0
173.49609375,-135.7421875,-73.2421875,-15.13671875,-108.3984375,-105.95703125,0.0
173.5,-116.69921875,-62.5,-10.25390625,-88.37890625,-104.98046875,0.0
173.50390625,-100.5859375,-63.96484375,-7.8125,-70.3125,-20.99609375,0.0
173.5078125,-76.171875,-68.359375,-22.4609375,-60.546875,24.90234375,0.0
173.51171875,-59.5703125,-73.2421875,-37.109375,-47.8515625,-24.90234375,0.0
173.515625,-30.2734375,-64.94140625,-18.5546875,-20.01953125,-62.5,0.0
173.51953125,-8.7890625,-46.38671875,-3.90625,5.37109375,-49.31640625,0.0
173.5234375,-4.39453125,-37.109375,-13.671875,2.44140625,-27.34375,0.0
173.52734375,0.48828125,-37.59765625,-22.94921875,0.48828125,0.0,0.0
173.53125,0.48828125,-45.41015625,-20.99609375,9.765625,49.8046875,0.0
173.53515625,16.11328125,-45.8984375,-14.6484375,17.578125,48.33984375,0.0
173.5390625,16.11328125,-39.0625,-15.13671875,27.83203125,-40.0390625,0.0
173.54296875,-0.48828125,-35.64453125,-15.625,16.11328125,-33.69140625,0.0
173.546875,11.23046875,-41.015625,-21.97265625,8.30078125,-19.53125,0.0
173.55078125,16.6015625,-45.41015625,-29.78515625,9.765625,-71.77734375,0.0
173.5546875,20.01953125,-43.45703125,-21.97265625,13.671875,-44.43359375,0.0
173.55859375,11.71875,-38.0859375,-22.94921875,17.08984375,10.25390625,0.0
173.5625,7.8125,-40.0390625,-26.3671875,32.71484375,21.484375,0.0
173.56640625,3.41796875,-48.828125,-32.2265625,45.8984375,-36.62109375,0.0
173.5703125,-2.9296875,-56.640625,-41.50390625,36.62109375,-98.14453125,0.0
173.57421875,8.30078125,-49.8046875,-33.203125,47.8515625,-58.59375,0.0
173.578125,13.671875,-38.0859375,-25.390625,68.84765625,-31.25,0.0
173.58203125,14.16015625,-35.15625,-25.87890625,80.56640625,-41.9921875,0.0
173.5859375,12.6953125,-36.62109375,-31.25,96.19140625,-18.06640625,0.0
173.58984375,21.484375,-45.41015625,-39.0625,120.1171875,-68.84765625,0.0
173.59375,32.71484375,-42.96875,-32.2265625,126.953125,-92.7734375,0.0
173.59765625,32.71484375,-33.69140625,-21.97265625,123.046875,-33.203125,0.0
173.6015625,21.97265625,-45.41015625,-26.3671875,124.0234375,-34.66796875,0.0
173.60546875,18.06640625,-55.17578125,-33.203125,115.234375,-52.24609375,0.0
173.609375,12.20703125,-58.10546875,-36.62109375,116.2109375,-105.95703125,0.0
173.61328125,0.48828125,-60.05859375,-34.1796875,117.67578125,-153.3203125,0.0
173.6171875,4.8828125,-52.24609375,-26.85546875,108.88671875,-147.4609375,0.0
173.62109375,13.18359375,-43.9453125,-28.80859375,105.46875,-166.50390625,0.0
173.625,13.18359375,-46.38671875,-29.296875,105.46875,-165.0390625,0.0
173.62890625,8.30078125,-52.734375,-31.73828125,99.609375,-170.41015625,0.0
173.6328125,-1.46484375,-51.7578125,-28.3203125,100.5859375,-211.42578125,0.0
173.63671875,-24.90234375,-39.0625,-23.4375,97.16796875,-177.24609375,0.0
173.640625,-28.80859375,-38.57421875,-32.71484375,83.984375,-123.53515625,0.0
173.64453125,-21.484375,-43.45703125,-33.69140625,78.61328125,-62.5,0.0
173.6484375,-28.80859375,-45.8984375,-35.15625,64.453125,4.8828125,0.0
173.65234375,-38.57421875,-41.9921875,-34.1796875,57.6171875,50.29296875,0.0
173.65625,-30.76171875,-37.59765625,-24.90234375,59.08203125,15.13671875,0.0
173.66015625,-27.83203125,-43.45703125,-27.83203125,59.5703125,-57.12890625,0.0
173.6640625,-30.76171875,-46.38671875,-32.2265625,53.22265625,-28.80859375,0.0
173.66796875,-33.203125,-45.41015625,-31.25,42.96875,28.80859375,0.0
173.671875,-37.109375,-48.33984375,-32.2265625,37.109375,-27.34375,0.0
173.67578125,-25.390625,-42.96875,-27.34375,40.0390625,-37.109375,0.0
173.6796875,-14.6484375,-35.64453125,-22.94921875,38.0859375,-10.25390625,0.0
173.68359375,-33.69140625,-38.0859375,-28.3203125,40.52734375,-20.01953125,0.0
173.6875,-43.9453125,-38.57421875,-33.69140625,50.29296875,0.0,0.0
173.69140625,-27.83203125,-39.0625,-35.64453125,37.109375,31.25,0.0
173.6953125,-26.3671875,-39.0625,-26.85546875,34.66796875,-3.90625,0.0
173.69921875,-33.69140625,-34.1796875,-18.5546875,41.015625,-9.765625,0.0
173.703125,-26.85546875,-38.57421875,-27.83203125,26.85546875,45.41015625,0.0
173.70703125,-31.25,-48.33984375,-39.55078125,21.484375,16.6015625,0.0
173.7109375,-32.2265625,-41.015625,-33.203125,25.87890625,-49.31640625,0.0
173.71484375,-20.5078125,-29.78515625,-23.4375,29.78515625,-44.43359375,0.0
173.71875,-20.5078125,-30.76171875,-28.80859375,18.5546875,-8.30078125,0.0
173.72265625,-25.390625,-31.25,-29.296875,9.765625,32.2265625,0.0
173.7265625,-31.73828125,-34.66796875,-32.71484375,9.765625,26.3671875,0.0
173.73046875,-37.59765625,-45.41015625,-38.57421875,8.30078125,-10.25390625,0.0
173.734375,-32.2265625,-42.96875,-28.80859375,3.90625,-11.23046875,0.0
173.73828125,-35.15625,-35.64453125,-27.34375,-1.46484375,-66.89453125,0.0
173.7421875,-35.64453125,-27.34375,-25.390625,0.48828125,-90.8203125,0.0
173.74609375,-29.78515625,-29.78515625,-20.01953125,0.0,-78.125,0.0
173.75,-41.015625,-52.24609375,-38.57421875,-22.4609375,-42.48046875,0.0
173.75390625,-42.48046875,-49.8046875,-43.9453125,-24.90234375,36.1328125,0.0
173.7578125,-43.9453125,-33.203125,-31.25,-11.23046875,-2.9296875,0.0
173.76171875,-48.33984375,-31.73828125,-25.87890625,-3.90625,-69.82421875,0.0
173.765625,-42.96875,-34.66796875,-30.76171875,-6.8359375,-64.453125,0.0
173.76953125,-39.55078125,-34.1796875,-33.203125,-7.32421875,-35.64453125,0.0
173.7734375,-36.62109375,-31.73828125,-27.34375,-8.7890625,-19.53125,0.0
173.77734375,-43.9453125,-32.2265625,-24.90234375,-15.13671875,-37.59765625,0.0
173.78125,-40.0390625,-29.296875,-23.92578125,-17.08984375,-52.24609375,0.0
173.78515625,-38.57421875,-32.2265625,-25.87890625,-22.94921875,-15.625,0.0
173.7890625,-40.52734375,-35.64453125,-34.1796875,-31.25,-15.625,0.0
173.79296875,-48.33984375,-38.0859375,-41.9921875,-38.57421875,-62.01171875,0.0
173.796875,-46.38671875,-40.52734375,-38.57421875,-35.15625,-38.57421875,0.0
173.80078125,-25.87890625,-28.80859375,-34.1796875,-28.80859375,12.6953125,0.0
173.8046875,-31.73828125,-28.80859375,-34.66796875,-27.34375,-11.71875,0.0
173.80859375,-40.0390625,-41.9921875,-40.0390625,-26.3671875,-77.1484375,0.0
173.8125,-43.9453125,-42.96875,-37.109375,-37.59765625,7.8125,0.0
173.81640625,-41.015625,-30.2734375,-26.3671875,-37.109375,85.44921875,0.0
173.8203125,-42.96875,-22.94921875,-31.73828125,-30.76171875,41.015625,0.0
173.82421875,-52.734375,-34.66796875,-37.109375,-37.59765625,36.62109375,0.0
173.828125,-55.6640625,-39.55078125,-39.0625,-36.1328125,35.15625,0.0
173.83203125,-48.828125,-34.1796875,-40.52734375,-33.69140625,-14.6484375,0.0
173.8359375,-42.96875,-27.83203125,-35.15625,-37.59765625,-74.21875,0.0
173.83984375,-43.45703125,-31.25,-43.45703125,-42.48046875,-47.36328125,0.0
173.84375,-43.45703125,-33.69140625,-45.41015625,-36.62109375,13.18359375,0.0
173.84765625,-48.33984375,-26.3671875,-38.0859375,-31.25,38.57421875,0.0
173.8515625,-57.12890625,-35.15625,-39.0625,-44.921875,18.5546875,0.0
173.85546875,-58.10546875,-38.57421875,-31.73828125,-45.41015625,5.37109375,0.0
173.859375,-46.875,-27.34375,-26.85546875,-38.0859375,14.16015625,0.0
173.86328125,-44.43359375,-27.34375,-30.2734375,-31.73828125,-44.43359375,0.0
173.8671875,-55.17578125,-35.64453125,-38.0859375,-33.69140625,-45.41015625,0.0
173.87109375,-54.19921875,-40.52734375,-48.33984375,-38.0859375,27.83203125,0.0
173.875,-48.828125,-32.71484375,-43.9453125,-25.390625,-0.9765625,0.0
173.87890625,-45.41015625,-20.5078125,-37.109375,-26.85546875,-23.92578125,0.0
173.8828125,-38.0859375,-20.99609375,-48.828125,-40.52734375,30.76171875,0.0
173.88671875,-43.9453125,-31.73828125,-63.96484375,-43.9453125,-26.85546875,0.0
173.890625,-49.31640625,-34.1796875,-56.15234375,-28.80859375,-80.56640625,0.0
173.89453125,-60.546875,-27.34375,-38.0859375,-26.3671875,5.37109375,0.0
173.8984375,-59.08203125,-15.625,-33.69140625,-30.2734375,16.6015625,0.0
173.90234375,-50.29296875,-16.11328125,-41.015625,-32.2265625,-40.52734375,0.0
173.90625,-57.12890625,-20.99609375,-44.921875,-35.15625,5.859375,0.0
173.91015625,-56.640625,-20.5078125,-41.015625,-31.25,-40.0390625,0.0
173.9140625,-48.828125,-17.08984375,-35.15625,-28.80859375,-67.87109375,0.0
173.91796875,-56.640625,-14.16015625,-41.50390625,-27.34375,-82.03125,0.0
173.921875,-64.453125,-20.01953125,-42.48046875,-30.2734375,-173.33984375,0.0
173.92578125,-60.05859375,-17.578125,-38.57421875,-30.2734375,-191.40625,0.0
173.9296875,-60.546875,-14.16015625,-41.9921875,-26.85546875,-163.0859375,0.0
173.93359375,-56.15234375,-17.578125,-40.0390625,-24.4140625,-72.265625,0.0
173.9375,-39.0625,-15.13671875,-32.2265625,-26.85546875,18.06640625,0.0
173.94140625,-48.33984375,-16.11328125,-32.71484375,-29.296875,-20.01953125,0.0
173.9453125,-64.94140625,-20.01953125,-38.0859375,-26.3671875,-18.5546875,0.0
173.94921875,-53.22265625,-16.6015625,-39.0625,-25.87890625,-2.44140625,0.0
173.953125,-51.26953125,-17.08984375,-34.1796875,-26.3671875,-1.953125,0.0
173.95703125,-41.9921875,-16.11328125,-26.85546875,-23.4375,-20.5078125,0.0
173.9609375,-41.015625,-14.6484375,-32.71484375,-22.94921875,2.9296875,0.0
173.96484375,-52.24609375,-21.484375,-36.1328125,-21.97265625,4.39453125,0.0
173.96875,-49.31640625,-24.4140625,-34.1796875,-19.04296875,-27.34375,0.0
173.97265625,-48.33984375,-25.87890625,-34.1796875,-21.97265625,-41.9921875,0.0
173.9765625,-43.9453125,-24.90234375,-26.3671875,-29.78515625,-56.640625,0.0
173.98046875,-39.55078125,-16.11328125,-26.85546875,-26.3671875,-15.625,0.0
173.984375,-37.59765625,-20.5078125,-29.78515625,-27.83203125,73.2421875,0.0
173.98828125,-38.0859375,-33.69140625,-40.0390625,-39.0625,104.00390625,0.0
173.9921875,-51.26953125,-41.50390625,-48.828125,-33.69140625,-1.46484375,0.0
173.99609375,-59.08203125,-35.64453125,-36.1328125,-34.1796875,50.29296875,0.0
174.0,-45.41015625,-29.296875,-31.73828125,-35.15625,78.61328125,0.0
174.00390625,-32.71484375,-27.34375,-36.1328125,-41.50390625,-12.20703125,0.0
174.0078125,-40.0390625,-34.66796875,-41.9921875,-55.17578125,-42.96875,0.0
174.01171875,-46.38671875,-40.0390625,-39.55078125,-46.875,-62.98828125,0.0
174.015625,-41.50390625,-39.0625,-32.2265625,-39.0625,-11.23046875,0.0
174.01953125,-37.59765625,-30.2734375,-27.34375,-33.69140625,7.32421875,0.0
174.0234375,-35.64453125,-22.94921875,-29.296875,-36.62109375,-20.99609375,0.0
174.02734375,-36.1328125,-28.3203125,-41.015625,-34.66796875,12.20703125,0.0
174.03125,-27.34375,-34.66796875,-45.8984375,-18.06640625,107.421875,0.0
174.03515625,-36.1328125,-46.38671875,-41.50390625,-23.4375,96.6796875,0.0
174.0390625,-57.12890625,-48.828125,-33.203125,-43.9453125,30.2734375,0.0
174.04296875,-70.80078125,-48.33984375,-29.78515625,-47.36328125,-11.71875,0.0
174.046875,-71.2890625,-57.6171875,-32.2265625,-37.109375,-84.47265625,0.0
174.05078125,-66.89453125,-62.5,-31.73828125,-37.109375,-84.9609375,0.0
174.0546875,-65.4296875,-55.17578125,-35.15625,-40.0390625,2.9296875,0.0
174.05859375,-63.4765625,-43.9453125,-31.73828125,-43.9453125,69.3359375,0.0
174.0625,-66.40625,-41.015625,-29.296875,-52.24609375,5.859375,0.0
174.06640625,-54.19921875,-41.015625,-35.15625,-55.17578125,2.44140625,0.0
174.0703125,-57.6171875,-41.9921875,-36.62109375,-58.10546875,-50.29296875,0.0
174.07421875,-65.91796875,-41.015625,-32.2265625,-50.78125,-72.75390625,0.0
174.078125,-58.59375,-41.015625,-33.69140625,-39.55078125,-67.3828125,0.0
174.08203125,-45.41015625,-42.48046875,-39.55078125,-36.62109375,-74.21875,0.0
174.0859375,-44.921875,-47.8515625,-39.0625,-31.73828125,-67.87109375,0.0
174.08984375,-53.22265625,-55.17578125,-33.69140625,-26.3671875,-53.7109375,0.0
174.09375,-49.8046875,-55.6640625,-31.25,-33.69140625,-79.1015625,0.0
174.09765625,-49.8046875,-50.78125,-32.2265625,-35.64453125,-91.30859375,0.0
174.1015625,-43.45703125,-48.828125,-28.3203125,-39.0625,-76.66015625,0.0
174.10546875,-40.52734375,-50.29296875,-27.34375,-52.24609375,-78.125,0.0
174.109375,-43.9453125,-54.6875,-33.69140625,-47.8515625,-109.86328125,0.0
174.11328125,-27.83203125,-51.26953125,-26.3671875,-43.9453125,-135.25390625,0.0
174.1171875,-16.11328125,-35.64453125,-19.04296875,-42.96875,22.4609375,0.0
174.12109375,-26.3671875,-35.64453125,-27.83203125,-47.8515625,100.09765625,0.0
174.125,-30.76171875,-56.640625,-37.59765625,-62.01171875,42.96875,0.0
174.12890625,-20.99609375,-61.5234375,-37.109375,-54.6875,-39.0625,0.0
174.1328125,-18.5546875,-55.6640625,-36.1328125,-48.33984375,-82.51953125,0.0
174.13671875,-32.71484375,-48.828125,-31.25,-48.33984375,10.25390625,0.0
174.140625,-44.921875,-48.828125,-30.2734375,-50.78125,21.97265625,0.0
174.14453125,-35.64453125,-47.8515625,-26.85546875,-44.921875,18.06640625,0.0
174.1484375,-33.203125,-48.33984375,-28.80859375,-31.25,56.15234375,0.0
174.15234375,-46.875,-54.19921875,-30.2734375,-15.13671875,-74.70703125,0.0
174.15625,-50.78125,-49.31640625,-22.4609375,-16.6015625,15.625,0.0
174.16015625,-47.8515625,-50.29296875,-28.3203125,-40.0390625,51.7578125,0.0
174.1640625,-43.9453125,-49.8046875,-34.1796875,-44.43359375,-78.61328125,0.0
174.16796875,-52.24609375,-52.24609375,-33.69140625,-37.59765625,-35.15625,0.0
174.171875,-65.4296875,-68.359375,-41.9921875,-46.38671875,-28.3203125,0.0
174.17578125,-57.6171875,-60.05859375,-33.203125,-46.875,30.76171875,0.0
174.1796875,-49.31640625,-48.33984375,-27.83203125,-38.57421875,15.625,0.0
174.18359375,-55.6640625,-53.7109375,-36.62109375,-35.15625,-43.9453125,0.0
174.1875,-53.22265625,-58.10546875,-36.62109375,-41.9921875,-24.4140625,0.0
174.19140625,-57.6171875,-53.7109375,-31.73828125,-50.29296875,2.9296875,0.0
174.1953125,-53.22265625,-49.8046875,-21.97265625,-48.828125,-16.6015625,0.0
174.19921875,-48.828125,-45.8984375,-20.99609375,-46.38671875,-20.01953125,0.0
174.203125,-49.31640625,-41.50390625,-23.4375,-42.96875,65.4296875,0.0
174.20703125,-46.38671875,-47.8515625,-23.92578125,-40.0390625,164.0625,0.0
174.2109375,-44.43359375,-54.19921875,-29.296875,-42.96875,159.66796875,0.0
174.21484375,-46.38671875,-60.05859375,-32.2265625,-50.29296875,80.56640625,0.0
174.21875,-41.50390625,-58.10546875,-27.34375,-41.015625,47.36328125,0.0
174.22265625,-31.73828125,-45.8984375,-21.97265625,-29.296875,30.76171875,0.0
174.2265625,-42.48046875,-47.8515625,-26.85546875,-34.66796875,-15.625,0.0
174.23046875,-54.19921875,-55.6640625,-32.2265625,-38.57421875,-4.39453125,0.0
174.234375,-50.78125,-57.12890625,-27.34375,-39.0625,-3.41796875,0.0
174.23828125,-43.9453125,-46.38671875,-21.97265625,-33.203125,-121.58203125,0.0
174.2421875,-52.24609375,-46.38671875,-26.3671875,-34.66796875,-194.82421875,0.0
174.24609375,-60.05859375,-49.31640625,-29.78515625,-35.15625,-180.6640625,0.0
174.25,-56.640625,-46.875,-31.73828125,-27.34375,-114.2578125,0.0
174.25390625,-42.96875,-43.9453125,-25.390625,-25.87890625,-111.328125,0.0
174.2578125,-41.015625,-44.43359375,-23.4375,-35.64453125,-174.31640625,0.0
174.26171875,-54.19921875,-49.8046875,-37.59765625,-49.8046875,-95.703125,0.0
