timestamp,TP9,AF7,AF8,TP10,AUX,Marker,
112.00390625,-6.8359375,-26.3671875,-41.50390625,-19.53125,-24.4140625,0.0
112.0078125,-23.92578125,-31.25,-50.29296875,-21.97265625,-65.91796875,0.0
112.01171875,-31.25,-28.80859375,-45.8984375,-36.1328125,-55.6640625,0.0
112.015625,-23.92578125,-13.671875,-35.64453125,-35.15625,-113.28125,0.0
112.01953125,-12.6953125,-31.25,-20.5078125,-8.30078125,-272.94921875,0.0
112.0234375,-19.04296875,-51.7578125,-20.01953125,-19.04296875,-253.41796875,0.0
112.02734375,-19.53125,-46.38671875,-28.80859375,-25.87890625,-181.640625,0.0
112.03125,-13.671875,-38.57421875,-30.76171875,-10.7421875,-122.55859375,0.0
112.03515625,-23.92578125,-29.78515625,-15.13671875,-12.20703125,-164.55078125,0.0
112.0390625,-20.99609375,-23.4375,-7.32421875,-12.20703125,-134.27734375,0.0
112.04296875,-38.0859375,-28.80859375,-22.94921875,-6.8359375,-62.5,0.0
112.046875,-38.0859375,-33.69140625,-31.73828125,-18.5546875,-98.6328125,0.0
112.05078125,-24.90234375,-38.57421875,-37.59765625,-28.3203125,41.015625,0.0
112.0546875,-42.96875,-42.96875,-40.0390625,-29.296875,49.31640625,0.0
112.05859375,-34.66796875,-41.015625,-34.1796875,-25.87890625,-94.7265625,0.0
112.0625,-27.83203125,-40.0390625,-42.48046875,-24.90234375,-112.3046875,0.0
112.06640625,-41.015625,-42.48046875,-44.921875,-29.296875,-62.01171875,0.0
112.0703125,-30.76171875,-41.015625,-29.78515625,-27.34375,-41.015625,0.0
112.07421875,-40.0390625,-41.015625,-40.52734375,-35.15625,-31.73828125,0.0
112.078125,-58.10546875,-44.921875,-51.7578125,-22.4609375,-21.97265625,0.0
112.08203125,-43.9453125,-45.8984375,-41.9921875,-27.83203125,39.55078125,0.0
112.0859375,-33.203125,-44.43359375,-37.59765625,-50.78125,89.84375,0.0
112.08984375,-45.8984375,-42.96875,-45.8984375,-52.734375,121.58203125,0.0
112.09375,-61.5234375,-48.33984375,-47.8515625,-47.8515625,110.3515625,0.0
112.09765625,-42.48046875,-42.48046875,-40.52734375,-37.109375,62.98828125,0.0
112.1015625,-22.94921875,-30.76171875,-38.57421875,-27.83203125,16.11328125,0.0
112.10546875,-35.64453125,-35.64453125,-44.921875,-29.78515625,20.01953125,0.0
112.109375,-22.94921875,-41.50390625,-40.0390625,-13.671875,-1.46484375,0.0
112.11328125,-30.76171875,-35.15625,-41.9921875,-36.1328125,-88.8671875,0.0
112.1171875,-37.109375,-33.69140625,-49.31640625,-58.10546875,-28.80859375,0.0
112.12109375,-22.94921875,-42.48046875,-46.38671875,-44.43359375,41.015625,0.0
112.125,-26.3671875,-46.875,-47.36328125,-62.01171875,57.6171875,0.0
112.12890625,-14.16015625,-45.41015625,-47.36328125,-52.24609375,32.71484375,0.0
112.1328125,0.48828125,-46.38671875,-40.0390625,-38.0859375,-42.48046875,0.0
112.13671875,-10.7421875,-36.62109375,-33.203125,-39.55078125,-14.16015625,0.0
112.140625,-22.94921875,-30.76171875,-32.2265625,-11.71875,54.6875,0.0
112.14453125,-17.578125,-37.59765625,-45.41015625,0.0,-19.53125,0.0
112.1484375,-34.66796875,-40.0390625,-50.29296875,-38.0859375,-103.515625,0.0
112.15234375,-41.50390625,-42.96875,-54.19921875,-63.96484375,-107.421875,0.0
112.15625,-9.27734375,-39.0625,-54.19921875,-59.5703125,-31.25,0.0
112.16015625,0.48828125,-41.015625,-48.828125,-51.7578125,-18.5546875,0.0
112.1640625,2.9296875,-44.921875,-41.50390625,-26.85546875,-61.03515625,0.0
112.16796875,2.9296875,-42.48046875,-39.55078125,-6.8359375,-31.25,0.0
112.171875,0.0,-39.0625,-34.66796875,-14.6484375,8.7890625,0.0
112.17578125,-4.39453125,-39.55078125,-33.69140625,-29.296875,-36.1328125,0.0
112.1796875,-13.18359375,-38.0859375,-36.62109375,-48.828125,-18.06640625,0.0
112.18359375,-16.11328125,-31.25,-34.66796875,-43.9453125,56.640625,0.0
112.1875,-22.94921875,-31.25,-36.62109375,-37.109375,21.97265625,0.0
112.19140625,-26.3671875,-36.62109375,-37.109375,-39.0625,74.21875,0.0
112.1953125,-42.48046875,-39.55078125,-43.9453125,-41.015625,101.5625,0.0
112.19921875,-29.78515625,-36.1328125,-46.38671875,-53.22265625,33.203125,0.0
112.203125,-9.27734375,-36.62109375,-34.66796875,-58.59375,33.69140625,0.0
112.20703125,-19.04296875,-48.33984375,-33.203125,-42.96875,-44.921875,0.0
112.2109375,-13.671875,-40.0390625,-24.90234375,-18.06640625,-79.58984375,0.0
112.21484375,-8.30078125,-30.76171875,-20.01953125,-42.96875,-68.84765625,0.0
112.21875,-14.16015625,-42.96875,-31.25,-69.3359375,-83.49609375,0.0
112.22265625,-8.30078125,-42.96875,-26.3671875,-59.08203125,-41.9921875,0.0
112.2265625,-16.11328125,-41.50390625,-20.99609375,-53.7109375,-94.23828125,0.0
112.23046875,-26.85546875,-41.015625,-27.83203125,-52.734375,-117.67578125,0.0
112.234375,-28.3203125,-32.2265625,-36.1328125,-56.15234375,-121.09375,0.0
112.23828125,-45.41015625,-37.109375,-27.83203125,-52.24609375,-157.2265625,0.0
112.2421875,-33.69140625,-39.0625,-18.06640625,-41.50390625,-139.6484375,0.0
112.24609375,-24.4140625,-41.50390625,-17.578125,-40.52734375,-93.75,0.0
112.25,-31.25,-40.0390625,-10.7421875,-37.59765625,-95.21484375,0.0
112.25390625,-28.3203125,-27.83203125,-5.37109375,-43.45703125,-114.74609375,0.0
112.2578125,-39.55078125,-28.3203125,-8.30078125,-55.17578125,-59.5703125,0.0
112.26171875,-41.015625,-38.0859375,-6.8359375,-42.96875,-32.71484375,0.0
112.265625,-20.99609375,-43.9453125,-2.9296875,-34.66796875,-102.5390625,0.0
112.26953125,-21.484375,-38.0859375,-2.9296875,-42.96875,-34.1796875,0.0
112.2734375,-36.1328125,-30.76171875,-1.953125,-42.48046875,37.109375,0.0
112.27734375,-23.4375,-32.2265625,7.8125,-34.1796875,23.4375,0.0
112.28125,-16.6015625,-40.0390625,14.16015625,-18.06640625,18.5546875,0.0
112.28515625,-23.4375,-35.15625,9.27734375,-6.8359375,28.80859375,0.0
112.2890625,-23.92578125,-33.203125,-1.46484375,-25.87890625,68.359375,0.0
112.29296875,-13.18359375,-34.1796875,0.0,-27.83203125,-57.6171875,0.0
112.296875,10.7421875,-37.59765625,7.32421875,-29.296875,-174.8046875,0.0
112.30078125,6.34765625,-44.921875,-0.48828125,-44.921875,-141.11328125,0.0
112.3046875,6.34765625,-29.78515625,-1.953125,-39.55078125,-147.94921875,0.0
112.30859375,13.18359375,-17.578125,3.41796875,-34.1796875,-155.76171875,0.0
112.3125,-6.8359375,-19.53125,-1.46484375,-35.64453125,-62.01171875,0.0
112.31640625,-19.04296875,-23.4375,-3.41796875,-28.80859375,-74.21875,0.0
112.3203125,-2.9296875,-27.83203125,12.20703125,-14.16015625,-184.08203125,0.0
112.32421875,-3.90625,-37.109375,14.16015625,-28.80859375,-226.07421875,0.0
112.328125,-18.06640625,-41.015625,9.27734375,-34.1796875,-149.4140625,0.0
112.33203125,-5.859375,-33.203125,13.18359375,-20.01953125,-23.4375,0.0
112.3359375,3.41796875,-20.01953125,11.23046875,-17.08984375,66.89453125,0.0
112.33984375,-12.6953125,-18.06640625,-4.8828125,-24.4140625,95.21484375,0.0
112.34375,-18.06640625,-38.57421875,-12.6953125,-20.5078125,73.73046875,0.0
112.34765625,-1.46484375,-54.19921875,-1.953125,-22.4609375,95.703125,0.0
112.3515625,2.9296875,-33.203125,-3.90625,-34.1796875,100.09765625,0.0
112.35546875,-26.85546875,-19.53125,-20.99609375,-26.3671875,24.4140625,0.0
112.359375,-13.18359375,-26.3671875,-14.16015625,-2.9296875,-13.671875,0.0
112.36328125,3.41796875,-35.15625,-6.34765625,-7.32421875,5.859375,0.0
112.3671875,-8.7890625,-46.875,-5.37109375,-41.50390625,-32.71484375,0.0
112.37109375,-14.6484375,-34.1796875,-15.625,-53.22265625,-36.1328125,0.0
112.375,-11.23046875,-36.1328125,-26.85546875,-42.96875,10.25390625,0.0
112.37890625,-10.7421875,-37.59765625,-20.5078125,-27.83203125,-37.109375,0.0
112.3828125,-17.08984375,-26.85546875,-8.7890625,-2.9296875,-4.8828125,0.0
112.38671875,-19.53125,-39.55078125,-2.9296875,-8.7890625,-40.52734375,0.0
112.390625,-10.7421875,-55.17578125,-7.8125,-40.0390625,-161.62109375,0.0
112.39453125,-24.4140625,-44.921875,-21.484375,-48.33984375,17.578125,0.0
112.3984375,-34.66796875,-31.73828125,-27.34375,-26.85546875,65.91796875,0.0
112.40234375,-19.04296875,-41.015625,-23.92578125,-28.3203125,-68.359375,0.0
112.40625,-26.3671875,-43.45703125,-17.08984375,-40.0390625,-6.8359375,0.0
112.41015625,-18.06640625,-40.0390625,-14.6484375,-51.7578125,75.68359375,0.0
112.4140625,-6.8359375,-32.71484375,-16.6015625,-53.22265625,53.7109375,0.0
112.41796875,-4.8828125,-24.90234375,-4.39453125,-41.9921875,80.56640625,0.0
112.421875,-12.20703125,-39.0625,4.8828125,-22.94921875,91.30859375,0.0
112.42578125,-17.578125,-46.38671875,-4.39453125,-16.6015625,-4.39453125,0.0
112.4296875,-23.4375,-28.3203125,-8.30078125,-32.71484375,-46.38671875,0.0
112.43359375,-22.94921875,-22.4609375,-18.06640625,-39.0625,-27.83203125,0.0
112.4375,-14.16015625,-32.2265625,-23.4375,-29.78515625,-15.13671875,0.0
112.44140625,-18.06640625,-35.64453125,-24.90234375,-24.90234375,-4.39453125,0.0
112.4453125,-30.2734375,-37.59765625,-27.34375,-24.4140625,-79.1015625,0.0
112.44921875,-46.38671875,-41.015625,-28.3203125,-29.296875,-125.48828125,0.0
112.453125,-34.66796875,-38.0859375,-25.87890625,-43.9453125,-119.140625,0.0
112.45703125,-2.9296875,-29.78515625,-11.71875,-24.90234375,-139.16015625,0.0
112.4609375,-2.44140625,-16.6015625,-10.25390625,-14.6484375,-113.28125,0.0
112.46484375,-16.11328125,-25.87890625,-20.01953125,-35.15625,-59.08203125,0.0
112.46875,-7.8125,-40.0390625,-27.34375,-34.1796875,-62.5,0.0
112.47265625,0.9765625,-25.390625,-34.1796875,-43.45703125,-55.17578125,0.0
112.4765625,0.48828125,-9.765625,-22.4609375,-44.921875,-15.625,0.0
112.48046875,-14.16015625,-21.484375,-20.99609375,-25.87890625,-49.31640625,0.0
112.484375,-21.97265625,-41.015625,-31.73828125,-27.34375,-75.1953125,0.0
112.48828125,-21.484375,-29.78515625,-30.76171875,-35.15625,-48.33984375,0.0
112.4921875,-39.0625,-20.99609375,-36.1328125,-51.26953125,-4.8828125,0.0
112.49609375,-39.0625,-20.99609375,-41.50390625,-48.33984375,-1.46484375,0.0
112.5,-17.578125,-17.578125,-41.50390625,-35.15625,-14.16015625,0.0
112.50390625,-11.71875,-24.4140625,-35.15625,-41.015625,-57.6171875,0.0
112.5078125,-15.625,-11.71875,-34.66796875,-33.69140625,-57.12890625,0.0
112.51171875,-7.8125,-18.06640625,-36.1328125,-25.390625,-67.3828125,0.0
112.515625,-2.9296875,-27.34375,-22.94921875,-35.64453125,-104.00390625,0.0
112.51953125,-11.71875,-20.99609375,-23.92578125,-41.50390625,-46.38671875,0.0
112.5234375,-16.6015625,-26.3671875,-29.296875,-36.1328125,-98.14453125,0.0
112.52734375,-12.6953125,-37.109375,-26.3671875,-40.0390625,-101.5625,0.0
112.53125,-26.85546875,-53.7109375,-32.2265625,-40.52734375,-47.36328125,0.0
112.53515625,-13.671875,-44.921875,-25.87890625,-39.55078125,-83.0078125,0.0
112.5390625,-1.953125,-32.2265625,-26.85546875,-45.8984375,-31.25,0.0
112.54296875,-4.8828125,-24.4140625,-30.2734375,-38.0859375,-0.48828125,0.0
112.546875,0.9765625,-37.109375,-14.6484375,-24.4140625,10.25390625,0.0
112.55078125,-10.25390625,-52.734375,-19.53125,-30.76171875,13.671875,0.0
112.5546875,-18.5546875,-40.52734375,-33.203125,-30.2734375,-24.90234375,0.0
112.55859375,-27.83203125,-21.484375,-31.73828125,-38.0859375,-22.4609375,0.0
112.5625,-54.19921875,-45.41015625,-34.1796875,-53.22265625,-42.96875,0.0
112.56640625,-57.6171875,-49.8046875,-39.0625,-47.8515625,-24.4140625,0.0
112.5703125,-45.41015625,-30.2734375,-33.69140625,-43.45703125,15.625,0.0
112.57421875,-50.29296875,-23.92578125,-41.50390625,-47.36328125,39.0625,0.0
112.578125,-47.8515625,-21.97265625,-39.0625,-46.38671875,20.5078125,0.0
112.58203125,-31.25,-49.8046875,-19.53125,-27.34375,-16.6015625,0.0
112.5859375,-24.90234375,-47.8515625,-20.99609375,-13.671875,15.625,0.0
112.58984375,-29.296875,-47.8515625,-32.71484375,-11.71875,77.63671875,0.0
112.59375,-22.94921875,-53.22265625,-36.62109375,-26.3671875,-14.16015625,0.0
112.59765625,-27.83203125,-41.015625,-25.390625,-26.3671875,-57.12890625,0.0
112.6015625,-34.66796875,-38.57421875,-21.97265625,-6.8359375,25.390625,0.0
112.60546875,-50.78125,-39.0625,-38.0859375,-45.41015625,16.6015625,0.0
112.609375,-56.640625,-39.0625,-37.109375,-55.6640625,-71.77734375,0.0
112.61328125,-41.50390625,-30.2734375,-30.2734375,-40.0390625,-108.3984375,0.0
112.6171875,-39.0625,-14.16015625,-32.2265625,-30.76171875,36.1328125,0.0
112.62109375,-41.015625,-53.7109375,-26.3671875,-24.90234375,22.4609375,0.0
112.625,-38.57421875,-64.453125,-29.78515625,-28.3203125,-17.08984375,0.0
112.62890625,-39.0625,-61.03515625,-36.62109375,-24.90234375,-28.80859375,0.0
112.6328125,-34.66796875,-48.828125,-43.45703125,-33.203125,-46.875,0.0
112.63671875,-32.71484375,-30.76171875,-45.41015625,-26.3671875,12.6953125,0.0
112.640625,-32.2265625,-30.2734375,-34.66796875,-20.5078125,16.6015625,0.0
112.64453125,-25.390625,-32.71484375,-36.1328125,-31.73828125,-37.59765625,0.0
112.6484375,-27.83203125,-54.6875,-38.0859375,-25.87890625,-62.98828125,0.0
112.65234375,-42.96875,-31.73828125,-41.015625,-26.3671875,-29.296875,0.0
112.65625,-41.50390625,-28.3203125,-41.015625,-32.71484375,-11.71875,0.0
112.66015625,-42.96875,-39.55078125,-38.57421875,-26.85546875,-1.46484375,0.0
112.6640625,-34.66796875,-26.85546875,-32.2265625,-27.34375,2.9296875,0.0
112.66796875,-17.08984375,-40.52734375,-21.484375,-24.90234375,-43.45703125,0.0
112.671875,-23.4375,-54.19921875,-16.11328125,-3.41796875,-89.84375,0.0
112.67578125,-26.3671875,-44.921875,-10.25390625,-1.953125,-135.7421875,0.0
112.6796875,-37.59765625,-41.015625,-17.08984375,-8.30078125,-70.80078125,0.0
112.68359375,-37.59765625,-43.45703125,-20.99609375,-27.34375,8.7890625,0.0
112.6875,-17.578125,-25.390625,-19.53125,-19.04296875,1.46484375,0.0
112.69140625,-33.203125,-28.80859375,-25.87890625,18.06640625,-47.36328125,0.0
112.6953125,-41.9921875,-31.25,-30.2734375,-19.04296875,-57.12890625,0.0
112.69921875,-26.3671875,-22.94921875,-30.76171875,-34.1796875,-76.66015625,0.0
112.703125,-14.6484375,-14.16015625,-23.92578125,-16.11328125,-65.91796875,0.0
112.70703125,-17.08984375,-32.71484375,-22.4609375,-29.296875,2.9296875,0.0
112.7109375,-33.203125,-39.0625,-17.08984375,-13.18359375,-44.43359375,0.0
112.71484375,-9.765625,-23.4375,-10.25390625,0.48828125,-146.97265625,0.0
112.71875,-11.23046875,-41.50390625,-26.85546875,-13.18359375,-127.9296875,0.0
112.72265625,-37.59765625,-36.62109375,-35.64453125,-16.11328125,-49.8046875,0.0
112.7265625,-28.3203125,-25.87890625,-30.76171875,-18.5546875,-31.25,0.0
112.73046875,-9.27734375,-34.1796875,-26.3671875,-20.5078125,-47.8515625,0.0
112.734375,-28.80859375,-29.296875,-26.85546875,-13.671875,-42.48046875,0.0
112.73828125,-24.90234375,-35.15625,-32.2265625,-15.13671875,6.8359375,0.0
112.7421875,-6.8359375,-36.62109375,-35.15625,-28.80859375,41.015625,0.0
112.74609375,-19.53125,-37.109375,-42.96875,-49.8046875,42.96875,0.0
112.75,-23.92578125,-32.2265625,-51.7578125,-45.41015625,-80.56640625,0.0
112.75390625,-25.87890625,-29.78515625,-51.26953125,-30.76171875,-132.8125,0.0
112.7578125,-17.08984375,-26.85546875,-43.9453125,-35.15625,-55.17578125,0.0
112.76171875,-5.859375,-31.73828125,-40.52734375,-42.48046875,-8.7890625,0.0
112.765625,2.9296875,-42.96875,-44.921875,-47.8515625,-6.8359375,0.0
112.76953125,8.30078125,-34.66796875,-35.15625,-21.97265625,20.99609375,0.0
112.7734375,1.46484375,-27.83203125,-30.2734375,-12.20703125,77.63671875,0.0
112.77734375,11.71875,-24.90234375,-40.52734375,-14.6484375,22.94921875,0.0
112.78125,8.30078125,-21.97265625,-52.24609375,-12.20703125,9.765625,0.0
112.78515625,-5.859375,-32.71484375,-56.640625,-27.34375,8.7890625,0.0
112.7890625,3.41796875,-19.04296875,-49.8046875,-22.94921875,-27.34375,0.0
112.79296875,7.8125,-17.578125,-42.96875,-37.59765625,-27.34375,0.0
112.796875,-0.9765625,-33.69140625,-41.9921875,-60.546875,-53.22265625,0.0
112.80078125,-10.25390625,-35.15625,-39.55078125,-30.76171875,-30.2734375,0.0
112.8046875,2.9296875,-20.5078125,-37.59765625,-38.0859375,19.04296875,0.0
112.80859375,12.20703125,-13.671875,-30.76171875,-35.64453125,-5.859375,0.0
112.8125,5.37109375,-16.6015625,-16.6015625,-15.13671875,-73.2421875,0.0
112.81640625,13.18359375,-10.7421875,-3.41796875,-7.32421875,-50.29296875,0.0
112.8203125,18.06640625,2.44140625,9.27734375,1.953125,-38.0859375,0.0
112.82421875,23.92578125,1.953125,6.34765625,-17.08984375,-64.453125,0.0
112.828125,38.0859375,8.30078125,9.765625,-13.18359375,-19.04296875,0.0
112.83203125,27.34375,-32.2265625,18.06640625,-3.90625,-11.23046875,0.0
112.8359375,28.3203125,-36.1328125,14.6484375,1.46484375,-22.4609375,0.0
112.83984375,32.71484375,-37.59765625,2.9296875,-9.27734375,-79.1015625,0.0
112.84375,7.8125,-31.73828125,-7.32421875,-12.20703125,-117.1875,0.0
112.84765625,14.16015625,-20.99609375,-0.9765625,3.41796875,-17.08984375,0.0
112.8515625,15.625,-29.296875,-5.37109375,-1.953125,49.31640625,0.0
112.85546875,-23.4375,-32.71484375,-23.4375,-3.90625,50.29296875,0.0
112.859375,-34.66796875,-36.1328125,-27.83203125,-11.71875,65.4296875,0.0
112.86328125,-18.06640625,-41.50390625,-16.6015625,-16.11328125,-15.625,0.0
112.8671875,-17.08984375,-24.4140625,-18.5546875,-12.6953125,15.13671875,0.0
112.87109375,-29.296875,-26.3671875,-27.83203125,-39.0625,46.38671875,0.0
112.875,-38.0859375,-27.34375,-32.71484375,-57.6171875,-64.453125,0.0
112.87890625,-34.66796875,-20.01953125,-36.62109375,-53.7109375,-68.84765625,0.0
112.8828125,-46.38671875,-18.5546875,-52.734375,-51.26953125,-75.1953125,0.0
112.88671875,-48.33984375,-14.6484375,-54.19921875,-44.921875,-48.828125,0.0
112.890625,-48.33984375,-35.15625,-48.828125,-57.6171875,-75.1953125,0.0
112.89453125,-40.52734375,-37.59765625,-33.203125,-57.6171875,-83.0078125,0.0
112.8984375,-25.87890625,-17.08984375,-12.6953125,-28.80859375,-26.3671875,0.0
112.90234375,-32.71484375,-20.99609375,-8.30078125,-15.625,-41.015625,0.0
112.90625,-50.29296875,-36.1328125,-8.30078125,-31.25,-14.16015625,0.0
112.91015625,-62.98828125,-38.0859375,-17.08984375,-43.9453125,-2.44140625,0.0
112.9140625,-64.94140625,-27.34375,-36.62109375,-59.5703125,-28.3203125,0.0
112.91796875,-59.08203125,-30.76171875,-34.1796875,-62.01171875,0.48828125,0.0
112.921875,-67.87109375,-28.3203125,-26.85546875,-33.203125,46.38671875,0.0
112.92578125,-55.17578125,-27.34375,-29.296875,-21.484375,30.76171875,0.0
112.9296875,-42.48046875,-31.73828125,-26.85546875,-25.87890625,-22.4609375,0.0
112.93359375,-62.01171875,-32.2265625,-21.97265625,-45.41015625,-20.5078125,0.0
112.9375,-32.71484375,-37.59765625,-19.04296875,-60.05859375,-48.33984375,0.0
112.94140625,-3.41796875,-38.57421875,-13.18359375,-41.50390625,-129.8828125,0.0
112.9453125,-10.7421875,-29.296875,-8.7890625,-25.390625,-197.265625,0.0
112.94921875,-5.37109375,-35.64453125,-10.7421875,-38.0859375,-222.16796875,0.0
112.953125,-2.44140625,-38.0859375,-11.71875,-50.78125,-127.44140625,0.0
112.95703125,6.34765625,-35.15625,-5.37109375,-23.92578125,-50.29296875,0.0
112.9609375,19.04296875,-41.015625,2.44140625,-6.8359375,-34.66796875,0.0
112.96484375,27.83203125,-24.4140625,4.39453125,-20.01953125,-22.94921875,0.0
112.96875,27.34375,-14.16015625,10.7421875,-16.11328125,32.71484375,0.0
112.97265625,46.875,-42.48046875,13.18359375,32.71484375,22.4609375,0.0
112.9765625,58.59375,-33.69140625,19.04296875,27.83203125,-10.25390625,0.0
112.98046875,67.3828125,-32.71484375,39.0625,9.765625,26.85546875,0.0
112.984375,72.265625,-34.66796875,40.0390625,18.06640625,-10.7421875,0.0
112.98828125,59.5703125,-28.3203125,34.66796875,23.4375,19.04296875,0.0
112.9921875,63.96484375,-36.1328125,35.64453125,33.203125,51.7578125,0.0
112.99609375,65.91796875,-37.109375,32.2265625,20.01953125,-50.78125,0.0
113.0,75.68359375,-40.52734375,43.45703125,9.27734375,-32.71484375,0.0
113.00390625,71.77734375,-42.48046875,39.0625,8.7890625,-44.43359375,0.0
113.0078125,45.8984375,-32.71484375,23.4375,12.20703125,-191.89453125,0.0
113.01171875,61.03515625,-20.01953125,20.99609375,8.30078125,-192.3828125,0.0
113.015625,69.82421875,-53.22265625,19.53125,7.32421875,-104.00390625,0.0
113.01953125,65.4296875,-47.8515625,4.8828125,-0.9765625,-67.87109375,0.0
113.0234375,32.71484375,-33.69140625,-6.34765625,-5.859375,7.32421875,0.0
113.02734375,6.8359375,-30.76171875,2.44140625,-4.39453125,56.640625,0.0
113.03125,21.484375,-34.66796875,14.6484375,-24.4140625,-19.53125,0.0
113.03515625,49.8046875,-41.50390625,15.625,-23.92578125,-56.15234375,0.0
113.0390625,42.48046875,-32.71484375,12.20703125,-22.4609375,25.87890625,0.0
113.04296875,13.671875,-31.25,6.34765625,-14.16015625,46.875,0.0
113.046875,-1.46484375,-43.45703125,3.41796875,22.94921875,-22.4609375,0.0
113.05078125,-0.48828125,-59.5703125,15.13671875,53.7109375,-91.796875,0.0
113.0546875,0.0,-26.3671875,21.484375,5.859375,-39.55078125,0.0
113.05859375,-9.765625,-32.2265625,7.32421875,-40.52734375,8.7890625,0.0
113.0625,-9.27734375,-50.78125,7.8125,-32.71484375,26.85546875,0.0
113.06640625,3.90625,-30.76171875,14.16015625,-19.04296875,27.34375,0.0
113.0703125,19.04296875,-26.85546875,2.44140625,-7.32421875,-61.03515625,0.0
113.07421875,8.7890625,-41.9921875,-0.9765625,10.7421875,-156.25,0.0
113.078125,-13.671875,-51.26953125,3.90625,38.0859375,-109.375,0.0
113.08203125,-13.671875,-33.203125,1.46484375,-2.44140625,-29.78515625,0.0
113.0859375,6.34765625,-29.296875,2.9296875,-9.765625,-7.32421875,0.0
113.08984375,35.15625,-39.55078125,21.484375,60.546875,-13.18359375,0.0
113.09375,26.85546875,-21.97265625,13.671875,3.90625,-7.8125,0.0
113.09765625,-18.06640625,-18.06640625,-14.6484375,-67.3828125,98.14453125,0.0
113.1015625,-3.41796875,-36.1328125,-15.625,-36.62109375,133.7890625,0.0
113.10546875,25.390625,-50.29296875,-15.13671875,-15.13671875,33.203125,0.0
113.109375,18.5546875,-52.24609375,-21.484375,-11.71875,-7.8125,0.0
113.11328125,6.8359375,-32.71484375,-25.390625,-6.8359375,33.69140625,0.0
113.1171875,-7.32421875,-23.92578125,-22.4609375,-2.9296875,-16.11328125,0.0
113.12109375,-11.71875,-34.66796875,-17.578125,7.32421875,-35.64453125,0.0
113.125,0.48828125,-49.31640625,-12.20703125,1.953125,82.03125,0.0
113.12890625,12.6953125,-55.17578125,-10.7421875,-2.44140625,35.64453125,0.0
113.1328125,17.08984375,-37.59765625,-9.765625,-7.8125,-28.3203125,0.0
113.13671875,8.7890625,-16.6015625,-13.671875,-3.41796875,-6.34765625,0.0
113.140625,-3.90625,-34.66796875,-32.71484375,-13.671875,-63.4765625,0.0
113.14453125,-17.08984375,-37.59765625,-38.57421875,-38.57421875,-94.7265625,0.0
113.1484375,-23.4375,-34.66796875,-29.78515625,-14.16015625,-62.5,0.0
113.15234375,-19.53125,-39.0625,-40.52734375,-26.85546875,-43.45703125,0.0
113.15625,-39.0625,-20.5078125,-51.26953125,-38.0859375,-13.18359375,0.0
113.16015625,-23.4375,-25.390625,-42.48046875,-26.3671875,-99.12109375,0.0
113.1640625,-20.99609375,-31.25,-41.50390625,-33.69140625,-122.55859375,0.0
113.16796875,-24.4140625,-34.66796875,-35.64453125,-20.5078125,-62.5,0.0
113.171875,-7.32421875,-35.64453125,-27.83203125,-27.83203125,-74.21875,0.0
113.17578125,-8.7890625,-29.296875,-27.83203125,-21.97265625,-11.71875,0.0
113.1796875,-23.92578125,-28.3203125,-31.25,-22.4609375,46.38671875,0.0
113.18359375,-7.32421875,-19.53125,-20.99609375,-16.11328125,18.5546875,0.0
113.1875,9.27734375,-23.4375,0.48828125,6.8359375,-34.66796875,0.0
113.19140625,-5.859375,-35.64453125,-3.90625,-2.44140625,9.765625,0.0
113.1953125,-0.9765625,-21.484375,-16.6015625,-2.44140625,-6.34765625,0.0
113.19921875,-1.46484375,-21.484375,-8.7890625,10.7421875,-62.98828125,0.0
113.203125,-2.9296875,-35.64453125,-3.41796875,0.9765625,-65.91796875,0.0
113.20703125,6.34765625,-29.296875,-7.32421875,6.34765625,-63.96484375,0.0
113.2109375,6.34765625,-32.2265625,-10.25390625,-7.8125,-93.26171875,0.0
113.21484375,6.8359375,-31.73828125,-7.8125,-17.08984375,-107.91015625,0.0
113.21875,9.765625,-44.43359375,-8.7890625,-0.48828125,-83.0078125,0.0
113.22265625,3.90625,-50.29296875,-16.6015625,-21.484375,-103.515625,0.0
113.2265625,9.27734375,-32.71484375,-19.53125,-26.85546875,-125.0,0.0
113.23046875,17.08984375,-21.484375,-13.671875,-9.27734375,-63.4765625,0.0
113.234375,23.4375,-21.484375,-1.953125,12.6953125,-43.9453125,0.0
113.23828125,13.671875,-19.04296875,-12.6953125,6.34765625,-61.5234375,0.0
113.2421875,-5.859375,-15.625,-29.78515625,-23.92578125,-34.1796875,0.0
113.24609375,-1.46484375,-21.97265625,-26.85546875,-18.5546875,-74.21875,0.0
113.25,5.859375,-12.20703125,-13.18359375,0.9765625,-77.1484375,0.0
113.25390625,7.8125,-14.6484375,-7.8125,-6.34765625,-1.953125,0.0
113.2578125,7.8125,-27.34375,-7.32421875,-21.97265625,37.109375,0.0
113.26171875,17.08984375,-25.87890625,-1.46484375,-7.8125,50.78125,0.0
113.265625,25.87890625,-23.4375,4.39453125,0.48828125,24.4140625,0.0
113.26953125,18.5546875,-21.484375,6.34765625,-9.765625,19.04296875,0.0
113.2734375,2.9296875,-25.390625,-9.27734375,-12.20703125,13.18359375,0.0
113.27734375,-22.4609375,-26.85546875,-20.99609375,-23.92578125,-68.359375,0.0
113.28125,-17.08984375,-35.64453125,-5.859375,-7.32421875,-119.62890625,0.0
113.28515625,-3.41796875,-31.73828125,-6.34765625,-17.08984375,-64.94140625,0.0
113.2890625,-4.8828125,-25.87890625,-11.71875,-20.01953125,-45.8984375,0.0
113.29296875,-11.23046875,-23.92578125,-23.92578125,-28.80859375,-129.39453125,0.0
113.296875,-20.99609375,-33.203125,-49.8046875,-63.96484375,-94.23828125,0.0
113.30078125,-14.6484375,-35.64453125,-46.875,-57.6171875,-36.1328125,0.0
113.3046875,-16.6015625,-17.08984375,-33.69140625,-36.62109375,-28.3203125,0.0
113.30859375,-14.16015625,-20.01953125,-13.671875,-30.2734375,-20.01953125,0.0
113.3125,-3.90625,-34.1796875,-2.44140625,-21.484375,-49.8046875,0.0
113.31640625,-20.01953125,-30.2734375,-25.87890625,-41.50390625,-88.37890625,0.0
113.3203125,-31.73828125,-17.578125,-41.9921875,-46.38671875,-94.23828125,0.0
113.32421875,-17.08984375,-24.90234375,-41.015625,-15.625,-146.97265625,0.0
113.328125,-34.1796875,-38.57421875,-56.640625,-48.828125,-245.60546875,0.0
113.33203125,-50.78125,-29.78515625,-68.359375,-104.98046875,-209.9609375,0.0
113.3359375,-26.85546875,-26.85546875,-62.98828125,-90.33203125,-182.12890625,0.0
113.33984375,-24.4140625,-27.34375,-45.41015625,-57.12890625,-210.44921875,0.0
113.34375,-10.25390625,-28.3203125,-22.4609375,-39.0625,-138.18359375,0.0
113.34765625,4.8828125,-24.4140625,-11.71875,-29.78515625,-65.4296875,0.0
113.3515625,19.53125,-27.83203125,-4.8828125,-11.71875,-53.22265625,0.0
113.35546875,33.69140625,-33.69140625,18.06640625,-5.37109375,-49.8046875,0.0
113.359375,15.625,-30.2734375,15.13671875,-10.7421875,-18.06640625,0.0
113.36328125,3.90625,-27.83203125,3.90625,-16.11328125,-6.8359375,0.0
113.3671875,0.48828125,-21.484375,5.859375,-18.06640625,10.7421875,0.0
113.37109375,0.9765625,-10.25390625,-4.39453125,-22.4609375,94.7265625,0.0
113.375,11.23046875,-23.92578125,-2.44140625,-4.39453125,65.91796875,0.0
113.37890625,3.90625,-30.2734375,4.39453125,8.30078125,44.43359375,0.0
113.3828125,6.34765625,-20.01953125,1.953125,1.953125,73.73046875,0.0
113.38671875,14.16015625,-23.92578125,7.8125,3.41796875,49.31640625,0.0
113.390625,4.39453125,-31.25,-3.90625,-4.39453125,42.48046875,0.0
113.39453125,-6.8359375,-40.52734375,-14.16015625,-19.04296875,25.390625,0.0
113.3984375,-4.39453125,-33.69140625,-3.90625,-20.99609375,-72.265625,0.0
113.40234375,1.46484375,-30.76171875,-1.46484375,-16.6015625,-190.91796875,0.0
113.40625,-6.8359375,-20.5078125,-15.625,-14.16015625,-185.546875,0.0
113.41015625,-17.578125,-14.6484375,-19.53125,-14.16015625,-106.4453125,0.0
113.4140625,-23.92578125,-26.3671875,-25.87890625,-23.4375,-82.03125,0.0
113.41796875,-25.390625,-20.01953125,-46.875,-40.52734375,-107.421875,0.0
113.421875,-28.3203125,-28.3203125,-48.828125,-40.0390625,-117.67578125,0.0
113.42578125,-43.9453125,-33.69140625,-49.31640625,-20.01953125,-90.33203125,0.0
113.4296875,-43.9453125,-32.71484375,-69.82421875,-52.24609375,-68.359375,0.0
113.43359375,-12.6953125,-34.1796875,-55.6640625,-61.03515625,-95.21484375,0.0
113.4375,-19.53125,-31.25,-42.48046875,-36.1328125,-156.73828125,0.0
113.44140625,-15.13671875,-27.34375,-57.12890625,-23.92578125,-104.98046875,0.0
113.4453125,18.5546875,-32.71484375,-48.33984375,0.9765625,-55.17578125,0.0
113.44921875,-31.25,-38.57421875,-44.921875,4.39453125,-53.7109375,0.0
113.453125,-74.21875,-38.57421875,-55.6640625,-39.0625,-64.453125,0.0
113.45703125,-21.97265625,-41.015625,-25.390625,-46.38671875,-78.61328125,0.0
113.4609375,-18.06640625,-33.69140625,-0.48828125,-28.3203125,-40.52734375,0.0
113.46484375,-41.50390625,-33.69140625,2.9296875,0.9765625,-33.203125,0.0
113.46875,-37.59765625,-31.73828125,0.9765625,-7.32421875,-106.93359375,0.0
113.47265625,-37.59765625,-33.203125,-5.37109375,-37.59765625,-178.7109375,0.0
113.4765625,-22.94921875,-36.1328125,10.25390625,-25.390625,-44.43359375,0.0
113.48046875,-21.97265625,-29.78515625,13.671875,-14.16015625,142.578125,0.0
113.484375,-22.4609375,-29.78515625,-5.859375,-19.04296875,222.16796875,0.0
113.48828125,-13.671875,-24.4140625,8.30078125,-0.9765625,218.75,0.0
113.4921875,-22.94921875,-35.64453125,7.8125,5.859375,65.4296875,0.0
113.49609375,-34.66796875,-42.96875,-17.578125,4.8828125,-33.203125,0.0
113.5,-36.62109375,-31.73828125,-5.37109375,10.7421875,54.6875,0.0
113.50390625,-27.34375,-29.78515625,13.671875,16.11328125,86.42578125,0.0
113.5078125,-14.6484375,-27.34375,6.34765625,24.4140625,17.08984375,0.0
113.51171875,-10.25390625,-23.4375,-1.953125,-1.953125,10.25390625,0.0
113.515625,-2.9296875,-31.25,2.9296875,5.859375,-20.5078125,0.0
113.51953125,16.6015625,-41.015625,6.8359375,25.390625,10.25390625,0.0
113.5234375,15.13671875,-30.76171875,12.20703125,17.578125,65.91796875,0.0
113.52734375,-2.9296875,-25.390625,16.11328125,35.15625,-18.5546875,0.0
113.53125,0.0,-31.25,15.625,29.296875,1.953125,0.0
113.53515625,9.27734375,-32.2265625,25.390625,6.8359375,82.51953125,0.0
113.5390625,7.32421875,-29.78515625,22.94921875,13.671875,95.21484375,0.0
113.54296875,1.46484375,-33.69140625,18.5546875,27.34375,10.7421875,0.0
113.546875,-7.32421875,-39.55078125,5.859375,7.8125,-7.32421875,0.0
113.55078125,-25.390625,-35.64453125,-9.765625,-16.11328125,43.9453125,0.0
113.5546875,-42.48046875,-25.390625,-9.27734375,-22.94921875,21.484375,0.0
113.55859375,-19.04296875,-23.4375,-12.20703125,-18.06640625,29.78515625,0.0
113.5625,4.39453125,-28.80859375,-7.32421875,-25.390625,18.5546875,0.0
113.56640625,-2.9296875,-32.2265625,1.953125,-29.296875,-18.06640625,0.0
113.5703125,-17.08984375,-30.2734375,5.37109375,-7.8125,-0.48828125,0.0
113.57421875,-19.53125,-41.015625,2.9296875,-1.953125,5.37109375,0.0
113.578125,-9.27734375,-44.921875,-1.953125,-2.9296875,0.9765625,0.0
113.58203125,-6.8359375,-40.0390625,3.90625,-0.48828125,53.22265625,0.0
113.5859375,-11.71875,-41.50390625,-2.9296875,-20.01953125,74.21875,0.0
113.58984375,-24.4140625,-41.9921875,-21.97265625,-19.53125,17.578125,0.0
113.59375,-26.85546875,-41.50390625,-27.34375,-17.578125,-30.76171875,0.0
113.59765625,-13.18359375,-35.64453125,-22.94921875,-31.73828125,-66.40625,0.0
113.6015625,-18.06640625,-31.73828125,-15.625,-15.625,-46.875,0.0
113.60546875,-22.4609375,-29.78515625,-9.765625,-33.69140625,-59.5703125,0.0
113.609375,-8.7890625,-40.0390625,-12.20703125,-40.52734375,-93.26171875,0.0
113.61328125,0.0,-41.015625,-20.5078125,-23.92578125,-157.2265625,0.0
113.6171875,-19.53125,-35.15625,-14.16015625,-21.97265625,-156.25,0.0
113.62109375,-27.83203125,-32.71484375,-4.39453125,-29.78515625,-64.453125,0.0
113.625,-26.3671875,-33.203125,6.8359375,-29.296875,-50.29296875,0.0
113.62890625,-29.78515625,-40.0390625,14.6484375,17.08984375,-89.84375,0.0
113.6328125,-28.3203125,-35.15625,7.8125,-13.18359375,-97.16796875,0.0
113.63671875,-23.4375,-32.2265625,3.90625,-47.8515625,-70.80078125,0.0
113.640625,-20.5078125,-42.96875,4.8828125,-45.41015625,-28.3203125,0.0
113.64453125,-20.01953125,-46.38671875,0.0,-30.2734375,-58.59375,0.0
113.6484375,-29.78515625,-34.66796875,-7.32421875,5.37109375,-54.6875,0.0
113.65234375,-31.25,-32.2265625,-12.6953125,-13.18359375,37.109375,0.0
113.65625,-29.78515625,-37.109375,-28.3203125,-37.59765625,74.70703125,0.0
113.66015625,-33.69140625,-33.69140625,-37.109375,-19.04296875,59.5703125,0.0
113.6640625,-46.875,-38.57421875,-25.87890625,-17.578125,-25.390625,0.0
113.66796875,-27.34375,-46.38671875,-6.8359375,-26.3671875,-27.34375,0.0
113.671875,-10.7421875,-37.109375,-14.16015625,-23.92578125,-23.4375,0.0
113.67578125,-31.25,-27.83203125,-21.484375,-31.73828125,-103.515625,0.0
113.6796875,-33.69140625,-25.87890625,-14.16015625,-12.20703125,-42.96875,0.0
113.68359375,-16.11328125,-30.2734375,-10.7421875,0.0,43.9453125,0.0
113.6875,-5.859375,-34.1796875,-9.765625,-9.765625,-11.23046875,0.0
113.69140625,-14.16015625,-24.4140625,-11.23046875,-12.20703125,-44.43359375,0.0
113.6953125,-41.50390625,-16.11328125,-26.3671875,-37.59765625,-84.47265625,0.0
113.69921875,-37.109375,-28.3203125,-33.69140625,-54.6875,-123.046875,0.0
113.703125,-32.71484375,-33.203125,-29.78515625,-61.03515625,-146.484375,0.0
113.70703125,-23.92578125,-26.85546875,-20.5078125,-50.78125,-212.40234375,0.0
113.7109375,-5.859375,-20.99609375,-23.92578125,-32.2265625,-148.4375,0.0
113.71484375,-18.5546875,-19.04296875,-31.73828125,-40.52734375,-98.14453125,0.0
113.71875,-43.45703125,-18.06640625,-34.66796875,-67.87109375,-56.15234375,0.0
113.72265625,-38.57421875,-23.4375,-35.15625,-53.22265625,-39.55078125,0.0
113.7265625,-19.04296875,-33.69140625,-19.53125,-29.78515625,-62.01171875,0.0
113.73046875,-19.04296875,-35.64453125,-23.4375,-33.69140625,-37.59765625,0.0
113.734375,-22.94921875,-26.3671875,-34.66796875,-43.9453125,4.39453125,0.0
113.73828125,-23.4375,-24.4140625,-33.203125,-45.41015625,-49.31640625,0.0
113.7421875,10.7421875,-29.78515625,-15.625,-6.8359375,-74.21875,0.0
113.74609375,49.8046875,-31.73828125,17.08984375,23.4375,-39.0625,0.0
113.75,26.3671875,-37.59765625,2.44140625,-14.6484375,-57.6171875,0.0
113.75390625,-23.4375,-37.59765625,-16.11328125,-43.9453125,7.8125,0.0
113.7578125,-16.6015625,-31.73828125,0.9765625,-37.59765625,82.51953125,0.0
113.76171875,8.7890625,-41.9921875,6.8359375,-33.203125,40.0390625,0.0
113.765625,13.671875,-43.9453125,18.5546875,-9.765625,-41.015625,0.0
113.76953125,18.06640625,-31.25,18.06640625,-19.04296875,41.9921875,0.0
113.7734375,14.6484375,-30.2734375,4.8828125,-46.38671875,69.3359375,0.0
113.77734375,20.01953125,-24.4140625,13.18359375,-17.578125,-42.48046875,0.0
113.78125,20.99609375,-25.87890625,11.23046875,2.44140625,-34.66796875,0.0
113.78515625,3.41796875,-28.3203125,4.39453125,-21.484375,66.40625,0.0
113.7890625,-16.6015625,-27.83203125,-12.6953125,-46.38671875,46.38671875,0.0
113.79296875,-15.13671875,-31.25,-24.90234375,-38.0859375,-92.7734375,0.0
113.796875,-12.20703125,-36.1328125,-26.85546875,-9.27734375,-51.7578125,0.0
113.80078125,-31.25,-41.9921875,-32.2265625,-38.57421875,-6.34765625,0.0
113.8046875,-24.90234375,-38.0859375,-37.59765625,-56.640625,-26.85546875,0.0
113.80859375,-13.18359375,-38.0859375,-39.0625,-55.17578125,-62.01171875,0.0
113.8125,-24.90234375,-36.62109375,-24.90234375,-40.0390625,-60.546875,0.0
113.81640625,-14.16015625,-33.203125,-6.8359375,-21.484375,-67.3828125,0.0
113.8203125,18.06640625,-39.55078125,12.20703125,-3.41796875,-61.5234375,0.0
113.82421875,38.57421875,-40.52734375,29.78515625,3.41796875,4.8828125,0.0
113.828125,45.41015625,-39.0625,39.0625,27.83203125,-4.39453125,0.0
113.83203125,44.43359375,-47.36328125,41.9921875,50.29296875,10.25390625,0.0
113.8359375,31.73828125,-40.0390625,23.92578125,22.4609375,31.73828125,0.0
113.83984375,44.921875,-36.1328125,21.97265625,31.73828125,-12.6953125,0.0
113.84375,47.8515625,-41.015625,26.3671875,30.76171875,17.578125,0.0
113.84765625,49.31640625,-41.50390625,23.4375,4.8828125,-28.80859375,0.0
113.8515625,53.7109375,-41.50390625,23.92578125,15.625,-110.3515625,0.0
113.85546875,46.875,-37.109375,27.83203125,20.01953125,-55.6640625,0.0
113.859375,38.0859375,-36.62109375,18.5546875,-3.90625,-14.6484375,0.0
113.86328125,19.04296875,-42.48046875,-3.90625,-15.13671875,-39.0625,0.0
113.8671875,1.46484375,-42.96875,-20.99609375,-17.578125,-13.18359375,0.0
113.87109375,16.11328125,-38.0859375,-25.87890625,-22.4609375,95.21484375,0.0
113.875,42.48046875,-38.0859375,0.0,-4.39453125,66.89453125,0.0
113.87890625,36.1328125,-42.48046875,10.7421875,20.01953125,-81.0546875,0.0
113.8828125,28.3203125,-38.0859375,8.7890625,19.53125,-78.125,0.0
113.88671875,67.87109375,-34.66796875,32.2265625,15.625,-68.84765625,0.0
113.890625,87.890625,-45.8984375,41.015625,26.85546875,-113.28125,0.0
113.89453125,88.8671875,-49.31640625,39.55078125,43.9453125,-48.33984375,0.0
113.8984375,118.1640625,-35.15625,68.84765625,67.87109375,-40.0390625,0.0
113.90234375,118.1640625,-38.57421875,73.73046875,58.59375,-63.96484375,0.0
113.90625,104.00390625,-43.9453125,63.4765625,57.6171875,-17.08984375,0.0
113.91015625,94.23828125,86.42578125,54.6875,44.921875,-68.84765625,0.0
113.9140625,94.23828125,78.61328125,53.7109375,33.69140625,-55.17578125,0.0
113.91796875,84.47265625,43.45703125,61.03515625,55.17578125,28.3203125,0.0
113.921875,87.890625,0.9765625,59.08203125,37.109375,25.87890625,0.0
113.92578125,103.02734375,41.9921875,63.4765625,41.50390625,-32.71484375,0.0
113.9296875,87.40234375,85.44921875,54.6875,39.55078125,-57.12890625,0.0
113.93359375,77.1484375,75.68359375,32.2265625,3.41796875,35.15625,0.0
113.9375,73.73046875,54.6875,28.80859375,17.578125,29.78515625,0.0
113.94140625,80.56640625,53.7109375,35.64453125,22.94921875,-7.8125,0.0
113.9453125,100.5859375,60.546875,35.64453125,10.25390625,22.94921875,0.0
113.94921875,93.75,50.29296875,35.64453125,35.15625,51.7578125,0.0
113.953125,82.03125,47.36328125,37.109375,39.0625,-16.11328125,0.0
113.95703125,89.35546875,-29.78515625,45.41015625,37.59765625,-99.609375,0.0
113.9609375,100.5859375,-25.87890625,47.36328125,55.17578125,-95.703125,0.0
113.96484375,90.8203125,-29.78515625,34.1796875,46.38671875,-76.171875,0.0
113.96875,89.84375,-38.0859375,29.296875,-7.8125,-35.64453125,0.0
113.97265625,84.47265625,-35.15625,25.87890625,-9.765625,-66.40625,0.0
113.9765625,80.56640625,-24.90234375,33.203125,35.64453125,-114.2578125,0.0
113.98046875,94.23828125,-26.3671875,39.0625,36.1328125,-59.5703125,0.0
113.984375,111.81640625,-35.64453125,40.0390625,21.484375,40.0390625,0.0
113.98828125,130.859375,-37.59765625,36.62109375,17.08984375,65.91796875,0.0
113.9921875,122.0703125,-34.1796875,18.06640625,1.46484375,-26.85546875,0.0
113.99609375,125.0,-23.92578125,25.87890625,10.25390625,-54.6875,0.0
114.0,125.9765625,-23.92578125,44.43359375,41.015625,-37.109375,0.0
114.00390625,114.74609375,-26.3671875,47.8515625,48.828125,-86.42578125,0.0
114.0078125,125.9765625,-27.83203125,39.55078125,49.8046875,-165.52734375,0.0
114.01171875,120.1171875,-25.390625,22.94921875,17.08984375,-53.22265625,0.0
114.015625,101.07421875,-24.90234375,15.13671875,8.30078125,-10.7421875,0.0
114.01953125,97.65625,-31.73828125,13.671875,11.71875,-79.58984375,0.0
114.0234375,109.375,-23.4375,13.671875,0.48828125,-31.73828125,0.0
114.02734375,107.421875,-26.3671875,15.13671875,18.5546875,15.625,0.0
114.03125,97.65625,-34.66796875,15.13671875,18.5546875,31.25,0.0
114.03515625,93.75,-27.83203125,6.8359375,-17.08984375,62.01171875,0.0
114.0390625,80.56640625,-29.78515625,18.06640625,-0.48828125,77.1484375,0.0
114.04296875,77.1484375,-37.109375,22.94921875,25.87890625,31.73828125,0.0
114.046875,51.7578125,-36.62109375,-2.44140625,5.859375,-60.05859375,0.0
114.05078125,47.8515625,-35.15625,-11.71875,-15.625,-67.3828125,0.0
114.0546875,59.08203125,-31.73828125,-7.8125,-11.23046875,-77.1484375,0.0
114.05859375,47.8515625,-33.203125,-12.20703125,-13.18359375,-41.50390625,0.0
114.0625,53.7109375,-38.0859375,-13.671875,-18.5546875,-46.38671875,0.0
114.06640625,62.01171875,-34.66796875,-4.8828125,-7.32421875,-94.7265625,0.0
114.0703125,31.25,-30.76171875,-4.8828125,-15.13671875,-15.625,0.0
114.07421875,35.64453125,-34.66796875,-15.625,-32.2265625,16.11328125,0.0
114.078125,44.43359375,-39.55078125,-30.2734375,-46.38671875,-16.6015625,0.0
114.08203125,24.4140625,-33.69140625,-27.83203125,-46.38671875,-50.78125,0.0
114.0859375,26.85546875,-26.85546875,-27.34375,-42.48046875,-53.7109375,0.0
114.08984375,36.1328125,-35.15625,-37.109375,-52.734375,-3.90625,0.0
114.09375,5.37109375,-35.64453125,-33.69140625,-51.7578125,13.671875,0.0
114.09765625,5.859375,-30.76171875,-19.53125,-9.27734375,-60.05859375,0.0
114.1015625,21.97265625,-28.80859375,-10.7421875,-23.4375,-34.66796875,0.0
114.10546875,3.41796875,-31.25,-13.18359375,-59.5703125,-34.1796875,0.0
114.109375,7.8125,-28.3203125,-3.41796875,-35.64453125,-90.33203125,0.0
114.11328125,17.08984375,-22.4609375,5.37109375,-29.296875,-65.91796875,0.0
114.1171875,13.671875,-19.04296875,3.41796875,-26.3671875,15.625,0.0
114.12109375,32.2265625,-23.4375,6.34765625,14.16015625,-15.13671875,0.0
114.125,45.8984375,-32.71484375,9.765625,35.64453125,-20.99609375,0.0
114.12890625,29.296875,-34.66796875,0.48828125,-16.6015625,-55.6640625,0.0
114.1328125,18.5546875,-29.78515625,-12.20703125,-29.78515625,-33.203125,0.0
114.13671875,37.109375,-30.2734375,-10.25390625,10.25390625,35.64453125,0.0
114.140625,42.96875,-33.203125,-16.11328125,20.99609375,-85.44921875,0.0
114.14453125,15.625,-28.80859375,-32.71484375,3.90625,-61.03515625,0.0
114.1484375,-3.41796875,-31.25,-35.15625,-6.8359375,5.859375,0.0
114.15234375,-22.94921875,-35.15625,-55.17578125,-19.53125,-61.03515625,0.0
114.15625,-18.06640625,-34.1796875,-65.91796875,-14.16015625,-92.7734375,0.0
114.16015625,-13.18359375,-27.83203125,-64.453125,-21.97265625,-44.43359375,0.0
114.1640625,-11.23046875,-24.4140625,-60.05859375,-31.73828125,-21.97265625,0.0
114.16796875,-36.1328125,-25.390625,-64.453125,-40.52734375,-20.99609375,0.0
114.171875,-54.19921875,-24.90234375,-87.40234375,-83.49609375,-8.30078125,0.0
114.17578125,-39.0625,-23.92578125,-91.30859375,-85.9375,-144.04296875,0.0
114.1796875,-42.96875,-18.5546875,-83.984375,-68.84765625,-143.5546875,0.0
114.18359375,-35.15625,-21.484375,-76.171875,-40.0390625,52.734375,0.0
114.1875,-45.8984375,-33.203125,-73.73046875,-37.59765625,-4.39453125,0.0
114.19140625,-55.6640625,-36.1328125,-69.82421875,-44.921875,-87.40234375,0.0
114.1953125,-25.390625,-31.25,-67.87109375,-42.48046875,-79.58984375,0.0
114.19921875,-12.6953125,-27.83203125,-69.82421875,-62.98828125,-30.2734375,0.0
114.203125,-8.7890625,-27.34375,-53.7109375,-55.6640625,57.12890625,0.0
114.20703125,13.671875,-31.73828125,-46.875,-31.25,4.8828125,0.0
114.2109375,20.5078125,-26.3671875,-44.43359375,-32.2265625,-40.0390625,0.0
114.21484375,3.41796875,-23.4375,-33.203125,-16.6015625,-40.0390625,0.0
114.21875,-13.18359375,-24.90234375,-38.57421875,5.37109375,-30.76171875,0.0
114.22265625,-30.2734375,-30.2734375,-43.45703125,-22.94921875,40.52734375,0.0
114.2265625,-11.71875,-27.83203125,-34.1796875,-30.2734375,24.90234375,0.0
114.23046875,-14.16015625,-24.90234375,-36.1328125,-39.55078125,-51.26953125,0.0
114.234375,-31.73828125,-20.01953125,-48.33984375,-57.12890625,-97.65625,0.0
114.23828125,-22.4609375,-20.5078125,-52.734375,-47.8515625,-83.49609375,0.0
114.2421875,-27.83203125,-26.3671875,-49.8046875,-53.22265625,-112.79296875,0.0
114.24609375,-42.48046875,-23.4375,-45.41015625,-43.45703125,-187.5,0.0
114.25,-41.015625,-19.04296875,-41.015625,-31.73828125,-250.0,0.0
114.25390625,-29.78515625,-6.34765625,-30.76171875,-31.25,-254.8828125,0.0
114.2578125,-32.2265625,-1.46484375,-21.484375,-54.6875,-223.14453125,0.0
114.26171875,-28.80859375,-6.34765625,-22.94921875,-48.828125,-194.82421875,0.0
114.265625,-34.1796875,-9.27734375,-25.87890625,-28.3203125,-137.20703125,0.0
114.26953125,-38.57421875,-13.671875,-31.25,-31.73828125,-124.51171875,0.0
114.2734375,-42.96875,-14.16015625,-45.8984375,-43.9453125,-150.390625,0.0
114.27734375,-50.29296875,-13.18359375,-49.31640625,-58.10546875,-126.953125,0.0
114.28125,-47.36328125,-17.578125,-46.875,-50.29296875,-83.49609375,0.0
114.28515625,-56.15234375,-20.5078125,-44.43359375,-35.64453125,-21.484375,0.0
114.2890625,-61.5234375,-18.06640625,-38.57421875,-32.71484375,43.45703125,0.0
114.29296875,-60.546875,-19.04296875,-36.62109375,-33.203125,-13.18359375,0.0
114.296875,-42.96875,-20.01953125,-42.96875,-24.4140625,-96.19140625,0.0
114.30078125,-4.39453125,-16.11328125,-27.34375,-1.46484375,-49.31640625,0.0
114.3046875,-11.71875,-13.671875,-10.25390625,1.46484375,18.5546875,0.0
114.30859375,-46.38671875,-14.16015625,-32.71484375,-20.99609375,36.62109375,0.0
114.3125,-51.26953125,-22.94921875,-32.71484375,-34.1796875,37.109375,0.0
114.31640625,-32.71484375,-20.5078125,-21.97265625,-28.80859375,18.5546875,0.0
114.3203125,-20.01953125,-10.25390625,-29.296875,-20.99609375,-1.953125,0.0
114.32421875,-26.3671875,-21.484375,-32.2265625,-24.90234375,34.1796875,0.0
114.328125,-17.08984375,-33.69140625,-33.203125,-28.80859375,11.23046875,0.0
114.33203125,1.953125,-30.2734375,-30.2734375,-22.4609375,-114.2578125,0.0
114.3359375,-21.97265625,-28.3203125,-29.296875,-35.15625,-53.7109375,0.0
114.33984375,-17.578125,-27.34375,-34.1796875,-43.45703125,99.609375,0.0
114.34375,-3.41796875,-30.2734375,-33.69140625,-30.2734375,62.01171875,0.0
114.34765625,-15.13671875,-36.1328125,-24.90234375,-20.01953125,4.8828125,0.0
114.3515625,-25.390625,-29.78515625,-27.34375,-10.25390625,-44.43359375,0.0
114.35546875,-31.25,-28.3203125,-30.76171875,-17.08984375,-59.5703125,0.0
114.359375,-48.33984375,-36.62109375,-39.55078125,-43.45703125,-24.90234375,0.0
114.36328125,-55.6640625,-27.83203125,-43.45703125,-52.734375,20.01953125,0.0
114.3671875,-44.43359375,-20.5078125,-38.57421875,-34.1796875,18.5546875,0.0
114.37109375,-25.390625,-19.04296875,-33.203125,-35.64453125,26.3671875,0.0
114.375,-20.5078125,-28.3203125,-22.4609375,-33.203125,-16.11328125,0.0
114.37890625,-20.5078125,-39.55078125,-16.11328125,-11.23046875,-28.3203125,0.0
114.3828125,-17.08984375,-27.83203125,-21.97265625,-20.5078125,-3.90625,0.0
114.38671875,-24.90234375,-24.90234375,-31.25,-50.78125,-42.96875,0.0
114.390625,-24.4140625,-35.64453125,-34.1796875,-32.2265625,-14.6484375,0.0
114.39453125,-9.765625,-40.0390625,-26.85546875,-27.83203125,-17.08984375,0.0
114.3984375,7.8125,-38.0859375,-10.7421875,-30.2734375,-91.796875,0.0
114.40234375,11.71875,-42.48046875,-4.39453125,-5.37109375,-129.8828125,0.0
114.40625,12.6953125,-41.50390625,-15.625,-11.71875,-67.3828125,0.0
114.41015625,26.3671875,-38.0859375,-16.11328125,-22.94921875,-69.82421875,0.0
114.4140625,17.08984375,-31.73828125,-15.13671875,-39.55078125,-159.66796875,0.0
114.41796875,5.37109375,-30.76171875,-15.625,-40.0390625,-148.92578125,0.0
114.421875,-0.48828125,-31.25,-15.625,-21.484375,-133.7890625,0.0
114.42578125,-35.64453125,-33.69140625,-25.87890625,-29.78515625,-125.48828125,0.0
114.4296875,-40.0390625,-34.66796875,-35.64453125,-39.55078125,-99.12109375,0.0
114.43359375,-26.85546875,-32.71484375,-34.66796875,-38.57421875,-14.6484375,0.0
114.4375,-23.92578125,-39.0625,-28.3203125,-36.1328125,38.0859375,0.0
114.44140625,-22.4609375,-37.109375,-20.5078125,-20.99609375,115.72265625,0.0
114.4453125,-18.06640625,-32.71484375,-14.6484375,-23.92578125,95.703125,0.0
114.44921875,-24.4140625,-41.015625,-21.97265625,-34.66796875,-14.6484375,0.0
114.453125,-25.87890625,-35.15625,-25.390625,-38.57421875,17.08984375,0.0
114.45703125,-6.34765625,-28.80859375,-22.4609375,-38.57421875,59.08203125,0.0
114.4609375,-17.578125,-28.3203125,-21.97265625,-20.5078125,60.05859375,0.0
114.46484375,-35.15625,-26.3671875,-18.5546875,-25.390625,102.05078125,0.0
114.46875,-30.2734375,-32.71484375,-14.6484375,-43.45703125,90.33203125,0.0
114.47265625,-28.80859375,-28.80859375,-14.6484375,-35.15625,-10.25390625,0.0
114.4765625,-19.04296875,-25.390625,-16.6015625,-31.73828125,-46.38671875,0.0
114.48046875,-24.4140625,-19.53125,-31.25,-45.41015625,-28.3203125,0.0
114.484375,-29.296875,-7.8125,-33.203125,-41.50390625,-14.16015625,0.0
114.48828125,-20.99609375,-11.71875,-26.85546875,-20.99609375,-99.609375,0.0
114.4921875,-22.94921875,-5.859375,-27.34375,-25.390625,-10.7421875,0.0
114.49609375,-17.08984375,0.9765625,-28.3203125,-40.0390625,182.12890625,0.0
114.5,-10.25390625,-6.8359375,-17.578125,-33.69140625,82.51953125,0.0
114.50390625,-18.06640625,-15.13671875,-4.8828125,-32.71484375,-49.31640625,0.0
114.5078125,-26.3671875,-6.8359375,2.9296875,-43.9453125,19.53125,0.0
114.51171875,-31.73828125,9.765625,1.46484375,-41.50390625,75.1953125,0.0
114.515625,-46.875,9.765625,-16.6015625,-41.9921875,24.90234375,0.0
114.51953125,-48.828125,2.9296875,-20.5078125,-32.2265625,-9.27734375,0.0
114.5234375,-45.8984375,10.7421875,-20.5078125,-39.55078125,-63.96484375,0.0
114.52734375,-61.03515625,15.625,-31.73828125,-67.87109375,-41.50390625,0.0
114.53125,-54.6875,20.5078125,-45.8984375,-71.2890625,8.30078125,0.0
114.53515625,-43.45703125,27.34375,-37.59765625,-38.57421875,-54.6875,0.0
114.5390625,-39.0625,28.3203125,-20.01953125,-28.80859375,-60.05859375,0.0
114.54296875,-32.71484375,29.296875,-34.1796875,-57.6171875,44.921875,0.0
114.546875,-28.3203125,40.52734375,-35.64453125,-51.7578125,-6.8359375,0.0
114.55078125,-51.26953125,38.57421875,-21.484375,-45.8984375,-85.9375,0.0
114.5546875,-41.015625,31.73828125,-11.23046875,-40.0390625,4.8828125,0.0
114.55859375,-11.23046875,41.015625,-4.39453125,-33.69140625,3.90625,0.0
114.5625,-29.78515625,48.33984375,-14.6484375,-34.1796875,-32.71484375,0.0
114.56640625,-34.66796875,48.828125,-23.4375,-55.17578125,52.734375,0.0
114.5703125,-32.71484375,43.45703125,-22.4609375,-82.03125,17.578125,0.0
114.57421875,-45.8984375,35.15625,-28.3203125,-66.40625,-101.5625,0.0
114.578125,-48.828125,28.3203125,-32.71484375,-76.171875,-69.3359375,0.0
114.58203125,-37.59765625,27.83203125,-25.87890625,-79.1015625,18.06640625,0.0
114.5859375,-20.5078125,39.0625,-14.16015625,-45.8984375,7.8125,0.0
114.58984375,-37.59765625,27.34375,-20.01953125,-46.875,-19.04296875,0.0
114.59375,-45.8984375,3.41796875,-39.0625,-59.08203125,-4.39453125,0.0
114.59765625,-43.9453125,9.27734375,-34.66796875,-59.08203125,-38.57421875,0.0
114.6015625,-45.41015625,23.92578125,-27.34375,-54.6875,-36.1328125,0.0
114.60546875,-32.2265625,18.06640625,-31.25,-42.96875,-27.34375,0.0
114.609375,-40.0390625,4.8828125,-35.64453125,-41.015625,-5.859375,0.0
114.61328125,-57.12890625,0.0,-36.62109375,-35.64453125,-0.48828125,0.0
114.6171875,-69.3359375,-0.48828125,-40.52734375,-54.6875,-10.25390625,0.0
114.62109375,-68.359375,1.46484375,-44.921875,-66.89453125,-70.3125,0.0
114.625,-57.12890625,-11.71875,-43.45703125,-78.61328125,-68.84765625,0.0
114.62890625,-58.59375,-22.4609375,-43.9453125,-75.1953125,-43.45703125,0.0
114.6328125,-82.03125,-13.18359375,-51.26953125,-54.19921875,-33.203125,0.0
114.63671875,-81.54296875,-16.6015625,-48.828125,-43.9453125,-23.4375,0.0
114.640625,-68.84765625,-25.87890625,-49.8046875,-45.8984375,-66.40625,0.0
114.64453125,-78.125,-25.87890625,-51.26953125,-47.8515625,-47.36328125,0.0
114.6484375,-69.3359375,-29.78515625,-58.10546875,-62.5,-7.8125,0.0
114.65234375,-50.29296875,-30.2734375,-62.01171875,-68.359375,-16.11328125,0.0
114.65625,-50.78125,-33.69140625,-60.05859375,-77.63671875,-42.48046875,0.0
114.66015625,-53.7109375,-38.57421875,-61.03515625,-70.80078125,-177.24609375,0.0
114.6640625,-48.828125,-39.0625,-56.640625,-42.96875,-232.91015625,0.0
114.66796875,-44.921875,-43.45703125,-57.6171875,-46.875,-194.3359375,0.0
114.671875,-39.0625,-47.36328125,-51.7578125,-57.12890625,-98.14453125,0.0
114.67578125,-26.85546875,-41.9921875,-43.45703125,-38.57421875,16.6015625,0.0
114.6796875,-29.78515625,-35.15625,-51.7578125,-28.3203125,-29.78515625,0.0
114.68359375,-48.828125,-38.0859375,-47.8515625,-25.390625,-136.23046875,0.0
114.6875,-41.015625,-42.48046875,-34.66796875,-36.62109375,-92.7734375,0.0
114.69140625,-41.50390625,-43.45703125,-35.15625,-45.41015625,33.69140625,0.0
114.6953125,-37.109375,-40.0390625,-46.875,-44.43359375,-13.671875,0.0
114.69921875,-23.92578125,-31.73828125,-46.38671875,-27.83203125,9.765625,0.0
114.703125,-16.11328125,-25.87890625,-40.0390625,-9.765625,90.8203125,0.0
114.70703125,-18.06640625,-35.64453125,-41.015625,-12.20703125,68.359375,0.0
114.7109375,-13.18359375,-34.66796875,-41.50390625,-49.8046875,1.953125,0.0
114.71484375,11.23046875,-27.83203125,-38.57421875,-61.5234375,20.5078125,0.0
114.71875,1.46484375,-24.90234375,-31.73828125,-20.5078125,4.39453125,0.0
114.72265625,13.671875,-26.85546875,-27.34375,-1.953125,-74.21875,0.0
114.7265625,32.71484375,-32.2265625,-28.80859375,-7.32421875,4.8828125,0.0
114.73046875,24.90234375,-28.3203125,-29.296875,4.8828125,0.0,0.0
114.734375,7.8125,-24.4140625,-37.109375,9.765625,-62.5,0.0
114.73828125,0.0,-25.87890625,-37.109375,-6.8359375,-20.01953125,0.0
114.7421875,16.11328125,-19.04296875,-34.1796875,-29.296875,9.765625,0.0
114.74609375,18.06640625,-6.34765625,-43.45703125,-27.83203125,30.76171875,0.0
114.75,16.11328125,-0.9765625,-42.48046875,-28.3203125,-58.10546875,0.0
114.75390625,5.859375,1.953125,-41.015625,-26.3671875,-83.984375,0.0
114.7578125,-1.953125,7.8125,-50.78125,-48.828125,-85.44921875,0.0
114.76171875,4.8828125,12.6953125,-53.7109375,-62.98828125,-87.890625,0.0
114.765625,0.9765625,16.11328125,-51.26953125,-48.828125,-83.49609375,0.0
114.76953125,-4.8828125,22.94921875,-52.734375,-53.22265625,-136.71875,0.0
114.7734375,-5.37109375,30.2734375,-52.734375,-46.875,-151.85546875,0.0
114.77734375,0.9765625,20.99609375,-51.26953125,-38.57421875,-146.97265625,0.0
114.78125,7.8125,13.671875,-44.43359375,-38.0859375,-125.0,0.0
114.78515625,10.7421875,19.04296875,-38.0859375,-8.7890625,-57.6171875,0.0
114.7890625,12.20703125,20.99609375,-39.0625,-16.11328125,-7.8125,0.0
114.79296875,-2.44140625,13.671875,-42.96875,-39.55078125,-36.1328125,0.0
114.796875,-5.859375,11.23046875,-35.15625,-59.08203125,-69.82421875,0.0
114.80078125,-16.6015625,8.7890625,-31.73828125,-51.7578125,-32.2265625,0.0
114.8046875,-25.87890625,-1.953125,-42.48046875,-54.6875,14.6484375,0.0
114.80859375,-14.16015625,-5.859375,-30.76171875,-58.10546875,0.9765625,0.0
114.8125,-29.78515625,-7.32421875,-16.11328125,-54.19921875,-26.3671875,0.0
114.81640625,-29.296875,-14.16015625,-13.671875,-58.10546875,-28.80859375,0.0
114.8203125,-21.97265625,-21.97265625,-14.6484375,-53.7109375,-58.59375,0.0
114.82421875,-17.08984375,-39.0625,-15.625,-37.109375,-79.1015625,0.0
114.828125,-13.671875,-47.36328125,-20.99609375,-20.01953125,-14.6484375,0.0
114.83203125,-13.18359375,-49.31640625,-24.90234375,-37.59765625,59.5703125,0.0
114.8359375,-26.85546875,-52.734375,-20.99609375,-55.17578125,103.02734375,0.0
114.83984375,-38.0859375,-56.640625,-27.83203125,-48.33984375,90.8203125,0.0
114.84375,-45.41015625,-58.10546875,-42.48046875,-52.734375,27.34375,0.0
114.84765625,-41.50390625,-59.08203125,-41.9921875,-62.5,-24.4140625,0.0
114.8515625,-18.06640625,-66.40625,-28.3203125,-55.6640625,-91.796875,0.0
114.85546875,-15.625,-66.89453125,-29.78515625,-52.24609375,-137.20703125,0.0
114.859375,-24.90234375,-73.73046875,-41.015625,-53.22265625,-80.078125,0.0
114.86328125,-31.73828125,-79.58984375,-39.55078125,-39.55078125,-40.52734375,0.0
114.8671875,-32.71484375,-72.75390625,-30.2734375,-26.3671875,-51.26953125,0.0
114.87109375,-36.62109375,-74.21875,-44.921875,-43.45703125,-47.8515625,0.0
114.875,-45.41015625,-78.125,-64.94140625,-65.4296875,1.46484375,0.0
114.87890625,-25.390625,-75.1953125,-54.6875,-51.7578125,20.01953125,0.0
114.8828125,-14.16015625,-75.1953125,-38.57421875,-38.57421875,-94.7265625,0.0
114.88671875,-16.6015625,-70.80078125,-30.2734375,-34.66796875,-94.7265625,0.0
114.890625,-3.41796875,-66.89453125,-24.4140625,-20.5078125,4.8828125,0.0
114.89453125,-2.44140625,-63.4765625,-22.94921875,-30.2734375,23.92578125,0.0
114.8984375,19.53125,-60.05859375,-5.37109375,-12.6953125,2.44140625,0.0
114.90234375,36.1328125,-59.5703125,11.71875,17.08984375,-34.66796875,0.0
114.90625,15.625,-60.05859375,8.7890625,2.44140625,-30.2734375,0.0
114.91015625,23.4375,-64.94140625,6.8359375,13.18359375,-3.90625,0.0
114.9140625,31.73828125,-63.4765625,2.9296875,-1.46484375,-47.8515625,0.0
114.91796875,32.2265625,-60.05859375,2.44140625,-20.01953125,-52.24609375,0.0
114.921875,45.8984375,-61.5234375,19.53125,10.7421875,-57.12890625,0.0
114.92578125,32.71484375,-69.3359375,13.18359375,11.71875,-56.15234375,0.0
114.9296875,21.484375,-63.96484375,7.32421875,-9.765625,-20.5078125,0.0
114.93359375,40.0390625,-52.24609375,20.99609375,8.30078125,-49.8046875,0.0
114.9375,40.52734375,-55.17578125,29.296875,12.20703125,-81.54296875,0.0
114.94140625,29.78515625,-57.12890625,31.73828125,9.27734375,-76.66015625,0.0
114.9453125,24.4140625,-53.22265625,27.83203125,3.90625,-53.7109375,0.0
114.94921875,15.625,-51.7578125,25.390625,-7.32421875,-105.95703125,0.0
114.953125,21.97265625,-57.12890625,20.99609375,-3.41796875,-110.3515625,0.0
114.95703125,22.94921875,-63.4765625,16.11328125,3.90625,-53.7109375,0.0
114.9609375,17.578125,-54.6875,18.5546875,21.97265625,-74.70703125,0.0
114.96484375,8.7890625,-46.38671875,17.578125,10.7421875,-127.9296875,0.0
114.96875,6.34765625,-53.7109375,26.3671875,8.7890625,-117.67578125,0.0
114.97265625,9.765625,-55.17578125,28.3203125,3.90625,-52.24609375,0.0
114.9765625,25.87890625,-47.8515625,22.4609375,-16.11328125,22.94921875,0.0
114.98046875,22.4609375,-44.43359375,23.4375,-3.90625,-33.69140625,0.0
114.984375,-1.46484375,-50.29296875,11.23046875,-27.34375,-34.66796875,0.0
114.98828125,-14.6484375,-54.6875,5.859375,-46.875,-8.7890625,0.0
114.9921875,-20.5078125,-48.828125,4.8828125,-29.296875,-17.08984375,0.0
114.99609375,-6.34765625,-46.875,8.7890625,3.90625,55.6640625,0.0
115.0,7.32421875,-47.8515625,17.08984375,4.39453125,-7.32421875,0.0
115.00390625,0.48828125,-50.78125,13.18359375,-20.5078125,-59.5703125,0.0
115.0078125,-5.37109375,-46.38671875,10.7421875,-23.4375,-10.25390625,0.0
115.01171875,0.9765625,-55.17578125,14.16015625,-10.7421875,14.16015625,0.0
115.015625,-4.39453125,-55.17578125,-6.34765625,-6.34765625,-12.20703125,0.0
115.01953125,1.46484375,-39.55078125,-16.6015625,-6.8359375,-1.46484375,0.0
115.0234375,2.44140625,-40.52734375,-10.25390625,-28.80859375,-9.27734375,0.0
115.02734375,-5.37109375,-34.1796875,-12.6953125,-60.05859375,-63.96484375,0.0
115.03125,-6.8359375,-37.59765625,-15.625,-45.8984375,-24.90234375,0.0
115.03515625,-10.25390625,-43.45703125,-30.2734375,-49.31640625,-18.06640625,0.0
115.0390625,-12.6953125,-33.69140625,-43.45703125,-48.828125,30.2734375,0.0
115.04296875,-11.23046875,-37.59765625,-40.0390625,-25.390625,36.62109375,0.0
115.046875,-14.16015625,-42.96875,-40.0390625,-45.8984375,3.90625,0.0
115.05078125,-18.5546875,-40.52734375,-40.0390625,-62.01171875,-39.0625,0.0
115.0546875,-8.7890625,-39.0625,-18.5546875,-36.1328125,-39.55078125,0.0
115.05859375,5.859375,-44.43359375,-12.6953125,-27.83203125,-15.13671875,0.0
115.0625,-30.2734375,-48.33984375,-30.2734375,-53.22265625,-18.5546875,0.0
115.06640625,-48.33984375,-46.875,-35.15625,-42.48046875,-43.9453125,0.0
115.0703125,-23.92578125,-40.0390625,-24.4140625,-18.06640625,-44.921875,0.0
115.07421875,3.90625,-41.015625,-3.41796875,-14.16015625,-18.5546875,0.0
115.078125,-4.8828125,-44.921875,9.27734375,-0.48828125,-10.25390625,0.0
115.08203125,-10.7421875,-46.38671875,21.97265625,-9.765625,25.87890625,0.0
115.0859375,1.46484375,-48.33984375,22.94921875,-17.578125,-70.80078125,0.0
115.08984375,9.27734375,-41.50390625,18.06640625,-18.5546875,-45.8984375,0.0
115.09375,13.18359375,-47.36328125,37.59765625,13.18359375,41.015625,0.0
115.09765625,0.48828125,-40.52734375,39.0625,28.80859375,3.41796875,0.0
115.1015625,-4.39453125,-27.34375,36.62109375,9.27734375,9.765625,0.0
115.10546875,-3.90625,-33.69140625,41.9921875,7.8125,-65.91796875,0.0
115.109375,4.39453125,-42.96875,40.52734375,24.4140625,-90.33203125,0.0
115.11328125,4.8828125,-41.015625,38.0859375,22.94921875,-47.36328125,0.0
115.1171875,7.8125,-34.66796875,39.55078125,9.765625,-29.78515625,0.0
115.12109375,15.13671875,-33.69140625,40.0390625,3.90625,28.3203125,0.0
115.125,10.25390625,-31.73828125,27.34375,7.32421875,8.7890625,0.0
115.12890625,7.32421875,-37.109375,24.4140625,20.99609375,-32.71484375,0.0
115.1328125,13.671875,-35.15625,36.1328125,20.99609375,-60.546875,0.0
115.13671875,12.6953125,-32.2265625,37.59765625,0.0,-125.48828125,0.0
115.140625,11.71875,-34.1796875,34.1796875,7.8125,-77.1484375,0.0
115.14453125,-10.25390625,-33.203125,29.78515625,11.23046875,-64.453125,0.0
115.1484375,-5.37109375,-22.94921875,24.90234375,0.9765625,-87.890625,0.0
115.15234375,11.23046875,-23.92578125,17.08984375,4.8828125,-19.04296875,0.0
115.15625,0.48828125,-30.76171875,11.23046875,1.46484375,10.25390625,0.0
115.16015625,7.8125,-26.3671875,13.671875,10.7421875,9.27734375,0.0
115.1640625,18.5546875,-27.34375,17.578125,18.06640625,-30.2734375,0.0
115.16796875,14.16015625,-25.87890625,20.5078125,4.8828125,-38.0859375,0.0
115.171875,27.34375,-27.34375,27.34375,16.11328125,11.23046875,0.0
115.17578125,44.921875,-25.390625,23.92578125,15.13671875,49.8046875,0.0
115.1796875,57.6171875,-26.3671875,20.01953125,-5.859375,33.69140625,0.0
115.18359375,76.66015625,-29.78515625,29.296875,6.8359375,46.38671875,0.0
115.1875,73.2421875,-22.4609375,35.15625,16.11328125,36.62109375,0.0
115.19140625,73.73046875,-9.27734375,35.64453125,9.765625,22.4609375,0.0
115.1953125,41.015625,-4.39453125,29.296875,20.5078125,-75.1953125,0.0
115.19921875,29.78515625,-20.01953125,20.99609375,11.23046875,-124.0234375,0.0
115.203125,57.6171875,-20.01953125,29.78515625,21.484375,-33.69140625,0.0
115.20703125,78.125,-5.859375,41.9921875,48.828125,3.41796875,0.0
115.2109375,79.1015625,-1.953125,43.9453125,37.59765625,-33.69140625,0.0
115.21484375,42.48046875,-4.8828125,29.78515625,7.8125,-14.6484375,0.0
115.21875,21.97265625,-7.32421875,20.99609375,-13.671875,35.15625,0.0
115.22265625,23.4375,-4.39453125,25.87890625,-15.13671875,12.20703125,0.0
115.2265625,15.13671875,-6.8359375,30.2734375,-1.953125,-30.76171875,0.0
115.23046875,25.87890625,-21.97265625,30.2734375,2.44140625,-81.0546875,0.0
115.234375,19.53125,-22.4609375,20.5078125,0.48828125,-94.7265625,0.0
115.23828125,7.8125,-22.94921875,9.765625,-6.8359375,-74.70703125,0.0
115.2421875,18.06640625,-30.2734375,15.13671875,10.7421875,-47.36328125,0.0
115.24609375,1.46484375,-37.59765625,15.13671875,13.18359375,2.9296875,0.0
115.25,-8.30078125,-49.31640625,4.39453125,-1.953125,-66.89453125,0.0
115.25390625,-3.41796875,-45.41015625,0.9765625,6.8359375,-118.1640625,0.0
115.2578125,2.9296875,-43.45703125,10.25390625,-7.32421875,-35.15625,0.0
115.26171875,12.6953125,-53.7109375,18.06640625,-5.859375,-32.2265625,0.0
115.265625,16.6015625,-64.453125,7.32421875,-2.9296875,-91.796875,0.0
115.26953125,9.27734375,-69.3359375,-13.671875,-5.859375,-73.2421875,0.0
115.2734375,4.8828125,-71.2890625,-8.30078125,-7.8125,-24.4140625,0.0
115.27734375,13.18359375,-72.265625,-1.953125,-16.6015625,-37.59765625,0.0
115.28125,10.7421875,-75.1953125,-7.32421875,-27.83203125,-81.54296875,0.0
115.28515625,0.48828125,-83.0078125,-12.20703125,-20.01953125,-99.12109375,0.0
115.2890625,-13.18359375,-83.49609375,-12.20703125,-10.25390625,-115.234375,0.0
115.29296875,-22.94921875,-92.7734375,-4.8828125,-17.08984375,-66.89453125,0.0
115.296875,-7.8125,-98.14453125,-7.8125,-23.4375,19.04296875,0.0
115.30078125,-8.7890625,-100.5859375,-15.625,-9.765625,37.59765625,0.0
115.3046875,-19.04296875,-110.3515625,-28.3203125,-10.7421875,27.34375,0.0
115.30859375,-6.8359375,-118.1640625,-24.90234375,-32.2265625,-12.6953125,0.0
115.3125,-7.8125,-117.1875,-19.04296875,-37.59765625,-54.6875,0.0
115.31640625,-4.39453125,-111.328125,-10.25390625,-23.4375,-36.1328125,0.0
115.3203125,5.37109375,-109.86328125,3.41796875,-9.27734375,-22.94921875,0.0
115.32421875,-4.8828125,-114.74609375,-11.23046875,-6.34765625,-24.4140625,0.0
115.328125,-19.04296875,-115.234375,-15.13671875,-7.32421875,-31.25,0.0
115.33203125,-11.23046875,-108.3984375,3.90625,3.41796875,-21.97265625,0.0
115.3359375,7.32421875,-104.98046875,14.6484375,21.97265625,-54.19921875,0.0
115.33984375,7.32421875,-106.93359375,11.71875,4.39453125,-42.96875,0.0
115.34375,-0.9765625,-102.05078125,15.13671875,5.37109375,-0.9765625,0.0
115.34765625,15.13671875,-99.609375,30.76171875,28.3203125,2.9296875,0.0
115.3515625,10.25390625,-95.703125,25.87890625,22.94921875,8.7890625,0.0
115.35546875,2.9296875,-92.28515625,21.484375,34.1796875,-113.76953125,0.0
115.359375,21.484375,-86.42578125,28.80859375,35.64453125,-165.0390625,0.0
115.36328125,26.85546875,-88.8671875,34.1796875,20.5078125,-60.05859375,0.0
115.3671875,40.52734375,-73.2421875,42.96875,37.109375,-24.90234375,0.0
115.37109375,35.15625,-60.05859375,30.2734375,38.57421875,-68.359375,0.0
115.375,10.25390625,-70.3125,18.06640625,16.11328125,-34.1796875,0.0
115.37890625,-9.27734375,-65.4296875,11.23046875,6.34765625,-15.625,0.0
115.3828125,-10.25390625,-70.3125,4.8828125,7.8125,-87.40234375,0.0
115.38671875,-4.8828125,-62.98828125,4.39453125,0.0,-54.6875,0.0
115.390625,-5.37109375,-60.05859375,0.0,-7.8125,5.859375,0.0
115.39453125,16.6015625,-82.03125,7.32421875,3.90625,-67.3828125,0.0
115.3984375,6.34765625,-77.1484375,11.23046875,0.48828125,-43.9453125,0.0
115.40234375,1.46484375,-52.734375,10.7421875,14.16015625,-19.53125,0.0
115.40625,0.48828125,-52.734375,0.0,8.7890625,-37.59765625,0.0
115.41015625,-7.32421875,-53.7109375,-5.37109375,-6.8359375,-40.0390625,0.0
115.4140625,-9.27734375,-42.96875,-4.8828125,-4.39453125,-37.109375,0.0
115.41796875,-20.01953125,-53.7109375,-10.7421875,-7.32421875,-41.50390625,0.0
115.421875,-13.671875,-54.6875,-5.37109375,8.30078125,-0.48828125,0.0
115.42578125,-10.25390625,-43.45703125,-13.671875,13.18359375,36.62109375,0.0
115.4296875,-29.296875,-36.1328125,-26.3671875,-3.41796875,-1.953125,0.0
115.43359375,-45.8984375,-35.64453125,-32.2265625,-5.859375,-28.3203125,0.0
115.4375,-41.9921875,-44.921875,-30.2734375,4.39453125,-58.59375,0.0
115.44140625,-20.01953125,-54.19921875,-17.08984375,3.90625,-101.07421875,0.0
115.4453125,-32.71484375,-44.921875,-21.97265625,-15.13671875,-90.8203125,0.0
115.44921875,-30.2734375,-40.52734375,-29.78515625,-15.625,-110.3515625,0.0
115.453125,-24.90234375,-35.64453125,-31.25,-19.04296875,-130.859375,0.0
115.45703125,-35.15625,-7.32421875,-34.1796875,-26.85546875,-52.734375,0.0
115.4609375,-33.69140625,-11.23046875,-32.71484375,-27.34375,-39.0625,0.0
115.46484375,-27.34375,-11.23046875,-26.3671875,-6.8359375,-65.4296875,0.0
115.46875,-26.3671875,-11.71875,-24.4140625,-4.39453125,-26.85546875,0.0
115.47265625,-32.2265625,-9.27734375,-22.94921875,-16.11328125,-43.45703125,0.0
115.4765625,-13.18359375,-10.25390625,-11.23046875,-3.90625,-71.2890625,0.0
115.48046875,20.5078125,11.71875,4.39453125,23.4375,-53.7109375,0.0
115.484375,10.7421875,25.390625,6.34765625,19.04296875,-66.89453125,0.0
115.48828125,28.80859375,25.87890625,19.53125,19.04296875,-20.99609375,0.0
115.4921875,47.8515625,34.66796875,27.34375,40.52734375,-11.23046875,0.0
115.49609375,38.57421875,45.8984375,21.484375,34.66796875,-145.99609375,0.0
115.5,35.64453125,53.22265625,20.01953125,37.109375,-121.58203125,0.0
115.50390625,50.29296875,-40.52734375,17.08984375,48.33984375,-7.8125,0.0
115.5078125,60.546875,-34.1796875,20.99609375,23.4375,14.6484375,0.0
115.51171875,52.24609375,-31.25,26.85546875,9.765625,-35.64453125,0.0
115.515625,49.31640625,-36.1328125,30.76171875,29.78515625,-114.74609375,0.0
115.51953125,51.7578125,-38.57421875,26.85546875,39.0625,-82.51953125,0.0
115.5234375,48.828125,-27.83203125,24.90234375,24.90234375,-14.16015625,0.0
115.52734375,40.0390625,-32.71484375,26.85546875,13.671875,23.92578125,0.0
115.53125,18.5546875,-46.875,14.16015625,7.32421875,32.71484375,0.0
115.53515625,0.0,-38.57421875,0.0,2.9296875,26.3671875,0.0
115.5390625,-0.48828125,-28.3203125,5.37109375,3.41796875,9.765625,0.0
115.54296875,-18.06640625,-36.1328125,-9.765625,-23.92578125,-20.5078125,0.0
115.546875,-21.97265625,-42.48046875,-19.04296875,-31.73828125,7.8125,0.0
115.55078125,-10.25390625,-39.0625,-10.7421875,-16.6015625,60.546875,0.0
115.5546875,-11.23046875,-36.1328125,-15.13671875,-26.85546875,96.6796875,0.0
115.55859375,-10.7421875,-34.66796875,-23.4375,-33.203125,62.5,0.0
115.5625,-13.671875,-33.69140625,-26.3671875,-17.08984375,-10.7421875,0.0
115.56640625,-33.69140625,-33.69140625,-28.3203125,-25.87890625,-116.69921875,0.0
115.5703125,-5.37109375,-34.66796875,-23.92578125,-35.15625,-182.12890625,0.0
115.57421875,22.94921875,-39.0625,-14.6484375,-7.8125,-153.3203125,0.0
115.578125,13.18359375,-35.15625,-10.7421875,-18.5546875,-76.66015625,0.0
115.58203125,5.37109375,-38.0859375,-10.7421875,-25.87890625,-35.15625,0.0
115.5859375,-10.25390625,-41.50390625,-14.6484375,-22.94921875,-107.421875,0.0
115.58984375,-21.484375,-28.80859375,-18.06640625,-24.4140625,-110.83984375,0.0
115.59375,-10.7421875,-23.4375,-16.11328125,-18.06640625,-36.1328125,0.0
115.59765625,3.90625,-24.90234375,-9.765625,-13.18359375,43.9453125,0.0
115.6015625,16.11328125,-23.4375,4.39453125,-12.20703125,118.65234375,0.0
115.60546875,18.5546875,-28.3203125,11.71875,19.53125,89.84375,0.0
115.609375,31.25,-33.203125,13.18359375,28.80859375,21.97265625,0.0
115.61328125,34.66796875,-29.296875,-0.48828125,-4.39453125,14.16015625,0.0
115.6171875,43.45703125,-24.90234375,-4.39453125,-2.9296875,-19.04296875,0.0
115.62109375,55.6640625,-25.390625,3.90625,4.8828125,4.8828125,0.0
115.625,50.29296875,-31.25,-0.48828125,10.7421875,19.53125,0.0
115.62890625,49.8046875,-34.1796875,4.8828125,17.578125,-0.9765625,0.0
115.6328125,54.6875,-30.76171875,2.44140625,6.8359375,-15.13671875,0.0
115.63671875,38.0859375,-25.87890625,-0.9765625,-2.44140625,-0.9765625,0.0
115.640625,22.94921875,-24.4140625,4.39453125,5.37109375,52.24609375,0.0
115.64453125,26.3671875,-27.34375,8.7890625,23.92578125,9.27734375,0.0
115.6484375,24.4140625,-33.69140625,3.41796875,9.27734375,-5.859375,0.0
115.65234375,28.3203125,-33.69140625,-5.37109375,-13.18359375,-28.3203125,0.0
115.65625,19.04296875,-26.85546875,-14.16015625,-18.5546875,-174.8046875,0.0
115.66015625,9.765625,-23.4375,-27.34375,-30.76171875,-208.984375,0.0
115.6640625,17.578125,-18.5546875,-34.66796875,-37.109375,-56.15234375,0.0
115.66796875,4.8828125,-15.625,-51.7578125,-44.921875,6.34765625,0.0
115.671875,-2.9296875,-23.4375,-67.3828125,-64.94140625,-32.71484375,0.0
115.67578125,0.9765625,-26.3671875,-63.4765625,-64.453125,-36.1328125,0.0
115.6796875,0.9765625,-21.97265625,-56.640625,-60.05859375,-25.87890625,0.0
115.68359375,25.390625,-26.3671875,-59.08203125,-52.24609375,-4.39453125,0.0
115.6875,19.04296875,-29.78515625,-57.6171875,-30.2734375,0.9765625,0.0
115.69140625,0.0,-29.78515625,-44.43359375,-29.296875,-0.48828125,0.0
115.6953125,20.5078125,-24.90234375,-37.59765625,-53.7109375,-48.828125,0.0
115.69921875,20.01953125,-24.4140625,-38.57421875,-75.68359375,-26.85546875,0.0
115.703125,-15.13671875,-30.2734375,-36.1328125,-68.84765625,41.50390625,0.0
115.70703125,-14.16015625,-27.83203125,-36.1328125,-64.94140625,27.83203125,0.0
115.7109375,-2.9296875,-20.99609375,-33.69140625,-48.828125,-11.23046875,0.0
115.71484375,10.7421875,-26.85546875,-23.4375,-29.78515625,27.83203125,0.0
115.71875,33.69140625,-42.96875,-22.94921875,-46.875,1.953125,0.0
115.72265625,9.27734375,-40.52734375,-25.390625,-58.59375,-67.87109375,0.0
115.7265625,-6.8359375,-26.3671875,-20.01953125,-49.31640625,-7.32421875,0.0
115.73046875,3.90625,-28.3203125,-14.6484375,-46.875,-54.6875,0.0
115.734375,6.34765625,-25.87890625,-3.90625,-36.1328125,-86.42578125,0.0
115.73828125,20.5078125,-20.01953125,8.30078125,-15.625,-13.18359375,0.0
115.7421875,14.6484375,-25.390625,6.8359375,-4.8828125,-13.671875,0.0
115.74609375,0.9765625,-30.2734375,12.6953125,-4.39453125,-48.828125,0.0
115.75,7.8125,-36.62109375,27.34375,9.27734375,-101.07421875,0.0
115.75390625,21.484375,-31.25,37.109375,12.6953125,-206.54296875,0.0
115.7578125,27.34375,-23.92578125,45.41015625,27.83203125,-214.84375,0.0
115.76171875,32.71484375,-27.83203125,44.921875,30.2734375,-124.51171875,0.0
115.765625,44.921875,-26.85546875,44.921875,28.3203125,-90.33203125,0.0
115.76953125,13.671875,-27.83203125,45.8984375,39.55078125,-104.98046875,0.0
115.7734375,6.34765625,-23.4375,52.734375,45.8984375,-110.83984375,0.0
115.77734375,30.2734375,-23.92578125,51.7578125,27.34375,-41.9921875,0.0
115.78125,17.08984375,-30.2734375,44.921875,14.6484375,5.37109375,0.0
115.78515625,18.5546875,-28.80859375,40.0390625,28.3203125,55.17578125,0.0
115.7890625,25.87890625,-28.3203125,36.62109375,35.15625,72.265625,0.0
115.79296875,13.18359375,-31.25,35.64453125,8.7890625,32.2265625,0.0
115.796875,7.8125,-33.69140625,37.59765625,-11.71875,52.24609375,0.0
115.80078125,6.34765625,-30.76171875,41.50390625,-1.953125,80.56640625,0.0
115.8046875,1.46484375,-23.4375,31.25,-9.765625,40.0390625,0.0
115.80859375,-6.34765625,-24.90234375,16.11328125,-24.90234375,-96.19140625,0.0
115.8125,-12.20703125,-32.71484375,9.765625,-24.90234375,-67.3828125,0.0
115.81640625,-10.7421875,-29.78515625,-1.46484375,-35.64453125,105.95703125,0.0
115.8203125,-12.20703125,-20.01953125,-2.9296875,-35.15625,128.41796875,0.0
115.82421875,-20.99609375,-26.85546875,-1.953125,-29.296875,20.5078125,0.0
115.828125,-21.484375,-37.59765625,-8.7890625,-37.59765625,1.46484375,0.0
115.83203125,-7.32421875,-36.1328125,4.8828125,-15.625,28.3203125,0.0
115.8359375,-19.53125,-25.87890625,3.41796875,-18.06640625,-24.4140625,0.0
115.83984375,-36.1328125,-23.4375,-20.99609375,-40.0390625,-41.9921875,0.0
115.84375,-46.875,-28.80859375,-24.90234375,-32.71484375,-39.0625,0.0
115.84765625,-38.57421875,-22.4609375,-18.5546875,-38.57421875,-65.91796875,0.0
115.8515625,-9.765625,-14.6484375,-8.7890625,-28.80859375,-95.21484375,0.0
115.85546875,-34.66796875,-12.20703125,-3.90625,-2.9296875,-125.48828125,0.0
115.859375,-42.48046875,-20.01953125,-11.71875,-31.73828125,-99.12109375,0.0
115.86328125,-25.87890625,-28.3203125,-11.23046875,-51.7578125,-6.8359375,0.0
115.8671875,-30.76171875,-26.3671875,-5.859375,-29.78515625,-21.484375,0.0
115.87109375,-36.62109375,-29.78515625,-9.27734375,-36.62109375,-99.609375,0.0
115.875,-41.015625,-34.66796875,-18.06640625,-51.7578125,-64.94140625,0.0
115.87890625,-23.4375,-33.69140625,-24.4140625,-41.9921875,-33.203125,0.0
115.8828125,-20.5078125,-30.76171875,-29.296875,-43.9453125,-99.12109375,0.0
115.88671875,-29.296875,-31.25,-40.52734375,-53.7109375,-133.7890625,0.0
115.890625,-27.34375,-34.1796875,-44.921875,-54.6875,-83.49609375,0.0
115.89453125,-19.53125,-34.66796875,-38.57421875,-40.0390625,55.6640625,0.0
115.8984375,-36.1328125,-29.296875,-39.55078125,-42.96875,45.41015625,0.0
115.90234375,-41.015625,-35.15625,-41.9921875,-50.29296875,-110.83984375,0.0
115.90625,-33.203125,-42.48046875,-41.50390625,-45.41015625,-77.63671875,0.0
115.91015625,-19.04296875,-37.109375,-35.64453125,-53.22265625,-33.69140625,0.0
115.9140625,-14.16015625,-32.71484375,-38.0859375,-56.640625,-63.4765625,0.0
115.91796875,-21.97265625,-32.2265625,-42.48046875,-55.6640625,-22.4609375,0.0
115.921875,-5.37109375,-32.2265625,-39.0625,-36.1328125,-36.1328125,0.0
115.92578125,-10.7421875,-33.203125,-35.15625,-20.99609375,-11.71875,0.0
115.9296875,-14.16015625,-29.78515625,-36.1328125,-30.76171875,42.48046875,0.0
115.93359375,4.8828125,-29.296875,-38.0859375,-35.15625,-16.6015625,0.0
115.9375,11.23046875,-39.0625,-35.64453125,-28.80859375,-54.19921875,0.0
115.94140625,-3.41796875,-33.203125,-34.1796875,-36.62109375,-84.47265625,0.0
115.9453125,-13.18359375,-33.203125,-37.109375,-46.875,-93.26171875,0.0
115.94921875,4.39453125,-33.203125,-33.69140625,-51.7578125,2.9296875,0.0
115.953125,3.41796875,-36.1328125,-41.015625,-58.59375,43.45703125,0.0
115.95703125,13.671875,-40.52734375,-40.52734375,-32.71484375,-38.57421875,0.0
115.9609375,38.0859375,-33.203125,-24.90234375,-14.16015625,-6.8359375,0.0
115.96484375,35.64453125,-33.69140625,-25.87890625,-29.296875,67.3828125,0.0
115.96875,0.9765625,-31.73828125,-47.36328125,-64.453125,17.578125,0.0
115.97265625,-17.578125,-28.80859375,-64.453125,-74.21875,-2.9296875,0.0
115.9765625,-12.6953125,-28.80859375,-66.89453125,-57.6171875,-1.46484375,0.0
115.98046875,-0.48828125,-27.34375,-68.84765625,-48.33984375,2.9296875,0.0
115.984375,1.46484375,-30.2734375,-72.265625,-47.8515625,52.734375,0.0
115.98828125,-12.20703125,-29.78515625,-63.96484375,-63.96484375,67.87109375,0.0
115.9921875,-13.671875,-28.80859375,-55.6640625,-41.50390625,-43.45703125,0.0
115.99609375,-5.859375,-31.25,-50.29296875,-36.62109375,-108.3984375,0.0
116.0,-0.9765625,-33.69140625,-44.43359375,-47.8515625,-44.921875,0.0
116.00390625,-8.30078125,-39.0625,-34.1796875,-54.6875,5.859375,0.0
116.0078125,-9.765625,-34.66796875,-33.203125,-41.015625,24.90234375,0.0
116.01171875,-3.41796875,-32.2265625,-31.73828125,-10.25390625,-86.42578125,0.0
116.015625,3.90625,-32.71484375,-15.625,-7.32421875,-147.94921875,0.0
116.01953125,1.46484375,-27.83203125,-10.7421875,-10.25390625,-97.65625,0.0
116.0234375,-12.20703125,-25.390625,-24.4140625,-14.6484375,-62.01171875,0.0
116.02734375,-7.8125,-30.76171875,-23.4375,-30.2734375,-35.15625,0.0
116.03125,2.9296875,-37.59765625,-9.765625,-11.23046875,-86.9140625,0.0
116.03515625,6.8359375,-38.0859375,-6.8359375,3.41796875,-111.328125,0.0
116.0390625,15.625,-32.2265625,-3.90625,0.9765625,-59.5703125,0.0
116.04296875,15.625,-35.15625,0.48828125,4.39453125,-57.6171875,0.0
116.046875,13.18359375,-43.45703125,-6.34765625,-2.9296875,-46.38671875,0.0
116.05078125,31.73828125,-39.0625,-2.9296875,0.0,12.6953125,0.0
116.0546875,32.2265625,-31.73828125,4.8828125,4.39453125,-1.46484375,0.0
116.05859375,4.39453125,-36.1328125,-8.30078125,-2.9296875,-35.64453125,0.0
116.0625,-15.13671875,-40.52734375,-20.99609375,-16.6015625,-92.7734375,0.0
116.06640625,-14.6484375,-39.55078125,-23.92578125,-29.296875,-120.60546875,0.0
116.0703125,4.39453125,-34.66796875,-26.3671875,-16.6015625,-55.6640625,0.0
116.07421875,-12.20703125,-35.64453125,-26.85546875,-16.11328125,-49.31640625,0.0
116.078125,-10.7421875,-33.69140625,-25.390625,-15.13671875,-75.68359375,0.0
116.08203125,9.765625,-33.203125,-16.11328125,11.71875,-96.19140625,0.0
116.0859375,7.32421875,-32.2265625,-2.9296875,-2.44140625,-174.8046875,0.0
116.08984375,14.6484375,-32.2265625,3.41796875,-20.5078125,-142.578125,0.0
116.09375,20.01953125,-35.64453125,11.23046875,-15.13671875,-14.6484375,0.0
116.09765625,27.34375,-33.69140625,21.484375,-0.48828125,13.671875,0.0
116.1015625,35.64453125,-32.71484375,31.25,9.27734375,-5.859375,0.0
116.10546875,37.109375,-36.62109375,35.64453125,8.30078125,0.48828125,0.0
116.109375,27.34375,-40.0390625,38.0859375,17.578125,-50.29296875,0.0
116.11328125,10.7421875,-33.69140625,32.2265625,17.578125,-97.65625,0.0
116.1171875,27.34375,-29.296875,36.62109375,25.390625,-84.9609375,0.0
116.12109375,32.71484375,-33.69140625,51.26953125,42.96875,-91.796875,0.0
116.125,20.5078125,-33.203125,50.78125,25.87890625,-136.23046875,0.0
116.12890625,17.578125,-30.76171875,44.921875,6.8359375,-171.875,0.0
116.1328125,14.16015625,-31.25,31.25,4.8828125,-150.390625,0.0
116.13671875,19.53125,-23.4375,13.671875,7.8125,-29.78515625,0.0
116.140625,16.6015625,-31.25,14.16015625,4.39453125,1.953125,0.0
116.14453125,24.90234375,-40.0390625,21.484375,1.953125,-52.24609375,0.0
116.1484375,8.7890625,-30.76171875,6.8359375,-12.6953125,11.23046875,0.0
116.15234375,-9.27734375,-29.296875,6.8359375,-6.8359375,112.79296875,0.0
116.15625,4.8828125,-35.15625,15.13671875,17.08984375,47.8515625,0.0
116.16015625,11.71875,-33.203125,4.8828125,3.90625,-27.83203125,0.0
116.1640625,20.99609375,-29.78515625,11.23046875,-2.9296875,8.30078125,0.0
116.16796875,47.36328125,-34.1796875,20.99609375,7.8125,-8.30078125,0.0
116.171875,45.41015625,-33.203125,14.6484375,11.71875,15.625,0.0
116.17578125,34.66796875,-28.80859375,1.46484375,-11.23046875,29.296875,0.0
116.1796875,34.66796875,-27.34375,-2.44140625,-11.71875,-82.03125,0.0
116.18359375,28.3203125,-27.83203125,-5.859375,6.34765625,-61.5234375,0.0
116.1875,14.6484375,-36.1328125,-14.16015625,4.39453125,57.12890625,0.0
116.19140625,-1.46484375,-38.0859375,-15.625,-20.99609375,49.31640625,0.0
116.1953125,17.08984375,-28.80859375,-3.90625,-18.5546875,46.38671875,0.0
116.19921875,34.1796875,-28.3203125,4.39453125,-8.30078125,-40.0390625,0.0
116.203125,34.1796875,-33.69140625,0.9765625,1.953125,-97.65625,0.0
116.20703125,32.71484375,-27.83203125,-1.953125,-3.41796875,-88.8671875,0.0
116.2109375,17.578125,-19.53125,-2.9296875,-6.34765625,-83.0078125,0.0
116.21484375,24.90234375,-18.5546875,2.44140625,-0.48828125,-55.6640625,0.0
116.21875,31.25,-19.53125,-0.9765625,-4.8828125,-104.00390625,0.0
116.22265625,21.484375,-17.08984375,-3.41796875,6.8359375,-130.37109375,0.0
116.2265625,7.8125,-7.32421875,-4.39453125,-4.8828125,-70.80078125,0.0
116.23046875,6.34765625,-12.20703125,-2.44140625,-9.765625,-68.359375,0.0
116.234375,27.83203125,-10.7421875,2.9296875,14.16015625,-50.29296875,0.0
116.23828125,24.90234375,-2.44140625,-8.30078125,-11.23046875,11.23046875,0.0
116.2421875,-2.9296875,-1.46484375,-33.203125,-35.15625,24.4140625,0.0
116.24609375,-29.78515625,-0.48828125,-47.36328125,-27.34375,24.90234375,0.0
116.25,-41.9921875,1.953125,-50.29296875,-51.7578125,7.8125,0.0
116.25390625,-26.3671875,5.859375,-62.01171875,-72.265625,-19.04296875,0.0
116.2578125,-22.94921875,1.953125,-79.58984375,-79.1015625,-35.64453125,0.0
116.26171875,-14.16015625,-4.39453125,-65.91796875,-64.94140625,-59.5703125,0.0
116.265625,5.37109375,-13.18359375,-36.62109375,-38.57421875,-18.5546875,0.0
116.26953125,2.9296875,-8.30078125,-30.76171875,-30.2734375,-63.4765625,0.0
116.2734375,5.859375,2.9296875,-30.76171875,-18.5546875,-183.59375,0.0
116.27734375,3.90625,-8.7890625,-31.25,-10.7421875,-152.83203125,0.0
116.28125,-16.6015625,-18.06640625,-33.69140625,-53.7109375,-80.078125,0.0
116.28515625,-12.20703125,-15.625,-29.296875,-69.3359375,-9.765625,0.0
116.2890625,-19.53125,-9.765625,-31.25,-59.5703125,-24.4140625,0.0
116.29296875,-11.71875,-8.7890625,-29.296875,-58.10546875,-19.53125,0.0
116.296875,-7.32421875,-9.765625,-34.1796875,-47.8515625,43.9453125,0.0
116.30078125,-11.71875,-10.25390625,-28.80859375,-19.53125,-4.39453125,0.0
116.3046875,-4.39453125,-15.625,-10.7421875,-14.16015625,33.69140625,0.0
116.30859375,8.7890625,-18.5546875,-15.13671875,-30.76171875,0.9765625,0.0
116.3125,9.765625,-26.85546875,-23.92578125,-37.59765625,-66.89453125,0.0
116.31640625,8.30078125,-26.3671875,-32.2265625,-40.0390625,-46.875,0.0
116.3203125,8.30078125,-14.6484375,-46.875,-52.734375,-69.3359375,0.0
116.32421875,1.953125,-18.5546875,-44.921875,-53.22265625,17.578125,0.0
116.328125,10.25390625,-31.73828125,-47.36328125,-50.78125,62.98828125,0.0
116.33203125,1.953125,-33.69140625,-57.12890625,-66.89453125,23.92578125,0.0
116.3359375,-12.20703125,-27.34375,-54.19921875,-65.4296875,-44.921875,0.0
116.33984375,-7.32421875,-26.85546875,-43.45703125,-43.9453125,-113.76953125,0.0
116.34375,1.953125,-30.76171875,-33.203125,-28.80859375,-100.5859375,0.0
116.34765625,9.27734375,-28.3203125,-27.34375,-28.80859375,-17.578125,0.0
116.3515625,17.578125,-26.3671875,-21.97265625,-10.7421875,52.24609375,0.0
116.35546875,6.8359375,-30.2734375,-13.671875,-2.9296875,37.109375,0.0
116.359375,-6.8359375,-36.1328125,-18.5546875,-29.296875,-30.76171875,0.0
116.36328125,9.27734375,-41.9921875,-18.5546875,-35.15625,-75.1953125,0.0
116.3671875,19.53125,-35.15625,-15.13671875,-20.01953125,-48.828125,0.0
116.37109375,26.85546875,-36.62109375,-11.71875,-8.7890625,-55.6640625,0.0
116.375,33.69140625,-41.50390625,-9.765625,-12.6953125,-109.375,0.0
116.37890625,33.69140625,-33.69140625,-11.23046875,-11.71875,-49.31640625,0.0
116.3828125,32.71484375,-40.0390625,-2.44140625,-6.8359375,6.34765625,0.0
116.38671875,36.1328125,-38.57421875,-1.46484375,-7.8125,7.32421875,0.0
116.390625,26.3671875,-36.1328125,-5.37109375,-12.20703125,-13.671875,0.0
116.39453125,17.08984375,-41.015625,-9.765625,-7.8125,3.90625,0.0
116.3984375,24.90234375,-37.109375,-10.7421875,-2.44140625,19.04296875,0.0
116.40234375,45.8984375,-36.1328125,-5.37109375,0.0,-69.82421875,0.0
116.40625,62.5,-43.9453125,-0.9765625,-0.48828125,-76.66015625,0.0
116.41015625,46.38671875,-35.15625,-0.9765625,2.9296875,-31.73828125,0.0
116.4140625,31.73828125,-27.83203125,-23.92578125,-13.671875,-12.20703125,0.0
116.41796875,36.1328125,-30.2734375,-39.0625,-35.15625,5.37109375,0.0
116.421875,49.8046875,-37.59765625,-35.15625,-27.34375,-41.015625,0.0
116.42578125,47.8515625,-39.55078125,-37.109375,-11.23046875,-18.06640625,0.0
116.4296875,36.62109375,-34.66796875,-21.97265625,-9.765625,34.66796875,0.0
116.43359375,21.484375,-30.76171875,-9.765625,-35.64453125,25.87890625,0.0
116.4375,12.6953125,-26.3671875,-15.625,-38.57421875,-5.37109375,0.0
116.44140625,18.06640625,-26.85546875,-14.6484375,-21.97265625,-44.43359375,0.0
116.4453125,4.8828125,-37.109375,-24.90234375,-38.57421875,-64.453125,0.0
116.44921875,-4.39453125,-35.15625,-33.203125,-45.41015625,-26.3671875,0.0
116.453125,-1.46484375,-31.25,-24.4140625,-30.76171875,-54.19921875,0.0
116.45703125,-25.87890625,-34.66796875,-21.97265625,-31.25,-144.53125,0.0
116.4609375,-28.80859375,-24.90234375,-21.484375,-27.83203125,-104.4921875,0.0
116.46484375,-21.97265625,-29.78515625,-23.92578125,-27.34375,-83.49609375,0.0
116.46875,-33.203125,-41.9921875,-26.3671875,-28.3203125,-96.6796875,0.0
116.47265625,-38.57421875,-43.45703125,-31.25,-39.0625,41.9921875,0.0
116.4765625,-45.8984375,-41.50390625,-37.59765625,-50.29296875,73.73046875,0.0
116.48046875,-44.921875,-39.0625,-32.71484375,-38.57421875,11.23046875,0.0
116.484375,-47.8515625,-36.62109375,-23.92578125,-29.78515625,-15.13671875,0.0
116.48828125,-39.0625,-37.109375,-20.5078125,-32.2265625,-18.5546875,0.0
116.4921875,-32.71484375,-37.109375,-17.08984375,-32.71484375,-99.609375,0.0
116.49609375,-27.34375,-35.15625,-7.32421875,-13.671875,-87.890625,0.0
116.5,-24.90234375,-35.64453125,-4.39453125,-5.859375,-21.484375,0.0
116.50390625,-31.25,-36.62109375,-18.5546875,-30.2734375,-77.63671875,0.0
116.5078125,-21.97265625,-32.2265625,-17.578125,-35.64453125,-55.6640625,0.0
116.51171875,-37.109375,-34.66796875,-16.6015625,-34.66796875,28.80859375,0.0
116.515625,-50.29296875,-36.62109375,-28.80859375,-51.7578125,60.546875,0.0
116.51953125,-39.55078125,-40.52734375,-20.99609375,-51.7578125,57.12890625,0.0
116.5234375,-17.08984375,-46.875,-1.46484375,-35.15625,87.890625,0.0
116.52734375,-13.671875,-41.9921875,-4.39453125,-31.73828125,66.89453125,0.0
116.53125,-11.23046875,-35.15625,-17.578125,-32.71484375,58.10546875,0.0
116.53515625,-16.11328125,-33.69140625,-14.16015625,-41.50390625,95.21484375,0.0
116.5390625,-28.80859375,-35.15625,-13.671875,-49.31640625,15.625,0.0
116.54296875,-12.6953125,-35.15625,-10.7421875,-41.015625,-64.453125,0.0
116.546875,-8.7890625,-33.203125,-11.23046875,-36.1328125,-18.5546875,0.0
116.55078125,-9.765625,-33.69140625,-8.7890625,-18.5546875,-32.2265625,0.0
116.5546875,-23.4375,-29.78515625,-2.44140625,-19.53125,-58.59375,0.0
116.55859375,-23.4375,-29.296875,-3.90625,-32.71484375,-105.95703125,0.0
116.5625,-15.13671875,-36.62109375,1.953125,-40.0390625,-104.4921875,0.0
116.56640625,-29.78515625,-34.1796875,7.32421875,-51.7578125,2.44140625,0.0
116.5703125,-13.671875,-28.3203125,9.27734375,-47.8515625,62.5,0.0
116.57421875,2.44140625,-32.2265625,4.8828125,-38.57421875,-21.484375,0.0
116.578125,-4.39453125,-29.296875,-6.34765625,-38.0859375,-38.0859375,0.0
116.58203125,5.37109375,-29.78515625,-9.765625,-33.203125,53.7109375,0.0
116.5859375,11.23046875,-33.203125,0.0,-15.13671875,-18.06640625,0.0
116.58984375,12.6953125,-30.76171875,6.8359375,-16.11328125,-49.8046875,0.0
116.59375,14.16015625,-28.3203125,6.8359375,-30.76171875,22.94921875,0.0
116.59765625,8.7890625,-23.92578125,7.8125,-27.34375,-5.37109375,0.0
116.6015625,15.625,-24.90234375,4.39453125,-16.11328125,8.30078125,0.0
116.60546875,29.78515625,-37.109375,-1.953125,-21.484375,-40.52734375,0.0
116.609375,14.6484375,-41.50390625,-8.7890625,-27.83203125,-69.3359375,0.0
116.61328125,17.578125,-47.36328125,-10.25390625,-4.8828125,31.25,0.0
116.6171875,26.3671875,-58.10546875,-9.765625,2.9296875,-14.6484375,0.0
116.62109375,19.04296875,-55.6640625,-10.25390625,-20.99609375,-39.55078125,0.0
116.625,28.3203125,-54.19921875,-8.7890625,-38.57421875,-35.64453125,0.0
116.62890625,22.94921875,-62.5,-25.87890625,-41.9921875,-104.00390625,0.0
116.6328125,19.04296875,-62.98828125,-47.36328125,-58.59375,-83.984375,0.0
116.63671875,35.64453125,-61.5234375,-44.921875,-55.17578125,-89.35546875,0.0
116.640625,38.0859375,-61.5234375,-26.85546875,-29.78515625,-82.03125,0.0
116.64453125,27.34375,-60.546875,-9.27734375,-18.06640625,-70.80078125,0.0
116.6484375,15.625,-53.7109375,-14.16015625,-24.90234375,-102.05078125,0.0
116.65234375,4.8828125,-47.8515625,-18.5546875,-20.5078125,-107.91015625,0.0
116.65625,-1.46484375,-56.15234375,-20.5078125,-19.04296875,-41.50390625,0.0
116.66015625,7.32421875,-55.17578125,-26.85546875,-23.4375,0.0,0.0
116.6640625,-0.48828125,-50.29296875,-22.4609375,-14.6484375,-68.84765625,0.0
116.66796875,-14.6484375,-53.22265625,-21.97265625,-25.390625,-45.8984375,0.0
116.671875,-5.859375,-49.8046875,-25.87890625,-45.41015625,4.39453125,0.0
116.67578125,-10.25390625,-49.31640625,-22.4609375,-40.52734375,-16.11328125,0.0
116.6796875,-18.06640625,-41.50390625,-14.6484375,-25.390625,-86.9140625,0.0
116.68359375,-7.8125,-40.0390625,-9.27734375,-10.25390625,-93.75,0.0
116.6875,-14.6484375,-51.26953125,-12.6953125,-19.04296875,0.9765625,0.0
116.69140625,-6.8359375,-42.96875,-20.01953125,-27.83203125,14.16015625,0.0
116.6953125,-1.953125,-31.73828125,-16.6015625,-32.2265625,-38.57421875,0.0
116.69921875,-4.8828125,-35.64453125,-5.859375,-27.34375,-21.97265625,0.0
116.703125,-4.8828125,-40.0390625,-4.39453125,-20.5078125,-11.71875,0.0
116.70703125,-11.71875,-36.62109375,-11.23046875,-8.30078125,-44.921875,0.0
116.7109375,4.8828125,-45.8984375,-8.30078125,-1.953125,-77.1484375,0.0
116.71484375,6.34765625,-45.8984375,-9.765625,-16.11328125,-28.80859375,0.0
116.71875,3.90625,-38.57421875,-12.20703125,-36.1328125,13.671875,0.0
116.72265625,6.8359375,-15.625,-25.390625,-47.36328125,31.25,0.0
116.7265625,5.37109375,-9.27734375,-33.69140625,-44.43359375,49.8046875,0.0
116.73046875,20.99609375,-0.48828125,-16.6015625,-20.5078125,11.71875,0.0
116.734375,3.41796875,-25.87890625,-13.671875,-21.97265625,-30.2734375,0.0
116.73828125,-6.34765625,-41.015625,-18.5546875,-43.9453125,-65.4296875,0.0
116.7421875,16.6015625,-14.16015625,-15.13671875,-39.0625,-81.0546875,0.0
116.74609375,17.08984375,-0.9765625,-12.20703125,-31.73828125,26.3671875,0.0
116.75,19.53125,-5.37109375,-20.99609375,-35.64453125,31.25,0.0
116.75390625,15.625,-10.25390625,-27.83203125,-24.4140625,-43.9453125,0.0
116.7578125,0.9765625,-27.83203125,-29.296875,-18.06640625,-54.19921875,0.0
116.76171875,2.9296875,-38.0859375,-34.1796875,-27.34375,-26.85546875,0.0
116.765625,-8.7890625,-35.64453125,-45.41015625,-43.45703125,60.05859375,0.0
116.76953125,-11.71875,-40.0390625,-46.875,-51.26953125,-8.7890625,0.0
116.7734375,0.48828125,-31.73828125,-45.41015625,-53.22265625,-93.26171875,0.0
116.77734375,17.08984375,-30.2734375,-43.9453125,-42.96875,-101.07421875,0.0
116.78125,27.34375,-37.109375,-34.1796875,-37.59765625,-88.37890625,0.0
116.78515625,22.4609375,-34.1796875,-21.97265625,-29.296875,-94.7265625,0.0
116.7890625,22.94921875,-29.78515625,-27.34375,-25.87890625,-95.703125,0.0
116.79296875,30.2734375,-33.69140625,-43.45703125,-38.57421875,-28.3203125,0.0
116.796875,51.26953125,-32.2265625,-47.8515625,-44.43359375,-37.59765625,0.0
116.80078125,26.85546875,-31.25,-52.734375,-48.33984375,-67.3828125,0.0
116.8046875,25.87890625,-30.2734375,-49.8046875,-55.6640625,-36.1328125,0.0
116.80859375,51.7578125,-28.3203125,-43.45703125,-58.10546875,-49.8046875,0.0
116.8125,63.4765625,-33.203125,-41.50390625,-51.7578125,-101.5625,0.0
116.81640625,78.125,-29.296875,-45.41015625,-28.3203125,-57.12890625,0.0
116.8203125,74.21875,-21.97265625,-48.33984375,-18.5546875,-43.45703125,0.0
116.82421875,45.8984375,-26.3671875,-43.9453125,-47.8515625,-176.26953125,0.0
116.828125,20.01953125,-25.390625,-33.69140625,-60.546875,-155.2734375,0.0
116.83203125,7.32421875,-24.90234375,-37.109375,-76.171875,18.06640625,0.0
116.8359375,14.6484375,-26.85546875,-46.875,-95.703125,71.77734375,0.0
116.83984375,43.45703125,-26.85546875,-45.41015625,-86.9140625,32.71484375,0.0
116.84375,38.0859375,-35.15625,-48.828125,-105.95703125,-39.55078125,0.0
116.84765625,32.2265625,-33.69140625,-45.8984375,-120.60546875,-53.22265625,0.0
116.8515625,42.96875,-29.78515625,-39.0625,-93.26171875,14.6484375,0.0
116.85546875,56.15234375,-30.76171875,-40.0390625,-83.984375,-38.0859375,0.0
116.859375,95.21484375,-32.71484375,-18.06640625,-53.22265625,-51.26953125,0.0
116.86328125,129.8828125,-32.2265625,3.90625,-21.484375,-12.6953125,0.0
116.8671875,138.671875,-28.80859375,-4.8828125,-49.31640625,-34.66796875,0.0
116.87109375,145.5078125,-24.90234375,-16.6015625,-60.546875,-24.4140625,0.0
116.875,160.15625,-23.92578125,-29.78515625,-52.24609375,36.1328125,0.0
116.87890625,171.875,-26.3671875,-31.25,-41.015625,7.32421875,0.0
116.8828125,175.78125,-20.5078125,-13.671875,-27.83203125,-61.03515625,0.0
116.88671875,162.109375,-18.5546875,-3.41796875,-12.6953125,-101.5625,0.0
116.890625,156.25,-26.3671875,-1.953125,-5.859375,-118.65234375,0.0
116.89453125,157.71484375,-20.99609375,-1.953125,-12.6953125,-59.08203125,0.0
116.8984375,162.59765625,-4.39453125,-3.90625,-23.92578125,-12.20703125,0.0
116.90234375,149.90234375,-6.34765625,-2.9296875,-35.64453125,-32.71484375,0.0
116.90625,131.8359375,-11.71875,6.34765625,-37.109375,-90.33203125,0.0
116.91015625,123.046875,-13.18359375,16.6015625,-20.5078125,-149.90234375,0.0
116.9140625,117.67578125,-12.20703125,6.8359375,-17.578125,-52.24609375,0.0
116.91796875,119.62890625,-18.5546875,5.37109375,-11.71875,-4.39453125,0.0
116.921875,121.09375,-26.3671875,16.11328125,-2.9296875,-36.62109375,0.0
116.92578125,160.15625,-22.4609375,22.4609375,-4.8828125,-24.4140625,0.0
116.9296875,187.01171875,-18.5546875,21.484375,-3.90625,-87.890625,0.0
116.93359375,191.89453125,-24.4140625,11.71875,-19.04296875,-130.859375,0.0
116.9375,199.70703125,-29.296875,3.41796875,-14.6484375,-159.1796875,0.0
116.94140625,191.89453125,-32.2265625,11.71875,-14.16015625,-108.88671875,0.0
116.9453125,201.171875,-33.203125,25.390625,-32.71484375,-25.390625,0.0
116.94921875,223.6328125,-36.1328125,30.2734375,-14.6484375,11.23046875,0.0
116.953125,216.30859375,-38.0859375,21.97265625,-13.18359375,-21.484375,0.0
116.95703125,217.28515625,-31.25,15.625,-22.4609375,-90.33203125,0.0
116.9609375,234.86328125,-23.92578125,17.08984375,8.30078125,-63.96484375,0.0
116.96484375,218.75,-28.3203125,19.53125,-14.16015625,35.15625,0.0
116.96875,221.6796875,-31.25,11.23046875,-44.43359375,-21.97265625,0.0
116.97265625,221.6796875,-27.34375,-5.37109375,-52.734375,1.953125,0.0
116.9765625,190.91796875,-22.4609375,-11.71875,-43.9453125,65.4296875,0.0
116.98046875,182.12890625,-20.5078125,-9.27734375,-36.62109375,6.8359375,0.0
116.984375,166.9921875,-29.296875,-14.6484375,-40.0390625,33.203125,0.0
116.98828125,149.90234375,-39.0625,-13.18359375,-29.78515625,55.6640625,0.0
116.9921875,146.484375,-28.80859375,-3.41796875,-27.83203125,31.25,0.0
116.99609375,119.62890625,-24.90234375,-1.953125,-34.1796875,69.82421875,0.0
117.0,105.46875,-26.3671875,-6.8359375,-31.73828125,56.15234375,0.0
117.00390625,116.69921875,-19.53125,-14.6484375,-28.80859375,-29.78515625,0.0
117.0078125,117.67578125,-24.4140625,-17.578125,-42.96875,-83.49609375,0.0
117.01171875,125.48828125,-28.3203125,-20.5078125,-44.921875,-125.48828125,0.0
117.015625,140.625,-41.9921875,-34.66796875,-62.01171875,-137.20703125,0.0
117.01953125,133.30078125,-64.94140625,-43.9453125,-83.0078125,-102.05078125,0.0
117.0234375,113.28125,-84.9609375,-48.33984375,-74.70703125,-45.41015625,0.0
117.02734375,112.3046875,-75.1953125,-59.5703125,-51.7578125,-20.99609375,0.0
117.03125,117.1875,-45.8984375,-61.5234375,-61.03515625,34.1796875,0.0
117.03515625,112.3046875,-41.015625,-53.22265625,-73.2421875,25.390625,0.0
117.0390625,75.68359375,-59.5703125,-51.7578125,-91.30859375,-65.4296875,0.0
117.04296875,65.4296875,-73.2421875,-64.453125,-106.4453125,-18.06640625,0.0
117.046875,61.5234375,-91.796875,-71.77734375,-101.5625,18.06640625,0.0
117.05078125,50.78125,-31.25,-76.171875,-98.14453125,20.99609375,0.0
117.0546875,61.03515625,-24.4140625,-78.61328125,-104.00390625,18.06640625,0.0
117.05859375,36.1328125,-21.484375,-84.47265625,-130.37109375,26.3671875,0.0
117.0625,13.18359375,-33.203125,-83.49609375,-107.421875,-17.578125,0.0
117.06640625,11.23046875,-35.15625,-83.984375,-83.984375,-106.93359375,0.0
117.0703125,14.16015625,-28.80859375,-88.8671875,-111.81640625,-139.6484375,0.0
117.07421875,7.8125,-31.73828125,-83.0078125,-109.375,-113.28125,0.0
117.078125,9.27734375,-32.2265625,-86.42578125,-116.69921875,-55.6640625,0.0
117.08203125,23.92578125,-27.83203125,-84.47265625,-107.421875,-26.3671875,0.0
117.0859375,10.7421875,-27.83203125,-60.546875,-54.19921875,-43.9453125,0.0
117.08984375,20.5078125,-34.1796875,-37.59765625,-61.5234375,-29.296875,0.0
117.09375,41.9921875,-39.0625,-29.78515625,-66.89453125,-74.21875,0.0
117.09765625,30.76171875,-32.2265625,-30.76171875,-47.36328125,-149.4140625,0.0
117.1015625,-11.71875,-31.25,-41.50390625,-83.0078125,-146.97265625,0.0
117.10546875,-50.78125,-34.66796875,-47.8515625,-90.33203125,-210.9375,0.0
117.109375,-43.9453125,-27.34375,-42.48046875,-73.2421875,-169.43359375,0.0
117.11328125,-0.48828125,-29.78515625,-30.76171875,-58.59375,-98.6328125,0.0
117.1171875,35.15625,-25.390625,-12.20703125,-33.203125,-12.20703125,0.0
117.12109375,35.15625,-30.2734375,-0.48828125,-34.1796875,55.6640625,0.0
117.125,20.5078125,-42.48046875,0.0,-45.41015625,0.9765625,0.0
117.12890625,16.6015625,-38.57421875,3.90625,-40.52734375,30.2734375,0.0
117.1328125,13.671875,-38.57421875,5.37109375,-21.97265625,-5.37109375,0.0
117.13671875,0.48828125,-43.45703125,-7.32421875,-18.5546875,-18.5546875,0.0
117.140625,-33.69140625,-48.33984375,-34.66796875,-57.12890625,44.43359375,0.0
117.14453125,-32.71484375,-59.08203125,-42.96875,-63.4765625,-26.3671875,0.0
117.1484375,4.8828125,-56.640625,-23.4375,-35.64453125,-26.3671875,0.0
117.15234375,-7.8125,-61.03515625,-18.06640625,-58.10546875,20.5078125,0.0
117.15625,-17.578125,-59.08203125,-22.4609375,-64.94140625,-31.25,0.0
117.16015625,11.23046875,-39.55078125,-8.30078125,-43.9453125,4.8828125,0.0
117.1640625,19.04296875,-13.18359375,0.9765625,-39.55078125,-51.26953125,0.0
117.16796875,12.20703125,-4.8828125,-11.23046875,-30.76171875,-112.3046875,0.0
117.171875,3.90625,-17.08984375,-27.34375,-49.8046875,13.671875,0.0
117.17578125,-0.48828125,-29.78515625,-20.99609375,-50.29296875,80.56640625,0.0
117.1796875,1.953125,-25.390625,-12.6953125,-41.50390625,80.078125,0.0
117.18359375,19.04296875,-9.27734375,-0.9765625,-41.015625,59.08203125,0.0
117.1875,60.05859375,-23.92578125,26.3671875,-6.8359375,52.734375,0.0
117.19140625,81.0546875,-25.390625,27.34375,-7.8125,-8.30078125,0.0
117.1953125,76.66015625,3.90625,15.625,-20.99609375,-2.44140625,0.0
117.19921875,66.40625,17.08984375,15.625,-8.7890625,33.69140625,0.0
117.203125,51.26953125,26.85546875,15.625,0.9765625,-37.59765625,0.0
117.20703125,54.6875,19.04296875,23.4375,7.8125,-101.5625,0.0
117.2109375,46.875,-16.11328125,23.92578125,-1.953125,-135.25390625,0.0
117.21484375,41.50390625,-25.390625,22.4609375,-20.99609375,-178.22265625,0.0
117.21875,21.97265625,-15.13671875,10.25390625,-31.73828125,-124.0234375,0.0
117.22265625,19.04296875,-3.41796875,-4.39453125,-38.57421875,43.9453125,0.0
117.2265625,20.01953125,-3.90625,0.0,-26.3671875,106.4453125,0.0
117.23046875,10.7421875,-8.30078125,0.9765625,-32.2265625,25.390625,0.0
117.234375,-13.18359375,-19.04296875,-9.765625,-49.8046875,-21.97265625,0.0
117.23828125,-25.390625,-36.1328125,-19.04296875,-30.76171875,-22.94921875,0.0
117.2421875,-12.20703125,-36.1328125,-15.13671875,-22.4609375,-29.296875,0.0
117.24609375,-14.16015625,-37.109375,-12.6953125,-36.62109375,23.92578125,0.0
117.25,-0.9765625,-34.66796875,-10.25390625,-37.109375,2.9296875,0.0
117.25390625,3.41796875,-37.59765625,-7.8125,-36.1328125,-72.265625,0.0
117.2578125,2.9296875,-33.203125,-0.9765625,-27.83203125,-39.55078125,0.0
117.26171875,9.765625,-36.1328125,3.90625,-26.85546875,-41.50390625,0.0
117.265625,10.7421875,-47.8515625,0.9765625,-27.83203125,-109.86328125,0.0
117.26953125,35.64453125,-46.875,-3.41796875,-31.25,-103.02734375,0.0
117.2734375,54.6875,-38.0859375,6.34765625,-10.25390625,-48.828125,0.0
117.27734375,50.29296875,-33.203125,6.34765625,0.48828125,-37.109375,0.0
117.28125,56.15234375,-31.73828125,1.46484375,-10.7421875,-80.56640625,0.0
117.28515625,60.546875,-30.2734375,3.90625,-13.18359375,-134.765625,0.0
117.2890625,41.9921875,-31.73828125,-0.9765625,-2.9296875,-91.796875,0.0
117.29296875,50.29296875,-35.64453125,4.39453125,4.39453125,-17.08984375,0.0
117.296875,67.3828125,-38.57421875,3.90625,-8.30078125,76.66015625,0.0
117.30078125,43.45703125,-39.55078125,3.90625,-2.9296875,-24.4140625,0.0
117.3046875,44.921875,-31.73828125,9.27734375,-8.30078125,-106.93359375,0.0
117.30859375,59.08203125,-35.64453125,3.41796875,-9.27734375,-30.76171875,0.0
117.3125,53.7109375,-42.96875,2.9296875,18.06640625,-46.875,0.0
117.31640625,47.8515625,-41.015625,2.9296875,3.41796875,0.0,0.0
117.3203125,23.92578125,-39.55078125,-17.08984375,-45.41015625,49.31640625,0.0
117.32421875,13.671875,-35.15625,-30.2734375,-43.9453125,-11.23046875,0.0
117.328125,20.99609375,-37.59765625,-34.66796875,-32.71484375,-33.203125,0.0
117.33203125,19.04296875,-40.0390625,-40.52734375,-33.69140625,-17.578125,0.0
117.3359375,6.8359375,-38.57421875,-39.0625,-22.4609375,-27.34375,0.0
117.33984375,5.37109375,-40.0390625,-37.59765625,-27.34375,-31.73828125,0.0
117.34375,-3.90625,-42.48046875,-41.50390625,-36.62109375,-94.23828125,0.0
117.34765625,5.859375,-36.1328125,-37.109375,-28.80859375,-89.84375,0.0
117.3515625,17.578125,-28.80859375,-25.390625,-30.2734375,-35.64453125,0.0
117.35546875,10.7421875,-31.73828125,-20.99609375,-30.2734375,-4.39453125,0.0
117.359375,14.6484375,-31.73828125,-19.04296875,-22.94921875,-2.9296875,0.0
117.36328125,6.34765625,-28.80859375,-14.16015625,-26.85546875,-74.21875,0.0
117.3671875,2.44140625,-26.3671875,-12.20703125,-24.4140625,-46.38671875,0.0
117.37109375,14.6484375,-28.3203125,-11.23046875,-10.25390625,-19.04296875,0.0
117.375,13.18359375,-29.78515625,-18.5546875,-10.7421875,18.5546875,0.0
117.37890625,-8.30078125,-20.5078125,-29.78515625,-35.15625,-4.8828125,0.0
117.3828125,-15.13671875,-16.6015625,-37.109375,-54.6875,-83.0078125,0.0
117.38671875,0.0,-29.296875,-37.59765625,-37.59765625,-47.36328125,0.0
117.390625,-4.8828125,-28.80859375,-33.69140625,-36.1328125,-83.49609375,0.0
117.39453125,-29.78515625,-21.484375,-41.50390625,-38.0859375,-39.0625,0.0
117.3984375,-33.203125,-15.625,-45.8984375,-51.26953125,41.015625,0.0
117.40234375,-24.90234375,-14.16015625,-36.62109375,-41.9921875,-3.41796875,0.0
117.40625,-3.90625,-22.4609375,-26.85546875,-20.99609375,35.64453125,0.0
117.41015625,-32.71484375,-29.296875,-21.97265625,-34.1796875,37.109375,0.0
117.4140625,-55.17578125,-26.85546875,-33.69140625,-47.8515625,-20.99609375,0.0
117.41796875,-41.015625,-34.1796875,-43.9453125,-50.29296875,-49.8046875,0.0
117.421875,-35.15625,-36.62109375,-37.59765625,-43.45703125,12.6953125,0.0
117.42578125,-35.64453125,-28.80859375,-27.34375,-42.96875,21.97265625,0.0
117.4296875,-25.87890625,-26.3671875,-16.11328125,-38.57421875,-17.578125,0.0
117.43359375,-26.85546875,-25.390625,-18.06640625,-46.875,28.80859375,0.0
117.4375,-26.3671875,-25.390625,-22.94921875,-38.0859375,-1.46484375,0.0
117.44140625,-13.18359375,-25.87890625,-23.92578125,-25.87890625,-45.8984375,0.0
117.4453125,-9.27734375,-28.3203125,-13.18359375,-32.71484375,-45.41015625,0.0
117.44921875,-25.390625,-28.3203125,-15.13671875,-39.55078125,-16.11328125,0.0
117.453125,-32.2265625,-34.66796875,-26.3671875,-30.2734375,0.0,0.0
117.45703125,-28.80859375,-40.52734375,-31.73828125,-53.7109375,-37.59765625,0.0
117.4609375,-34.66796875,-30.2734375,-36.62109375,-71.2890625,-35.64453125,0.0
117.46484375,-34.1796875,-32.2265625,-31.73828125,-45.8984375,-10.7421875,0.0
117.46875,-24.4140625,-35.64453125,-25.390625,-32.71484375,6.8359375,0.0
117.47265625,-25.87890625,-28.80859375,-26.85546875,-17.578125,-16.11328125,0.0
117.4765625,-25.87890625,-24.90234375,-32.2265625,-37.109375,-53.7109375,0.0
117.48046875,-19.04296875,-26.85546875,-32.71484375,-44.43359375,-107.91015625,0.0
117.484375,-10.7421875,-23.92578125,-29.296875,-31.25,-95.703125,0.0
117.48828125,-5.37109375,-23.4375,-22.94921875,-40.0390625,-93.75,0.0
117.4921875,-18.06640625,-26.85546875,-18.5546875,-42.96875,-124.0234375,0.0
117.49609375,-6.8359375,-24.90234375,-12.20703125,-37.109375,-24.90234375,0.0
117.5,18.5546875,-36.62109375,-5.859375,-38.57421875,2.9296875,0.0
117.50390625,14.6484375,-45.41015625,-8.30078125,-18.5546875,-10.25390625,0.0
117.5078125,-3.41796875,-38.0859375,-13.671875,-13.671875,8.30078125,0.0
117.51171875,-1.46484375,-38.57421875,-13.18359375,-24.4140625,7.32421875,0.0
117.515625,-12.20703125,-35.15625,-10.7421875,-22.4609375,-76.171875,0.0
117.51953125,-27.34375,-35.64453125,-21.97265625,-11.23046875,-99.12109375,0.0
117.5234375,-20.5078125,-34.1796875,-40.0390625,-34.1796875,-6.8359375,0.0
117.52734375,-15.625,-34.1796875,-41.015625,-42.48046875,5.859375,0.0
117.53125,-12.20703125,-41.015625,-32.2265625,-30.76171875,-117.1875,0.0
117.53515625,-8.7890625,-37.109375,-39.0625,-59.08203125,-61.5234375,0.0
117.5390625,2.9296875,-28.80859375,-46.875,-54.6875,41.9921875,0.0
117.54296875,-9.27734375,-31.25,-50.29296875,-54.6875,24.90234375,0.0
117.546875,-1.46484375,-42.48046875,-39.55078125,-56.15234375,10.25390625,0.0
117.55078125,14.6484375,-48.33984375,-37.109375,-45.8984375,-70.80078125,0.0
117.5546875,9.27734375,-41.9921875,-44.921875,-50.78125,-114.74609375,0.0
117.55859375,25.390625,-39.0625,-34.66796875,-45.8984375,-75.68359375,0.0
117.5625,24.90234375,-39.55078125,-24.4140625,-43.9453125,-28.80859375,0.0
117.56640625,31.73828125,-40.52734375,-26.3671875,-38.57421875,-6.8359375,0.0
117.5703125,41.9921875,-35.15625,-22.94921875,-24.4140625,-29.296875,0.0
117.57421875,36.62109375,-31.25,-13.18359375,-10.7421875,-44.921875,0.0
117.578125,21.97265625,-37.59765625,-5.37109375,4.39453125,21.97265625,0.0
117.58203125,65.4296875,-39.55078125,-3.41796875,-3.41796875,-15.13671875,0.0
117.5859375,77.1484375,-25.390625,-3.41796875,-27.34375,-27.83203125,0.0
117.58984375,56.15234375,-25.87890625,0.9765625,-35.15625,-31.25,0.0
117.59375,67.3828125,-42.48046875,7.32421875,-21.97265625,-59.08203125,0.0
117.59765625,62.01171875,-37.59765625,7.8125,-12.6953125,-33.203125,0.0
117.6015625,47.8515625,-28.80859375,4.8828125,2.9296875,9.765625,0.0
117.60546875,39.0625,-33.203125,9.27734375,20.5078125,6.34765625,0.0
117.609375,47.8515625,-37.109375,12.6953125,25.390625,24.90234375,0.0
117.61328125,54.6875,-30.76171875,14.6484375,19.04296875,41.015625,0.0
117.6171875,54.19921875,-26.3671875,20.99609375,21.484375,6.34765625,0.0
117.62109375,46.38671875,-30.76171875,29.296875,13.671875,-62.01171875,0.0
117.625,45.8984375,-35.15625,31.73828125,18.5546875,-63.4765625,0.0
117.62890625,55.17578125,-35.64453125,25.87890625,28.3203125,11.23046875,0.0
117.6328125,54.19921875,-28.3203125,32.71484375,30.76171875,6.34765625,0.0
117.63671875,41.50390625,-32.2265625,27.34375,46.38671875,-74.70703125,0.0
117.640625,11.71875,-42.96875,-1.46484375,27.34375,-151.3671875,0.0
117.64453125,7.8125,-48.33984375,-3.41796875,-9.27734375,-93.26171875,0.0
117.6484375,22.94921875,-41.50390625,9.27734375,1.953125,-23.92578125,0.0
117.65234375,39.55078125,-33.203125,27.34375,21.97265625,-36.1328125,0.0
117.65625,48.33984375,-31.25,22.94921875,14.6484375,-52.24609375,0.0
117.66015625,57.6171875,-29.78515625,18.06640625,3.41796875,-81.0546875,0.0
117.6640625,45.41015625,-34.1796875,27.83203125,7.32421875,-142.08984375,0.0
117.66796875,36.1328125,-36.62109375,32.2265625,36.1328125,-135.7421875,0.0
117.671875,44.921875,-33.69140625,27.83203125,27.83203125,-44.921875,0.0
117.67578125,49.31640625,-36.62109375,30.76171875,16.6015625,-34.66796875,0.0
117.6796875,45.8984375,-29.78515625,30.2734375,21.97265625,-48.828125,0.0
117.68359375,43.9453125,-24.4140625,26.85546875,21.484375,-53.7109375,0.0
117.6875,49.8046875,-34.1796875,21.484375,21.97265625,-22.94921875,0.0
117.69140625,49.8046875,-32.71484375,16.6015625,20.99609375,31.25,0.0
117.6953125,55.17578125,-24.90234375,18.5546875,16.6015625,-32.2265625,0.0
117.69921875,59.08203125,-24.90234375,24.90234375,13.671875,-39.0625,0.0
117.703125,50.78125,-28.3203125,25.390625,15.13671875,41.9921875,0.0
117.70703125,51.26953125,-30.2734375,21.97265625,14.16015625,28.80859375,0.0
117.7109375,64.94140625,-27.34375,21.484375,20.01953125,-60.546875,0.0
117.71484375,65.91796875,-29.78515625,15.13671875,16.6015625,-44.43359375,0.0
117.71875,61.5234375,-28.3203125,11.71875,14.6484375,-9.27734375,0.0
117.72265625,49.31640625,-27.34375,16.6015625,17.08984375,-19.04296875,0.0
117.7265625,32.71484375,-27.83203125,17.578125,7.32421875,-11.23046875,0.0
117.73046875,33.203125,-32.2265625,1.953125,6.8359375,-20.99609375,0.0
117.734375,44.921875,-39.55078125,-8.30078125,2.44140625,-73.73046875,0.0
117.73828125,35.64453125,-30.76171875,-5.37109375,-2.44140625,-82.03125,0.0
117.7421875,40.0390625,-27.83203125,0.9765625,14.6484375,13.671875,0.0
117.74609375,38.0859375,-36.62109375,-2.9296875,-1.953125,3.90625,0.0
117.75,3.90625,-30.76171875,-18.5546875,-38.57421875,9.765625,0.0
117.75390625,-5.859375,-27.34375,-19.04296875,-30.2734375,2.44140625,0.0
117.7578125,-4.39453125,-27.34375,-24.4140625,-23.4375,-59.5703125,0.0
117.76171875,-20.01953125,-30.76171875,-40.52734375,-38.0859375,-35.64453125,0.0
117.765625,-16.6015625,-37.109375,-46.875,-45.8984375,-25.390625,0.0
117.76953125,-4.8828125,-29.78515625,-44.43359375,-52.734375,-28.80859375,0.0
117.7734375,4.8828125,-19.53125,-44.921875,-54.6875,-44.43359375,0.0
117.77734375,16.6015625,-27.83203125,-46.38671875,-40.52734375,-49.31640625,0.0
117.78125,18.5546875,-45.41015625,-39.55078125,-18.06640625,-47.36328125,0.0
117.78515625,25.87890625,-45.8984375,-23.92578125,-11.23046875,15.13671875,0.0
117.7890625,42.96875,-37.59765625,-22.4609375,-32.71484375,19.04296875,0.0
117.79296875,65.4296875,-40.52734375,-20.5078125,-4.8828125,26.3671875,0.0
117.796875,61.5234375,-42.48046875,-23.92578125,4.8828125,-3.90625,0.0
117.80078125,23.92578125,-23.92578125,-32.2265625,-16.11328125,-73.2421875,0.0
117.8046875,45.41015625,-31.73828125,-22.4609375,-6.34765625,-3.90625,0.0
117.80859375,75.68359375,-65.91796875,-16.11328125,-1.953125,22.4609375,0.0
117.8125,64.453125,-29.78515625,-14.6484375,7.8125,-29.78515625,0.0
117.81640625,53.22265625,10.25390625,-16.6015625,7.32421875,-23.4375,0.0
117.8203125,51.26953125,-12.6953125,-20.5078125,-5.859375,20.01953125,0.0
117.82421875,42.48046875,-25.87890625,-5.859375,8.7890625,9.765625,0.0
117.828125,43.45703125,-45.8984375,0.48828125,17.08984375,1.46484375,0.0
117.83203125,48.828125,-47.8515625,-9.765625,18.06640625,-21.97265625,0.0
117.8359375,33.69140625,-26.85546875,-10.25390625,0.48828125,-45.8984375,0.0
117.83984375,34.1796875,-34.1796875,-2.9296875,8.7890625,-63.96484375,0.0
117.84375,39.55078125,-38.0859375,-1.46484375,17.08984375,-57.6171875,0.0
117.84765625,47.36328125,-37.59765625,8.30078125,3.90625,-58.59375,0.0
117.8515625,52.734375,-40.0390625,19.53125,18.5546875,-24.4140625,0.0
117.85546875,46.38671875,-39.55078125,8.7890625,17.578125,-19.04296875,0.0
117.859375,53.22265625,-32.71484375,3.41796875,11.23046875,-95.21484375,0.0
117.86328125,59.5703125,-36.1328125,6.34765625,20.99609375,-86.42578125,0.0
117.8671875,57.6171875,-45.8984375,5.37109375,28.3203125,-127.44140625,0.0
117.87109375,75.1953125,-35.15625,11.23046875,15.625,-161.1328125,0.0
117.875,79.58984375,-35.15625,23.92578125,22.4609375,-105.95703125,0.0
117.87890625,58.10546875,-36.1328125,30.2734375,32.2265625,-51.7578125,0.0
117.8828125,66.89453125,-41.9921875,24.90234375,28.80859375,-27.34375,0.0
117.88671875,86.9140625,-40.0390625,19.53125,32.2265625,2.44140625,0.0
117.890625,73.73046875,-27.34375,8.30078125,23.4375,-4.8828125,0.0
117.89453125,59.08203125,-30.2734375,-7.32421875,7.32421875,-80.078125,0.0
117.8984375,43.45703125,-33.203125,-18.06640625,-15.13671875,-107.91015625,0.0
117.90234375,39.0625,-37.59765625,-19.53125,-5.37109375,-141.11328125,0.0
117.90625,38.0859375,-33.203125,-11.71875,13.671875,-93.26171875,0.0
117.91015625,43.9453125,-26.85546875,-13.671875,-1.953125,-42.96875,0.0
117.9140625,58.10546875,-27.34375,-21.97265625,-13.671875,-42.96875,0.0
117.91796875,62.98828125,-28.3203125,-27.83203125,-4.39453125,-25.87890625,0.0
117.921875,56.15234375,-32.2265625,-18.5546875,7.32421875,-36.1328125,0.0
117.92578125,58.59375,-31.73828125,-16.11328125,18.5546875,35.64453125,0.0
117.9296875,57.6171875,-31.25,-14.16015625,18.5546875,87.40234375,0.0
117.93359375,46.38671875,-29.78515625,-21.97265625,0.48828125,78.125,0.0
117.9375,36.1328125,-25.87890625,-41.015625,-12.20703125,69.82421875,0.0
117.94140625,40.52734375,-29.296875,-39.0625,-8.30078125,10.25390625,0.0
117.9453125,46.38671875,-31.25,-23.92578125,20.99609375,46.38671875,0.0
117.94921875,49.8046875,-27.34375,-22.4609375,7.8125,87.890625,0.0
117.953125,57.6171875,-26.85546875,-17.08984375,-10.25390625,-42.96875,0.0
117.95703125,65.91796875,-25.87890625,-0.9765625,16.6015625,-128.41796875,0.0
117.9609375,66.89453125,-20.99609375,-0.9765625,16.6015625,-89.84375,0.0
117.96484375,65.4296875,-21.97265625,-3.41796875,17.578125,-35.15625,0.0
117.96875,59.5703125,-37.59765625,-2.9296875,20.01953125,-41.9921875,0.0
117.97265625,44.921875,-44.921875,-8.30078125,7.8125,-56.640625,0.0
117.9765625,36.1328125,-35.15625,-5.859375,4.39453125,-51.26953125,0.0
117.98046875,15.625,-27.83203125,-4.39453125,9.765625,-28.3203125,0.0
117.984375,11.23046875,-29.78515625,-2.9296875,16.11328125,6.8359375,0.0
117.98828125,15.13671875,-40.0390625,2.9296875,26.3671875,-63.96484375,0.0
117.9921875,13.671875,-26.3671875,0.48828125,28.3203125,-64.453125,0.0
117.99609375,17.08984375,-20.01953125,0.9765625,5.859375,-36.62109375,0.0
118.0,13.671875,-30.2734375,-3.41796875,9.27734375,-52.24609375,0.0
118.00390625,1.953125,-32.71484375,-14.6484375,12.6953125,-66.89453125,0.0
118.0078125,12.6953125,-21.97265625,-6.8359375,3.90625,-76.171875,0.0
118.01171875,15.625,-22.94921875,-4.8828125,16.11328125,-42.48046875,0.0
118.015625,-6.8359375,-36.1328125,-18.06640625,0.9765625,-52.24609375,0.0
118.01953125,-24.4140625,-39.0625,-31.25,-16.6015625,-61.5234375,0.0
118.0234375,-27.83203125,-36.62109375,-33.203125,-15.13671875,1.46484375,0.0
118.02734375,-21.97265625,-28.80859375,-32.2265625,-7.8125,63.4765625,0.0
118.03125,-54.6875,-24.4140625,-35.64453125,-6.34765625,55.17578125,0.0
118.03515625,-48.828125,-23.92578125,-40.0390625,-24.90234375,88.37890625,0.0
118.0390625,-12.6953125,-29.78515625,-37.59765625,-29.296875,45.41015625,0.0
118.04296875,-10.7421875,-30.2734375,-30.2734375,-20.99609375,-14.6484375,0.0
118.046875,5.859375,-33.203125,-17.578125,-6.34765625,-25.87890625,0.0
118.05078125,41.50390625,-32.71484375,3.41796875,8.7890625,-64.453125,0.0
118.0546875,43.9453125,-22.94921875,1.953125,-8.30078125,-56.15234375,0.0
118.05859375,33.203125,-28.3203125,-13.18359375,-17.08984375,-45.41015625,0.0
118.0625,44.43359375,-43.45703125,-18.06640625,-8.7890625,-33.69140625,0.0
118.06640625,24.90234375,-42.48046875,-20.99609375,-13.18359375,1.953125,0.0
118.0703125,6.34765625,-31.25,-18.06640625,-17.08984375,-16.11328125,0.0
118.07421875,41.9921875,-29.78515625,-11.71875,8.30078125,-44.43359375,0.0
118.078125,60.546875,-41.015625,-6.34765625,31.25,-45.41015625,0.0
118.08203125,55.17578125,-35.64453125,21.97265625,26.85546875,-96.19140625,0.0
118.0859375,81.54296875,-26.3671875,55.6640625,58.10546875,-163.57421875,0.0
118.08984375,107.91015625,-33.69140625,53.22265625,66.40625,-156.73828125,0.0
118.09375,105.95703125,-36.1328125,38.57421875,40.0390625,-55.6640625,0.0
118.09765625,70.3125,-24.4140625,22.94921875,38.57421875,-26.3671875,0.0
118.1015625,36.1328125,-21.484375,4.39453125,24.90234375,-68.359375,0.0
118.10546875,31.73828125,-29.78515625,-3.41796875,2.9296875,-32.71484375,0.0
118.109375,36.1328125,-39.0625,3.41796875,16.6015625,-30.2734375,0.0
118.11328125,40.0390625,-41.50390625,6.34765625,37.59765625,-75.68359375,0.0
118.1171875,36.1328125,-31.25,8.7890625,21.484375,-60.546875,0.0
118.12109375,55.6640625,-25.390625,17.08984375,12.6953125,-78.125,0.0
118.125,49.31640625,-35.15625,-8.30078125,10.7421875,-122.55859375,0.0
118.12890625,48.828125,-40.52734375,-20.99609375,29.296875,-60.546875,0.0
118.1328125,44.921875,-33.69140625,-2.44140625,39.55078125,-33.69140625,0.0
118.13671875,38.57421875,-34.66796875,-4.8828125,30.2734375,-24.90234375,0.0
118.140625,34.1796875,-39.55078125,-7.8125,26.85546875,29.78515625,0.0
118.14453125,20.99609375,-43.45703125,-8.30078125,31.25,-33.69140625,0.0
118.1484375,22.94921875,-37.59765625,-7.32421875,26.85546875,-61.5234375,0.0
118.15234375,33.69140625,-40.0390625,-4.8828125,7.8125,-56.640625,0.0
118.15625,41.015625,-38.0859375,-4.8828125,-0.9765625,-1.953125,0.0
118.16015625,40.0390625,-34.1796875,-1.46484375,32.71484375,-29.78515625,0.0
118.1640625,28.80859375,-41.9921875,4.39453125,48.33984375,-46.875,0.0
118.16796875,30.76171875,-30.76171875,0.9765625,39.0625,-12.6953125,0.0
118.171875,31.25,-25.87890625,-14.16015625,11.23046875,-53.7109375,0.0
118.17578125,44.921875,-31.25,-8.30078125,5.37109375,-96.6796875,0.0
118.1796875,67.87109375,-33.69140625,2.9296875,18.06640625,-106.4453125,0.0
118.18359375,68.359375,-34.66796875,0.48828125,21.484375,-17.08984375,0.0
118.1875,56.15234375,-41.50390625,1.46484375,31.25,28.80859375,0.0
118.19140625,61.03515625,-27.34375,4.8828125,23.4375,-10.7421875,0.0
118.1953125,73.2421875,-19.04296875,13.671875,28.3203125,11.71875,0.0
118.19921875,73.2421875,-30.76171875,5.859375,25.87890625,39.55078125,0.0
118.203125,74.21875,-35.64453125,1.953125,25.87890625,9.765625,0.0
118.20703125,76.66015625,-34.66796875,17.578125,41.50390625,-9.27734375,0.0
118.2109375,63.4765625,-34.66796875,17.08984375,39.55078125,-9.27734375,0.0
118.21484375,54.6875,-29.78515625,6.34765625,21.484375,27.34375,0.0
118.21875,54.6875,-23.4375,8.30078125,11.71875,22.94921875,0.0
118.22265625,35.15625,-14.6484375,17.578125,24.4140625,5.37109375,0.0
118.2265625,30.76171875,-19.04296875,15.13671875,25.87890625,33.69140625,0.0
118.23046875,48.828125,-37.59765625,19.53125,17.08984375,48.828125,0.0
118.234375,54.6875,-24.90234375,17.578125,22.94921875,27.83203125,0.0
118.23828125,42.48046875,-23.92578125,6.8359375,12.6953125,-26.3671875,0.0
118.2421875,41.015625,-20.5078125,13.18359375,3.41796875,-99.12109375,0.0
118.24609375,59.08203125,-20.99609375,20.99609375,12.20703125,-192.3828125,0.0
118.25,62.98828125,-33.203125,20.01953125,22.4609375,-237.79296875,0.0
118.25390625,59.5703125,-24.90234375,16.6015625,27.83203125,-227.5390625,0.0
118.2578125,37.59765625,-15.625,10.25390625,17.08984375,-193.84765625,0.0
118.26171875,33.69140625,-25.390625,7.8125,27.34375,-168.45703125,0.0
118.265625,44.43359375,-34.1796875,10.7421875,36.62109375,-125.0,0.0
118.26953125,25.87890625,-53.7109375,14.16015625,37.109375,-76.66015625,0.0
118.2734375,9.765625,-41.9921875,6.34765625,8.7890625,-129.39453125,0.0
118.27734375,-9.765625,-18.06640625,-0.9765625,-37.109375,-117.67578125,0.0
118.28125,-31.73828125,-31.73828125,11.23046875,-37.109375,-53.22265625,0.0
118.28515625,-40.52734375,-39.55078125,16.6015625,-46.38671875,-30.2734375,0.0
118.2890625,-73.2421875,-40.0390625,1.46484375,-97.65625,8.7890625,0.0
118.29296875,-126.953125,-30.2734375,-18.06640625,-125.9765625,-11.71875,0.0
118.296875,-176.7578125,-25.87890625,-17.08984375,-149.4140625,-59.08203125,0.0
118.30078125,-194.82421875,-41.015625,-7.8125,-189.94140625,-44.43359375,0.0
118.3046875,-227.5390625,-46.875,-17.578125,-214.35546875,-102.05078125,0.0
118.30859375,-215.8203125,-36.1328125,-21.97265625,-207.03125,-140.13671875,0.0
118.3125,-174.31640625,-26.3671875,-5.37109375,-206.54296875,-128.41796875,0.0
118.31640625,-198.2421875,-36.62109375,-13.18359375,-218.26171875,-65.4296875,0.0
118.3203125,-221.19140625,-40.52734375,-44.921875,-220.703125,-61.5234375,0.0
118.32421875,-226.5625,-31.25,-53.7109375,-255.37109375,-101.07421875,0.0
118.328125,-219.7265625,-26.85546875,-39.55078125,-246.09375,-92.7734375,0.0
118.33203125,-191.89453125,-31.25,-21.484375,-195.80078125,-149.90234375,0.0
