timestamp,TP9,AF7,AF8,TP10,AUX,Marker,
270.00390625,3.41796875,34.1796875,-24.90234375,-28.80859375,-38.57421875,0.0
270.0078125,26.3671875,28.80859375,-28.80859375,-64.453125,-42.48046875,0.0
270.01171875,68.359375,27.34375,-32.2265625,-72.75390625,-18.06640625,0.0
270.015625,102.5390625,36.62109375,-35.64453125,-49.31640625,40.52734375,0.0
270.01953125,75.1953125,29.78515625,-33.203125,-20.5078125,55.17578125,0.0
270.0234375,17.08984375,19.04296875,-28.3203125,-25.390625,24.90234375,0.0
270.02734375,7.32421875,14.16015625,-33.203125,-50.78125,38.0859375,0.0
270.03125,48.828125,11.71875,-40.52734375,-66.89453125,86.42578125,0.0
270.03515625,72.265625,-4.8828125,-35.64453125,-39.55078125,37.59765625,0.0
270.0390625,21.484375,-26.3671875,-19.53125,5.37109375,-39.0625,0.0
270.04296875,-31.25,-21.484375,-16.6015625,-5.859375,-58.10546875,0.0
270.046875,-13.18359375,-10.25390625,-35.15625,-47.8515625,-59.5703125,0.0
270.05078125,21.484375,-11.23046875,-41.9921875,-63.96484375,-23.92578125,0.0
270.0546875,35.15625,11.23046875,-36.62109375,-41.9921875,14.16015625,0.0
270.05859375,20.99609375,18.06640625,-28.3203125,-7.8125,-8.30078125,0.0
270.0625,-33.203125,-0.48828125,-27.83203125,-20.01953125,-28.80859375,0.0
270.06640625,-50.29296875,-7.8125,-33.203125,-62.01171875,3.90625,0.0
270.0703125,-8.30078125,-5.37109375,-36.62109375,-75.68359375,0.48828125,0.0
270.07421875,29.78515625,-2.9296875,-31.73828125,-47.36328125,-14.16015625,0.0
270.078125,17.578125,-6.34765625,-22.94921875,-13.18359375,-38.0859375,0.0
270.08203125,-29.78515625,-15.625,-21.484375,-8.30078125,-18.5546875,0.0
270.0859375,-49.8046875,-33.203125,-18.5546875,-37.109375,-32.2265625,0.0
270.08984375,-21.97265625,-33.69140625,-21.484375,-65.91796875,-23.4375,0.0
270.09375,19.53125,-8.7890625,-32.71484375,-47.8515625,81.54296875,0.0
270.09765625,4.39453125,-15.625,-33.203125,-13.671875,22.4609375,0.0
270.1015625,-57.6171875,-47.36328125,-31.25,-11.23046875,9.765625,0.0
270.10546875,-73.2421875,-34.66796875,-31.25,-33.203125,15.13671875,0.0
270.109375,-32.2265625,-19.53125,-40.52734375,-66.89453125,-87.890625,0.0
270.11328125,2.9296875,-23.92578125,-45.8984375,-60.546875,-97.16796875,0.0
270.1171875,2.9296875,-18.5546875,-32.2265625,-21.97265625,-20.01953125,0.0
270.12109375,-31.73828125,-35.64453125,-29.78515625,-12.6953125,-34.66796875,0.0
270.125,-70.80078125,-45.41015625,-41.015625,-41.9921875,-118.65234375,0.0
270.12890625,-42.48046875,-38.0859375,-38.57421875,-71.2890625,-125.0,0.0
270.1328125,0.48828125,-38.0859375,-39.0625,-67.3828125,-72.75390625,0.0
270.13671875,-4.8828125,-33.69140625,-36.62109375,-21.97265625,11.71875,0.0
270.140625,-36.1328125,-20.5078125,-31.25,-8.30078125,47.8515625,0.0
270.14453125,-74.70703125,-26.85546875,-36.62109375,-37.109375,-40.52734375,0.0
270.1484375,-56.15234375,-42.96875,-40.0390625,-62.98828125,-52.24609375,0.0
270.15234375,2.9296875,-35.15625,-40.0390625,-62.98828125,-5.37109375,0.0
270.15625,3.90625,-25.87890625,-38.0859375,-33.69140625,51.26953125,0.0
270.16015625,-46.875,-36.1328125,-35.15625,-8.30078125,57.6171875,0.0
270.1640625,-62.01171875,-37.109375,-27.83203125,-16.6015625,-60.05859375,0.0
270.16796875,-46.38671875,-33.69140625,-33.203125,-63.4765625,-82.03125,0.0
270.171875,-23.92578125,-33.203125,-39.0625,-72.265625,-33.203125,0.0
270.17578125,-2.44140625,-28.3203125,-24.90234375,-39.0625,-65.4296875,0.0
270.1796875,-38.57421875,-37.109375,-29.296875,-21.97265625,-60.05859375,0.0
270.18359375,-92.7734375,-49.8046875,-31.73828125,-25.87890625,-75.68359375,0.0
270.1875,-75.1953125,-39.0625,-38.0859375,-56.640625,-114.74609375,0.0
270.19140625,-24.4140625,-26.85546875,-51.7578125,-77.63671875,-64.94140625,0.0
270.1953125,-13.18359375,-31.25,-46.875,-52.24609375,-54.19921875,0.0
270.19921875,-41.9921875,-33.69140625,-41.50390625,-25.87890625,-94.23828125,0.0
270.203125,-65.91796875,-36.1328125,-41.015625,-29.78515625,-81.0546875,0.0
270.20703125,-68.359375,-37.59765625,-48.33984375,-62.98828125,-17.08984375,0.0
270.2109375,-37.59765625,-29.296875,-48.33984375,-70.3125,12.6953125,0.0
270.21484375,-4.8828125,-23.92578125,-43.45703125,-41.9921875,61.03515625,0.0
270.21875,-21.484375,-30.76171875,-32.71484375,-14.6484375,94.7265625,0.0
270.22265625,-61.03515625,-38.0859375,-25.87890625,-10.7421875,59.5703125,0.0
270.2265625,-78.125,-38.57421875,-38.57421875,-48.828125,-63.4765625,0.0
270.23046875,-33.203125,-36.62109375,-45.41015625,-75.68359375,-41.50390625,0.0
270.234375,3.90625,-32.2265625,-39.55078125,-58.10546875,76.171875,0.0
270.23828125,-13.671875,-21.484375,-32.2265625,-21.97265625,76.171875,0.0
270.2421875,-54.19921875,-27.83203125,-31.25,-12.6953125,-2.44140625,0.0
270.24609375,-76.171875,-43.45703125,-34.1796875,-39.55078125,-17.578125,0.0
270.25,-52.24609375,-42.96875,-42.48046875,-69.82421875,41.015625,0.0
270.25390625,-16.6015625,-38.57421875,-43.9453125,-56.640625,-45.8984375,0.0
270.2578125,-28.80859375,-38.0859375,-29.78515625,-10.7421875,-57.6171875,0.0
270.26171875,-69.3359375,-47.8515625,-18.5546875,1.953125,15.625,0.0
270.265625,-76.171875,-51.7578125,-21.97265625,-28.80859375,-11.71875,0.0
270.26953125,-41.9921875,-42.48046875,-34.1796875,-67.3828125,12.6953125,0.0
270.2734375,-7.32421875,-42.96875,-38.57421875,-59.08203125,11.71875,0.0
270.27734375,-10.7421875,-45.8984375,-32.2265625,-13.18359375,-66.89453125,0.0
270.28125,-64.453125,-44.921875,-30.76171875,-0.48828125,-92.28515625,0.0
270.28515625,-93.26171875,-46.38671875,-37.109375,-25.390625,-32.71484375,0.0
270.2890625,-46.875,-48.828125,-40.0390625,-52.24609375,16.6015625,0.0
270.29296875,11.71875,-47.36328125,-30.76171875,-51.26953125,2.44140625,0.0
270.296875,-0.9765625,-45.8984375,-29.296875,-20.99609375,-15.13671875,0.0
270.30078125,-55.17578125,-39.0625,-31.25,-11.71875,-25.390625,0.0
270.3046875,-74.70703125,-40.52734375,-26.85546875,-29.296875,-83.984375,0.0
270.30859375,-47.36328125,-46.38671875,-24.90234375,-53.7109375,-96.19140625,0.0
270.3125,0.0,-35.15625,-29.296875,-67.87109375,-44.43359375,0.0
270.31640625,4.8828125,-33.203125,-33.69140625,-38.0859375,-42.96875,0.0
270.3203125,-45.8984375,-44.43359375,-25.87890625,-4.39453125,-85.44921875,0.0
270.32421875,-70.80078125,-42.96875,-21.484375,-18.06640625,-95.21484375,0.0
270.328125,-44.921875,-35.15625,-27.34375,-49.8046875,-25.87890625,0.0
270.33203125,-0.48828125,-29.296875,-29.78515625,-54.6875,-11.71875,0.0
270.3359375,3.41796875,-30.2734375,-32.71484375,-27.83203125,1.953125,0.0
270.33984375,-42.96875,-33.69140625,-27.83203125,1.953125,60.05859375,0.0
270.34375,-66.40625,-33.203125,-24.90234375,-11.71875,41.50390625,0.0
270.34765625,-42.96875,-37.59765625,-41.015625,-57.12890625,-10.7421875,0.0
270.3515625,-26.85546875,-41.50390625,-41.9921875,-62.98828125,-20.01953125,0.0
270.35546875,-19.04296875,-41.015625,-33.203125,-30.76171875,47.36328125,0.0
270.359375,-44.921875,-46.875,-31.25,-9.27734375,-17.578125,0.0
270.36328125,-93.26171875,-57.12890625,-31.73828125,-19.04296875,-72.265625,0.0
270.3671875,-91.796875,-62.98828125,-34.1796875,-48.33984375,-107.421875,0.0
270.37109375,-41.50390625,-52.24609375,-31.73828125,-59.08203125,-103.515625,0.0
270.375,-8.30078125,-42.96875,-36.62109375,-44.921875,-65.4296875,0.0
270.37890625,-26.3671875,-45.8984375,-32.71484375,-15.13671875,-80.078125,0.0
270.3828125,-67.3828125,-46.38671875,-30.2734375,-6.8359375,-57.6171875,0.0
270.38671875,-62.5,-40.0390625,-32.2265625,-37.109375,-92.7734375,0.0
270.390625,-11.23046875,-28.80859375,-33.69140625,-58.10546875,-69.3359375,0.0
270.39453125,7.32421875,-31.73828125,-35.64453125,-44.43359375,-37.109375,0.0
270.3984375,-37.109375,-49.31640625,-22.4609375,-10.25390625,-51.7578125,0.0
270.40234375,-83.984375,-62.98828125,-21.97265625,-2.9296875,-45.41015625,0.0
270.40625,-77.1484375,-65.4296875,-32.2265625,-37.59765625,-39.55078125,0.0
270.41015625,-31.25,-49.31640625,-33.203125,-58.10546875,-74.70703125,0.0
270.4140625,-4.8828125,-39.0625,-26.3671875,-41.015625,-80.56640625,0.0
270.41796875,-30.76171875,-46.38671875,-13.18359375,-11.71875,-56.15234375,0.0
270.421875,-56.640625,-42.48046875,-21.484375,-19.04296875,-14.6484375,0.0
270.42578125,-71.2890625,-46.38671875,-35.64453125,-54.19921875,-27.34375,0.0
270.4296875,-37.109375,-46.38671875,-33.69140625,-77.1484375,-72.265625,0.0
270.43359375,0.0,-40.0390625,-31.25,-59.08203125,-54.19921875,0.0
270.4375,-18.06640625,-34.66796875,-27.34375,-25.87890625,1.953125,0.0
270.44140625,-44.921875,-38.57421875,-14.6484375,-8.30078125,5.859375,0.0
270.4453125,-50.29296875,-49.8046875,-17.578125,-25.390625,-21.484375,0.0
270.44921875,-34.66796875,-51.26953125,-32.2265625,-56.640625,-30.2734375,0.0
270.453125,-4.8828125,-40.0390625,-38.57421875,-50.29296875,-65.4296875,0.0
270.45703125,-7.32421875,-34.1796875,-34.66796875,-23.92578125,-102.5390625,0.0
270.4609375,-62.5,-49.31640625,-19.53125,-6.8359375,-58.59375,0.0
270.46484375,-80.078125,-49.8046875,-24.90234375,-21.97265625,-83.49609375,0.0
270.46875,-41.015625,-49.8046875,-33.69140625,-52.24609375,-180.6640625,0.0
270.47265625,-16.6015625,-53.7109375,-34.1796875,-58.10546875,-88.8671875,0.0
270.4765625,-16.11328125,-39.55078125,-36.62109375,-35.64453125,6.34765625,0.0
270.48046875,-47.36328125,-34.66796875,-28.3203125,-9.765625,54.19921875,0.0
270.484375,-68.359375,-40.0390625,-33.203125,-27.34375,84.47265625,0.0
270.48828125,-38.57421875,-43.45703125,-42.48046875,-56.15234375,-16.11328125,0.0
270.4921875,6.34765625,-38.0859375,-35.64453125,-51.26953125,-72.75390625,0.0
270.49609375,1.46484375,-36.1328125,-26.85546875,-23.92578125,-114.74609375,0.0
270.5,-57.6171875,-51.26953125,-23.4375,-0.9765625,-161.1328125,0.0
270.50390625,-79.1015625,-59.5703125,-18.06640625,-11.23046875,-93.75,0.0
270.5078125,-56.15234375,-65.4296875,-23.4375,-41.015625,-20.5078125,0.0
270.51171875,-30.2734375,-62.5,-31.73828125,-58.59375,-9.765625,0.0
270.515625,-14.16015625,-45.8984375,-31.73828125,-44.43359375,-13.671875,0.0
270.51953125,-46.38671875,-48.828125,-29.78515625,-14.6484375,9.27734375,0.0
270.5234375,-80.56640625,-55.6640625,-25.87890625,-13.18359375,16.11328125,0.0
270.52734375,-66.40625,-45.41015625,-26.3671875,-37.109375,9.27734375,0.0
270.53125,-22.4609375,-35.64453125,-35.64453125,-59.08203125,-20.01953125,0.0
270.53515625,-13.671875,-42.48046875,-35.64453125,-38.0859375,2.44140625,0.0
270.5390625,-51.7578125,-46.38671875,-25.390625,-5.859375,18.06640625,0.0
270.54296875,-80.56640625,-40.52734375,-24.90234375,-10.25390625,-3.90625,0.0
270.546875,-67.87109375,-42.96875,-37.59765625,-51.7578125,-26.85546875,0.0
270.55078125,-32.2265625,-52.734375,-43.9453125,-85.44921875,-32.71484375,0.0
270.5546875,-15.13671875,-47.36328125,-33.203125,-62.98828125,34.1796875,0.0
270.55859375,-53.22265625,-43.45703125,-24.4140625,-22.94921875,4.8828125,0.0
270.5625,-104.00390625,-45.41015625,-24.4140625,-10.25390625,-122.55859375,0.0
270.56640625,-101.5625,-44.921875,-33.203125,-38.57421875,-161.1328125,0.0
270.5703125,-76.171875,-54.6875,-39.0625,-69.82421875,-92.7734375,0.0
270.57421875,-53.7109375,-52.734375,-39.55078125,-54.19921875,0.9765625,0.0
270.578125,-47.8515625,-44.921875,-32.71484375,-16.6015625,12.20703125,0.0
270.58203125,-80.078125,-47.36328125,-30.76171875,-11.71875,-32.2265625,0.0
270.5859375,-75.1953125,-46.38671875,-39.0625,-47.8515625,-37.109375,0.0
270.58984375,-24.4140625,-44.921875,-38.57421875,-69.82421875,-23.92578125,0.0
270.59375,-3.41796875,-44.43359375,-35.15625,-51.7578125,-28.80859375,0.0
270.59765625,-26.85546875,-49.8046875,-30.76171875,-23.92578125,-2.44140625,0.0
270.6015625,-68.84765625,-45.41015625,-27.83203125,-14.16015625,-2.9296875,0.0
270.60546875,-81.54296875,-44.43359375,-31.73828125,-27.83203125,-14.16015625,0.0
270.609375,-67.3828125,-63.4765625,-33.203125,-53.22265625,15.13671875,0.0
270.61328125,-41.50390625,-69.82421875,-41.015625,-56.15234375,11.71875,0.0
270.6171875,-49.8046875,-53.22265625,-37.59765625,-24.90234375,-6.34765625,0.0
270.62109375,-83.49609375,-50.29296875,-28.3203125,-10.25390625,0.48828125,0.0
270.625,-83.984375,-59.5703125,-29.78515625,-33.69140625,61.03515625,0.0
270.62890625,-65.91796875,-56.640625,-36.1328125,-64.453125,63.96484375,0.0
270.6328125,-21.97265625,-50.78125,-37.59765625,-66.40625,59.5703125,0.0
270.63671875,-6.34765625,-40.52734375,-24.4140625,-36.62109375,-43.45703125,0.0
270.640625,-59.08203125,-44.921875,-9.765625,-8.30078125,-93.75,0.0
270.64453125,-84.9609375,-53.7109375,-26.3671875,-32.2265625,-22.94921875,0.0
270.6484375,-55.6640625,-58.10546875,-39.0625,-68.84765625,-49.8046875,0.0
270.65234375,-22.4609375,-57.12890625,-32.2265625,-67.87109375,-79.58984375,0.0
270.65625,-16.6015625,-43.45703125,-31.73828125,-42.96875,-80.56640625,0.0
270.66015625,-52.24609375,-44.921875,-23.92578125,-7.8125,-43.45703125,0.0
270.6640625,-103.515625,-65.4296875,-14.6484375,13.18359375,-140.625,0.0
270.66796875,-80.078125,-74.21875,-29.296875,-31.25,-285.15625,0.0
270.671875,-13.18359375,-51.7578125,-49.8046875,-88.37890625,-254.8828125,0.0
270.67578125,-23.92578125,-38.0859375,-43.9453125,-58.10546875,-112.79296875,0.0
270.6796875,-115.72265625,-56.640625,-31.73828125,-22.94921875,18.06640625,0.0
270.68359375,-172.8515625,-71.2890625,-25.390625,-36.1328125,-22.4609375,0.0
270.6875,-194.3359375,-74.70703125,-28.3203125,-72.265625,-68.84765625,0.0
270.69140625,-187.01171875,-77.63671875,-33.69140625,-96.19140625,-85.9375,0.0
270.6953125,-187.98828125,-71.77734375,-33.69140625,-66.89453125,-142.08984375,0.0
270.69921875,-271.484375,-66.89453125,-31.73828125,-28.3203125,-84.9609375,0.0
270.703125,-334.47265625,-65.91796875,-32.71484375,-33.69140625,-5.859375,0.0
270.70703125,-326.66015625,-74.21875,-38.0859375,-62.5,-22.4609375,0.0
270.7109375,-330.078125,-71.77734375,-36.62109375,-66.40625,-48.33984375,0.0
270.71484375,-317.3828125,-41.50390625,-32.71484375,-51.7578125,-36.62109375,0.0
270.71875,-375.9765625,-52.734375,-35.64453125,-36.1328125,16.6015625,0.0
270.72265625,-450.1953125,-62.5,-32.71484375,-15.625,2.9296875,0.0
270.7265625,-426.7578125,-56.15234375,-24.4140625,-34.66796875,-49.8046875,0.0
270.73046875,-391.6015625,-58.10546875,-30.2734375,-60.05859375,-152.34375,0.0
270.734375,-366.2109375,-60.05859375,-41.015625,-55.17578125,-192.87109375,0.0
270.73828125,-386.23046875,-41.015625,-41.015625,-43.9453125,-105.95703125,0.0
270.7421875,-405.2734375,-35.15625,-32.2265625,-29.296875,-142.08984375,0.0
270.74609375,-343.26171875,-15.625,-26.3671875,-41.015625,-57.6171875,0.0
270.75,-322.265625,-4.39453125,-42.96875,-74.21875,22.94921875,0.0
270.75390625,-383.7890625,-28.3203125,-55.17578125,-80.56640625,-67.3828125,0.0
270.7578125,-397.4609375,-8.7890625,-49.8046875,-50.29296875,-34.66796875,0.0
270.76171875,-376.46484375,-3.90625,-41.015625,-34.66796875,-18.06640625,0.0
270.765625,-356.93359375,-47.8515625,-39.55078125,-52.24609375,-57.6171875,0.0
270.76953125,-310.05859375,-34.66796875,-45.8984375,-73.2421875,-31.73828125,0.0
270.7734375,-211.42578125,36.1328125,-43.45703125,-68.359375,-8.30078125,0.0
270.77734375,-205.56640625,58.10546875,-34.1796875,-36.62109375,22.4609375,0.0
270.78125,-302.734375,54.19921875,-35.64453125,-21.484375,60.05859375,0.0
270.78515625,-285.64453125,39.55078125,-35.15625,-29.296875,-77.63671875,0.0
270.7890625,-210.9375,52.734375,-34.1796875,-41.9921875,-88.37890625,0.0
270.79296875,-156.73828125,47.36328125,-37.59765625,-48.33984375,72.265625,0.0
270.796875,-134.27734375,31.73828125,-36.62109375,-28.80859375,107.421875,0.0
270.80078125,-169.43359375,42.96875,-34.66796875,-12.20703125,100.09765625,0.0
270.8046875,-207.03125,20.5078125,-35.15625,-32.2265625,10.25390625,0.0
270.80859375,-133.7890625,28.80859375,-40.52734375,-65.4296875,-81.0546875,0.0
270.8125,-79.1015625,43.45703125,-41.9921875,-70.3125,-87.890625,0.0
270.81640625,-59.5703125,85.44921875,-31.25,-37.109375,-23.4375,0.0
270.8203125,-62.01171875,101.07421875,-20.5078125,-4.39453125,0.48828125,0.0
270.82421875,-74.21875,76.171875,-20.5078125,-13.671875,-90.33203125,0.0
270.828125,-25.390625,107.91015625,-33.203125,-49.31640625,-85.44921875,0.0
270.83203125,-22.94921875,87.890625,-36.1328125,-56.15234375,-54.19921875,0.0
270.8359375,-47.8515625,60.05859375,-22.4609375,-35.15625,-45.8984375,0.0
270.83984375,-22.94921875,99.12109375,-22.94921875,-12.20703125,-49.31640625,0.0
270.84375,-48.33984375,79.58984375,-28.3203125,-12.20703125,-60.546875,0.0
270.84765625,-78.125,56.15234375,-32.71484375,-44.43359375,-29.78515625,0.0
270.8515625,-3.41796875,71.77734375,-34.1796875,-63.96484375,37.59765625,0.0
270.85546875,11.71875,61.03515625,-23.92578125,-39.0625,17.578125,0.0
270.859375,-18.5546875,68.84765625,-18.06640625,-5.859375,-135.7421875,0.0
270.86328125,-24.90234375,77.63671875,-21.97265625,-10.25390625,-147.4609375,0.0
270.8671875,-14.6484375,72.75390625,-29.296875,-41.015625,2.9296875,0.0
270.87109375,7.8125,61.03515625,-30.2734375,-52.734375,26.85546875,0.0
270.875,30.2734375,43.9453125,-32.71484375,-46.875,41.9921875,0.0
270.87890625,44.921875,27.83203125,-22.94921875,-20.5078125,97.16796875,0.0
270.8828125,10.7421875,11.23046875,-22.94921875,-21.97265625,55.17578125,0.0
270.88671875,5.859375,25.87890625,-34.1796875,-53.22265625,28.80859375,0.0
270.890625,37.59765625,49.31640625,-33.203125,-64.94140625,-13.18359375,0.0
270.89453125,60.546875,28.3203125,-32.71484375,-59.08203125,-47.8515625,0.0
270.8984375,63.4765625,11.23046875,-37.59765625,-33.69140625,-37.59765625,0.0
270.90234375,49.8046875,26.3671875,-32.2265625,-19.53125,-42.48046875,0.0
270.90625,58.10546875,27.83203125,-31.73828125,-38.57421875,-55.6640625,0.0
270.91015625,74.21875,16.11328125,-39.55078125,-68.84765625,-37.59765625,0.0
270.9140625,98.6328125,8.30078125,-34.66796875,-55.6640625,-31.25,0.0
270.91796875,72.75390625,-12.6953125,-31.25,-28.3203125,-35.64453125,0.0
270.921875,15.13671875,-30.76171875,-31.73828125,-30.76171875,-23.92578125,0.0
270.92578125,9.27734375,-29.296875,-30.76171875,-43.45703125,-32.71484375,0.0
270.9296875,65.4296875,-29.78515625,-39.0625,-62.98828125,-7.32421875,0.0
270.93359375,69.3359375,-33.203125,-44.43359375,-60.05859375,-58.10546875,0.0
270.9375,34.1796875,-26.85546875,-34.1796875,-28.80859375,-93.75,0.0
270.94140625,19.53125,-33.69140625,-27.83203125,-15.625,-153.80859375,0.0
270.9453125,34.1796875,-35.15625,-32.71484375,-34.66796875,-147.94921875,0.0
270.94921875,89.84375,-27.34375,-33.69140625,-53.22265625,-25.87890625,0.0
270.953125,71.2890625,-25.390625,-33.203125,-59.08203125,61.5234375,0.0
270.95703125,-9.27734375,-46.875,-28.3203125,-28.80859375,45.41015625,0.0
270.9609375,-25.390625,-54.6875,-10.7421875,5.859375,8.7890625,0.0
270.96484375,18.5546875,-52.24609375,-15.13671875,-20.5078125,58.59375,0.0
270.96875,69.82421875,-49.31640625,-24.4140625,-46.875,-22.94921875,0.0
270.97265625,50.78125,-51.26953125,-30.2734375,-60.546875,-68.84765625,0.0
270.9765625,11.23046875,-60.546875,-35.15625,-47.36328125,-41.50390625,0.0
270.98046875,7.8125,-55.6640625,-20.5078125,-6.34765625,-69.3359375,0.0
270.984375,-9.27734375,-62.98828125,-15.625,-12.6953125,16.11328125,0.0
270.98828125,-17.578125,-73.73046875,-24.4140625,-45.41015625,1.953125,0.0
270.9921875,15.13671875,-83.0078125,-27.83203125,-55.6640625,-66.89453125,0.0
270.99609375,11.71875,-85.9375,-23.4375,-36.1328125,-141.6015625,0.0
271.0,-16.6015625,-68.84765625,-23.4375,-14.6484375,-135.25390625,0.0
271.00390625,-33.69140625,-71.77734375,-25.87890625,-20.99609375,-57.6171875,0.0
271.0078125,-10.25390625,-88.8671875,-22.94921875,-47.36328125,-88.8671875,0.0
271.01171875,38.57421875,-83.0078125,-29.296875,-60.546875,-78.125,0.0
271.015625,39.55078125,-60.546875,-37.109375,-43.9453125,-21.484375,0.0
271.01953125,-2.44140625,-43.9453125,-28.3203125,-18.06640625,9.765625,0.0
271.0234375,-34.1796875,-53.22265625,-24.4140625,-22.94921875,85.44921875,0.0
271.02734375,-12.20703125,-57.6171875,-32.2265625,-51.26953125,68.359375,0.0
271.03125,23.92578125,-57.6171875,-35.15625,-63.4765625,-22.4609375,0.0
271.03515625,11.23046875,-56.15234375,-35.15625,-54.6875,37.59765625,0.0
271.0390625,-40.52734375,-61.03515625,-30.2734375,-34.66796875,64.453125,0.0
271.04296875,-55.17578125,-68.84765625,-32.71484375,-26.85546875,25.390625,0.0
271.046875,-31.73828125,-73.2421875,-37.109375,-41.50390625,-7.32421875,0.0
271.05078125,-0.48828125,-81.0546875,-36.1328125,-62.01171875,0.9765625,0.0
271.0546875,18.06640625,-47.8515625,-27.34375,-43.9453125,0.48828125,0.0
271.05859375,13.18359375,-28.3203125,-16.6015625,-8.30078125,-56.640625,0.0
271.0625,-20.01953125,-54.19921875,-27.34375,-20.01953125,-55.6640625,0.0
271.06640625,-29.78515625,-69.82421875,-43.45703125,-57.6171875,-47.36328125,0.0
271.0703125,9.765625,-54.19921875,-41.9921875,-81.0546875,9.27734375,0.0
271.07421875,7.32421875,-42.96875,-39.55078125,-67.87109375,17.578125,0.0
271.078125,-14.6484375,-44.921875,-39.0625,-35.15625,6.8359375,0.0
271.08203125,-37.59765625,-37.109375,-37.59765625,-30.2734375,27.34375,0.0
271.0859375,-31.25,-30.76171875,-36.1328125,-49.31640625,-11.71875,0.0
271.08984375,4.39453125,-25.87890625,-41.015625,-69.82421875,-51.7578125,0.0
271.09375,-20.5078125,-34.1796875,-40.52734375,-62.5,-70.3125,0.0
271.09765625,-38.57421875,-38.0859375,-31.73828125,-30.76171875,-110.3515625,0.0
271.1015625,-41.50390625,-32.2265625,-19.04296875,-6.34765625,-152.34375,0.0
271.10546875,-30.2734375,-26.3671875,-19.04296875,-22.94921875,-64.453125,0.0
271.109375,-22.94921875,-30.2734375,-38.0859375,-59.08203125,-17.578125,0.0
271.11328125,0.48828125,-40.0390625,-43.45703125,-64.453125,-45.8984375,0.0
271.1171875,24.90234375,-43.9453125,-31.25,-31.73828125,29.296875,0.0
271.12109375,-23.92578125,-37.59765625,-22.94921875,-10.7421875,-14.16015625,0.0
271.125,-55.17578125,-39.0625,-36.1328125,-27.34375,-38.0859375,0.0
271.12890625,-31.25,-51.7578125,-45.8984375,-50.78125,-32.2265625,0.0
271.1328125,-24.4140625,-56.640625,-47.36328125,-63.96484375,-78.61328125,0.0
271.13671875,-20.99609375,-62.5,-40.52734375,-36.1328125,-51.26953125,0.0
271.140625,-38.0859375,-62.98828125,-36.62109375,-16.6015625,-29.78515625,0.0
271.14453125,-40.52734375,-39.0625,-39.55078125,-35.15625,-18.06640625,0.0
271.1484375,-22.94921875,-30.2734375,-38.57421875,-53.7109375,-70.80078125,0.0
271.15234375,-2.9296875,-46.875,-40.52734375,-54.19921875,-128.41796875,0.0
271.15625,13.18359375,-54.6875,-36.1328125,-27.83203125,-54.6875,0.0
271.16015625,-22.4609375,-55.17578125,-31.25,-9.765625,-59.08203125,0.0
271.1640625,-67.87109375,-46.875,-33.203125,-20.5078125,-58.59375,0.0
271.16796875,-62.5,-32.71484375,-34.66796875,-42.48046875,-6.8359375,0.0
271.171875,-17.578125,-29.78515625,-39.55078125,-54.6875,-71.2890625,0.0
271.17578125,20.5078125,-31.25,-39.55078125,-44.921875,-138.671875,0.0
271.1796875,3.90625,-35.64453125,-22.4609375,-2.9296875,-35.15625,0.0
271.18359375,-32.71484375,-32.2265625,-13.671875,25.87890625,53.22265625,0.0
271.1875,-53.22265625,-28.3203125,-32.71484375,-27.34375,39.55078125,0.0
271.19140625,-35.15625,-45.8984375,-43.45703125,-84.9609375,56.640625,0.0
271.1953125,-23.4375,-56.15234375,-40.0390625,-78.61328125,65.91796875,0.0
271.19921875,-57.6171875,-62.98828125,-33.69140625,-54.6875,-6.34765625,0.0
271.203125,-72.265625,-73.2421875,-27.34375,-77.1484375,-39.55078125,0.0
271.20703125,-58.59375,-83.49609375,-38.0859375,-143.06640625,-81.54296875,0.0
271.2109375,-20.01953125,-83.0078125,-37.59765625,-165.0390625,-135.7421875,0.0
271.21484375,-19.53125,-87.40234375,-40.0390625,-157.71484375,-121.09375,0.0
271.21875,-75.68359375,-105.95703125,-41.50390625,-139.16015625,-50.78125,0.0
271.22265625,-108.3984375,-124.0234375,-42.96875,-160.15625,-35.15625,0.0
271.2265625,-96.19140625,-122.0703125,-52.734375,-221.6796875,-13.671875,0.0
271.23046875,-38.57421875,-114.74609375,-58.59375,-233.88671875,38.0859375,0.0
271.234375,-1.953125,-117.1875,-57.12890625,-221.6796875,27.83203125,0.0
271.23828125,-46.875,-110.3515625,-58.10546875,-207.03125,-35.15625,0.0
271.2421875,-86.42578125,-113.28125,-58.59375,-192.87109375,-93.26171875,0.0
271.24609375,-78.125,-125.0,-59.08203125,-212.890625,-64.94140625,0.0
271.25,-40.52734375,-115.234375,-67.3828125,-238.28125,-2.44140625,0.0
271.25390625,-24.4140625,-100.5859375,-62.5,-229.00390625,-32.71484375,0.0
271.2578125,-36.1328125,-83.984375,-54.6875,-183.59375,-43.45703125,0.0
271.26171875,-39.55078125,-74.21875,-45.41015625,-179.6875,-41.015625,0.0
271.265625,-36.62109375,-89.35546875,-46.38671875,-201.171875,-22.94921875,0.0
271.26953125,-29.78515625,-96.19140625,-68.84765625,-220.21484375,-13.18359375,0.0
271.2734375,-0.9765625,-80.56640625,-74.21875,-222.16796875,-13.18359375,0.0
271.27734375,20.99609375,-77.1484375,-56.15234375,-180.6640625,-69.82421875,0.0
271.28125,-6.34765625,-92.7734375,-47.36328125,-155.76171875,-5.37109375,0.0
271.28515625,-25.87890625,-88.8671875,-58.10546875,-153.3203125,52.24609375,0.0
271.2890625,6.8359375,-56.15234375,-57.12890625,-151.85546875,22.4609375,0.0
271.29296875,5.37109375,-55.6640625,-51.26953125,-132.32421875,-23.4375,0.0
271.296875,-11.71875,-69.3359375,-45.41015625,-73.73046875,-41.015625,0.0
271.30078125,-27.83203125,-69.3359375,-32.71484375,-48.33984375,-17.08984375,0.0
271.3046875,-39.55078125,-72.75390625,-29.296875,-63.96484375,-63.96484375,0.0
271.30859375,-6.34765625,-70.80078125,-31.25,-75.68359375,-21.484375,0.0
271.3125,22.4609375,-71.2890625,-46.875,-63.4765625,28.3203125,0.0
271.31640625,-3.41796875,-77.1484375,-47.36328125,-26.85546875,-22.4609375,0.0
271.3203125,-53.7109375,-86.42578125,-24.90234375,9.27734375,-49.8046875,0.0
271.32421875,-74.70703125,-83.984375,-22.94921875,19.04296875,-32.2265625,0.0
271.328125,-28.80859375,-65.4296875,-35.15625,1.953125,-70.80078125,0.0
271.33203125,7.32421875,-52.734375,-41.50390625,-22.4609375,-144.53125,0.0
271.3359375,11.23046875,-50.78125,-30.2734375,5.37109375,-99.609375,0.0
271.33984375,-17.08984375,-47.36328125,-18.06640625,55.17578125,8.7890625,0.0
271.34375,-47.36328125,-57.6171875,-14.16015625,58.59375,-33.203125,0.0
271.34765625,-17.578125,-52.24609375,-17.08984375,34.1796875,-103.02734375,0.0
271.3515625,9.765625,-37.59765625,-23.4375,9.765625,-66.89453125,0.0
271.35546875,17.578125,-31.25,-12.20703125,27.83203125,-53.22265625,0.0
271.359375,-7.8125,-34.66796875,-8.30078125,50.29296875,-134.27734375,0.0
271.36328125,-31.25,-28.80859375,-13.18359375,49.31640625,-148.4375,0.0
271.3671875,-7.32421875,-25.87890625,-16.6015625,37.59765625,-137.6953125,0.0
271.37109375,13.671875,-37.109375,-21.97265625,13.671875,-212.40234375,0.0
271.375,9.765625,-32.2265625,-24.90234375,6.8359375,-171.875,0.0
271.37890625,-10.25390625,-31.25,-25.390625,30.76171875,-164.55078125,0.0
271.3828125,-25.390625,-31.73828125,-19.04296875,41.015625,-244.62890625,0.0
271.38671875,-12.20703125,-34.1796875,-11.71875,35.15625,-139.6484375,0.0
271.390625,23.92578125,-35.64453125,-13.18359375,11.23046875,-32.2265625,0.0
271.39453125,46.875,-36.62109375,-21.484375,-6.34765625,-42.48046875,0.0
271.3984375,-11.23046875,-51.7578125,-19.53125,9.765625,-27.83203125,0.0
271.40234375,-54.6875,-46.38671875,-9.27734375,33.203125,-13.18359375,0.0
271.40625,-31.25,-46.38671875,-15.13671875,21.97265625,-15.13671875,0.0
271.41015625,-23.92578125,-58.59375,-23.4375,-8.30078125,-2.44140625,0.0
271.4140625,-30.2734375,-68.359375,-23.4375,11.23046875,17.08984375,0.0
271.41796875,-39.0625,-59.08203125,-15.13671875,35.64453125,69.3359375,0.0
271.421875,-36.1328125,-35.15625,-8.30078125,36.1328125,107.91015625,0.0
271.42578125,-45.8984375,-37.59765625,-13.18359375,18.06640625,35.64453125,0.0
271.4296875,-46.38671875,-49.31640625,-26.3671875,-17.578125,-41.015625,0.0
271.43359375,-19.04296875,-55.17578125,-20.5078125,-11.23046875,-14.16015625,0.0
271.4375,-35.64453125,-58.10546875,-17.08984375,13.18359375,41.50390625,0.0
271.44140625,-80.078125,-57.6171875,-13.671875,26.85546875,104.00390625,0.0
271.4453125,-86.42578125,-60.05859375,-14.6484375,17.578125,89.84375,0.0
271.44921875,-37.109375,-56.15234375,-21.484375,-24.4140625,25.390625,0.0
271.453125,1.953125,-41.9921875,-25.87890625,-46.875,23.92578125,0.0
271.45703125,-38.0859375,-37.59765625,-25.87890625,-12.20703125,1.46484375,0.0
271.4609375,-35.64453125,-41.50390625,-18.06640625,28.3203125,-102.05078125,0.0
271.46484375,-13.18359375,-43.9453125,-19.53125,19.53125,-108.3984375,0.0
271.46875,-5.37109375,-41.50390625,-29.296875,-31.25,1.953125,0.0
271.47265625,-29.78515625,-37.109375,-33.69140625,-47.36328125,-61.5234375,0.0
271.4765625,-54.6875,-32.2265625,-32.2265625,-13.671875,-127.9296875,0.0
271.48046875,-37.109375,-39.55078125,-6.34765625,10.25390625,-94.7265625,0.0
271.484375,-18.06640625,-46.38671875,-5.859375,-16.11328125,-102.5390625,0.0
271.48828125,-22.94921875,-55.6640625,-33.69140625,-52.734375,-92.7734375,0.0
271.4921875,-34.1796875,-63.96484375,-44.921875,-56.15234375,-42.96875,0.0
271.49609375,-40.0390625,-68.359375,-36.62109375,-33.69140625,-38.57421875,0.0
271.5,-30.76171875,-69.82421875,-25.390625,3.41796875,-16.11328125,0.0
271.50390625,-113.76953125,-67.3828125,-22.94921875,7.8125,-36.62109375,0.0
271.5078125,-84.9609375,-73.2421875,-25.87890625,-58.10546875,-74.70703125,0.0
271.51171875,-33.69140625,-68.359375,-33.69140625,-95.703125,7.8125,0.0
271.515625,-32.2265625,-60.05859375,-35.15625,-62.01171875,35.15625,0.0
271.51953125,-68.359375,-55.17578125,-22.4609375,-39.0625,1.46484375,0.0
271.5234375,-83.984375,-54.19921875,-15.625,-39.0625,-17.08984375,0.0
271.52734375,-79.1015625,-66.40625,-20.5078125,-49.8046875,49.31640625,0.0
271.53125,-46.875,-63.96484375,-38.57421875,-74.21875,72.75390625,0.0
271.53515625,-39.0625,-52.24609375,-39.0625,-64.453125,29.78515625,0.0
271.5390625,-72.265625,-63.4765625,-19.04296875,-36.62109375,32.2265625,0.0
271.54296875,-84.47265625,-65.91796875,-8.7890625,-36.1328125,63.4765625,0.0
271.546875,-71.2890625,-58.59375,-15.13671875,-57.12890625,47.8515625,0.0
271.55078125,-21.97265625,-62.98828125,-23.4375,-90.8203125,-2.44140625,0.0
271.5546875,-2.9296875,-55.6640625,-27.34375,-93.26171875,25.390625,0.0
271.55859375,-55.17578125,-51.26953125,-25.390625,-56.15234375,116.69921875,0.0
271.5625,-84.9609375,-45.8984375,-25.87890625,-37.59765625,53.22265625,0.0
271.56640625,-82.51953125,-44.921875,-29.78515625,-51.26953125,-36.62109375,0.0
271.5703125,-59.08203125,-43.45703125,-35.64453125,-80.56640625,-11.71875,0.0
271.57421875,-41.50390625,-27.34375,-36.1328125,-86.42578125,0.48828125,0.0
271.578125,-45.8984375,-20.5078125,-29.78515625,-49.8046875,26.3671875,0.0
271.58203125,-72.75390625,-28.3203125,-26.3671875,-35.15625,37.59765625,0.0
271.5859375,-68.359375,-33.69140625,-27.83203125,-61.5234375,64.453125,0.0
271.58984375,-25.87890625,-22.4609375,-37.59765625,-91.796875,100.5859375,0.0
271.59375,11.71875,-18.5546875,-36.1328125,-86.9140625,31.73828125,0.0
271.59765625,-5.859375,-24.4140625,-21.97265625,-44.43359375,-10.7421875,0.0
271.6015625,-58.59375,-29.296875,-5.37109375,-16.11328125,-51.26953125,0.0
271.60546875,-32.71484375,-33.69140625,-13.18359375,-33.203125,-95.703125,0.0
271.609375,10.25390625,-31.73828125,-40.0390625,-62.98828125,-29.296875,0.0
271.61328125,3.90625,-35.15625,-52.24609375,-76.171875,5.859375,0.0
271.6171875,-20.99609375,-36.1328125,-44.921875,-46.875,51.26953125,0.0
271.62109375,-20.01953125,-37.109375,-39.0625,-23.92578125,10.25390625,0.0
271.625,-39.0625,-44.43359375,-37.59765625,-46.38671875,-21.97265625,0.0
271.62890625,-20.01953125,-36.62109375,-25.87890625,-74.21875,20.5078125,0.0
271.6328125,26.3671875,-35.15625,-23.4375,-79.58984375,6.8359375,0.0
271.63671875,1.46484375,-42.96875,-34.1796875,-49.8046875,72.265625,0.0
271.640625,-35.64453125,-41.50390625,-31.25,-29.78515625,-24.4140625,0.0
271.64453125,-28.80859375,-42.48046875,-26.3671875,-36.1328125,-82.51953125,0.0
271.6484375,10.7421875,-49.31640625,-34.1796875,-53.22265625,4.8828125,0.0
271.65234375,22.4609375,-48.828125,-35.15625,-55.17578125,-20.5078125,0.0
271.65625,5.37109375,-45.41015625,-34.1796875,-46.38671875,51.26953125,0.0
271.66015625,-38.0859375,-57.6171875,-33.69140625,-44.921875,34.1796875,0.0
271.6640625,-49.31640625,-49.8046875,-33.203125,-50.29296875,-69.82421875,0.0
271.66796875,-30.2734375,-38.57421875,-39.55078125,-62.98828125,-91.30859375,0.0
271.671875,-0.9765625,-54.6875,-47.36328125,-76.66015625,-66.89453125,0.0
271.67578125,6.34765625,-58.10546875,-47.36328125,-76.171875,-67.3828125,0.0
271.6796875,-19.53125,-48.33984375,-46.875,-51.7578125,-68.359375,0.0
271.68359375,-18.5546875,-42.96875,-46.875,-37.59765625,-42.48046875,0.0
271.6875,-7.8125,-51.7578125,-52.24609375,-43.9453125,-63.96484375,0.0
271.69140625,-2.9296875,-47.36328125,-60.05859375,-48.33984375,-40.0390625,0.0
271.6953125,7.32421875,-36.1328125,-54.19921875,-76.66015625,-11.23046875,0.0
271.69921875,-22.94921875,-45.41015625,-40.0390625,-73.73046875,-21.97265625,0.0
271.703125,-42.48046875,-49.8046875,-28.80859375,-30.76171875,-45.41015625,0.0
271.70703125,-23.4375,-50.78125,-37.59765625,-49.31640625,-68.84765625,0.0
271.7109375,18.06640625,-38.57421875,-41.50390625,-77.1484375,-25.87890625,0.0
271.71484375,46.38671875,-28.3203125,-34.66796875,-59.5703125,18.06640625,0.0
271.71875,17.08984375,-41.015625,-27.83203125,-30.2734375,20.5078125,0.0
271.72265625,-21.97265625,-48.33984375,-23.92578125,-13.18359375,32.2265625,0.0
271.7265625,-30.76171875,-49.8046875,-23.4375,-43.45703125,15.13671875,0.0
271.73046875,13.671875,-41.015625,-31.73828125,-75.1953125,6.34765625,0.0
271.734375,26.85546875,-34.66796875,-40.0390625,-68.359375,-62.5,0.0
271.73828125,-19.53125,-43.9453125,-34.66796875,-34.1796875,-92.28515625,0.0
271.7421875,-36.62109375,-47.36328125,-29.296875,-12.6953125,-89.35546875,0.0
271.74609375,-10.25390625,-49.31640625,-22.4609375,-28.80859375,-139.6484375,0.0
271.75,13.18359375,-51.26953125,-20.01953125,-52.24609375,-89.35546875,0.0
271.75390625,19.04296875,-51.7578125,-38.57421875,-65.91796875,-75.1953125,0.0
271.7578125,-1.46484375,-56.15234375,-39.0625,-45.8984375,-163.0859375,0.0
271.76171875,-45.8984375,-59.08203125,-22.94921875,-9.765625,-205.078125,0.0
271.765625,-51.26953125,-60.05859375,-21.97265625,-15.13671875,-210.44921875,0.0
271.76953125,-26.3671875,-54.6875,-35.15625,-62.01171875,-203.61328125,0.0
271.7734375,3.90625,-54.6875,-47.36328125,-76.66015625,-198.73046875,0.0
271.77734375,-7.32421875,-56.640625,-41.50390625,-41.50390625,-182.6171875,0.0
271.78125,-37.59765625,-54.19921875,-27.83203125,-11.23046875,-149.90234375,0.0
271.78515625,-41.9921875,-55.17578125,-27.34375,-24.4140625,-97.16796875,0.0
271.7890625,-39.0625,-56.640625,-40.52734375,-57.12890625,-49.8046875,0.0
271.79296875,-17.08984375,-50.78125,-45.41015625,-60.546875,-172.8515625,0.0
271.796875,-15.13671875,-41.9921875,-42.96875,-27.83203125,-206.0546875,0.0
271.80078125,-53.22265625,-40.52734375,-38.57421875,-7.32421875,-92.7734375,0.0
271.8046875,-58.10546875,-39.0625,-27.34375,-35.64453125,-87.890625,0.0
271.80859375,-6.8359375,-42.96875,-17.08984375,-49.8046875,27.34375,0.0
271.8125,20.99609375,-44.43359375,-29.296875,-61.5234375,58.10546875,0.0
271.81640625,-15.625,-44.921875,-42.96875,-56.640625,22.4609375,0.0
271.8203125,-37.109375,-50.78125,-36.1328125,-9.765625,60.546875,0.0
271.82421875,-48.33984375,-40.0390625,-32.2265625,-4.39453125,21.97265625,0.0
271.828125,-32.71484375,-40.0390625,-35.64453125,-57.6171875,-11.23046875,0.0
271.83203125,-29.296875,-47.36328125,-44.921875,-90.33203125,16.6015625,0.0
271.8359375,-69.3359375,-40.52734375,-42.96875,-67.87109375,-37.59765625,0.0
271.83984375,-121.58203125,-63.96484375,-28.3203125,-15.625,-79.58984375,0.0
271.84375,-148.92578125,-86.9140625,-24.90234375,-15.13671875,-32.71484375,0.0
271.84765625,-198.73046875,-53.22265625,-33.69140625,-54.6875,47.36328125,0.0
271.8515625,-165.52734375,-65.91796875,-33.203125,-80.56640625,60.05859375,0.0
271.85546875,-90.8203125,-106.4453125,-30.2734375,-68.359375,42.96875,0.0
271.859375,-161.62109375,-94.7265625,-29.296875,-33.69140625,50.29296875,0.0
271.86328125,-208.984375,-92.28515625,-25.390625,-19.04296875,5.859375,0.0
271.8671875,-198.73046875,-87.40234375,-28.3203125,-50.78125,-33.203125,0.0
271.87109375,-194.82421875,-86.9140625,-31.25,-76.171875,-85.44921875,0.0
271.875,-185.546875,-80.56640625,-31.73828125,-65.4296875,-130.859375,0.0
271.87890625,-207.03125,-69.3359375,-33.203125,-45.41015625,-127.9296875,0.0
271.8828125,-258.30078125,-60.546875,-25.390625,-20.01953125,-24.4140625,0.0
271.88671875,-229.98046875,-69.3359375,-25.87890625,-28.80859375,0.0,0.0
271.890625,-173.828125,-61.5234375,-35.15625,-73.73046875,-8.7890625,0.0
271.89453125,-193.84765625,-51.7578125,-34.1796875,-88.8671875,8.7890625,0.0
271.8984375,-230.95703125,-54.6875,-24.4140625,-45.8984375,2.44140625,0.0
271.90234375,-272.94921875,-70.3125,-20.99609375,-28.80859375,-21.484375,0.0
271.90625,-257.32421875,-81.0546875,-20.99609375,-40.0390625,70.80078125,0.0
271.91015625,-220.21484375,-79.58984375,-30.2734375,-66.89453125,137.6953125,0.0
271.9140625,-189.453125,-80.56640625,-38.57421875,-74.21875,124.51171875,0.0
271.91796875,-203.61328125,-66.40625,-25.87890625,-28.80859375,70.3125,0.0
271.921875,-235.83984375,-63.4765625,-25.390625,-5.37109375,-30.2734375,0.0
271.92578125,-237.3046875,-62.98828125,-20.99609375,-25.87890625,-25.390625,0.0
271.9296875,-215.33203125,-60.546875,-22.4609375,-53.22265625,-34.1796875,0.0
271.93359375,-155.2734375,-56.15234375,-37.59765625,-67.3828125,0.48828125,0.0
271.9375,-176.7578125,-53.22265625,-38.0859375,-43.45703125,-49.8046875,0.0
271.94140625,-220.703125,-52.734375,-28.80859375,-8.30078125,-116.69921875,0.0
271.9453125,-201.171875,-55.17578125,-20.01953125,-3.90625,-167.96875,0.0
271.94921875,-165.0390625,-54.19921875,-26.85546875,-47.8515625,-176.26953125,0.0
271.953125,-117.1875,-51.7578125,-37.109375,-84.9609375,-93.26171875,0.0
271.95703125,-122.0703125,-44.921875,-27.83203125,-52.734375,-8.7890625,0.0
271.9609375,-163.57421875,-39.55078125,-18.5546875,-10.25390625,20.5078125,0.0
271.96484375,-143.5546875,-40.52734375,-19.53125,-4.8828125,34.66796875,0.0
271.96875,-104.4921875,-41.50390625,-32.2265625,-36.62109375,44.921875,0.0
271.97265625,-74.70703125,-45.8984375,-34.1796875,-37.59765625,-41.015625,0.0
271.9765625,-84.47265625,-37.109375,-23.4375,-21.97265625,-117.67578125,0.0
271.98046875,-122.0703125,-36.62109375,-22.4609375,-28.80859375,-81.0546875,0.0
271.984375,-86.42578125,-45.8984375,-23.4375,-31.25,-84.47265625,0.0
271.98828125,-39.55078125,-43.45703125,-28.3203125,-57.6171875,-56.15234375,0.0
271.9921875,-25.87890625,-29.296875,-39.0625,-70.80078125,-41.015625,0.0
271.99609375,-19.04296875,-28.3203125,-41.50390625,-50.78125,-11.23046875,0.0
272.0,13.18359375,-34.1796875,-29.78515625,-22.4609375,-56.640625,0.0
272.00390625,22.94921875,-18.5546875,-16.6015625,-11.71875,-103.515625,0.0
272.0078125,32.71484375,-20.99609375,-26.85546875,-41.9921875,-9.27734375,0.0
272.01171875,89.84375,-20.01953125,-39.0625,-70.80078125,20.01953125,0.0
272.015625,92.28515625,-17.08984375,-32.2265625,-53.7109375,18.06640625,0.0
272.01953125,61.03515625,-25.87890625,-14.6484375,3.41796875,49.31640625,0.0
272.0234375,53.22265625,-24.4140625,-6.34765625,32.71484375,30.2734375,0.0
272.02734375,97.16796875,-19.04296875,-29.296875,-25.87890625,-3.41796875,0.0
272.03125,150.390625,-13.671875,-37.59765625,-92.7734375,17.578125,0.0
272.03515625,168.9453125,-3.90625,-22.4609375,-85.44921875,17.08984375,0.0
272.0390625,168.45703125,2.9296875,-20.01953125,-65.4296875,0.0,0.0
272.04296875,131.8359375,-3.41796875,-27.34375,-82.51953125,-36.1328125,0.0
272.046875,116.2109375,-17.08984375,-35.64453125,-101.07421875,-98.6328125,0.0
272.05078125,149.4140625,-14.16015625,-18.5546875,-103.515625,-64.94140625,0.0
272.0546875,167.96875,-7.8125,-23.92578125,-147.94921875,44.921875,0.0
272.05859375,135.7421875,-12.6953125,-34.66796875,-145.5078125,62.01171875,0.0
272.0625,122.55859375,-15.625,-29.296875,-86.9140625,7.8125,0.0
272.06640625,-87.890625,-14.6484375,-35.64453125,-111.81640625,-41.50390625,0.0
272.0703125,-111.81640625,-11.23046875,-49.8046875,-158.203125,-82.51953125,0.0
272.07421875,-124.51171875,-16.11328125,-50.29296875,-132.32421875,-104.00390625,0.0
272.078125,-135.25390625,-30.76171875,-37.59765625,-95.21484375,-88.8671875,0.0
272.08203125,-121.58203125,-41.015625,-35.15625,-107.421875,-52.24609375,0.0
272.0859375,-86.42578125,-37.109375,-31.73828125,-129.8828125,-0.9765625,0.0
272.08984375,-67.3828125,-27.83203125,-36.62109375,-125.9765625,52.24609375,0.0
272.09375,-86.9140625,-36.62109375,-37.109375,-135.7421875,55.17578125,0.0
272.09765625,-121.09375,-38.0859375,-32.2265625,-135.7421875,29.296875,0.0
272.1015625,-98.14453125,-29.78515625,-27.83203125,-101.5625,14.16015625,0.0
272.10546875,-43.45703125,-28.3203125,-19.04296875,-84.47265625,-6.34765625,0.0
272.109375,-50.78125,-23.4375,-29.78515625,-109.86328125,-34.66796875,0.0
272.11328125,149.4140625,-36.62109375,-40.52734375,-125.0,13.671875,0.0
272.1171875,129.39453125,-44.921875,-36.62109375,-75.68359375,62.5,0.0
272.12109375,90.8203125,-50.78125,-20.5078125,-38.0859375,26.3671875,0.0
272.125,81.54296875,-54.6875,-17.08984375,-43.45703125,-14.16015625,0.0
272.12890625,113.28125,-41.9921875,-39.0625,-62.01171875,-45.8984375,0.0
272.1328125,130.37109375,-34.66796875,-44.921875,-49.31640625,-118.1640625,0.0
272.13671875,129.39453125,-41.9921875,-32.2265625,-24.4140625,-204.58984375,0.0
272.140625,102.05078125,-43.9453125,-7.32421875,-5.859375,-228.515625,0.0
272.14453125,84.9609375,-37.109375,-2.9296875,-4.39453125,-200.1953125,0.0
272.1484375,118.1640625,-39.55078125,-29.78515625,-51.26953125,-138.18359375,0.0
272.15234375,160.64453125,-29.296875,-28.3203125,-70.3125,-141.6015625,0.0
272.15625,137.6953125,-21.97265625,-15.13671875,-48.33984375,26.3671875,0.0
272.16015625,95.21484375,-27.34375,-11.71875,-18.5546875,122.55859375,0.0
272.1640625,79.1015625,-34.66796875,-12.20703125,-0.9765625,9.27734375,0.0
272.16796875,102.5390625,-41.9921875,-22.4609375,-26.85546875,-24.90234375,0.0
272.171875,122.55859375,-42.48046875,-35.64453125,-52.24609375,-76.171875,0.0
272.17578125,120.60546875,-48.828125,-33.203125,-39.55078125,17.578125,0.0
272.1796875,93.75,-49.8046875,-22.4609375,-3.90625,-14.6484375,0.0
272.18359375,57.6171875,-57.12890625,-11.23046875,16.11328125,-126.953125,0.0
272.1875,71.77734375,-59.5703125,-20.01953125,-5.859375,-118.1640625,0.0
272.19140625,94.23828125,-50.29296875,-40.0390625,-33.203125,-43.45703125,0.0
272.1953125,81.0546875,-42.48046875,-34.1796875,-24.90234375,1.953125,0.0
272.19921875,57.12890625,-40.52734375,-22.94921875,-5.859375,-14.16015625,0.0
272.203125,40.52734375,-39.55078125,-20.5078125,-3.90625,67.87109375,0.0
272.20703125,53.22265625,-46.875,-25.390625,-17.578125,83.984375,0.0
272.2109375,92.28515625,-52.734375,-40.0390625,-30.2734375,73.2421875,0.0
272.21484375,81.54296875,-44.43359375,-44.43359375,-32.2265625,3.41796875,0.0
272.21875,8.30078125,-42.96875,-37.59765625,-22.4609375,-47.36328125,0.0
272.22265625,-50.29296875,-57.6171875,-37.109375,-14.16015625,-77.63671875,0.0
272.2265625,-66.40625,-68.359375,-32.71484375,-18.06640625,-198.73046875,0.0
272.23046875,-92.7734375,-68.359375,-36.1328125,-42.96875,-218.26171875,0.0
272.234375,-113.76953125,-70.3125,-40.0390625,-51.7578125,-214.35546875,0.0
272.23828125,-140.13671875,-75.1953125,-31.25,-13.671875,-210.9375,0.0
272.2421875,-194.3359375,-82.51953125,-20.01953125,10.25390625,-195.3125,0.0
272.24609375,-234.86328125,-94.23828125,-18.06640625,-12.6953125,-153.80859375,0.0
272.25,-205.56640625,-94.7265625,-33.203125,-57.12890625,1.46484375,0.0
272.25390625,-184.08203125,-83.984375,-36.1328125,-77.63671875,89.35546875,0.0
272.2578125,-207.51953125,-80.56640625,-29.296875,-42.48046875,24.4140625,0.0
272.26171875,-242.1875,-82.03125,-23.92578125,-13.671875,15.13671875,0.0
272.265625,-260.25390625,-84.47265625,-20.99609375,-24.90234375,-5.37109375,0.0
272.26953125,-216.796875,-73.73046875,-33.203125,-50.29296875,-53.22265625,0.0
272.2734375,-168.9453125,-56.640625,-41.9921875,-62.98828125,-55.17578125,0.0
272.27734375,-180.6640625,-67.3828125,-33.69140625,-41.015625,-62.98828125,0.0
272.28125,-208.49609375,-68.359375,-28.3203125,-12.6953125,-77.1484375,0.0
272.28515625,-186.03515625,-63.4765625,-33.203125,-5.37109375,-15.13671875,0.0
272.2890625,-144.53125,-63.96484375,-37.59765625,-32.2265625,24.90234375,0.0
272.29296875,-137.6953125,-70.3125,-42.48046875,-66.89453125,-23.4375,0.0
272.296875,-125.0,-65.91796875,-35.64453125,-52.734375,-30.2734375,0.0
272.30078125,-130.859375,-54.19921875,-13.671875,-12.6953125,-30.2734375,0.0
272.3046875,-139.6484375,-51.26953125,-12.20703125,-15.13671875,-72.265625,0.0
272.30859375,-102.5390625,-51.26953125,-20.5078125,-42.48046875,-65.91796875,0.0
272.3125,-79.1015625,-57.12890625,-28.3203125,-55.6640625,6.34765625,0.0
272.31640625,-81.0546875,-61.03515625,-30.2734375,-39.55078125,-1.953125,0.0
272.3203125,-95.21484375,-61.03515625,-19.04296875,-7.8125,15.13671875,0.0
272.32421875,-93.75,-64.453125,-18.5546875,-5.859375,-33.69140625,0.0
272.328125,-72.265625,-65.91796875,-29.296875,-30.2734375,-99.12109375,0.0
272.33203125,-38.0859375,-59.5703125,-37.109375,-66.89453125,-4.39453125,0.0
272.3359375,-27.34375,-61.5234375,-40.52734375,-71.77734375,-5.37109375,0.0
272.33984375,-49.8046875,-66.89453125,-29.78515625,-32.71484375,1.46484375,0.0
272.34375,-54.6875,-59.08203125,-16.6015625,-13.18359375,12.20703125,0.0
272.34765625,-12.20703125,-55.17578125,-27.34375,-50.29296875,-42.48046875,0.0
272.3515625,24.90234375,-51.7578125,-38.0859375,-89.84375,-7.8125,0.0
272.35546875,36.1328125,-41.50390625,-36.1328125,-70.80078125,51.7578125,0.0
272.359375,27.34375,-42.48046875,-26.85546875,-21.97265625,92.28515625,0.0
272.36328125,11.23046875,-52.734375,-18.06640625,-6.8359375,56.15234375,0.0
272.3671875,20.01953125,-47.36328125,-22.4609375,-36.62109375,20.01953125,0.0
272.37109375,63.96484375,-47.8515625,-27.83203125,-62.01171875,22.94921875,0.0
272.375,86.42578125,-46.875,-33.69140625,-61.5234375,-18.06640625,0.0
272.37890625,33.69140625,-51.26953125,-23.92578125,-31.25,-83.0078125,0.0
272.3828125,15.13671875,-51.7578125,-16.11328125,-15.13671875,-79.58984375,0.0
272.38671875,57.12890625,-43.9453125,-23.92578125,-41.015625,-58.59375,0.0
272.390625,99.12109375,-40.52734375,-31.25,-69.82421875,-53.22265625,0.0
272.39453125,91.30859375,-48.33984375,-41.015625,-66.89453125,2.9296875,0.0
272.3984375,60.05859375,-61.03515625,-40.52734375,-27.83203125,-12.20703125,0.0
272.40234375,37.109375,-60.546875,-23.4375,4.39453125,-26.3671875,0.0
272.40625,47.8515625,-51.26953125,-18.06640625,-12.6953125,61.5234375,0.0
272.41015625,79.1015625,-47.8515625,-31.25,-45.41015625,57.12890625,0.0
272.4140625,98.14453125,-45.8984375,-34.66796875,-37.59765625,18.06640625,0.0
272.41796875,78.125,-42.48046875,-25.390625,-13.18359375,80.078125,0.0
272.421875,20.5078125,-50.78125,-11.71875,4.8828125,6.8359375,0.0
272.42578125,30.2734375,-49.31640625,-7.8125,-11.23046875,-84.9609375,0.0
272.4296875,93.26171875,-36.1328125,-23.4375,-61.03515625,0.48828125,0.0
272.43359375,104.4921875,-37.59765625,-30.2734375,-73.2421875,9.765625,0.0
272.4375,89.35546875,-27.83203125,-26.85546875,-33.203125,6.8359375,0.0
272.44140625,56.15234375,-30.2734375,-26.85546875,-19.53125,19.04296875,0.0
272.4453125,46.875,-42.48046875,-25.390625,-40.52734375,50.29296875,0.0
272.44921875,79.58984375,-32.2265625,-37.109375,-60.05859375,73.73046875,0.0
272.453125,95.21484375,-21.97265625,-45.8984375,-69.82421875,72.75390625,0.0
272.45703125,76.66015625,-28.3203125,-37.59765625,-44.921875,52.24609375,0.0
272.4609375,43.45703125,-28.3203125,-28.3203125,-15.625,-16.11328125,0.0
272.46484375,21.97265625,-27.83203125,-27.83203125,-12.6953125,-59.5703125,0.0
272.46875,25.87890625,-40.52734375,-24.90234375,-28.3203125,-93.26171875,0.0
272.47265625,44.43359375,-42.96875,-29.78515625,-55.17578125,-74.70703125,0.0
272.4765625,31.25,-47.8515625,-36.1328125,-49.31640625,-132.32421875,0.0
272.48046875,-10.7421875,-58.10546875,-21.97265625,-6.34765625,-151.3671875,0.0
272.484375,-19.53125,-52.734375,-16.6015625,1.953125,-107.421875,0.0
272.48828125,9.765625,-43.45703125,-30.2734375,-31.73828125,-59.08203125,0.0
272.4921875,31.25,-48.33984375,-37.109375,-55.17578125,-85.9375,0.0
272.49609375,13.18359375,-49.8046875,-25.390625,-33.203125,-107.91015625,0.0
272.5,-21.97265625,-51.7578125,-19.53125,0.0,-135.7421875,0.0
272.50390625,-36.1328125,-57.6171875,-22.4609375,5.37109375,-97.16796875,0.0
272.5078125,-10.25390625,-44.43359375,-21.97265625,-18.06640625,-25.87890625,0.0
272.51171875,24.4140625,-40.0390625,-26.3671875,-48.828125,-32.71484375,0.0
272.515625,25.87890625,-45.8984375,-25.390625,-38.0859375,30.76171875,0.0
272.51953125,-12.20703125,-42.48046875,-24.4140625,-5.859375,-18.5546875,0.0
272.5234375,-47.36328125,-50.78125,-26.85546875,16.11328125,-96.19140625,0.0
272.52734375,-50.78125,-55.6640625,-22.94921875,-4.39453125,-78.61328125,0.0
272.53125,-15.13671875,-36.62109375,-35.15625,-51.7578125,-44.921875,0.0
272.53515625,14.6484375,-25.390625,-39.0625,-60.05859375,25.87890625,0.0
272.5390625,-7.32421875,-42.48046875,-29.78515625,-23.4375,-41.50390625,0.0
272.54296875,-40.0390625,-45.41015625,-19.04296875,9.27734375,-66.89453125,0.0
272.546875,-54.6875,-45.41015625,-18.5546875,-15.625,5.859375,0.0
272.55078125,-24.90234375,-45.8984375,-39.55078125,-67.3828125,-0.48828125,0.0
272.5546875,-7.8125,-44.43359375,-38.57421875,-60.546875,-19.53125,0.0
272.55859375,-53.22265625,-62.01171875,-15.625,-20.99609375,-12.20703125,0.0
272.5625,-81.54296875,-69.82421875,-13.671875,-8.30078125,-11.71875,0.0
272.56640625,-55.6640625,-61.5234375,-22.4609375,-24.4140625,-47.36328125,0.0
272.5703125,-19.53125,-48.33984375,-27.83203125,-52.734375,-21.97265625,0.0
272.57421875,-10.25390625,-46.38671875,-30.2734375,-47.8515625,57.6171875,0.0
272.578125,-49.31640625,-62.5,-27.83203125,-15.625,84.47265625,0.0
272.58203125,-95.703125,-78.61328125,-20.01953125,1.953125,59.08203125,0.0
272.5859375,-93.26171875,-77.63671875,-15.13671875,-1.46484375,-27.34375,0.0
272.58984375,-62.5,-74.70703125,-21.97265625,-41.50390625,-5.37109375,0.0
272.59375,-62.01171875,-82.51953125,-33.203125,-52.734375,-29.78515625,0.0
272.59765625,-72.265625,-83.49609375,-31.73828125,-22.4609375,-130.859375,0.0
272.6015625,-88.37890625,-70.80078125,-15.625,0.9765625,-88.8671875,0.0
272.60546875,-95.21484375,-72.265625,-15.625,6.8359375,-63.96484375,0.0
272.609375,-58.10546875,-81.0546875,-33.203125,-33.203125,10.7421875,0.0
272.61328125,-40.52734375,-72.75390625,-41.015625,-63.4765625,39.55078125,0.0
272.6171875,-69.3359375,-60.546875,-27.83203125,-35.64453125,-20.99609375,0.0
272.62109375,-111.81640625,-64.453125,-12.20703125,3.41796875,-20.01953125,0.0
272.625,-125.9765625,-74.70703125,-23.92578125,1.953125,-28.3203125,0.0
272.62890625,-91.30859375,-62.01171875,-33.203125,-24.4140625,-8.7890625,0.0
272.6328125,-66.89453125,-46.38671875,-41.015625,-68.84765625,-7.32421875,0.0
272.63671875,-77.1484375,-44.43359375,-39.55078125,-59.08203125,-6.34765625,0.0
272.640625,-90.8203125,-44.43359375,-22.4609375,-0.9765625,19.04296875,0.0
272.64453125,-109.86328125,-57.12890625,-21.97265625,2.9296875,-127.9296875,0.0
272.6484375,-119.62890625,-62.01171875,-23.92578125,-34.66796875,-257.8125,0.0
272.65234375,-104.4921875,-64.453125,-33.69140625,-66.89453125,-237.79296875,0.0
272.65625,-86.42578125,-72.75390625,-42.96875,-59.5703125,-226.5625,0.0
272.66015625,-107.91015625,-71.2890625,-27.83203125,-6.8359375,-239.2578125,0.0
272.6640625,-132.32421875,-62.5,-14.16015625,16.6015625,-162.109375,0.0
272.66796875,-110.83984375,-49.8046875,-22.4609375,-23.4375,-156.25,0.0
272.671875,-77.63671875,-36.1328125,-35.15625,-63.4765625,-167.48046875,0.0
272.67578125,-81.0546875,-29.296875,-40.52734375,-51.7578125,-79.1015625,0.0
272.6796875,-113.28125,-35.64453125,-30.76171875,-28.80859375,-125.0,0.0
272.68359375,-129.8828125,-44.43359375,-20.99609375,-13.18359375,-175.29296875,0.0
272.6875,-103.02734375,-37.109375,-31.73828125,-19.04296875,-51.7578125,0.0
272.69140625,-79.1015625,-37.109375,-37.109375,-51.7578125,-33.203125,0.0
272.6953125,-89.35546875,-48.828125,-37.109375,-52.734375,-132.32421875,0.0
272.69921875,-104.98046875,-45.41015625,-32.2265625,-32.71484375,-49.8046875,0.0
272.703125,-126.953125,-46.38671875,-24.90234375,-32.2265625,44.921875,0.0
272.70703125,-125.9765625,-59.08203125,-22.94921875,-45.41015625,-13.18359375,0.0
272.7109375,-88.8671875,-56.640625,-25.87890625,-58.59375,32.71484375,0.0
272.71484375,-62.98828125,-43.45703125,-32.2265625,-61.5234375,123.046875,0.0
272.71875,-74.70703125,-42.48046875,-30.76171875,-34.66796875,80.078125,0.0
272.72265625,-103.02734375,-44.43359375,-21.484375,0.9765625,21.484375,0.0
272.7265625,-102.05078125,-48.828125,-24.90234375,9.27734375,0.48828125,0.0
272.73046875,-52.24609375,-39.0625,-36.1328125,-40.52734375,8.30078125,0.0
272.734375,-19.53125,-31.73828125,-39.55078125,-83.49609375,-8.30078125,0.0
272.73828125,-64.453125,-38.57421875,-33.203125,-48.33984375,-41.015625,0.0
272.7421875,-89.35546875,-31.25,-19.53125,-16.6015625,-99.12109375,0.0
272.74609375,-68.359375,-32.71484375,-24.4140625,-25.390625,-124.51171875,0.0
272.75,-54.6875,-39.55078125,-40.0390625,-43.45703125,-0.48828125,0.0
272.75390625,-54.19921875,-42.96875,-49.31640625,-57.6171875,60.05859375,0.0
272.7578125,-73.2421875,-42.48046875,-38.0859375,-45.41015625,114.74609375,0.0
272.76171875,-91.796875,-44.43359375,-14.6484375,-14.16015625,73.73046875,0.0
272.765625,-80.078125,-39.0625,-17.578125,-6.34765625,-20.01953125,0.0
272.76953125,-33.203125,-25.390625,-34.1796875,-49.8046875,25.390625,0.0
272.7734375,-16.6015625,-29.78515625,-35.64453125,-68.359375,13.18359375,0.0
272.77734375,-42.48046875,-36.1328125,-31.73828125,-38.0859375,-14.16015625,0.0
272.78125,-65.4296875,-35.64453125,-23.4375,-7.8125,17.08984375,0.0
272.78515625,-71.77734375,-35.64453125,-24.4140625,-6.34765625,37.59765625,0.0
272.7890625,-34.1796875,-22.94921875,-28.80859375,-25.87890625,42.48046875,0.0
272.79296875,0.0,-21.484375,-32.71484375,-39.0625,56.640625,0.0
272.796875,-24.90234375,-37.109375,-32.71484375,-43.9453125,86.42578125,0.0
272.80078125,-53.22265625,-44.921875,-16.11328125,-19.04296875,77.1484375,0.0
272.8046875,-48.33984375,-37.109375,-14.6484375,-4.39453125,17.08984375,0.0
272.80859375,-28.3203125,-27.83203125,-30.2734375,-30.76171875,-7.32421875,0.0
272.8125,-13.18359375,-29.78515625,-42.48046875,-55.17578125,-50.29296875,0.0
272.81640625,-43.9453125,-23.4375,-35.15625,-24.90234375,-55.6640625,0.0
272.8203125,-20.5078125,-39.0625,-19.04296875,36.62109375,-63.4765625,0.0
272.82421875,14.16015625,-23.4375,-15.13671875,37.59765625,-136.71875,0.0
272.828125,-31.25,-6.8359375,-26.85546875,-51.26953125,-75.1953125,0.0
272.83203125,-74.70703125,-20.5078125,-43.45703125,-100.09765625,-64.453125,0.0
272.8359375,-57.12890625,-16.6015625,-38.0859375,-64.453125,-96.6796875,0.0
272.83984375,-55.17578125,-6.8359375,-24.4140625,-37.59765625,-35.15625,0.0
272.84375,-56.15234375,-29.296875,-22.94921875,-41.50390625,-94.23828125,0.0
272.84765625,-41.50390625,-42.96875,-32.71484375,-69.82421875,-58.10546875,0.0
272.8515625,-66.40625,-30.2734375,-38.57421875,-113.28125,0.9765625,0.0
272.85546875,-99.12109375,-29.296875,-34.1796875,-91.796875,-75.68359375,0.0
272.859375,-95.21484375,-30.2734375,-32.2265625,-48.828125,-76.66015625,0.0
272.86328125,-69.82421875,-35.64453125,-32.2265625,-59.08203125,-11.23046875,0.0
272.8671875,-53.7109375,-28.3203125,-35.64453125,-82.03125,-23.4375,0.0
272.87109375,-16.6015625,-15.625,-27.83203125,-106.93359375,-46.38671875,0.0
272.875,-4.39453125,-15.13671875,-27.34375,-104.00390625,22.94921875,0.0
272.87890625,-31.73828125,-22.94921875,-28.80859375,-60.546875,29.78515625,0.0
272.8828125,-49.31640625,-15.625,-17.08984375,-20.01953125,0.48828125,0.0
272.88671875,-33.69140625,-5.859375,-13.18359375,-21.97265625,26.85546875,0.0
272.890625,-20.5078125,-15.13671875,-17.578125,-63.4765625,43.45703125,0.0
272.89453125,-21.97265625,-17.08984375,-36.1328125,-75.1953125,79.58984375,0.0
272.8984375,-27.34375,-14.16015625,-41.50390625,-44.43359375,-12.20703125,0.0
272.90234375,-57.6171875,-22.94921875,-19.53125,-20.01953125,-97.65625,0.0
272.90625,-75.68359375,-38.57421875,-17.578125,-25.87890625,-53.22265625,0.0
272.91015625,-52.24609375,-35.15625,-37.109375,-68.359375,-41.9921875,0.0
272.9140625,-34.1796875,-12.6953125,-45.8984375,-86.42578125,-39.0625,0.0
272.91796875,-28.80859375,-8.7890625,-37.59765625,-33.203125,-86.42578125,0.0
272.921875,-55.17578125,-18.06640625,-27.83203125,10.7421875,-99.609375,0.0
272.92578125,-70.80078125,-21.97265625,-23.92578125,-10.25390625,-85.9375,0.0
272.9296875,-38.0859375,-18.5546875,-35.64453125,-38.0859375,-10.25390625,0.0
272.93359375,-30.76171875,-26.85546875,-40.0390625,-52.734375,-11.71875,0.0
272.9375,-48.33984375,-31.73828125,-36.62109375,-44.43359375,-70.80078125,0.0
272.94140625,-59.5703125,-19.04296875,-31.25,-19.53125,-66.89453125,0.0
272.9453125,-55.17578125,-9.765625,-24.90234375,-15.625,-17.08984375,0.0
272.94921875,-31.73828125,-15.625,-33.203125,-37.109375,13.671875,0.0
272.953125,-24.90234375,-17.08984375,-38.0859375,-48.828125,-34.1796875,0.0
272.95703125,-39.55078125,-17.08984375,-39.55078125,-41.9921875,-38.57421875,0.0
272.9609375,-57.12890625,-26.85546875,-28.80859375,-38.57421875,-73.73046875,0.0
272.96484375,-69.82421875,-26.3671875,-27.83203125,-26.3671875,-115.234375,0.0
272.96875,-54.6875,-13.671875,-43.9453125,-62.01171875,-42.48046875,0.0
272.97265625,-22.4609375,-5.37109375,-45.8984375,-91.30859375,20.99609375,0.0
272.9765625,-16.6015625,-3.41796875,-39.55078125,-59.5703125,-27.83203125,0.0
272.98046875,-50.78125,-17.578125,-30.76171875,-28.80859375,-65.91796875,0.0
272.984375,-70.3125,-31.25,-27.83203125,-19.53125,-62.98828125,0.0
272.98828125,-56.15234375,-25.390625,-26.85546875,-39.0625,-45.41015625,0.0
272.9921875,-34.1796875,-20.5078125,-22.4609375,-65.91796875,-59.5703125,0.0
272.99609375,-51.26953125,-25.390625,-23.92578125,-65.4296875,-74.21875,0.0
273.0,-75.68359375,-21.484375,-15.625,-29.296875,-17.08984375,0.0
273.00390625,-82.51953125,-20.99609375,-12.20703125,0.48828125,-33.69140625,0.0
273.0078125,-68.84765625,-24.4140625,-23.4375,-9.27734375,-36.1328125,0.0
273.01171875,-35.15625,-12.6953125,-32.71484375,-68.359375,29.296875,0.0
273.015625,-27.83203125,-12.6953125,-38.0859375,-91.796875,-17.08984375,0.0
273.01953125,-65.91796875,-24.90234375,-24.90234375,-45.41015625,-96.19140625,0.0
273.0234375,-86.42578125,-23.4375,-0.9765625,-24.4140625,-79.1015625,0.0
273.02734375,-66.89453125,-22.94921875,0.9765625,-39.0625,-20.99609375,0.0
273.03125,-47.8515625,-23.4375,-12.6953125,-80.078125,7.8125,0.0
273.03515625,-45.41015625,-21.484375,-14.6484375,-76.66015625,11.71875,0.0
273.0390625,-66.89453125,-25.390625,-11.23046875,-29.296875,44.43359375,0.0
273.04296875,-86.42578125,-29.78515625,-9.27734375,-23.4375,20.5078125,0.0
273.046875,-76.171875,-23.92578125,-15.13671875,-56.15234375,-82.51953125,0.0
273.05078125,-40.0390625,-20.01953125,-27.34375,-64.453125,-119.140625,0.0
273.0546875,-40.52734375,-23.4375,-29.296875,-55.6640625,-84.47265625,0.0
273.05859375,-72.75390625,-21.97265625,-21.484375,-46.38671875,-62.5,0.0
273.0625,-81.0546875,-19.04296875,-19.04296875,-12.20703125,-17.578125,0.0
273.06640625,-72.75390625,-22.4609375,-18.5546875,-24.4140625,-1.953125,0.0
273.0703125,-57.6171875,-19.04296875,-17.578125,-70.80078125,-58.59375,0.0
273.07421875,-55.17578125,-15.625,-16.11328125,-64.94140625,-79.58984375,0.0
273.078125,-90.33203125,-24.90234375,-21.97265625,-47.8515625,-56.640625,0.0
273.08203125,-133.30078125,-28.3203125,-19.04296875,-41.015625,-11.71875,0.0
273.0859375,-125.48828125,-25.390625,-1.953125,-30.2734375,60.546875,0.0
273.08984375,-98.6328125,-20.5078125,-10.7421875,-59.08203125,85.44921875,0.0
273.09375,-83.0078125,-26.85546875,-38.0859375,-97.16796875,37.59765625,0.0
273.09765625,-85.44921875,-35.64453125,-44.43359375,-67.87109375,31.25,0.0
273.1015625,-101.5625,-30.76171875,-28.3203125,-25.390625,33.69140625,0.0
273.10546875,-85.44921875,-15.625,-26.85546875,-44.43359375,-14.16015625,0.0
273.109375,-62.5,-21.484375,-41.9921875,-70.3125,-10.25390625,0.0
273.11328125,-52.24609375,-32.71484375,-46.875,-76.171875,10.7421875,0.0
273.1171875,-51.7578125,-31.73828125,-38.57421875,-64.453125,-79.58984375,0.0
273.12109375,-70.3125,-28.3203125,-29.78515625,-49.8046875,-138.18359375,0.0
273.125,-86.9140625,-19.53125,-33.203125,-34.66796875,-110.3515625,0.0
273.12890625,-58.59375,-21.97265625,-32.71484375,-48.33984375,-153.3203125,0.0
273.1328125,-20.99609375,-17.578125,-31.25,-73.2421875,-102.5390625,0.0
273.13671875,-25.390625,-10.25390625,-27.34375,-64.453125,-15.13671875,0.0
273.140625,-60.546875,-7.32421875,-27.34375,-30.76171875,-68.359375,0.0
273.14453125,-56.15234375,3.90625,-31.73828125,-22.4609375,-75.1953125,0.0
273.1484375,-18.5546875,12.6953125,-35.64453125,-74.21875,10.7421875,0.0
273.15234375,-0.9765625,14.6484375,-41.9921875,-92.7734375,49.31640625,0.0
273.15625,-16.6015625,13.671875,-36.1328125,-48.828125,-50.78125,0.0
273.16015625,-46.38671875,9.765625,-22.94921875,-24.4140625,-57.6171875,0.0
273.1640625,-53.7109375,13.671875,-16.11328125,-27.34375,20.5078125,0.0
273.16796875,-30.76171875,17.578125,-18.06640625,-44.921875,44.43359375,0.0
273.171875,-18.06640625,10.7421875,-22.94921875,-65.91796875,0.48828125,0.0
273.17578125,-9.765625,13.18359375,-17.08984375,-41.9921875,-41.9921875,0.0
273.1796875,-25.390625,19.04296875,-5.859375,-2.9296875,-69.3359375,0.0
273.18359375,-47.8515625,19.04296875,-1.46484375,16.11328125,-82.03125,0.0
273.1875,-29.296875,20.01953125,-8.7890625,-5.859375,-27.83203125,0.0
273.19140625,1.46484375,28.3203125,-18.06640625,-46.38671875,-6.8359375,0.0
273.1953125,4.8828125,29.78515625,-16.6015625,-22.94921875,-18.5546875,0.0
273.19921875,-23.4375,20.99609375,-17.08984375,2.44140625,-70.3125,0.0
273.203125,-48.33984375,17.578125,-22.94921875,-15.13671875,-98.6328125,0.0
273.20703125,-39.55078125,12.6953125,-24.90234375,-37.59765625,-103.515625,0.0
273.2109375,-13.18359375,16.11328125,-27.83203125,-47.8515625,-50.29296875,0.0
273.21484375,-7.8125,18.5546875,-29.296875,-36.1328125,16.11328125,0.0
273.21875,-40.52734375,6.8359375,-25.87890625,-29.296875,-5.859375,0.0
273.22265625,-75.68359375,-0.9765625,-33.203125,-12.20703125,-2.9296875,0.0
273.2265625,-51.26953125,3.90625,-35.15625,-16.6015625,-45.8984375,0.0
273.23046875,-24.90234375,8.30078125,-27.34375,-27.83203125,-82.03125,0.0
273.234375,-20.5078125,4.8828125,-32.2265625,-53.7109375,-16.6015625,0.0
273.23828125,-35.64453125,-6.34765625,-32.71484375,-52.734375,-28.3203125,0.0
273.2421875,-10.25390625,-8.7890625,-27.83203125,3.90625,-84.9609375,0.0
273.24609375,19.53125,-7.8125,-29.78515625,15.13671875,-128.90625,0.0
273.25,21.484375,-7.8125,-32.71484375,-16.6015625,-57.12890625,0.0
273.25390625,-8.7890625,-3.41796875,-32.71484375,-15.13671875,13.18359375,0.0
273.2578125,-42.48046875,-5.859375,-33.69140625,-13.18359375,-30.76171875,0.0
273.26171875,-29.296875,-8.7890625,-33.69140625,-14.16015625,-19.04296875,0.0
273.265625,0.48828125,-7.8125,-27.34375,-4.8828125,30.2734375,0.0
273.26953125,-0.9765625,-5.859375,-47.36328125,-24.4140625,57.12890625,0.0
273.2734375,-18.06640625,-9.27734375,-67.87109375,-40.0390625,18.5546875,0.0
273.27734375,-44.921875,-13.671875,-36.62109375,-34.1796875,13.18359375,0.0
273.28125,-44.43359375,-16.6015625,-5.37109375,-37.109375,68.359375,0.0
273.28515625,-77.1484375,-13.671875,-8.30078125,-37.109375,130.37109375,0.0
273.2890625,-55.6640625,-12.6953125,-16.6015625,-68.84765625,58.59375,0.0
273.29296875,-39.0625,-18.5546875,-26.85546875,-101.5625,-22.94921875,0.0
273.296875,-44.921875,-12.6953125,-41.50390625,-72.75390625,-6.34765625,0.0
273.30078125,-68.359375,-15.13671875,-50.29296875,-37.59765625,8.30078125,0.0
273.3046875,-71.77734375,-19.04296875,-38.0859375,-26.85546875,-14.6484375,0.0
273.30859375,-48.33984375,-12.6953125,-20.01953125,-39.55078125,-44.43359375,0.0
273.3125,-18.5546875,-14.16015625,-26.85546875,-80.56640625,-5.859375,0.0
273.31640625,-28.3203125,-20.01953125,-38.0859375,-80.078125,-13.671875,0.0
273.3203125,-72.265625,-31.25,-30.2734375,-38.0859375,-64.453125,0.0
273.32421875,-83.0078125,-34.1796875,-27.34375,-20.01953125,-56.640625,0.0
273.328125,-63.96484375,-28.3203125,-33.69140625,-50.29296875,-70.80078125,0.0
273.33203125,-43.45703125,-30.76171875,-40.52734375,-73.73046875,-98.6328125,0.0
273.3359375,-40.0390625,-36.62109375,-47.8515625,-82.51953125,-145.99609375,0.0
273.33984375,-62.5,-35.15625,-42.48046875,-68.84765625,-101.5625,0.0
273.34375,-72.75390625,-32.71484375,-41.50390625,-51.7578125,-15.625,0.0
273.34765625,-62.98828125,-32.71484375,-42.96875,-68.359375,-13.671875,0.0
273.3515625,-30.76171875,-26.85546875,-58.10546875,-77.1484375,-36.62109375,0.0
273.35546875,-25.87890625,-25.390625,-71.2890625,-70.3125,-58.10546875,0.0
273.359375,-64.94140625,-37.59765625,-49.8046875,-28.3203125,-108.88671875,0.0
273.36328125,-80.56640625,-42.48046875,-23.92578125,-0.9765625,-110.83984375,0.0
273.3671875,-63.4765625,-36.62109375,-22.94921875,-94.7265625,1.953125,0.0
273.37109375,-47.8515625,-37.59765625,-29.78515625,-135.25390625,22.4609375,0.0
273.375,-52.24609375,-44.43359375,-34.1796875,-91.796875,-38.0859375,0.0
273.37890625,-81.54296875,-48.33984375,-35.15625,-67.3828125,-75.68359375,0.0
273.3828125,-111.81640625,-48.828125,-37.109375,-45.8984375,-46.38671875,0.0
273.38671875,-104.98046875,-44.921875,-36.1328125,-58.10546875,-39.0625,0.0
273.390625,-78.61328125,-43.9453125,-38.0859375,-90.33203125,-57.6171875,0.0
273.39453125,-88.8671875,-52.24609375,-44.43359375,-67.87109375,11.71875,0.0
273.3984375,-133.7890625,-61.5234375,-43.45703125,-47.36328125,-3.90625,0.0
273.40234375,-166.9921875,-64.453125,-39.55078125,-31.25,-41.9921875,0.0
273.40625,-165.52734375,-64.94140625,-38.57421875,-41.015625,16.11328125,0.0
273.41015625,-139.6484375,-69.82421875,-37.59765625,-68.84765625,57.12890625,0.0
273.4140625,-128.41796875,-74.70703125,-31.25,-81.54296875,-2.9296875,0.0
273.41796875,-173.33984375,-76.66015625,-30.76171875,-47.8515625,-19.53125,0.0
273.421875,-222.16796875,-75.1953125,-28.80859375,-4.39453125,51.26953125,0.0
273.42578125,-213.8671875,-75.68359375,-17.578125,-36.62109375,39.55078125,0.0
273.4296875,-175.29296875,-86.9140625,-22.94921875,-82.51953125,-59.08203125,0.0
273.43359375,-150.390625,-87.890625,-39.55078125,-86.42578125,-98.14453125,0.0
273.4375,-161.1328125,-89.35546875,-36.1328125,-51.26953125,-95.703125,0.0
273.44140625,-181.15234375,-96.19140625,-29.78515625,-22.94921875,-118.1640625,0.0
273.4453125,-166.50390625,-98.14453125,-36.1328125,-40.0390625,-145.5078125,0.0
273.44921875,-121.09375,-101.5625,-41.9921875,-68.359375,-145.5078125,0.0
273.453125,-81.54296875,-102.5390625,-49.8046875,-83.0078125,-86.9140625,0.0
273.45703125,-88.37890625,-104.00390625,-48.33984375,-80.078125,-59.5703125,0.0
273.4609375,-103.515625,-110.3515625,-25.390625,-40.0390625,-78.125,0.0
273.46484375,-77.1484375,-109.375,-24.90234375,-34.1796875,-38.57421875,0.0
273.46875,-42.48046875,-105.46875,-35.64453125,-81.54296875,-20.5078125,0.0
273.47265625,-43.9453125,-103.515625,-40.52734375,-98.14453125,-92.7734375,0.0
273.4765625,-70.3125,-104.00390625,-41.015625,-81.0546875,-96.6796875,0.0
273.48046875,-58.10546875,-98.6328125,-21.484375,-29.78515625,-116.2109375,0.0
273.484375,-50.78125,-94.23828125,-22.4609375,-22.94921875,-172.8515625,0.0
273.48828125,-51.26953125,-90.8203125,-35.15625,-75.68359375,-213.8671875,0.0
273.4921875,-44.921875,-74.70703125,-35.15625,-86.9140625,-121.09375,0.0
273.49609375,-57.12890625,-72.265625,-23.4375,-73.2421875,-27.83203125,0.0
273.5,-80.56640625,-78.125,-33.203125,-50.78125,-77.1484375,0.0
273.50390625,-77.63671875,-69.82421875,-41.9921875,-55.6640625,-50.29296875,0.0
273.5078125,-48.33984375,-61.03515625,-33.69140625,-96.19140625,41.015625,0.0
273.51171875,-46.875,-55.6640625,-32.2265625,-105.46875,115.234375,0.0
273.515625,-88.37890625,-57.12890625,-37.59765625,-79.58984375,50.78125,0.0
273.51953125,85.9375,-59.08203125,-34.1796875,-63.4765625,9.765625,0.0
273.5234375,75.1953125,-61.5234375,-20.99609375,-62.5,63.4765625,0.0
273.52734375,87.890625,-58.59375,-24.4140625,-72.75390625,48.33984375,0.0
273.53125,104.00390625,-45.41015625,-39.0625,-87.890625,4.8828125,0.0
273.53515625,102.5390625,-45.41015625,-50.29296875,-73.2421875,-7.8125,0.0
273.5390625,72.265625,-48.828125,-39.55078125,-41.50390625,-42.96875,0.0
273.54296875,56.640625,-39.55078125,-29.78515625,-28.80859375,-7.8125,0.0
273.546875,68.84765625,-38.0859375,-30.2734375,-45.41015625,4.8828125,0.0
273.55078125,98.6328125,-33.203125,-35.64453125,-88.37890625,18.5546875,0.0
273.5546875,106.4453125,-21.97265625,-34.66796875,-82.03125,31.25,0.0
273.55859375,76.171875,-28.3203125,-25.87890625,-36.1328125,-3.41796875,0.0
273.5625,48.33984375,-29.296875,-17.08984375,-22.4609375,-69.3359375,0.0
273.56640625,46.38671875,-20.99609375,-19.04296875,-29.296875,-105.95703125,0.0
273.5703125,64.94140625,-21.97265625,-24.90234375,-45.41015625,-71.2890625,0.0
273.57421875,69.82421875,-25.87890625,-27.34375,-71.77734375,-82.03125,0.0
273.578125,40.52734375,-26.3671875,-23.4375,-42.96875,-35.64453125,0.0
273.58203125,6.8359375,-29.296875,-16.11328125,-9.27734375,-3.41796875,0.0
273.5859375,16.6015625,-22.94921875,-12.6953125,-26.85546875,-21.484375,0.0
273.58984375,44.921875,-20.01953125,-18.06640625,-60.05859375,7.32421875,0.0
273.59375,44.43359375,-32.2265625,-29.296875,-81.54296875,11.23046875,0.0
273.59765625,21.484375,-35.64453125,-29.296875,-50.78125,-36.62109375,0.0
273.6015625,0.0,-30.76171875,-24.90234375,-17.08984375,39.55078125,0.0
273.60546875,-2.44140625,-20.99609375,-17.08984375,-15.625,93.26171875,0.0
273.609375,21.484375,-19.53125,-16.11328125,-29.78515625,51.26953125,0.0
273.61328125,-38.0859375,-20.01953125,-23.92578125,-57.12890625,83.0078125,0.0
273.6171875,-59.5703125,-20.99609375,-18.5546875,-37.109375,64.94140625,0.0
273.62109375,-51.7578125,-23.92578125,-8.7890625,4.8828125,20.01953125,0.0
273.625,-35.64453125,-19.04296875,-14.6484375,19.53125,14.16015625,0.0
273.62890625,-26.85546875,-17.08984375,-22.94921875,-26.3671875,-6.8359375,0.0
273.6328125,-41.015625,-18.06640625,-27.34375,-55.6640625,-44.43359375,0.0
273.63671875,-68.84765625,-21.484375,-18.06640625,-40.0390625,-89.84375,0.0
273.640625,-73.2421875,-29.296875,-7.32421875,-43.45703125,-43.9453125,0.0
273.64453125,-42.96875,-31.73828125,-17.08984375,-47.36328125,-4.8828125,0.0
273.6484375,-18.06640625,-25.87890625,-26.3671875,-46.38671875,-61.03515625,0.0
273.65234375,-18.06640625,-23.92578125,-19.53125,-50.29296875,-74.70703125,0.0
273.65625,-47.36328125,-27.34375,-19.53125,-40.0390625,-139.6484375,0.0
273.66015625,-20.01953125,-32.2265625,-17.578125,0.0,-180.17578125,0.0
273.6640625,-33.203125,-32.71484375,-7.32421875,2.9296875,-187.01171875,0.0
273.66796875,-13.18359375,-24.90234375,-16.6015625,-41.50390625,-195.80078125,0.0
273.671875,20.5078125,-20.5078125,-32.2265625,-50.29296875,-102.05078125,0.0
273.67578125,16.6015625,-28.3203125,-35.15625,-20.01953125,-86.42578125,0.0
273.6796875,-12.20703125,-23.4375,-19.04296875,2.44140625,-128.41796875,0.0
273.68359375,-33.203125,-23.4375,-0.9765625,20.5078125,-186.03515625,0.0
273.6875,-15.13671875,-26.85546875,-11.71875,3.41796875,-141.11328125,0.0
273.69140625,14.6484375,-22.94921875,-28.3203125,-39.55078125,-91.796875,0.0
273.6953125,8.30078125,-24.90234375,-27.83203125,-32.71484375,-160.64453125,0.0
273.69921875,-18.06640625,-29.296875,-27.34375,-4.8828125,-38.0859375,0.0
273.703125,-34.66796875,-27.83203125,-22.4609375,5.859375,104.98046875,0.0
273.70703125,-20.99609375,-22.94921875,-23.4375,-8.7890625,52.24609375,0.0
273.7109375,-3.41796875,-27.34375,-23.92578125,-22.94921875,-10.7421875,0.0
273.71484375,-4.8828125,-30.76171875,-19.04296875,-2.9296875,-1.953125,0.0
273.71875,-23.4375,-33.69140625,-18.06640625,-0.9765625,-49.8046875,0.0
273.72265625,-44.43359375,-34.1796875,-24.4140625,-5.37109375,-58.10546875,0.0
273.7265625,-37.109375,-30.2734375,-32.2265625,0.0,-23.92578125,0.0
273.73046875,-7.8125,-31.25,-37.59765625,-33.69140625,-32.2265625,0.0
273.734375,3.90625,-33.203125,-45.8984375,-40.0390625,-25.87890625,0.0
273.73828125,-21.97265625,-31.25,-43.9453125,-16.6015625,-15.625,0.0
273.7421875,-50.29296875,-30.76171875,-27.34375,-5.859375,-108.3984375,0.0
273.74609375,-39.0625,-33.203125,-17.08984375,5.37109375,-155.76171875,0.0
273.75,-3.90625,-31.73828125,-26.85546875,-29.296875,-145.01953125,0.0
273.75390625,13.18359375,-27.34375,-34.66796875,-39.55078125,-142.08984375,0.0
273.7578125,-5.859375,-26.85546875,-22.4609375,3.41796875,-111.81640625,0.0
273.76171875,-33.203125,-31.73828125,-17.08984375,25.87890625,-111.81640625,0.0
273.765625,-36.62109375,-33.69140625,-26.3671875,-3.90625,10.25390625,0.0
273.76953125,-8.7890625,-30.76171875,-33.69140625,-46.875,93.75,0.0
273.7734375,-0.48828125,-26.85546875,-37.59765625,-61.5234375,49.31640625,0.0
273.77734375,-22.94921875,-32.71484375,-32.71484375,-39.0625,69.82421875,0.0
273.78125,-43.9453125,-36.1328125,-28.3203125,-20.01953125,84.47265625,0.0
273.78515625,-46.38671875,-33.203125,-26.3671875,-25.87890625,0.9765625,0.0
273.7890625,-22.4609375,-32.2265625,-28.80859375,-33.203125,-37.109375,0.0
273.79296875,-2.9296875,-31.73828125,-33.203125,-15.625,18.06640625,0.0
273.796875,-12.20703125,-31.73828125,-34.66796875,8.7890625,-2.9296875,0.0
273.80078125,-48.828125,-36.1328125,-26.3671875,-9.765625,-25.87890625,0.0
273.8046875,-52.24609375,-39.55078125,-24.90234375,-20.5078125,26.85546875,0.0
273.80859375,-10.7421875,-33.69140625,-24.4140625,-45.41015625,131.8359375,0.0
273.8125,12.20703125,-22.94921875,-27.34375,-52.734375,99.609375,0.0
273.81640625,-8.7890625,-24.90234375,-22.94921875,-9.27734375,26.85546875,0.0
273.8203125,-35.15625,-26.3671875,-9.27734375,1.46484375,-97.16796875,0.0
273.82421875,-38.57421875,-30.2734375,-17.578125,-22.94921875,-94.23828125,0.0
273.828125,-13.671875,-33.203125,-28.80859375,-21.97265625,-72.75390625,0.0
273.83203125,8.7890625,-32.2265625,-35.64453125,-34.66796875,-211.42578125,0.0
273.8359375,4.8828125,-33.69140625,-20.99609375,-34.66796875,-82.51953125,0.0
273.83984375,-22.4609375,-31.73828125,-17.08984375,-2.9296875,2.44140625,0.0
273.84375,-37.59765625,-30.2734375,-24.4140625,-1.953125,-70.80078125,0.0
273.84765625,-26.3671875,-25.390625,-31.25,-35.64453125,-75.1953125,0.0
273.8515625,-11.23046875,-27.34375,-39.0625,-49.8046875,-49.8046875,0.0
273.85546875,-4.39453125,-25.390625,-33.69140625,-21.97265625,4.8828125,0.0
273.859375,-22.94921875,-17.08984375,-24.90234375,4.39453125,43.45703125,0.0
273.86328125,-45.41015625,-24.4140625,-18.06640625,-1.953125,5.859375,0.0
273.8671875,-23.92578125,-25.87890625,-18.5546875,-20.99609375,7.8125,0.0
273.87109375,7.32421875,-20.01953125,-31.25,-17.08984375,14.16015625,0.0
273.875,11.71875,-21.97265625,-37.59765625,-8.30078125,-69.82421875,0.0
273.87890625,-8.7890625,-21.484375,-7.8125,1.953125,-121.58203125,0.0
273.8828125,-28.3203125,-20.5078125,3.90625,2.44140625,-58.10546875,0.0
273.88671875,-18.06640625,-25.87890625,-18.5546875,-32.71484375,-37.109375,0.0
273.890625,8.30078125,-24.4140625,-33.69140625,-55.17578125,27.83203125,0.0
273.89453125,2.44140625,-27.34375,-41.50390625,-28.80859375,100.5859375,0.0
273.8984375,-10.25390625,-37.109375,-34.66796875,5.859375,75.1953125,0.0
273.90234375,-14.6484375,-44.43359375,-25.87890625,-17.578125,51.7578125,0.0
273.90625,-2.44140625,-38.57421875,-20.5078125,-44.921875,-13.18359375,0.0
273.91015625,6.34765625,-23.4375,-33.203125,-60.546875,-71.2890625,0.0
273.9140625,15.625,-36.1328125,-41.015625,-54.19921875,-38.0859375,0.0
273.91796875,58.10546875,-38.57421875,-37.109375,-25.390625,-19.53125,0.0
273.921875,20.01953125,-32.2265625,-36.1328125,-29.296875,-84.9609375,0.0
273.92578125,-39.55078125,-34.1796875,-25.87890625,-32.71484375,-77.1484375,0.0
273.9296875,-14.16015625,-43.9453125,-33.69140625,-55.6640625,-63.96484375,0.0
273.93359375,-44.43359375,-83.984375,-47.8515625,-73.2421875,-33.203125,0.0
273.9375,-11.23046875,-15.13671875,-43.9453125,-44.921875,7.8125,0.0
273.94140625,-44.921875,3.41796875,-36.62109375,-19.04296875,4.39453125,0.0
273.9453125,-161.1328125,-38.0859375,-34.66796875,-40.0390625,-103.02734375,0.0
273.94921875,79.58984375,23.92578125,-34.66796875,-68.84765625,-65.91796875,0.0
273.953125,39.55078125,-61.5234375,-32.71484375,-57.12890625,93.26171875,0.0
273.95703125,-235.3515625,-85.44921875,-35.64453125,-33.203125,77.63671875,0.0
273.9609375,-148.4375,70.3125,-27.34375,-28.3203125,24.4140625,0.0
273.96484375,-13.671875,113.76953125,-21.97265625,-29.78515625,-33.69140625,0.0
273.96875,13.671875,13.671875,-34.66796875,-42.96875,0.9765625,0.0
273.97265625,-133.30078125,-20.01953125,-45.41015625,-49.8046875,45.41015625,0.0
273.9765625,-108.3984375,96.19140625,-41.015625,-28.3203125,-66.89453125,0.0
273.98046875,42.96875,190.91796875,-24.90234375,-14.16015625,-103.02734375,0.0
273.984375,15.13671875,156.73828125,-17.08984375,-37.59765625,-68.84765625,0.0
273.98828125,-33.69140625,98.14453125,-19.53125,-51.26953125,-67.87109375,0.0
273.9921875,-42.96875,295.41015625,-27.34375,-41.50390625,-106.93359375,0.0
273.99609375,-70.3125,467.7734375,-29.296875,-56.640625,-86.9140625,0.0
274.0,-91.30859375,476.07421875,-24.4140625,-53.7109375,41.9921875,0.0
274.00390625,-76.66015625,495.60546875,-23.92578125,-9.765625,59.08203125,0.0
274.0078125,-44.43359375,548.33984375,-22.4609375,-40.52734375,-28.80859375,0.0
274.01171875,-37.59765625,580.078125,-27.34375,-92.28515625,-27.83203125,0.0
274.015625,-77.1484375,568.359375,-26.3671875,-73.73046875,-62.5,0.0
274.01953125,-93.26171875,705.56640625,-25.390625,-20.01953125,0.9765625,0.0
274.0234375,-60.05859375,836.9140625,-18.5546875,7.32421875,22.94921875,0.0
274.02734375,-20.99609375,848.14453125,-10.25390625,-16.11328125,-32.2265625,0.0
274.03125,-15.13671875,885.7421875,-17.578125,-27.83203125,-1.953125,0.0
274.03515625,297.36328125,883.7890625,-29.296875,-46.38671875,-59.5703125,0.0
274.0390625,271.97265625,808.59375,-24.4140625,-33.203125,-164.55078125,0.0
274.04296875,237.79296875,768.5546875,-12.6953125,-1.953125,-147.94921875,0.0
274.046875,438.4765625,891.11328125,-19.04296875,-12.20703125,-25.390625,0.0
274.05078125,456.0546875,953.125,-32.2265625,-36.62109375,-34.66796875,0.0
274.0546875,443.359375,973.6328125,-32.71484375,-26.85546875,-43.9453125,0.0
274.05859375,468.26171875,878.90625,-26.3671875,4.39453125,-46.875,0.0
274.0625,368.1640625,695.3125,-26.85546875,8.30078125,-79.1015625,0.0
274.06640625,414.0625,739.74609375,-30.2734375,-12.20703125,-20.99609375,0.0
274.0703125,432.6171875,827.63671875,-34.66796875,-14.16015625,-8.30078125,0.0
274.07421875,407.71484375,790.52734375,-39.55078125,-35.15625,23.92578125,0.0
274.078125,301.26953125,660.64453125,-33.69140625,-30.2734375,21.484375,0.0
274.08203125,282.71484375,583.49609375,-30.2734375,-1.46484375,-19.04296875,0.0
274.0859375,423.828125,619.62890625,-31.73828125,-8.7890625,-46.875,0.0
274.08984375,514.16015625,595.703125,-37.59765625,-37.59765625,-25.390625,0.0
274.09375,451.66015625,615.234375,-50.29296875,-39.55078125,4.39453125,0.0
274.09765625,310.05859375,658.203125,-49.31640625,-17.578125,-70.80078125,0.0
274.1015625,479.98046875,701.66015625,-32.71484375,4.8828125,-20.01953125,0.0
274.10546875,433.10546875,592.7734375,-16.11328125,26.85546875,66.40625,0.0
274.109375,161.62109375,363.28125,-26.85546875,-16.6015625,33.203125,0.0
274.11328125,164.0625,331.54296875,-47.36328125,-68.359375,19.04296875,0.0
274.1171875,152.34375,314.453125,-36.1328125,-44.43359375,84.9609375,0.0
274.12109375,61.03515625,263.671875,-18.5546875,9.27734375,65.4296875,0.0
274.125,93.26171875,229.4921875,-21.484375,14.16015625,-0.48828125,0.0
274.12890625,96.6796875,161.1328125,-28.3203125,-30.76171875,-21.97265625,0.0
274.1328125,117.67578125,130.859375,-38.0859375,-56.15234375,-55.17578125,0.0
274.13671875,198.2421875,179.6875,-38.57421875,-45.8984375,-65.4296875,0.0
274.140625,46.38671875,51.7578125,-25.87890625,-2.44140625,-48.33984375,0.0
274.14453125,-0.9765625,-12.20703125,-20.99609375,7.8125,-16.6015625,0.0
274.1484375,60.546875,129.8828125,-21.484375,-9.765625,6.8359375,0.0
274.15234375,52.734375,117.67578125,-27.83203125,-21.97265625,4.39453125,0.0
274.15625,94.23828125,20.99609375,-38.0859375,-13.671875,-44.921875,0.0
274.16015625,0.48828125,-22.4609375,-33.69140625,10.25390625,-90.33203125,0.0
274.1640625,2.9296875,-0.9765625,-25.87890625,-0.48828125,-62.01171875,0.0
274.16796875,116.2109375,-12.20703125,-36.62109375,-25.87890625,-84.9609375,0.0
274.171875,68.359375,-84.9609375,-50.29296875,-52.24609375,-125.0,0.0
274.17578125,-72.75390625,-83.0078125,-38.57421875,-46.875,-104.4921875,0.0
274.1796875,-86.42578125,-48.33984375,-26.85546875,-10.7421875,-96.19140625,0.0
274.18359375,-68.84765625,-23.92578125,-20.01953125,-11.71875,-76.171875,0.0
274.1875,-38.0859375,-21.97265625,-15.13671875,-32.2265625,-41.015625,0.0
274.19140625,-42.96875,-46.38671875,-27.83203125,-34.1796875,-55.17578125,0.0
274.1953125,-79.1015625,-30.76171875,-32.71484375,-39.0625,-84.9609375,0.0
274.19921875,-103.515625,-61.03515625,-28.3203125,-36.62109375,8.7890625,0.0
274.203125,-76.66015625,-91.796875,-21.484375,-17.08984375,87.40234375,0.0
274.20703125,-38.0859375,-53.22265625,-15.625,-14.6484375,2.9296875,0.0
274.2109375,-54.19921875,-45.8984375,-28.80859375,-58.59375,-59.5703125,0.0
274.21484375,-92.28515625,-92.7734375,-39.0625,-69.82421875,-62.98828125,0.0
274.21875,-109.375,-58.10546875,-46.38671875,-46.38671875,-91.30859375,0.0
274.22265625,-71.77734375,-34.1796875,-27.83203125,-6.34765625,-11.23046875,0.0
274.2265625,-19.53125,-70.3125,-18.06640625,-6.8359375,30.2734375,0.0
274.23046875,-23.4375,-28.3203125,-35.15625,-43.45703125,17.578125,0.0
274.234375,-62.98828125,-27.83203125,-37.109375,-56.640625,20.5078125,0.0
274.23828125,-88.8671875,-91.796875,-33.203125,-45.41015625,79.58984375,0.0
274.2421875,-73.73046875,-112.3046875,-22.94921875,19.53125,106.4453125,0.0
274.24609375,-40.0390625,-87.890625,-22.4609375,-10.7421875,-33.203125,0.0
274.25,-40.0390625,-61.03515625,-34.66796875,-78.125,-48.828125,0.0
274.25390625,-58.10546875,-107.421875,-35.64453125,-62.5,-34.1796875,0.0
274.2578125,-80.56640625,-100.5859375,-25.390625,-52.24609375,-62.01171875,0.0
274.26171875,-85.44921875,-63.96484375,-29.78515625,-25.390625,-29.296875,0.0
274.265625,-39.55078125,-129.8828125,-24.90234375,-3.41796875,-33.69140625,0.0
274.26953125,-13.18359375,-104.98046875,-24.90234375,-20.5078125,-45.41015625,0.0
274.2734375,-41.9921875,-31.25,-33.203125,-41.015625,-47.8515625,0.0
274.27734375,-102.05078125,-62.98828125,-33.69140625,-68.84765625,-88.8671875,0.0
274.28125,-105.95703125,-113.28125,-30.2734375,-53.7109375,-67.87109375,0.0
274.28515625,-48.828125,-90.33203125,-26.85546875,-12.6953125,-15.13671875,0.0
274.2890625,-36.1328125,-64.94140625,-34.1796875,-49.8046875,35.15625,0.0
274.29296875,-54.6875,-96.6796875,-48.828125,-67.87109375,31.73828125,0.0
274.296875,-78.61328125,-90.33203125,-42.96875,-31.25,-15.625,0.0
274.30078125,-90.33203125,-61.03515625,-19.53125,-32.2265625,-19.04296875,0.0
274.3046875,-53.22265625,-65.4296875,-13.18359375,-43.45703125,-30.2734375,0.0
274.30859375,-20.01953125,-66.89453125,-20.99609375,-35.15625,-57.12890625,0.0
274.3125,-45.41015625,-70.3125,-26.85546875,-58.10546875,-83.0078125,0.0
274.31640625,-54.6875,-69.3359375,-25.87890625,-64.94140625,-94.23828125,0.0
274.3203125,-47.36328125,-27.34375,-23.4375,24.90234375,-73.73046875,0.0
274.32421875,-86.9140625,-30.2734375,-12.6953125,18.5546875,-90.8203125,0.0
274.328125,-106.4453125,-57.6171875,-20.99609375,-59.5703125,-80.56640625,0.0
274.33203125,-39.0625,-9.27734375,-34.66796875,-36.1328125,-55.6640625,0.0
274.3359375,-54.19921875,-5.859375,-36.1328125,-41.50390625,-40.0390625,0.0
274.33984375,-137.6953125,-22.4609375,-34.66796875,-42.96875,-30.76171875,0.0
274.34375,-118.65234375,-10.7421875,-26.85546875,-19.53125,-36.1328125,0.0
274.34765625,-15.625,9.27734375,-32.71484375,-51.7578125,25.87890625,0.0
274.3515625,2.9296875,9.765625,-32.2265625,-55.6640625,9.27734375,0.0
274.35546875,-80.078125,-43.9453125,-33.69140625,-45.41015625,-51.7578125,0.0
274.359375,-136.23046875,2.9296875,-37.109375,-43.45703125,-69.3359375,0.0
274.36328125,-177.24609375,-31.73828125,-20.5078125,-38.0859375,-117.1875,0.0
274.3671875,-82.03125,-82.03125,-17.578125,-35.64453125,-48.33984375,0.0
274.37109375,-25.87890625,10.25390625,-28.80859375,-60.546875,-31.25,0.0
274.375,-85.44921875,47.36328125,-43.9453125,-89.35546875,-23.92578125,0.0
274.37890625,-112.79296875,11.71875,-39.55078125,-45.8984375,28.3203125,0.0
274.3828125,-71.2890625,-0.48828125,-22.94921875,-12.20703125,68.84765625,0.0
274.38671875,-6.8359375,31.73828125,-15.625,-31.25,48.33984375,0.0
274.390625,-28.3203125,34.66796875,-20.01953125,-38.0859375,-57.12890625,0.0
274.39453125,-82.03125,12.6953125,-33.69140625,-56.640625,-9.27734375,0.0
274.3984375,-4.39453125,73.2421875,-36.62109375,-20.01953125,37.59765625,0.0
274.40234375,-30.2734375,51.7578125,-21.97265625,-3.41796875,53.22265625,0.0
274.40625,-132.32421875,-23.92578125,-20.5078125,-36.1328125,6.8359375,0.0
274.41015625,-33.69140625,19.04296875,-25.87890625,-58.59375,-114.2578125,0.0
274.4140625,-7.8125,35.15625,-26.3671875,-57.6171875,-82.03125,0.0
274.41796875,-77.63671875,36.1328125,-25.390625,-8.30078125,0.48828125,0.0
274.421875,-74.70703125,48.33984375,-17.08984375,17.578125,-24.90234375,0.0
274.42578125,-75.1953125,0.48828125,-22.94921875,-9.27734375,-77.63671875,0.0
274.4296875,-37.109375,26.85546875,-26.3671875,-11.71875,-71.77734375,0.0
274.43359375,28.80859375,65.91796875,-22.94921875,-34.66796875,-66.89453125,0.0
274.4375,-30.76171875,10.7421875,-30.76171875,-69.82421875,-92.28515625,0.0
274.44140625,-79.58984375,3.90625,-24.90234375,-17.578125,-114.2578125,0.0
274.4453125,-58.59375,29.296875,-25.390625,-7.8125,-105.95703125,0.0
274.44921875,-90.8203125,-10.7421875,-28.80859375,-15.13671875,-77.63671875,0.0
274.453125,-30.2734375,7.32421875,-29.78515625,-45.41015625,-29.78515625,0.0
274.45703125,6.34765625,50.29296875,-38.0859375,-61.5234375,1.953125,0.0
274.4609375,-58.10546875,19.53125,-23.4375,-30.76171875,35.64453125,0.0
274.46484375,-111.328125,-8.30078125,-6.34765625,-32.2265625,-25.87890625,0.0
274.46875,-68.84765625,3.41796875,-13.18359375,-43.9453125,-93.75,0.0
274.47265625,-35.64453125,-7.8125,-24.4140625,-68.359375,-66.89453125,0.0
274.4765625,-93.26171875,-9.765625,-26.3671875,-50.29296875,-56.640625,0.0
274.48046875,-86.42578125,-6.34765625,-24.90234375,-19.04296875,-57.12890625,0.0
274.484375,-75.1953125,-27.34375,-16.6015625,-34.66796875,-130.859375,0.0
274.48828125,-50.78125,-43.45703125,-20.99609375,-38.57421875,-73.2421875,0.0
274.4921875,-2.44140625,-20.01953125,-31.73828125,-57.6171875,23.4375,0.0
274.49609375,-92.7734375,-5.37109375,-27.83203125,-79.58984375,-0.9765625,0.0
274.5,-169.921875,-12.6953125,-26.85546875,-58.10546875,28.3203125,0.0
274.50390625,-83.49609375,-20.01953125,-21.484375,-33.69140625,-7.8125,0.0
274.5078125,-24.90234375,9.27734375,-19.04296875,-26.3671875,-83.49609375,0.0
274.51171875,-90.33203125,-7.8125,-31.25,-72.75390625,-61.5234375,0.0
274.515625,-131.8359375,-49.8046875,-36.62109375,-86.42578125,-25.390625,0.0
274.51953125,-61.03515625,-32.2265625,-33.203125,-29.78515625,-6.8359375,0.0
274.5234375,-70.80078125,-22.4609375,-15.625,-44.921875,-70.80078125,0.0
274.52734375,-85.9375,-20.5078125,-12.6953125,-71.2890625,-94.7265625,0.0
274.53125,-34.66796875,-5.859375,-30.76171875,-80.078125,-62.5,0.0
274.53515625,3.41796875,32.71484375,-39.0625,-74.70703125,-152.83203125,0.0
274.5390625,-31.73828125,35.15625,-24.4140625,-24.90234375,-178.22265625,0.0
274.54296875,-50.29296875,-4.8828125,-20.01953125,-20.99609375,-109.86328125,0.0
274.546875,-17.578125,-20.5078125,-24.90234375,-66.40625,-81.54296875,0.0
274.55078125,-17.578125,35.64453125,-27.34375,-64.453125,-83.0078125,0.0
274.5546875,3.90625,67.3828125,-38.0859375,-40.0390625,-24.4140625,0.0
274.55859375,-23.4375,24.4140625,-25.87890625,-50.29296875,-52.734375,0.0
274.5625,-48.828125,-22.4609375,-21.484375,-60.05859375,-140.625,0.0
274.56640625,-7.32421875,5.859375,-30.2734375,-22.94921875,-98.6328125,0.0
274.5703125,44.43359375,49.8046875,-26.3671875,-29.78515625,-119.62890625,0.0
274.57421875,45.8984375,67.3828125,-28.3203125,-77.63671875,-83.984375,0.0
274.578125,9.765625,45.41015625,-26.85546875,-62.5,66.40625,0.0
274.58203125,-52.24609375,14.16015625,-18.5546875,-13.18359375,11.71875,0.0
274.5859375,-68.359375,25.87890625,-14.16015625,-26.3671875,-45.41015625,0.0
274.58984375,38.57421875,43.9453125,-21.97265625,-57.6171875,21.484375,0.0
274.59375,87.890625,62.01171875,-34.1796875,-40.0390625,16.11328125,0.0
274.59765625,-76.171875,-7.8125,-28.3203125,-8.30078125,41.015625,0.0
274.6015625,-125.9765625,-54.19921875,-20.5078125,6.34765625,67.3828125,0.0
274.60546875,-44.43359375,-46.38671875,-10.25390625,-22.4609375,19.04296875,0.0
274.609375,-58.59375,-23.92578125,-8.30078125,-56.640625,2.9296875,0.0
274.61328125,-59.08203125,-8.7890625,-20.99609375,-42.48046875,96.19140625,0.0
274.6171875,-0.9765625,4.8828125,-21.97265625,-27.83203125,118.65234375,0.0
274.62109375,-27.83203125,3.41796875,-14.6484375,-16.6015625,76.66015625,0.0
274.625,-51.26953125,5.37109375,-20.5078125,-5.859375,33.69140625,0.0
274.62890625,27.83203125,1.953125,-24.90234375,-48.828125,10.7421875,0.0
274.6328125,41.9921875,1.953125,-28.80859375,-60.05859375,23.92578125,0.0
274.63671875,-27.34375,4.39453125,-33.203125,-38.0859375,-15.13671875,0.0
274.640625,-28.3203125,11.23046875,-21.97265625,-2.9296875,-55.17578125,0.0
274.64453125,-27.34375,8.7890625,-16.6015625,35.15625,-88.37890625,0.0
274.6484375,-196.77734375,-138.18359375,-32.2265625,3.90625,-118.65234375,0.0
274.65234375,-305.17578125,-264.16015625,-42.48046875,-59.5703125,-106.93359375,0.0
274.65625,-324.70703125,-292.96875,-29.78515625,-59.5703125,-145.5078125,0.0
274.66015625,-204.58984375,-178.22265625,-8.30078125,-23.4375,-148.4375,0.0
274.6640625,42.48046875,-0.9765625,-8.30078125,10.7421875,-46.875,0.0
274.66796875,128.41796875,23.4375,-22.94921875,-20.99609375,16.11328125,0.0
274.671875,103.02734375,36.1328125,-28.3203125,-73.73046875,29.78515625,0.0
274.67578125,53.22265625,55.17578125,-34.1796875,-37.109375,64.453125,0.0
274.6796875,56.15234375,75.68359375,-28.3203125,33.203125,57.12890625,0.0
274.68359375,89.35546875,73.2421875,-21.484375,4.39453125,17.08984375,0.0
274.6875,117.1875,77.1484375,-25.87890625,-55.17578125,-10.7421875,0.0
274.69140625,165.52734375,107.91015625,-28.80859375,-56.15234375,42.48046875,0.0
274.6953125,174.31640625,115.234375,-35.15625,-38.0859375,37.109375,0.0
274.69921875,145.01953125,109.86328125,-32.71484375,-8.7890625,-19.53125,0.0
274.703125,171.875,121.58203125,-24.90234375,-8.7890625,34.66796875,0.0
274.70703125,174.31640625,99.609375,-26.3671875,-4.8828125,-3.90625,0.0
274.7109375,238.76953125,133.30078125,-30.76171875,-4.8828125,-68.359375,0.0
274.71484375,284.1796875,167.48046875,-36.62109375,-54.6875,-84.47265625,0.0
274.71875,208.49609375,144.53125,-28.80859375,-53.7109375,-94.23828125,0.0
274.72265625,125.0,120.60546875,-16.11328125,-20.01953125,-37.59765625,0.0
274.7265625,111.328125,81.54296875,-12.20703125,-41.015625,-83.49609375,0.0
274.73046875,152.83203125,63.96484375,-12.20703125,-68.84765625,-123.046875,0.0
274.734375,160.64453125,67.3828125,-24.90234375,-31.73828125,-50.29296875,0.0
274.73828125,99.12109375,44.921875,-23.4375,-12.6953125,4.39453125,0.0
274.7421875,22.94921875,5.859375,-14.6484375,-15.13671875,-2.9296875,0.0
274.74609375,22.94921875,-6.34765625,-16.11328125,-13.18359375,-34.66796875,0.0
274.75,70.3125,0.9765625,-24.4140625,-47.8515625,1.953125,0.0
274.75390625,52.734375,-26.3671875,-34.1796875,-63.96484375,47.8515625,0.0
274.7578125,7.8125,-44.43359375,-31.73828125,-12.6953125,36.62109375,0.0
274.76171875,-5.859375,-58.10546875,-16.11328125,69.82421875,22.94921875,0.0
274.765625,-7.8125,-84.47265625,-7.32421875,0.48828125,13.18359375,0.0
274.76953125,-12.20703125,-69.3359375,-27.83203125,-89.84375,62.5,0.0
274.7734375,-55.17578125,-60.05859375,-38.0859375,-55.6640625,95.21484375,0.0
274.77734375,-53.22265625,-48.33984375,-33.203125,-32.2265625,24.4140625,0.0
274.78125,-34.66796875,-16.6015625,-27.34375,-1.46484375,-78.61328125,0.0
274.78515625,-36.62109375,-16.6015625,-22.4609375,2.44140625,-81.0546875,0.0
274.7890625,-59.5703125,-60.546875,-30.2734375,-34.1796875,-65.4296875,0.0
274.79296875,-101.5625,-69.3359375,-34.66796875,-32.71484375,-80.56640625,0.0
274.796875,-132.32421875,-37.109375,-39.55078125,9.27734375,21.97265625,0.0
274.80078125,-151.3671875,-17.578125,-35.64453125,26.85546875,45.41015625,0.0
274.8046875,-140.13671875,20.01953125,-25.390625,18.06640625,-14.16015625,0.0
274.80859375,-117.1875,55.17578125,-24.4140625,-30.76171875,-42.96875,0.0
274.8125,-128.41796875,80.078125,-42.48046875,-80.078125,-115.234375,0.0
274.81640625,-172.8515625,75.68359375,-55.17578125,-18.5546875,-77.63671875,0.0
274.8203125,-201.171875,63.96484375,-39.0625,-4.8828125,-77.63671875,0.0
274.82421875,-218.26171875,72.265625,-29.78515625,-63.4765625,-167.96875,0.0
274.828125,-215.8203125,95.703125,-33.203125,-52.734375,-83.0078125,0.0
274.83203125,-205.078125,130.859375,-39.55078125,-69.3359375,34.1796875,0.0
274.8359375,-213.8671875,152.34375,-38.57421875,-81.0546875,51.26953125,0.0
274.83984375,-253.41796875,126.953125,-30.2734375,-51.7578125,38.57421875,0.0
274.84375,-299.31640625,91.30859375,-36.1328125,-87.40234375,24.4140625,0.0
274.84765625,-273.92578125,109.86328125,-42.96875,-104.4921875,12.20703125,0.0
274.8515625,-257.8125,129.8828125,-35.64453125,-83.49609375,-82.51953125,0.0
274.85546875,-270.01953125,141.6015625,-33.69140625,-91.796875,-114.74609375,0.0
274.859375,-283.69140625,145.5078125,-39.55078125,-88.37890625,-77.63671875,0.0
274.86328125,-266.6015625,170.8984375,-31.25,-49.8046875,-31.25,0.0
274.8671875,-317.87109375,148.4375,-24.90234375,-68.359375,11.23046875,0.0
274.87109375,-406.73828125,90.33203125,-26.85546875,-91.796875,19.04296875,0.0
274.875,-398.4375,119.140625,-30.2734375,-52.734375,39.0625,0.0
274.87890625,-375.48828125,199.21875,-30.2734375,-22.4609375,26.85546875,0.0
274.8828125,-397.94921875,187.98828125,-36.1328125,-12.6953125,-28.3203125,0.0
274.88671875,-379.39453125,110.3515625,-29.296875,21.484375,-44.921875,0.0
274.890625,-362.3046875,142.578125,-26.3671875,-14.6484375,-8.30078125,0.0
274.89453125,-426.26953125,164.0625,-27.83203125,-67.87109375,-30.2734375,0.0
274.8984375,-465.8203125,127.9296875,-20.5078125,-40.52734375,-79.1015625,0.0
274.90234375,-474.12109375,162.109375,-16.11328125,-18.5546875,-15.625,0.0
274.90625,-437.5,182.6171875,-15.13671875,-8.7890625,61.5234375,0.0
274.91015625,-378.41796875,190.91796875,-26.85546875,2.9296875,58.10546875,0.0
274.9140625,-363.28125,168.9453125,-29.296875,-52.734375,77.63671875,0.0
274.91796875,-391.6015625,148.4375,-22.94921875,-58.10546875,110.83984375,0.0
274.921875,-411.1328125,133.30078125,-25.390625,-15.625,18.06640625,0.0
274.92578125,-390.625,66.40625,-27.34375,-25.390625,-78.125,0.0
274.9296875,-340.8203125,58.59375,-28.80859375,-27.83203125,-62.01171875,0.0
274.93359375,-323.73046875,49.31640625,-36.1328125,-68.84765625,-39.0625,0.0
274.9375,-330.078125,0.48828125,-35.15625,-82.51953125,6.34765625,0.0
274.94140625,-333.0078125,-24.90234375,-23.92578125,-20.5078125,18.06640625,0.0
274.9453125,-320.3125,-30.76171875,-17.08984375,6.8359375,-9.765625,0.0
274.94921875,-291.015625,0.9765625,-25.390625,-21.97265625,-49.31640625,0.0
274.953125,-291.015625,23.92578125,-34.66796875,-53.22265625,-59.08203125,0.0
274.95703125,-315.91796875,23.4375,-27.34375,-28.3203125,-87.40234375,0.0
274.9609375,-325.1953125,8.30078125,-11.23046875,19.53125,-83.984375,0.0
274.96484375,-311.03515625,-31.25,-10.7421875,11.23046875,-57.12890625,0.0
274.96875,-288.0859375,-83.49609375,-24.90234375,-34.66796875,-17.08984375,0.0
274.97265625,-258.7890625,-136.23046875,-35.64453125,-64.94140625,16.11328125,0.0
274.9765625,-256.8359375,-192.3828125,-39.55078125,-21.484375,-15.13671875,0.0
274.98046875,-269.53125,-270.99609375,-37.109375,7.32421875,-48.33984375,0.0
274.984375,-270.99609375,-301.26953125,-31.73828125,-36.1328125,-91.796875,0.0
274.98828125,-265.13671875,-289.55078125,-29.296875,-38.57421875,-99.12109375,0.0
274.9921875,-240.72265625,-286.1328125,-30.76171875,-52.24609375,-30.2734375,0.0
274.99609375,-221.6796875,-272.94921875,-38.0859375,-57.6171875,17.578125,0.0
275.0,-225.09765625,-268.06640625,-38.57421875,-22.94921875,17.08984375,0.0
275.00390625,-213.37890625,-266.6015625,-26.85546875,-4.8828125,-36.62109375,0.0
275.0078125,-166.015625,-252.9296875,-25.390625,-38.57421875,-6.34765625,0.0
275.01171875,-158.69140625,-242.1875,-40.52734375,-73.73046875,79.58984375,0.0
275.015625,-200.1953125,-230.46875,-42.96875,-50.29296875,36.62109375,0.0
275.01953125,-190.91796875,-227.05078125,-34.1796875,14.6484375,-68.84765625,0.0
275.0234375,-167.96875,-243.65234375,-25.390625,13.671875,5.37109375,0.0
275.02734375,-138.671875,-234.375,-20.01953125,-20.01953125,12.6953125,0.0
275.03125,-92.28515625,-195.3125,-25.87890625,-11.71875,-52.734375,0.0
275.03515625,-72.265625,-179.6875,-40.52734375,-26.85546875,-32.2265625,0.0
275.0390625,-90.8203125,-176.26953125,-40.0390625,-26.3671875,-66.89453125,0.0
275.04296875,-96.6796875,-166.50390625,-23.4375,6.8359375,-110.3515625,0.0
275.046875,-83.984375,-166.015625,-9.765625,-0.9765625,-78.61328125,0.0
275.05078125,-76.66015625,-177.734375,-18.06640625,-49.31640625,-37.59765625,0.0
275.0546875,-70.3125,-187.01171875,-37.109375,-56.640625,-14.16015625,0.0
275.05859375,-64.94140625,-167.48046875,-22.94921875,-28.80859375,-37.109375,0.0
275.0625,-68.359375,-187.01171875,-11.71875,9.765625,-77.63671875,0.0
275.06640625,-75.68359375,-216.30859375,-12.20703125,-1.953125,-65.4296875,0.0
275.0703125,-70.3125,-198.73046875,-15.625,-10.7421875,-46.875,0.0
275.07421875,-52.734375,-184.08203125,-22.94921875,-1.46484375,-66.89453125,0.0
275.078125,-37.59765625,-183.59375,-21.484375,-48.33984375,-91.30859375,0.0
275.08203125,-45.8984375,-172.8515625,-31.73828125,-31.25,-110.83984375,0.0
275.0859375,-62.01171875,-172.36328125,-32.2265625,8.30078125,-171.875,0.0
275.08984375,-58.10546875,-173.828125,-28.3203125,-26.3671875,-157.2265625,0.0
275.09375,-47.8515625,-182.6171875,-26.85546875,-56.640625,-104.4921875,0.0
275.09765625,-38.0859375,-196.77734375,-24.90234375,-0.48828125,-33.203125,0.0
275.1015625,-60.546875,-200.68359375,-30.2734375,28.3203125,-28.80859375,0.0
275.10546875,-86.9140625,-208.984375,-20.01953125,-15.13671875,-61.03515625,0.0
275.109375,-85.44921875,-200.68359375,-23.4375,-68.84765625,-106.4453125,0.0
275.11328125,-95.703125,-196.2890625,-36.1328125,-73.2421875,-94.23828125,0.0
275.1171875,-138.671875,-218.75,-28.80859375,-39.0625,-49.31640625,0.0
275.12109375,-184.5703125,-219.23828125,-21.97265625,-39.55078125,-39.0625,0.0
275.125,-170.8984375,-205.078125,-19.53125,-13.671875,-73.2421875,0.0
275.12890625,-163.57421875,-229.4921875,-18.06640625,-18.06640625,-138.671875,0.0
275.1328125,-181.640625,-228.515625,-20.99609375,-51.26953125,-99.609375,0.0
275.13671875,-200.68359375,-228.515625,-23.92578125,-12.20703125,-87.40234375,0.0
275.140625,-235.83984375,-249.51171875,-9.27734375,19.53125,-61.5234375,0.0
275.14453125,-253.41796875,-247.0703125,-7.32421875,18.5546875,-19.04296875,0.0
275.1484375,-238.76953125,-240.234375,-24.90234375,-12.20703125,-14.6484375,0.0
275.15234375,-216.30859375,-242.67578125,-27.34375,-41.015625,1.953125,0.0
275.15625,-233.3984375,-247.0703125,-29.296875,-35.15625,48.33984375,0.0
275.16015625,-253.41796875,-251.953125,-27.83203125,-14.16015625,0.0,0.0
275.1640625,-243.65234375,-265.13671875,-25.390625,30.2734375,-50.78125,0.0
275.16796875,-252.44140625,-255.859375,-23.4375,-17.08984375,0.48828125,0.0
275.171875,-247.55859375,-245.60546875,-32.71484375,-86.9140625,20.01953125,0.0
275.17578125,-242.67578125,-270.5078125,-40.52734375,-59.08203125,-36.1328125,0.0
275.1796875,-237.3046875,-266.6015625,-31.25,1.953125,-18.06640625,0.0
275.18359375,-198.2421875,-251.953125,-18.5546875,13.18359375,4.8828125,0.0
275.1875,-158.69140625,-243.1640625,-22.94921875,-44.921875,-35.64453125,0.0
275.19140625,-137.6953125,-231.93359375,-35.64453125,-68.84765625,-75.1953125,0.0
275.1953125,-127.44140625,-242.1875,-34.66796875,-50.29296875,-69.82421875,0.0
275.19921875,-131.8359375,-246.58203125,-24.4140625,13.671875,-72.75390625,0.0
275.203125,-131.34765625,-230.46875,-31.25,28.3203125,-67.3828125,0.0
275.20703125,-97.65625,-227.5390625,-33.203125,-26.85546875,-84.47265625,0.0
275.2109375,-56.15234375,-226.5625,-30.76171875,-46.875,-120.1171875,0.0
275.21484375,-44.43359375,-226.5625,-35.15625,-69.82421875,-59.5703125,0.0
275.21875,-37.109375,-233.88671875,-32.2265625,-35.15625,-45.8984375,0.0
275.22265625,-27.83203125,-237.79296875,-25.87890625,7.8125,-73.73046875,0.0
275.2265625,-25.87890625,-228.02734375,-19.53125,-2.44140625,-155.2734375,0.0
275.23046875,-6.8359375,-214.84375,-20.5078125,-40.52734375,-203.61328125,0.0
275.234375,23.92578125,-208.49609375,-42.48046875,-71.77734375,-206.0546875,0.0
275.23828125,39.0625,-189.453125,-44.43359375,-30.2734375,-179.19921875,0.0
275.2421875,66.89453125,-184.5703125,-26.85546875,20.5078125,-41.50390625,0.0
275.24609375,77.63671875,-200.68359375,-13.18359375,16.11328125,-18.06640625,0.0
275.25,40.52734375,-192.87109375,-21.484375,-25.87890625,1.46484375,0.0
275.25390625,34.66796875,-181.640625,-37.109375,-33.69140625,110.83984375,0.0
275.2578125,51.7578125,-166.50390625,-33.69140625,-30.2734375,66.40625,0.0
275.26171875,48.33984375,-158.203125,-24.90234375,-30.76171875,-38.0859375,0.0
275.265625,39.0625,-173.828125,-22.94921875,-21.97265625,-43.9453125,0.0
275.26953125,49.8046875,-172.8515625,-31.73828125,-49.8046875,-16.6015625,0.0
275.2734375,69.82421875,-155.2734375,-38.0859375,-68.84765625,25.87890625,0.0
275.27734375,46.38671875,-159.66796875,-38.57421875,-45.41015625,109.375,0.0
275.28125,27.34375,-169.43359375,-33.69140625,1.46484375,108.3984375,0.0
275.28515625,43.9453125,-167.48046875,-24.90234375,10.7421875,-10.25390625,0.0
275.2890625,53.7109375,-166.015625,-26.85546875,-7.8125,-111.328125,0.0
275.29296875,57.6171875,-159.66796875,-37.109375,-62.01171875,-177.24609375,0.0
275.296875,49.31640625,-153.3203125,-41.9921875,-85.9375,-145.99609375,0.0
275.30078125,27.83203125,-160.64453125,-36.62109375,-43.45703125,-141.6015625,0.0
275.3046875,28.3203125,-163.57421875,-39.0625,-18.5546875,-149.4140625,0.0
275.30859375,40.52734375,-157.2265625,-46.875,-37.59765625,-122.55859375,0.0
275.3125,50.29296875,-143.5546875,-54.19921875,-72.265625,-155.76171875,0.0
275.31640625,51.26953125,-133.30078125,-53.7109375,-43.9453125,-166.50390625,0.0
275.3203125,54.6875,-125.9765625,-39.0625,-40.52734375,-141.11328125,0.0
275.32421875,43.45703125,-133.30078125,-22.94921875,-61.03515625,-132.32421875,0.0
275.328125,38.0859375,-134.27734375,-21.484375,-61.03515625,-165.52734375,0.0
275.33203125,44.43359375,-131.34765625,-30.76171875,-68.359375,-169.921875,0.0
275.3359375,32.2265625,-130.37109375,-30.76171875,-49.8046875,-103.02734375,0.0
275.33984375,14.16015625,-131.8359375,-24.90234375,-11.71875,-105.95703125,0.0
275.34375,25.390625,-125.48828125,-24.4140625,-26.85546875,-169.43359375,0.0
275.34765625,41.9921875,-96.6796875,-28.80859375,-46.38671875,-118.65234375,0.0
275.3515625,32.71484375,-87.40234375,-37.59765625,-58.10546875,55.6640625,0.0
275.35546875,32.71484375,-83.0078125,-47.8515625,-69.82421875,97.65625,0.0
275.359375,36.62109375,-77.1484375,-50.78125,-45.41015625,67.87109375,0.0
275.36328125,9.27734375,-83.49609375,-37.59765625,-16.6015625,96.19140625,0.0
275.3671875,4.39453125,-79.1015625,-25.390625,-0.48828125,99.12109375,0.0
275.37109375,29.296875,-61.5234375,-27.34375,-29.78515625,108.3984375,0.0
275.375,19.53125,-57.6171875,-39.55078125,-77.63671875,67.3828125,0.0
275.37890625,-0.9765625,-69.82421875,-38.57421875,-27.34375,-7.8125,0.0
275.3828125,1.46484375,-72.75390625,-22.4609375,2.9296875,32.2265625,0.0
275.38671875,-5.859375,-74.70703125,-25.390625,-25.87890625,50.78125,0.0
275.390625,-7.32421875,-66.89453125,-32.2265625,-49.8046875,51.7578125,0.0
275.39453125,-23.4375,-70.80078125,-36.62109375,-70.80078125,-8.7890625,0.0
275.3984375,-73.2421875,-80.56640625,-34.66796875,-41.015625,-62.01171875,0.0
275.40234375,-77.1484375,-76.171875,-23.4375,-4.39453125,-81.0546875,0.0
275.40625,-41.015625,-69.3359375,-17.08984375,-10.25390625,-100.5859375,0.0
275.41015625,-43.45703125,-71.77734375,-30.76171875,-41.015625,-23.4375,0.0
275.4140625,-61.5234375,-64.94140625,-41.015625,-69.82421875,74.70703125,0.0
275.41796875,-82.03125,-62.01171875,-32.2265625,-62.01171875,40.0390625,0.0
275.421875,-97.65625,-91.30859375,-22.94921875,-15.13671875,32.2265625,0.0
275.42578125,-58.59375,-109.375,-25.87890625,-5.37109375,16.6015625,0.0
275.4296875,-79.1015625,-123.046875,-35.64453125,-25.390625,-80.078125,0.0
275.43359375,-216.30859375,-142.08984375,-41.50390625,-45.41015625,-57.12890625,0.0
275.4375,-252.9296875,-149.4140625,-40.0390625,-62.5,-79.58984375,0.0
275.44140625,-279.296875,-192.87109375,-31.73828125,-24.4140625,-61.03515625,0.0
275.4453125,-313.4765625,-197.265625,-30.2734375,-10.7421875,16.11328125,0.0
275.44921875,-291.50390625,-191.40625,-31.73828125,-37.59765625,-39.0625,0.0
275.453125,-367.67578125,-220.703125,-40.52734375,-60.05859375,-19.04296875,0.0
275.45703125,-440.4296875,-242.67578125,-45.8984375,-25.390625,27.83203125,0.0
275.4609375,-448.73046875,-255.859375,-33.69140625,-9.765625,-8.30078125,0.0
275.46484375,-454.1015625,-261.23046875,-29.296875,-27.83203125,-24.4140625,0.0
275.46875,-442.3828125,-273.92578125,-29.296875,-45.41015625,-36.62109375,0.0
275.47265625,-437.98828125,-296.38671875,-24.90234375,-49.8046875,-72.75390625,0.0
275.4765625,-432.6171875,-283.203125,-27.83203125,-27.34375,-62.01171875,0.0
275.48046875,-427.734375,-279.78515625,-24.90234375,-14.6484375,-49.31640625,0.0
275.484375,-526.85546875,-319.82421875,-23.4375,-1.953125,5.859375,0.0
275.48828125,-503.90625,-310.546875,-31.25,-39.55078125,31.25,0.0
275.4921875,-428.7109375,-308.10546875,-42.48046875,-78.61328125,37.59765625,0.0
275.49609375,-458.984375,-333.0078125,-45.41015625,-48.828125,12.6953125,0.0
275.5,-465.33203125,-330.56640625,-50.78125,-25.87890625,-50.78125,0.0
275.50390625,-450.1953125,-339.84375,-43.9453125,-10.25390625,18.5546875,0.0
275.5078125,-425.78125,-342.7734375,-27.34375,-1.46484375,92.28515625,0.0
275.51171875,-431.15234375,-337.890625,-36.1328125,-62.01171875,25.87890625,0.0
275.515625,-427.24609375,-344.23828125,-37.59765625,-75.68359375,12.20703125,0.0
275.51953125,-396.484375,-360.83984375,-37.109375,-62.5,-21.484375,0.0
275.5234375,-387.6953125,-349.12109375,-39.0625,-42.96875,-31.25,0.0
275.52734375,-395.01953125,-328.61328125,-34.66796875,-23.92578125,-45.8984375,0.0
275.53125,-371.58203125,-333.49609375,-49.31640625,-64.453125,-57.6171875,0.0
275.53515625,-360.3515625,-335.9375,-56.15234375,-52.734375,-3.90625,0.0
275.5390625,-355.46875,-350.5859375,-43.9453125,-41.50390625,-55.6640625,0.0
275.54296875,-370.60546875,-355.95703125,-25.87890625,-39.0625,-144.53125,0.0
275.546875,-378.90625,-331.0546875,-19.53125,-32.71484375,-131.34765625,0.0
275.55078125,-355.95703125,-315.91796875,-36.62109375,-75.68359375,-62.01171875,0.0
275.5546875,-337.40234375,-302.734375,-47.8515625,-91.30859375,-68.359375,0.0
275.55859375,-343.75,-297.36328125,-32.71484375,-59.08203125,-62.5,0.0
275.5625,-323.2421875,-282.71484375,-25.87890625,-30.76171875,-21.97265625,0.0
275.56640625,-287.59765625,-268.5546875,-34.66796875,-46.38671875,-51.7578125,0.0
275.5703125,-290.0390625,-282.2265625,-32.2265625,-36.1328125,-110.83984375,0.0
275.57421875,-278.80859375,-270.01953125,-27.83203125,-41.015625,-40.0390625,0.0
275.578125,-302.24609375,-250.0,-33.203125,-85.44921875,35.64453125,0.0
275.58203125,-338.37890625,-240.234375,-31.73828125,-55.17578125,5.859375,0.0
275.5859375,-308.10546875,-234.375,-21.97265625,-40.0390625,0.0,0.0
275.58984375,-269.04296875,-219.23828125,-24.4140625,-91.30859375,79.1015625,0.0
275.59375,-263.671875,-196.77734375,-29.78515625,-51.7578125,51.7578125,0.0
275.59765625,-278.3203125,-203.125,-28.3203125,-26.3671875,-63.96484375,0.0
275.6015625,-298.828125,-208.49609375,-12.6953125,-53.22265625,-116.2109375,0.0
275.60546875,-260.7421875,-189.453125,-0.9765625,-30.2734375,-19.53125,0.0
275.609375,-239.74609375,-173.828125,-19.04296875,-61.5234375,-111.81640625,0.0
275.61328125,-244.140625,-165.0390625,-32.71484375,-104.4921875,-224.609375,0.0
275.6171875,-245.60546875,-171.38671875,-29.78515625,-53.22265625,-184.5703125,0.0
275.62109375,-283.69140625,-173.33984375,-22.4609375,-11.71875,-89.84375,0.0
275.625,-279.296875,-154.296875,-17.08984375,-43.45703125,5.37109375,0.0
275.62890625,-231.4453125,-142.578125,-26.85546875,-57.12890625,-1.46484375,0.0
275.6328125,-234.86328125,-145.5078125,-39.55078125,-77.1484375,-33.203125,0.0
275.63671875,-253.41796875,-140.625,-38.0859375,-62.01171875,-55.6640625,0.0
275.640625,-257.8125,-140.625,-27.34375,-25.390625,-28.3203125,0.0
275.64453125,-263.671875,-134.27734375,-18.5546875,0.48828125,64.453125,0.0
275.6484375,-229.00390625,-95.703125,-11.71875,2.9296875,62.98828125,0.0
275.65234375,-188.96484375,-67.87109375,-20.5078125,-57.6171875,-12.6953125,0.0
275.65625,-200.68359375,-68.84765625,-36.62109375,-67.87109375,-2.9296875,0.0
275.66015625,-226.07421875,-79.1015625,-33.203125,-32.71484375,-48.828125,0.0
275.6640625,-223.6328125,-71.2890625,-21.484375,-14.6484375,-110.3515625,0.0
275.66796875,-180.6640625,-38.0859375,-24.90234375,-26.85546875,-41.50390625,0.0
275.671875,-158.69140625,2.44140625,-41.9921875,-53.7109375,7.32421875,0.0
275.67578125,-153.80859375,31.73828125,-34.1796875,-17.578125,-32.2265625,0.0
275.6796875,-175.29296875,46.875,-26.85546875,4.39453125,-92.28515625,0.0
275.68359375,-199.21875,81.0546875,-22.4609375,16.11328125,-74.21875,0.0
275.6875,-149.90234375,136.23046875,-23.92578125,-37.59765625,-78.125,0.0
275.69140625,-102.05078125,186.5234375,-32.71484375,-73.73046875,-112.79296875,0.0
275.6953125,-92.7734375,231.4453125,-35.15625,-30.2734375,-49.8046875,0.0
275.69921875,-152.34375,258.30078125,-23.92578125,-6.8359375,-50.78125,0.0
275.703125,-187.01171875,296.875,-12.6953125,-19.04296875,-25.390625,0.0
275.70703125,-149.4140625,346.19140625,-18.5546875,-27.34375,8.30078125,0.0
275.7109375,-114.2578125,390.13671875,-29.296875,-61.5234375,31.73828125,0.0
275.71484375,-96.19140625,435.05859375,-38.0859375,-81.0546875,19.04296875,0.0
275.71875,-127.9296875,461.9140625,-30.2734375,-33.203125,-72.265625,0.0
275.72265625,-163.0859375,483.88671875,-14.16015625,-22.94921875,-46.875,0.0
275.7265625,-142.08984375,513.18359375,-7.8125,-49.8046875,-85.44921875,0.0
275.73046875,-99.609375,549.8046875,-18.06640625,-75.68359375,-59.08203125,0.0
275.734375,-79.1015625,562.01171875,-25.87890625,-87.40234375,19.04296875,0.0
275.73828125,-86.9140625,529.296875,-29.296875,-46.875,-37.109375,0.0
275.7421875,-119.62890625,501.953125,-22.4609375,17.578125,13.671875,0.0
275.74609375,-128.90625,488.28125,-14.6484375,-20.5078125,19.04296875,0.0
275.75,-92.7734375,453.125,-34.66796875,-90.33203125,-31.73828125,0.0
275.75390625,-74.21875,417.96875,-40.0390625,-75.68359375,-94.7265625,0.0
275.7578125,-95.703125,386.23046875,-31.73828125,-41.50390625,-108.3984375,0.0
275.76171875,-124.0234375,344.7265625,-20.01953125,-6.34765625,-72.265625,0.0
275.765625,-89.35546875,322.265625,-14.16015625,-11.23046875,-80.078125,0.0
275.76953125,-53.22265625,311.5234375,-21.97265625,-25.87890625,-70.80078125,0.0
275.7734375,-37.109375,286.1328125,-26.85546875,-68.359375,-32.71484375,0.0
275.77734375,-48.828125,259.27734375,-33.203125,-82.51953125,-43.9453125,0.0
275.78125,-83.984375,231.4453125,-24.90234375,-1.46484375,-9.27734375,0.0
275.78515625,-73.2421875,205.56640625,-21.97265625,7.8125,63.96484375,0.0
275.7890625,-25.87890625,183.10546875,-23.4375,-43.45703125,-2.44140625,0.0
275.79296875,-12.20703125,164.55078125,-20.01953125,-39.55078125,-49.8046875,0.0
275.796875,-47.36328125,139.16015625,-30.76171875,-39.55078125,-27.34375,0.0
275.80078125,-56.15234375,121.58203125,-23.4375,-29.296875,-27.83203125,0.0
275.8046875,-26.3671875,127.9296875,-15.625,8.30078125,-41.9921875,0.0
275.80859375,9.765625,105.95703125,-37.59765625,-40.0390625,-34.1796875,0.0
275.8125,19.04296875,83.0078125,-47.36328125,-59.5703125,-20.5078125,0.0
275.81640625,5.37109375,72.75390625,-43.9453125,-40.0390625,-31.25,0.0
275.8203125,-24.4140625,45.8984375,-36.62109375,-22.94921875,-48.33984375,0.0
275.82421875,-33.69140625,40.0390625,-31.73828125,13.671875,-36.62109375,0.0
275.828125,28.80859375,59.5703125,-35.15625,-28.80859375,-30.76171875,0.0
275.83203125,54.19921875,39.55078125,-38.0859375,-73.2421875,-1.46484375,0.0
275.8359375,6.8359375,8.7890625,-37.59765625,-32.2265625,15.13671875,0.0
275.83984375,-41.50390625,0.48828125,-32.2265625,2.44140625,2.9296875,0.0
275.84375,-23.4375,-9.27734375,-20.01953125,31.25,-19.53125,0.0
275.84765625,20.01953125,-13.18359375,-20.5078125,-4.8828125,15.13671875,0.0
275.8515625,28.80859375,-21.97265625,-36.62109375,-72.75390625,-5.859375,0.0
275.85546875,-2.44140625,-32.2265625,-37.59765625,-61.03515625,-35.15625,0.0
275.859375,-60.546875,-31.73828125,-40.0390625,-10.7421875,-26.85546875,0.0
275.86328125,-68.359375,-46.38671875,-38.57421875,9.27734375,-77.1484375,0.0
275.8671875,-80.078125,-67.3828125,-28.80859375,17.08984375,-17.578125,0.0
275.87109375,-67.87109375,-68.84765625,-41.50390625,-8.30078125,20.99609375,0.0
275.875,-45.8984375,-74.21875,-62.01171875,-41.50390625,-22.4609375,0.0
275.87890625,-104.00390625,-93.26171875,-55.17578125,-3.90625,-34.66796875,0.0
275.8828125,-127.44140625,-79.58984375,-31.25,15.625,-26.85546875,0.0
275.88671875,-98.6328125,-83.49609375,-17.08984375,-7.32421875,8.30078125,0.0
275.890625,-61.03515625,-88.8671875,-31.73828125,-56.640625,50.78125,0.0
275.89453125,-57.12890625,-60.546875,-59.5703125,-70.80078125,121.58203125,0.0
275.8984375,-109.375,-70.3125,-52.24609375,-15.625,97.16796875,0.0
275.90234375,-133.7890625,-94.7265625,-28.3203125,41.015625,33.69140625,0.0
275.90625,-96.6796875,-84.47265625,-31.25,14.6484375,-3.41796875,0.0
275.91015625,-3.90625,-14.16015625,-40.52734375,-46.38671875,11.71875,0.0
275.9140625,-54.19921875,-20.5078125,-39.55078125,-45.41015625,3.41796875,0.0
275.91796875,-112.3046875,-27.83203125,-36.1328125,-23.4375,-104.4921875,0.0
275.921875,-107.91015625,-35.64453125,-32.71484375,0.0,-183.59375,0.0
275.92578125,-58.59375,-37.109375,-30.2734375,30.2734375,-185.546875,0.0
275.9296875,-20.01953125,-22.4609375,-29.296875,12.20703125,-104.4921875,0.0
275.93359375,-43.9453125,-15.625,-32.2265625,-57.12890625,-52.24609375,0.0
275.9375,-100.09765625,-34.1796875,-33.203125,-78.61328125,27.34375,0.0
275.94140625,-97.16796875,-41.9921875,-23.92578125,7.32421875,29.296875,0.0
275.9453125,-47.8515625,-36.62109375,-25.390625,27.34375,-51.26953125,0.0
275.94921875,-21.97265625,-25.390625,-33.203125,-36.1328125,-18.06640625,0.0
275.953125,-43.9453125,-14.6484375,-36.62109375,-35.64453125,52.24609375,0.0
275.95703125,-5.37109375,-82.03125,-39.55078125,-29.78515625,38.57421875,0.0
275.9609375,-48.828125,-76.66015625,-32.71484375,31.25,-33.203125,0.0
275.96484375,-33.203125,-72.75390625,-28.80859375,32.2265625,45.41015625,0.0
275.96875,22.94921875,-61.5234375,-30.2734375,-46.875,101.07421875,0.0
275.97265625,20.5078125,-62.01171875,-33.203125,-36.1328125,99.609375,0.0
275.9765625,-24.90234375,-66.89453125,-38.0859375,10.7421875,141.11328125,0.0
275.98046875,-57.12890625,-72.75390625,-18.5546875,20.99609375,157.2265625,0.0
275.984375,-50.29296875,-79.1015625,-5.859375,3.41796875,50.78125,0.0
275.98828125,-23.92578125,-71.77734375,-22.4609375,-20.01953125,-66.40625,0.0
275.9921875,-12.20703125,-67.87109375,-32.71484375,-33.203125,-81.0546875,0.0
275.99609375,-20.01953125,-75.68359375,-26.85546875,-26.3671875,-79.58984375,0.0
276.0,-49.8046875,-79.1015625,-21.484375,-18.06640625,-96.6796875,0.0
276.00390625,-47.36328125,-85.44921875,-15.625,18.5546875,-154.78515625,0.0
276.0078125,-20.01953125,-90.33203125,-21.484375,0.48828125,-144.04296875,0.0
276.01171875,21.484375,-73.2421875,-34.1796875,-28.3203125,-82.51953125,0.0
276.015625,39.55078125,-69.3359375,-37.109375,-27.34375,-160.15625,0.0
276.01953125,-29.296875,-81.0546875,-29.78515625,-10.7421875,-200.68359375,0.0
276.0234375,-48.828125,-77.63671875,-19.53125,13.18359375,-189.94140625,0.0
276.02734375,21.97265625,-79.1015625,-16.6015625,-8.30078125,-160.64453125,0.0
276.03125,68.84765625,-75.68359375,-20.5078125,-20.99609375,-122.55859375,0.0
276.03515625,5.37109375,-90.8203125,-28.80859375,-21.484375,-152.83203125,0.0
276.0390625,-50.78125,-113.76953125,-22.94921875,-28.3203125,-118.1640625,0.0
276.04296875,-37.109375,-111.81640625,-5.37109375,11.71875,-38.0859375,0.0
276.046875,-46.875,-104.4921875,-1.46484375,25.390625,-117.1875,0.0
276.05078125,16.11328125,-16.6015625,-16.6015625,-41.9921875,-205.078125,0.0
276.0546875,-23.92578125,-10.7421875,-29.78515625,-68.359375,-193.359375,0.0
276.05859375,-74.21875,-22.94921875,-32.2265625,-29.78515625,-138.18359375,0.0
276.0625,-58.59375,-30.76171875,-23.92578125,14.6484375,-83.984375,0.0
276.06640625,-10.25390625,-31.73828125,-24.4140625,-4.39453125,30.2734375,0.0
276.0703125,9.27734375,-19.04296875,-32.2265625,-9.27734375,146.484375,0.0
276.07421875,-27.34375,-11.71875,-38.57421875,-9.27734375,141.6015625,0.0
276.078125,-83.984375,-28.80859375,-38.0859375,-73.2421875,35.15625,0.0
276.08203125,-66.40625,-34.66796875,-30.76171875,-56.640625,-38.57421875,0.0
276.0859375,-1.953125,-34.1796875,-21.484375,-21.97265625,-48.33984375,0.0
276.08984375,10.25390625,-21.484375,-22.94921875,-31.73828125,-36.1328125,0.0
276.09375,-25.390625,-15.13671875,-41.9921875,-61.03515625,-1.46484375,0.0
276.09765625,-12.6953125,-97.65625,-41.50390625,-46.38671875,-16.11328125,0.0
276.1015625,-62.98828125,-109.86328125,-21.97265625,0.0,-52.734375,0.0
276.10546875,-55.17578125,-110.3515625,-6.8359375,24.90234375,-41.50390625,0.0
276.109375,13.671875,-92.7734375,-12.20703125,-32.2265625,-38.57421875,0.0
276.11328125,7.8125,-88.37890625,-30.2734375,-98.14453125,-82.51953125,0.0
276.1171875,-48.33984375,-86.42578125,-25.87890625,-64.94140625,-82.03125,0.0
276.12109375,-73.73046875,-103.02734375,-12.6953125,-11.71875,-47.36328125,0.0
276.125,-42.96875,-117.67578125,-20.01953125,-4.8828125,-64.453125,0.0
276.12890625,-6.34765625,-106.4453125,-21.97265625,-5.859375,-64.453125,0.0
276.1328125,-22.94921875,-101.5625,-25.87890625,-24.90234375,-2.44140625,0.0
276.13671875,-36.62109375,-106.93359375,-30.76171875,-47.8515625,-20.5078125,0.0
276.140625,-27.34375,-102.5390625,-25.390625,4.39453125,-3.41796875,0.0
276.14453125,-27.34375,-90.33203125,-14.6484375,31.73828125,84.9609375,0.0
276.1484375,-23.92578125,-84.47265625,-18.5546875,-19.53125,73.2421875,0.0
276.15234375,6.8359375,-86.9140625,-32.71484375,-68.84765625,-7.32421875,0.0
276.15625,7.32421875,-96.19140625,-39.55078125,-34.1796875,8.7890625,0.0
276.16015625,-52.24609375,-102.5390625,-34.1796875,-14.16015625,47.8515625,0.0
276.1640625,-88.37890625,-102.5390625,-25.390625,-34.1796875,-29.78515625,0.0
276.16796875,-38.0859375,-96.19140625,-27.83203125,-8.30078125,-26.85546875,0.0
276.171875,3.41796875,-105.46875,-33.203125,-40.52734375,19.04296875,0.0
276.17578125,-20.99609375,-105.46875,-32.71484375,-87.890625,25.390625,0.0
276.1796875,-63.4765625,-96.6796875,-23.92578125,-41.015625,16.11328125,0.0
276.18359375,-78.125,-99.609375,-15.13671875,4.8828125,-30.2734375,0.0
276.1875,-32.2265625,-97.65625,-19.04296875,13.671875,-27.83203125,0.0
276.19140625,-2.44140625,-96.19140625,-35.15625,-36.1328125,34.1796875,0.0
276.1953125,-13.18359375,-94.23828125,-46.875,-82.03125,-46.38671875,0.0
276.19921875,-37.59765625,-96.19140625,-29.296875,-28.80859375,-90.8203125,0.0
276.203125,-44.921875,-93.26171875,-12.6953125,-0.9765625,-26.85546875,0.0
276.20703125,-22.94921875,-89.84375,-20.99609375,-3.90625,-49.8046875,0.0
