timestamp,TP9,AF7,AF8,TP10,AUX,Marker,
111.00390625,-18.5546875,-52.734375,16.6015625,8.7890625,-12.6953125,0.0
111.0078125,-60.546875,-57.6171875,69.82421875,-54.6875,-40.0390625,0.0
111.01171875,-70.3125,-63.96484375,87.890625,-86.9140625,27.83203125,0.0
111.015625,-34.66796875,-65.91796875,83.49609375,-97.16796875,-42.96875,0.0
111.01953125,-12.20703125,-52.24609375,96.6796875,-81.0546875,-71.77734375,0.0
111.0234375,-12.6953125,-47.8515625,209.47265625,-58.59375,-44.921875,0.0
111.02734375,-41.015625,-67.3828125,365.234375,-12.6953125,-108.88671875,0.0
111.03125,-55.17578125,-69.3359375,445.3125,8.30078125,-69.82421875,0.0
111.03515625,-35.64453125,-56.15234375,489.2578125,-10.25390625,-43.9453125,0.0
111.0390625,-14.6484375,-58.10546875,493.1640625,22.4609375,-90.33203125,0.0
111.04296875,-16.11328125,-60.05859375,471.6796875,18.5546875,-42.96875,0.0
111.046875,-41.015625,-55.17578125,432.6171875,63.96484375,-45.8984375,0.0
111.05078125,-1.46484375,-53.22265625,403.3203125,114.2578125,-104.98046875,0.0
111.0546875,-62.01171875,-57.12890625,388.18359375,-4.39453125,-34.66796875,0.0
111.05859375,-77.1484375,-53.22265625,380.859375,-67.3828125,-16.6015625,0.0
111.0625,-32.71484375,-41.9921875,317.87109375,-7.8125,-7.8125,0.0
111.06640625,-1.953125,-42.48046875,306.15234375,40.0390625,-63.96484375,0.0
111.0703125,8.7890625,-48.828125,375.0,81.54296875,-70.3125,0.0
111.07421875,48.828125,-53.7109375,342.28515625,39.55078125,-36.62109375,0.0
111.078125,41.50390625,-52.24609375,262.6953125,20.01953125,-113.76953125,0.0
111.08203125,37.59765625,-48.33984375,247.0703125,40.52734375,-25.390625,0.0
111.0859375,21.484375,-40.52734375,234.375,28.3203125,68.359375,0.0
111.08984375,-23.92578125,-44.43359375,191.40625,32.2265625,5.37109375,0.0
111.09375,-35.15625,-58.10546875,191.89453125,-2.44140625,-49.8046875,0.0
111.09765625,8.30078125,-41.9921875,104.4921875,67.87109375,-38.0859375,0.0
111.1015625,19.04296875,-28.3203125,48.828125,181.15234375,-11.71875,0.0
111.10546875,-23.4375,-59.5703125,168.45703125,22.4609375,-53.7109375,0.0
111.109375,-36.62109375,-70.80078125,165.0390625,-76.66015625,-34.66796875,0.0
111.11328125,-31.73828125,-60.05859375,96.6796875,-33.203125,-5.859375,0.0
111.1171875,-17.08984375,-53.22265625,45.41015625,-42.48046875,-79.1015625,0.0
111.12109375,5.37109375,-44.43359375,39.0625,-27.34375,-80.56640625,0.0
111.125,5.859375,-45.41015625,67.87109375,45.41015625,18.5546875,0.0
111.12890625,-32.2265625,-57.6171875,54.6875,27.34375,65.91796875,0.0
111.1328125,-58.10546875,-61.5234375,3.41796875,4.39453125,11.71875,0.0
111.13671875,-27.83203125,-56.640625,-33.203125,64.94140625,-25.87890625,0.0
111.140625,-4.8828125,-56.15234375,-29.78515625,36.62109375,-62.98828125,0.0
111.14453125,-20.5078125,-55.6640625,30.76171875,-27.34375,-65.4296875,0.0
111.1484375,-39.55078125,-58.59375,37.109375,29.296875,-36.62109375,0.0
111.15234375,-28.3203125,-56.15234375,-7.8125,49.8046875,-111.328125,0.0
111.15625,2.9296875,-45.41015625,-2.9296875,-15.625,-92.28515625,0.0
111.16015625,0.9765625,-41.50390625,-31.73828125,-8.30078125,-55.6640625,0.0
111.1640625,-16.11328125,-51.7578125,-127.9296875,36.1328125,-57.6171875,0.0
111.16796875,-22.4609375,-54.6875,-185.05859375,30.76171875,-1.46484375,0.0
111.171875,-22.4609375,-53.7109375,-145.01953125,-12.6953125,21.484375,0.0
111.17578125,-1.953125,-44.921875,-129.8828125,-33.203125,23.92578125,0.0
111.1796875,9.27734375,-39.55078125,-155.2734375,-13.18359375,-21.484375,0.0
111.18359375,3.90625,-41.015625,-67.3828125,7.8125,-37.59765625,0.0
111.1875,-16.6015625,-44.921875,-70.3125,3.90625,-41.015625,0.0
111.19140625,-19.53125,-53.7109375,-155.2734375,54.19921875,-27.83203125,0.0
111.1953125,-11.23046875,-52.734375,-170.41015625,125.0,-22.4609375,0.0
111.19921875,-5.37109375,-41.50390625,-148.92578125,-1.46484375,-12.20703125,0.0
111.203125,-0.48828125,-38.57421875,-136.23046875,-83.984375,38.0859375,0.0
111.20703125,-20.99609375,-40.52734375,-166.50390625,7.32421875,-3.90625,0.0
111.2109375,-41.015625,-41.015625,-190.91796875,81.0546875,-49.31640625,0.0
111.21484375,-24.4140625,-32.2265625,-141.11328125,31.73828125,-71.77734375,0.0
111.21875,2.9296875,-36.1328125,-110.3515625,-37.109375,-79.58984375,0.0
111.22265625,-5.859375,-54.19921875,-118.1640625,-10.25390625,-93.75,0.0
111.2265625,-34.66796875,-67.87109375,-83.984375,24.4140625,-42.96875,0.0
111.23046875,-47.36328125,-65.91796875,-143.5546875,139.6484375,-76.171875,0.0
111.234375,-44.43359375,-63.4765625,-182.12890625,124.0234375,-112.3046875,0.0
111.23828125,-13.671875,-51.26953125,-91.796875,-70.80078125,-21.97265625,0.0
111.2421875,0.0,-36.62109375,-67.87109375,-102.05078125,-15.625,0.0
111.24609375,-27.34375,-42.48046875,-226.07421875,-51.26953125,15.625,0.0
111.25,-39.55078125,-46.875,-224.609375,-31.73828125,21.97265625,0.0
111.25390625,-15.625,-43.45703125,-39.55078125,-39.0625,41.015625,0.0
111.2578125,20.5078125,-43.45703125,-24.90234375,-84.9609375,39.0625,0.0
111.26171875,15.625,-39.0625,-84.47265625,-67.87109375,-28.3203125,0.0
111.265625,-23.92578125,-43.9453125,-111.328125,-40.0390625,-73.2421875,0.0
111.26953125,-36.1328125,-55.17578125,-122.0703125,-39.55078125,-56.15234375,0.0
111.2734375,-20.01953125,-49.31640625,-141.11328125,20.99609375,34.1796875,0.0
111.27734375,-7.32421875,-38.57421875,-143.06640625,75.68359375,-6.34765625,0.0
111.28125,-0.48828125,-34.1796875,-142.08984375,0.9765625,-18.06640625,0.0
111.28515625,-11.23046875,-42.48046875,-24.4140625,35.15625,31.73828125,0.0
111.2890625,-29.78515625,-48.33984375,1.953125,87.40234375,16.6015625,0.0
111.29296875,-17.578125,-44.43359375,-193.84765625,76.66015625,37.109375,0.0
111.296875,-2.9296875,-39.55078125,-320.80078125,-33.203125,14.6484375,0.0
111.30078125,-10.25390625,-39.55078125,-338.37890625,-247.0703125,3.41796875,0.0
111.3046875,-32.2265625,-42.48046875,-459.47265625,-366.69921875,13.671875,0.0
111.30859375,-47.36328125,-39.0625,-589.35546875,-348.14453125,6.8359375,0.0
111.3125,-57.6171875,-48.828125,-529.296875,-256.34765625,-49.8046875,0.0
111.31640625,-32.71484375,-52.24609375,-465.33203125,-309.5703125,-56.640625,0.0
111.3203125,4.8828125,-33.69140625,-445.3125,-325.1953125,-45.8984375,0.0
111.32421875,-11.71875,-38.57421875,-336.42578125,-184.5703125,-95.21484375,0.0
111.328125,-43.9453125,-41.9921875,-243.65234375,41.015625,-125.0,0.0
111.33203125,-221.19140625,183.10546875,-83.0078125,209.9609375,-78.125,0.0
111.3359375,-193.359375,314.94140625,-63.4765625,183.59375,-35.15625,0.0
111.33984375,-289.0625,326.171875,-140.625,152.34375,-56.15234375,0.0
111.34375,-291.50390625,354.00390625,-168.9453125,211.42578125,-12.20703125,0.0
111.34765625,-251.46484375,394.53125,-207.51953125,287.109375,-44.921875,0.0
111.3515625,-224.609375,377.44140625,-210.44921875,263.18359375,-140.13671875,0.0
111.35546875,-235.83984375,340.8203125,-252.44140625,179.6875,-121.58203125,0.0
111.359375,-307.12890625,297.8515625,-337.40234375,110.83984375,-86.42578125,0.0
111.36328125,-361.81640625,273.4375,-394.53125,77.1484375,-48.33984375,0.0
111.3671875,-331.54296875,154.78515625,-417.96875,125.9765625,10.7421875,0.0
111.37109375,-284.1796875,34.1796875,-437.5,124.0234375,14.16015625,0.0
111.375,-396.484375,101.07421875,-548.33984375,-13.18359375,129.39453125,0.0
111.37890625,-5.37109375,-47.36328125,-585.44921875,-188.96484375,165.52734375,0.0
111.3828125,-16.6015625,-44.43359375,-553.7109375,-318.359375,31.25,0.0
111.38671875,-38.57421875,-41.50390625,-567.3828125,-304.19921875,-85.44921875,0.0
111.390625,-42.96875,-50.29296875,-512.20703125,-228.515625,-102.5390625,0.0
111.39453125,-29.296875,-55.17578125,-520.99609375,-110.83984375,-51.7578125,0.0
111.3984375,-5.37109375,-43.9453125,-466.796875,-67.87109375,20.99609375,0.0
111.40234375,-7.32421875,-42.96875,-356.93359375,-151.85546875,-17.08984375,0.0
111.40625,-25.87890625,-49.8046875,-289.55078125,-88.8671875,-104.00390625,0.0
111.41015625,-38.57421875,-44.43359375,-120.60546875,113.28125,-104.4921875,0.0
111.4140625,-24.4140625,-42.48046875,289.55078125,537.109375,-72.265625,0.0
111.41796875,11.23046875,-46.875,794.921875,944.82421875,-32.71484375,0.0
111.421875,12.20703125,-37.109375,974.12109375,966.30859375,11.23046875,0.0
111.42578125,-36.1328125,-32.71484375,957.03125,958.49609375,-37.109375,0.0
111.4296875,-53.22265625,-40.52734375,966.30859375,970.21484375,-156.73828125,0.0
111.43359375,-31.25,-46.38671875,969.23828125,967.7734375,-108.3984375,0.0
111.4375,-29.78515625,-45.41015625,968.26171875,967.7734375,-17.08984375,0.0
111.44140625,-24.90234375,-39.55078125,967.7734375,967.7734375,-5.37109375,0.0
111.4453125,-18.5546875,-37.59765625,967.7734375,967.7734375,13.18359375,0.0
111.44921875,-39.55078125,-39.55078125,967.7734375,967.7734375,-59.5703125,0.0
111.453125,-41.50390625,-45.41015625,967.7734375,969.23828125,-101.5625,0.0
111.45703125,-24.4140625,-46.38671875,967.7734375,961.42578125,-165.52734375,0.0
111.4609375,-19.04296875,-36.62109375,967.7734375,971.19140625,-108.88671875,0.0
111.46484375,-23.92578125,-36.62109375,967.7734375,934.08203125,-54.6875,0.0
111.46875,-45.41015625,-40.0390625,968.26171875,711.42578125,-47.36328125,0.0
111.47265625,-54.6875,-37.109375,967.7734375,425.78125,-2.44140625,0.0
111.4765625,-21.484375,-37.109375,967.7734375,205.56640625,-1.953125,0.0
111.48046875,-0.9765625,-41.015625,967.7734375,42.96875,27.34375,0.0
111.484375,-24.4140625,-42.48046875,967.7734375,198.73046875,41.50390625,0.0
111.48828125,-44.921875,-32.71484375,968.26171875,334.47265625,-4.39453125,0.0
111.4921875,-42.48046875,-34.1796875,967.7734375,37.59765625,-24.4140625,0.0
111.49609375,-23.92578125,-46.38671875,968.26171875,-524.4140625,-24.4140625,0.0
111.5,1.953125,-35.15625,968.26171875,-973.14453125,20.5078125,0.0
111.50390625,-10.7421875,-30.2734375,967.7734375,-998.53515625,20.99609375,0.0
111.5078125,-39.0625,-44.921875,967.7734375,-989.74609375,12.20703125,0.0
111.51171875,-45.8984375,-56.15234375,967.7734375,-989.74609375,-56.640625,0.0
111.515625,-24.4140625,-56.640625,968.26171875,-1000.0,-152.83203125,0.0
111.51953125,-22.94921875,-55.6640625,967.7734375,-819.3359375,-147.94921875,0.0
111.5234375,-33.69140625,-52.24609375,967.7734375,-395.01953125,-156.73828125,0.0
111.52734375,-42.48046875,-42.48046875,967.7734375,-138.671875,-72.265625,0.0
111.53125,-42.96875,-40.0390625,968.26171875,146.97265625,37.59765625,0.0
111.53515625,-23.92578125,-51.26953125,967.7734375,602.05078125,-86.9140625,0.0
111.5390625,-4.39453125,-46.38671875,967.7734375,928.7109375,-158.203125,0.0
111.54296875,-18.06640625,-34.1796875,967.7734375,967.28515625,-149.4140625,0.0
111.546875,-35.15625,-39.0625,967.7734375,960.44921875,-172.36328125,0.0
111.55078125,-40.52734375,-43.45703125,967.7734375,971.6796875,-161.62109375,0.0
111.5546875,-41.9921875,-47.8515625,967.7734375,960.9375,-128.41796875,0.0
111.55859375,-19.04296875,-48.828125,968.26171875,950.1953125,-70.3125,0.0
111.5625,2.9296875,-39.55078125,968.26171875,971.19140625,50.29296875,0.0
111.56640625,-14.6484375,-36.62109375,967.7734375,473.6328125,62.01171875,0.0
111.5703125,-53.22265625,-42.96875,967.7734375,-534.1796875,1.46484375,0.0
111.57421875,-46.875,-45.41015625,968.26171875,-1000.0,-39.55078125,0.0
111.578125,-25.87890625,-43.9453125,968.26171875,-982.421875,-11.23046875,0.0
111.58203125,-10.25390625,-41.9921875,968.26171875,-992.67578125,-12.6953125,0.0
111.5859375,-10.25390625,-37.59765625,968.26171875,-1000.0,-21.97265625,0.0
111.58984375,-39.0625,-48.33984375,968.26171875,-987.79296875,-37.109375,0.0
111.59375,-28.3203125,-53.7109375,968.26171875,-1000.0,-129.8828125,0.0
111.59765625,9.765625,-45.8984375,968.26171875,-916.015625,-109.375,0.0
111.6015625,-10.7421875,-48.33984375,968.26171875,-608.88671875,-20.01953125,0.0
111.60546875,-42.48046875,-48.33984375,967.7734375,-469.7265625,68.359375,0.0
111.609375,-42.48046875,-45.8984375,967.7734375,-319.82421875,123.046875,0.0
111.61328125,-32.2265625,-49.31640625,968.26171875,-322.75390625,-36.1328125,0.0
111.6171875,-12.6953125,-49.8046875,967.7734375,-369.140625,-124.0234375,0.0
111.62109375,-5.37109375,-44.43359375,967.7734375,-182.12890625,1.46484375,0.0
111.625,-22.4609375,-46.875,968.75,-278.3203125,13.671875,0.0
111.62890625,-27.83203125,-51.26953125,966.30859375,-582.51953125,-27.83203125,0.0
111.6328125,-13.18359375,-46.38671875,954.58984375,-833.49609375,-39.0625,0.0
111.63671875,-9.27734375,-37.109375,985.83984375,-1000.0,-80.56640625,0.0
111.640625,-9.27734375,-37.109375,750.0,-995.60546875,-76.171875,0.0
111.64453125,-15.13671875,-55.17578125,271.484375,-998.046875,-41.9921875,0.0
111.6484375,-31.73828125,-51.26953125,-0.9765625,-1000.0,-60.546875,0.0
111.65234375,-39.55078125,-42.96875,-68.359375,-1000.0,-21.97265625,0.0
111.65625,-24.4140625,-41.9921875,18.06640625,-980.95703125,25.87890625,0.0
111.66015625,-2.9296875,-37.59765625,260.7421875,-1000.0,102.5390625,0.0
111.6640625,-16.11328125,-43.45703125,720.703125,-733.88671875,126.953125,0.0
111.66796875,-45.8984375,-48.828125,984.375,-218.75,18.5546875,0.0
111.671875,-40.52734375,-50.29296875,957.03125,94.7265625,-22.4609375,0.0
111.67578125,-18.5546875,-50.78125,964.84375,689.94140625,-39.0625,0.0
111.6796875,-10.25390625,-47.36328125,969.23828125,995.1171875,-29.296875,0.0
111.68359375,-14.16015625,-47.8515625,967.7734375,949.70703125,7.8125,0.0
111.6875,-46.38671875,-49.8046875,967.7734375,966.30859375,-14.16015625,0.0
111.69140625,-65.91796875,-56.15234375,968.26171875,968.75,3.90625,0.0
111.6953125,-30.2734375,-47.36328125,968.26171875,967.7734375,86.42578125,0.0
111.69921875,-2.9296875,-31.73828125,967.7734375,967.7734375,92.7734375,0.0
111.703125,-12.20703125,-46.875,967.7734375,967.7734375,26.3671875,0.0
111.70703125,-36.62109375,-49.8046875,968.26171875,967.7734375,9.27734375,0.0
111.7109375,-39.0625,-34.1796875,967.7734375,967.7734375,-1.953125,0.0
111.71484375,-19.04296875,-43.45703125,967.7734375,967.7734375,-61.03515625,0.0
111.71875,-14.16015625,-54.6875,967.7734375,968.26171875,-46.875,0.0
111.72265625,-17.08984375,-45.8984375,968.26171875,967.7734375,4.39453125,0.0
111.7265625,-24.4140625,-43.45703125,968.26171875,968.26171875,-33.69140625,0.0
111.73046875,-44.921875,-45.41015625,967.7734375,968.26171875,-55.17578125,0.0
111.734375,-44.921875,-50.78125,968.26171875,967.7734375,-6.34765625,0.0
111.73828125,-14.16015625,-45.41015625,967.7734375,967.7734375,1.46484375,0.0
111.7421875,-8.30078125,-42.48046875,968.26171875,968.26171875,-25.87890625,0.0
111.74609375,-32.71484375,-48.828125,967.7734375,967.7734375,-7.32421875,0.0
111.75,-50.29296875,-48.33984375,967.7734375,967.7734375,-1.953125,0.0
111.75390625,-35.64453125,-36.62109375,968.26171875,967.7734375,-20.5078125,0.0
111.7578125,-15.625,-38.57421875,967.7734375,967.7734375,-17.08984375,0.0
111.76171875,-5.859375,-45.41015625,968.26171875,967.7734375,-94.7265625,0.0
111.765625,-17.578125,-41.015625,968.26171875,967.7734375,-51.26953125,0.0
111.76953125,-47.8515625,-45.41015625,967.7734375,968.26171875,-5.859375,0.0
111.7734375,-46.875,-42.48046875,968.26171875,967.7734375,27.83203125,0.0
111.77734375,-29.296875,-43.45703125,967.7734375,967.7734375,-10.7421875,0.0
111.78125,-22.94921875,-45.8984375,967.7734375,967.7734375,-34.66796875,0.0
111.78515625,-27.34375,-39.0625,968.26171875,967.7734375,-34.66796875,0.0
111.7890625,-48.33984375,-45.8984375,968.26171875,967.7734375,-51.26953125,0.0
111.79296875,-45.8984375,-51.26953125,967.7734375,968.26171875,-66.40625,0.0
111.796875,-13.18359375,-43.9453125,967.7734375,967.7734375,-56.15234375,0.0
111.80078125,-3.41796875,-35.64453125,967.7734375,967.7734375,-42.96875,0.0
111.8046875,-15.625,-35.64453125,967.7734375,967.7734375,-55.17578125,0.0
111.80859375,-29.78515625,-37.109375,967.7734375,968.26171875,-24.4140625,0.0
111.8125,-40.0390625,-42.48046875,967.7734375,967.7734375,-29.78515625,0.0
111.81640625,-29.78515625,-41.50390625,967.7734375,967.7734375,-15.625,0.0
111.8203125,-8.7890625,-37.59765625,968.26171875,967.7734375,-16.6015625,0.0
111.82421875,-20.01953125,-41.015625,968.26171875,967.7734375,-73.73046875,0.0
111.828125,-53.7109375,-43.9453125,967.7734375,967.7734375,-78.125,0.0
111.83203125,-60.546875,-47.36328125,967.7734375,967.7734375,-0.48828125,0.0
111.8359375,-29.78515625,-46.38671875,967.7734375,967.7734375,18.5546875,0.0
111.83984375,-16.6015625,-44.921875,967.7734375,967.7734375,-8.7890625,0.0
111.84375,-25.87890625,-40.52734375,967.7734375,967.7734375,-3.41796875,0.0
111.84765625,-33.69140625,-37.59765625,967.7734375,967.7734375,-76.66015625,0.0
111.8515625,-36.1328125,-46.875,967.7734375,967.7734375,-90.8203125,0.0
111.85546875,-27.83203125,-53.7109375,967.7734375,968.26171875,-5.37109375,0.0
111.859375,-28.3203125,-49.8046875,967.7734375,967.7734375,27.83203125,0.0
111.86328125,-20.01953125,-40.52734375,967.7734375,967.7734375,7.32421875,0.0
111.8671875,-41.015625,-47.36328125,967.7734375,968.26171875,20.99609375,0.0
111.87109375,-61.03515625,-51.26953125,967.7734375,967.7734375,-43.45703125,0.0
111.875,-47.8515625,-42.96875,967.7734375,968.26171875,-117.1875,0.0
111.87890625,-24.4140625,-36.62109375,968.26171875,972.65625,-42.48046875,0.0
111.8828125,-25.87890625,-40.52734375,974.12109375,946.2890625,0.9765625,0.0
111.88671875,-52.734375,-53.7109375,911.1328125,955.56640625,11.23046875,0.0
111.890625,-62.5,-52.24609375,-938.96484375,966.30859375,31.73828125,0.0
111.89453125,-51.26953125,-44.921875,507.8125,-138.671875,-41.9921875,0.0
111.8984375,-17.08984375,-36.1328125,-804.19921875,-1000.0,-86.9140625,0.0
111.90234375,3.90625,-33.203125,-1000.0,-965.8203125,-18.06640625,0.0
111.90625,2.44140625,-41.50390625,-955.56640625,-988.76953125,-32.71484375,0.0
111.91015625,-26.85546875,-54.19921875,-1000.0,-1000.0,-82.51953125,0.0
111.9140625,-49.8046875,-60.546875,-1000.0,-1000.0,-65.4296875,0.0
111.91796875,-19.53125,-51.7578125,-1000.0,-1000.0,-14.6484375,0.0
111.921875,1.953125,-41.9921875,-1000.0,-1000.0,21.97265625,0.0
111.92578125,-18.06640625,-41.9921875,-1000.0,-1000.0,-16.11328125,0.0
111.9296875,-51.26953125,-53.22265625,-1000.0,-1000.0,-177.734375,0.0
111.93359375,-51.7578125,-51.7578125,-1000.0,-1000.0,-131.8359375,0.0
111.9375,-19.53125,-44.921875,-1000.0,-1000.0,-41.50390625,0.0
111.94140625,-12.20703125,-44.43359375,-1000.0,-1000.0,-13.18359375,0.0
111.9453125,-38.0859375,-40.0390625,-1000.0,-1000.0,-26.85546875,0.0
111.94921875,-52.24609375,-41.50390625,-1000.0,-1000.0,-60.546875,0.0
111.953125,-49.8046875,-54.6875,-1000.0,-1000.0,-82.03125,0.0
111.95703125,-30.2734375,-54.6875,-1000.0,-1000.0,-120.60546875,0.0
111.9609375,-16.6015625,-44.921875,-1000.0,-1000.0,-102.05078125,0.0
111.96484375,-22.4609375,-37.59765625,-1000.0,-1000.0,7.8125,0.0
111.96875,-48.828125,-41.015625,-1000.0,-1000.0,49.8046875,0.0
111.97265625,-69.82421875,-59.5703125,-1000.0,-1000.0,-101.5625,0.0
111.9765625,-47.36328125,-57.12890625,-1000.0,-1000.0,-72.75390625,0.0
111.98046875,-12.6953125,-42.96875,-1000.0,-1000.0,67.87109375,0.0
111.984375,-22.4609375,-46.875,-1000.0,-1000.0,69.82421875,0.0
111.98828125,-49.31640625,-43.45703125,-1000.0,-1000.0,-0.9765625,0.0
111.9921875,-51.7578125,-39.0625,-1000.0,-1000.0,-36.62109375,0.0
111.99609375,-36.1328125,-40.0390625,-1000.0,-1000.0,-27.34375,0.0
112.0,-10.25390625,-39.55078125,-1000.0,-1000.0,-37.59765625,0.0
112.00390625,-6.34765625,-41.9921875,-1000.0,-1000.0,-18.06640625,0.0
112.0078125,-17.578125,-33.69140625,-1000.0,-1000.0,23.4375,0.0
112.01171875,-35.15625,-29.78515625,-1000.0,-1000.0,-36.1328125,0.0
112.015625,-36.1328125,-35.64453125,-1000.0,-1000.0,-54.19921875,0.0
112.01953125,-12.20703125,-45.8984375,-1000.0,-1000.0,-68.84765625,0.0
112.0234375,-6.34765625,-38.57421875,-1000.0,-1000.0,-136.23046875,0.0
112.02734375,-33.69140625,-31.73828125,-1000.0,-1000.0,-110.83984375,0.0
112.03125,-52.734375,-44.921875,-1000.0,-1000.0,-53.7109375,0.0
112.03515625,-42.48046875,-39.55078125,-1000.0,-1000.0,-15.13671875,0.0
112.0390625,-18.06640625,-33.69140625,-1000.0,-1000.0,72.265625,0.0
112.04296875,-16.11328125,-30.76171875,-1000.0,-1000.0,77.63671875,0.0
112.046875,-43.45703125,-42.96875,-1000.0,-1000.0,-43.45703125,0.0
112.05078125,-59.08203125,-54.19921875,-1000.0,-1000.0,-54.6875,0.0
112.0546875,-46.875,-32.2265625,-1000.0,-1000.0,-40.52734375,0.0
112.05859375,-24.4140625,-32.71484375,-1000.0,-1000.0,-50.78125,0.0
112.0625,-24.90234375,-54.19921875,-1000.0,-1000.0,-41.9921875,0.0
112.06640625,-51.7578125,-60.546875,-1000.0,-1000.0,-44.43359375,0.0
112.0703125,-62.5,-55.6640625,-1000.0,-1000.0,-83.49609375,0.0
112.07421875,-47.36328125,-52.24609375,-1000.0,-1000.0,-103.02734375,0.0
112.078125,-15.13671875,-45.8984375,-1000.0,-1000.0,-72.265625,0.0
112.08203125,-11.71875,-40.0390625,-1000.0,-1000.0,-74.70703125,0.0
112.0859375,-51.7578125,-49.8046875,-1000.0,-1000.0,-71.2890625,0.0
112.08984375,-73.73046875,-52.734375,-1000.0,-1000.0,-79.1015625,0.0
112.09375,-63.96484375,-46.38671875,-1000.0,-1000.0,-61.03515625,0.0
112.09765625,-32.2265625,-44.43359375,-1000.0,-1000.0,-87.890625,0.0
112.1015625,-13.671875,-41.015625,-1000.0,-1000.0,-98.14453125,0.0
112.10546875,-24.90234375,-30.76171875,-1000.0,-1000.0,22.94921875,0.0
112.109375,-47.8515625,-41.9921875,-1000.0,-1000.0,3.41796875,0.0
112.11328125,-46.38671875,-49.31640625,-1000.0,-1000.0,-53.7109375,0.0
112.1171875,-14.6484375,-38.0859375,-1000.0,-1000.0,-79.58984375,0.0
112.12109375,7.8125,-28.3203125,-1000.0,-1000.0,-104.98046875,0.0
112.125,-0.9765625,-23.92578125,-1000.0,-1000.0,-106.93359375,0.0
112.12890625,-13.671875,-24.90234375,-1000.0,-1000.0,-116.69921875,0.0
112.1328125,-20.5078125,-27.34375,-1000.0,-1000.0,-116.69921875,0.0
112.13671875,-3.90625,-32.71484375,-1000.0,-1000.0,-85.44921875,0.0
112.140625,2.9296875,-35.64453125,-1000.0,-1000.0,-96.6796875,0.0
112.14453125,-27.34375,-38.57421875,-1000.0,-1000.0,-108.3984375,0.0
112.1484375,-43.9453125,-31.73828125,-1000.0,-1000.0,-67.3828125,0.0
112.15234375,-46.38671875,-34.66796875,-1000.0,-1000.0,-83.984375,0.0
112.15625,-37.109375,-49.8046875,-1000.0,-1000.0,-108.3984375,0.0
112.16015625,-11.71875,-34.66796875,-1000.0,-1000.0,-39.0625,0.0
112.1640625,-11.23046875,-24.4140625,-1000.0,-1000.0,-8.30078125,0.0
112.16796875,-40.52734375,-41.015625,-1000.0,-1000.0,40.0390625,0.0
112.171875,-48.828125,-43.9453125,-1000.0,-1000.0,29.78515625,0.0
112.17578125,-31.25,-38.0859375,-1000.0,-1000.0,-11.23046875,0.0
112.1796875,-6.34765625,-37.59765625,-958.984375,-956.0546875,22.94921875,0.0
112.18359375,2.9296875,-30.2734375,-1000.0,-1000.0,44.921875,0.0
112.1875,-39.55078125,-29.78515625,-788.0859375,-645.01953125,-10.7421875,0.0
112.19140625,-56.640625,-31.25,458.0078125,617.67578125,-18.06640625,0.0
112.1953125,-31.25,-25.87890625,-959.47265625,-968.75,63.4765625,0.0
112.19921875,-35.64453125,-45.41015625,922.36328125,920.8984375,20.5078125,0.0
112.203125,-33.203125,-54.19921875,968.75,973.6328125,1.46484375,0.0
112.20703125,-37.59765625,-39.0625,969.23828125,968.26171875,23.92578125,0.0
112.2109375,-50.29296875,-34.1796875,967.7734375,967.7734375,-20.01953125,0.0
112.21484375,-40.0390625,-40.0390625,967.7734375,967.7734375,-65.4296875,0.0
112.21875,-18.06640625,-47.36328125,968.26171875,967.7734375,-77.63671875,0.0
112.22265625,-9.765625,-40.0390625,968.26171875,967.7734375,-18.06640625,0.0
112.2265625,-33.69140625,-34.1796875,967.7734375,967.7734375,-49.8046875,0.0
112.23046875,-63.96484375,-46.875,967.7734375,967.7734375,-24.90234375,0.0
112.234375,-46.875,-51.26953125,967.7734375,968.26171875,40.0390625,0.0
112.23828125,-20.01953125,-43.9453125,967.7734375,967.7734375,41.9921875,0.0
112.2421875,-16.6015625,-33.203125,967.7734375,967.7734375,31.25,0.0
112.24609375,-33.203125,-33.203125,967.7734375,968.26171875,-36.62109375,0.0
112.25,-42.48046875,-39.55078125,967.7734375,967.7734375,31.73828125,0.0
112.25390625,-50.29296875,-45.41015625,967.7734375,967.7734375,79.1015625,0.0
112.2578125,-28.80859375,-50.78125,967.7734375,967.7734375,67.87109375,0.0
112.26171875,-1.953125,-49.8046875,968.26171875,967.7734375,47.36328125,0.0
112.265625,-28.80859375,-35.64453125,967.7734375,967.7734375,-51.26953125,0.0
112.26953125,-73.2421875,-36.62109375,967.7734375,967.7734375,-57.6171875,0.0
112.2734375,-56.640625,-39.55078125,967.7734375,968.26171875,-47.36328125,0.0
112.27734375,-15.13671875,-30.76171875,967.7734375,967.7734375,-84.47265625,0.0
112.28125,-4.39453125,-31.73828125,967.7734375,967.7734375,-78.61328125,0.0
112.28515625,-14.6484375,-34.1796875,968.26171875,968.26171875,-74.70703125,0.0
112.2890625,-23.4375,-29.78515625,967.7734375,968.26171875,-99.609375,0.0
112.29296875,-18.06640625,-21.97265625,967.7734375,967.7734375,-64.453125,0.0
112.296875,5.859375,-20.5078125,968.26171875,968.26171875,-14.6484375,0.0
112.30078125,21.484375,-12.20703125,968.26171875,968.26171875,38.57421875,0.0
112.3046875,-3.90625,-17.578125,967.7734375,967.7734375,0.0,0.0
112.30859375,-33.69140625,-27.34375,968.26171875,967.7734375,-76.66015625,0.0
112.3125,-33.69140625,-29.78515625,968.26171875,967.7734375,-27.83203125,0.0
112.31640625,-4.8828125,-24.4140625,967.7734375,967.7734375,0.48828125,0.0
112.3203125,15.13671875,-16.6015625,967.7734375,967.7734375,-18.06640625,0.0
112.32421875,-3.41796875,-17.578125,968.26171875,967.7734375,19.04296875,0.0
112.328125,-34.66796875,-26.3671875,967.7734375,968.26171875,8.7890625,0.0
112.33203125,-27.83203125,-30.2734375,967.7734375,967.7734375,-10.25390625,0.0
112.3359375,-3.90625,-20.99609375,968.26171875,967.7734375,-42.48046875,0.0
112.33984375,-9.27734375,-27.34375,967.7734375,968.26171875,-86.42578125,0.0
112.34375,-25.87890625,-39.55078125,967.7734375,967.7734375,-101.5625,0.0
112.34765625,-45.8984375,-36.1328125,968.26171875,967.7734375,-96.19140625,0.0
112.3515625,-48.828125,-31.73828125,967.7734375,967.7734375,-58.59375,0.0
112.35546875,-19.53125,-29.78515625,968.26171875,967.7734375,-15.625,0.0
112.359375,-3.90625,-26.3671875,967.7734375,967.7734375,20.01953125,0.0
112.36328125,-9.765625,-22.94921875,967.7734375,967.7734375,-4.39453125,0.0
112.3671875,-20.01953125,-27.34375,968.26171875,967.7734375,16.6015625,0.0
112.37109375,-42.48046875,-27.34375,967.7734375,967.7734375,115.234375,0.0
112.375,-37.109375,-30.76171875,967.7734375,967.7734375,121.58203125,0.0
112.37890625,-0.9765625,-33.203125,967.7734375,967.7734375,60.546875,0.0
112.3828125,-7.32421875,-24.4140625,967.7734375,967.7734375,-12.20703125,0.0
112.38671875,-37.59765625,-23.4375,967.7734375,968.26171875,-111.328125,0.0
112.390625,-50.29296875,-30.2734375,967.7734375,967.7734375,-134.765625,0.0
112.39453125,-28.3203125,-25.87890625,967.7734375,967.7734375,-109.375,0.0
112.3984375,-0.48828125,-19.53125,968.26171875,967.7734375,-59.08203125,0.0
112.40234375,-1.46484375,-20.99609375,967.7734375,967.7734375,56.15234375,0.0
112.40625,-27.34375,-29.296875,967.7734375,967.7734375,9.765625,0.0
112.41015625,-51.26953125,-28.3203125,968.26171875,967.7734375,-80.078125,0.0
112.4140625,-52.24609375,-23.4375,967.7734375,967.7734375,-8.7890625,0.0
112.41796875,-22.94921875,-19.53125,967.7734375,967.7734375,19.53125,0.0
112.421875,-10.25390625,-25.87890625,967.7734375,967.7734375,-48.828125,0.0
112.42578125,-41.015625,-38.57421875,967.7734375,967.7734375,-45.8984375,0.0
112.4296875,-55.17578125,-33.203125,968.26171875,967.7734375,-41.9921875,0.0
112.43359375,-31.25,-27.34375,967.7734375,967.7734375,-49.8046875,0.0
112.4375,-12.20703125,-31.25,968.26171875,967.7734375,-38.57421875,0.0
112.44140625,-22.4609375,-34.66796875,968.26171875,968.26171875,23.4375,0.0
112.4453125,-41.50390625,-25.390625,967.7734375,968.26171875,20.01953125,0.0
112.44921875,-57.6171875,-26.3671875,967.7734375,967.7734375,-63.4765625,0.0
112.453125,-52.24609375,-27.34375,967.7734375,967.7734375,-68.359375,0.0
112.45703125,-31.25,-27.83203125,967.7734375,967.7734375,34.66796875,0.0
112.4609375,-21.97265625,-31.73828125,967.7734375,967.7734375,8.7890625,0.0
112.46484375,-39.55078125,-28.80859375,967.7734375,967.7734375,-124.0234375,0.0
112.46875,-62.01171875,-29.296875,967.7734375,967.7734375,-80.078125,0.0
112.47265625,-62.98828125,-33.69140625,968.26171875,968.26171875,-21.97265625,0.0
112.4765625,-39.55078125,-27.34375,968.26171875,967.7734375,-15.625,0.0
112.48046875,-23.92578125,-25.87890625,967.7734375,967.7734375,-3.90625,0.0
112.484375,-44.43359375,-35.64453125,968.26171875,967.7734375,-47.8515625,0.0
112.48828125,-58.10546875,-30.2734375,968.26171875,967.7734375,-81.54296875,0.0
112.4921875,-54.19921875,-24.4140625,967.7734375,967.7734375,-50.29296875,0.0
112.49609375,-40.52734375,-27.34375,967.7734375,967.7734375,-75.1953125,0.0
112.5,-29.78515625,-22.94921875,967.7734375,967.28515625,-70.3125,0.0
112.50390625,-29.78515625,-16.6015625,967.7734375,972.65625,-101.07421875,0.0
112.5078125,-38.57421875,-30.76171875,967.7734375,942.3828125,-125.9765625,0.0
112.51171875,-43.9453125,-38.57421875,967.7734375,942.87109375,-66.40625,0.0
112.515625,-44.921875,-33.69140625,967.7734375,972.65625,-31.25,0.0
112.51953125,-31.25,-33.203125,968.26171875,966.796875,2.9296875,0.0
112.5234375,-17.08984375,-27.83203125,967.7734375,967.7734375,49.31640625,0.0
112.52734375,-38.0859375,-28.80859375,967.7734375,967.7734375,74.21875,0.0
112.53125,-55.6640625,-34.1796875,967.7734375,967.7734375,42.48046875,0.0
112.53515625,-39.0625,-29.78515625,967.7734375,967.7734375,57.6171875,0.0
112.5390625,-16.11328125,-27.83203125,967.7734375,968.26171875,76.171875,0.0
112.54296875,-3.41796875,-33.69140625,968.26171875,967.7734375,-39.0625,0.0
112.546875,-29.296875,-39.0625,967.7734375,968.26171875,-166.50390625,0.0
112.55078125,-57.6171875,-35.64453125,968.75,965.33203125,-116.2109375,0.0
112.5546875,-45.8984375,-30.2734375,962.40234375,965.33203125,-82.03125,0.0
112.55859375,-14.6484375,-26.3671875,977.05078125,956.0546875,-77.63671875,0.0
112.5625,-20.01953125,-24.90234375,926.26953125,789.0625,-34.1796875,0.0
112.56640625,-59.08203125,-32.71484375,809.08203125,636.23046875,5.859375,0.0
112.5703125,-76.66015625,-31.25,750.48828125,637.6953125,-52.24609375,0.0
112.57421875,-60.546875,-34.66796875,663.57421875,566.40625,24.4140625,0.0
112.578125,-28.80859375,-30.76171875,568.359375,423.33984375,146.484375,0.0
112.58203125,-25.390625,-28.3203125,593.26171875,412.59765625,90.33203125,0.0
112.5859375,-42.48046875,-31.73828125,694.3359375,581.54296875,76.171875,0.0
112.58984375,-50.78125,-27.34375,720.21484375,667.96875,41.50390625,0.0
112.59375,-55.6640625,-30.2734375,801.7578125,708.984375,-42.96875,0.0
112.59765625,-37.109375,-21.97265625,946.2890625,843.75,-110.3515625,0.0
112.6015625,-19.53125,-19.04296875,970.703125,893.5546875,-149.90234375,0.0
112.60546875,-41.9921875,-36.1328125,963.8671875,933.59375,-94.7265625,0.0
112.609375,-60.05859375,-44.921875,968.75,972.65625,-55.6640625,0.0
112.61328125,-48.828125,-46.875,968.26171875,966.30859375,-69.3359375,0.0
112.6171875,-26.85546875,-34.1796875,967.7734375,967.7734375,-64.453125,0.0
112.62109375,-17.08984375,-26.3671875,968.26171875,967.7734375,-96.6796875,0.0
112.625,-31.25,-34.66796875,968.26171875,967.7734375,-88.8671875,0.0
112.62890625,-53.7109375,-32.2265625,967.7734375,967.7734375,-53.7109375,0.0
112.6328125,-55.17578125,-35.64453125,967.7734375,967.7734375,-71.2890625,0.0
112.63671875,-40.52734375,-34.66796875,967.7734375,967.7734375,-80.56640625,0.0
112.640625,-21.97265625,-23.4375,967.7734375,967.7734375,-21.97265625,0.0
112.64453125,-22.94921875,-19.04296875,968.26171875,967.7734375,-10.7421875,0.0
112.6484375,-52.24609375,-27.34375,968.26171875,968.26171875,-77.63671875,0.0
112.65234375,-56.15234375,-36.1328125,968.26171875,968.26171875,-144.53125,0.0
112.65625,-21.484375,-26.85546875,968.26171875,968.26171875,-86.9140625,0.0
112.66015625,-13.671875,-31.25,968.26171875,967.7734375,2.9296875,0.0
112.6640625,-22.94921875,-44.921875,968.26171875,968.26171875,-11.71875,0.0
112.66796875,-38.57421875,-37.109375,968.26171875,967.7734375,-45.8984375,0.0
112.671875,-38.57421875,-28.3203125,967.7734375,967.7734375,-74.70703125,0.0
112.67578125,-30.76171875,-35.64453125,967.7734375,967.7734375,-89.35546875,0.0
112.6796875,-19.53125,-37.59765625,968.26171875,967.7734375,13.18359375,0.0
112.68359375,-10.7421875,-25.87890625,968.26171875,967.7734375,-28.3203125,0.0
112.6875,-33.203125,-27.34375,968.26171875,968.26171875,-83.984375,0.0
112.69140625,-48.33984375,-41.015625,967.7734375,967.7734375,-71.2890625,0.0
112.6953125,-35.64453125,-39.55078125,968.26171875,967.7734375,-38.57421875,0.0
112.69921875,-10.25390625,-30.76171875,967.28515625,967.28515625,-22.94921875,0.0
112.703125,-13.18359375,-34.1796875,970.21484375,970.21484375,-65.4296875,0.0
112.70703125,-39.55078125,-39.55078125,960.44921875,959.9609375,-50.29296875,0.0
112.7109375,-48.33984375,-32.71484375,957.51953125,958.49609375,-48.33984375,0.0
112.71484375,-26.3671875,-30.76171875,958.49609375,965.33203125,-59.5703125,0.0
112.71875,2.9296875,-34.1796875,728.515625,682.6171875,-64.94140625,0.0
112.72265625,-1.46484375,-29.78515625,555.17578125,481.4453125,-72.75390625,0.0
112.7265625,-23.92578125,-28.80859375,697.265625,715.8203125,-17.08984375,0.0
112.73046875,-41.015625,-35.15625,787.59765625,817.3828125,-46.38671875,0.0
112.734375,-35.15625,-34.66796875,718.75,718.26171875,-51.7578125,0.0
112.73828125,0.48828125,-20.99609375,677.24609375,673.33984375,51.26953125,0.0
112.7421875,17.08984375,-12.6953125,764.16015625,751.953125,31.25,0.0
112.74609375,-15.625,-27.34375,871.58203125,876.953125,-43.9453125,0.0
112.75,-53.7109375,-46.875,960.44921875,969.7265625,-91.796875,0.0
112.75390625,-48.33984375,-37.109375,875.0,938.96484375,-130.859375,0.0
112.7578125,-19.04296875,-18.5546875,699.21875,706.0546875,-137.20703125,0.0
112.76171875,-7.8125,-28.3203125,638.671875,550.29296875,-62.01171875,0.0
112.765625,-23.4375,-37.59765625,669.43359375,631.8359375,16.11328125,0.0
112.76953125,-59.08203125,-43.45703125,645.01953125,622.0703125,-18.06640625,0.0
112.7734375,-55.6640625,-44.921875,654.78515625,625.48828125,-50.78125,0.0
112.77734375,-19.04296875,-34.66796875,808.59375,794.921875,-13.671875,0.0
112.78125,-3.41796875,-29.296875,812.01171875,836.42578125,-60.546875,0.0
112.78515625,-25.87890625,-30.76171875,792.48046875,778.80859375,-119.62890625,0.0
112.7890625,-62.5,-32.2265625,843.26171875,791.50390625,-98.14453125,0.0
112.79296875,-52.734375,-29.296875,682.12890625,696.77734375,-11.23046875,0.0
112.796875,-28.80859375,-34.66796875,556.15234375,526.85546875,88.37890625,0.0
112.80078125,-20.99609375,-28.80859375,263.18359375,155.2734375,80.078125,0.0
112.8046875,-29.296875,-25.390625,-334.47265625,-456.0546875,47.8515625,0.0
112.80859375,-46.38671875,-30.76171875,-732.91015625,-863.76953125,37.59765625,0.0
112.8125,-58.10546875,-44.43359375,-954.58984375,-993.65234375,107.421875,0.0
112.81640625,-41.015625,-47.36328125,-974.609375,-990.234375,103.02734375,0.0
112.8203125,-22.4609375,-40.52734375,-918.45703125,-978.515625,-35.64453125,0.0
112.82421875,-36.1328125,-32.2265625,-985.3515625,-998.046875,-47.8515625,0.0
112.828125,-61.03515625,-26.3671875,-1000.0,-1000.0,-11.23046875,0.0
112.83203125,-65.4296875,-29.78515625,-991.69921875,-999.51171875,-34.66796875,0.0
112.8359375,-51.26953125,-40.0390625,-998.046875,-1000.0,51.26953125,0.0
112.83984375,-34.66796875,-40.52734375,-1000.0,-1000.0,85.44921875,0.0
112.84375,-20.99609375,-26.3671875,-1000.0,-1000.0,-9.765625,0.0
112.84765625,-42.96875,-28.80859375,-974.609375,-1000.0,-56.640625,0.0
112.8515625,-56.15234375,-34.66796875,-958.984375,-1000.0,-55.6640625,0.0
112.85546875,-21.97265625,-28.80859375,-958.0078125,-1000.0,-14.6484375,0.0
112.859375,-5.37109375,-42.48046875,-981.93359375,-1000.0,-13.18359375,0.0
112.86328125,-26.85546875,-44.43359375,-1000.0,-1000.0,-89.35546875,0.0
112.8671875,-52.24609375,-30.76171875,-998.046875,-1000.0,-98.6328125,0.0
112.87109375,-65.91796875,-24.4140625,-1000.0,-1000.0,-86.42578125,0.0
112.875,-43.45703125,-25.390625,-1000.0,-1000.0,-81.54296875,0.0
112.87890625,-21.484375,-34.1796875,-1000.0,-1000.0,-100.09765625,0.0
112.8828125,-13.671875,-32.2265625,-996.58203125,-1000.0,-89.84375,0.0
112.88671875,-26.85546875,-31.73828125,-999.0234375,-992.1875,-41.50390625,0.0
112.890625,-48.33984375,-39.0625,-985.83984375,-1000.0,14.6484375,0.0
112.89453125,-35.64453125,-41.9921875,-789.55078125,-927.24609375,81.0546875,0.0
112.8984375,-11.23046875,-37.109375,-509.765625,-669.43359375,-7.8125,0.0
112.90234375,-22.4609375,-31.73828125,-243.1640625,-397.94921875,-140.625,0.0
112.90625,-47.36328125,-43.45703125,21.484375,-202.63671875,-133.30078125,0.0
112.91015625,-40.52734375,-45.8984375,253.90625,-20.01953125,-230.95703125,0.0
112.9140625,-13.18359375,-38.0859375,404.296875,107.421875,-336.9140625,0.0
112.91796875,9.27734375,-32.71484375,485.83984375,181.640625,-245.1171875,0.0
112.921875,5.37109375,-33.203125,541.9921875,156.25,-184.5703125,0.0
112.92578125,-17.578125,-34.66796875,602.5390625,123.53515625,-167.96875,0.0
112.9296875,-35.15625,-38.57421875,772.4609375,281.25,-214.35546875,0.0
112.93359375,-30.76171875,-37.109375,805.17578125,237.3046875,-272.94921875,0.0
112.9375,-8.30078125,-35.64453125,729.98046875,80.078125,-198.73046875,0.0
112.94140625,3.41796875,-31.73828125,815.91796875,67.3828125,-165.0390625,0.0
112.9453125,-2.9296875,-33.69140625,893.5546875,104.4921875,-153.3203125,0.0
112.94921875,-27.34375,-46.38671875,757.32421875,-51.7578125,-94.7265625,0.0
112.953125,-34.66796875,-49.8046875,867.1875,-8.30078125,-68.359375,0.0
112.95703125,-6.34765625,-46.38671875,978.515625,49.8046875,-50.29296875,0.0
112.9609375,7.8125,-34.66796875,958.49609375,195.3125,-68.359375,0.0
112.96484375,-12.6953125,-34.66796875,968.75,193.84765625,-108.88671875,0.0
112.96875,-36.1328125,-43.9453125,967.7734375,-7.8125,-51.26953125,0.0
112.97265625,-20.01953125,-32.2265625,968.26171875,49.31640625,42.96875,0.0
112.9765625,5.859375,-21.97265625,968.26171875,29.78515625,47.36328125,0.0
112.98046875,-11.71875,-36.62109375,968.26171875,5.859375,84.9609375,0.0
112.984375,-25.390625,-43.9453125,961.9140625,-6.34765625,96.19140625,0.0
112.98828125,-44.921875,-39.55078125,979.98046875,-138.671875,-2.9296875,0.0
112.9921875,-53.7109375,-43.45703125,919.921875,-210.9375,23.92578125,0.0
112.99609375,-41.015625,-59.5703125,790.0390625,-193.359375,79.58984375,0.0
113.0,-19.04296875,-48.828125,891.11328125,-66.40625,52.24609375,0.0
