timestamp,TP9,AF7,AF8,TP10,AUX,Marker,
73.00390625,-12.20703125,-27.34375,-37.109375,-31.73828125,-89.84375,0.0
73.0078125,-5.859375,-25.87890625,-33.203125,-25.390625,-75.68359375,0.0
73.01171875,-33.203125,-35.15625,-33.69140625,-41.9921875,-108.3984375,0.0
73.015625,-39.0625,-41.50390625,-40.0390625,-56.15234375,-114.74609375,0.0
73.01953125,-3.90625,-33.203125,-41.50390625,-50.29296875,-14.16015625,0.0
73.0234375,23.92578125,-26.3671875,-36.1328125,-28.80859375,-8.30078125,0.0
73.02734375,16.11328125,-29.78515625,-27.34375,-20.5078125,-47.36328125,0.0
73.03125,-20.99609375,-37.109375,-28.80859375,-36.1328125,-20.99609375,0.0
73.03515625,-32.71484375,-39.0625,-35.15625,-52.24609375,-29.78515625,0.0
73.0390625,0.48828125,-38.0859375,-29.78515625,-37.59765625,20.01953125,0.0
73.04296875,27.34375,-33.203125,-25.390625,-10.25390625,20.5078125,0.0
73.046875,15.625,-33.69140625,-26.85546875,-10.25390625,-32.2265625,0.0
73.05078125,-11.23046875,-31.25,-29.296875,-31.25,-81.0546875,0.0
73.0546875,-5.37109375,-22.4609375,-34.66796875,-54.19921875,-99.12109375,0.0
73.05859375,17.08984375,-21.97265625,-35.64453125,-48.828125,-85.9375,0.0
73.0625,25.390625,-28.80859375,-33.203125,-29.78515625,-74.70703125,0.0
73.06640625,34.1796875,-26.3671875,-31.73828125,-26.3671875,-4.8828125,0.0
73.0703125,12.6953125,-26.85546875,-33.203125,-43.9453125,21.484375,0.0
73.07421875,-11.71875,-33.203125,-37.59765625,-59.5703125,-35.15625,0.0
73.078125,10.7421875,-33.69140625,-40.52734375,-53.7109375,-42.96875,0.0
73.08203125,32.71484375,-33.203125,-33.203125,-39.0625,-42.96875,0.0
73.0859375,26.85546875,-29.78515625,-23.92578125,-27.83203125,-62.5,0.0
73.08984375,0.48828125,-32.71484375,-27.34375,-34.1796875,-63.4765625,0.0
73.09375,-15.625,-36.62109375,-35.15625,-49.8046875,-69.82421875,0.0
73.09765625,8.30078125,-31.25,-31.73828125,-50.78125,-63.96484375,0.0
73.1015625,39.0625,-27.34375,-29.296875,-28.80859375,-82.03125,0.0
73.10546875,43.45703125,-28.80859375,-35.15625,-23.92578125,-69.3359375,0.0
73.109375,15.13671875,-35.15625,-40.0390625,-36.1328125,-84.9609375,0.0
73.11328125,-14.6484375,-40.0390625,-41.9921875,-38.0859375,-83.984375,0.0
73.1171875,-4.8828125,-44.921875,-34.1796875,-46.875,-74.70703125,0.0
73.12109375,27.34375,-47.36328125,-21.484375,-41.50390625,-6.34765625,0.0
73.125,45.41015625,-37.109375,-20.01953125,-10.25390625,58.10546875,0.0
73.12890625,27.83203125,-30.2734375,-20.99609375,-3.90625,9.765625,0.0
73.1328125,-0.48828125,-34.66796875,-27.34375,-32.71484375,-102.5390625,0.0
73.13671875,3.90625,-31.25,-33.69140625,-39.0625,-128.90625,0.0
73.140625,32.2265625,-28.3203125,-30.76171875,-26.3671875,-55.17578125,0.0
73.14453125,39.55078125,-28.80859375,-26.85546875,-20.01953125,16.6015625,0.0
73.1484375,26.3671875,-23.92578125,-23.4375,-26.3671875,-4.39453125,0.0
73.15234375,1.46484375,-27.83203125,-25.390625,-49.8046875,-50.78125,0.0
73.15625,2.9296875,-35.15625,-33.203125,-62.5,13.18359375,0.0
73.16015625,34.1796875,-32.71484375,-31.25,-45.8984375,-6.8359375,0.0
73.1640625,51.7578125,-28.3203125,-22.4609375,-18.06640625,-118.65234375,0.0
73.16796875,34.66796875,-28.80859375,-22.94921875,-11.71875,-115.234375,0.0
73.171875,1.46484375,-31.73828125,-29.296875,-30.76171875,-114.74609375,0.0
73.17578125,-18.5546875,-29.296875,-28.3203125,-46.38671875,-96.19140625,0.0
73.1796875,-0.9765625,-27.83203125,-23.92578125,-35.15625,-34.1796875,0.0
73.18359375,23.4375,-23.4375,-23.4375,-18.06640625,-6.8359375,0.0
73.1875,15.625,-25.87890625,-26.3671875,-15.625,-20.99609375,0.0
73.19140625,-0.48828125,-29.78515625,-29.78515625,-35.64453125,-0.9765625,0.0
73.1953125,-13.671875,-27.83203125,-32.71484375,-53.7109375,47.36328125,0.0
73.19921875,2.9296875,-29.296875,-29.296875,-41.9921875,89.84375,0.0
73.203125,23.92578125,-34.1796875,-24.4140625,-20.01953125,55.6640625,0.0
73.20703125,22.94921875,-38.57421875,-29.78515625,-19.04296875,-4.39453125,0.0
73.2109375,0.9765625,-40.0390625,-36.1328125,-39.55078125,1.953125,0.0
73.21484375,-13.18359375,-35.64453125,-36.62109375,-56.640625,-0.9765625,0.0
73.21875,16.11328125,-35.64453125,-31.25,-43.45703125,12.20703125,0.0
73.22265625,55.6640625,-27.83203125,-23.92578125,-19.04296875,-12.6953125,0.0
73.2265625,58.10546875,-18.06640625,-20.99609375,-7.32421875,-50.29296875,0.0
73.23046875,30.2734375,-25.390625,-18.06640625,-14.16015625,19.53125,0.0
73.234375,18.5546875,-29.296875,-23.92578125,-36.1328125,42.96875,0.0
73.23828125,25.390625,-26.85546875,-30.2734375,-41.015625,66.89453125,0.0
73.2421875,64.453125,-16.6015625,-19.53125,-16.11328125,107.91015625,0.0
73.24609375,85.44921875,-6.8359375,-16.6015625,-1.46484375,116.69921875,0.0
73.25,46.875,-22.4609375,-25.87890625,-21.484375,95.21484375,0.0
73.25390625,20.5078125,-38.0859375,-32.2265625,-48.33984375,44.921875,0.0
73.2578125,33.69140625,-34.66796875,-29.78515625,-50.78125,35.64453125,0.0
73.26171875,81.54296875,-26.85546875,-27.34375,-31.25,85.44921875,0.0
73.265625,110.83984375,-28.3203125,-28.80859375,-14.6484375,14.6484375,0.0
73.26953125,92.28515625,-24.4140625,-26.3671875,-29.296875,-17.08984375,0.0
73.2734375,69.82421875,-28.3203125,-30.76171875,-53.22265625,-13.671875,0.0
73.27734375,94.7265625,-29.296875,-33.203125,-57.12890625,-7.8125,0.0
73.28125,140.625,-21.484375,-24.90234375,-36.1328125,-2.9296875,0.0
73.28515625,160.15625,-17.578125,-20.01953125,-21.97265625,13.18359375,0.0
73.2890625,132.8125,-16.11328125,-23.92578125,-25.390625,104.00390625,0.0
73.29296875,94.7265625,-20.99609375,-27.83203125,-37.59765625,83.0078125,0.0
73.296875,96.19140625,-32.2265625,-22.4609375,-46.875,40.0390625,0.0
73.30078125,111.81640625,-37.59765625,-20.99609375,-37.59765625,88.8671875,0.0
73.3046875,129.8828125,-24.90234375,-17.578125,-16.11328125,78.125,0.0
73.30859375,124.0234375,-15.625,-19.53125,-20.5078125,55.17578125,0.0
73.3125,94.7265625,-20.01953125,-31.25,-48.33984375,6.34765625,0.0
73.31640625,98.6328125,-20.99609375,-34.66796875,-58.59375,-14.6484375,0.0
73.3203125,121.09375,-18.06640625,-25.390625,-39.55078125,54.19921875,0.0
73.32421875,107.91015625,-21.97265625,-14.16015625,-15.13671875,-2.44140625,0.0
73.328125,70.80078125,-32.71484375,-15.625,-14.6484375,-11.23046875,0.0
73.33203125,42.48046875,-33.203125,-23.4375,-36.62109375,105.95703125,0.0
73.3359375,43.45703125,-32.71484375,-25.390625,-46.875,122.0703125,0.0
73.33984375,60.05859375,-30.2734375,-24.4140625,-35.64453125,46.38671875,0.0
73.34375,66.89453125,-31.73828125,-25.390625,-19.53125,49.8046875,0.0
73.34765625,43.45703125,-37.109375,-25.390625,-19.04296875,42.96875,0.0
73.3515625,8.7890625,-31.25,-26.3671875,-36.62109375,41.50390625,0.0
73.35546875,-6.8359375,-37.59765625,-30.2734375,-54.6875,67.3828125,0.0
73.359375,2.9296875,-35.64453125,-36.62109375,-49.8046875,145.01953125,0.0
73.36328125,10.7421875,-25.87890625,-35.15625,-28.80859375,62.98828125,0.0
73.3671875,-17.08984375,-35.15625,-35.64453125,-22.94921875,30.76171875,0.0
73.37109375,-51.26953125,-43.45703125,-37.109375,-39.0625,74.21875,0.0
73.375,-70.80078125,-42.48046875,-42.48046875,-59.5703125,66.40625,0.0
73.37890625,-50.78125,-33.203125,-41.9921875,-52.24609375,64.453125,0.0
73.3828125,-16.11328125,-31.73828125,-32.2265625,-26.85546875,67.3828125,0.0
73.38671875,-38.57421875,-38.0859375,-30.2734375,-20.99609375,40.52734375,0.0
73.390625,-92.28515625,-46.875,-30.2734375,-36.62109375,7.8125,0.0
73.39453125,-116.69921875,-53.22265625,-40.52734375,-57.6171875,-53.22265625,0.0
73.3984375,-97.65625,-45.8984375,-46.875,-61.5234375,-57.12890625,0.0
73.40234375,-78.125,-41.015625,-37.109375,-32.2265625,-15.13671875,0.0
73.40625,-77.63671875,-40.0390625,-37.109375,-20.99609375,-64.453125,0.0
73.41015625,-100.5859375,-40.0390625,-43.45703125,-38.57421875,-18.5546875,0.0
73.4140625,-125.9765625,-40.52734375,-45.8984375,-50.29296875,87.890625,0.0
73.41796875,-125.9765625,-36.62109375,-49.8046875,-46.875,95.21484375,0.0
73.421875,-108.88671875,-39.0625,-42.48046875,-24.4140625,28.3203125,0.0
73.42578125,-94.7265625,-40.52734375,-33.69140625,-8.7890625,-23.4375,0.0
73.4296875,-100.5859375,-34.1796875,-34.1796875,-18.5546875,-84.47265625,0.0
73.43359375,-129.39453125,-36.1328125,-42.96875,-45.8984375,-119.140625,0.0
73.4375,-128.90625,-43.45703125,-46.875,-59.08203125,-128.90625,0.0
73.44140625,-93.75,-36.1328125,-39.0625,-37.109375,-79.58984375,0.0
73.4453125,-83.984375,-31.25,-36.62109375,-21.97265625,-65.91796875,0.0
73.44921875,-112.79296875,-41.015625,-34.1796875,-33.69140625,-104.00390625,0.0
73.453125,-126.46484375,-40.0390625,-41.50390625,-54.19921875,-71.77734375,0.0
73.45703125,-103.02734375,-33.203125,-42.48046875,-58.59375,-42.48046875,0.0
73.4609375,-74.70703125,-30.76171875,-35.15625,-40.52734375,-26.3671875,0.0
73.46484375,-61.03515625,-31.73828125,-35.64453125,-21.484375,-84.9609375,0.0
73.46875,-81.0546875,-33.69140625,-40.52734375,-20.99609375,-131.34765625,0.0
73.47265625,-104.00390625,-31.25,-43.45703125,-43.45703125,-221.19140625,0.0
73.4765625,-99.12109375,-28.80859375,-37.109375,-53.22265625,-343.75,0.0
73.48046875,-57.6171875,-29.78515625,-28.3203125,-38.57421875,-230.95703125,0.0
73.484375,-44.921875,-35.64453125,-31.73828125,-20.01953125,-76.66015625,0.0
73.48828125,-60.546875,-34.66796875,-33.69140625,-20.99609375,-59.08203125,0.0
73.4921875,-78.61328125,-32.71484375,-26.3671875,-42.48046875,-101.07421875,0.0
73.49609375,-72.265625,-35.64453125,-30.2734375,-61.03515625,-62.5,0.0
73.5,-32.2265625,-29.78515625,-30.2734375,-43.9453125,-114.2578125,0.0
73.50390625,3.41796875,-23.4375,-25.390625,-24.90234375,-123.046875,0.0
73.5078125,-11.23046875,-28.3203125,-31.73828125,-31.25,-34.66796875,0.0
73.51171875,-40.0390625,-27.83203125,-37.109375,-47.36328125,-47.8515625,0.0
73.515625,-28.3203125,-25.87890625,-44.43359375,-64.453125,15.13671875,0.0
73.51953125,9.765625,-24.4140625,-41.015625,-53.7109375,44.43359375,0.0
73.5234375,31.25,-16.6015625,-30.76171875,-27.34375,-59.5703125,0.0
73.52734375,26.85546875,-11.71875,-26.3671875,-25.390625,-45.8984375,0.0
73.53125,-6.34765625,-20.5078125,-26.3671875,-39.55078125,-12.6953125,0.0
73.53515625,-20.99609375,-35.15625,-26.3671875,-53.22265625,-9.765625,0.0
73.5390625,14.16015625,-34.1796875,-23.92578125,-47.36328125,47.8515625,0.0
73.54296875,42.96875,-23.4375,-23.92578125,-24.4140625,77.1484375,0.0
73.546875,27.34375,-22.94921875,-16.6015625,-4.8828125,84.47265625,0.0
73.55078125,-0.48828125,-26.3671875,-19.04296875,-15.13671875,86.9140625,0.0
73.5546875,-11.71875,-28.80859375,-30.76171875,-43.9453125,40.0390625,0.0
73.55859375,15.13671875,-28.3203125,-29.78515625,-48.33984375,7.32421875,0.0
73.5625,58.59375,-24.90234375,-25.390625,-27.34375,2.9296875,0.0
73.56640625,54.19921875,-24.4140625,-22.4609375,-18.5546875,-15.13671875,0.0
73.5703125,11.23046875,-32.71484375,-26.3671875,-35.64453125,-5.37109375,0.0
73.57421875,-12.20703125,-33.69140625,-31.25,-53.7109375,-45.41015625,0.0
73.578125,-0.9765625,-30.76171875,-30.2734375,-52.734375,3.41796875,0.0
73.58203125,21.97265625,-31.25,-26.3671875,-33.69140625,71.2890625,0.0
73.5859375,21.484375,-29.78515625,-27.34375,-19.53125,109.375,0.0
73.58984375,-11.23046875,-32.2265625,-29.296875,-29.78515625,111.328125,0.0
73.59375,-43.45703125,-36.62109375,-33.203125,-51.26953125,-39.0625,0.0
73.59765625,-35.64453125,-32.71484375,-38.0859375,-53.22265625,-51.26953125,0.0
73.6015625,-7.8125,-36.62109375,-33.69140625,-38.57421875,3.90625,0.0
73.60546875,1.953125,-40.0390625,-24.4140625,-25.390625,3.90625,0.0
73.609375,-24.4140625,-39.55078125,-14.6484375,-25.390625,72.75390625,0.0
73.61328125,-71.77734375,-38.0859375,-21.484375,-42.96875,-36.1328125,0.0
73.6171875,-65.4296875,-34.66796875,-27.34375,-55.17578125,-97.65625,0.0
73.62109375,-14.6484375,-31.25,-25.390625,-41.50390625,-11.23046875,0.0
73.625,-5.37109375,-28.80859375,-24.4140625,-26.3671875,-48.33984375,0.0
73.62890625,-53.22265625,-39.0625,-23.92578125,-36.1328125,-61.5234375,0.0
73.6328125,-88.8671875,-46.875,-35.15625,-51.7578125,42.96875,0.0
73.63671875,-71.2890625,-46.875,-40.0390625,-56.15234375,104.4921875,0.0
73.640625,-43.9453125,-40.0390625,-36.1328125,-41.9921875,36.62109375,0.0
73.64453125,-29.296875,-35.64453125,-33.69140625,-18.5546875,-3.90625,0.0
73.6484375,-43.9453125,-42.96875,-30.76171875,-21.97265625,16.6015625,0.0
73.65234375,-75.68359375,-47.8515625,-30.2734375,-53.22265625,-31.25,0.0
73.65625,-64.453125,-43.45703125,-36.62109375,-63.4765625,-3.41796875,0.0
73.66015625,-41.9921875,-42.48046875,-37.109375,-50.78125,19.53125,0.0
73.6640625,-33.203125,-36.62109375,-29.296875,-26.85546875,-25.87890625,0.0
73.66796875,-41.015625,-30.2734375,-29.78515625,-17.578125,-84.47265625,0.0
73.671875,-68.359375,-34.66796875,-37.109375,-44.43359375,-67.3828125,0.0
73.67578125,-83.984375,-54.19921875,-44.43359375,-55.6640625,-76.171875,0.0
73.6796875,-58.59375,-51.26953125,-41.9921875,-41.50390625,-104.00390625,0.0
73.68359375,-23.92578125,-36.1328125,-31.73828125,-20.5078125,-90.33203125,0.0
73.6875,-21.97265625,-34.66796875,-28.3203125,-18.5546875,-29.78515625,0.0
73.69140625,-58.10546875,-38.0859375,-34.66796875,-41.50390625,1.953125,0.0
73.6953125,-80.56640625,-42.48046875,-43.9453125,-57.12890625,-43.9453125,0.0
73.69921875,-38.0859375,-37.109375,-39.55078125,-49.31640625,-21.484375,0.0
73.703125,-3.90625,-33.203125,-28.3203125,-27.83203125,14.6484375,0.0
73.70703125,-28.3203125,-38.0859375,-31.73828125,-36.62109375,12.20703125,0.0
73.7109375,-61.03515625,-38.57421875,-36.62109375,-57.12890625,17.578125,0.0
73.71484375,-67.87109375,-38.57421875,-33.203125,-70.3125,1.953125,0.0
73.71875,-51.26953125,-43.9453125,-35.64453125,-68.84765625,-31.25,0.0
73.72265625,-25.87890625,-40.52734375,-31.25,-48.828125,-91.796875,0.0
73.7265625,-26.3671875,-40.0390625,-22.4609375,-40.52734375,-81.54296875,0.0
73.73046875,-57.12890625,-44.921875,-28.3203125,-46.38671875,-34.66796875,0.0
73.734375,-75.68359375,-47.36328125,-40.52734375,-62.5,-46.38671875,0.0
73.73828125,-65.4296875,-39.55078125,-46.875,-62.5,-75.1953125,0.0
73.7421875,-31.25,-27.83203125,-39.55078125,-40.52734375,-80.56640625,0.0
73.74609375,-27.34375,-21.97265625,-30.76171875,-26.3671875,-39.55078125,0.0
73.75,-66.89453125,-32.71484375,-38.57421875,-43.9453125,18.06640625,0.0
73.75390625,-93.75,-41.50390625,-44.921875,-62.5,67.87109375,0.0
73.7578125,-65.91796875,-36.62109375,-38.0859375,-40.0390625,22.94921875,0.0
73.76171875,-29.78515625,-31.73828125,-29.296875,-14.16015625,-17.578125,0.0
73.765625,-43.45703125,-41.50390625,-24.4140625,-15.625,-37.59765625,0.0
73.76953125,-64.94140625,-44.43359375,-27.34375,-47.36328125,-64.453125,0.0
73.7734375,-69.82421875,-39.55078125,-31.73828125,-70.80078125,-0.9765625,0.0
73.77734375,-59.08203125,-35.64453125,-32.2265625,-75.1953125,-37.109375,0.0
73.78125,-45.41015625,-38.57421875,-33.69140625,-68.84765625,-108.3984375,0.0
73.78515625,-41.9921875,-35.15625,-29.296875,-54.6875,-71.2890625,0.0
73.7890625,-46.875,-26.85546875,-31.25,-60.05859375,61.5234375,0.0
73.79296875,-65.91796875,-38.57421875,-36.62109375,-75.68359375,52.24609375,0.0
73.796875,-75.1953125,-48.33984375,-38.0859375,-77.1484375,-41.50390625,0.0
73.80078125,-52.24609375,-40.52734375,-30.76171875,-48.828125,-3.90625,0.0
73.8046875,-23.92578125,-26.3671875,-22.94921875,-35.15625,3.41796875,0.0
73.80859375,-50.29296875,-39.0625,-28.80859375,-48.828125,-44.921875,0.0
73.8125,-87.890625,-55.6640625,-38.0859375,-62.5,-23.4375,0.0
73.81640625,-78.125,-41.9921875,-37.109375,-55.17578125,75.68359375,0.0
73.8203125,-41.50390625,-32.71484375,-29.296875,-35.64453125,77.63671875,0.0
73.82421875,-20.01953125,-42.96875,-24.90234375,-28.80859375,57.6171875,0.0
73.828125,-54.19921875,-56.640625,-23.92578125,-27.83203125,7.32421875,0.0
73.83203125,-90.33203125,-55.17578125,-24.90234375,-33.69140625,-70.80078125,0.0
73.8359375,-85.44921875,-48.828125,-30.76171875,-42.96875,-72.265625,0.0
73.83984375,-60.05859375,-44.921875,-31.73828125,-33.69140625,-42.96875,0.0
73.84375,-41.50390625,-35.64453125,-30.2734375,-24.4140625,-28.3203125,0.0
73.84765625,-58.59375,-40.0390625,-30.2734375,-29.296875,-14.16015625,0.0
73.8515625,-94.7265625,-67.3828125,-27.34375,-32.71484375,-45.8984375,0.0
73.85546875,-91.30859375,-67.87109375,-23.4375,-39.55078125,-81.54296875,0.0
73.859375,-57.12890625,-52.734375,-25.87890625,-39.0625,-8.7890625,0.0
73.86328125,-26.3671875,-34.66796875,-25.87890625,-20.5078125,31.73828125,0.0
73.8671875,-40.52734375,-39.55078125,-24.90234375,-19.53125,-91.796875,0.0
73.87109375,-77.1484375,-51.7578125,-33.203125,-40.0390625,-139.6484375,0.0
73.875,-83.984375,-31.73828125,-32.2265625,-52.24609375,-140.625,0.0
73.87890625,-57.6171875,-22.94921875,-28.3203125,-45.8984375,-37.59765625,0.0
73.8828125,-37.59765625,-34.66796875,-29.296875,-29.296875,56.15234375,0.0
73.88671875,-50.78125,-41.015625,-25.390625,-18.06640625,5.37109375,0.0
73.890625,-70.80078125,-38.57421875,-26.3671875,-27.34375,-26.3671875,0.0
73.89453125,-83.0078125,-23.92578125,-35.64453125,-53.7109375,-63.96484375,0.0
73.8984375,-97.65625,-38.57421875,-38.0859375,-53.7109375,-130.859375,0.0
73.90234375,-82.03125,-48.828125,-29.296875,-29.296875,-105.46875,0.0
73.90625,-58.59375,-15.625,-23.4375,-16.6015625,-65.91796875,0.0
73.91015625,-87.40234375,-0.48828125,-33.203125,-29.296875,-63.96484375,0.0
73.9140625,-109.375,16.11328125,-42.96875,-55.6640625,-57.12890625,0.0
73.91796875,-80.078125,28.3203125,-42.48046875,-61.5234375,-114.74609375,0.0
73.921875,-43.9453125,21.484375,-36.1328125,-38.57421875,-44.921875,0.0
73.92578125,-55.6640625,38.57421875,-33.69140625,-20.5078125,42.48046875,0.0
73.9296875,-85.44921875,58.10546875,-34.1796875,-20.5078125,-29.296875,0.0
73.93359375,-98.6328125,65.91796875,-41.015625,-37.59765625,-57.12890625,0.0
73.9375,-86.9140625,81.54296875,-40.0390625,-45.8984375,-16.11328125,0.0
73.94140625,-54.6875,94.7265625,-27.83203125,-24.4140625,-32.2265625,0.0
73.9453125,-41.9921875,107.91015625,-24.90234375,-5.37109375,-59.08203125,0.0
73.94921875,-64.453125,126.46484375,-31.25,-20.01953125,-10.7421875,0.0
73.953125,-87.890625,124.51171875,-30.76171875,-40.52734375,-70.3125,0.0
73.95703125,-75.68359375,119.62890625,-40.0390625,-50.29296875,-84.47265625,0.0
73.9609375,-43.45703125,127.9296875,-39.55078125,-38.57421875,18.5546875,0.0
73.96484375,-18.5546875,153.80859375,-31.73828125,-20.99609375,57.6171875,0.0
73.96875,-36.62109375,164.55078125,-37.109375,-32.71484375,-20.99609375,0.0
73.97265625,-72.265625,150.87890625,-38.0859375,-52.734375,-27.34375,0.0
73.9765625,-66.89453125,147.4609375,-38.0859375,-61.03515625,-74.70703125,0.0
73.98046875,-20.99609375,164.0625,-36.1328125,-49.8046875,-19.04296875,0.0
73.984375,-1.46484375,171.38671875,-32.2265625,-29.78515625,37.59765625,0.0
73.98828125,-27.34375,169.921875,-34.66796875,-31.73828125,-56.640625,0.0
73.9921875,-64.453125,159.1796875,-38.0859375,-44.43359375,-26.3671875,0.0
73.99609375,-67.3828125,155.76171875,-36.62109375,-47.36328125,-72.75390625,0.0
74.0,-26.3671875,157.71484375,-34.1796875,-35.64453125,-112.79296875,0.0
74.00390625,-17.08984375,151.3671875,-32.71484375,-21.484375,-45.41015625,0.0
74.0078125,-44.921875,148.4375,-31.25,-9.765625,-61.03515625,0.0
74.01171875,-67.3828125,160.15625,-28.3203125,-23.92578125,-61.03515625,0.0
74.015625,-70.80078125,155.2734375,-25.87890625,-44.921875,75.68359375,0.0
74.01953125,-45.8984375,156.73828125,-24.90234375,-32.2265625,83.49609375,0.0
74.0234375,-22.94921875,159.66796875,-22.94921875,-4.39453125,14.16015625,0.0
74.02734375,-30.76171875,145.01953125,-19.53125,5.859375,1.46484375,0.0
74.03125,-66.40625,141.11328125,-25.87890625,-23.92578125,24.90234375,0.0
74.03515625,-71.77734375,138.671875,-32.71484375,-57.12890625,21.97265625,0.0
74.0390625,-43.9453125,144.53125,-28.80859375,-48.828125,-91.796875,0.0
74.04296875,-14.6484375,156.73828125,-21.484375,-18.06640625,-135.25390625,0.0
74.046875,-24.4140625,144.53125,-21.484375,-13.18359375,-74.21875,0.0
74.05078125,-62.01171875,123.53515625,-28.80859375,-30.2734375,-18.5546875,0.0
74.0546875,-69.82421875,127.44140625,-33.203125,-46.875,-4.8828125,0.0
74.05859375,-41.50390625,133.30078125,-34.66796875,-48.828125,26.3671875,0.0
74.0625,-14.6484375,135.7421875,-28.80859375,-22.94921875,4.39453125,0.0
74.06640625,-20.99609375,143.06640625,-23.92578125,-9.765625,54.6875,0.0
74.0703125,-54.19921875,124.51171875,-35.64453125,-33.69140625,19.53125,0.0
74.07421875,-70.80078125,104.98046875,-40.0390625,-53.7109375,-70.80078125,0.0
74.078125,-39.55078125,117.1875,-35.15625,-46.38671875,-5.37109375,0.0
74.08203125,-11.71875,124.0234375,-34.1796875,-23.92578125,-11.71875,0.0
74.0859375,-29.296875,111.81640625,-22.94921875,-10.7421875,-85.44921875,0.0
74.08984375,-66.89453125,100.09765625,-15.625,-22.94921875,-24.4140625,0.0
74.09375,-82.51953125,93.75,-20.99609375,-44.43359375,-30.76171875,0.0
74.09765625,-60.546875,90.33203125,-23.92578125,-43.9453125,-87.890625,0.0
74.1015625,-23.92578125,91.30859375,-20.99609375,-26.85546875,-63.96484375,0.0
74.10546875,-23.4375,88.8671875,-19.04296875,-14.16015625,-59.08203125,0.0
74.109375,-52.734375,76.66015625,-21.484375,-17.08984375,-102.05078125,0.0
74.11328125,-22.4609375,75.1953125,-31.25,-45.41015625,-97.16796875,0.0
74.1171875,-29.78515625,77.1484375,-34.1796875,-57.6171875,51.26953125,0.0
74.12109375,-33.69140625,79.1015625,-27.83203125,-34.1796875,64.94140625,0.0
74.125,-37.109375,70.80078125,-30.2734375,-20.5078125,2.44140625,0.0
74.12890625,-26.85546875,58.59375,-31.73828125,-27.34375,59.08203125,0.0
74.1328125,-20.01953125,54.6875,-33.69140625,-41.015625,90.8203125,0.0
74.13671875,-33.69140625,62.5,-36.1328125,-54.19921875,27.34375,0.0
74.140625,-45.41015625,73.73046875,-35.64453125,-45.41015625,-41.015625,0.0
74.14453125,-45.8984375,56.640625,-28.80859375,-25.87890625,-26.85546875,0.0
74.1484375,-41.50390625,50.78125,-29.296875,-35.64453125,-6.34765625,0.0
74.15234375,-38.0859375,45.8984375,-37.109375,-54.6875,-25.87890625,0.0
74.15625,-49.31640625,32.71484375,-38.57421875,-57.6171875,-79.58984375,0.0
74.16015625,-54.6875,38.57421875,-36.1328125,-34.66796875,-101.07421875,0.0
74.1640625,-49.8046875,40.52734375,-32.2265625,-20.01953125,-104.4921875,0.0
74.16796875,-41.50390625,38.0859375,-28.80859375,-17.08984375,-80.56640625,0.0
74.171875,-33.203125,38.57421875,-31.73828125,-25.87890625,-95.21484375,0.0
74.17578125,-38.0859375,32.71484375,-35.15625,-45.41015625,-85.9375,0.0
74.1796875,-37.59765625,36.62109375,-32.2265625,-37.109375,-20.01953125,0.0
74.18359375,-34.1796875,50.29296875,-28.80859375,-14.16015625,-12.20703125,0.0
74.1875,-29.78515625,37.59765625,-34.66796875,-14.16015625,7.8125,0.0
74.19140625,-25.390625,23.4375,-38.57421875,-36.1328125,-41.50390625,0.0
74.1953125,-31.73828125,19.53125,-36.1328125,-48.33984375,-79.1015625,0.0
74.19921875,-44.43359375,21.484375,-34.66796875,-36.1328125,-27.34375,0.0
74.203125,-41.9921875,32.71484375,-29.78515625,-14.16015625,-67.87109375,0.0
74.20703125,-8.30078125,26.85546875,-22.94921875,-4.39453125,-59.08203125,0.0
74.2109375,-45.8984375,14.16015625,-23.92578125,-22.4609375,-110.83984375,0.0
74.21484375,-62.98828125,10.7421875,-27.34375,-41.015625,-135.25390625,0.0
74.21875,-40.0390625,7.32421875,-28.3203125,-37.109375,-55.17578125,0.0
74.22265625,-9.765625,9.27734375,-28.80859375,-14.6484375,-34.66796875,0.0
74.2265625,-15.625,12.6953125,-25.87890625,-12.20703125,-26.85546875,0.0
74.23046875,-49.8046875,3.41796875,-31.25,-28.80859375,12.20703125,0.0
74.234375,-71.2890625,-9.27734375,-38.57421875,-45.41015625,-80.56640625,0.0
74.23828125,-45.41015625,-3.90625,-37.109375,-44.43359375,-111.81640625,0.0
74.2421875,-6.34765625,6.8359375,-31.25,-21.484375,40.52734375,0.0
74.24609375,1.46484375,5.37109375,-25.390625,-17.08984375,61.5234375,0.0
74.25,-25.390625,1.46484375,-30.76171875,-35.15625,-29.78515625,0.0
74.25390625,-54.6875,-0.9765625,-37.59765625,-47.36328125,-81.54296875,0.0
74.2578125,-30.2734375,2.9296875,-38.0859375,-44.43359375,-72.265625,0.0
74.26171875,6.34765625,4.8828125,-29.296875,-28.80859375,-11.23046875,0.0
74.265625,0.0,-3.41796875,-23.4375,-12.6953125,-24.90234375,0.0
74.26953125,-22.94921875,0.9765625,-29.296875,-20.99609375,-24.4140625,0.0
74.2734375,-38.57421875,6.34765625,-35.64453125,-43.45703125,-64.94140625,0.0
74.27734375,-33.203125,4.39453125,-37.109375,-45.41015625,-111.328125,0.0
74.28125,-1.46484375,4.39453125,-33.203125,-23.4375,16.11328125,0.0
74.28515625,12.20703125,1.953125,-30.2734375,-17.08984375,52.24609375,0.0
74.2890625,-17.578125,-1.46484375,-28.3203125,-22.4609375,-31.73828125,0.0
74.29296875,-58.10546875,-16.11328125,-27.83203125,-32.2265625,-59.5703125,0.0
74.296875,-47.8515625,-20.99609375,-31.25,-45.8984375,-76.171875,0.0
74.30078125,-12.20703125,-14.6484375,-31.73828125,-30.2734375,-99.12109375,0.0
74.3046875,0.48828125,-15.625,-24.4140625,-5.859375,-48.33984375,0.0
74.30859375,-22.4609375,-18.5546875,-25.87890625,-11.23046875,-57.6171875,0.0
74.3125,-61.5234375,-30.2734375,-34.1796875,-43.9453125,-151.85546875,0.0
74.31640625,-59.5703125,-38.57421875,-37.59765625,-61.03515625,-115.72265625,0.0
74.3203125,-16.6015625,-26.85546875,-36.1328125,-41.50390625,-50.29296875,0.0
74.32421875,12.20703125,-22.94921875,-27.34375,-13.671875,-34.1796875,0.0
74.328125,-11.23046875,-30.2734375,-25.390625,-2.44140625,-26.85546875,0.0
74.33203125,-42.48046875,-26.85546875,-36.1328125,-33.69140625,-48.33984375,0.0
74.3359375,-24.4140625,-11.23046875,-41.50390625,-57.6171875,2.9296875,0.0
74.33984375,-0.48828125,-16.6015625,-33.203125,-36.62109375,100.09765625,0.0
74.34375,8.7890625,-28.80859375,-31.73828125,-13.18359375,81.54296875,0.0
74.34765625,-7.32421875,-26.85546875,-38.0859375,-6.8359375,-40.0390625,0.0
74.3515625,-39.0625,-27.34375,-38.57421875,-30.2734375,-68.359375,0.0
74.35546875,-56.640625,-39.55078125,-40.52734375,-54.6875,-13.671875,0.0
74.359375,-39.55078125,-41.9921875,-38.0859375,-42.96875,-47.36328125,0.0
74.36328125,-8.30078125,-33.69140625,-26.3671875,-18.5546875,-0.9765625,0.0
74.3671875,-9.27734375,-31.25,-21.484375,-13.671875,0.0,0.0
74.37109375,-42.96875,-37.109375,-27.34375,-28.80859375,-89.84375,0.0
74.375,-60.546875,-43.9453125,-37.109375,-52.24609375,-125.48828125,0.0
74.37890625,-40.0390625,-38.0859375,-34.66796875,-46.38671875,-89.35546875,0.0
74.3828125,-7.8125,-37.59765625,-25.390625,-22.4609375,-47.8515625,0.0
74.38671875,-5.37109375,-41.015625,-18.5546875,-4.8828125,-97.65625,0.0
74.390625,-42.48046875,-45.41015625,-16.6015625,-23.4375,-107.421875,0.0
74.39453125,-70.3125,-50.29296875,-23.92578125,-52.734375,-63.96484375,0.0
74.3984375,-42.48046875,-41.9921875,-22.4609375,-43.45703125,-19.53125,0.0
74.40234375,-9.27734375,-37.59765625,-19.53125,-25.87890625,-0.48828125,0.0
74.40625,-14.6484375,-41.9921875,-19.04296875,-12.6953125,11.23046875,0.0
74.41015625,-42.96875,-49.31640625,-22.4609375,-24.90234375,-27.34375,0.0
74.4140625,-56.640625,-47.8515625,-29.296875,-51.26953125,-52.734375,0.0
74.41796875,-41.50390625,-44.43359375,-21.484375,-48.33984375,-60.546875,0.0
74.421875,-14.6484375,-51.26953125,-13.671875,-31.73828125,14.6484375,0.0
74.42578125,-14.6484375,-50.78125,-17.578125,-19.53125,83.49609375,0.0
74.4296875,-41.015625,-50.78125,-24.90234375,-26.3671875,17.08984375,0.0
74.43359375,-71.2890625,-60.546875,-30.76171875,-44.921875,-87.890625,0.0
74.4375,-59.5703125,-58.10546875,-32.71484375,-49.31640625,-106.4453125,0.0
74.44140625,-10.25390625,-47.8515625,-26.3671875,-40.52734375,-21.484375,0.0
74.4453125,-4.39453125,-49.31640625,-19.53125,-21.484375,76.66015625,0.0
74.44921875,-27.83203125,-47.36328125,-19.04296875,-15.13671875,60.05859375,0.0
74.453125,-58.59375,-60.546875,-34.1796875,-37.59765625,41.015625,0.0
74.45703125,-67.3828125,-72.75390625,-46.875,-49.31640625,-20.99609375,0.0
74.4609375,-28.3203125,-53.22265625,-39.55078125,-42.96875,-150.390625,0.0
74.46484375,-16.11328125,-42.48046875,-20.01953125,-35.15625,-194.3359375,0.0
74.46875,-45.8984375,-61.5234375,-20.99609375,-33.69140625,-144.04296875,0.0
74.47265625,-60.05859375,-68.359375,-33.69140625,-52.734375,-40.0390625,0.0
74.4765625,-38.0859375,-50.29296875,-36.62109375,-63.4765625,3.90625,0.0
74.48046875,-20.5078125,-43.45703125,-31.25,-48.33984375,-23.4375,0.0
74.484375,-13.671875,-44.921875,-34.1796875,-39.0625,-51.7578125,0.0
74.48828125,-26.3671875,-54.19921875,-36.1328125,-37.59765625,-78.61328125,0.0
74.4921875,-41.50390625,-59.08203125,-31.25,-48.33984375,-73.73046875,0.0
74.49609375,-36.62109375,-59.08203125,-35.15625,-73.2421875,-29.78515625,0.0
74.5,-20.5078125,-57.12890625,-36.1328125,-59.5703125,-75.68359375,0.0
74.50390625,-9.27734375,-54.19921875,-28.3203125,-23.92578125,-125.48828125,0.0
74.5078125,-14.16015625,-48.33984375,-24.4140625,-17.578125,-99.12109375,0.0
74.51171875,-39.0625,-58.59375,-28.80859375,-34.66796875,-58.59375,0.0
74.515625,-61.5234375,-75.1953125,-34.66796875,-51.7578125,-9.27734375,0.0
74.51953125,-44.921875,-63.4765625,-38.0859375,-42.96875,21.97265625,0.0
74.5234375,-14.16015625,-59.08203125,-30.76171875,-11.71875,62.98828125,0.0
74.52734375,-18.06640625,-62.01171875,-24.90234375,-5.859375,77.1484375,0.0
74.53125,-34.1796875,-61.03515625,-35.15625,-35.15625,19.04296875,0.0
74.53515625,-49.31640625,-61.5234375,-47.36328125,-62.01171875,-36.1328125,0.0
74.5390625,-39.55078125,-59.08203125,-40.0390625,-53.22265625,-20.5078125,0.0
74.54296875,-15.625,-62.98828125,-24.4140625,-21.97265625,-41.9921875,0.0
74.546875,-27.34375,-72.265625,-27.34375,-15.13671875,-60.546875,0.0
74.55078125,-44.43359375,-70.80078125,-27.83203125,-24.4140625,-22.4609375,0.0
74.5546875,-48.33984375,-62.5,-22.94921875,-37.109375,-62.5,0.0
74.55859375,-51.26953125,-64.94140625,-27.83203125,-48.33984375,-67.87109375,0.0
74.5625,-49.8046875,-80.078125,-25.390625,-24.90234375,-59.5703125,0.0
74.56640625,-33.69140625,-73.2421875,-15.625,-3.41796875,-26.3671875,0.0
74.5703125,-37.109375,-62.01171875,-19.53125,-24.90234375,-37.59765625,0.0
74.57421875,-50.78125,-58.59375,-29.296875,-51.26953125,-57.12890625,0.0
74.578125,-44.43359375,-55.6640625,-33.69140625,-48.828125,14.16015625,0.0
74.58203125,-26.3671875,-57.12890625,-31.25,-27.83203125,124.51171875,0.0
74.5859375,-25.87890625,-54.6875,-31.25,-16.11328125,80.078125,0.0
74.58984375,-46.875,-52.24609375,-32.2265625,-24.90234375,14.6484375,0.0
74.59375,-79.58984375,-64.453125,-34.1796875,-38.57421875,-53.7109375,0.0
74.59765625,-74.70703125,-59.08203125,-36.1328125,-43.9453125,-18.5546875,0.0
74.6015625,-58.59375,-55.17578125,-34.66796875,-31.25,27.83203125,0.0
74.60546875,-64.453125,-74.70703125,-31.25,-9.765625,8.7890625,0.0
74.609375,-76.171875,-74.21875,-27.34375,-8.7890625,4.8828125,0.0
74.61328125,-93.75,-67.87109375,-31.73828125,-30.76171875,-12.6953125,0.0
74.6171875,-104.4921875,-71.2890625,-35.64453125,-46.875,-31.25,0.0
74.62109375,-99.609375,-78.61328125,-32.71484375,-34.1796875,-15.625,0.0
74.625,-88.8671875,-79.58984375,-24.4140625,-13.671875,-59.5703125,0.0
74.62890625,-94.7265625,-74.21875,-29.296875,-16.11328125,-7.8125,0.0
74.6328125,-113.76953125,-82.03125,-40.0390625,-35.15625,20.01953125,0.0
74.63671875,-119.62890625,-90.8203125,-37.109375,-49.31640625,41.015625,0.0
74.640625,-114.2578125,-84.9609375,-30.76171875,-42.48046875,10.7421875,0.0
74.64453125,-116.69921875,-85.44921875,-27.34375,-17.08984375,-107.91015625,0.0
74.6484375,-120.60546875,-90.33203125,-30.76171875,-12.20703125,-99.12109375,0.0
74.65234375,-141.6015625,-95.21484375,-33.203125,-28.3203125,-148.92578125,0.0
74.65625,-146.484375,-92.7734375,-39.55078125,-45.41015625,-80.078125,0.0
74.66015625,-130.859375,-92.7734375,-36.1328125,-38.57421875,-59.08203125,0.0
74.6640625,-126.46484375,-98.14453125,-27.83203125,-19.53125,-104.98046875,0.0
74.66796875,-119.62890625,-86.42578125,-35.64453125,-21.484375,-62.5,0.0
74.671875,-132.8125,-86.42578125,-37.59765625,-35.15625,-149.4140625,0.0
74.67578125,-144.53125,-93.26171875,-33.203125,-42.96875,-164.55078125,0.0
74.6796875,-136.23046875,-104.00390625,-28.80859375,-32.2265625,-71.2890625,0.0
74.68359375,-122.0703125,-100.5859375,-33.69140625,-21.97265625,-94.23828125,0.0
74.6875,-119.62890625,-94.23828125,-26.85546875,-14.16015625,-106.93359375,0.0
74.69140625,-132.32421875,-99.609375,-27.34375,-23.4375,-88.37890625,0.0
74.6953125,-133.7890625,-88.8671875,-33.203125,-37.59765625,-89.35546875,0.0
74.69921875,-135.7421875,-89.84375,-30.2734375,-31.73828125,-89.84375,0.0
74.703125,-120.60546875,-95.703125,-29.296875,-17.08984375,-62.98828125,0.0
74.70703125,-123.046875,-106.93359375,-27.83203125,-9.765625,-86.42578125,0.0
74.7109375,-164.0625,-122.0703125,-30.76171875,-32.2265625,-182.6171875,0.0
74.71484375,-162.59765625,-105.95703125,-36.62109375,-47.8515625,-179.6875,0.0
74.71875,-139.16015625,-97.16796875,-37.59765625,-40.0390625,-154.296875,0.0
74.72265625,-123.53515625,-89.35546875,-28.3203125,-17.578125,-156.25,0.0
74.7265625,-117.1875,-85.44921875,-27.34375,-11.71875,-180.17578125,0.0
74.73046875,-140.625,-90.33203125,-32.71484375,-24.90234375,-264.6484375,0.0
74.734375,-154.78515625,-86.42578125,-31.73828125,-32.71484375,-257.8125,0.0
74.73828125,-157.2265625,-103.515625,-33.203125,-45.8984375,-153.80859375,0.0
74.7421875,-129.8828125,-103.02734375,-20.99609375,-31.73828125,-139.6484375,0.0
74.74609375,-114.74609375,-84.47265625,-16.11328125,-10.25390625,-187.5,0.0
74.75,-145.01953125,-90.8203125,-25.87890625,-27.83203125,-198.73046875,0.0
74.75390625,-174.31640625,-113.28125,-27.34375,-44.43359375,-201.171875,0.0
74.7578125,-161.1328125,-114.2578125,-35.15625,-46.875,-96.19140625,0.0
74.76171875,-127.44140625,-98.6328125,-39.55078125,-29.296875,-61.03515625,0.0
74.765625,-115.72265625,-92.7734375,-29.296875,-10.25390625,-97.16796875,0.0
74.76953125,-131.34765625,-94.7265625,-32.71484375,-18.5546875,-55.17578125,0.0
74.7734375,-152.83203125,-96.6796875,-44.43359375,-40.0390625,-105.95703125,0.0
74.77734375,-145.99609375,-91.796875,-35.15625,-49.31640625,-191.89453125,0.0
74.78125,-125.9765625,-91.30859375,-22.94921875,-29.296875,-193.359375,0.0
74.78515625,-114.2578125,-96.6796875,-19.53125,-12.20703125,-173.33984375,0.0
74.7890625,-106.4453125,-88.8671875,-22.4609375,-22.94921875,-209.9609375,0.0
74.79296875,-123.046875,-86.9140625,-30.2734375,-43.9453125,-162.109375,0.0
74.796875,-133.7890625,-93.75,-35.64453125,-64.453125,-64.94140625,0.0
74.80078125,-118.65234375,-95.703125,-30.2734375,-57.6171875,-95.21484375,0.0
74.8046875,-101.07421875,-86.9140625,-18.06640625,-24.90234375,-84.47265625,0.0
74.80859375,-103.515625,-79.58984375,-22.4609375,-23.92578125,-94.23828125,0.0
74.8125,-115.72265625,-83.984375,-32.2265625,-50.78125,-147.4609375,0.0
74.81640625,-36.1328125,-79.1015625,-36.62109375,-63.96484375,-172.8515625,0.0
74.8203125,-54.19921875,-72.75390625,-41.015625,-54.19921875,-135.7421875,0.0
74.82421875,-48.33984375,-72.75390625,-31.25,-29.296875,-54.19921875,0.0
74.828125,-28.80859375,-79.58984375,-25.390625,-23.4375,-50.29296875,0.0
74.83203125,-24.4140625,-83.49609375,-27.34375,-38.0859375,-132.8125,0.0
74.8359375,-35.64453125,-74.70703125,-28.80859375,-53.7109375,-253.41796875,0.0
74.83984375,-44.921875,-64.94140625,-25.87890625,-49.31640625,-293.45703125,0.0
74.84375,-43.9453125,-75.1953125,-21.484375,-28.80859375,-299.8046875,0.0
74.84765625,-38.57421875,-87.40234375,-25.87890625,-30.2734375,-288.57421875,0.0
74.8515625,-29.78515625,-77.1484375,-28.3203125,-49.8046875,-236.81640625,0.0
74.85546875,-31.25,-76.171875,-28.3203125,-61.5234375,-210.9375,0.0
74.859375,-44.921875,-79.1015625,-30.76171875,-54.6875,-207.51953125,0.0
74.86328125,-80.078125,-75.1953125,-30.2734375,-29.296875,-128.41796875,0.0
74.8671875,-76.171875,-75.1953125,-22.94921875,-20.99609375,-127.9296875,0.0
74.87109375,-99.609375,-76.171875,-22.94921875,-38.57421875,-231.4453125,0.0
74.875,-111.81640625,-73.73046875,-25.390625,-58.10546875,-234.86328125,0.0
74.87890625,-87.40234375,-67.87109375,-29.78515625,-56.640625,-202.63671875,0.0
74.8828125,-54.6875,-55.17578125,-23.92578125,-33.69140625,-35.64453125,0.0
74.88671875,-53.22265625,-52.24609375,-14.6484375,-15.13671875,31.25,0.0
74.890625,-80.078125,-68.84765625,-20.5078125,-26.3671875,-93.26171875,0.0
74.89453125,-88.8671875,-73.73046875,-34.1796875,-49.31640625,-39.55078125,0.0
74.8984375,-74.70703125,-65.4296875,-39.0625,-52.734375,-3.90625,0.0
74.90234375,-52.734375,-60.546875,-30.2734375,-41.50390625,-108.3984375,0.0
74.90625,-46.38671875,-60.05859375,-24.90234375,-28.80859375,-114.74609375,0.0
74.91015625,-63.96484375,-56.640625,-29.78515625,-26.85546875,-100.5859375,0.0
74.9140625,-75.68359375,-60.546875,-35.15625,-42.48046875,-71.77734375,0.0
74.91796875,-69.3359375,-64.94140625,-32.2265625,-61.03515625,-2.9296875,0.0
74.921875,-56.15234375,-67.87109375,-31.73828125,-46.38671875,-49.31640625,0.0
74.92578125,-43.45703125,-59.5703125,-28.80859375,-27.34375,-94.7265625,0.0
74.9296875,-42.48046875,-53.7109375,-28.80859375,-37.59765625,-120.60546875,0.0
74.93359375,-66.89453125,-62.01171875,-38.57421875,-53.7109375,-106.4453125,0.0
74.9375,-78.125,-72.265625,-42.96875,-60.05859375,-99.609375,0.0
74.94140625,-47.36328125,-65.91796875,-36.1328125,-42.96875,-32.2265625,0.0
74.9453125,-29.78515625,-60.05859375,-30.76171875,-20.5078125,10.7421875,0.0
74.94921875,-44.921875,-63.96484375,-27.34375,-18.5546875,-91.796875,0.0
74.953125,-54.6875,-62.01171875,-29.78515625,-41.50390625,-59.5703125,0.0
74.95703125,-38.57421875,-63.4765625,-33.69140625,-59.08203125,48.828125,0.0
74.9609375,-11.71875,-64.94140625,-29.78515625,-36.62109375,-20.5078125,0.0
74.96484375,0.9765625,-54.6875,-25.87890625,-19.53125,-72.75390625,0.0
74.96875,-11.71875,-58.10546875,-28.80859375,-24.4140625,-77.1484375,0.0
74.97265625,-20.5078125,-64.453125,-32.2265625,-36.1328125,-49.8046875,0.0
74.9765625,-1.46484375,-61.03515625,-33.69140625,-40.52734375,14.16015625,0.0
74.98046875,23.4375,-59.08203125,-32.2265625,-29.296875,-52.24609375,0.0
74.984375,41.9921875,-55.17578125,-25.390625,-10.7421875,-97.65625,0.0
74.98828125,48.828125,-48.828125,-24.4140625,-15.625,-26.85546875,0.0
74.9921875,41.9921875,-53.7109375,-26.85546875,-42.48046875,38.0859375,0.0
74.99609375,45.8984375,-59.5703125,-33.203125,-59.5703125,-19.04296875,0.0
75.0,68.359375,-53.7109375,-30.2734375,-36.62109375,22.4609375,0.0
75.00390625,102.5390625,-48.33984375,-24.4140625,-16.11328125,0.9765625,0.0
75.0078125,85.9375,-57.6171875,-29.78515625,-15.625,-61.5234375,0.0
75.01171875,47.36328125,-68.84765625,-32.2265625,-32.71484375,-14.6484375,0.0
75.015625,50.29296875,-65.91796875,-40.52734375,-59.08203125,-43.9453125,0.0
75.01953125,80.078125,-53.22265625,-40.52734375,-49.8046875,-54.6875,0.0
75.0234375,99.12109375,-47.8515625,-30.76171875,-24.4140625,-32.71484375,0.0
75.02734375,92.28515625,-48.828125,-35.15625,-22.94921875,-72.265625,0.0
75.03125,84.9609375,-47.36328125,-41.50390625,-36.62109375,-42.96875,0.0
75.03515625,83.49609375,-50.78125,-41.9921875,-56.640625,26.85546875,0.0
75.0390625,105.46875,-49.8046875,-41.9921875,-53.22265625,-29.78515625,0.0
75.04296875,129.39453125,-46.875,-35.64453125,-26.85546875,-42.48046875,0.0
75.046875,115.234375,-49.8046875,-27.34375,-10.7421875,61.03515625,0.0
75.05078125,88.8671875,-52.734375,-26.3671875,-26.3671875,-23.92578125,0.0
75.0546875,79.58984375,-54.6875,-35.15625,-52.24609375,-70.80078125,0.0
75.05859375,94.23828125,-49.8046875,-35.64453125,-51.26953125,-90.8203125,0.0
75.0625,119.62890625,-43.9453125,-24.4140625,-30.76171875,-190.91796875,0.0
75.06640625,119.140625,-47.36328125,-23.92578125,-13.671875,-131.34765625,0.0
75.0703125,100.5859375,-49.31640625,-27.34375,-32.2265625,-69.82421875,0.0
75.07421875,95.21484375,-40.52734375,-23.92578125,-57.12890625,3.90625,0.0
75.078125,91.796875,-41.50390625,-30.76171875,-47.36328125,19.53125,0.0
75.08203125,99.12109375,-45.8984375,-33.203125,-30.76171875,-61.03515625,0.0
75.0859375,120.1171875,-37.109375,-34.66796875,-24.4140625,59.5703125,0.0
75.08984375,118.1640625,-34.66796875,-39.0625,-31.73828125,137.20703125,0.0
75.09375,100.5859375,-41.50390625,-37.59765625,-49.31640625,90.33203125,0.0
75.09765625,96.6796875,-34.66796875,-35.15625,-47.36328125,90.33203125,0.0
75.1015625,109.86328125,-33.203125,-33.69140625,-31.73828125,119.62890625,0.0
75.10546875,112.3046875,-41.50390625,-33.203125,-19.53125,96.19140625,0.0
75.109375,97.16796875,-43.45703125,-36.1328125,-28.80859375,44.921875,0.0
75.11328125,77.1484375,-43.9453125,-40.52734375,-49.31640625,-13.18359375,0.0
75.1171875,76.171875,-41.50390625,-39.0625,-49.31640625,9.27734375,0.0
75.12109375,93.26171875,-40.52734375,-34.66796875,-32.71484375,86.9140625,0.0
75.125,98.14453125,-42.96875,-31.73828125,-21.484375,50.29296875,0.0
75.12890625,111.328125,-39.0625,-28.80859375,-17.08984375,47.36328125,0.0
75.1328125,109.375,-58.59375,-29.296875,-31.73828125,104.98046875,0.0
75.13671875,57.12890625,-73.73046875,-31.25,-41.015625,206.54296875,0.0
75.140625,56.640625,-56.640625,-30.2734375,-29.296875,209.9609375,0.0
75.14453125,89.35546875,-40.0390625,-30.2734375,-19.53125,63.96484375,0.0
75.1484375,91.796875,-43.9453125,-26.3671875,-14.16015625,-0.9765625,0.0
75.15234375,75.68359375,-55.17578125,-27.34375,-29.296875,98.14453125,0.0
75.15625,80.56640625,-56.640625,-33.69140625,-47.8515625,79.1015625,0.0
75.16015625,111.328125,-47.8515625,-32.2265625,-43.45703125,64.94140625,0.0
75.1640625,108.88671875,-46.38671875,-20.99609375,-18.06640625,84.47265625,0.0
75.16796875,35.64453125,-58.10546875,-20.99609375,-13.671875,19.04296875,0.0
75.171875,4.39453125,-59.08203125,-34.66796875,-40.52734375,-17.08984375,0.0
75.17578125,39.55078125,-42.48046875,-39.0625,-63.4765625,-68.84765625,0.0
75.1796875,52.734375,-47.36328125,-38.57421875,-51.26953125,-51.7578125,0.0
75.18359375,74.21875,-52.24609375,-28.80859375,-19.53125,-5.37109375,0.0
75.1875,83.49609375,-47.36328125,-28.3203125,-15.13671875,-46.875,0.0
75.19140625,62.01171875,-48.828125,-34.66796875,-38.57421875,1.953125,0.0
75.1953125,55.6640625,-49.8046875,-35.15625,-63.4765625,30.2734375,0.0
75.19921875,67.87109375,-48.828125,-29.78515625,-53.7109375,65.4296875,0.0
75.203125,82.03125,-45.8984375,-28.80859375,-29.296875,90.33203125,0.0
75.20703125,83.984375,-42.96875,-26.85546875,-19.53125,15.13671875,0.0
75.2109375,70.80078125,-43.45703125,-27.83203125,-32.2265625,-23.92578125,0.0
75.21484375,64.453125,-45.41015625,-36.1328125,-49.8046875,26.85546875,0.0
75.21875,67.87109375,-63.4765625,-40.0390625,-51.26953125,30.2734375,0.0
75.22265625,66.40625,-73.73046875,-30.2734375,-22.4609375,36.1328125,0.0
75.2265625,67.87109375,-58.10546875,-29.78515625,-8.7890625,12.6953125,0.0
75.23046875,41.50390625,-59.5703125,-34.1796875,-29.296875,-22.94921875,0.0
75.234375,32.2265625,-70.3125,-34.1796875,-43.9453125,-7.32421875,0.0
75.23828125,53.7109375,-66.89453125,-39.0625,-51.7578125,-38.57421875,0.0
75.2421875,83.984375,-58.59375,-32.71484375,-36.62109375,-53.22265625,0.0
75.24609375,85.44921875,-71.2890625,-29.296875,-11.23046875,-56.640625,0.0
75.25,43.45703125,-85.9375,-35.64453125,-26.85546875,18.06640625,0.0
75.25390625,26.3671875,-83.49609375,-45.41015625,-58.59375,25.87890625,0.0
75.2578125,53.7109375,-89.35546875,-41.9921875,-59.08203125,-23.92578125,0.0
75.26171875,82.51953125,-89.35546875,-32.71484375,-36.1328125,8.7890625,0.0
75.265625,81.0546875,-101.07421875,-36.1328125,-29.78515625,11.23046875,0.0
75.26953125,27.34375,-103.515625,-41.9921875,-36.62109375,68.84765625,0.0
75.2734375,16.11328125,-94.7265625,-45.41015625,-52.734375,49.31640625,0.0
75.27734375,43.9453125,-122.55859375,-46.875,-54.19921875,-38.57421875,0.0
75.28125,62.5,-130.859375,-38.0859375,-33.69140625,-25.390625,0.0
75.28515625,46.875,-120.1171875,-32.2265625,-24.4140625,-38.57421875,0.0
75.2890625,-8.30078125,-126.46484375,-35.64453125,-25.390625,12.6953125,0.0
75.29296875,-33.203125,-143.06640625,-38.57421875,-41.015625,-17.578125,0.0
75.296875,-17.578125,-128.41796875,-35.64453125,-45.8984375,-34.1796875,0.0
75.30078125,0.48828125,-144.53125,-36.62109375,-41.50390625,0.9765625,0.0
75.3046875,7.8125,-171.38671875,-32.2265625,-35.15625,34.1796875,0.0
75.30859375,-2.44140625,-191.40625,-31.25,-29.78515625,118.65234375,0.0
75.3125,-28.3203125,-173.828125,-27.34375,-27.34375,105.46875,0.0
75.31640625,-39.0625,-147.94921875,-25.87890625,-31.73828125,94.23828125,0.0
75.3203125,-96.19140625,-166.50390625,-30.76171875,-45.41015625,25.87890625,0.0
75.32421875,-124.0234375,-141.6015625,-29.296875,-41.9921875,-5.859375,0.0
75.328125,-105.95703125,-141.6015625,-30.76171875,-37.59765625,-19.53125,0.0
75.33203125,-111.328125,-169.921875,-30.2734375,-38.57421875,-2.44140625,0.0
75.3359375,-122.55859375,-178.7109375,-29.78515625,-36.62109375,59.5703125,0.0
75.33984375,-154.296875,-191.89453125,-28.3203125,-30.2734375,92.7734375,0.0
75.34375,-175.78125,-189.453125,-25.87890625,-28.80859375,5.37109375,0.0
75.34765625,-179.6875,-173.828125,-27.83203125,-32.2265625,-59.08203125,0.0
75.3515625,-196.77734375,-166.015625,-26.85546875,-34.1796875,23.4375,0.0
75.35546875,-212.40234375,-151.3671875,-25.87890625,-35.64453125,-10.25390625,0.0
75.359375,-184.08203125,-140.13671875,-30.76171875,-40.0390625,-101.07421875,0.0
75.36328125,-176.7578125,-152.34375,-31.73828125,-24.90234375,0.0,0.0
75.3671875,-206.0546875,-148.92578125,-24.4140625,-20.5078125,43.9453125,0.0
75.37109375,-231.4453125,-140.13671875,-23.4375,-31.25,-60.546875,0.0
75.375,-212.40234375,-147.4609375,-26.3671875,-41.015625,-43.9453125,0.0
75.37890625,-167.96875,-141.6015625,-26.3671875,-41.50390625,-44.43359375,0.0
75.3828125,-126.953125,-134.765625,-33.203125,-28.80859375,-67.87109375,0.0
75.38671875,-108.3984375,-133.7890625,-31.73828125,-22.94921875,-84.9609375,0.0
75.390625,-115.234375,-139.6484375,-24.90234375,-29.296875,-96.6796875,0.0
75.39453125,-111.81640625,-137.6953125,-27.83203125,-43.45703125,-60.546875,0.0
75.3984375,-72.75390625,-127.44140625,-30.76171875,-40.0390625,1.46484375,0.0
75.40234375,-33.203125,-128.90625,-20.5078125,-23.4375,95.703125,0.0
75.40625,-33.203125,-141.6015625,-16.11328125,-17.08984375,66.40625,0.0
75.41015625,-47.8515625,-143.06640625,-17.08984375,-24.4140625,-17.08984375,0.0
75.4140625,-56.15234375,-134.27734375,-21.97265625,-40.52734375,7.8125,0.0
75.41796875,-37.59765625,-133.7890625,-32.71484375,-47.36328125,-25.87890625,0.0
75.421875,-16.11328125,-133.30078125,-31.73828125,-38.57421875,-65.91796875,0.0
75.42578125,-9.27734375,-127.44140625,-26.3671875,-24.90234375,-98.14453125,0.0
75.4296875,-15.625,-125.0,-31.73828125,-26.85546875,-49.31640625,0.0
75.43359375,-21.97265625,-121.58203125,-34.1796875,-35.15625,81.54296875,0.0
75.4375,-27.34375,-118.1640625,-27.83203125,-33.69140625,-30.2734375,0.0
75.44140625,-10.7421875,-116.69921875,-26.85546875,-29.78515625,3.41796875,0.0
75.4453125,17.578125,-110.83984375,-30.2734375,-30.76171875,142.578125,0.0
75.44921875,2.9296875,-113.28125,-32.2265625,-36.62109375,48.828125,0.0
75.453125,-21.484375,-114.2578125,-31.73828125,-41.015625,68.359375,0.0
75.45703125,-32.2265625,-121.58203125,-29.78515625,-48.33984375,62.5,0.0
75.4609375,-20.5078125,-120.60546875,-29.78515625,-36.62109375,-29.78515625,0.0
75.46484375,-4.39453125,-106.4453125,-28.80859375,-19.04296875,-38.57421875,0.0
75.46875,-26.3671875,-103.515625,-30.2734375,-27.34375,-48.828125,0.0
75.47265625,-28.80859375,-97.65625,-38.57421875,-41.50390625,-36.62109375,0.0
75.4765625,-19.04296875,-94.7265625,-37.109375,-42.48046875,-28.3203125,0.0
75.48046875,-11.23046875,-95.703125,-26.85546875,-34.1796875,58.59375,0.0
75.484375,5.859375,-88.8671875,-20.01953125,-32.2265625,108.88671875,0.0
75.48828125,-5.859375,-85.44921875,-20.5078125,-24.90234375,-37.109375,0.0
75.4921875,-31.25,-84.47265625,-20.5078125,-24.90234375,-172.8515625,0.0
75.49609375,-24.90234375,-82.03125,-20.99609375,-44.921875,-216.796875,0.0
75.5,-6.8359375,-79.1015625,-26.3671875,-41.9921875,-186.5234375,0.0
75.50390625,14.16015625,-67.87109375,-25.87890625,-21.97265625,-153.3203125,0.0
75.5078125,6.34765625,-65.91796875,-22.94921875,-19.53125,-130.37109375,0.0
75.51171875,-13.18359375,-67.3828125,-19.04296875,-24.4140625,-90.8203125,0.0
75.515625,-13.671875,-60.546875,-21.97265625,-30.2734375,-65.91796875,0.0
75.51953125,8.30078125,-42.96875,-33.203125,-26.85546875,-56.640625,0.0
75.5234375,32.2265625,-33.203125,-34.66796875,-14.16015625,-116.2109375,0.0
75.52734375,21.484375,-34.1796875,-31.25,-11.23046875,-153.3203125,0.0
75.53125,-7.8125,-35.15625,-30.76171875,-26.3671875,-134.765625,0.0
75.53515625,-17.08984375,-34.66796875,-34.66796875,-40.0390625,-2.9296875,0.0
75.5390625,-4.8828125,-26.3671875,-32.2265625,-31.25,90.8203125,0.0
75.54296875,16.6015625,-12.6953125,-27.34375,-26.85546875,101.07421875,0.0
75.546875,9.765625,-9.765625,-28.3203125,-39.0625,126.46484375,0.0
75.55078125,-12.20703125,-19.53125,-32.71484375,-49.31640625,90.33203125,0.0
75.5546875,-18.06640625,-21.484375,-33.69140625,-46.38671875,56.15234375,0.0
75.55859375,-6.8359375,-17.08984375,-31.25,-43.9453125,67.3828125,0.0
75.5625,11.23046875,-12.6953125,-34.1796875,-37.59765625,66.40625,0.0
75.56640625,6.8359375,-6.34765625,-30.2734375,-25.87890625,-19.53125,0.0
75.5703125,-14.6484375,-7.32421875,-28.3203125,-27.34375,-75.1953125,0.0
75.57421875,-31.73828125,-10.7421875,-33.203125,-43.45703125,-53.22265625,0.0
75.578125,-25.87890625,-12.6953125,-35.15625,-54.6875,-20.01953125,0.0
75.58203125,2.44140625,-5.37109375,-37.109375,-45.41015625,-3.41796875,0.0
75.5859375,14.6484375,0.9765625,-29.296875,-35.15625,14.6484375,0.0
75.58984375,1.953125,5.37109375,-27.34375,-41.015625,12.20703125,0.0
75.59375,-17.08984375,1.46484375,-33.203125,-53.22265625,-4.8828125,0.0
75.59765625,-12.6953125,-3.41796875,-32.71484375,-54.6875,35.64453125,0.0
75.6015625,-2.44140625,-7.8125,-34.66796875,-42.48046875,-70.80078125,0.0
75.60546875,-7.32421875,-7.8125,-30.76171875,-31.25,-90.8203125,0.0
75.609375,-20.99609375,-7.8125,-29.78515625,-38.57421875,-66.89453125,0.0
75.61328125,-43.45703125,-16.6015625,-31.73828125,-38.57421875,-125.0,0.0
75.6171875,-35.64453125,-15.625,-35.15625,-41.50390625,-142.578125,0.0
75.62109375,0.9765625,-13.671875,-34.1796875,-43.9453125,-99.12109375,0.0
75.625,17.08984375,-9.765625,-29.78515625,-36.1328125,22.4609375,0.0
75.62890625,-7.8125,-9.27734375,-31.25,-41.50390625,14.16015625,0.0
75.6328125,-17.578125,-10.7421875,-30.76171875,-51.26953125,8.7890625,0.0
75.63671875,-15.13671875,-14.16015625,-25.390625,-44.921875,62.98828125,0.0
75.640625,-14.16015625,-17.08984375,-30.2734375,-43.9453125,57.12890625,0.0
75.64453125,6.34765625,-8.30078125,-34.1796875,-37.59765625,50.78125,0.0
75.6484375,4.8828125,-6.8359375,-30.76171875,-20.01953125,88.8671875,0.0
75.65234375,-12.20703125,-8.30078125,-28.3203125,-18.5546875,77.1484375,0.0
75.65625,-21.484375,-14.6484375,-19.53125,-22.4609375,-32.71484375,0.0
75.66015625,-13.18359375,-14.6484375,-19.04296875,-20.5078125,-39.0625,0.0
75.6640625,5.859375,-13.671875,-15.13671875,-7.8125,4.39453125,0.0
75.66796875,-3.41796875,-22.94921875,-15.13671875,-6.34765625,-79.1015625,0.0
75.671875,-30.76171875,-30.76171875,-21.97265625,-28.3203125,-27.83203125,0.0
75.67578125,-30.76171875,-29.296875,-26.3671875,-46.875,19.04296875,0.0
75.6796875,-7.32421875,-17.08984375,-33.69140625,-47.36328125,16.11328125,0.0
75.68359375,11.23046875,-16.6015625,-29.296875,-27.34375,25.87890625,0.0
75.6875,-2.44140625,-25.87890625,-28.80859375,-23.4375,-27.83203125,0.0
75.69140625,-27.34375,-20.5078125,-32.71484375,-36.1328125,-23.92578125,0.0
75.6953125,-25.87890625,-16.11328125,-32.71484375,-40.52734375,22.94921875,0.0
75.69921875,-2.9296875,-17.08984375,-38.0859375,-44.43359375,27.83203125,0.0
75.703125,5.37109375,-19.53125,-34.66796875,-33.69140625,-11.71875,0.0
75.70703125,-1.953125,-20.5078125,-32.2265625,-24.4140625,-49.31640625,0.0
75.7109375,-17.578125,-24.90234375,-33.203125,-34.66796875,-44.921875,0.0
75.71484375,-41.50390625,-28.80859375,-39.55078125,-54.19921875,-35.64453125,0.0
75.71875,-38.0859375,-26.3671875,-41.50390625,-49.31640625,-6.34765625,0.0
75.72265625,-10.25390625,-27.83203125,-30.2734375,-32.2265625,-30.76171875,0.0
75.7265625,-4.8828125,-29.296875,-27.34375,-31.73828125,-28.3203125,0.0
75.73046875,-34.1796875,-33.203125,-33.69140625,-40.52734375,25.87890625,0.0
75.734375,-49.31640625,-37.59765625,-34.66796875,-48.33984375,17.08984375,0.0
75.73828125,-32.2265625,-36.1328125,-40.0390625,-54.19921875,2.44140625,0.0
75.7421875,-12.20703125,-29.78515625,-39.0625,-45.41015625,14.16015625,0.0
75.74609375,-26.3671875,-29.296875,-35.15625,-26.85546875,-115.234375,0.0
75.75,-31.25,-35.64453125,-36.62109375,-31.25,-216.796875,0.0
75.75390625,-32.2265625,-36.1328125,-30.76171875,-38.57421875,-168.9453125,0.0
75.7578125,-32.71484375,-38.0859375,-29.296875,-39.55078125,-223.14453125,0.0
75.76171875,-13.671875,-41.9921875,-28.80859375,-32.2265625,-221.19140625,0.0
75.765625,-25.87890625,-39.55078125,-26.85546875,-17.578125,-59.5703125,0.0
75.76953125,-47.36328125,-37.59765625,-32.71484375,-24.4140625,-19.04296875,0.0
75.7734375,-36.1328125,-33.69140625,-38.0859375,-43.9453125,-19.04296875,0.0
75.77734375,-41.015625,-36.1328125,-38.57421875,-49.8046875,25.390625,0.0
75.78125,-28.80859375,-37.109375,-36.1328125,-37.59765625,82.03125,0.0
75.78515625,-3.90625,-34.66796875,-32.2265625,-27.83203125,80.078125,0.0
75.7890625,-20.01953125,-42.48046875,-30.76171875,-26.3671875,86.9140625,0.0
75.79296875,-29.296875,-43.9453125,-28.3203125,-34.1796875,121.09375,0.0
75.796875,-25.390625,-40.52734375,-31.25,-48.33984375,101.5625,0.0
75.80078125,-13.18359375,-38.57421875,-32.71484375,-43.9453125,0.9765625,0.0
75.8046875,1.46484375,-36.1328125,-27.34375,-28.3203125,-44.921875,0.0
75.80859375,-17.578125,-34.1796875,-30.2734375,-18.5546875,-12.20703125,0.0
75.8125,-58.59375,-37.59765625,-34.66796875,-34.1796875,6.34765625,0.0
75.81640625,-53.7109375,-37.109375,-33.69140625,-41.9921875,-9.27734375,0.0
75.8203125,-25.87890625,-33.69140625,-32.2265625,-30.76171875,-37.59765625,0.0
75.82421875,-21.484375,-34.1796875,-32.71484375,-24.90234375,-68.84765625,0.0
75.828125,-41.50390625,-41.015625,-31.25,-16.11328125,-137.6953125,0.0
75.83203125,-49.31640625,-40.52734375,-28.80859375,-24.90234375,-53.22265625,0.0
75.8359375,-40.0390625,-35.15625,-33.69140625,-46.875,64.94140625,0.0
75.83984375,-25.87890625,-37.109375,-41.9921875,-48.33984375,21.97265625,0.0
75.84375,-19.04296875,-37.59765625,-41.9921875,-36.62109375,-53.7109375,0.0
75.84765625,-40.0390625,-28.80859375,-39.0625,-32.71484375,-48.33984375,0.0
75.8515625,-32.71484375,-32.2265625,-40.52734375,-41.9921875,-68.359375,0.0
75.85546875,-30.2734375,-36.1328125,-43.45703125,-48.33984375,-56.15234375,0.0
75.859375,-35.15625,-26.85546875,-37.59765625,-36.62109375,-64.453125,0.0
75.86328125,-49.31640625,-21.97265625,-36.62109375,-33.203125,-83.49609375,0.0
75.8671875,-49.8046875,-17.08984375,-39.55078125,-32.71484375,41.015625,0.0
75.87109375,-38.57421875,-19.53125,-39.55078125,-41.015625,-2.44140625,0.0
75.875,-39.0625,-32.71484375,-41.015625,-56.640625,-22.4609375,0.0
75.87890625,-47.8515625,-33.203125,-43.45703125,-48.33984375,-12.20703125,0.0
75.8828125,-47.36328125,-27.83203125,-35.64453125,-38.0859375,-70.3125,0.0
75.88671875,-40.52734375,-25.390625,-23.4375,-30.2734375,-100.09765625,0.0
75.890625,-26.85546875,-30.2734375,-27.34375,-32.2265625,-188.4765625,0.0
75.89453125,-45.8984375,-36.62109375,-35.64453125,-49.31640625,-240.234375,0.0
75.8984375,-31.25,-30.76171875,-32.2265625,-54.19921875,-145.99609375,0.0
75.90234375,-0.9765625,-23.4375,-26.3671875,-37.59765625,-8.30078125,0.0
75.90625,-2.9296875,-28.80859375,-33.69140625,-29.78515625,-76.66015625,0.0
75.91015625,-21.97265625,-32.71484375,-38.0859375,-39.0625,-80.56640625,0.0
75.9140625,-41.015625,-36.62109375,-30.2734375,-41.015625,-33.203125,0.0
75.91796875,-33.69140625,-38.0859375,-27.34375,-40.52734375,14.6484375,0.0
75.921875,-30.76171875,-41.50390625,-31.73828125,-38.57421875,39.55078125,0.0
75.92578125,-31.25,-43.45703125,-40.0390625,-36.1328125,-32.2265625,0.0
75.9296875,-31.25,-39.0625,-35.15625,-43.45703125,-44.921875,0.0
75.93359375,-43.9453125,-39.55078125,-28.3203125,-48.828125,27.34375,0.0
75.9375,-44.43359375,-40.0390625,-34.1796875,-46.38671875,27.34375,0.0
75.94140625,-26.85546875,-36.1328125,-34.1796875,-41.50390625,34.66796875,0.0
75.9453125,-15.13671875,-36.1328125,-30.2734375,-30.2734375,-23.92578125,0.0
75.94921875,-23.4375,-36.62109375,-27.83203125,-23.92578125,-47.8515625,0.0
75.953125,-39.0625,-46.875,-27.83203125,-33.203125,-3.90625,0.0
75.95703125,-45.8984375,-50.29296875,-24.90234375,-39.0625,-6.8359375,0.0
75.9609375,-29.78515625,-36.1328125,-18.5546875,-36.62109375,61.5234375,0.0
75.96484375,-25.390625,-35.15625,-21.484375,-31.25,50.29296875,0.0
75.96875,-35.64453125,-43.45703125,-32.2265625,-27.34375,-40.52734375,0.0
75.97265625,-34.1796875,-38.0859375,-27.34375,-36.1328125,-45.41015625,0.0
75.9765625,-33.69140625,-35.15625,-20.5078125,-42.48046875,2.9296875,0.0
75.98046875,-17.578125,-33.69140625,-21.484375,-36.1328125,9.27734375,0.0
75.984375,-11.23046875,-36.1328125,-23.92578125,-28.80859375,31.25,0.0
75.98828125,-33.69140625,-43.9453125,-27.83203125,-22.4609375,-83.49609375,0.0
75.9921875,-28.3203125,-46.38671875,-29.78515625,-28.80859375,-94.7265625,0.0
75.99609375,-35.64453125,-50.29296875,-35.64453125,-42.48046875,-43.9453125,0.0
76.0,-44.43359375,-47.36328125,-37.109375,-40.0390625,-72.265625,0.0
76.00390625,-47.8515625,-38.57421875,-29.296875,-26.3671875,-61.5234375,0.0
76.0078125,-41.50390625,-29.296875,-26.3671875,-22.94921875,-4.8828125,0.0
76.01171875,-27.83203125,-31.73828125,-25.87890625,-30.2734375,44.921875,0.0
76.015625,-27.83203125,-41.9921875,-30.2734375,-38.57421875,0.0,0.0
76.01953125,-35.64453125,-37.109375,-37.59765625,-37.109375,-21.97265625,0.0
76.0234375,-37.109375,-30.2734375,-35.64453125,-23.92578125,-12.6953125,0.0
76.02734375,-28.80859375,-31.25,-27.34375,-16.6015625,-75.68359375,0.0
76.03125,-18.06640625,-35.15625,-31.25,-23.4375,-60.546875,0.0
76.03515625,-50.78125,-34.66796875,-34.1796875,-41.015625,51.7578125,0.0
76.0390625,-35.64453125,-36.62109375,-32.2265625,-46.38671875,28.3203125,0.0
76.04296875,-28.80859375,-40.0390625,-30.76171875,-28.80859375,-93.75,0.0
76.046875,-21.97265625,-41.50390625,-27.83203125,-17.578125,-48.828125,0.0
76.05078125,-26.85546875,-37.59765625,-33.203125,-25.87890625,22.4609375,0.0
76.0546875,-36.62109375,-36.1328125,-37.109375,-42.96875,-46.38671875,0.0
76.05859375,-30.76171875,-39.0625,-36.62109375,-47.36328125,5.37109375,0.0
76.0625,-35.15625,-45.41015625,-35.15625,-40.52734375,-0.48828125,0.0
76.06640625,-40.0390625,-45.8984375,-30.2734375,-32.2265625,-22.4609375,0.0
76.0703125,-56.640625,-44.43359375,-28.3203125,-32.71484375,-38.0859375,0.0
76.07421875,-67.3828125,-46.38671875,-28.3203125,-36.1328125,-49.8046875,0.0
76.078125,-52.734375,-47.36328125,-26.85546875,-38.0859375,-42.48046875,0.0
76.08203125,-27.34375,-37.109375,-28.3203125,-28.80859375,-65.91796875,0.0
76.0859375,-16.11328125,-28.80859375,-25.390625,-13.18359375,-65.91796875,0.0
76.08984375,-35.64453125,-37.59765625,-26.85546875,-20.5078125,-33.69140625,0.0
76.09375,-51.26953125,-43.45703125,-34.1796875,-38.57421875,17.08984375,0.0
76.09765625,-42.96875,-43.9453125,-37.109375,-40.52734375,31.25,0.0
76.1015625,-30.76171875,-40.0390625,-34.1796875,-28.80859375,47.36328125,0.0
76.10546875,-34.1796875,-41.9921875,-26.3671875,-11.23046875,73.2421875,0.0
76.109375,-47.8515625,-51.26953125,-23.92578125,-22.4609375,31.73828125,0.0
76.11328125,-50.29296875,-48.828125,-31.73828125,-35.15625,-27.34375,0.0
76.1171875,-40.0390625,-42.96875,-29.296875,-36.62109375,-38.57421875,0.0
76.12109375,-20.5078125,-40.0390625,-26.85546875,-36.1328125,19.04296875,0.0
76.125,-13.671875,-30.76171875,-30.2734375,-21.484375,33.69140625,0.0
76.12890625,-22.4609375,-25.87890625,-28.3203125,-19.04296875,-4.8828125,0.0
76.1328125,-16.6015625,-35.15625,-31.73828125,-28.3203125,-7.32421875,0.0
76.13671875,-23.4375,-42.96875,-35.64453125,-39.55078125,1.953125,0.0
76.140625,-39.0625,-37.59765625,-34.66796875,-31.25,-32.71484375,0.0
76.14453125,-35.15625,-31.73828125,-29.296875,-20.5078125,-36.62109375,0.0
76.1484375,-27.83203125,-34.66796875,-26.3671875,-29.78515625,-50.29296875,0.0
76.15234375,-27.83203125,-40.0390625,-31.25,-36.62109375,-105.95703125,0.0
76.15625,-27.34375,-40.52734375,-32.71484375,-40.0390625,-94.7265625,0.0
76.16015625,-35.64453125,-33.203125,-29.78515625,-28.3203125,-2.9296875,0.0
76.1640625,-45.41015625,-37.109375,-29.78515625,-15.13671875,31.73828125,0.0
76.16796875,-36.1328125,-39.0625,-27.34375,-19.04296875,2.9296875,0.0
76.171875,-19.53125,-34.66796875,-24.4140625,-34.66796875,-4.8828125,0.0
76.17578125,-46.875,-38.0859375,-30.2734375,-49.8046875,-5.859375,0.0
76.1796875,-32.71484375,-37.109375,-31.25,-40.52734375,-71.77734375,0.0
76.18359375,-27.34375,-39.0625,-23.4375,-19.53125,-149.4140625,0.0
76.1875,-45.41015625,-48.33984375,-25.87890625,-17.578125,-121.58203125,0.0
76.19140625,-60.05859375,-51.26953125,-27.83203125,-33.69140625,-54.19921875,0.0
76.1953125,-67.87109375,-47.36328125,-31.73828125,-51.7578125,-75.1953125,0.0
76.19921875,-49.8046875,-43.45703125,-32.2265625,-46.38671875,-72.75390625,0.0
76.203125,-33.203125,-39.55078125,-31.25,-33.69140625,16.11328125,0.0
76.20703125,-41.9921875,-35.64453125,-34.66796875,-35.15625,19.53125,0.0
76.2109375,-58.59375,-46.875,-32.71484375,-34.66796875,-3.90625,0.0
76.21484375,-71.2890625,-57.6171875,-35.15625,-40.0390625,-15.13671875,0.0
76.21875,-51.26953125,-49.8046875,-35.15625,-47.8515625,-13.18359375,0.0
76.22265625,-26.3671875,-36.1328125,-35.15625,-33.203125,35.64453125,0.0
76.2265625,-29.78515625,-31.73828125,-34.1796875,-20.01953125,-9.765625,0.0
76.23046875,-49.31640625,-35.15625,-29.296875,-25.390625,-41.9921875,0.0
76.234375,-44.43359375,-51.26953125,-32.2265625,-44.921875,-12.6953125,0.0
76.23828125,-33.69140625,-56.15234375,-35.64453125,-55.6640625,-29.78515625,0.0
76.2421875,-32.71484375,-43.45703125,-31.25,-33.69140625,-93.75,0.0
76.24609375,-31.25,-41.9921875,-26.85546875,-18.06640625,-82.03125,0.0
76.25,-41.9921875,-41.50390625,-21.484375,-35.15625,-51.7578125,0.0
76.25390625,-56.15234375,-39.55078125,-21.484375,-46.875,-92.7734375,0.0
76.2578125,-54.6875,-41.50390625,-31.25,-48.33984375,-92.28515625,0.0
76.26171875,-26.3671875,-41.50390625,-28.3203125,-36.62109375,-37.109375,0.0
76.265625,-12.20703125,-37.59765625,-26.85546875,-30.2734375,11.71875,0.0
76.26953125,-34.66796875,-30.76171875,-29.78515625,-42.48046875,-28.3203125,0.0
76.2734375,-54.6875,-27.34375,-27.34375,-53.7109375,-53.7109375,0.0
76.27734375,-47.8515625,-37.109375,-24.4140625,-56.15234375,-22.4609375,0.0
76.28125,-33.203125,-38.57421875,-23.92578125,-48.828125,23.4375,0.0
76.28515625,-27.83203125,-31.25,-26.85546875,-37.59765625,4.39453125,0.0
76.2890625,-32.2265625,-28.3203125,-27.83203125,-32.71484375,-13.671875,0.0
76.29296875,-45.41015625,-27.34375,-23.92578125,-48.828125,-35.15625,0.0
76.296875,-46.875,-33.69140625,-22.4609375,-63.4765625,-66.89453125,0.0
76.30078125,-18.06640625,-37.59765625,-27.83203125,-54.6875,-17.08984375,0.0
76.3046875,-2.9296875,-19.04296875,-25.390625,-37.59765625,46.875,0.0
76.30859375,-42.96875,-14.6484375,-25.390625,-34.1796875,-62.01171875,0.0
76.3125,-59.5703125,-24.4140625,-31.73828125,-43.9453125,-54.19921875,0.0
76.31640625,-41.015625,-15.625,-35.15625,-49.31640625,-37.109375,0.0
76.3203125,-41.50390625,-10.25390625,-27.34375,-42.48046875,-170.8984375,0.0
76.32421875,-33.69140625,-9.765625,-20.01953125,-27.34375,-129.8828125,0.0
76.328125,-32.2265625,-1.46484375,-25.390625,-28.80859375,-137.20703125,0.0
76.33203125,-51.26953125,6.8359375,-28.3203125,-38.0859375,-184.08203125,0.0
76.3359375,-54.6875,5.37109375,-24.90234375,-41.50390625,-151.85546875,0.0
76.33984375,-31.25,3.41796875,-21.484375,-43.45703125,-101.5625,0.0
76.34375,-5.859375,3.41796875,-26.85546875,-42.48046875,-11.23046875,0.0
76.34765625,-1.953125,8.30078125,-32.71484375,-28.80859375,56.15234375,0.0
76.3515625,-29.78515625,7.8125,-29.78515625,-24.4140625,105.95703125,0.0
76.35546875,-33.69140625,2.9296875,-28.80859375,-34.66796875,42.96875,0.0
76.359375,-12.20703125,6.8359375,-30.76171875,-32.71484375,3.90625,0.0
76.36328125,-5.859375,12.20703125,-33.69140625,-25.87890625,49.8046875,0.0
76.3671875,-12.20703125,-2.44140625,-35.15625,-23.92578125,55.6640625,0.0
76.37109375,-37.109375,-10.7421875,-35.64453125,-26.85546875,-19.04296875,0.0
76.375,-48.33984375,-2.9296875,-35.15625,-23.92578125,-59.5703125,0.0
76.37890625,-33.69140625,-0.9765625,-31.73828125,-23.92578125,-39.0625,0.0
76.3828125,-7.32421875,2.44140625,-23.92578125,-22.4609375,-57.6171875,0.0
76.38671875,-1.953125,10.25390625,-17.578125,-12.20703125,5.859375,0.0
76.390625,-24.4140625,10.25390625,-26.85546875,-14.16015625,56.640625,0.0
76.39453125,-23.92578125,1.46484375,-34.1796875,-32.2265625,44.43359375,0.0
76.3984375,0.48828125,0.48828125,-25.87890625,-34.1796875,97.65625,0.0
76.40234375,-2.9296875,4.39453125,-21.97265625,-14.16015625,48.828125,0.0
76.40625,-14.16015625,0.0,-26.3671875,-8.7890625,-19.04296875,0.0
76.41015625,-15.13671875,-1.46484375,-28.3203125,-18.06640625,-53.22265625,0.0
76.4140625,-17.08984375,-3.41796875,-33.69140625,-33.69140625,-16.11328125,0.0
76.41796875,-0.9765625,-5.859375,-36.62109375,-40.52734375,-21.97265625,0.0
76.421875,9.765625,-2.9296875,-35.15625,-31.73828125,-45.8984375,0.0
76.42578125,11.23046875,4.39453125,-40.0390625,-27.34375,28.80859375,0.0
76.4296875,-6.8359375,4.39453125,-34.66796875,-33.203125,70.3125,0.0
76.43359375,-36.1328125,1.953125,-33.203125,-47.8515625,29.78515625,0.0
76.4375,-38.57421875,-4.39453125,-41.9921875,-50.78125,-11.71875,0.0
76.44140625,-25.390625,-5.859375,-41.9921875,-37.109375,-53.22265625,0.0
76.4453125,-23.4375,-5.859375,-40.52734375,-25.87890625,-172.8515625,0.0
76.44921875,-33.203125,-9.27734375,-38.57421875,-27.83203125,-168.9453125,0.0
76.453125,-45.41015625,-6.34765625,-39.0625,-40.52734375,-28.80859375,0.0
76.45703125,-39.55078125,-1.46484375,-36.62109375,-41.9921875,-9.27734375,0.0
76.4609375,-31.73828125,4.39453125,-31.25,-29.78515625,34.1796875,0.0
76.46484375,-28.3203125,-0.48828125,-29.78515625,-28.80859375,-1.46484375,0.0
76.46875,-19.53125,-1.953125,-34.66796875,-37.59765625,-32.2265625,0.0
76.47265625,-48.33984375,3.90625,-39.0625,-41.50390625,-15.13671875,0.0
76.4765625,-54.19921875,14.6484375,-39.55078125,-47.8515625,31.73828125,0.0
76.48046875,-18.06640625,22.4609375,-38.57421875,-39.55078125,-14.6484375,0.0
76.484375,-6.8359375,18.06640625,-34.66796875,-26.85546875,-120.60546875,0.0
76.48828125,-22.4609375,20.5078125,-35.15625,-30.76171875,-81.54296875,0.0
76.4921875,-30.76171875,23.4375,-36.62109375,-46.38671875,-67.3828125,0.0
76.49609375,-23.92578125,24.90234375,-36.1328125,-52.24609375,-108.3984375,0.0
76.5,-16.6015625,26.85546875,-35.64453125,-41.50390625,-123.046875,0.0
76.50390625,5.859375,40.0390625,-35.15625,-33.203125,-86.9140625,0.0
76.5078125,6.34765625,38.0859375,-32.2265625,-30.2734375,-65.91796875,0.0
76.51171875,-44.43359375,24.90234375,-28.3203125,-37.109375,-126.46484375,0.0
76.515625,-49.31640625,23.92578125,-28.80859375,-51.26953125,-207.03125,0.0
76.51953125,-13.18359375,24.90234375,-30.76171875,-47.8515625,-165.0390625,0.0
76.5234375,1.46484375,28.80859375,-29.78515625,-35.64453125,-131.34765625,0.0
76.52734375,7.32421875,30.2734375,-28.3203125,-28.3203125,-134.765625,0.0
76.53125,-16.6015625,26.3671875,-32.2265625,-31.73828125,-43.45703125,0.0
76.53515625,-42.48046875,26.85546875,-35.64453125,-43.9453125,33.203125,0.0
76.5390625,-20.5078125,30.2734375,-37.59765625,-40.52734375,9.765625,0.0
76.54296875,14.16015625,31.25,-36.1328125,-22.94921875,13.18359375,0.0
76.546875,6.34765625,29.78515625,-31.73828125,-22.4609375,59.5703125,0.0
76.55078125,-31.73828125,26.85546875,-34.66796875,-38.57421875,67.87109375,0.0
76.5546875,-27.34375,26.3671875,-35.64453125,-45.41015625,-54.6875,0.0
76.55859375,-30.2734375,27.34375,-33.203125,-41.015625,-56.15234375,0.0
76.5625,-35.64453125,27.83203125,-28.80859375,-28.3203125,-30.76171875,0.0
76.56640625,-32.2265625,22.4609375,-26.85546875,-20.99609375,-40.52734375,0.0
76.5703125,-34.66796875,23.92578125,-30.76171875,-33.203125,5.37109375,0.0
76.57421875,-27.34375,22.4609375,-24.4140625,-43.45703125,-14.16015625,0.0
76.578125,-28.80859375,10.25390625,-27.83203125,-45.41015625,-47.36328125,0.0
76.58203125,-43.45703125,9.765625,-33.203125,-39.55078125,-21.484375,0.0
76.5859375,-49.8046875,11.71875,-29.296875,-34.1796875,0.0,0.0
76.58984375,-36.1328125,9.27734375,-26.85546875,-30.76171875,50.29296875,0.0
76.59375,-28.80859375,9.27734375,-33.203125,-45.8984375,35.15625,0.0
76.59765625,-22.94921875,14.16015625,-34.1796875,-57.6171875,-39.0625,0.0
76.6015625,-1.953125,15.625,-27.83203125,-42.48046875,-17.578125,0.0
76.60546875,-3.90625,11.23046875,-27.83203125,-26.85546875,0.0,0.0
76.609375,-17.578125,6.34765625,-26.85546875,-32.2265625,-13.18359375,0.0
76.61328125,-16.6015625,8.7890625,-30.2734375,-47.8515625,-12.20703125,0.0
76.6171875,-18.06640625,16.11328125,-28.80859375,-44.43359375,-37.109375,0.0
76.62109375,-15.13671875,6.8359375,-23.4375,-24.90234375,-95.21484375,0.0
76.625,1.46484375,2.44140625,-28.80859375,-22.94921875,-92.28515625,0.0
76.62890625,-4.39453125,10.25390625,-33.69140625,-32.2265625,-26.85546875,0.0
76.6328125,-28.80859375,5.37109375,-23.92578125,-28.80859375,-26.85546875,0.0
76.63671875,-35.64453125,-1.46484375,-26.3671875,-33.69140625,-20.99609375,0.0
76.640625,-16.11328125,5.859375,-35.64453125,-37.109375,29.296875,0.0
76.64453125,-14.16015625,10.25390625,-33.69140625,-39.0625,50.78125,0.0
76.6484375,-29.296875,5.37109375,-31.73828125,-38.0859375,47.36328125,0.0
76.65234375,-47.36328125,-3.41796875,-34.1796875,-32.71484375,-1.46484375,0.0
76.65625,-49.31640625,-8.30078125,-32.71484375,-38.0859375,-54.6875,0.0
76.66015625,-28.3203125,-0.48828125,-33.69140625,-28.3203125,23.4375,0.0
76.6640625,-23.92578125,0.48828125,-34.66796875,-27.34375,-7.32421875,0.0
76.66796875,-35.64453125,-1.46484375,-28.3203125,-36.1328125,-90.33203125,0.0
76.671875,-53.7109375,-8.30078125,-36.1328125,-45.41015625,-66.89453125,0.0
76.67578125,-57.6171875,-23.4375,-46.875,-59.08203125,-76.171875,0.0
76.6796875,-44.921875,-16.6015625,-37.109375,-45.41015625,-30.76171875,0.0
76.68359375,-45.41015625,-7.8125,-34.1796875,-34.1796875,45.41015625,0.0
76.6875,-51.7578125,-19.04296875,-36.62109375,-35.15625,-16.11328125,0.0
76.69140625,-69.82421875,-21.97265625,-31.25,-38.0859375,-147.4609375,0.0
76.6953125,-85.44921875,-21.484375,-29.78515625,-48.33984375,-197.265625,0.0
76.69921875,-72.265625,-27.34375,-23.4375,-48.828125,-138.18359375,0.0
76.703125,-58.10546875,-29.78515625,-21.484375,-36.62109375,-102.05078125,0.0
76.70703125,-55.17578125,-32.2265625,-23.92578125,-28.80859375,-42.96875,0.0
76.7109375,-69.3359375,-25.87890625,-20.01953125,-33.69140625,-102.5390625,0.0
76.71484375,-89.84375,-24.4140625,-23.4375,-44.43359375,-238.28125,0.0
76.71875,-81.0546875,-31.73828125,-29.78515625,-41.9921875,-188.4765625,0.0
76.72265625,-58.10546875,-31.25,-36.1328125,-41.9921875,-124.51171875,0.0
76.7265625,-58.59375,-28.3203125,-36.62109375,-38.0859375,-122.0703125,0.0
76.73046875,-70.80078125,-26.85546875,-36.1328125,-33.203125,-6.8359375,0.0
76.734375,-84.9609375,-35.15625,-37.109375,-46.38671875,-53.7109375,0.0
76.73828125,-78.61328125,-31.73828125,-36.1328125,-45.41015625,-118.1640625,0.0
76.7421875,-62.5,-21.484375,-29.78515625,-32.71484375,-47.8515625,0.0
76.74609375,-54.19921875,-28.80859375,-19.04296875,-26.3671875,-1.953125,0.0
76.75,-61.5234375,-36.62109375,-14.6484375,-25.390625,111.81640625,0.0
76.75390625,-80.56640625,-34.66796875,-18.5546875,-31.25,158.203125,0.0
76.7578125,-76.171875,-27.83203125,-15.625,-29.78515625,102.05078125,0.0
76.76171875,-44.43359375,-20.5078125,-11.23046875,-25.390625,71.2890625,0.0
76.765625,-33.69140625,-22.94921875,-11.23046875,-15.13671875,61.5234375,0.0
76.76953125,-56.640625,-29.78515625,-12.20703125,-10.25390625,-6.8359375,0.0
76.7734375,-69.3359375,-35.15625,-16.6015625,-38.0859375,0.9765625,0.0
76.77734375,-50.29296875,-32.71484375,-19.04296875,-52.24609375,34.1796875,0.0
76.78125,-36.62109375,-24.4140625,-25.390625,-43.45703125,1.953125,0.0
76.78515625,-25.390625,-23.92578125,-28.80859375,-37.109375,-48.828125,0.0
76.7890625,-31.25,-31.73828125,-24.90234375,-27.83203125,-62.01171875,0.0
76.79296875,-53.22265625,-32.71484375,-24.4140625,-33.203125,-12.6953125,0.0
76.796875,-61.03515625,-34.66796875,-28.3203125,-39.55078125,0.0,0.0
76.80078125,-40.52734375,-32.71484375,-28.80859375,-29.78515625,-28.3203125,0.0
76.8046875,-18.5546875,-26.3671875,-23.92578125,-18.5546875,-0.48828125,0.0
76.80859375,-30.2734375,-26.3671875,-20.5078125,-20.01953125,20.5078125,0.0
76.8125,-52.734375,-32.71484375,-24.90234375,-36.62109375,-23.92578125,0.0
76.81640625,-53.22265625,-32.71484375,-32.71484375,-45.41015625,-26.3671875,0.0
76.8203125,-24.90234375,-24.4140625,-33.69140625,-41.015625,-36.62109375,0.0
76.82421875,-11.23046875,-24.4140625,-27.83203125,-22.4609375,-84.47265625,0.0
76.828125,-20.99609375,-27.83203125,-22.4609375,-19.04296875,-39.55078125,0.0
76.83203125,-43.9453125,-31.73828125,-30.2734375,-46.38671875,20.5078125,0.0
76.8359375,-42.48046875,-29.78515625,-37.109375,-60.546875,50.78125,0.0
76.83984375,-20.5078125,-26.3671875,-33.69140625,-43.45703125,91.796875,0.0
76.84375,-4.8828125,-28.80859375,-34.66796875,-21.97265625,10.7421875,0.0
76.84765625,-23.4375,-30.2734375,-28.80859375,-8.7890625,-51.7578125,0.0
76.8515625,-49.31640625,-25.87890625,-26.85546875,-17.08984375,1.953125,0.0
76.85546875,-43.9453125,-22.4609375,-31.25,-30.2734375,-15.13671875,0.0
76.859375,-25.390625,-29.296875,-31.25,-30.2734375,-14.6484375,0.0
76.86328125,-27.34375,-34.66796875,-27.83203125,-23.92578125,75.1953125,0.0
76.8671875,-41.9921875,-36.1328125,-29.78515625,-23.4375,74.70703125,0.0
76.87109375,-60.05859375,-41.9921875,-39.0625,-29.78515625,60.05859375,0.0
76.875,-69.3359375,-41.9921875,-37.59765625,-39.55078125,25.87890625,0.0
76.87890625,-46.38671875,-33.69140625,-29.78515625,-42.48046875,3.41796875,0.0
76.8828125,-18.5546875,-30.76171875,-29.296875,-26.85546875,48.33984375,0.0
76.88671875,-21.97265625,-38.0859375,-25.87890625,-19.53125,2.44140625,0.0
76.890625,-32.71484375,-36.62109375,-26.85546875,-26.3671875,-31.73828125,0.0
76.89453125,-41.9921875,-34.1796875,-29.78515625,-41.50390625,1.46484375,0.0
76.8984375,-42.96875,-40.52734375,-28.3203125,-41.50390625,-30.2734375,0.0
76.90234375,-29.296875,-42.96875,-25.87890625,-25.390625,-86.9140625,0.0
76.90625,-31.73828125,-45.8984375,-27.34375,-20.99609375,-108.88671875,0.0
76.91015625,-45.8984375,-44.921875,-29.78515625,-28.80859375,-42.96875,0.0
76.9140625,-58.10546875,-43.45703125,-36.62109375,-43.9453125,-24.4140625,0.0
76.91796875,-42.96875,-41.9921875,-36.62109375,-47.8515625,-44.921875,0.0
76.921875,-13.671875,-37.59765625,-31.73828125,-50.29296875,-50.78125,0.0
76.92578125,-5.37109375,-31.73828125,-30.2734375,-44.43359375,-109.86328125,0.0
76.9296875,-12.6953125,-25.390625,-27.34375,-31.25,-82.03125,0.0
76.93359375,-37.109375,-27.83203125,-31.73828125,-44.43359375,7.8125,0.0
76.9375,-52.24609375,-32.2265625,-35.64453125,-49.8046875,-33.69140625,0.0
76.94140625,-21.484375,-33.69140625,-30.2734375,-38.57421875,5.37109375,0.0
76.9453125,-6.34765625,-27.83203125,-24.4140625,-20.01953125,-12.6953125,0.0
76.94921875,-25.87890625,-24.4140625,-34.66796875,-21.484375,-81.54296875,0.0
76.953125,-45.8984375,-27.34375,-46.38671875,-49.31640625,-24.4140625,0.0
76.95703125,-48.828125,-31.25,-41.9921875,-54.19921875,-37.109375,0.0
76.9609375,-23.4375,-25.390625,-37.109375,-38.0859375,-120.60546875,0.0
76.96484375,-19.04296875,-20.99609375,-36.62109375,-26.3671875,-91.30859375,0.0
76.96875,-35.64453125,-34.66796875,-32.71484375,-26.85546875,-100.5859375,0.0
76.97265625,-34.1796875,-32.2265625,-35.64453125,-37.109375,-69.3359375,0.0
76.9765625,-31.25,-28.3203125,-43.9453125,-47.8515625,-26.3671875,0.0
76.98046875,-24.90234375,-34.1796875,-40.0390625,-46.38671875,-77.1484375,0.0
76.984375,-12.6953125,-34.1796875,-31.25,-28.80859375,-139.16015625,0.0
76.98828125,-6.34765625,-27.83203125,-30.2734375,-21.97265625,-141.11328125,0.0
76.9921875,-28.3203125,-17.08984375,-31.25,-27.83203125,-78.125,0.0
76.99609375,-41.9921875,-22.4609375,-33.203125,-38.0859375,-78.125,0.0
77.0,-21.97265625,-34.1796875,-40.0390625,-52.734375,-61.03515625,0.0
77.00390625,-14.6484375,-32.2265625,-36.1328125,-43.9453125,-61.5234375,0.0
77.0078125,-28.3203125,-33.203125,-30.76171875,-32.71484375,-161.62109375,0.0
77.01171875,-57.6171875,-36.62109375,-30.76171875,-41.015625,-270.01953125,0.0
77.015625,-53.7109375,-32.2265625,-30.2734375,-55.17578125,-303.22265625,0.0
77.01953125,-26.85546875,-32.71484375,-36.1328125,-51.26953125,-229.98046875,0.0
77.0234375,-3.90625,-29.296875,-30.2734375,-29.296875,-157.2265625,0.0
77.02734375,4.39453125,-24.4140625,-23.92578125,-27.83203125,-147.4609375,0.0
77.03125,-11.71875,-27.83203125,-30.76171875,-33.69140625,-165.0390625,0.0
77.03515625,-22.4609375,-28.3203125,-30.76171875,-41.9921875,-135.7421875,0.0
77.0390625,-13.671875,-26.3671875,-26.3671875,-48.828125,-113.76953125,0.0
77.04296875,0.9765625,-27.34375,-24.90234375,-33.203125,-162.59765625,0.0
77.046875,-9.765625,-32.2265625,-25.390625,-29.296875,-95.21484375,0.0
77.05078125,-27.83203125,-27.34375,-33.203125,-42.48046875,-99.609375,0.0
77.0546875,-36.1328125,-27.83203125,-32.2265625,-46.38671875,-157.2265625,0.0
77.05859375,-24.90234375,-29.78515625,-27.83203125,-40.52734375,-6.8359375,0.0
77.0625,-3.41796875,-27.34375,-31.73828125,-35.15625,50.29296875,0.0
77.06640625,-8.30078125,-29.296875,-27.83203125,-24.90234375,-6.8359375,0.0
77.0703125,-35.64453125,-37.109375,-23.92578125,-30.2734375,-43.45703125,0.0
77.07421875,-41.9921875,-40.0390625,-27.83203125,-51.7578125,-59.08203125,0.0
77.078125,-27.83203125,-32.71484375,-30.2734375,-53.7109375,-17.08984375,0.0
77.08203125,-19.04296875,-25.87890625,-37.59765625,-46.38671875,-7.32421875,0.0
77.0859375,-21.97265625,-25.390625,-35.15625,-31.73828125,20.5078125,0.0
77.08984375,-35.15625,-30.2734375,-33.203125,-34.1796875,81.54296875,0.0
77.09375,-37.109375,-31.73828125,-41.015625,-57.6171875,86.42578125,0.0
77.09765625,-36.62109375,-32.71484375,-45.41015625,-56.640625,101.5625,0.0
77.1015625,-20.99609375,-27.34375,-40.52734375,-37.59765625,80.078125,0.0
77.10546875,-14.16015625,-24.4140625,-30.2734375,-22.94921875,-2.44140625,0.0
77.109375,-34.1796875,-34.1796875,-34.66796875,-25.390625,-5.859375,0.0
77.11328125,-49.8046875,-41.9921875,-41.50390625,-39.55078125,-39.55078125,0.0
77.1171875,-35.64453125,-31.73828125,-35.15625,-52.24609375,-6.8359375,0.0
77.12109375,-14.16015625,-30.2734375,-31.25,-48.33984375,23.4375,0.0
77.125,-24.4140625,-34.1796875,-25.390625,-27.34375,-89.35546875,0.0
77.12890625,-39.55078125,-34.66796875,-25.87890625,-26.3671875,-61.03515625,0.0
77.1328125,-36.62109375,-35.64453125,-30.76171875,-41.50390625,81.0546875,0.0
77.13671875,-29.78515625,-27.34375,-31.25,-51.26953125,65.4296875,0.0
77.140625,-10.25390625,-24.90234375,-35.64453125,-47.8515625,9.765625,0.0
77.14453125,-7.8125,-36.62109375,-34.1796875,-33.69140625,30.76171875,0.0
77.1484375,-22.94921875,-40.52734375,-28.80859375,-26.85546875,72.265625,0.0
77.15234375,-25.87890625,-35.15625,-32.71484375,-34.66796875,8.7890625,0.0
77.15625,-35.15625,-35.64453125,-35.15625,-42.96875,-70.80078125,0.0
77.16015625,-21.97265625,-33.203125,-28.3203125,-32.2265625,-24.4140625,0.0
77.1640625,-3.41796875,-28.3203125,-21.484375,-13.18359375,-86.42578125,0.0
77.16796875,-8.30078125,-30.76171875,-20.99609375,-8.30078125,-144.53125,0.0
77.171875,-31.25,-35.15625,-25.87890625,-18.5546875,-7.32421875,0.0
77.17578125,-43.45703125,-33.69140625,-28.3203125,-31.25,83.984375,0.0
77.1796875,-25.390625,-26.3671875,-27.34375,-36.1328125,58.59375,0.0
77.18359375,-18.5546875,-32.2265625,-20.99609375,-24.90234375,-5.859375,0.0
77.1875,-30.2734375,-41.50390625,-17.578125,-18.5546875,11.71875,0.0
77.19140625,-39.55078125,-42.48046875,-29.296875,-38.0859375,101.07421875,0.0
77.1953125,-41.015625,-45.8984375,-36.62109375,-52.734375,95.21484375,0.0
77.19921875,-29.78515625,-46.875,-34.1796875,-41.015625,60.546875,0.0
77.203125,-15.625,-42.96875,-30.76171875,-24.4140625,67.3828125,0.0
77.20703125,-21.484375,-38.57421875,-31.25,-22.4609375,11.71875,0.0
77.2109375,-36.62109375,-31.25,-28.80859375,-25.87890625,-21.484375,0.0
77.21484375,-39.55078125,-27.83203125,-28.3203125,-35.15625,-20.01953125,0.0
77.21875,-38.57421875,-39.0625,-23.92578125,-25.87890625,-5.37109375,0.0
77.22265625,-31.25,-46.38671875,-22.4609375,-13.18359375,29.296875,0.0
77.2265625,-15.625,-38.57421875,-19.53125,-5.859375,-16.11328125,0.0
77.23046875,-31.73828125,-36.62109375,-20.5078125,-8.30078125,-96.19140625,0.0
77.234375,-41.9921875,-34.66796875,-31.25,-31.73828125,-28.80859375,0.0
77.23828125,-29.296875,-30.2734375,-32.2265625,-39.0625,10.25390625,0.0
77.2421875,-17.08984375,-28.3203125,-28.80859375,-33.203125,-59.08203125,0.0
77.24609375,-17.578125,-33.69140625,-31.25,-27.83203125,-96.19140625,0.0
77.25,-30.2734375,-37.59765625,-27.83203125,-24.4140625,-68.84765625,0.0
77.25390625,-46.38671875,-36.1328125,-31.73828125,-42.48046875,-47.36328125,0.0
77.2578125,-38.0859375,-38.0859375,-36.1328125,-54.19921875,24.4140625,0.0
77.26171875,-15.13671875,-39.0625,-33.69140625,-47.36328125,73.2421875,0.0
77.265625,-11.71875,-38.0859375,-27.83203125,-38.57421875,22.94921875,0.0
77.26953125,-22.94921875,-35.15625,-20.99609375,-32.2265625,-54.19921875,0.0
77.2734375,-31.73828125,-31.73828125,-18.06640625,-36.62109375,-113.28125,0.0
77.27734375,-35.15625,-33.69140625,-17.08984375,-37.109375,-132.8125,0.0
77.28125,-12.6953125,-36.1328125,-20.01953125,-26.3671875,-101.07421875,0.0
77.28515625,4.39453125,-27.83203125,-17.578125,-20.99609375,-64.94140625,0.0
77.2890625,-22.4609375,-32.71484375,-17.578125,-24.4140625,-86.9140625,0.0
77.29296875,-41.015625,-32.2265625,-26.3671875,-30.2734375,-50.78125,0.0
77.296875,-32.2265625,-27.83203125,-29.296875,-39.0625,-33.69140625,0.0
77.30078125,-21.484375,-32.2265625,-31.25,-39.55078125,-86.9140625,0.0
77.3046875,-16.11328125,-30.76171875,-30.76171875,-27.83203125,-125.48828125,0.0
77.30859375,-26.85546875,-30.76171875,-26.3671875,-24.4140625,-88.8671875,0.0
77.3125,-43.45703125,-40.0390625,-29.78515625,-44.921875,-91.30859375,0.0
77.31640625,-34.66796875,-41.50390625,-35.15625,-60.05859375,-121.09375,0.0
77.3203125,-17.08984375,-31.25,-32.71484375,-46.875,-80.078125,0.0
77.32421875,-11.23046875,-34.1796875,-30.76171875,-29.296875,-63.96484375,0.0
77.328125,-33.203125,-44.921875,-28.80859375,-27.34375,-89.35546875,0.0
77.33203125,-50.78125,-39.0625,-34.66796875,-41.015625,-19.53125,0.0
77.3359375,-53.22265625,-36.62109375,-36.1328125,-47.8515625,-13.18359375,0.0
77.33984375,-38.0859375,-41.015625,-28.80859375,-30.76171875,-99.12109375,0.0
77.34375,-22.4609375,-33.69140625,-25.390625,-20.5078125,-95.703125,0.0
77.34765625,-31.25,-34.1796875,-17.578125,-23.92578125,-99.609375,0.0
77.3515625,-52.734375,-43.45703125,-20.01953125,-41.50390625,-109.375,0.0
77.35546875,-53.7109375,-39.55078125,-26.85546875,-44.921875,-151.85546875,0.0
77.359375,-24.4140625,-38.0859375,-28.80859375,-33.203125,-41.9921875,0.0
77.36328125,-1.46484375,-24.4140625,-30.2734375,-28.3203125,22.4609375,0.0
77.3671875,-5.859375,-17.578125,-23.4375,-17.08984375,0.48828125,0.0
77.37109375,-17.08984375,-28.3203125,-21.484375,-19.53125,2.9296875,0.0
77.375,-18.5546875,-30.76171875,-35.15625,-37.59765625,3.41796875,0.0
77.37890625,-19.04296875,-29.78515625,-38.57421875,-41.015625,32.71484375,0.0
77.3828125,-14.6484375,-33.203125,-30.76171875,-28.3203125,36.62109375,0.0
77.38671875,-7.8125,-34.66796875,-28.3203125,-15.625,142.08984375,0.0
77.390625,-35.15625,-30.76171875,-29.78515625,-23.4375,142.08984375,0.0
77.39453125,-49.31640625,-24.4140625,-32.2265625,-43.9453125,44.43359375,0.0
77.3984375,-20.01953125,-21.97265625,-30.2734375,-48.33984375,34.1796875,0.0
77.40234375,-1.46484375,-20.5078125,-25.390625,-27.83203125,46.38671875,0.0
77.40625,-21.97265625,-23.4375,-23.92578125,-17.578125,13.671875,0.0
77.41015625,-36.62109375,-22.4609375,-26.85546875,-34.1796875,-27.83203125,0.0
77.4140625,-41.9921875,-19.53125,-27.34375,-44.43359375,55.6640625,0.0
77.41796875,-39.55078125,-22.4609375,-24.90234375,-40.0390625,79.58984375,0.0
77.421875,-31.73828125,-25.390625,-28.80859375,-47.8515625,38.57421875,0.0
77.42578125,-44.43359375,-31.25,-31.73828125,-47.36328125,46.38671875,0.0
77.4296875,-48.828125,-31.73828125,-29.296875,-37.109375,15.625,0.0
77.43359375,-59.08203125,-24.4140625,-26.85546875,-43.45703125,52.24609375,0.0
77.4375,-57.12890625,-28.3203125,-31.25,-57.12890625,6.34765625,0.0
77.44140625,-29.296875,-31.25,-33.69140625,-56.15234375,-41.015625,0.0
77.4453125,-19.04296875,-27.83203125,-33.69140625,-42.48046875,12.20703125,0.0
77.44921875,-35.15625,-25.390625,-28.3203125,-36.1328125,10.25390625,0.0
77.453125,-53.22265625,-28.3203125,-31.25,-47.8515625,-45.41015625,0.0
77.45703125,-56.15234375,-33.203125,-42.48046875,-56.640625,-87.40234375,0.0
77.4609375,-26.3671875,-28.80859375,-37.59765625,-46.875,-71.77734375,0.0
77.46484375,-20.01953125,-20.5078125,-29.78515625,-29.296875,-84.47265625,0.0
77.46875,-46.875,-26.85546875,-30.76171875,-33.69140625,-4.39453125,0.0
77.47265625,-49.31640625,-28.80859375,-36.1328125,-37.59765625,117.67578125,0.0
77.4765625,-39.55078125,-17.578125,-34.1796875,-40.0390625,51.7578125,0.0
77.48046875,-23.4375,-19.53125,-29.78515625,-46.875,-113.76953125,0.0
77.484375,-14.6484375,-23.92578125,-29.78515625,-41.9921875,-120.60546875,0.0
77.48828125,-28.3203125,-19.04296875,-35.64453125,-41.50390625,5.859375,0.0
77.4921875,-49.31640625,-16.11328125,-38.57421875,-42.96875,0.9765625,0.0
77.49609375,-56.640625,-20.5078125,-34.1796875,-49.8046875,-103.515625,0.0
77.5,-39.55078125,-19.53125,-35.15625,-58.10546875,-88.37890625,0.0
77.50390625,-23.92578125,-15.625,-32.2265625,-41.9921875,-14.6484375,0.0
77.5078125,-19.53125,-10.7421875,-32.71484375,-34.66796875,18.5546875,0.0
77.51171875,-33.69140625,-8.30078125,-34.1796875,-45.8984375,19.53125,0.0
77.515625,-37.59765625,-21.484375,-34.66796875,-47.8515625,-59.5703125,0.0
77.51953125,-21.97265625,-25.390625,-36.1328125,-45.41015625,-72.75390625,0.0
77.5234375,-9.765625,-22.4609375,-31.73828125,-35.15625,-22.4609375,0.0
77.52734375,-20.99609375,-23.4375,-30.2734375,-25.87890625,12.6953125,0.0
77.53125,-58.59375,-20.01953125,-37.109375,-41.50390625,-19.04296875,0.0
77.53515625,-67.3828125,-20.01953125,-38.0859375,-50.29296875,-106.4453125,0.0
77.5390625,-38.0859375,-22.94921875,-32.71484375,-41.9921875,-81.0546875,0.0
77.54296875,-27.34375,-28.3203125,-29.296875,-30.76171875,-69.3359375,0.0
77.546875,-37.109375,-28.3203125,-28.80859375,-17.578125,-94.7265625,0.0
77.55078125,-41.9921875,-23.4375,-25.390625,-26.3671875,-78.61328125,0.0
77.5546875,-41.9921875,-18.06640625,-20.99609375,-35.64453125,-41.9921875,0.0
77.55859375,-25.87890625,-20.5078125,-26.3671875,-30.2734375,-35.15625,0.0
77.5625,-3.41796875,-29.78515625,-28.80859375,-27.34375,-28.80859375,0.0
77.56640625,-19.53125,-32.71484375,-22.94921875,-24.4140625,9.27734375,0.0
77.5703125,-47.8515625,-30.76171875,-21.484375,-35.15625,27.83203125,0.0
77.57421875,-48.828125,-27.83203125,-29.296875,-53.7109375,64.94140625,0.0
77.578125,-41.9921875,-23.92578125,-36.62109375,-56.15234375,57.12890625,0.0
77.58203125,-33.69140625,-20.01953125,-31.25,-45.8984375,83.984375,0.0
77.5859375,-33.203125,-19.53125,-28.80859375,-34.66796875,93.26171875,0.0
77.58984375,-44.921875,-22.4609375,-33.69140625,-38.57421875,72.265625,0.0
77.59375,-67.87109375,-28.3203125,-41.015625,-54.19921875,61.5234375,0.0
77.59765625,-85.9375,-30.2734375,-38.0859375,-55.6640625,19.53125,0.0
77.6015625,-72.75390625,-28.80859375,-33.203125,-41.015625,-86.42578125,0.0
77.60546875,-73.2421875,-25.87890625,-26.3671875,-25.87890625,-103.515625,0.0
77.609375,-92.7734375,-28.80859375,-23.4375,-20.5078125,-14.6484375,0.0
77.61328125,-120.1171875,-33.203125,-23.92578125,-26.85546875,-22.94921875,0.0
77.6171875,-132.32421875,-28.3203125,-22.94921875,-39.55078125,-64.453125,0.0
77.62109375,-119.62890625,-28.80859375,-30.76171875,-40.0390625,-30.2734375,0.0
77.625,-113.76953125,-35.15625,-29.78515625,-33.69140625,20.5078125,0.0
77.62890625,-142.578125,-43.9453125,-28.80859375,-30.76171875,-74.70703125,0.0
77.6328125,-157.71484375,-51.26953125,-31.73828125,-41.9921875,-44.43359375,0.0
77.63671875,-154.78515625,-55.17578125,-35.15625,-53.7109375,37.109375,0.0
77.640625,-145.99609375,-57.12890625,-35.15625,-43.45703125,38.57421875,0.0
77.64453125,-149.4140625,-55.6640625,-35.64453125,-36.62109375,30.76171875,0.0
77.6484375,-154.78515625,-56.15234375,-38.0859375,-32.71484375,-8.7890625,0.0
77.65234375,-155.2734375,-56.15234375,-40.52734375,-39.0625,-36.1328125,0.0
77.65625,-155.2734375,-61.03515625,-41.9921875,-55.6640625,-39.0625,0.0
77.66015625,-134.765625,-59.5703125,-39.0625,-47.36328125,-25.87890625,0.0
77.6640625,-118.1640625,-66.89453125,-37.109375,-26.3671875,-36.62109375,0.0
77.66796875,-113.76953125,-73.2421875,-31.73828125,-21.484375,-39.55078125,0.0
77.671875,-109.375,-65.4296875,-28.3203125,-30.2734375,-109.375,0.0
77.67578125,-95.21484375,-58.59375,-27.34375,-39.0625,-146.484375,0.0
77.6796875,-72.75390625,-65.4296875,-29.296875,-43.9453125,-78.61328125,0.0
77.68359375,-28.80859375,-70.3125,-29.296875,-33.203125,-21.97265625,0.0
77.6875,-15.625,-71.77734375,-30.76171875,-23.4375,-64.94140625,0.0
77.69140625,-9.27734375,-62.98828125,-29.296875,-28.3203125,-54.19921875,0.0
77.6953125,28.3203125,-55.6640625,-26.85546875,-35.64453125,-36.1328125,0.0
77.69921875,41.015625,-60.05859375,-31.25,-35.64453125,-11.23046875,0.0
77.703125,46.38671875,-57.12890625,-33.69140625,-26.85546875,16.6015625,0.0
77.70703125,64.94140625,-55.6640625,-32.71484375,-20.5078125,-38.57421875,0.0
77.7109375,48.33984375,-58.59375,-31.73828125,-26.3671875,-16.6015625,0.0
77.71484375,45.8984375,-55.17578125,-31.25,-39.55078125,-18.06640625,0.0
77.71875,94.23828125,-44.43359375,-34.66796875,-36.62109375,-144.53125,0.0
77.72265625,121.09375,-38.0859375,-40.0390625,-30.76171875,-135.25390625,0.0
77.7265625,106.93359375,-41.9921875,-31.25,-19.04296875,-22.4609375,0.0
77.73046875,90.33203125,-34.66796875,-26.3671875,-19.53125,-3.41796875,0.0
77.734375,79.1015625,-30.2734375,-35.64453125,-31.73828125,-55.6640625,0.0
77.73828125,105.95703125,-31.73828125,-36.1328125,-38.0859375,-22.4609375,0.0
77.7421875,137.20703125,-23.4375,-30.76171875,-35.64453125,12.20703125,0.0
77.74609375,131.8359375,-18.06640625,-31.25,-23.92578125,-42.48046875,0.0
77.75,94.23828125,-24.4140625,-38.57421875,-32.2265625,-68.359375,0.0
77.75390625,77.1484375,-27.34375,-41.015625,-48.828125,-169.921875,0.0
77.7578125,79.58984375,-29.296875,-32.71484375,-43.9453125,-260.7421875,0.0
77.76171875,109.86328125,-22.4609375,-26.3671875,-35.15625,-225.09765625,0.0
77.765625,126.953125,-14.16015625,-29.296875,-26.85546875,-87.40234375,0.0
77.76953125,90.33203125,-11.71875,-29.78515625,-21.97265625,16.6015625,0.0
77.7734375,56.15234375,-7.8125,-30.76171875,-27.83203125,25.390625,0.0
77.77734375,68.84765625,-20.01953125,-33.69140625,-36.1328125,3.90625,0.0
77.78125,110.83984375,-23.4375,-38.0859375,-34.66796875,-8.7890625,0.0
77.78515625,104.98046875,-15.625,-33.69140625,-22.94921875,7.8125,0.0
77.7890625,67.87109375,-18.06640625,-29.78515625,-23.4375,-27.34375,0.0
77.79296875,52.24609375,-22.4609375,-31.73828125,-36.1328125,-27.83203125,0.0
77.796875,56.15234375,-34.1796875,-29.78515625,-48.828125,-25.390625,0.0
77.80078125,73.2421875,-39.55078125,-28.80859375,-43.9453125,-17.578125,0.0
77.8046875,76.66015625,-32.2265625,-29.78515625,-29.296875,15.625,0.0
77.80859375,56.640625,-27.83203125,-28.80859375,-22.94921875,-7.8125,0.0
77.8125,33.203125,-30.2734375,-33.203125,-31.73828125,-66.89453125,0.0
77.81640625,42.96875,-20.99609375,-40.0390625,-53.22265625,-109.86328125,0.0
77.8203125,58.59375,-27.83203125,-35.15625,-56.640625,-29.296875,0.0
77.82421875,60.05859375,-31.73828125,-26.3671875,-41.50390625,67.87109375,0.0
77.828125,45.8984375,-21.484375,-21.484375,-29.78515625,34.1796875,0.0
77.83203125,25.390625,-25.87890625,-20.01953125,-31.73828125,47.36328125,0.0
77.8359375,19.04296875,-24.4140625,-22.94921875,-39.55078125,16.11328125,0.0
77.83984375,44.43359375,-12.20703125,-20.99609375,-36.62109375,-9.765625,0.0
77.84375,61.03515625,-19.04296875,-21.97265625,-29.78515625,-31.73828125,0.0
77.84765625,25.87890625,-29.296875,-30.76171875,-26.85546875,-83.0078125,0.0
77.8515625,-3.90625,-29.78515625,-33.203125,-33.203125,-46.38671875,0.0
77.85546875,-6.34765625,-28.80859375,-33.203125,-47.8515625,-3.41796875,0.0
77.859375,14.6484375,-24.4140625,-34.1796875,-43.45703125,59.5703125,0.0
77.86328125,31.25,-14.16015625,-28.80859375,-20.99609375,63.4765625,0.0
77.8671875,7.32421875,-23.92578125,-21.484375,-9.765625,11.71875,0.0
77.87109375,-13.18359375,-38.0859375,-18.5546875,-20.99609375,-40.0390625,0.0
77.875,-4.39453125,-37.59765625,-18.5546875,-43.9453125,-29.296875,0.0
77.87890625,1.46484375,-31.25,-23.4375,-42.96875,-22.94921875,0.0
77.8828125,12.20703125,-19.04296875,-21.484375,-22.94921875,-65.91796875,0.0
77.88671875,1.953125,-20.01953125,-15.625,-20.5078125,21.484375,0.0
77.890625,-40.52734375,-39.0625,-25.390625,-32.2265625,13.18359375,0.0
77.89453125,-55.6640625,-44.921875,-31.73828125,-43.45703125,-170.8984375,0.0
77.8984375,-36.1328125,-45.41015625,-27.83203125,-48.828125,-198.2421875,0.0
77.90234375,3.90625,-37.59765625,-20.99609375,-31.73828125,-191.40625,0.0
77.90625,18.5546875,-32.2265625,-19.04296875,-12.6953125,-184.5703125,0.0
77.91015625,-16.11328125,-27.34375,-23.92578125,-19.53125,-168.45703125,0.0
77.9140625,-45.8984375,-21.97265625,-24.4140625,-38.0859375,-190.91796875,0.0
77.91796875,-30.2734375,-27.83203125,-27.34375,-42.96875,-195.3125,0.0
77.921875,1.46484375,-22.94921875,-33.203125,-38.0859375,-82.51953125,0.0
77.92578125,7.32421875,-9.765625,-32.71484375,-30.2734375,68.359375,0.0
77.9296875,-18.5546875,-7.8125,-29.78515625,-29.296875,44.43359375,0.0
77.93359375,-45.8984375,-16.11328125,-30.76171875,-41.015625,-2.9296875,0.0
77.9375,-27.83203125,-20.01953125,-34.1796875,-49.31640625,45.41015625,0.0
77.94140625,4.39453125,-12.20703125,-32.2265625,-43.9453125,67.87109375,0.0
77.9453125,10.7421875,-10.25390625,-26.3671875,-27.34375,-1.46484375,0.0
77.94921875,-17.08984375,-14.16015625,-23.92578125,-20.5078125,5.859375,0.0
77.953125,-46.38671875,-24.90234375,-32.2265625,-43.45703125,-8.7890625,0.0
77.95703125,-31.25,-28.80859375,-33.203125,-56.15234375,-27.34375,0.0
77.9609375,-2.9296875,-23.4375,-29.296875,-43.45703125,61.03515625,0.0
77.96484375,0.9765625,-20.01953125,-34.1796875,-37.109375,96.19140625,0.0
77.96875,-14.6484375,-20.01953125,-38.0859375,-32.71484375,53.7109375,0.0
77.97265625,-40.0390625,-23.4375,-34.1796875,-33.69140625,46.38671875,0.0
77.9765625,-46.875,-23.92578125,-33.69140625,-46.875,-16.11328125,0.0
77.98046875,-14.6484375,-26.3671875,-41.9921875,-47.36328125,-14.16015625,0.0
77.984375,-5.37109375,-28.3203125,-42.96875,-38.57421875,38.57421875,0.0
77.98828125,-33.69140625,-28.3203125,-38.57421875,-34.66796875,23.92578125,0.0
77.9921875,-55.6640625,-34.1796875,-40.0390625,-42.48046875,38.0859375,0.0
77.99609375,-41.50390625,-28.80859375,-39.55078125,-55.17578125,43.9453125,0.0
78.0,-6.34765625,-26.3671875,-37.59765625,-49.8046875,-6.34765625,0.0
78.00390625,9.765625,-27.34375,-38.57421875,-34.66796875,-43.45703125,0.0
78.0078125,-0.48828125,-19.53125,-36.1328125,-31.73828125,-29.296875,0.0
78.01171875,-28.3203125,-20.5078125,-35.15625,-42.96875,-3.41796875,0.0
78.015625,-19.53125,-25.390625,-32.71484375,-42.48046875,46.875,0.0
78.01953125,0.0,-25.390625,-30.76171875,-37.109375,71.2890625,0.0
78.0234375,0.0,-29.296875,-29.296875,-33.203125,32.2265625,0.0
78.02734375,-16.11328125,-31.73828125,-25.87890625,-23.92578125,36.62109375,0.0
78.03125,-52.734375,-35.64453125,-33.203125,-33.69140625,14.16015625,0.0
78.03515625,-42.96875,-35.15625,-40.0390625,-53.7109375,13.671875,0.0
78.0390625,-9.765625,-39.0625,-31.25,-47.36328125,26.3671875,0.0
78.04296875,-3.41796875,-39.0625,-26.85546875,-24.4140625,13.671875,0.0
78.046875,-14.16015625,-36.62109375,-31.25,-18.5546875,-26.85546875,0.0
78.05078125,-45.8984375,-42.48046875,-29.78515625,-31.25,-58.59375,0.0
78.0546875,-48.828125,-37.109375,-35.64453125,-50.29296875,-45.8984375,0.0
78.05859375,-24.4140625,-31.73828125,-36.1328125,-48.828125,-102.05078125,0.0
78.0625,-2.9296875,-26.85546875,-28.80859375,-34.66796875,-113.76953125,0.0
78.06640625,-1.953125,-26.3671875,-30.76171875,-31.73828125,-26.85546875,0.0
78.0703125,-39.0625,-32.71484375,-30.2734375,-37.109375,-8.7890625,0.0
78.07421875,-60.546875,-33.69140625,-34.66796875,-48.33984375,-78.125,0.0
78.078125,-38.0859375,-34.66796875,-36.62109375,-49.31640625,-91.30859375,0.0
78.08203125,-20.5078125,-35.15625,-29.296875,-40.52734375,-11.71875,0.0
78.0859375,-20.5078125,-34.66796875,-29.296875,-34.1796875,42.48046875,0.0
78.08984375,-45.41015625,-40.0390625,-25.390625,-20.5078125,-4.8828125,0.0
78.09375,-73.73046875,-42.48046875,-29.78515625,-36.1328125,-86.9140625,0.0
78.09765625,-53.7109375,-31.25,-40.52734375,-53.7109375,-28.3203125,0.0
78.1015625,-17.08984375,-26.85546875,-34.66796875,-34.1796875,58.59375,0.0
78.10546875,-14.6484375,-30.2734375,-32.2265625,-20.01953125,41.015625,0.0
78.109375,-48.828125,-32.71484375,-31.25,-28.80859375,34.66796875,0.0
78.11328125,-71.77734375,-27.83203125,-37.59765625,-43.9453125,6.34765625,0.0
78.1171875,-43.9453125,-24.4140625,-37.109375,-44.921875,-8.30078125,0.0
78.12109375,-14.16015625,-19.04296875,-28.80859375,-33.203125,39.0625,0.0
78.125,-17.578125,-23.4375,-29.296875,-28.80859375,-16.6015625,0.0
78.12890625,-44.921875,-26.3671875,-29.296875,-34.66796875,-39.0625,0.0
78.1328125,-67.87109375,-27.83203125,-34.1796875,-45.41015625,-66.89453125,0.0
78.13671875,-46.875,-27.83203125,-35.64453125,-51.7578125,-75.68359375,0.0
78.140625,-22.94921875,-25.87890625,-32.2265625,-37.109375,-14.16015625,0.0
78.14453125,-23.92578125,-27.34375,-31.25,-18.5546875,7.8125,0.0
78.1484375,-37.59765625,-28.3203125,-31.73828125,-12.6953125,-47.36328125,0.0
78.15234375,-54.19921875,-31.73828125,-36.1328125,-27.83203125,-68.84765625,0.0
78.15625,-43.45703125,-29.296875,-36.62109375,-50.29296875,51.7578125,0.0
78.16015625,-12.6953125,-22.4609375,-32.2265625,-40.52734375,96.6796875,0.0
78.1640625,3.41796875,-18.5546875,-29.78515625,-23.4375,42.48046875,0.0
78.16796875,-14.16015625,-20.99609375,-25.390625,-9.765625,-67.87109375,0.0
78.171875,-48.828125,-27.83203125,-33.203125,-21.484375,-114.2578125,0.0
78.17578125,-61.03515625,-41.015625,-41.9921875,-42.96875,-138.18359375,0.0
78.1796875,-25.390625,-42.96875,-37.109375,-35.15625,-90.8203125,0.0
78.18359375,-12.20703125,-37.59765625,-28.3203125,-22.94921875,-12.20703125,0.0
78.1875,-35.15625,-39.0625,-30.2734375,-17.08984375,-81.54296875,0.0
78.19140625,-52.24609375,-41.9921875,-38.0859375,-18.5546875,-188.4765625,0.0
78.1953125,-57.6171875,-48.33984375,-37.59765625,-28.3203125,-128.90625,0.0
78.19921875,-31.73828125,-42.96875,-32.2265625,-35.15625,-15.625,0.0
78.203125,-12.6953125,-35.64453125,-32.2265625,-33.69140625,31.73828125,0.0
78.20703125,-28.80859375,-37.59765625,-32.71484375,-29.78515625,31.73828125,0.0
78.2109375,-60.546875,-34.66796875,-30.2734375,-31.73828125,26.85546875,0.0
78.21484375,-70.80078125,-37.59765625,-28.3203125,-34.66796875,-3.90625,0.0
78.21875,-40.0390625,-44.43359375,-25.390625,-47.36328125,12.20703125,0.0
78.22265625,-24.4140625,-45.8984375,-28.80859375,-50.29296875,35.15625,0.0
78.2265625,-33.69140625,-44.43359375,-32.2265625,-34.66796875,-39.55078125,0.0
78.23046875,-49.8046875,-39.0625,-24.4140625,-21.484375,-57.6171875,0.0
78.234375,-64.453125,-43.9453125,-20.01953125,-34.66796875,-97.16796875,0.0
78.23828125,-52.734375,-50.29296875,-29.78515625,-44.921875,-166.015625,0.0
78.2421875,-10.25390625,-48.33984375,-33.203125,-33.69140625,-56.15234375,0.0
78.24609375,-0.9765625,-43.45703125,-28.80859375,-18.06640625,37.109375,0.0
78.25,-41.50390625,-46.875,-28.3203125,-16.6015625,-6.8359375,0.0
78.25390625,-51.26953125,-43.9453125,-31.25,-33.203125,-31.73828125,0.0
78.2578125,-26.85546875,-34.66796875,-35.15625,-37.59765625,-0.9765625,0.0
78.26171875,9.765625,-34.1796875,-34.1796875,-25.390625,38.57421875,0.0
78.265625,21.97265625,-42.96875,-33.203125,-14.6484375,-32.71484375,0.0
78.26953125,-9.27734375,-46.875,-35.64453125,-25.390625,-45.41015625,0.0
78.2734375,-1.953125,-38.57421875,-39.55078125,-55.6640625,-38.57421875,0.0
78.27734375,37.59765625,-36.1328125,-36.62109375,-65.4296875,-97.16796875,0.0
78.28125,60.05859375,-34.1796875,-31.73828125,-49.8046875,-71.77734375,0.0
78.28515625,74.70703125,-25.390625,-30.2734375,-37.109375,-9.27734375,0.0
78.2890625,68.84765625,-23.92578125,-32.2265625,-35.64453125,-42.48046875,0.0
78.29296875,44.921875,-34.66796875,-29.78515625,-42.48046875,-65.4296875,0.0
78.296875,40.0390625,-39.55078125,-32.71484375,-60.05859375,-101.5625,0.0
78.30078125,69.3359375,-34.66796875,-38.0859375,-62.98828125,-31.25,0.0
78.3046875,89.84375,-28.80859375,-35.15625,-50.78125,40.0390625,0.0
78.30859375,57.6171875,-31.25,-34.66796875,-49.8046875,-7.8125,0.0
78.3125,19.53125,-33.69140625,-37.59765625,-53.22265625,-2.44140625,0.0
78.31640625,29.78515625,-29.78515625,-39.55078125,-62.5,-7.8125,0.0
78.3203125,60.05859375,-29.296875,-42.96875,-55.17578125,-31.25,0.0
78.32421875,73.73046875,-26.85546875,-40.0390625,-29.78515625,34.1796875,0.0
78.328125,51.7578125,-35.15625,-33.203125,-24.4140625,63.96484375,0.0
78.33203125,-34.66796875,-36.1328125,-32.2265625,-45.41015625,59.08203125,0.0
78.3359375,-35.15625,-34.66796875,-35.64453125,-61.03515625,26.3671875,0.0
78.33984375,-45.41015625,-31.73828125,-38.57421875,-57.6171875,-18.06640625,0.0
78.34375,-51.26953125,-28.80859375,-39.0625,-41.9921875,-23.92578125,0.0
78.34765625,-39.55078125,-32.2265625,-31.25,-25.390625,-76.66015625,0.0
78.3515625,-23.92578125,-26.3671875,-28.3203125,-26.85546875,-63.4765625,0.0
78.35546875,-17.08984375,-22.94921875,-30.2734375,-38.57421875,-55.17578125,0.0
78.359375,-19.53125,-28.3203125,-28.80859375,-33.203125,-52.734375,0.0
78.36328125,-32.2265625,-24.4140625,-31.73828125,-19.53125,30.76171875,0.0
78.3671875,-38.57421875,-25.87890625,-34.66796875,-19.53125,-8.30078125,0.0
78.37109375,-21.97265625,-35.15625,-27.34375,-28.80859375,-29.78515625,0.0
78.375,-14.6484375,-35.15625,-29.296875,-40.0390625,-40.52734375,0.0
78.37890625,-5.859375,-31.25,-35.15625,-42.48046875,-83.0078125,0.0
78.3828125,16.6015625,-30.76171875,-31.73828125,-31.25,-110.83984375,0.0
78.38671875,6.34765625,-28.3203125,-25.87890625,-18.06640625,-115.72265625,0.0
78.390625,-22.4609375,-30.76171875,-30.76171875,-23.92578125,-89.35546875,0.0
78.39453125,-37.59765625,-34.1796875,-34.1796875,-35.15625,-158.69140625,0.0
78.3984375,-13.18359375,-29.78515625,-31.73828125,-37.109375,-162.109375,0.0
78.40234375,16.6015625,-19.53125,-35.64453125,-37.59765625,-95.703125,0.0
78.40625,13.18359375,-19.04296875,-34.1796875,-30.76171875,-52.734375,0.0
78.41015625,-15.13671875,-28.80859375,-27.83203125,-35.15625,-19.04296875,0.0
78.4140625,-31.25,-30.2734375,-32.2265625,-45.41015625,-26.3671875,0.0
78.41796875,-15.625,-28.3203125,-33.69140625,-43.45703125,-51.7578125,0.0
78.421875,3.41796875,-24.4140625,-31.25,-35.15625,-22.4609375,0.0
78.42578125,-4.8828125,-28.3203125,-34.1796875,-23.92578125,24.90234375,0.0
78.4296875,-41.9921875,-33.203125,-36.62109375,-25.87890625,-7.32421875,0.0
78.43359375,-55.6640625,-29.78515625,-30.76171875,-33.203125,-100.09765625,0.0
78.4375,-29.296875,-32.2265625,-30.76171875,-39.0625,-114.74609375,0.0
78.44140625,-1.46484375,-33.69140625,-33.203125,-32.2265625,-31.73828125,0.0
78.4453125,8.7890625,-24.90234375,-26.3671875,-15.13671875,31.73828125,0.0
78.44921875,-16.6015625,-22.4609375,-28.80859375,-19.04296875,59.08203125,0.0
78.453125,-44.43359375,-22.4609375,-32.2265625,-29.78515625,49.31640625,0.0
78.45703125,-37.109375,-27.34375,-29.78515625,-41.015625,41.9921875,0.0
78.4609375,-19.04296875,-23.4375,-36.62109375,-47.8515625,40.0390625,0.0
78.46484375,0.48828125,-11.23046875,-36.62109375,-27.83203125,-1.46484375,0.0
78.46875,-7.8125,-6.34765625,-32.2265625,-26.85546875,-14.6484375,0.0
78.47265625,-40.0390625,-1.46484375,-36.1328125,-43.45703125,-42.96875,0.0
78.4765625,-30.2734375,-1.953125,-34.1796875,-46.875,-29.78515625,0.0
78.48046875,10.25390625,0.0,-28.3203125,-44.43359375,5.859375,0.0
78.484375,15.625,4.8828125,-23.92578125,-32.2265625,6.8359375,0.0
78.48828125,-10.7421875,3.41796875,-24.90234375,-34.1796875,2.44140625,0.0
78.4921875,-41.9921875,-3.41796875,-25.390625,-47.36328125,-59.5703125,0.0
78.49609375,-40.0390625,-7.8125,-21.97265625,-53.7109375,16.6015625,0.0
78.5,-7.32421875,-13.671875,-28.80859375,-59.08203125,25.87890625,0.0
78.50390625,5.859375,-6.34765625,-34.1796875,-45.8984375,-82.51953125,0.0
78.5078125,-15.625,0.48828125,-25.390625,-25.390625,-45.41015625,0.0
78.51171875,-42.48046875,-9.27734375,-23.4375,-39.55078125,-49.31640625,0.0
78.515625,-40.52734375,-17.08984375,-24.90234375,-51.7578125,-64.94140625,0.0
78.51953125,-10.7421875,-13.18359375,-29.78515625,-41.9921875,7.8125,0.0
78.5234375,6.34765625,-5.859375,-33.69140625,-27.34375,49.8046875,0.0
78.52734375,-8.7890625,-4.39453125,-25.390625,-22.94921875,20.99609375,0.0
78.53125,-41.015625,-13.18359375,-25.87890625,-30.76171875,26.85546875,0.0
78.53515625,-37.109375,-16.6015625,-36.62109375,-43.45703125,-45.8984375,0.0
78.5390625,-15.625,-10.7421875,-39.0625,-48.33984375,-81.54296875,0.0
78.54296875,-1.953125,-13.671875,-26.85546875,-32.71484375,-65.4296875,0.0
78.546875,-20.01953125,-20.99609375,-26.85546875,-24.4140625,-99.12109375,0.0
78.55078125,-50.78125,-19.53125,-36.62109375,-35.15625,-52.24609375,0.0
78.5546875,-39.55078125,-19.53125,-35.15625,-43.9453125,10.25390625,0.0
78.55859375,-5.37109375,-17.08984375,-31.73828125,-48.33984375,52.24609375,0.0
78.5625,7.8125,-17.578125,-29.78515625,-25.87890625,2.44140625,0.0
78.56640625,-4.39453125,-17.578125,-29.296875,-11.71875,-13.671875,0.0
78.5703125,-40.52734375,-25.87890625,-28.80859375,-23.4375,24.90234375,0.0
78.57421875,-54.6875,-31.73828125,-30.2734375,-39.55078125,-33.69140625,0.0
78.578125,-25.390625,-32.2265625,-34.1796875,-52.734375,-209.9609375,0.0
78.58203125,-4.8828125,-32.2265625,-27.83203125,-39.55078125,-164.55078125,0.0
78.5859375,-16.6015625,-27.34375,-22.94921875,-19.04296875,-55.6640625,0.0
78.58984375,-34.1796875,-31.25,-23.92578125,-24.4140625,-37.59765625,0.0
78.59375,-51.26953125,-37.109375,-27.34375,-44.43359375,-69.82421875,0.0
78.59765625,-45.8984375,-36.62109375,-32.71484375,-54.6875,-142.578125,0.0
78.6015625,-20.99609375,-26.3671875,-27.83203125,-42.96875,-160.64453125,0.0
78.60546875,-26.3671875,-25.390625,-24.4140625,-15.13671875,-97.16796875,0.0
78.609375,-54.6875,-35.64453125,-27.83203125,-16.11328125,-83.49609375,0.0
78.61328125,-63.4765625,-35.15625,-32.71484375,-47.8515625,-16.6015625,0.0
78.6171875,-37.59765625,-35.15625,-37.59765625,-58.10546875,-65.91796875,0.0
78.62109375,-0.48828125,-28.80859375,-30.2734375,-39.0625,-117.1875,0.0
78.625,-15.625,-22.94921875,-16.11328125,-14.6484375,-106.4453125,0.0
78.62890625,-54.6875,-24.90234375,-19.04296875,-15.625,-120.60546875,0.0
78.6328125,-47.8515625,-24.4140625,-24.90234375,-38.57421875,-76.171875,0.0
78.63671875,-25.390625,-20.5078125,-28.80859375,-51.26953125,-82.51953125,0.0
78.640625,-14.6484375,-20.99609375,-26.85546875,-48.33984375,-65.91796875,0.0
78.64453125,0.0,-13.671875,-19.53125,-32.71484375,17.08984375,0.0
78.6484375,-16.11328125,-9.765625,-19.04296875,-16.6015625,-18.06640625,0.0
78.65234375,-49.31640625,-9.27734375,-23.92578125,-31.25,-44.921875,0.0
78.65625,-38.57421875,-2.9296875,-27.34375,-54.6875,10.7421875,0.0
78.66015625,0.9765625,-3.90625,-24.90234375,-43.9453125,4.8828125,0.0
78.6640625,0.48828125,-10.25390625,-16.6015625,-19.53125,-11.71875,0.0
78.66796875,-30.2734375,-6.34765625,-8.7890625,-4.8828125,-0.9765625,0.0
78.671875,-45.8984375,-8.7890625,-17.578125,-11.71875,-41.50390625,0.0
78.67578125,-35.15625,-18.06640625,-28.3203125,-40.52734375,-50.78125,0.0
78.6796875,-10.25390625,-9.27734375,-24.4140625,-45.41015625,-62.01171875,0.0
78.68359375,1.953125,-8.7890625,-18.06640625,-22.4609375,-107.91015625,0.0
78.6875,-19.53125,-17.578125,-19.53125,-14.6484375,-72.75390625,0.0
78.69140625,-53.7109375,-17.578125,-25.87890625,-38.0859375,18.06640625,0.0
78.6953125,-44.43359375,-18.06640625,-32.2265625,-68.84765625,-17.578125,0.0
78.69921875,-17.08984375,-18.5546875,-36.1328125,-69.3359375,-81.0546875,0.0
78.703125,-0.9765625,-14.6484375,-30.2734375,-36.1328125,-62.5,0.0
78.70703125,-10.25390625,-13.18359375,-29.296875,-20.99609375,-41.9921875,0.0
78.7109375,-45.8984375,-22.4609375,-34.1796875,-35.15625,-48.828125,0.0
78.71484375,-55.17578125,-31.73828125,-40.52734375,-47.8515625,-68.359375,0.0
78.71875,-30.76171875,-30.76171875,-38.57421875,-58.59375,-66.40625,0.0
78.72265625,-8.30078125,-23.92578125,-29.296875,-44.43359375,-11.71875,0.0
78.7265625,-16.6015625,-18.5546875,-23.92578125,-19.04296875,-4.8828125,0.0
78.73046875,-40.0390625,-21.484375,-26.3671875,-31.25,-53.22265625,0.0
78.734375,-38.0859375,-25.87890625,-37.109375,-55.6640625,-58.59375,0.0
78.73828125,-14.6484375,-20.99609375,-41.50390625,-61.5234375,22.4609375,0.0
78.7421875,9.27734375,-17.578125,-38.0859375,-43.45703125,51.26953125,0.0
78.74609375,-11.23046875,-21.97265625,-29.78515625,-23.92578125,8.30078125,0.0
78.75,-55.17578125,-28.3203125,-32.2265625,-24.90234375,-83.0078125,0.0
78.75390625,-51.7578125,-24.90234375,-35.15625,-41.015625,-112.3046875,0.0
78.7578125,-29.296875,-26.3671875,-34.1796875,-52.734375,-32.2265625,0.0
78.76171875,-11.71875,-28.3203125,-26.85546875,-39.0625,-46.875,0.0
78.765625,-12.20703125,-28.3203125,-21.97265625,-19.53125,-21.97265625,0.0
78.76953125,-39.55078125,-33.69140625,-29.78515625,-18.5546875,2.44140625,0.0
78.7734375,-60.05859375,-28.80859375,-35.64453125,-41.50390625,-30.76171875,0.0
78.77734375,-47.8515625,-24.90234375,-41.50390625,-66.89453125,-26.3671875,0.0
78.78125,-20.99609375,-37.59765625,-45.8984375,-56.640625,-16.11328125,0.0
78.78515625,-17.578125,-38.0859375,-33.69140625,-22.4609375,90.8203125,0.0
78.7890625,-43.45703125,-36.62109375,-32.71484375,-16.11328125,42.96875,0.0
78.79296875,-62.01171875,-42.48046875,-40.0390625,-40.0390625,-65.91796875,0.0
78.796875,-48.33984375,-41.015625,-39.0625,-56.640625,-20.5078125,0.0
78.80078125,-14.6484375,-29.78515625,-38.0859375,-44.921875,-32.71484375,0.0
78.8046875,3.41796875,-20.5078125,-33.203125,-21.97265625,34.1796875,0.0
78.80859375,-20.99609375,-21.97265625,-33.69140625,-22.4609375,58.10546875,0.0
78.8125,-52.734375,-23.92578125,-38.57421875,-40.0390625,-10.25390625,0.0
78.81640625,-32.71484375,-23.92578125,-41.9921875,-58.10546875,-72.265625,0.0
78.8203125,4.39453125,-24.4140625,-35.15625,-55.6640625,-17.08984375,0.0
78.82421875,5.37109375,-20.5078125,-26.85546875,-26.3671875,88.8671875,0.0
78.828125,-32.71484375,-20.5078125,-28.80859375,-10.7421875,44.921875,0.0
78.83203125,-65.91796875,-20.5078125,-42.48046875,-37.59765625,-83.0078125,0.0
78.8359375,-48.33984375,-21.97265625,-47.8515625,-61.5234375,-99.609375,0.0
78.83984375,-6.8359375,-18.06640625,-39.55078125,-47.36328125,-22.4609375,0.0
78.84375,8.7890625,-9.765625,-36.62109375,-23.92578125,-2.44140625,0.0
78.84765625,-4.39453125,-7.8125,-36.62109375,-15.625,-30.76171875,0.0
78.8515625,-31.73828125,-6.8359375,-39.0625,-33.69140625,-42.96875,0.0
78.85546875,-36.62109375,-7.8125,-38.57421875,-53.7109375,-87.890625,0.0
78.859375,-5.37109375,-6.8359375,-37.109375,-55.17578125,-112.79296875,0.0
78.86328125,17.578125,2.44140625,-34.66796875,-35.15625,-50.78125,0.0
78.8671875,-3.90625,-3.90625,-20.5078125,-7.8125,-95.703125,0.0
78.87109375,-36.62109375,-19.04296875,-24.90234375,-17.578125,-127.9296875,0.0
78.875,-40.52734375,-22.4609375,-38.57421875,-41.9921875,-71.77734375,0.0
78.87890625,-11.23046875,-15.13671875,-38.0859375,-44.921875,-116.69921875,0.0
78.8828125,12.20703125,-13.18359375,-30.2734375,-24.90234375,-22.4609375,0.0
78.88671875,-18.06640625,-21.97265625,-21.97265625,-11.23046875,86.42578125,0.0
78.890625,-57.6171875,-31.25,-24.90234375,-22.4609375,-23.4375,0.0
78.89453125,-48.33984375,-23.92578125,-33.69140625,-49.8046875,8.30078125,0.0
78.8984375,-21.97265625,-25.87890625,-32.2265625,-64.453125,105.46875,0.0
78.90234375,0.9765625,-29.296875,-22.94921875,-40.52734375,81.0546875,0.0
78.90625,-16.6015625,-27.34375,-20.99609375,-18.5546875,-18.06640625,0.0
78.91015625,-50.29296875,-39.55078125,-25.87890625,-22.4609375,-87.890625,0.0
78.9140625,-50.78125,-38.57421875,-30.76171875,-37.109375,-73.2421875,0.0
78.91796875,-27.34375,-27.83203125,-29.296875,-45.41015625,-64.94140625,0.0
78.921875,3.41796875,-30.2734375,-22.4609375,-31.25,-48.33984375,0.0
78.92578125,0.9765625,-31.73828125,-25.87890625,-23.4375,15.13671875,0.0
78.9296875,-37.109375,-31.25,-30.76171875,-35.15625,20.99609375,0.0
78.93359375,-47.8515625,-34.1796875,-25.390625,-42.96875,-9.765625,0.0
78.9375,-21.484375,-33.203125,-31.73828125,-57.12890625,37.59765625,0.0
78.94140625,-1.953125,-28.3203125,-32.71484375,-48.33984375,35.64453125,0.0
78.9453125,-9.27734375,-24.90234375,-21.97265625,-26.85546875,27.83203125,0.0
78.94921875,-32.71484375,-24.90234375,-22.94921875,-27.83203125,-5.859375,0.0
78.953125,-57.6171875,-30.76171875,-29.296875,-46.875,-3.41796875,0.0
78.95703125,-45.41015625,-36.62109375,-31.73828125,-62.01171875,44.921875,0.0
78.9609375,-6.34765625,-28.80859375,-29.78515625,-46.875,54.6875,0.0
78.96484375,-4.39453125,-27.34375,-22.4609375,-13.671875,13.18359375,0.0
78.96875,-28.80859375,-38.0859375,-23.92578125,-17.578125,-48.828125,0.0
78.97265625,-49.8046875,-37.59765625,-33.203125,-43.45703125,-51.26953125,0.0
78.9765625,-40.0390625,-31.73828125,-35.15625,-50.78125,-19.04296875,0.0
78.98046875,-20.01953125,-28.80859375,-34.1796875,-46.875,-6.34765625,0.0
78.984375,-31.73828125,-34.66796875,-31.73828125,-19.53125,-80.56640625,0.0
78.98828125,-44.43359375,-34.1796875,-28.3203125,-13.18359375,-119.140625,0.0
78.9921875,-56.640625,-33.69140625,-31.25,-44.43359375,-84.47265625,0.0
78.99609375,-55.17578125,-37.59765625,-38.0859375,-61.5234375,-102.5390625,0.0
79.0,-25.390625,-29.78515625,-33.69140625,-52.24609375,-106.4453125,0.0
79.00390625,-20.01953125,-27.34375,-19.53125,-22.94921875,-89.84375,0.0
79.0078125,-38.57421875,-31.73828125,-20.01953125,-9.27734375,-120.60546875,0.0
79.01171875,-55.6640625,-36.62109375,-28.80859375,-41.50390625,-89.35546875,0.0
79.015625,-57.12890625,-42.48046875,-36.1328125,-69.3359375,-60.05859375,0.0
79.01953125,-19.53125,-34.66796875,-35.15625,-57.6171875,-3.41796875,0.0
79.0234375,8.30078125,-24.4140625,-23.92578125,-26.85546875,78.61328125,0.0
79.02734375,-25.390625,-31.73828125,-17.578125,-15.625,59.5703125,0.0
79.03125,-62.01171875,-35.64453125,-20.99609375,-25.390625,28.3203125,0.0
79.03515625,-70.3125,-35.64453125,-26.3671875,-41.50390625,-40.52734375,0.0
79.0390625,-52.734375,-34.1796875,-29.296875,-53.22265625,-30.2734375,0.0
79.04296875,-27.83203125,-33.203125,-26.3671875,-29.296875,-45.41015625,0.0
79.046875,-28.80859375,-32.71484375,-24.4140625,-8.30078125,-14.16015625,0.0
79.05078125,-56.15234375,-35.64453125,-24.90234375,-16.11328125,0.48828125,0.0
79.0546875,-55.6640625,-38.57421875,-30.76171875,-34.66796875,-92.28515625,0.0
79.05859375,-20.01953125,-35.64453125,-37.59765625,-55.6640625,-65.91796875,0.0
79.0625,-10.25390625,-31.73828125,-35.64453125,-34.1796875,-58.10546875,0.0
79.06640625,-35.64453125,-27.34375,-30.76171875,-4.8828125,-73.73046875,0.0
79.0703125,-58.10546875,-33.203125,-27.83203125,-22.94921875,-162.109375,0.0
79.07421875,-57.6171875,-38.0859375,-31.73828125,-49.31640625,-211.9140625,0.0
79.078125,-45.41015625,-33.203125,-40.0390625,-55.17578125,-94.7265625,0.0
79.08203125,-20.5078125,-23.92578125,-33.203125,-32.71484375,-13.18359375,0.0
79.0859375,-25.87890625,-20.5078125,-21.484375,-3.41796875,-72.75390625,0.0
79.08984375,-54.19921875,-27.83203125,-27.83203125,-11.71875,-139.6484375,0.0
79.09375,-72.265625,-37.59765625,-31.25,-34.66796875,-141.6015625,0.0
79.09765625,-51.7578125,-41.015625,-33.69140625,-42.96875,-130.37109375,0.0
79.1015625,-13.18359375,-30.76171875,-31.73828125,-36.1328125,-209.9609375,0.0
79.10546875,-9.27734375,-29.78515625,-27.83203125,-15.13671875,-218.75,0.0
79.109375,-40.0390625,-32.2265625,-35.64453125,-21.484375,-126.953125,0.0
79.11328125,-64.453125,-30.2734375,-40.0390625,-46.875,-94.23828125,0.0
79.1171875,-41.50390625,-41.015625,-38.0859375,-60.05859375,-73.73046875,0.0
79.12109375,-0.9765625,-42.48046875,-29.78515625,-46.875,-7.32421875,0.0
79.125,5.859375,-36.1328125,-23.4375,-19.53125,38.0859375,0.0
79.12890625,-25.87890625,-33.69140625,-30.2734375,-19.53125,60.05859375,0.0
79.1328125,-77.1484375,-38.57421875,-40.0390625,-41.9921875,11.23046875,0.0
79.13671875,-76.171875,-51.7578125,-38.0859375,-54.19921875,-55.6640625,0.0
79.140625,-39.55078125,-57.12890625,-35.64453125,-44.43359375,-77.1484375,0.0
79.14453125,-41.9921875,-56.640625,-28.3203125,-28.3203125,20.01953125,0.0
79.1484375,-71.2890625,-60.05859375,-26.3671875,-33.203125,38.57421875,0.0
79.15234375,-88.37890625,-64.94140625,-39.55078125,-55.17578125,5.37109375,0.0
79.15625,-75.68359375,-72.75390625,-40.52734375,-64.453125,36.1328125,0.0
79.16015625,-61.5234375,-72.75390625,-32.2265625,-56.15234375,33.203125,0.0
79.1640625,-45.8984375,-63.4765625,-30.76171875,-39.55078125,-19.53125,0.0
79.16796875,-47.36328125,-57.12890625,-25.87890625,-23.92578125,13.671875,0.0
79.171875,-62.5,-56.640625,-26.85546875,-33.69140625,84.47265625,0.0
79.17578125,-55.6640625,-53.22265625,-36.1328125,-55.6640625,62.5,0.0
79.1796875,-25.87890625,-42.96875,-30.76171875,-52.24609375,51.7578125,0.0
79.18359375,-0.9765625,-39.0625,-20.99609375,-31.73828125,66.89453125,0.0
79.1875,-33.69140625,-51.26953125,-25.390625,-21.484375,-24.4140625,0.0
79.19140625,-70.80078125,-59.08203125,-33.203125,-42.48046875,-69.3359375,0.0
79.1953125,-60.546875,-54.6875,-42.48046875,-63.96484375,-37.59765625,0.0
79.19921875,-39.0625,-53.22265625,-41.50390625,-55.17578125,-12.6953125,0.0
79.203125,-30.2734375,-52.734375,-34.66796875,-38.57421875,63.4765625,0.0
79.20703125,-47.8515625,-50.78125,-29.78515625,-30.76171875,53.7109375,0.0
79.2109375,-71.2890625,-53.7109375,-30.76171875,-40.52734375,-67.3828125,0.0
79.21484375,-64.453125,-58.59375,-35.64453125,-62.98828125,-15.625,0.0
79.21875,-31.25,-52.734375,-39.55078125,-67.87109375,38.57421875,0.0
79.22265625,-12.6953125,-41.9921875,-38.57421875,-41.015625,-29.78515625,0.0
79.2265625,-27.34375,-42.48046875,-33.203125,-18.06640625,-75.68359375,0.0
79.23046875,-65.91796875,-45.8984375,-31.25,-25.390625,-104.4921875,0.0
79.234375,-72.75390625,-43.9453125,-33.69140625,-47.36328125,-169.43359375,0.0
79.23828125,-39.55078125,-44.43359375,-31.73828125,-51.7578125,-118.65234375,0.0
79.2421875,-26.3671875,-45.8984375,-25.87890625,-34.1796875,-9.765625,0.0
79.24609375,-32.71484375,-50.29296875,-21.97265625,-16.11328125,-7.8125,0.0
79.25,-83.49609375,-61.03515625,-25.390625,-18.5546875,-93.26171875,0.0
79.25390625,-157.2265625,-66.89453125,-35.15625,-45.41015625,-126.46484375,0.0
79.2578125,-163.57421875,-66.89453125,-37.109375,-55.17578125,-59.08203125,0.0
79.26171875,-153.80859375,-73.2421875,-32.71484375,-38.0859375,7.32421875,0.0
79.265625,-192.87109375,-82.51953125,-26.3671875,-7.32421875,-1.953125,0.0
79.26953125,-252.9296875,-91.796875,-20.01953125,-20.01953125,-92.28515625,0.0
79.2734375,-307.12890625,-97.16796875,-20.01953125,-52.734375,-69.82421875,0.0
79.27734375,-327.1484375,-96.6796875,-22.4609375,-56.15234375,-52.24609375,0.0
79.28125,-304.19921875,-90.8203125,-27.83203125,-48.828125,-85.44921875,0.0
79.28515625,-314.453125,-91.30859375,-26.3671875,-29.78515625,-26.3671875,0.0
79.2890625,-357.421875,-100.5859375,-16.6015625,-17.578125,2.44140625,0.0
79.29296875,-363.28125,-105.95703125,-26.3671875,-34.1796875,-53.7109375,0.0
79.296875,-353.515625,-109.86328125,-37.59765625,-58.59375,-40.0390625,0.0
79.30078125,-332.03125,-105.95703125,-28.80859375,-49.8046875,96.19140625,0.0
79.3046875,-319.82421875,-101.5625,-17.578125,-25.390625,73.73046875,0.0
