timestamp,TP9,AF7,AF8,TP10,AUX,Marker,
149.00390625,8.30078125,-19.04296875,-22.4609375,-16.11328125,69.3359375,0.0
149.0078125,-1.953125,-27.34375,-30.76171875,-32.71484375,44.43359375,0.0
149.01171875,-11.23046875,-31.25,-32.71484375,-33.69140625,-11.71875,0.0
149.015625,-13.18359375,-36.1328125,-38.57421875,-22.94921875,32.71484375,0.0
149.01953125,-4.39453125,-30.76171875,-27.83203125,-12.20703125,3.90625,0.0
149.0234375,-5.859375,-27.83203125,-16.11328125,-18.06640625,5.37109375,0.0
149.02734375,-16.6015625,-34.66796875,-19.04296875,-38.0859375,26.3671875,0.0
149.03125,-25.87890625,-34.1796875,-19.53125,-38.57421875,-8.7890625,0.0
149.03515625,-38.57421875,-42.48046875,-21.484375,-31.25,27.34375,0.0
149.0390625,-25.87890625,-41.50390625,-25.87890625,-23.92578125,11.23046875,0.0
149.04296875,-14.6484375,-27.34375,-26.85546875,-19.04296875,-8.30078125,0.0
149.046875,-25.87890625,-30.2734375,-26.3671875,-34.66796875,-59.5703125,0.0
149.05078125,-26.85546875,-29.296875,-25.390625,-35.15625,19.53125,0.0
149.0546875,-31.73828125,-32.71484375,-24.90234375,-28.3203125,71.77734375,0.0
149.05859375,-31.25,-39.55078125,-30.76171875,-28.3203125,-59.5703125,0.0
149.0625,-20.01953125,-31.73828125,-29.296875,-27.34375,-68.84765625,0.0
149.06640625,-23.92578125,-30.2734375,-26.3671875,-33.203125,-22.4609375,0.0
149.0703125,-28.3203125,-33.69140625,-34.1796875,-36.62109375,-11.23046875,0.0
149.07421875,-27.34375,-36.62109375,-35.64453125,-29.296875,-14.16015625,0.0
149.078125,-14.6484375,-32.71484375,-30.76171875,-20.01953125,-76.171875,0.0
149.08203125,-7.8125,-24.90234375,-20.01953125,-20.01953125,-121.09375,0.0
149.0859375,-14.16015625,-23.4375,-23.92578125,-27.83203125,-132.8125,0.0
149.08984375,-6.8359375,-26.3671875,-48.828125,-33.203125,-107.91015625,0.0
149.09375,5.859375,-30.76171875,-42.48046875,-23.92578125,-84.47265625,0.0
149.09765625,-6.8359375,-42.96875,-18.5546875,-13.671875,-56.640625,0.0
149.1015625,-10.25390625,-36.1328125,-29.296875,-17.08984375,-12.6953125,0.0
149.10546875,-12.20703125,-32.71484375,-35.15625,-33.203125,-46.875,0.0
149.109375,-30.76171875,-36.1328125,-29.296875,-41.9921875,-40.52734375,0.0
149.11328125,-43.45703125,-37.109375,-30.2734375,-34.1796875,-96.6796875,0.0
149.1171875,-38.57421875,-43.45703125,-41.50390625,-25.87890625,-91.796875,0.0
149.12109375,-15.13671875,-35.64453125,-37.59765625,-25.390625,-44.43359375,0.0
149.125,3.41796875,-34.1796875,-18.5546875,-33.203125,-69.82421875,0.0
149.12890625,6.34765625,-35.15625,-18.5546875,-35.64453125,-15.625,0.0
149.1328125,-9.765625,-31.25,-36.62109375,-38.57421875,16.6015625,0.0
149.13671875,-18.5546875,-32.2265625,-36.1328125,-39.55078125,-58.59375,0.0
149.140625,-5.859375,-28.80859375,-20.99609375,-23.4375,-65.91796875,0.0
149.14453125,-14.16015625,-33.69140625,-27.34375,-27.34375,-27.34375,0.0
149.1484375,-39.55078125,-40.0390625,-41.9921875,-45.41015625,-5.859375,0.0
149.15234375,-52.734375,-40.0390625,-37.59765625,-48.828125,-8.7890625,0.0
149.15625,-49.31640625,-32.71484375,-25.87890625,-38.57421875,38.0859375,0.0
149.16015625,-25.390625,-29.296875,-25.87890625,-29.296875,99.12109375,0.0
149.1640625,-10.7421875,-34.1796875,-32.71484375,-38.0859375,43.9453125,0.0
149.16796875,-2.44140625,-36.1328125,-39.55078125,-38.57421875,-12.20703125,0.0
149.171875,0.0,-34.66796875,-33.203125,-29.296875,-83.984375,0.0
149.17578125,-17.578125,-44.43359375,-17.578125,-32.71484375,-111.328125,0.0
149.1796875,-6.8359375,-35.15625,-17.08984375,-25.390625,-104.4921875,0.0
149.18359375,6.8359375,-16.6015625,-20.5078125,-25.87890625,-149.90234375,0.0
149.1875,-6.34765625,-24.4140625,-23.92578125,-43.45703125,-139.16015625,0.0
149.19140625,-11.23046875,-37.109375,-29.296875,-44.43359375,-72.265625,0.0
149.1953125,-24.90234375,-46.38671875,-47.36328125,-40.0390625,-27.83203125,0.0
149.19921875,-31.25,-38.57421875,-44.43359375,-27.83203125,0.0,0.0
149.203125,-28.3203125,-24.4140625,-21.97265625,-27.83203125,42.96875,0.0
149.20703125,-44.921875,-25.87890625,-27.83203125,-37.109375,9.27734375,0.0
149.2109375,-53.22265625,-34.1796875,-31.73828125,-33.203125,-25.390625,0.0
149.21484375,-55.6640625,-41.9921875,-35.64453125,-25.390625,-73.73046875,0.0
149.21875,-46.875,-41.015625,-47.36328125,-16.11328125,-80.078125,0.0
149.22265625,-30.2734375,-29.78515625,-38.0859375,-19.04296875,-51.26953125,0.0
149.2265625,-39.0625,-23.92578125,-26.3671875,-32.71484375,-28.3203125,0.0
149.23046875,-52.24609375,-26.3671875,-22.94921875,-38.0859375,-34.1796875,0.0
149.234375,-59.08203125,-37.109375,-29.78515625,-34.1796875,-25.87890625,0.0
149.23828125,-59.5703125,-39.55078125,-31.73828125,-31.73828125,45.41015625,0.0
149.2421875,-45.8984375,-34.1796875,-27.34375,-31.25,17.578125,0.0
149.24609375,-35.15625,-33.69140625,-16.11328125,-39.55078125,-32.71484375,0.0
149.25,-37.59765625,-32.2265625,-23.92578125,-44.921875,6.8359375,0.0
149.25390625,-55.17578125,-41.9921875,-31.73828125,-43.9453125,74.21875,0.0
149.2578125,-54.6875,-41.50390625,-18.5546875,-31.25,92.7734375,0.0
149.26171875,-45.41015625,-37.59765625,-19.53125,-25.390625,-14.6484375,0.0
149.265625,-50.29296875,-41.50390625,-32.71484375,-37.59765625,-124.51171875,0.0
149.26953125,-49.8046875,-41.9921875,-42.48046875,-34.66796875,-143.5546875,0.0
149.2734375,-43.9453125,-43.45703125,-31.73828125,-14.16015625,-188.96484375,0.0
149.27734375,-12.6953125,-44.921875,-30.76171875,8.30078125,-224.609375,0.0
149.28125,2.9296875,-41.50390625,-26.3671875,2.44140625,-127.9296875,0.0
149.28515625,-27.83203125,-34.1796875,-26.85546875,-26.85546875,26.85546875,0.0
149.2890625,-44.921875,-27.83203125,-47.8515625,-45.41015625,-7.32421875,0.0
149.29296875,-69.3359375,-41.015625,-28.3203125,-58.10546875,-15.625,0.0
149.296875,-83.984375,-43.45703125,-19.04296875,-60.05859375,47.36328125,0.0
149.30078125,-64.94140625,-35.15625,-20.99609375,-55.17578125,113.28125,0.0
149.3046875,-70.80078125,-39.55078125,-18.5546875,-70.3125,63.4765625,0.0
149.30859375,-83.49609375,-40.52734375,-26.3671875,-83.0078125,0.0,0.0
149.3125,-83.0078125,-41.9921875,-29.296875,-75.68359375,33.69140625,0.0
149.31640625,-83.49609375,-47.36328125,-35.15625,-61.5234375,20.99609375,0.0
149.3203125,-67.87109375,-40.52734375,-39.0625,-49.8046875,34.1796875,0.0
149.32421875,-56.640625,-38.0859375,-41.015625,-56.15234375,23.4375,0.0
149.328125,-70.3125,-52.24609375,-47.8515625,-66.40625,-29.78515625,0.0
149.33203125,-75.1953125,-47.8515625,-39.55078125,-51.7578125,-11.71875,0.0
149.3359375,-69.3359375,-48.33984375,-25.87890625,-42.96875,-30.2734375,0.0
149.33984375,-58.10546875,-49.31640625,-21.97265625,-41.015625,-34.66796875,0.0
149.34375,-38.57421875,-32.2265625,-29.296875,-37.109375,19.04296875,0.0
149.34765625,-38.0859375,-23.92578125,-39.0625,-40.0390625,25.390625,0.0
149.3515625,-56.15234375,-40.0390625,-29.296875,-43.9453125,18.06640625,0.0
149.35546875,-68.84765625,-53.7109375,-29.296875,-43.45703125,-58.59375,0.0
149.359375,-49.8046875,-41.9921875,-20.99609375,-29.296875,-130.859375,0.0
149.36328125,-34.66796875,-39.0625,-24.90234375,-27.34375,-110.3515625,0.0
149.3671875,-35.64453125,-35.64453125,-41.50390625,-31.73828125,-73.73046875,0.0
149.37109375,-35.15625,-37.59765625,-42.96875,-28.80859375,-32.71484375,0.0
149.375,-38.57421875,-45.8984375,-32.71484375,-28.80859375,-33.69140625,0.0
149.37890625,-20.5078125,-33.69140625,-17.578125,-14.6484375,-76.66015625,0.0
149.3828125,-15.625,-35.64453125,-12.20703125,-22.4609375,-71.2890625,0.0
149.38671875,-37.59765625,-41.50390625,-21.97265625,-44.43359375,-106.93359375,0.0
149.390625,-48.828125,-34.66796875,-30.76171875,-45.41015625,-114.74609375,0.0
149.39453125,-64.453125,-38.57421875,-33.203125,-45.8984375,-112.3046875,0.0
149.3984375,-62.5,-41.9921875,-35.15625,-40.52734375,-83.984375,0.0
149.40234375,-45.8984375,-35.15625,-29.296875,-32.2265625,-52.734375,0.0
149.40625,-51.7578125,-33.69140625,-30.76171875,-39.0625,-48.33984375,0.0
149.41015625,-55.17578125,-41.50390625,-30.2734375,-40.0390625,-96.6796875,0.0
149.4140625,-58.59375,-39.0625,-48.828125,-34.1796875,-125.0,0.0
149.41796875,-56.640625,-32.2265625,-56.15234375,-39.55078125,-10.7421875,0.0
149.421875,-35.15625,-27.34375,-19.53125,-37.109375,72.75390625,0.0
149.42578125,-38.0859375,-30.76171875,-13.671875,-42.48046875,59.08203125,0.0
149.4296875,-57.6171875,-44.43359375,-19.53125,-57.12890625,81.0546875,0.0
149.43359375,-58.59375,-49.31640625,-26.85546875,-52.24609375,52.734375,0.0
149.4375,-49.8046875,-41.50390625,-35.15625,-42.48046875,-4.39453125,0.0
149.44140625,-33.69140625,-37.59765625,-35.15625,-36.62109375,-8.30078125,0.0
149.4453125,-30.2734375,-37.59765625,-42.48046875,-37.109375,28.3203125,0.0
149.44921875,-37.59765625,-42.96875,-43.9453125,-43.45703125,-3.41796875,0.0
149.453125,-41.9921875,-44.921875,-45.8984375,-36.62109375,23.92578125,0.0
149.45703125,-43.9453125,-46.875,-44.921875,-30.76171875,-42.96875,0.0
149.4609375,-32.2265625,-38.0859375,-31.73828125,-33.203125,-174.31640625,0.0
149.46484375,-23.4375,-30.76171875,-35.64453125,-38.57421875,-177.24609375,0.0
149.46875,-24.90234375,-29.78515625,-51.26953125,-37.59765625,-169.43359375,0.0
149.47265625,-25.390625,-31.25,-50.78125,-30.2734375,-51.7578125,0.0
149.4765625,-36.1328125,-48.828125,-38.57421875,-30.2734375,-11.71875,0.0
149.48046875,-36.62109375,-49.31640625,-35.15625,-32.71484375,-105.46875,0.0
149.484375,-30.76171875,-44.921875,-28.80859375,-39.55078125,-138.671875,0.0
149.48828125,-26.3671875,-50.29296875,-33.69140625,-44.43359375,-182.12890625,0.0
149.4921875,-34.1796875,-46.875,-42.48046875,-39.55078125,-113.28125,0.0
149.49609375,-55.17578125,-44.921875,-36.1328125,-31.25,-23.4375,0.0
149.5,-53.22265625,-39.0625,-33.69140625,-30.76171875,-16.11328125,0.0
149.50390625,-41.9921875,-23.92578125,-39.55078125,-34.1796875,-58.10546875,0.0
149.5078125,-48.828125,-22.94921875,-37.59765625,-43.9453125,-102.05078125,0.0
149.51171875,-59.08203125,-32.71484375,-48.828125,-40.0390625,-68.84765625,0.0
149.515625,-56.640625,-34.66796875,-76.171875,-26.85546875,-31.25,0.0
149.51953125,-46.38671875,-44.921875,-40.52734375,-33.69140625,20.99609375,0.0
149.5234375,-35.15625,-41.50390625,-7.32421875,-40.52734375,76.171875,0.0
149.52734375,-30.76171875,-27.83203125,-25.87890625,-34.1796875,52.24609375,0.0
149.53125,-36.62109375,-33.69140625,-31.25,-32.71484375,-20.99609375,0.0
149.53515625,-43.45703125,-43.45703125,-33.69140625,-35.15625,-29.78515625,0.0
149.5390625,-29.296875,-33.203125,-35.15625,-27.34375,-44.921875,0.0
149.54296875,-18.06640625,-24.90234375,-30.76171875,-21.484375,-131.8359375,0.0
149.546875,-22.4609375,-26.3671875,-33.69140625,-34.1796875,-148.4375,0.0
149.55078125,-34.1796875,-33.203125,-46.38671875,-41.015625,-184.08203125,0.0
149.5546875,-32.71484375,-30.2734375,-39.0625,-34.1796875,-177.24609375,0.0
149.55859375,-21.484375,-28.3203125,-32.71484375,-24.4140625,-107.421875,0.0
149.5625,-20.5078125,-39.55078125,-34.66796875,-31.73828125,-56.15234375,0.0
149.56640625,-20.5078125,-45.41015625,-36.1328125,-35.15625,-108.3984375,0.0
149.5703125,-13.671875,-37.59765625,-43.9453125,-30.76171875,-201.66015625,0.0
149.57421875,-27.83203125,-32.71484375,-38.0859375,-32.2265625,-163.57421875,0.0
149.578125,-35.15625,-35.15625,-26.3671875,-28.3203125,-112.3046875,0.0
149.58203125,-20.99609375,-32.71484375,-18.06640625,-29.78515625,-118.1640625,0.0
149.5859375,-30.2734375,-30.76171875,-23.4375,-40.52734375,-27.34375,0.0
149.58984375,-34.66796875,-29.296875,-32.71484375,-38.57421875,53.22265625,0.0
149.59375,-37.59765625,-26.3671875,-34.66796875,-30.76171875,96.19140625,0.0
149.59765625,-44.43359375,-24.90234375,-29.78515625,-30.2734375,170.8984375,0.0
149.6015625,-33.69140625,-17.578125,-23.92578125,-28.80859375,185.546875,0.0
149.60546875,-35.64453125,-23.4375,-33.69140625,-44.43359375,55.6640625,0.0
149.609375,-46.875,-45.8984375,-37.59765625,-55.17578125,27.83203125,0.0
149.61328125,-56.640625,-48.33984375,-34.1796875,-51.26953125,56.640625,0.0
149.6171875,-53.7109375,-35.15625,-21.484375,-49.8046875,16.11328125,0.0
149.62109375,-34.66796875,-22.94921875,-25.390625,-45.41015625,77.1484375,0.0
149.625,-25.87890625,-9.765625,-35.64453125,-43.9453125,73.73046875,0.0
149.62890625,-27.83203125,-15.13671875,-29.78515625,-41.015625,-4.39453125,0.0
149.6328125,-40.52734375,-26.85546875,-31.25,-33.69140625,1.953125,0.0
149.63671875,-50.78125,-37.109375,-33.69140625,-29.296875,12.20703125,0.0
149.640625,-30.76171875,-38.57421875,-26.85546875,-20.5078125,63.4765625,0.0
149.64453125,-16.6015625,-26.85546875,-24.90234375,-21.484375,39.0625,0.0
149.6484375,-23.92578125,-20.99609375,-24.4140625,-28.3203125,-12.20703125,0.0
149.65234375,-22.4609375,-29.78515625,-25.390625,-20.5078125,3.90625,0.0
149.65625,-23.4375,-41.50390625,-30.2734375,-20.99609375,-32.2265625,0.0
149.66015625,-17.578125,-29.78515625,-23.92578125,-15.13671875,51.26953125,0.0
149.6640625,-9.27734375,-14.6484375,-30.76171875,-11.71875,73.73046875,0.0
149.66796875,-18.06640625,-18.5546875,-41.50390625,-22.94921875,89.35546875,0.0
149.671875,-26.3671875,-32.71484375,-40.52734375,-24.90234375,88.8671875,0.0
149.67578125,-42.96875,-40.0390625,-28.80859375,-28.80859375,-11.71875,0.0
149.6796875,-40.52734375,-31.25,-14.16015625,-24.90234375,-48.828125,0.0
149.68359375,-29.78515625,-33.69140625,-17.08984375,-27.83203125,25.390625,0.0
149.6875,-38.0859375,-37.59765625,-32.2265625,-41.9921875,-43.45703125,0.0
149.69140625,-44.43359375,-29.78515625,-33.69140625,-40.0390625,-51.26953125,0.0
149.6953125,-41.9921875,-30.76171875,-27.34375,-31.25,76.171875,0.0
149.69921875,-31.25,-28.80859375,-26.85546875,-30.2734375,79.58984375,0.0
149.703125,-26.3671875,-29.296875,-43.45703125,-44.921875,39.0625,0.0
149.70703125,-25.87890625,-31.25,-50.29296875,-53.7109375,27.34375,0.0
149.7109375,-21.484375,-33.203125,-39.55078125,-44.43359375,6.8359375,0.0
149.71484375,-26.3671875,-42.96875,-36.62109375,-41.50390625,-113.76953125,0.0
149.71875,-22.94921875,-39.0625,-27.83203125,-39.55078125,-168.9453125,0.0
149.72265625,-15.13671875,-29.78515625,-23.4375,-38.57421875,-38.57421875,0.0
149.7265625,-14.16015625,-30.76171875,-24.90234375,-45.8984375,-8.7890625,0.0
149.73046875,-21.484375,-40.52734375,-36.1328125,-39.0625,-144.04296875,0.0
149.734375,-28.3203125,-43.9453125,-53.22265625,-27.83203125,-145.01953125,0.0
149.73828125,-26.3671875,-35.64453125,-34.1796875,-27.34375,-22.94921875,0.0
149.7421875,-17.578125,-28.3203125,-17.08984375,-27.83203125,-17.578125,0.0
149.74609375,-17.08984375,-22.94921875,-35.64453125,-35.64453125,-57.12890625,0.0
149.75,-28.3203125,-30.76171875,-31.73828125,-42.96875,-5.37109375,0.0
149.75390625,-29.78515625,-28.80859375,-27.83203125,-32.71484375,66.40625,0.0
149.7578125,-27.83203125,-26.85546875,-44.43359375,-26.3671875,64.94140625,0.0
149.76171875,-29.78515625,-34.1796875,-51.26953125,-34.66796875,-1.46484375,0.0
149.765625,-30.76171875,-36.62109375,-37.59765625,-46.875,-40.0390625,0.0
149.76953125,-35.15625,-40.52734375,-31.73828125,-46.875,-21.97265625,0.0
149.7734375,-49.31640625,-44.921875,-36.62109375,-48.828125,-81.54296875,0.0
149.77734375,-39.55078125,-45.41015625,-33.203125,-45.41015625,-157.71484375,0.0
149.78125,-19.53125,-35.15625,-42.48046875,-37.109375,-199.70703125,0.0
149.78515625,-28.3203125,-28.80859375,-52.24609375,-45.41015625,-179.6875,0.0
149.7890625,-42.48046875,-30.76171875,-37.109375,-47.8515625,-182.12890625,0.0
149.79296875,-47.36328125,-36.1328125,-26.3671875,-41.9921875,-169.43359375,0.0
149.796875,-41.9921875,-45.8984375,-29.296875,-35.15625,-144.04296875,0.0
149.80078125,-26.85546875,-39.0625,-23.4375,-27.83203125,-88.8671875,0.0
149.8046875,-26.3671875,-31.73828125,-34.1796875,-38.0859375,-85.44921875,0.0
149.80859375,-25.390625,-33.69140625,-41.9921875,-42.48046875,-97.16796875,0.0
149.8125,-29.78515625,-33.203125,-37.59765625,-28.80859375,-130.37109375,0.0
149.81640625,-30.2734375,-36.62109375,-35.64453125,-27.83203125,-188.4765625,0.0
149.8203125,-14.6484375,-34.66796875,-26.3671875,-24.90234375,-122.0703125,0.0
149.82421875,-20.01953125,-27.83203125,-28.80859375,-30.76171875,-76.171875,0.0
149.828125,-27.83203125,-28.80859375,-30.76171875,-34.66796875,-76.171875,0.0
149.83203125,-31.25,-36.1328125,-26.85546875,-31.73828125,-10.7421875,0.0
149.8359375,-26.3671875,-41.9921875,-26.85546875,-27.34375,-42.96875,0.0
149.83984375,-6.34765625,-34.1796875,-27.83203125,-15.625,-45.41015625,0.0
149.84375,-1.953125,-31.73828125,-27.83203125,-18.5546875,30.76171875,0.0
149.84765625,-19.04296875,-37.59765625,-27.83203125,-35.64453125,66.40625,0.0
149.8515625,-23.92578125,-33.69140625,-23.92578125,-34.66796875,149.90234375,0.0
149.85546875,-27.34375,-38.0859375,-35.15625,-25.87890625,179.6875,0.0
149.859375,-25.87890625,-41.015625,-40.0390625,-22.94921875,146.484375,0.0
149.86328125,-18.5546875,-33.203125,-23.4375,-35.15625,112.3046875,0.0
149.8671875,-24.4140625,-28.3203125,-24.4140625,-49.31640625,144.04296875,0.0
149.87109375,-28.80859375,-29.78515625,-22.94921875,-45.8984375,192.3828125,0.0
149.875,-24.90234375,-35.15625,-22.4609375,-36.62109375,75.1953125,0.0
149.87890625,-17.578125,-40.52734375,-24.90234375,-29.78515625,-53.22265625,0.0
149.8828125,-10.25390625,-35.64453125,-20.99609375,-41.015625,-18.5546875,0.0
149.88671875,-5.37109375,-26.3671875,-27.83203125,-48.33984375,-18.06640625,0.0
149.890625,-4.8828125,-31.73828125,-32.2265625,-41.50390625,-113.76953125,0.0
149.89453125,-16.6015625,-39.0625,-31.73828125,-39.55078125,-149.4140625,0.0
149.8984375,-24.90234375,-37.59765625,-26.3671875,-26.3671875,-90.8203125,0.0
149.90234375,-12.6953125,-35.15625,-29.296875,-24.4140625,-65.91796875,0.0
149.90625,-4.39453125,-31.73828125,-34.66796875,-37.59765625,-14.6484375,0.0
149.91015625,-10.25390625,-28.3203125,-41.015625,-40.52734375,53.7109375,0.0
149.9140625,-15.625,-31.25,-53.22265625,-27.34375,128.41796875,0.0
149.91796875,2.9296875,-42.48046875,-42.96875,-19.04296875,81.0546875,0.0
149.921875,11.71875,-39.0625,-11.23046875,-23.92578125,28.80859375,0.0
149.92578125,-6.8359375,-32.71484375,-8.30078125,-35.64453125,41.9921875,0.0
149.9296875,-16.11328125,-35.64453125,-22.94921875,-44.43359375,-8.30078125,0.0
149.93359375,-18.06640625,-28.3203125,-29.296875,-31.73828125,5.859375,0.0
149.9375,-18.5546875,-32.71484375,-39.0625,-25.87890625,-0.9765625,0.0
149.94140625,-5.859375,-31.73828125,-38.0859375,-30.2734375,-81.54296875,0.0
149.9453125,-0.9765625,-26.3671875,-29.296875,-31.25,-83.49609375,0.0
149.94921875,-5.37109375,-37.109375,-25.87890625,-32.2265625,-11.71875,0.0
149.953125,-20.5078125,-37.59765625,-20.99609375,-24.90234375,-21.97265625,0.0
149.95703125,-29.78515625,-34.66796875,-19.04296875,-16.6015625,-1.46484375,0.0
149.9609375,-13.671875,-30.2734375,-30.2734375,-15.13671875,8.30078125,0.0
149.96484375,-13.18359375,-31.25,-34.1796875,-27.34375,-62.5,0.0
149.96875,-24.4140625,-32.2265625,-28.80859375,-33.203125,-62.01171875,0.0
149.97265625,-31.73828125,-35.15625,-24.90234375,-25.87890625,-13.18359375,0.0
149.9765625,-33.203125,-33.69140625,-20.5078125,-19.04296875,-14.16015625,0.0
149.98046875,-26.3671875,-25.87890625,-26.85546875,-13.671875,-109.86328125,0.0
149.984375,-21.484375,-34.1796875,-33.69140625,-27.83203125,-86.9140625,0.0
149.98828125,-21.484375,-30.2734375,-34.1796875,-39.0625,55.17578125,0.0
149.9921875,-26.85546875,-28.3203125,-38.57421875,-25.87890625,6.8359375,0.0
149.99609375,-38.0859375,-34.66796875,-26.3671875,-21.484375,-65.4296875,0.0
150.0,-30.76171875,-27.83203125,-14.16015625,-20.99609375,-0.9765625,0.0
150.00390625,-28.80859375,-26.85546875,-19.53125,-33.203125,-20.5078125,0.0
150.0078125,-37.109375,-31.73828125,-20.01953125,-44.921875,-134.27734375,0.0
150.01171875,-41.015625,-38.0859375,-30.2734375,-30.2734375,-109.375,0.0
150.015625,-42.96875,-30.76171875,-41.015625,-21.484375,-58.10546875,0.0
150.01953125,-31.25,-26.85546875,-28.3203125,-17.08984375,-41.50390625,0.0
150.0234375,-12.20703125,-24.4140625,-17.578125,-12.6953125,-18.06640625,0.0
150.02734375,-15.13671875,-21.484375,-21.97265625,-24.4140625,26.3671875,0.0
150.03125,-30.2734375,-32.2265625,-27.83203125,-31.73828125,34.1796875,0.0
150.03515625,-27.83203125,-36.1328125,-42.48046875,-25.390625,-0.9765625,0.0
150.0390625,-17.08984375,-36.1328125,-50.29296875,-16.11328125,-43.9453125,0.0
150.04296875,-14.6484375,-37.59765625,-30.76171875,-27.83203125,-55.6640625,0.0
150.046875,-19.04296875,-29.296875,-18.5546875,-44.43359375,-53.7109375,0.0
150.05078125,-23.4375,-30.2734375,-31.25,-37.59765625,-78.125,0.0
150.0546875,-25.390625,-37.59765625,-32.71484375,-31.25,13.18359375,0.0
150.05859375,-19.53125,-36.1328125,-13.18359375,-28.80859375,42.48046875,0.0
150.0625,-16.11328125,-39.55078125,-11.23046875,-29.296875,31.25,0.0
150.06640625,-18.5546875,-32.2265625,-27.83203125,-33.69140625,-24.90234375,0.0
150.0703125,-20.99609375,-28.3203125,-20.99609375,-29.78515625,-65.91796875,0.0
150.07421875,-27.34375,-33.203125,-22.94921875,-28.80859375,-73.2421875,0.0
150.078125,-13.18359375,-31.25,-33.69140625,-21.97265625,-27.34375,0.0
150.08203125,7.8125,-24.90234375,-36.62109375,-16.6015625,5.37109375,0.0
150.0859375,-0.48828125,-18.06640625,-24.90234375,-22.94921875,-17.08984375,0.0
150.08984375,-22.94921875,-22.94921875,-17.08984375,-30.2734375,54.6875,0.0
150.09375,-33.203125,-31.25,-22.4609375,-25.87890625,76.171875,0.0
150.09765625,-29.296875,-31.25,-31.73828125,-15.13671875,21.97265625,0.0
150.1015625,-25.87890625,-33.69140625,-37.59765625,-22.4609375,-60.05859375,0.0
150.10546875,-29.78515625,-35.64453125,-46.875,-37.109375,-66.89453125,0.0
150.109375,-29.296875,-38.0859375,-46.875,-39.0625,-71.2890625,0.0
150.11328125,-41.015625,-45.41015625,-37.109375,-36.62109375,-40.52734375,0.0
150.1171875,-44.921875,-42.48046875,-28.80859375,-30.2734375,-71.77734375,0.0
150.12109375,-18.06640625,-30.76171875,-22.94921875,-26.3671875,-38.0859375,0.0
150.125,-6.34765625,-30.76171875,-35.15625,-39.0625,14.6484375,0.0
150.12890625,-12.6953125,-33.69140625,-42.96875,-36.62109375,-70.80078125,0.0
150.1328125,-20.5078125,-38.0859375,-39.0625,-26.3671875,-0.9765625,0.0
150.13671875,-26.3671875,-45.8984375,-28.80859375,-24.90234375,44.921875,0.0
150.140625,-23.4375,-43.45703125,-34.66796875,-28.80859375,2.9296875,0.0
150.14453125,-21.484375,-41.9921875,-49.31640625,-39.0625,-0.48828125,0.0
150.1484375,-30.76171875,-49.31640625,-43.9453125,-42.48046875,-47.8515625,0.0
150.15234375,-47.36328125,-54.19921875,-41.50390625,-44.43359375,-17.578125,0.0
150.15625,-54.19921875,-52.24609375,-46.875,-42.48046875,-3.90625,0.0
150.16015625,-42.48046875,-42.96875,-42.48046875,-39.55078125,-67.3828125,0.0
150.1640625,-22.4609375,-31.25,-40.0390625,-42.96875,-23.92578125,0.0
150.16796875,-36.1328125,-32.71484375,-50.78125,-58.10546875,9.27734375,0.0
150.171875,-51.26953125,-37.109375,-40.52734375,-56.640625,-8.30078125,0.0
150.17578125,-42.48046875,-35.64453125,-30.76171875,-41.50390625,-18.06640625,0.0
150.1796875,-35.15625,-35.15625,-34.1796875,-35.15625,-39.0625,0.0
150.18359375,-35.15625,-33.203125,-32.2265625,-32.71484375,-58.10546875,0.0
150.1875,-37.59765625,-37.109375,-32.71484375,-35.15625,27.83203125,0.0
150.19140625,-36.1328125,-43.45703125,-36.1328125,-33.69140625,44.921875,0.0
150.1953125,-48.33984375,-44.43359375,-53.7109375,-32.2265625,-62.01171875,0.0
150.19921875,-46.38671875,-42.48046875,-50.29296875,-31.25,-30.2734375,0.0
150.203125,-50.29296875,-39.55078125,-37.59765625,-35.15625,-54.19921875,0.0
150.20703125,-65.91796875,-44.43359375,-53.7109375,-49.31640625,-177.24609375,0.0
150.2109375,-72.265625,-44.43359375,-49.31640625,-47.8515625,-138.671875,0.0
150.21484375,-73.73046875,-46.38671875,-36.62109375,-38.0859375,-92.7734375,0.0
150.21875,-45.41015625,-45.41015625,-28.80859375,-19.53125,-123.046875,0.0
150.22265625,-32.2265625,-40.0390625,-32.2265625,-25.87890625,-75.1953125,0.0
150.2265625,-42.96875,-42.96875,-43.9453125,-46.875,-11.23046875,0.0
150.23046875,-40.52734375,-42.96875,-37.59765625,-40.0390625,87.890625,0.0
150.234375,-35.15625,-43.45703125,-40.52734375,-33.69140625,9.765625,0.0
150.23828125,-21.97265625,-51.7578125,-36.1328125,-30.2734375,-121.58203125,0.0
150.2421875,-23.4375,-49.8046875,-30.76171875,-36.1328125,-87.40234375,0.0
150.24609375,-30.2734375,-49.31640625,-33.69140625,-45.8984375,-121.09375,0.0
150.25,-38.0859375,-42.96875,-36.1328125,-41.50390625,-65.91796875,0.0
150.25390625,-50.29296875,-37.109375,-50.29296875,-38.57421875,-27.83203125,0.0
150.2578125,-39.55078125,-37.109375,-37.109375,-31.25,-57.12890625,0.0
150.26171875,-25.390625,-28.3203125,-26.85546875,-29.296875,-75.1953125,0.0
150.265625,-25.390625,-33.203125,-32.71484375,-41.50390625,-41.015625,0.0
150.26953125,-37.109375,-42.96875,-32.71484375,-48.828125,-18.06640625,0.0
150.2734375,-46.38671875,-52.734375,-39.0625,-39.55078125,-67.3828125,0.0
150.27734375,-43.9453125,-49.8046875,-39.55078125,-28.3203125,-22.94921875,0.0
150.28125,-32.2265625,-34.1796875,-33.203125,-33.203125,-61.5234375,0.0
150.28515625,-38.57421875,-48.33984375,-37.109375,-48.828125,-166.50390625,0.0
150.2890625,-41.9921875,-46.38671875,-35.64453125,-42.48046875,-59.5703125,0.0
150.29296875,-42.96875,-28.3203125,-34.1796875,-29.78515625,2.44140625,0.0
150.296875,-61.5234375,-33.203125,-30.2734375,-31.73828125,54.19921875,0.0
150.30078125,-50.78125,-32.2265625,-32.2265625,-28.80859375,107.91015625,0.0
150.3046875,-36.62109375,-23.4375,-40.52734375,-30.76171875,60.05859375,0.0
150.30859375,-43.45703125,-27.34375,-31.73828125,-32.71484375,39.0625,0.0
150.3125,-53.7109375,-42.48046875,-28.3203125,-31.25,36.62109375,0.0
150.31640625,-61.03515625,-48.33984375,-32.71484375,-29.78515625,0.9765625,0.0
150.3203125,-50.78125,-48.828125,-33.203125,-39.55078125,-32.71484375,0.0
150.32421875,-45.41015625,-44.43359375,-40.0390625,-41.015625,3.90625,0.0
150.328125,-56.640625,-42.48046875,-54.6875,-43.45703125,48.33984375,0.0
150.33203125,-64.453125,-39.0625,-32.71484375,-37.59765625,-5.37109375,0.0
150.3359375,-64.94140625,-42.48046875,-22.94921875,-29.78515625,3.90625,0.0
150.33984375,-48.828125,-48.828125,-25.390625,-28.3203125,-36.62109375,0.0
150.34375,-39.55078125,-41.015625,-24.90234375,-30.76171875,-56.15234375,0.0
150.34765625,-40.52734375,-37.109375,-24.90234375,-38.57421875,-21.97265625,0.0
150.3515625,-36.62109375,-31.25,-31.25,-28.3203125,-70.3125,0.0
150.35546875,-27.34375,-25.87890625,-50.29296875,-12.6953125,-116.69921875,0.0
150.359375,-17.578125,-34.1796875,-40.52734375,-17.578125,-176.26953125,0.0
150.36328125,-18.5546875,-36.62109375,-31.73828125,-28.80859375,-170.41015625,0.0
150.3671875,-20.99609375,-36.1328125,-28.3203125,-31.73828125,-104.4921875,0.0
150.37109375,-26.85546875,-35.64453125,-22.4609375,-26.3671875,-107.91015625,0.0
150.375,-39.0625,-34.1796875,-19.04296875,-23.92578125,-44.921875,0.0
150.37890625,-27.34375,-37.109375,-19.04296875,-15.625,7.8125,0.0
150.3828125,-2.9296875,-28.3203125,-34.1796875,-8.30078125,2.9296875,0.0
150.38671875,-10.25390625,-19.53125,-30.76171875,-20.01953125,128.90625,0.0
150.390625,-21.97265625,-22.94921875,-24.4140625,-20.99609375,166.015625,0.0
150.39453125,-13.18359375,-32.2265625,-23.4375,-11.71875,78.125,0.0
150.3984375,0.0,-21.97265625,-20.99609375,-5.859375,5.37109375,0.0
150.40234375,12.20703125,-11.23046875,-39.55078125,-4.8828125,-103.02734375,0.0
150.40625,7.8125,-26.85546875,-38.57421875,-19.04296875,-228.515625,0.0
150.41015625,6.34765625,-39.0625,-24.4140625,-18.06640625,-292.96875,0.0
150.4140625,11.23046875,-34.1796875,-20.99609375,-5.859375,-241.2109375,0.0
150.41796875,5.37109375,-33.69140625,-20.99609375,-4.39453125,-95.703125,0.0
150.421875,7.32421875,-27.34375,-20.5078125,-3.41796875,-31.25,0.0
150.42578125,3.41796875,-18.5546875,-27.83203125,-9.27734375,3.41796875,0.0
150.4296875,-5.859375,-22.4609375,-33.203125,-11.23046875,87.890625,0.0
150.43359375,-7.8125,-32.2265625,-27.34375,0.0,64.94140625,0.0
150.4375,-13.18359375,-38.0859375,-24.4140625,5.859375,83.984375,0.0
150.44140625,-10.25390625,-29.78515625,-31.73828125,-4.8828125,48.33984375,0.0
150.4453125,-2.44140625,-15.625,-36.1328125,-12.6953125,-84.9609375,0.0
150.44921875,-16.11328125,-17.578125,-24.90234375,-11.23046875,-111.328125,0.0
150.453125,-28.80859375,-40.0390625,-25.87890625,-15.13671875,-139.6484375,0.0
150.45703125,-19.04296875,-34.66796875,-26.3671875,-5.37109375,-123.046875,0.0
150.4609375,-9.765625,-18.5546875,-16.6015625,-5.37109375,-132.32421875,0.0
150.46484375,-10.25390625,-27.34375,-17.08984375,-26.3671875,-140.13671875,0.0
150.46875,-21.484375,-16.6015625,-16.11328125,-22.4609375,-31.73828125,0.0
150.47265625,-37.109375,-15.625,-23.4375,-13.671875,16.11328125,0.0
150.4765625,-34.1796875,-31.73828125,-30.76171875,-13.671875,-26.3671875,0.0
150.48046875,-21.97265625,-34.1796875,-27.83203125,-16.6015625,29.296875,0.0
150.484375,-21.484375,-28.80859375,-28.3203125,-33.69140625,68.359375,0.0
150.48828125,-27.34375,-27.34375,-40.52734375,-40.0390625,0.48828125,0.0
150.4921875,-30.2734375,-28.80859375,-40.52734375,-25.87890625,-15.13671875,0.0
150.49609375,-27.34375,-30.2734375,-32.2265625,-14.16015625,57.6171875,0.0
150.5,-22.94921875,-34.1796875,-30.76171875,-13.18359375,34.1796875,0.0
150.50390625,-14.6484375,-30.76171875,-30.76171875,-7.8125,-98.6328125,0.0
150.5078125,-17.08984375,-22.4609375,-29.78515625,-9.765625,36.1328125,0.0
150.51171875,-30.76171875,-20.01953125,-20.01953125,-14.6484375,91.30859375,0.0
150.515625,-33.203125,-26.3671875,-23.4375,-10.7421875,-19.04296875,0.0
150.51953125,-22.4609375,-23.4375,-21.97265625,-14.6484375,51.7578125,0.0
150.5234375,-25.87890625,-23.4375,-30.2734375,-30.2734375,24.90234375,0.0
150.52734375,-33.69140625,-28.80859375,-41.9921875,-42.48046875,-1.953125,0.0
150.53125,-30.76171875,-31.25,-31.73828125,-36.1328125,-104.00390625,0.0
150.53515625,-20.01953125,-33.69140625,-22.94921875,-25.390625,-143.06640625,0.0
150.5390625,-5.37109375,-24.90234375,-13.18359375,-19.04296875,-40.52734375,0.0
150.54296875,0.0,-23.4375,-16.11328125,-27.83203125,-46.875,0.0
150.546875,-1.953125,-29.296875,-27.83203125,-32.2265625,-24.90234375,0.0
150.55078125,2.9296875,-27.34375,-34.66796875,-18.06640625,13.18359375,0.0
150.5546875,-11.23046875,-45.41015625,-42.48046875,-18.5546875,5.37109375,0.0
150.55859375,-4.8828125,-50.29296875,-40.0390625,-24.90234375,73.73046875,0.0
150.5625,14.16015625,-23.92578125,-20.5078125,-24.90234375,104.98046875,0.0
150.56640625,-1.46484375,-25.390625,-30.2734375,-38.57421875,54.6875,0.0
150.5703125,-11.71875,-40.0390625,-46.38671875,-43.9453125,31.73828125,0.0
150.57421875,-9.27734375,-38.57421875,-37.109375,-34.66796875,41.015625,0.0
150.578125,-3.41796875,-32.2265625,-20.99609375,-20.99609375,60.546875,0.0
150.58203125,-1.953125,-28.80859375,-14.16015625,-26.3671875,54.19921875,0.0
150.5859375,-16.11328125,-30.2734375,-22.94921875,-42.96875,2.44140625,0.0
150.58984375,-21.484375,-29.296875,-33.69140625,-37.109375,-63.96484375,0.0
150.59375,-17.08984375,-32.2265625,-30.76171875,-13.671875,-186.03515625,0.0
150.59765625,-19.53125,-39.0625,-32.71484375,-9.765625,-327.63671875,0.0
150.6015625,-19.04296875,-37.59765625,-33.203125,-25.390625,-332.03125,0.0
150.60546875,-20.99609375,-32.71484375,-37.109375,-33.69140625,-292.96875,0.0
150.609375,-22.94921875,-30.2734375,-43.9453125,-20.99609375,-248.53515625,0.0
150.61328125,-26.85546875,-30.2734375,-40.0390625,-7.8125,-214.35546875,0.0
150.6171875,-31.73828125,-28.80859375,-25.87890625,-4.39453125,-167.48046875,0.0
150.62109375,-29.78515625,-31.25,-19.04296875,-12.20703125,-118.1640625,0.0
150.625,-19.04296875,-24.90234375,-9.765625,-16.6015625,-73.73046875,0.0
150.62890625,-26.3671875,-13.18359375,-15.625,-16.11328125,-12.20703125,0.0
150.6328125,-31.73828125,-15.625,-26.3671875,-15.13671875,-3.90625,0.0
150.63671875,-17.578125,-26.3671875,-22.4609375,-10.7421875,-1.46484375,0.0
150.640625,-0.9765625,-26.3671875,-22.94921875,-4.8828125,4.8828125,0.0
150.64453125,-4.39453125,-21.97265625,-35.64453125,-21.484375,6.34765625,0.0
150.6484375,-19.04296875,-31.73828125,-46.38671875,-40.52734375,-7.32421875,0.0
150.65234375,-30.2734375,-40.52734375,-33.69140625,-37.59765625,-49.8046875,0.0
150.65625,-27.83203125,-31.25,-20.01953125,-29.296875,31.25,0.0
150.66015625,-12.6953125,-24.4140625,-23.92578125,-33.69140625,72.75390625,0.0
150.6640625,-14.6484375,-28.3203125,-31.73828125,-47.36328125,17.578125,0.0
150.66796875,-21.97265625,-28.3203125,-29.78515625,-44.43359375,3.41796875,0.0
150.671875,-32.71484375,-31.73828125,-27.83203125,-37.59765625,28.3203125,0.0
150.67578125,-36.1328125,-38.0859375,-22.94921875,-37.109375,62.98828125,0.0
150.6796875,-25.390625,-33.203125,-17.08984375,-30.2734375,56.640625,0.0
150.68359375,-18.5546875,-26.85546875,-21.484375,-26.85546875,17.08984375,0.0
150.6875,-21.97265625,-34.66796875,-27.34375,-34.1796875,-38.57421875,0.0
150.69140625,-37.109375,-47.8515625,-39.0625,-35.64453125,-92.7734375,0.0
150.6953125,-38.57421875,-43.45703125,-34.66796875,-25.390625,-125.0,0.0
150.69921875,-18.5546875,-38.57421875,-17.578125,-16.11328125,-147.4609375,0.0
150.703125,-19.04296875,-37.59765625,-19.53125,-19.04296875,-83.984375,0.0
150.70703125,-28.3203125,-34.1796875,-24.90234375,-29.78515625,16.11328125,0.0
150.7109375,-29.78515625,-25.87890625,-27.83203125,-29.296875,56.640625,0.0
150.71484375,-29.78515625,-30.2734375,-56.15234375,-19.53125,44.921875,0.0
150.71875,-16.6015625,-43.45703125,-40.52734375,-16.6015625,38.57421875,0.0
150.72265625,-3.41796875,-36.1328125,-14.6484375,-27.83203125,71.77734375,0.0
150.7265625,-8.7890625,-22.94921875,-23.4375,-33.203125,12.6953125,0.0
150.73046875,-20.5078125,-25.87890625,-27.83203125,-34.66796875,-69.3359375,0.0
150.734375,-33.203125,-40.0390625,-26.3671875,-32.2265625,-41.50390625,0.0
150.73828125,-29.78515625,-37.109375,-16.6015625,-26.3671875,-35.64453125,0.0
150.7421875,-24.4140625,-28.3203125,-28.3203125,-34.1796875,1.953125,0.0
150.74609375,-18.06640625,-34.66796875,-43.45703125,-46.38671875,28.80859375,0.0
150.75,-23.92578125,-32.71484375,-27.83203125,-37.59765625,47.36328125,0.0
150.75390625,-38.57421875,-25.87890625,-27.34375,-28.80859375,82.51953125,0.0
150.7578125,-26.3671875,-20.99609375,-41.015625,-28.3203125,14.6484375,0.0
150.76171875,-7.8125,-20.99609375,-41.50390625,-28.80859375,-13.18359375,0.0
150.765625,-13.18359375,-25.87890625,-33.69140625,-35.64453125,17.08984375,0.0
150.76953125,-20.99609375,-22.94921875,-30.2734375,-30.2734375,-0.9765625,0.0
150.7734375,-23.4375,-20.01953125,-21.484375,-29.78515625,-27.83203125,0.0
150.77734375,-21.97265625,-28.80859375,-20.01953125,-28.80859375,-55.17578125,0.0
150.78125,-17.08984375,-34.66796875,-27.34375,-28.80859375,-23.92578125,0.0
150.78515625,-22.94921875,-30.76171875,-28.3203125,-42.48046875,-30.76171875,0.0
150.7890625,-24.4140625,-34.66796875,-25.390625,-40.52734375,-83.0078125,0.0
150.79296875,-28.80859375,-41.50390625,-31.73828125,-35.64453125,-74.70703125,0.0
150.796875,-25.390625,-44.921875,-28.3203125,-28.80859375,-13.18359375,0.0
150.80078125,-19.53125,-36.62109375,-24.4140625,-23.92578125,39.0625,0.0
150.8046875,-25.390625,-27.83203125,-29.296875,-34.1796875,3.90625,0.0
150.80859375,-28.80859375,-27.34375,-26.85546875,-37.59765625,-25.390625,0.0
150.8125,-36.1328125,-32.71484375,-32.71484375,-32.71484375,-83.49609375,0.0
150.81640625,-29.78515625,-39.0625,-35.15625,-30.76171875,-168.45703125,0.0
150.8203125,-14.16015625,-38.0859375,-20.99609375,-31.25,-143.5546875,0.0
150.82421875,-19.04296875,-35.64453125,-24.90234375,-43.9453125,-113.76953125,0.0
150.828125,-32.2265625,-42.48046875,-31.25,-52.734375,-161.1328125,0.0
150.83203125,-31.25,-43.45703125,-28.80859375,-38.57421875,-166.50390625,0.0
150.8359375,-23.4375,-40.52734375,-34.66796875,-26.85546875,-74.21875,0.0
150.83984375,-26.85546875,-40.0390625,-41.50390625,-33.203125,-105.46875,0.0
150.84375,-27.83203125,-33.69140625,-51.26953125,-37.109375,-129.8828125,0.0
150.84765625,-26.3671875,-25.87890625,-36.62109375,-38.57421875,-30.2734375,0.0
150.8515625,-35.64453125,-30.76171875,-32.71484375,-41.015625,68.359375,0.0
150.85546875,-48.33984375,-48.33984375,-30.76171875,-45.8984375,92.7734375,0.0
150.859375,-36.62109375,-42.48046875,-20.99609375,-43.9453125,68.359375,0.0
150.86328125,-31.73828125,-34.66796875,-24.90234375,-46.875,121.09375,0.0
150.8671875,-44.43359375,-35.64453125,-33.203125,-48.828125,157.2265625,0.0
150.87109375,-46.38671875,-33.69140625,-36.62109375,-43.9453125,133.7890625,0.0
150.875,-53.7109375,-44.921875,-46.38671875,-36.1328125,79.1015625,0.0
150.87890625,-37.59765625,-44.921875,-43.9453125,-23.92578125,26.85546875,0.0
150.8828125,-26.85546875,-43.45703125,-38.0859375,-31.73828125,-39.55078125,0.0
150.88671875,-41.9921875,-54.19921875,-59.08203125,-41.50390625,-10.25390625,0.0
150.890625,-47.8515625,-46.875,-52.734375,-34.66796875,20.01953125,0.0
150.89453125,-43.45703125,-44.921875,-40.0390625,-29.78515625,-79.1015625,0.0
150.8984375,-36.1328125,-42.48046875,-32.71484375,-24.90234375,-22.4609375,0.0
150.90234375,-34.1796875,-37.109375,-17.08984375,-32.2265625,31.73828125,0.0
150.90625,-29.296875,-32.2265625,-22.4609375,-40.52734375,-82.51953125,0.0
150.91015625,-31.25,-39.0625,-26.3671875,-31.25,-64.453125,0.0
150.9140625,-43.45703125,-35.64453125,-22.4609375,-28.80859375,20.5078125,0.0
150.91796875,-32.71484375,-27.83203125,-30.2734375,-26.85546875,-21.484375,0.0
150.921875,-14.16015625,-32.71484375,-39.0625,-25.87890625,-47.36328125,0.0
150.92578125,-17.578125,-36.1328125,-38.0859375,-38.57421875,-26.85546875,0.0
150.9296875,-22.94921875,-42.96875,-28.80859375,-41.50390625,10.7421875,0.0
150.93359375,-22.94921875,-48.828125,-29.78515625,-31.73828125,4.39453125,0.0
150.9375,-17.578125,-39.55078125,-37.59765625,-28.80859375,17.578125,0.0
150.94140625,-3.41796875,-42.96875,-41.50390625,-38.0859375,-39.55078125,0.0
150.9453125,-9.765625,-45.41015625,-45.41015625,-50.78125,-91.796875,0.0
150.94921875,-32.71484375,-44.43359375,-30.2734375,-53.7109375,-113.28125,0.0
150.953125,-43.45703125,-53.7109375,-21.484375,-54.6875,-195.80078125,0.0
150.95703125,-33.69140625,-43.45703125,-26.3671875,-43.9453125,-80.078125,0.0
150.9609375,-22.94921875,-31.25,-35.15625,-40.52734375,-20.01953125,0.0
150.96484375,-35.64453125,-34.1796875,-29.78515625,-53.7109375,7.8125,0.0
150.96875,-44.43359375,-31.73828125,-21.484375,-45.8984375,90.33203125,0.0
150.97265625,-46.875,-33.69140625,-34.66796875,-36.62109375,63.4765625,0.0
150.9765625,-41.50390625,-42.48046875,-52.734375,-36.62109375,49.31640625,0.0
150.98046875,-36.62109375,-42.48046875,-50.78125,-39.0625,4.8828125,0.0
150.984375,-40.0390625,-41.9921875,-38.0859375,-41.015625,26.85546875,0.0
150.98828125,-38.0859375,-40.0390625,-27.83203125,-37.59765625,-5.37109375,0.0
150.9921875,-35.64453125,-38.0859375,-28.3203125,-30.2734375,-59.5703125,0.0
150.99609375,-37.59765625,-38.57421875,-42.96875,-16.6015625,-4.39453125,0.0
151.0,-24.90234375,-34.66796875,-41.50390625,-12.6953125,47.8515625,0.0
151.00390625,-10.7421875,-28.80859375,-27.34375,-23.92578125,14.6484375,0.0
151.0078125,-9.765625,-25.390625,-33.203125,-28.3203125,-7.32421875,0.0
151.01171875,-14.16015625,-25.87890625,-40.52734375,-19.53125,-92.28515625,0.0
151.015625,-9.765625,-33.203125,-37.109375,-10.25390625,-232.91015625,0.0
151.01953125,-1.46484375,-43.45703125,-34.1796875,-21.97265625,-309.5703125,0.0
151.0234375,2.44140625,-42.48046875,-33.69140625,-34.1796875,-274.90234375,0.0
151.02734375,-5.859375,-49.31640625,-32.71484375,-31.73828125,-122.55859375,0.0
151.03125,-21.97265625,-42.48046875,-42.48046875,-27.83203125,-15.625,0.0
151.03515625,-25.390625,-33.203125,-41.015625,-27.34375,26.85546875,0.0
151.0390625,-22.4609375,-33.203125,-31.25,-28.80859375,53.7109375,0.0
151.04296875,-26.3671875,-30.76171875,-36.62109375,-36.62109375,40.0390625,0.0
151.046875,-37.109375,-37.109375,-45.8984375,-48.33984375,39.0625,0.0
151.05078125,-54.19921875,-45.41015625,-56.15234375,-46.875,-34.1796875,0.0
151.0546875,-55.6640625,-40.52734375,-44.43359375,-35.64453125,-133.30078125,0.0
151.05859375,-36.1328125,-30.76171875,-26.3671875,-26.3671875,-91.796875,0.0
151.0625,-28.80859375,-43.45703125,-35.64453125,-34.66796875,-63.96484375,0.0
151.06640625,-40.52734375,-45.8984375,-44.43359375,-44.921875,-121.58203125,0.0
151.0703125,-42.96875,-36.62109375,-32.71484375,-32.2265625,-83.49609375,0.0
151.07421875,-33.69140625,-38.57421875,-22.94921875,-23.4375,-77.63671875,0.0
151.078125,-27.34375,-40.52734375,-20.5078125,-19.04296875,-93.26171875,0.0
151.08203125,-24.90234375,-33.69140625,-25.87890625,-16.11328125,-90.8203125,0.0
151.0859375,-28.80859375,-36.62109375,-35.15625,-19.04296875,-96.19140625,0.0
151.08984375,-43.9453125,-36.62109375,-33.69140625,-16.6015625,-15.625,0.0
151.09375,-50.29296875,-30.76171875,-27.34375,-12.6953125,-42.48046875,0.0
151.09765625,-31.73828125,-30.2734375,-24.90234375,-6.34765625,-74.21875,0.0
151.1015625,-21.484375,-27.83203125,-37.59765625,-8.7890625,-40.0390625,0.0
151.10546875,-24.4140625,-22.94921875,-27.83203125,-22.4609375,-30.2734375,0.0
151.109375,-38.0859375,-36.62109375,-21.484375,-32.71484375,-65.91796875,0.0
151.11328125,-54.6875,-50.78125,-29.78515625,-33.203125,-90.33203125,0.0
151.1171875,-51.7578125,-46.38671875,-21.484375,-24.90234375,-85.44921875,0.0
151.12109375,-42.96875,-34.66796875,-21.484375,-26.85546875,-40.0390625,0.0
151.125,-45.8984375,-29.78515625,-38.57421875,-41.50390625,-124.0234375,0.0
151.12890625,-43.45703125,-40.0390625,-41.50390625,-38.0859375,-142.578125,0.0
151.1328125,-36.62109375,-40.52734375,-47.36328125,-19.53125,-65.91796875,0.0
151.13671875,-37.59765625,-32.2265625,-39.0625,-20.01953125,-121.09375,0.0
151.140625,-35.15625,-27.83203125,-25.390625,-26.85546875,-72.75390625,0.0
151.14453125,-36.1328125,-23.92578125,-29.78515625,-37.59765625,7.8125,0.0
151.1484375,-42.96875,-22.94921875,-29.296875,-46.875,-4.8828125,0.0
151.15234375,-50.29296875,-33.69140625,-28.3203125,-41.015625,-5.37109375,0.0
151.15625,-52.24609375,-47.36328125,-29.78515625,-37.59765625,28.80859375,0.0
151.16015625,-43.9453125,-40.52734375,-36.1328125,-34.1796875,22.94921875,0.0
151.1640625,-35.15625,-27.83203125,-46.38671875,-33.69140625,-3.90625,0.0
151.16796875,-43.9453125,-38.0859375,-37.59765625,-41.015625,16.6015625,0.0
151.171875,-48.828125,-40.0390625,-31.25,-36.62109375,31.73828125,0.0
151.17578125,-47.36328125,-27.34375,-35.64453125,-32.2265625,-39.55078125,0.0
151.1796875,-30.2734375,-22.94921875,-42.48046875,-31.73828125,24.4140625,0.0
151.18359375,-21.97265625,-27.83203125,-39.0625,-40.52734375,55.6640625,0.0
151.1875,-37.109375,-40.0390625,-34.66796875,-51.26953125,-19.53125,0.0
151.19140625,-49.31640625,-38.0859375,-29.78515625,-38.57421875,-53.22265625,0.0
151.1953125,-43.9453125,-27.83203125,-27.34375,-24.4140625,32.71484375,0.0
151.19921875,-36.1328125,-29.296875,-30.2734375,-21.97265625,0.0,0.0
151.203125,-40.0390625,-31.73828125,-26.85546875,-30.2734375,-75.1953125,0.0
151.20703125,-37.109375,-25.87890625,-29.296875,-33.203125,-39.0625,0.0
151.2109375,-39.0625,-23.4375,-41.015625,-26.85546875,-28.3203125,0.0
151.21484375,-45.41015625,-35.64453125,-25.390625,-26.85546875,19.04296875,0.0
151.21875,-29.78515625,-38.0859375,-5.37109375,-20.99609375,-35.64453125,0.0
151.22265625,-18.5546875,-27.83203125,-10.25390625,-22.4609375,-37.59765625,0.0
151.2265625,-35.15625,-31.25,-33.69140625,-38.0859375,46.38671875,0.0
151.23046875,-54.19921875,-38.0859375,-48.828125,-45.8984375,54.6875,0.0
151.234375,-62.5,-41.50390625,-42.48046875,-30.76171875,31.25,0.0
151.23828125,-41.50390625,-37.59765625,-24.4140625,-14.6484375,-3.41796875,0.0
151.2421875,-32.71484375,-31.73828125,-21.97265625,-29.78515625,-33.69140625,0.0
151.24609375,-41.50390625,-28.3203125,-33.69140625,-47.36328125,-65.4296875,0.0
151.25,-45.8984375,-27.34375,-39.55078125,-39.0625,-12.20703125,0.0
151.25390625,-50.29296875,-34.1796875,-37.109375,-26.85546875,-14.6484375,0.0
151.2578125,-34.66796875,-38.57421875,-31.73828125,-22.4609375,-53.22265625,0.0
151.26171875,-32.2265625,-35.64453125,-33.203125,-29.78515625,11.23046875,0.0
151.265625,-37.109375,-33.69140625,-46.38671875,-40.0390625,20.5078125,0.0
151.26953125,-39.0625,-31.73828125,-38.57421875,-39.55078125,-54.6875,0.0
151.2734375,-36.1328125,-38.57421875,-19.53125,-29.296875,-18.06640625,0.0
151.27734375,-31.25,-48.828125,-17.08984375,-23.92578125,37.109375,0.0
151.28125,-30.2734375,-37.109375,-22.94921875,-31.25,-29.78515625,0.0
151.28515625,-29.78515625,-26.85546875,-29.78515625,-39.55078125,-64.453125,0.0
151.2890625,-37.59765625,-22.94921875,-35.64453125,-36.62109375,-57.6171875,0.0
151.29296875,-41.9921875,-29.78515625,-41.50390625,-30.2734375,-66.89453125,0.0
151.296875,-30.76171875,-38.57421875,-38.57421875,-23.4375,-109.86328125,0.0
151.30078125,-7.32421875,-31.25,-20.99609375,-15.625,-114.74609375,0.0
151.3046875,-18.5546875,-35.15625,-29.296875,-37.109375,-15.13671875,0.0
151.30859375,-28.3203125,-35.15625,-40.52734375,-46.38671875,36.62109375,0.0
151.3125,-25.87890625,-27.34375,-35.15625,-37.59765625,58.59375,0.0
151.31640625,-33.203125,-36.62109375,-37.59765625,-42.48046875,25.390625,0.0
151.3203125,-33.203125,-43.9453125,-26.85546875,-43.9453125,-26.85546875,0.0
151.32421875,-29.78515625,-41.9921875,-26.85546875,-50.78125,-22.4609375,0.0
151.328125,-35.15625,-39.0625,-30.76171875,-51.7578125,-16.6015625,0.0
151.33203125,-40.52734375,-35.64453125,-35.15625,-40.0390625,-138.671875,0.0
151.3359375,-33.203125,-33.203125,-34.1796875,-26.85546875,-176.7578125,0.0
151.33984375,-11.23046875,-25.390625,-22.94921875,-19.04296875,-81.54296875,0.0
151.34375,-5.37109375,-26.85546875,-37.109375,-26.3671875,-107.91015625,0.0
151.34765625,-24.4140625,-37.59765625,-49.8046875,-41.015625,-145.99609375,0.0
151.3515625,-33.203125,-45.8984375,-49.8046875,-44.43359375,-20.5078125,0.0
151.35546875,-28.3203125,-53.22265625,-41.9921875,-42.48046875,46.38671875,0.0
151.359375,-12.20703125,-41.015625,-23.92578125,-35.64453125,47.8515625,0.0
151.36328125,-11.71875,-35.15625,-34.1796875,-46.875,45.41015625,0.0
151.3671875,-28.80859375,-43.9453125,-54.19921875,-58.10546875,-12.20703125,0.0
151.37109375,-32.2265625,-41.9921875,-42.96875,-42.48046875,-45.8984375,0.0
151.375,-21.97265625,-39.55078125,-42.48046875,-30.76171875,-46.38671875,0.0
151.37890625,-9.765625,-38.57421875,-41.50390625,-23.92578125,35.15625,0.0
151.3828125,-5.37109375,-32.2265625,-29.78515625,-26.3671875,99.12109375,0.0
151.38671875,-1.46484375,-24.90234375,-34.1796875,-28.3203125,80.56640625,0.0
151.390625,-0.48828125,-24.90234375,-36.1328125,-19.04296875,111.328125,0.0
151.39453125,-12.6953125,-40.52734375,-31.73828125,-20.99609375,81.54296875,0.0
151.3984375,-1.46484375,-43.9453125,-28.80859375,-26.3671875,-20.5078125,0.0
151.40234375,10.7421875,-29.78515625,-45.8984375,-29.296875,-44.921875,0.0
151.40625,-3.41796875,-26.85546875,-42.48046875,-35.15625,-62.5,0.0
151.41015625,-14.6484375,-27.34375,-22.94921875,-37.109375,-59.08203125,0.0
151.4140625,-15.625,-32.2265625,-34.1796875,-30.76171875,-51.7578125,0.0
151.41796875,-5.37109375,-25.390625,-41.50390625,-15.625,-49.31640625,0.0
151.421875,-5.859375,-23.4375,-30.76171875,-22.94921875,-57.12890625,0.0
151.42578125,-14.16015625,-35.15625,-27.34375,-34.66796875,-50.78125,0.0
151.4296875,-18.06640625,-34.1796875,-35.64453125,-22.4609375,-98.14453125,0.0
151.43359375,-26.3671875,-28.3203125,-27.83203125,-16.6015625,-74.70703125,0.0
151.4375,-21.484375,-35.15625,-23.92578125,-19.04296875,-11.23046875,0.0
151.44140625,-13.671875,-31.73828125,-26.85546875,-27.83203125,-71.2890625,0.0
151.4453125,-15.625,-28.3203125,-31.73828125,-42.48046875,-93.26171875,0.0
151.44921875,-20.5078125,-35.64453125,-31.73828125,-42.48046875,-11.23046875,0.0
151.453125,-30.2734375,-42.48046875,-30.2734375,-38.0859375,-11.71875,0.0
151.45703125,-20.01953125,-39.55078125,-28.3203125,-38.0859375,14.6484375,0.0
151.4609375,-1.46484375,-29.296875,-31.25,-39.55078125,48.33984375,0.0
151.46484375,-0.9765625,-39.0625,-38.0859375,-45.8984375,-92.7734375,0.0
151.46875,-10.7421875,-43.9453125,-44.43359375,-44.921875,-160.15625,0.0
151.47265625,-26.3671875,-42.48046875,-45.8984375,-39.0625,-169.43359375,0.0
151.4765625,-19.53125,-32.2265625,-30.2734375,-27.34375,-131.34765625,0.0
151.48046875,-3.90625,-20.99609375,-29.296875,-22.4609375,-62.98828125,0.0
151.484375,-3.90625,-26.85546875,-48.33984375,-39.0625,-62.01171875,0.0
151.48828125,-13.18359375,-27.34375,-32.2265625,-39.0625,-67.87109375,0.0
151.4921875,-19.04296875,-29.296875,-19.53125,-19.53125,-104.98046875,0.0
151.49609375,-17.578125,-38.0859375,-27.83203125,-14.6484375,-118.65234375,0.0
151.5,-18.06640625,-33.203125,-26.85546875,-24.90234375,-105.95703125,0.0
151.50390625,-31.25,-30.76171875,-30.2734375,-44.921875,-127.9296875,0.0
151.5078125,-39.0625,-39.0625,-26.3671875,-49.31640625,-136.71875,0.0
151.51171875,-52.24609375,-47.8515625,-30.76171875,-40.0390625,-147.4609375,0.0
151.515625,-57.12890625,-56.15234375,-44.43359375,-33.69140625,-143.06640625,0.0
151.51953125,-39.55078125,-49.8046875,-37.59765625,-25.390625,-68.84765625,0.0
151.5234375,-33.69140625,-35.64453125,-36.1328125,-33.203125,-77.1484375,0.0
151.52734375,-37.109375,-36.62109375,-50.29296875,-47.36328125,-79.1015625,0.0
151.53125,-39.0625,-42.48046875,-51.26953125,-39.0625,-12.6953125,0.0
151.53515625,-44.43359375,-49.31640625,-30.76171875,-25.87890625,-3.90625,0.0
151.5390625,-27.34375,-45.8984375,-20.99609375,-22.94921875,-56.15234375,0.0
151.54296875,-20.01953125,-34.66796875,-32.71484375,-33.203125,-27.83203125,0.0
151.546875,-40.0390625,-37.59765625,-40.52734375,-46.38671875,-10.7421875,0.0
151.55078125,-51.7578125,-44.43359375,-41.015625,-41.50390625,-112.3046875,0.0
151.5546875,-44.43359375,-41.50390625,-38.57421875,-30.2734375,-113.76953125,0.0
151.55859375,-35.15625,-45.8984375,-35.15625,-31.73828125,-58.10546875,0.0
151.5625,-41.015625,-47.36328125,-35.64453125,-42.96875,-57.12890625,0.0
151.56640625,-46.38671875,-38.0859375,-47.36328125,-48.828125,-5.37109375,0.0
151.5703125,-47.36328125,-36.62109375,-62.01171875,-45.8984375,85.44921875,0.0
151.57421875,-44.921875,-39.0625,-48.828125,-41.50390625,44.921875,0.0
151.578125,-27.83203125,-41.015625,-24.4140625,-31.25,-10.7421875,0.0
151.58203125,-18.06640625,-41.50390625,-27.34375,-30.76171875,-21.484375,0.0
151.5859375,-17.08984375,-41.50390625,-28.3203125,-34.1796875,-31.73828125,0.0
151.58984375,-23.92578125,-40.52734375,-29.78515625,-29.78515625,-9.27734375,0.0
151.59375,-39.0625,-27.34375,-33.69140625,-20.01953125,35.15625,0.0
151.59765625,-25.390625,-22.4609375,-27.83203125,-6.8359375,18.06640625,0.0
151.6015625,-18.5546875,-23.92578125,-34.1796875,-16.11328125,19.04296875,0.0
151.60546875,-37.109375,-29.78515625,-34.66796875,-36.62109375,27.34375,0.0
151.609375,-34.66796875,-38.57421875,-25.87890625,-32.71484375,-4.8828125,0.0
151.61328125,-38.57421875,-39.55078125,-24.4140625,-21.484375,-10.25390625,0.0
151.6171875,-33.203125,-30.2734375,-19.04296875,-13.671875,-1.46484375,0.0
151.62109375,-22.94921875,-33.69140625,-27.34375,-24.4140625,0.48828125,0.0
151.625,-21.484375,-43.9453125,-44.921875,-38.0859375,-35.64453125,0.0
151.62890625,-2.9296875,-35.15625,-33.203125,-19.53125,-61.03515625,0.0
151.6328125,-6.34765625,-44.921875,-29.78515625,-8.30078125,-19.04296875,0.0
151.63671875,-16.6015625,-54.19921875,-26.85546875,-15.13671875,3.41796875,0.0
151.640625,-15.13671875,-50.29296875,-22.4609375,-25.390625,-73.2421875,0.0
151.64453125,-23.4375,-50.29296875,-32.2265625,-41.015625,-95.703125,0.0
151.6484375,-24.90234375,-42.96875,-45.8984375,-39.0625,-4.39453125,0.0
151.65234375,-31.25,-45.41015625,-49.8046875,-28.3203125,-3.41796875,0.0
151.65625,-19.04296875,-42.48046875,-27.83203125,-13.671875,-38.57421875,0.0
151.66015625,-1.953125,-25.87890625,-22.4609375,-13.18359375,11.23046875,0.0
151.6640625,-4.8828125,-20.5078125,-31.25,-22.4609375,-13.18359375,0.0
151.66796875,-2.9296875,-21.97265625,-37.59765625,-20.5078125,-37.109375,0.0
151.671875,7.32421875,-31.25,-40.0390625,-11.23046875,43.45703125,0.0
151.67578125,4.8828125,-38.57421875,-37.59765625,-2.44140625,20.01953125,0.0
151.6796875,-14.16015625,-36.62109375,-35.64453125,-8.7890625,-83.0078125,0.0
151.68359375,-24.4140625,-32.71484375,-26.3671875,-20.99609375,-5.37109375,0.0
151.6875,-27.83203125,-32.2265625,-27.34375,-24.90234375,-53.22265625,0.0
151.69140625,-26.85546875,-32.71484375,-31.25,-19.53125,-59.08203125,0.0
151.6953125,-32.71484375,-39.0625,-37.59765625,-16.11328125,26.85546875,0.0
151.69921875,-20.5078125,-41.50390625,-43.45703125,-16.6015625,0.0,0.0
151.703125,-6.34765625,-35.15625,-33.69140625,-30.2734375,-66.40625,0.0
151.70703125,-1.46484375,-24.90234375,-26.85546875,-36.62109375,-49.31640625,0.0
151.7109375,-9.27734375,-26.3671875,-23.4375,-26.3671875,-57.12890625,0.0
151.71484375,-8.7890625,-35.15625,-37.109375,-16.6015625,-13.671875,0.0
151.71875,8.30078125,-29.78515625,-44.43359375,-3.41796875,49.31640625,0.0
151.72265625,-2.44140625,-26.85546875,-37.109375,-14.16015625,-16.11328125,0.0
151.7265625,-17.578125,-47.8515625,-45.8984375,-30.76171875,-94.23828125,0.0
151.73046875,-23.4375,-60.546875,-39.55078125,-20.99609375,-74.21875,0.0
151.734375,-12.20703125,-34.66796875,-29.296875,-12.6953125,40.0390625,0.0
151.73828125,-2.44140625,-13.671875,-20.5078125,-12.6953125,74.70703125,0.0
151.7421875,-12.6953125,-11.71875,-18.06640625,-17.578125,43.9453125,0.0
151.74609375,-19.53125,-18.06640625,-35.64453125,-21.97265625,-15.625,0.0
151.75,-31.73828125,-24.90234375,-37.109375,-17.578125,16.11328125,0.0
151.75390625,-30.2734375,-29.78515625,-45.41015625,-14.6484375,-15.625,0.0
151.7578125,-13.18359375,-25.390625,-27.34375,-7.8125,-52.734375,0.0
151.76171875,-9.27734375,-23.92578125,-8.7890625,-10.7421875,-15.625,0.0
151.765625,-21.97265625,-27.83203125,-23.4375,-19.04296875,23.4375,0.0
151.76953125,-33.69140625,-35.15625,-31.25,-27.83203125,80.56640625,0.0
151.7734375,-34.66796875,-42.48046875,-28.3203125,-30.2734375,-6.8359375,0.0
151.77734375,-29.78515625,-39.0625,-29.78515625,-22.94921875,-112.79296875,0.0
151.78125,-19.04296875,-21.484375,-37.109375,-22.4609375,-69.3359375,0.0
151.78515625,-28.3203125,-21.484375,-39.0625,-38.0859375,-59.5703125,0.0
151.7890625,-37.109375,-33.69140625,-34.1796875,-45.41015625,-59.08203125,0.0
151.79296875,-21.97265625,-32.71484375,-30.76171875,-32.2265625,-33.69140625,0.0
151.796875,-12.20703125,-32.2265625,-32.71484375,-27.34375,-22.94921875,0.0
151.80078125,-25.390625,-36.62109375,-32.2265625,-38.0859375,-46.875,0.0
151.8046875,-33.69140625,-28.80859375,-27.34375,-47.36328125,-89.84375,0.0
151.80859375,-30.76171875,-20.01953125,-44.43359375,-41.015625,-67.3828125,0.0
151.8125,-33.203125,-30.2734375,-44.921875,-33.203125,34.66796875,0.0
151.81640625,-33.69140625,-38.0859375,-17.578125,-36.1328125,80.56640625,0.0
151.8203125,-33.203125,-27.83203125,-18.5546875,-43.45703125,30.76171875,0.0
151.82421875,-33.69140625,-24.90234375,-30.2734375,-49.31640625,-91.30859375,0.0
151.828125,-37.59765625,-30.2734375,-33.203125,-41.015625,-162.109375,0.0
151.83203125,-44.43359375,-24.4140625,-32.2265625,-28.3203125,-6.8359375,0.0
151.8359375,-38.0859375,-26.85546875,-14.6484375,-29.78515625,38.0859375,0.0
151.83984375,-20.01953125,-32.71484375,-4.8828125,-30.76171875,34.66796875,0.0
151.84375,-15.13671875,-26.3671875,-11.71875,-33.69140625,-6.8359375,0.0
151.84765625,-31.73828125,-24.90234375,-28.80859375,-41.50390625,-61.5234375,0.0
151.8515625,-32.2265625,-21.97265625,-30.2734375,-32.71484375,-42.48046875,0.0
151.85546875,-25.87890625,-17.578125,-30.2734375,-18.06640625,-65.4296875,0.0
151.859375,-31.73828125,-27.34375,-36.62109375,-24.4140625,-74.70703125,0.0
151.86328125,-34.1796875,-32.71484375,-39.55078125,-36.62109375,-78.61328125,0.0
151.8671875,-32.2265625,-27.83203125,-40.0390625,-39.55078125,-20.99609375,0.0
151.87109375,-47.8515625,-36.1328125,-30.76171875,-34.1796875,31.25,0.0
151.875,-51.26953125,-32.2265625,-24.90234375,-22.4609375,34.66796875,0.0
151.87890625,-15.13671875,-20.01953125,-28.80859375,-19.04296875,51.7578125,0.0
151.8828125,3.90625,-31.25,-50.78125,-27.83203125,29.78515625,0.0
151.88671875,-5.37109375,-36.62109375,-53.22265625,-31.73828125,-21.97265625,0.0
151.890625,-21.97265625,-36.1328125,-35.64453125,-28.80859375,-58.59375,0.0
151.89453125,-20.5078125,-41.015625,-28.3203125,-30.2734375,-46.875,0.0
151.8984375,0.9765625,-36.1328125,-21.484375,-23.4375,-61.5234375,0.0
151.90234375,-7.32421875,-26.85546875,-33.203125,-28.3203125,-53.22265625,0.0
151.90625,-14.16015625,-27.34375,-34.66796875,-38.57421875,-29.78515625,0.0
151.91015625,-8.7890625,-33.69140625,-18.06640625,-25.390625,-18.5546875,0.0
151.9140625,-8.30078125,-32.2265625,-21.484375,-2.9296875,-55.17578125,0.0
151.91796875,-0.48828125,-26.85546875,-34.1796875,-1.953125,-92.7734375,0.0
151.921875,-12.6953125,-25.87890625,-38.0859375,-18.5546875,-111.81640625,0.0
151.92578125,-32.2265625,-30.76171875,-22.94921875,-28.80859375,-113.28125,0.0
151.9296875,-41.015625,-32.71484375,-24.4140625,-22.4609375,-20.99609375,0.0
151.93359375,-46.38671875,-37.59765625,-37.59765625,-13.671875,-35.15625,0.0
151.9375,-42.96875,-40.52734375,-18.5546875,-11.23046875,-29.296875,0.0
151.94140625,-35.15625,-36.62109375,-7.8125,-20.99609375,76.66015625,0.0
151.9453125,-36.62109375,-22.94921875,-15.13671875,-30.76171875,47.36328125,0.0
151.94921875,-49.8046875,-16.6015625,-27.34375,-23.4375,3.41796875,0.0
151.953125,-50.29296875,-31.73828125,-43.45703125,-18.06640625,-24.4140625,0.0
151.95703125,-41.015625,-36.1328125,-28.80859375,-14.16015625,-42.96875,0.0
151.9609375,-32.2265625,-27.83203125,-27.34375,-17.08984375,-20.99609375,0.0
151.96484375,-26.85546875,-38.57421875,-39.0625,-21.97265625,-30.76171875,0.0
151.96875,-22.4609375,-37.59765625,-35.64453125,-5.37109375,-101.5625,0.0
151.97265625,-48.33984375,-32.2265625,-31.73828125,-11.23046875,-185.05859375,0.0
151.9765625,-50.78125,-34.1796875,-37.59765625,-20.01953125,-147.4609375,0.0
151.98046875,-46.38671875,-41.015625,-25.87890625,-32.71484375,-130.859375,0.0
151.984375,-67.87109375,-44.43359375,-18.06640625,-58.10546875,-194.3359375,0.0
151.98828125,-76.171875,-34.66796875,-24.90234375,-57.6171875,-116.69921875,0.0
151.9921875,-81.54296875,-30.2734375,-29.296875,-48.33984375,-137.20703125,0.0
151.99609375,-70.80078125,-35.64453125,-24.4140625,-37.59765625,-186.5234375,0.0
152.0,-55.17578125,-40.0390625,-15.13671875,-38.0859375,-166.015625,0.0
152.00390625,-56.15234375,-38.57421875,-28.3203125,-44.921875,-203.125,0.0
152.0078125,-57.6171875,-42.96875,-39.55078125,-49.8046875,-238.76953125,0.0
152.01171875,-58.10546875,-45.8984375,-38.0859375,-44.43359375,-207.03125,0.0
152.015625,-57.12890625,-40.52734375,-49.31640625,-32.2265625,-139.6484375,0.0
152.01953125,-49.8046875,-35.15625,-51.7578125,-38.57421875,-127.44140625,0.0
152.0234375,-39.55078125,-38.57421875,-31.25,-53.22265625,-82.03125,0.0
152.02734375,-35.15625,-34.1796875,-27.34375,-57.12890625,-40.52734375,0.0
152.03125,-38.0859375,-39.55078125,-23.92578125,-49.31640625,-73.2421875,0.0
152.03515625,-42.48046875,-52.24609375,-23.92578125,-41.50390625,-147.94921875,0.0
152.0390625,-31.73828125,-41.50390625,-30.2734375,-41.015625,-164.0625,0.0
152.04296875,-24.90234375,-37.109375,-50.29296875,-45.8984375,-100.09765625,0.0
152.046875,-20.99609375,-39.55078125,-64.453125,-49.31640625,-49.8046875,0.0
152.05078125,-15.625,-32.71484375,-44.921875,-25.87890625,-82.51953125,0.0
152.0546875,-21.484375,-31.25,-18.06640625,-17.08984375,6.8359375,0.0
152.05859375,-14.6484375,-27.83203125,-18.06640625,-26.85546875,-11.71875,0.0
152.0625,-10.7421875,-24.90234375,-31.25,-31.73828125,-139.16015625,0.0
152.06640625,-24.90234375,-27.83203125,-33.203125,-34.66796875,-38.57421875,0.0
152.0703125,-34.1796875,-34.66796875,-40.52734375,-27.34375,98.14453125,0.0
152.07421875,-37.59765625,-35.15625,-37.109375,-26.3671875,115.234375,0.0
152.078125,-20.99609375,-31.73828125,-20.01953125,-26.85546875,168.45703125,0.0
152.08203125,-13.671875,-36.62109375,-17.578125,-34.66796875,145.99609375,0.0
152.0859375,-39.55078125,-28.3203125,-29.78515625,-43.45703125,104.98046875,0.0
152.08984375,-42.48046875,-17.578125,-41.9921875,-43.9453125,99.609375,0.0
152.09375,-38.0859375,-25.390625,-53.7109375,-34.66796875,51.26953125,0.0
152.09765625,-38.57421875,-32.71484375,-29.296875,-24.90234375,74.21875,0.0
152.1015625,-35.15625,-35.64453125,-27.83203125,-34.1796875,102.5390625,0.0
152.10546875,-36.62109375,-44.921875,-38.0859375,-44.921875,8.7890625,0.0
152.109375,-43.45703125,-41.015625,-21.484375,-39.0625,18.5546875,0.0
152.11328125,-51.7578125,-28.80859375,-42.96875,-27.83203125,78.61328125,0.0
152.1171875,-43.45703125,-31.25,-35.64453125,-25.87890625,54.19921875,0.0
152.12109375,-38.0859375,-33.69140625,-19.04296875,-33.69140625,30.76171875,0.0
152.125,-41.50390625,-29.78515625,-40.52734375,-42.96875,-7.32421875,0.0
152.12890625,-34.66796875,-32.2265625,-39.55078125,-43.9453125,35.15625,0.0
152.1328125,-28.80859375,-41.015625,-24.90234375,-42.48046875,27.34375,0.0
152.13671875,-19.53125,-32.2265625,-24.90234375,-34.1796875,-30.76171875,0.0
152.140625,-13.671875,-23.92578125,-31.25,-30.76171875,-30.2734375,0.0
152.14453125,-34.1796875,-33.69140625,-48.828125,-51.7578125,11.71875,0.0
152.1484375,-43.9453125,-40.52734375,-49.31640625,-62.98828125,37.59765625,0.0
152.15234375,-44.43359375,-43.9453125,-22.4609375,-52.24609375,52.734375,0.0
152.15625,-43.45703125,-37.59765625,-21.97265625,-42.48046875,39.55078125,0.0
152.16015625,-36.62109375,-37.59765625,-40.52734375,-43.45703125,-44.43359375,0.0
152.1640625,-41.50390625,-41.50390625,-32.71484375,-55.17578125,-86.42578125,0.0
152.16796875,-46.875,-39.55078125,-30.76171875,-57.6171875,-70.80078125,0.0
152.171875,-49.8046875,-38.57421875,-34.66796875,-48.828125,-65.91796875,0.0
152.17578125,-47.8515625,-35.64453125,-40.0390625,-41.50390625,-29.78515625,0.0
152.1796875,-33.203125,-24.4140625,-34.66796875,-44.43359375,17.08984375,0.0
152.18359375,-33.69140625,-21.484375,-22.4609375,-49.31640625,-0.48828125,0.0
152.1875,-42.48046875,-38.57421875,-34.1796875,-55.17578125,-143.5546875,0.0
152.19140625,-50.29296875,-52.24609375,-59.08203125,-51.26953125,-150.390625,0.0
152.1953125,-55.17578125,-49.8046875,-54.6875,-28.3203125,-103.02734375,0.0
152.19921875,-43.9453125,-39.0625,-26.85546875,-22.94921875,-97.65625,0.0
152.203125,-39.55078125,-33.203125,-26.3671875,-38.57421875,49.8046875,0.0
152.20703125,-46.875,-37.59765625,-39.55078125,-47.36328125,4.8828125,0.0
152.2109375,-59.5703125,-41.9921875,-35.64453125,-42.96875,-105.95703125,0.0
152.21484375,-46.38671875,-43.9453125,-30.2734375,-23.4375,-53.7109375,0.0
152.21875,-14.16015625,-38.57421875,-28.3203125,-9.27734375,-28.3203125,0.0
152.22265625,-21.97265625,-35.64453125,-37.59765625,-32.2265625,-34.1796875,0.0
152.2265625,-38.57421875,-38.57421875,-39.55078125,-42.48046875,-78.125,0.0
152.23046875,-34.1796875,-32.71484375,-43.45703125,-26.3671875,-93.26171875,0.0
152.234375,-30.76171875,-46.875,-54.19921875,-25.390625,-14.6484375,0.0
152.23828125,-18.5546875,-48.828125,-47.8515625,-21.97265625,-8.7890625,0.0
152.2421875,-15.13671875,-35.15625,-31.73828125,-32.2265625,6.34765625,0.0
152.24609375,-17.578125,-41.9921875,-26.3671875,-41.9921875,30.76171875,0.0
152.25,-21.484375,-33.203125,-29.296875,-39.55078125,-20.01953125,0.0
152.25390625,-28.3203125,-30.76171875,-32.2265625,-30.76171875,60.546875,0.0
152.2578125,-18.5546875,-31.25,-31.25,-19.04296875,50.78125,0.0
152.26171875,-15.13671875,-27.34375,-31.25,-24.90234375,22.94921875,0.0
152.265625,-32.2265625,-33.203125,-32.2265625,-43.45703125,76.66015625,0.0
152.26953125,-42.96875,-30.2734375,-34.1796875,-36.1328125,60.546875,0.0
152.2734375,-43.9453125,-24.90234375,-34.66796875,-26.3671875,26.3671875,0.0
152.27734375,-51.26953125,-37.59765625,-38.0859375,-33.69140625,0.0,0.0
152.28125,-46.875,-41.50390625,-36.62109375,-31.73828125,-17.578125,0.0
152.28515625,-37.109375,-31.73828125,-29.296875,-29.296875,-4.39453125,0.0
152.2890625,-52.24609375,-34.1796875,-41.50390625,-24.90234375,32.2265625,0.0
152.29296875,-60.05859375,-41.9921875,-48.33984375,-20.99609375,43.45703125,0.0
152.296875,-44.921875,-39.0625,-25.87890625,-14.6484375,25.390625,0.0
152.30078125,-40.0390625,-34.1796875,-19.04296875,-10.25390625,-5.37109375,0.0
152.3046875,-41.9921875,-33.203125,-29.78515625,-22.4609375,40.52734375,0.0
152.30859375,-58.59375,-36.62109375,-35.15625,-32.71484375,31.25,0.0
152.3125,-67.87109375,-42.96875,-43.9453125,-20.99609375,-5.37109375,0.0
152.31640625,-45.41015625,-43.45703125,-57.12890625,-7.32421875,23.4375,0.0
152.3203125,-33.203125,-26.3671875,-32.2265625,-12.6953125,-24.4140625,0.0
152.32421875,-37.59765625,-18.06640625,-22.94921875,-24.90234375,4.8828125,0.0
152.328125,-42.96875,-24.90234375,-47.36328125,-23.92578125,-75.68359375,0.0
152.33203125,-40.52734375,-32.71484375,-42.48046875,-10.7421875,-166.9921875,0.0
152.3359375,-29.296875,-32.71484375,-4.39453125,-1.953125,-76.171875,0.0
152.33984375,-30.76171875,-23.4375,-0.48828125,-15.625,18.06640625,0.0
152.34375,-43.9453125,-23.4375,-19.04296875,-34.1796875,-2.44140625,0.0
152.34765625,-43.45703125,-29.78515625,-25.87890625,-31.73828125,0.0,0.0
152.3515625,-36.1328125,-31.25,-23.92578125,-19.04296875,-58.10546875,0.0
152.35546875,-40.0390625,-40.0390625,-22.94921875,-5.37109375,-77.1484375,0.0
152.359375,-42.48046875,-30.2734375,-20.99609375,-10.7421875,76.171875,0.0
152.36328125,-36.1328125,-28.3203125,-34.1796875,-23.92578125,48.33984375,0.0
152.3671875,-36.62109375,-37.59765625,-38.0859375,-23.92578125,-1.953125,0.0
152.37109375,-58.10546875,-40.0390625,-22.94921875,-29.78515625,48.33984375,0.0
152.375,-52.734375,-35.64453125,-12.20703125,-23.92578125,65.4296875,0.0
152.37890625,-26.85546875,-27.83203125,-16.6015625,-9.765625,47.8515625,0.0
152.3828125,-29.296875,-30.2734375,-26.85546875,-20.5078125,45.8984375,0.0
152.38671875,-35.15625,-38.57421875,-24.90234375,-32.2265625,41.50390625,0.0
152.390625,-42.96875,-49.31640625,-23.4375,-25.390625,-75.68359375,0.0
152.39453125,-39.0625,-46.38671875,-22.94921875,-4.8828125,-152.34375,0.0
152.3984375,-18.06640625,-33.69140625,-18.06640625,-1.953125,-35.64453125,0.0
152.40234375,-16.6015625,-36.1328125,-20.01953125,-22.94921875,-26.3671875,0.0
152.40625,-14.6484375,-30.76171875,-27.83203125,-23.4375,-92.28515625,0.0
152.41015625,-18.06640625,-25.390625,-36.1328125,-10.7421875,-99.12109375,0.0
152.4140625,-27.34375,-35.15625,-29.78515625,-2.44140625,-34.1796875,0.0
152.41796875,-22.94921875,-31.73828125,-17.08984375,-5.37109375,44.921875,0.0
152.421875,-5.37109375,-24.4140625,-23.4375,-18.5546875,8.30078125,0.0
152.42578125,-5.859375,-27.34375,-35.15625,-23.4375,41.015625,0.0
152.4296875,-30.2734375,-38.57421875,-31.73828125,-23.92578125,4.39453125,0.0
152.43359375,-39.0625,-43.9453125,-39.0625,-17.08984375,-18.06640625,0.0
152.4375,-25.87890625,-33.203125,-40.0390625,-8.30078125,-31.25,0.0
152.44140625,-24.90234375,-28.80859375,-39.55078125,-21.484375,-5.37109375,0.0
152.4453125,-41.50390625,-30.76171875,-41.015625,-41.9921875,-20.01953125,0.0
152.44921875,-45.41015625,-32.71484375,-30.76171875,-38.57421875,-65.91796875,0.0
152.453125,-46.875,-46.38671875,-31.25,-32.2265625,-45.41015625,0.0
152.45703125,-38.0859375,-42.48046875,-25.87890625,-28.80859375,-32.71484375,0.0
152.4609375,-32.2265625,-25.87890625,-25.87890625,-35.64453125,-95.21484375,0.0
152.46484375,-38.57421875,-21.484375,-32.2265625,-42.48046875,-65.4296875,0.0
152.46875,-27.83203125,-18.5546875,-29.78515625,-28.80859375,-72.75390625,0.0
152.47265625,-31.25,-28.80859375,-35.15625,-24.90234375,-120.60546875,0.0
152.4765625,-33.69140625,-36.1328125,-33.69140625,-32.71484375,-18.06640625,0.0
152.48046875,-16.11328125,-31.25,-35.64453125,-30.76171875,-40.0390625,0.0
152.484375,-11.23046875,-28.3203125,-46.875,-35.15625,-70.3125,0.0
152.48828125,-11.23046875,-29.296875,-55.6640625,-36.62109375,-29.296875,0.0
152.4921875,-18.5546875,-34.1796875,-42.48046875,-24.90234375,-96.6796875,0.0
152.49609375,-11.23046875,-41.015625,-27.34375,-20.5078125,-135.7421875,0.0
152.5,1.46484375,-33.203125,-24.4140625,-21.97265625,-58.59375,0.0
152.50390625,-19.53125,-26.85546875,-39.55078125,-34.1796875,-41.50390625,0.0
152.5078125,-35.15625,-26.3671875,-49.31640625,-39.55078125,-80.078125,0.0
152.51171875,-27.34375,-21.97265625,-24.90234375,-21.484375,17.578125,0.0
152.515625,-23.4375,-22.4609375,-15.625,-10.25390625,125.48828125,0.0
152.51953125,-23.92578125,-23.92578125,-34.1796875,-20.01953125,113.76953125,0.0
152.5234375,-30.76171875,-37.109375,-39.55078125,-39.55078125,38.0859375,0.0
152.52734375,-33.203125,-46.38671875,-32.2265625,-37.59765625,-38.57421875,0.0
152.53125,-33.203125,-40.52734375,-38.0859375,-22.94921875,-136.23046875,0.0
152.53515625,-36.1328125,-43.9453125,-44.921875,-23.4375,-120.1171875,0.0
152.5390625,-30.76171875,-45.8984375,-31.25,-29.296875,-55.6640625,0.0
152.54296875,-29.296875,-36.62109375,-35.15625,-38.57421875,-104.98046875,0.0
152.546875,-33.69140625,-31.25,-41.9921875,-46.875,-62.98828125,0.0
152.55078125,-34.66796875,-37.109375,-37.109375,-46.38671875,-27.34375,0.0
152.5546875,-30.76171875,-35.15625,-29.78515625,-38.57421875,-77.63671875,0.0
152.55859375,-19.04296875,-24.4140625,-21.484375,-33.69140625,-47.8515625,0.0
152.5625,-16.11328125,-31.25,-32.2265625,-41.9921875,16.11328125,0.0
152.56640625,-25.390625,-40.52734375,-41.015625,-49.8046875,-54.19921875,0.0
152.5703125,-30.76171875,-42.96875,-31.25,-35.64453125,-83.49609375,0.0
152.57421875,-22.94921875,-34.1796875,-26.3671875,-20.01953125,-21.97265625,0.0
152.578125,-9.27734375,-36.1328125,-28.80859375,-21.484375,-5.859375,0.0
152.58203125,-0.9765625,-39.55078125,-34.1796875,-26.3671875,-37.109375,0.0
152.5859375,-8.7890625,-36.1328125,-43.45703125,-25.390625,-19.04296875,0.0
152.58984375,-36.1328125,-41.015625,-48.828125,-21.97265625,52.24609375,0.0
152.59375,-49.8046875,-52.24609375,-36.1328125,-22.4609375,21.97265625,0.0
152.59765625,-45.41015625,-49.8046875,-24.4140625,-27.34375,-33.69140625,0.0
152.6015625,-36.1328125,-36.1328125,-33.203125,-27.83203125,-30.76171875,0.0
152.60546875,-43.9453125,-34.66796875,-31.73828125,-30.2734375,-2.9296875,0.0
152.609375,-58.59375,-42.96875,-26.85546875,-34.66796875,-1.953125,0.0
152.61328125,-59.5703125,-45.8984375,-23.92578125,-23.92578125,-80.078125,0.0
152.6171875,-49.8046875,-39.0625,-26.85546875,-17.08984375,-120.1171875,0.0
152.62109375,-41.015625,-30.2734375,-40.0390625,-22.4609375,-33.69140625,0.0
152.625,-49.8046875,-25.87890625,-31.73828125,-32.2265625,-43.9453125,0.0
152.62890625,-56.15234375,-33.69140625,-30.2734375,-33.203125,-58.59375,0.0
152.6328125,-49.8046875,-40.52734375,-38.57421875,-21.484375,-1.953125,0.0
152.63671875,-41.50390625,-41.50390625,-31.73828125,-14.6484375,-2.9296875,0.0
152.640625,-38.0859375,-41.50390625,-33.203125,-20.99609375,-86.42578125,0.0
152.64453125,-41.9921875,-39.0625,-36.62109375,-37.109375,-127.9296875,0.0
152.6484375,-47.8515625,-27.83203125,-22.4609375,-32.71484375,-100.5859375,0.0
152.65234375,-43.45703125,-29.78515625,-22.4609375,-20.5078125,-37.59765625,0.0
152.65625,-26.3671875,-36.62109375,-33.69140625,-19.04296875,-20.01953125,0.0
152.66015625,-20.01953125,-36.1328125,-40.52734375,-26.85546875,-29.296875,0.0
152.6640625,-28.3203125,-39.0625,-32.71484375,-36.1328125,-119.62890625,0.0
152.66796875,-34.66796875,-49.8046875,-24.90234375,-37.109375,-143.06640625,0.0
152.671875,-30.2734375,-49.31640625,-36.62109375,-32.2265625,-97.65625,0.0
152.67578125,-14.16015625,-36.62109375,-43.9453125,-27.34375,-64.94140625,0.0
152.6796875,2.9296875,-33.69140625,-45.41015625,-26.85546875,-12.20703125,0.0
152.68359375,-3.90625,-31.25,-56.15234375,-31.73828125,-35.64453125,0.0
152.6875,-20.5078125,-27.83203125,-34.1796875,-29.296875,-51.7578125,0.0
152.69140625,-24.4140625,-30.2734375,-14.16015625,-20.01953125,6.34765625,0.0
152.6953125,-21.97265625,-25.390625,-19.04296875,-14.6484375,34.66796875,0.0
152.69921875,-22.4609375,-26.3671875,-24.4140625,-23.92578125,-2.44140625,0.0
152.703125,-30.2734375,-38.0859375,-32.2265625,-39.0625,-50.78125,0.0
152.70703125,-28.80859375,-40.52734375,-39.0625,-38.0859375,-91.796875,0.0
152.7109375,-28.80859375,-36.1328125,-39.0625,-26.3671875,-161.1328125,0.0
152.71484375,-35.64453125,-37.59765625,-40.52734375,-19.53125,-156.25,0.0
152.71875,-29.78515625,-35.64453125,-37.109375,-20.5078125,-128.90625,0.0
152.72265625,-19.04296875,-32.2265625,-39.0625,-26.3671875,-121.58203125,0.0
152.7265625,-23.92578125,-37.109375,-36.62109375,-35.64453125,-136.71875,0.0
152.73046875,-30.2734375,-40.52734375,-34.1796875,-34.66796875,-108.88671875,0.0
152.734375,-28.80859375,-39.0625,-44.921875,-23.92578125,-8.30078125,0.0
152.73828125,-28.80859375,-30.76171875,-31.25,-27.83203125,-24.4140625,0.0
152.7421875,-29.296875,-24.90234375,-27.83203125,-41.015625,-23.4375,0.0
152.74609375,-36.1328125,-28.3203125,-36.1328125,-53.22265625,-13.671875,0.0
152.75,-37.109375,-32.2265625,-23.4375,-47.8515625,5.859375,0.0
152.75390625,-25.87890625,-26.3671875,-16.6015625,-25.87890625,60.546875,0.0
152.7578125,-15.625,-25.390625,-18.06640625,-21.97265625,53.22265625,0.0
152.76171875,-19.04296875,-31.73828125,-28.80859375,-41.015625,55.6640625,0.0
152.765625,-33.69140625,-30.2734375,-41.50390625,-52.734375,7.8125,0.0
152.76953125,-38.0859375,-28.80859375,-41.50390625,-33.69140625,-15.625,0.0
152.7734375,-34.66796875,-26.85546875,-38.0859375,-19.53125,46.875,0.0
152.77734375,-24.90234375,-27.34375,-36.62109375,-21.97265625,6.8359375,0.0
152.78125,-19.53125,-23.92578125,-27.34375,-29.296875,6.8359375,0.0
152.78515625,-26.3671875,-28.80859375,-25.87890625,-48.33984375,109.86328125,0.0
152.7890625,-25.87890625,-34.66796875,-34.1796875,-49.31640625,72.75390625,0.0
152.79296875,-24.4140625,-42.48046875,-35.64453125,-37.59765625,-38.57421875,0.0
152.796875,-11.71875,-38.0859375,-20.99609375,-32.71484375,-22.94921875,0.0
152.80078125,5.37109375,-21.484375,-22.4609375,-33.69140625,14.6484375,0.0
152.8046875,-3.41796875,-26.3671875,-34.66796875,-49.31640625,-45.8984375,0.0
152.80859375,-17.578125,-36.1328125,-35.15625,-48.828125,-23.4375,0.0
152.8125,-12.6953125,-31.25,-34.66796875,-33.69140625,33.203125,0.0
152.81640625,-5.37109375,-33.203125,-33.203125,-36.1328125,-13.18359375,0.0
152.8203125,-1.46484375,-39.0625,-30.76171875,-37.59765625,-87.40234375,0.0
152.82421875,0.0,-32.71484375,-44.43359375,-39.55078125,-41.015625,0.0
152.828125,-4.39453125,-30.2734375,-48.33984375,-36.62109375,-43.9453125,0.0
152.83203125,-17.578125,-36.1328125,-36.62109375,-31.25,-58.59375,0.0
152.8359375,-22.4609375,-34.1796875,-38.57421875,-30.76171875,13.18359375,0.0
152.83984375,-20.01953125,-36.62109375,-27.34375,-40.52734375,2.44140625,0.0
152.84375,-18.06640625,-41.50390625,-20.5078125,-51.26953125,-71.2890625,0.0
152.84765625,-18.06640625,-43.9453125,-27.83203125,-47.36328125,-74.21875,0.0
152.8515625,-23.92578125,-45.41015625,-32.2265625,-39.0625,-44.921875,0.0
152.85546875,-21.97265625,-39.55078125,-34.1796875,-37.109375,-26.3671875,0.0
152.859375,-12.6953125,-32.2265625,-43.9453125,-40.0390625,-1.46484375,0.0
152.86328125,-18.5546875,-32.71484375,-54.19921875,-49.31640625,7.32421875,0.0
152.8671875,-30.76171875,-42.96875,-37.59765625,-53.22265625,-15.625,0.0
152.87109375,-37.59765625,-50.78125,-24.4140625,-51.7578125,15.625,0.0
152.875,-28.80859375,-52.24609375,-31.73828125,-45.8984375,-5.37109375,0.0
152.87890625,-10.25390625,-49.31640625,-29.78515625,-43.9453125,-38.57421875,0.0
152.8828125,-14.6484375,-42.96875,-34.1796875,-53.7109375,-99.609375,0.0
152.88671875,-20.5078125,-41.015625,-50.78125,-54.19921875,-184.08203125,0.0
152.890625,-25.390625,-41.9921875,-45.41015625,-38.57421875,-183.59375,0.0
152.89453125,-32.71484375,-42.96875,-22.4609375,-31.25,-105.46875,0.0
152.8984375,-25.87890625,-38.0859375,-22.4609375,-35.64453125,-56.640625,0.0
152.90234375,-31.73828125,-38.57421875,-43.45703125,-51.7578125,-119.62890625,0.0
152.90625,-34.66796875,-40.0390625,-44.43359375,-54.6875,-119.62890625,0.0
152.91015625,-35.64453125,-28.80859375,-39.55078125,-41.015625,11.71875,0.0
152.9140625,-33.69140625,-28.3203125,-44.921875,-31.73828125,32.71484375,0.0
152.91796875,-8.30078125,-27.83203125,-33.203125,-20.99609375,32.2265625,0.0
152.921875,-10.25390625,-18.5546875,-29.78515625,-33.69140625,101.07421875,0.0
152.92578125,-19.53125,-22.4609375,-43.9453125,-51.26953125,28.3203125,0.0
152.9296875,-20.5078125,-30.2734375,-42.48046875,-39.0625,-54.19921875,0.0
152.93359375,-33.69140625,-27.34375,-35.64453125,-28.80859375,-43.45703125,0.0
152.9375,-32.2265625,-32.2265625,-37.109375,-34.66796875,-18.5546875,0.0
152.94140625,-24.4140625,-32.71484375,-39.55078125,-44.43359375,5.37109375,0.0
152.9453125,-38.0859375,-29.78515625,-39.55078125,-56.640625,0.9765625,0.0
152.94921875,-52.734375,-31.73828125,-25.87890625,-51.7578125,0.9765625,0.0
152.953125,-51.26953125,-37.109375,-20.99609375,-37.109375,26.3671875,0.0
152.95703125,-41.9921875,-40.52734375,-28.3203125,-36.62109375,20.01953125,0.0
152.9609375,-31.25,-25.87890625,-20.99609375,-37.59765625,-9.27734375,0.0
152.96484375,-35.64453125,-27.83203125,-39.55078125,-39.0625,-24.4140625,0.0
152.96875,-52.24609375,-41.015625,-53.7109375,-37.109375,-17.578125,0.0
152.97265625,-61.5234375,-44.921875,-15.625,-27.34375,2.9296875,0.0
152.9765625,-51.7578125,-37.109375,-1.953125,-19.04296875,33.203125,0.0
152.98046875,-41.50390625,-31.73828125,-14.16015625,-23.4375,-6.8359375,0.0
152.984375,-41.50390625,-37.109375,-19.53125,-36.62109375,-3.41796875,0.0
152.98828125,-42.48046875,-35.15625,-15.13671875,-37.59765625,54.19921875,0.0
152.9921875,-34.66796875,-34.1796875,-18.06640625,-24.90234375,10.7421875,0.0
152.99609375,-22.4609375,-32.71484375,-40.0390625,-23.4375,-48.828125,0.0
153.0,-14.16015625,-32.2265625,-29.78515625,-42.96875,-58.10546875,0.0
153.00390625,-19.53125,-38.0859375,-30.76171875,-49.8046875,-24.90234375,0.0
153.0078125,-31.73828125,-37.59765625,-37.59765625,-48.828125,9.765625,0.0
153.01171875,-38.57421875,-41.015625,-35.15625,-42.48046875,-11.23046875,0.0
153.015625,-27.34375,-40.52734375,-27.83203125,-33.69140625,-78.125,0.0
153.01953125,-17.578125,-31.73828125,-19.04296875,-36.1328125,-35.15625,0.0
153.0234375,-19.04296875,-17.578125,-43.45703125,-39.0625,41.9921875,0.0
153.02734375,-20.99609375,-18.5546875,-37.59765625,-36.62109375,28.3203125,0.0
153.03125,-37.109375,-40.0390625,-11.23046875,-32.2265625,-0.48828125,0.0
153.03515625,-32.71484375,-48.33984375,-7.32421875,-16.6015625,-98.14453125,0.0
153.0390625,-23.92578125,-38.57421875,-10.7421875,-12.20703125,-112.79296875,0.0
153.04296875,-41.50390625,-35.64453125,-26.3671875,-34.1796875,-66.40625,0.0
153.046875,-51.26953125,-38.0859375,-33.203125,-41.015625,-59.08203125,0.0
153.05078125,-60.546875,-37.109375,-29.296875,-29.296875,-39.0625,0.0
153.0546875,-58.59375,-39.0625,-38.0859375,-22.94921875,-46.875,0.0
153.05859375,-52.734375,-41.015625,-43.9453125,-28.3203125,-37.59765625,0.0
153.0625,-66.40625,-41.9921875,-41.50390625,-45.8984375,-20.01953125,0.0
153.06640625,-75.68359375,-43.45703125,-35.64453125,-58.59375,-10.7421875,0.0
153.0703125,-82.51953125,-41.9921875,-32.71484375,-54.19921875,-23.92578125,0.0
153.07421875,-66.89453125,-41.9921875,-41.50390625,-44.43359375,-9.765625,0.0
153.078125,-46.38671875,-36.1328125,-41.9921875,-41.9921875,-24.90234375,0.0
153.08203125,-47.36328125,-30.76171875,-46.38671875,-50.29296875,-24.90234375,0.0
153.0859375,-41.9921875,-36.1328125,-29.296875,-48.33984375,-52.24609375,0.0
153.08984375,-34.66796875,-41.9921875,-19.04296875,-39.55078125,-49.31640625,0.0
153.09375,-36.1328125,-32.2265625,-33.203125,-32.71484375,49.8046875,0.0
153.09765625,-24.90234375,-21.97265625,-38.57421875,-26.85546875,-3.90625,0.0
153.1015625,-26.85546875,-31.25,-38.57421875,-41.50390625,-132.32421875,0.0
153.10546875,-41.015625,-42.96875,-36.1328125,-59.5703125,-142.08984375,0.0
153.109375,-34.1796875,-36.1328125,-29.296875,-43.9453125,-103.02734375,0.0
153.11328125,-29.78515625,-32.71484375,-34.66796875,-37.109375,19.04296875,0.0
153.1171875,-35.64453125,-32.71484375,-44.43359375,-45.8984375,4.8828125,0.0
153.12109375,-29.78515625,-25.390625,-37.59765625,-46.875,-103.02734375,0.0
153.125,-32.2265625,-33.69140625,-24.4140625,-59.5703125,-60.546875,0.0
153.12890625,-37.109375,-28.80859375,-5.37109375,-56.15234375,5.859375,0.0
153.1328125,-44.43359375,-25.87890625,-18.06640625,-42.48046875,-26.85546875,0.0
153.13671875,-26.3671875,-37.109375,-32.2265625,-33.69140625,11.23046875,0.0
153.140625,-32.2265625,-31.73828125,-29.78515625,-50.29296875,9.27734375,0.0
153.14453125,-77.1484375,-27.83203125,-31.25,-91.30859375,2.9296875,0.0
153.1484375,-91.796875,-23.4375,-30.76171875,-104.00390625,70.3125,0.0
153.15234375,-99.609375,-24.90234375,-35.15625,-113.76953125,65.91796875,0.0
153.15625,-109.86328125,-33.69140625,-37.59765625,-123.046875,-36.62109375,0.0
153.16015625,-119.62890625,-27.83203125,-46.38671875,-143.06640625,-72.75390625,0.0
153.1640625,-118.1640625,-17.08984375,-39.55078125,-156.25,-5.859375,0.0
153.16796875,-132.8125,-20.99609375,-9.27734375,-167.48046875,11.71875,0.0
153.171875,-162.59765625,-23.92578125,14.16015625,-173.828125,-19.53125,0.0
153.17578125,-157.71484375,-17.578125,-39.55078125,-157.2265625,-79.1015625,0.0
153.1796875,-160.15625,-22.4609375,-55.6640625,-183.59375,-6.34765625,0.0
153.18359375,-168.45703125,-27.83203125,30.76171875,-206.0546875,79.1015625,0.0
153.1875,-176.7578125,-11.71875,32.71484375,-198.73046875,19.53125,0.0
153.19140625,-181.640625,-13.18359375,10.25390625,-189.94140625,-96.19140625,0.0
153.1953125,-169.921875,-37.109375,2.9296875,-181.640625,-196.2890625,0.0
153.19921875,-168.45703125,-30.76171875,-13.671875,-187.01171875,-161.1328125,0.0
153.203125,-177.734375,-14.16015625,-22.4609375,-194.82421875,-84.47265625,0.0
153.20703125,-177.24609375,-18.06640625,-35.15625,-189.453125,-89.84375,0.0
153.2109375,-167.96875,-18.5546875,-36.62109375,-170.41015625,-204.58984375,0.0
153.21484375,-157.2265625,-34.1796875,-11.23046875,-153.80859375,-200.1953125,0.0
153.21875,-128.90625,-40.0390625,-1.953125,-136.23046875,-141.11328125,0.0
153.22265625,-118.1640625,-31.25,-29.78515625,-129.8828125,-132.8125,0.0
153.2265625,-124.51171875,-35.15625,-65.91796875,-129.8828125,-109.86328125,0.0
153.23046875,-127.44140625,-50.78125,-48.33984375,-118.65234375,-37.109375,0.0
153.234375,-94.23828125,-65.4296875,-22.94921875,-81.54296875,-8.7890625,0.0
153.23828125,-62.98828125,-45.8984375,-32.71484375,-66.89453125,41.9921875,0.0
153.2421875,-73.73046875,-35.15625,-56.15234375,-73.73046875,97.16796875,0.0
153.24609375,-52.734375,-38.57421875,-70.80078125,-45.41015625,68.84765625,0.0
153.25,-34.1796875,-35.15625,-64.453125,-21.484375,38.57421875,0.0
153.25390625,-45.8984375,-50.78125,-39.55078125,-28.3203125,-0.48828125,0.0
153.2578125,-17.08984375,-49.31640625,-55.17578125,-8.30078125,-48.33984375,0.0
153.26171875,-1.46484375,-46.875,-62.5,3.41796875,17.578125,0.0
153.265625,-11.71875,-55.6640625,-41.50390625,-2.9296875,-8.30078125,0.0
153.26953125,1.953125,-62.01171875,-35.64453125,11.71875,-16.6015625,0.0
153.2734375,9.765625,-69.82421875,-50.78125,32.71484375,-15.13671875,0.0
153.27734375,17.08984375,-61.5234375,-58.59375,49.8046875,-20.5078125,0.0
153.28125,26.85546875,-43.9453125,-78.125,42.48046875,-28.80859375,0.0
153.28515625,9.765625,-48.828125,-76.171875,12.6953125,-21.97265625,0.0
153.2890625,20.99609375,-29.78515625,-51.7578125,31.25,-75.68359375,0.0
153.29296875,11.71875,-34.1796875,-32.2265625,35.64453125,-78.61328125,0.0
153.296875,-21.484375,-70.3125,-31.73828125,4.39453125,-2.44140625,0.0
153.30078125,-13.18359375,-56.15234375,-49.8046875,-2.44140625,41.50390625,0.0
153.3046875,-9.27734375,-38.57421875,-59.08203125,-5.859375,10.7421875,0.0
153.30859375,-3.41796875,-34.66796875,-45.41015625,17.08984375,-41.50390625,0.0
153.3125,14.16015625,-46.38671875,-51.7578125,42.48046875,-32.2265625,0.0
153.31640625,25.87890625,-61.03515625,-58.59375,44.43359375,-31.25,0.0
153.3203125,22.94921875,-60.546875,-50.78125,29.78515625,-39.55078125,0.0
153.32421875,8.30078125,-69.3359375,-61.5234375,0.48828125,-13.671875,0.0
153.328125,8.7890625,-43.9453125,-70.80078125,4.39453125,-18.06640625,0.0
153.33203125,3.90625,-38.57421875,-56.640625,18.06640625,-55.17578125,0.0
153.3359375,1.953125,-40.0390625,-44.43359375,14.6484375,-33.69140625,0.0
153.33984375,1.46484375,-31.25,-52.24609375,0.0,-29.296875,0.0
153.34375,0.9765625,-32.71484375,-61.03515625,-5.859375,-116.69921875,0.0
153.34765625,5.37109375,-38.0859375,-53.7109375,6.34765625,-135.7421875,0.0
153.3515625,1.46484375,-30.2734375,-52.24609375,23.4375,-31.25,0.0
153.35546875,10.7421875,-18.06640625,-63.96484375,34.66796875,-18.06640625,0.0
153.359375,11.71875,-23.92578125,-63.96484375,30.76171875,-58.10546875,0.0
153.36328125,-1.953125,-36.62109375,-52.24609375,12.6953125,-40.0390625,0.0
153.3671875,3.90625,-40.52734375,-49.31640625,6.8359375,-93.26171875,0.0
153.37109375,-2.44140625,-45.41015625,-50.29296875,14.16015625,-175.78125,0.0
153.375,3.90625,-40.0390625,-48.828125,23.4375,-111.328125,0.0
153.37890625,23.4375,-33.69140625,-42.96875,24.4140625,-28.3203125,0.0
153.3828125,21.484375,-28.3203125,-51.26953125,17.578125,-10.25390625,0.0
153.38671875,10.7421875,-27.83203125,-39.55078125,3.90625,40.52734375,0.0
153.390625,-1.46484375,-32.71484375,-52.24609375,4.39453125,46.875,0.0
153.39453125,-7.32421875,-29.78515625,-47.8515625,19.53125,-12.20703125,0.0
153.3984375,1.953125,-25.87890625,-9.27734375,15.625,13.671875,0.0
153.40234375,7.32421875,-22.94921875,-15.625,8.7890625,51.7578125,0.0
153.40625,0.48828125,-31.73828125,-26.3671875,4.39453125,3.41796875,0.0
153.41015625,-4.8828125,-41.9921875,-41.9921875,4.39453125,-67.3828125,0.0
153.4140625,-1.46484375,-36.62109375,-54.6875,14.6484375,-55.17578125,0.0
153.41796875,2.9296875,-27.34375,-48.828125,11.23046875,-114.2578125,0.0
153.421875,-0.48828125,-28.3203125,-44.921875,-2.9296875,-145.99609375,0.0
153.42578125,-5.37109375,-20.99609375,-44.921875,-7.8125,-86.42578125,0.0
153.4296875,-0.48828125,-26.85546875,-41.015625,-0.48828125,-116.2109375,0.0
153.43359375,3.90625,-29.296875,-47.36328125,14.6484375,-61.03515625,0.0
153.4375,5.859375,-33.203125,-36.62109375,9.765625,-59.5703125,0.0
153.44140625,1.953125,-31.73828125,-28.3203125,-8.7890625,-185.05859375,0.0
153.4453125,-9.765625,-22.94921875,-20.5078125,-17.08984375,-91.30859375,0.0
153.44921875,-12.6953125,-20.01953125,-27.34375,-6.8359375,64.453125,0.0
153.453125,-7.32421875,-29.78515625,-31.25,10.25390625,75.1953125,0.0
153.45703125,0.48828125,-29.78515625,-15.625,16.6015625,50.78125,0.0
153.4609375,4.39453125,-8.7890625,-24.4140625,1.46484375,50.78125,0.0
153.46484375,-1.46484375,-20.5078125,-39.0625,-18.5546875,46.38671875,0.0
153.46875,-7.32421875,-31.73828125,-40.52734375,-15.13671875,19.04296875,0.0
153.47265625,-1.953125,-19.53125,-45.41015625,2.44140625,40.0390625,0.0
153.4765625,22.4609375,-20.99609375,-33.203125,13.671875,15.13671875,0.0
153.48046875,25.390625,-28.3203125,-25.390625,-0.9765625,7.32421875,0.0
153.484375,-2.44140625,-25.87890625,-31.25,-23.92578125,5.859375,0.0
153.48828125,-17.578125,-26.3671875,-43.45703125,-29.296875,11.23046875,0.0
153.4921875,-7.8125,-14.6484375,-46.875,-5.859375,93.75,0.0
153.49609375,-17.578125,-20.5078125,-19.04296875,-8.7890625,134.27734375,0.0
153.5,-27.34375,-31.73828125,-15.625,-29.78515625,66.40625,0.0
153.50390625,-17.08984375,-28.3203125,-36.1328125,-30.2734375,-57.12890625,0.0
153.5078125,-6.8359375,-31.25,-57.12890625,-17.08984375,-51.7578125,0.0
153.51171875,-15.625,-38.57421875,-45.8984375,-11.23046875,-105.95703125,0.0
153.515625,-17.08984375,-35.64453125,-34.66796875,-18.06640625,-216.796875,0.0
153.51953125,6.8359375,-21.484375,-38.57421875,-16.11328125,-184.5703125,0.0
153.5234375,8.30078125,-26.3671875,-29.296875,-17.578125,-102.5390625,0.0
153.52734375,-6.34765625,-42.96875,-33.69140625,-33.69140625,-26.3671875,0.0
153.53125,-19.53125,-37.109375,-41.015625,-34.1796875,-9.765625,0.0
153.53515625,-9.27734375,-20.5078125,-32.2265625,-8.30078125,53.7109375,0.0
153.5390625,-11.71875,-12.6953125,-27.83203125,-10.25390625,55.17578125,0.0
153.54296875,-25.87890625,-21.97265625,-43.9453125,-36.1328125,6.34765625,0.0
153.546875,-16.11328125,-27.34375,-21.484375,-21.97265625,-7.32421875,0.0
153.55078125,-20.01953125,-29.78515625,-11.23046875,-6.34765625,-39.0625,0.0
153.5546875,-15.13671875,-38.57421875,-24.4140625,7.32421875,-8.7890625,0.0
153.55859375,-8.30078125,-25.87890625,-17.08984375,7.8125,35.15625,0.0
153.5625,-9.27734375,-13.18359375,-16.6015625,-7.8125,17.08984375,0.0
153.56640625,-3.90625,-22.94921875,-26.3671875,-10.7421875,0.48828125,0.0
153.5703125,-16.11328125,-33.69140625,-26.3671875,-12.20703125,3.41796875,0.0
153.57421875,-24.90234375,-35.15625,-26.3671875,-0.9765625,-37.109375,0.0
153.578125,-15.13671875,-27.83203125,-34.66796875,5.859375,-46.38671875,0.0
153.58203125,-10.25390625,-28.3203125,-26.85546875,-5.859375,-12.20703125,0.0
153.5859375,-22.94921875,-34.1796875,-18.5546875,-10.25390625,42.48046875,0.0
153.58984375,-38.0859375,-32.71484375,-35.15625,-8.30078125,41.9921875,0.0
153.59375,-35.15625,-34.1796875,-28.80859375,-4.39453125,-32.71484375,0.0
153.59765625,-17.08984375,-22.94921875,-14.6484375,4.8828125,-60.05859375,0.0
153.6015625,-7.32421875,-26.3671875,-16.6015625,-10.25390625,-50.78125,0.0
153.60546875,-12.6953125,-42.48046875,-18.06640625,-25.87890625,-80.078125,0.0
153.609375,-11.71875,-26.85546875,-19.04296875,-17.578125,-34.1796875,0.0
153.61328125,-11.71875,-17.578125,-29.296875,-6.8359375,54.6875,0.0
153.6171875,-13.18359375,-24.4140625,-33.203125,-12.6953125,108.3984375,0.0
153.62109375,-12.20703125,-29.78515625,-34.1796875,-27.83203125,-8.30078125,0.0
153.625,-11.23046875,-29.78515625,-20.99609375,-32.2265625,-84.47265625,0.0
153.62890625,-8.7890625,-24.90234375,-26.3671875,-21.97265625,-6.34765625,0.0
153.6328125,-8.7890625,-27.83203125,-39.0625,-13.18359375,-100.5859375,0.0
153.63671875,-6.34765625,-34.66796875,-11.71875,-13.18359375,-89.35546875,0.0
153.640625,4.39453125,-27.34375,-10.7421875,-19.53125,28.3203125,0.0
153.64453125,-2.44140625,-22.94921875,-25.87890625,-25.87890625,3.90625,0.0
153.6484375,-11.71875,-31.73828125,-33.69140625,-23.4375,27.83203125,0.0
153.65234375,-9.765625,-35.15625,-34.1796875,-12.6953125,18.5546875,0.0
153.65625,-5.37109375,-21.97265625,-20.99609375,-2.9296875,-153.3203125,0.0
153.66015625,-6.34765625,-22.4609375,-24.4140625,-13.671875,-120.60546875,0.0
153.6640625,-10.7421875,-26.85546875,-26.3671875,-27.34375,-5.859375,0.0
153.66796875,-6.34765625,-25.390625,-28.80859375,-15.13671875,3.90625,0.0
153.671875,-3.90625,-31.73828125,-44.921875,-7.32421875,50.78125,0.0
153.67578125,4.39453125,-31.73828125,-37.59765625,-6.34765625,38.0859375,0.0
153.6796875,3.90625,-25.390625,-20.01953125,-13.18359375,-11.23046875,0.0
153.68359375,3.90625,-21.484375,-27.83203125,-20.01953125,-28.80859375,0.0
153.6875,-1.46484375,-26.3671875,-40.52734375,-23.4375,-26.3671875,0.0
153.69140625,-20.01953125,-29.296875,-40.0390625,-23.92578125,-29.78515625,0.0
153.6953125,-25.87890625,-34.1796875,-34.1796875,-15.625,-126.953125,0.0
153.69921875,-18.06640625,-31.73828125,-17.08984375,-17.08984375,-164.0625,0.0
153.703125,-23.92578125,-30.76171875,-9.765625,-28.3203125,-113.76953125,0.0
153.70703125,-42.48046875,-29.296875,-17.08984375,-36.1328125,-142.08984375,0.0
153.7109375,-54.6875,-29.78515625,-22.94921875,-28.3203125,-217.28515625,0.0
153.71484375,-42.96875,-28.80859375,-28.3203125,-17.578125,-173.828125,0.0
153.71875,-36.62109375,-21.484375,-37.109375,-20.01953125,-35.15625,0.0
153.72265625,-46.875,-24.90234375,-38.57421875,-35.15625,-20.5078125,0.0
153.7265625,-45.41015625,-24.4140625,-22.4609375,-36.1328125,-19.53125,0.0
153.73046875,-43.9453125,-24.90234375,-24.90234375,-20.01953125,38.57421875,0.0
153.734375,-40.52734375,-36.62109375,-40.52734375,-13.18359375,40.52734375,0.0
153.73828125,-35.15625,-35.64453125,-32.71484375,-23.92578125,34.1796875,0.0
153.7421875,-22.94921875,-29.296875,-18.06640625,-26.85546875,20.99609375,0.0
153.74609375,-27.34375,-28.3203125,-7.8125,-21.97265625,36.1328125,0.0
153.75,-63.4765625,-28.80859375,-4.39453125,-35.15625,67.87109375,0.0
153.75390625,-58.59375,-33.69140625,-6.34765625,-26.85546875,-20.99609375,0.0
153.7578125,-44.921875,-25.87890625,-11.71875,-19.53125,1.953125,0.0
153.76171875,-55.6640625,-21.484375,-20.99609375,-38.0859375,33.69140625,0.0
153.765625,-54.19921875,-29.296875,-15.625,-41.015625,17.578125,0.0
153.76953125,-55.6640625,-36.62109375,-24.4140625,-43.45703125,31.73828125,0.0
153.7734375,-47.8515625,-30.76171875,-25.87890625,-37.59765625,-36.1328125,0.0
153.77734375,-25.87890625,-26.85546875,-13.18359375,-23.4375,-134.765625,0.0
153.78125,-14.6484375,-20.99609375,-25.87890625,-25.87890625,-102.05078125,0.0
153.78515625,-23.92578125,-15.13671875,-37.109375,-30.2734375,-21.97265625,0.0
153.7890625,-30.76171875,-19.04296875,-29.296875,-28.3203125,-5.859375,0.0
153.79296875,-39.0625,-26.85546875,-20.5078125,-41.50390625,32.71484375,0.0
153.796875,-33.203125,-18.5546875,-19.04296875,-38.57421875,8.7890625,0.0
153.80078125,-28.80859375,-14.6484375,-15.13671875,-34.1796875,-77.1484375,0.0
153.8046875,-35.64453125,-27.83203125,-23.92578125,-43.45703125,-100.5859375,0.0
153.80859375,-41.9921875,-39.55078125,-27.83203125,-41.50390625,-79.1015625,0.0
153.8125,-45.41015625,-32.71484375,-14.16015625,-35.15625,-75.1953125,0.0
153.81640625,-29.78515625,-24.90234375,-15.13671875,-30.2734375,-70.3125,0.0
153.8203125,-17.08984375,-28.3203125,-13.671875,-33.69140625,-59.5703125,0.0
153.82421875,-22.4609375,-23.92578125,-20.99609375,-41.9921875,-8.30078125,0.0
153.828125,-37.109375,-24.90234375,-31.73828125,-41.9921875,41.015625,0.0
153.83203125,-39.55078125,-23.4375,-30.2734375,-36.1328125,103.02734375,0.0
153.8359375,-23.4375,-16.6015625,-21.97265625,-23.92578125,144.04296875,0.0
153.83984375,-12.6953125,-19.53125,-17.08984375,-23.92578125,158.69140625,0.0
153.84375,-22.94921875,-20.01953125,-22.4609375,-37.59765625,108.88671875,0.0
153.84765625,-32.71484375,-18.06640625,-40.0390625,-40.52734375,64.94140625,0.0
153.8515625,-29.296875,-19.53125,-39.0625,-33.69140625,57.6171875,0.0
153.85546875,-23.4375,-38.57421875,-17.578125,-30.76171875,65.91796875,0.0
153.859375,-16.6015625,-44.43359375,-20.5078125,-35.15625,70.3125,0.0
153.86328125,-10.7421875,-22.94921875,-23.92578125,-38.0859375,-28.3203125,0.0
153.8671875,-20.5078125,-23.4375,-15.13671875,-38.0859375,-93.26171875,0.0
153.87109375,-33.203125,-35.15625,-22.4609375,-43.45703125,-109.86328125,0.0
153.875,-26.3671875,-40.52734375,-29.78515625,-35.15625,-32.2265625,0.0
153.87890625,-8.7890625,-33.203125,-14.6484375,-18.06640625,-15.625,0.0
153.8828125,-10.7421875,-23.4375,-18.06640625,-28.80859375,-20.99609375,0.0
153.88671875,-23.92578125,-26.85546875,-23.4375,-42.96875,-20.5078125,0.0
153.890625,-30.2734375,-35.15625,-25.390625,-39.55078125,-3.90625,0.0
153.89453125,-24.90234375,-31.25,-29.296875,-34.1796875,36.62109375,0.0
153.8984375,-16.11328125,-24.90234375,-22.94921875,-34.66796875,0.9765625,0.0
153.90234375,-13.18359375,-32.2265625,-28.80859375,-42.48046875,8.7890625,0.0
153.90625,-12.6953125,-33.69140625,-39.0625,-36.62109375,-52.24609375,0.0
153.91015625,-18.5546875,-33.203125,-34.66796875,-26.85546875,-80.078125,0.0
153.9140625,-24.90234375,-32.2265625,-30.76171875,-29.78515625,-19.04296875,0.0
153.91796875,-18.06640625,-24.4140625,-26.85546875,-30.2734375,-39.55078125,0.0
153.921875,-12.6953125,-29.78515625,-20.5078125,-30.76171875,-55.6640625,0.0
153.92578125,-21.484375,-22.4609375,-24.90234375,-30.76171875,-27.34375,0.0
153.9296875,-34.66796875,-20.99609375,-32.71484375,-33.203125,73.73046875,0.0
153.93359375,-38.0859375,-31.73828125,-35.15625,-40.0390625,101.5625,0.0
153.9375,-26.3671875,-25.390625,-21.484375,-36.62109375,-30.2734375,0.0
153.94140625,-21.97265625,-18.5546875,-3.41796875,-35.15625,-36.62109375,0.0
153.9453125,-33.203125,-23.92578125,-12.20703125,-39.0625,-13.18359375,0.0
153.94921875,-39.55078125,-34.66796875,-45.8984375,-40.0390625,-64.453125,0.0
153.953125,-41.9921875,-34.1796875,-35.15625,-35.64453125,-41.50390625,0.0
153.95703125,-39.0625,-26.3671875,-15.625,-30.2734375,-30.2734375,0.0
153.9609375,-29.296875,-20.5078125,-18.5546875,-26.3671875,51.7578125,0.0
153.96484375,-33.203125,-14.6484375,-11.71875,-33.69140625,94.23828125,0.0
153.96875,-35.15625,-18.5546875,-23.92578125,-33.203125,33.203125,0.0
153.97265625,-39.0625,-29.296875,-37.59765625,-35.64453125,-57.12890625,0.0
153.9765625,-39.0625,-39.55078125,-20.5078125,-42.96875,-39.55078125,0.0
153.98046875,-28.80859375,-36.1328125,-13.671875,-42.48046875,-13.671875,0.0
153.984375,-35.64453125,-28.80859375,-19.53125,-43.45703125,-41.50390625,0.0
153.98828125,-42.96875,-33.69140625,-28.80859375,-38.0859375,-55.6640625,0.0
153.9921875,-45.8984375,-42.96875,-41.015625,-33.69140625,-5.859375,0.0
153.99609375,-40.52734375,-43.45703125,-30.2734375,-30.2734375,-45.41015625,0.0
154.0,-28.3203125,-36.1328125,-16.11328125,-30.76171875,-33.203125,0.0
154.00390625,-31.25,-29.296875,-17.578125,-44.921875,23.4375,0.0
154.0078125,-42.48046875,-28.3203125,-15.625,-44.921875,-90.8203125,0.0
154.01171875,-46.875,-30.76171875,-28.3203125,-45.8984375,-126.953125,0.0
154.015625,-26.3671875,-31.25,-24.4140625,-36.62109375,-63.96484375,0.0
154.01953125,-18.5546875,-32.2265625,-19.53125,-33.203125,-27.83203125,0.0
154.0234375,-21.484375,-38.0859375,-37.109375,-46.38671875,33.69140625,0.0
154.02734375,-22.4609375,-42.96875,-31.73828125,-43.45703125,-64.453125,0.0
154.03125,-39.55078125,-34.1796875,-26.85546875,-34.66796875,-89.84375,0.0
154.03515625,-37.109375,-36.62109375,-26.3671875,-32.71484375,-44.43359375,0.0
154.0390625,-30.2734375,-40.0390625,-19.04296875,-31.73828125,-69.3359375,0.0
154.04296875,-34.1796875,-27.34375,-30.2734375,-24.90234375,-19.53125,0.0
154.046875,-38.0859375,-28.80859375,-39.0625,-28.3203125,-46.38671875,0.0
154.05078125,-47.36328125,-38.57421875,-32.2265625,-40.0390625,-59.08203125,0.0
154.0546875,-45.41015625,-34.1796875,-24.4140625,-32.71484375,-89.84375,0.0
154.05859375,-29.78515625,-28.3203125,-18.06640625,-20.01953125,-116.2109375,0.0
154.0625,-35.64453125,-24.4140625,-31.25,-26.85546875,-29.78515625,0.0
154.06640625,-47.8515625,-25.87890625,-34.1796875,-34.66796875,1.953125,0.0
154.0703125,-41.50390625,-33.69140625,-25.390625,-31.25,-16.11328125,0.0
154.07421875,-39.0625,-39.0625,-28.80859375,-33.69140625,-3.90625,0.0
154.078125,-20.99609375,-29.296875,-31.25,-30.2734375,-10.7421875,0.0
154.08203125,-22.4609375,-26.85546875,-28.3203125,-32.2265625,-60.05859375,0.0
154.0859375,-37.109375,-29.296875,-30.2734375,-38.57421875,-59.5703125,0.0
154.08984375,-39.55078125,-26.3671875,-22.4609375,-33.69140625,-50.78125,0.0
154.09375,-46.38671875,-30.76171875,-21.484375,-32.2265625,-59.08203125,0.0
154.09765625,-38.0859375,-27.83203125,-31.73828125,-31.73828125,10.25390625,0.0
154.1015625,-25.87890625,-17.08984375,-30.76171875,-27.83203125,-30.2734375,0.0
154.10546875,-35.64453125,-22.4609375,-26.85546875,-31.25,-82.03125,0.0
154.109375,-49.31640625,-41.9921875,-37.109375,-39.55078125,-21.97265625,0.0
154.11328125,-47.36328125,-41.015625,-41.015625,-35.64453125,-32.2265625,0.0
154.1171875,-31.25,-39.0625,-35.64453125,-27.83203125,-82.03125,0.0
154.12109375,-23.92578125,-36.1328125,-43.9453125,-19.53125,30.2734375,0.0
154.125,-31.73828125,-21.97265625,-44.43359375,-21.484375,103.515625,0.0
154.12890625,-44.43359375,-26.3671875,-38.0859375,-27.83203125,-4.39453125,0.0
154.1328125,-43.45703125,-34.1796875,-36.62109375,-22.4609375,-38.57421875,0.0
154.13671875,-30.2734375,-33.69140625,-20.99609375,-15.13671875,26.85546875,0.0
154.140625,-24.4140625,-32.2265625,-18.06640625,-16.11328125,-1.46484375,0.0
154.14453125,-23.92578125,-29.296875,-22.94921875,-16.11328125,-57.6171875,0.0
154.1484375,-30.76171875,-27.83203125,-35.15625,-6.34765625,-68.84765625,0.0
154.15234375,-42.96875,-33.203125,-42.96875,-20.5078125,-70.80078125,0.0
154.15625,-25.390625,-35.64453125,-24.90234375,-21.97265625,-60.546875,0.0
154.16015625,-5.37109375,-30.2734375,-13.671875,-10.25390625,-33.203125,0.0
154.1640625,-14.16015625,-25.390625,-20.5078125,-14.16015625,-75.1953125,0.0
154.16796875,-22.94921875,-33.69140625,-33.69140625,-15.13671875,-128.41796875,0.0
154.171875,-23.4375,-42.96875,-39.0625,-13.671875,-96.6796875,0.0
154.17578125,-7.32421875,-42.48046875,-30.76171875,-5.37109375,-86.9140625,0.0
154.1796875,3.41796875,-36.1328125,-27.83203125,-9.27734375,-115.72265625,0.0
154.18359375,-6.8359375,-32.2265625,-39.0625,-24.4140625,-61.03515625,0.0
154.1875,-12.20703125,-35.15625,-33.203125,-25.390625,-28.80859375,0.0
154.19140625,-9.27734375,-41.015625,-28.80859375,-22.4609375,-56.15234375,0.0
154.1953125,2.44140625,-29.78515625,-29.78515625,-13.18359375,-99.12109375,0.0
154.19921875,4.8828125,-20.5078125,-36.1328125,-8.7890625,-41.50390625,0.0
154.203125,-0.9765625,-34.1796875,-29.296875,-17.08984375,0.0,0.0
154.20703125,-1.953125,-37.59765625,-20.5078125,-14.16015625,-100.09765625,0.0
154.2109375,-8.30078125,-27.34375,-27.34375,-8.30078125,-111.81640625,0.0
154.21484375,-0.48828125,-23.92578125,-28.3203125,-13.18359375,42.48046875,0.0
154.21875,9.27734375,-18.06640625,-27.34375,-9.765625,116.69921875,0.0
154.22265625,-2.9296875,-21.484375,-26.85546875,-18.5546875,-3.90625,0.0
154.2265625,-16.11328125,-30.2734375,-26.85546875,-29.296875,-69.3359375,0.0
154.23046875,-24.4140625,-37.109375,-42.48046875,-26.85546875,-55.17578125,0.0
154.234375,-18.06640625,-35.15625,-37.59765625,-20.99609375,-41.50390625,0.0
154.23828125,-14.6484375,-27.34375,-32.2265625,-15.625,-30.2734375,0.0
154.2421875,-14.6484375,-20.01953125,-33.203125,-15.13671875,11.71875,0.0
154.24609375,-19.04296875,-21.97265625,-17.578125,-24.90234375,24.4140625,0.0
154.25,-33.203125,-24.90234375,-17.08984375,-22.94921875,0.48828125,0.0
154.25390625,-25.87890625,-23.4375,-12.6953125,-10.7421875,-49.31640625,0.0
154.2578125,-14.6484375,-26.85546875,-10.25390625,-19.04296875,-77.1484375,0.0
154.26171875,-17.08984375,-28.80859375,-31.73828125,-31.25,-45.8984375,0.0
154.265625,-21.484375,-26.85546875,-32.71484375,-31.73828125,-44.921875,0.0
154.26953125,-31.25,-31.73828125,-39.0625,-34.66796875,-31.25,0.0
154.2734375,-29.78515625,-41.9921875,-52.734375,-30.76171875,-4.8828125,0.0
154.27734375,-21.484375,-40.0390625,-40.52734375,-28.80859375,-17.578125,0.0
154.28125,-20.01953125,-30.2734375,-26.85546875,-32.71484375,-21.484375,0.0
154.28515625,-20.99609375,-25.87890625,-24.4140625,-37.109375,-59.08203125,0.0
154.2890625,-29.296875,-29.296875,-32.2265625,-40.52734375,-98.6328125,0.0
154.29296875,-30.76171875,-34.1796875,-43.45703125,-41.50390625,-66.89453125,0.0
154.296875,-19.04296875,-35.64453125,-47.36328125,-41.015625,-40.0390625,0.0
154.30078125,-11.71875,-33.203125,-37.109375,-39.55078125,-73.73046875,0.0
154.3046875,-29.78515625,-30.76171875,-26.85546875,-41.9921875,-56.15234375,0.0
154.30859375,-46.875,-26.85546875,-26.85546875,-41.015625,20.99609375,0.0
154.3125,-49.31640625,-32.2265625,-29.78515625,-34.1796875,36.62109375,0.0
154.31640625,-32.2265625,-39.55078125,-27.34375,-15.13671875,45.8984375,0.0
154.3203125,-13.18359375,-25.390625,-24.90234375,-8.7890625,98.14453125,0.0
154.32421875,-24.4140625,-21.97265625,-32.2265625,-30.2734375,61.03515625,0.0
154.328125,-40.52734375,-25.87890625,-42.48046875,-43.45703125,4.39453125,0.0
154.33203125,-50.29296875,-31.25,-48.828125,-43.9453125,-57.12890625,0.0
154.3359375,-24.90234375,-18.5546875,-29.78515625,-23.4375,-50.29296875,0.0
154.33984375,-0.9765625,-5.859375,-18.5546875,-11.23046875,-14.16015625,0.0
154.34375,-18.06640625,-22.94921875,-26.3671875,-29.78515625,-10.7421875,0.0
154.34765625,-19.04296875,-25.87890625,-31.73828125,-20.01953125,75.68359375,0.0
154.3515625,-33.69140625,-24.90234375,-36.62109375,-22.4609375,59.5703125,0.0
154.35546875,-29.78515625,-34.1796875,-32.2265625,-25.390625,16.11328125,0.0
154.359375,-11.23046875,-24.90234375,-35.15625,-13.671875,21.97265625,0.0
154.36328125,-20.01953125,-20.99609375,-35.15625,-17.578125,-15.625,0.0
154.3671875,-36.1328125,-32.2265625,-35.64453125,-26.3671875,-35.64453125,0.0
154.37109375,-42.48046875,-40.0390625,-39.0625,-25.87890625,-57.12890625,0.0
154.375,-42.96875,-42.96875,-28.80859375,-20.01953125,-3.90625,0.0
154.37890625,-38.57421875,-32.71484375,-19.04296875,-23.4375,68.359375,0.0
154.3828125,-36.1328125,-18.5546875,-41.015625,-32.2265625,9.27734375,0.0
154.38671875,-40.52734375,-27.34375,-53.7109375,-25.87890625,-92.7734375,0.0
154.390625,-43.45703125,-39.55078125,-31.73828125,-21.484375,-142.578125,0.0
154.39453125,-29.78515625,-39.0625,-22.4609375,-23.92578125,-91.796875,0.0
154.3984375,-27.83203125,-38.0859375,-22.94921875,-25.390625,-75.68359375,0.0
154.40234375,-36.62109375,-32.2265625,-21.97265625,-33.203125,-59.5703125,0.0
154.40625,-40.0390625,-27.34375,-26.3671875,-32.71484375,-18.5546875,0.0
154.41015625,-45.8984375,-27.34375,-32.71484375,-36.62109375,-35.64453125,0.0
154.4140625,-33.69140625,-36.62109375,-40.52734375,-33.69140625,-28.3203125,0.0
154.41796875,-22.94921875,-35.64453125,-29.296875,-21.97265625,-49.8046875,0.0
154.421875,-32.71484375,-21.97265625,-17.578125,-24.4140625,10.25390625,0.0
154.42578125,-42.96875,-22.94921875,-23.92578125,-25.87890625,56.15234375,0.0
154.4296875,-39.0625,-25.390625,-27.34375,-24.4140625,53.7109375,0.0
154.43359375,-25.390625,-27.34375,-11.23046875,-23.4375,15.13671875,0.0
154.4375,-29.78515625,-34.1796875,-17.578125,-29.296875,17.08984375,0.0
154.44140625,-30.76171875,-27.83203125,-38.0859375,-33.203125,113.28125,0.0
154.4453125,-28.80859375,-26.85546875,-24.90234375,-36.1328125,86.42578125,0.0
154.44921875,-43.45703125,-47.8515625,-16.6015625,-44.921875,-42.48046875,0.0
154.453125,-56.640625,-51.7578125,-25.87890625,-46.38671875,-89.35546875,0.0
154.45703125,-37.59765625,-39.55078125,-37.59765625,-37.59765625,-109.375,0.0
154.4609375,-21.97265625,-29.78515625,-29.296875,-33.69140625,-126.46484375,0.0
154.46484375,-29.78515625,-27.34375,-13.671875,-36.62109375,-91.796875,0.0
154.46875,-36.62109375,-36.62109375,-22.94921875,-39.55078125,-44.921875,0.0
154.47265625,-35.64453125,-44.43359375,-26.3671875,-41.50390625,-37.59765625,0.0
154.4765625,-25.87890625,-37.59765625,-12.6953125,-30.2734375,-40.0390625,0.0
154.48046875,-12.6953125,-17.08984375,-11.23046875,-25.390625,-12.20703125,0.0
154.484375,-20.99609375,-20.99609375,-20.01953125,-38.0859375,-41.9921875,0.0
154.48828125,-38.0859375,-32.2265625,-29.78515625,-42.96875,-60.546875,0.0
154.4921875,-38.0859375,-38.57421875,-31.25,-38.0859375,-16.6015625,0.0
154.49609375,-21.97265625,-41.9921875,-32.71484375,-29.296875,-62.01171875,0.0
154.5,-15.625,-25.390625,-31.73828125,-28.80859375,-39.55078125,0.0
154.50390625,-41.015625,-28.3203125,-30.76171875,-40.52734375,-41.50390625,0.0
154.5078125,-47.36328125,-36.1328125,-43.9453125,-24.90234375,-118.1640625,0.0
154.51171875,-40.52734375,-35.15625,-36.62109375,-16.6015625,-127.9296875,0.0
154.515625,-35.15625,-41.015625,-19.53125,-27.34375,18.5546875,0.0
154.51953125,-24.4140625,-35.64453125,-12.20703125,-27.34375,-14.16015625,0.0
154.5234375,-22.4609375,-22.4609375,-13.671875,-31.73828125,-122.0703125,0.0
154.52734375,-25.390625,-20.01953125,-25.87890625,-30.76171875,-90.8203125,0.0
154.53125,-41.015625,-34.66796875,-39.0625,-38.57421875,-52.24609375,0.0
154.53515625,-22.94921875,-35.64453125,-39.0625,-32.71484375,19.04296875,0.0
154.5390625,-0.48828125,-20.01953125,-36.1328125,-22.94921875,19.04296875,0.0
154.54296875,-5.859375,-35.15625,-36.62109375,-28.3203125,16.6015625,0.0
154.546875,-15.625,-44.921875,-37.109375,-34.1796875,11.23046875,0.0
154.55078125,-21.97265625,-27.34375,-40.0390625,-36.1328125,-17.578125,0.0
154.5546875,-9.765625,-22.94921875,-38.0859375,-28.3203125,0.9765625,0.0
154.55859375,0.0,-32.2265625,-42.96875,-35.15625,13.671875,0.0
154.5625,0.9765625,-26.3671875,-40.0390625,-46.875,61.03515625,0.0
154.56640625,-12.6953125,-28.80859375,-42.48046875,-46.38671875,12.20703125,0.0
154.5703125,-27.34375,-40.0390625,-42.96875,-40.0390625,-88.37890625,0.0
154.57421875,-17.08984375,-39.0625,-34.1796875,-31.73828125,-33.203125,0.0
154.578125,-5.37109375,-34.66796875,-29.296875,-29.78515625,-5.859375,0.0
154.58203125,-8.7890625,-33.69140625,-29.296875,-33.69140625,-84.47265625,0.0
154.5859375,1.46484375,-29.78515625,-23.4375,-25.390625,-97.16796875,0.0
154.58984375,-11.71875,-40.0390625,-28.80859375,-28.3203125,-62.98828125,0.0
154.59375,-26.85546875,-42.96875,-41.9921875,-37.59765625,-153.3203125,0.0
154.59765625,-3.41796875,-24.90234375,-29.78515625,-29.296875,-163.0859375,0.0
154.6015625,1.46484375,-23.92578125,-19.04296875,-23.4375,-110.3515625,0.0
154.60546875,-10.7421875,-36.1328125,-27.34375,-28.80859375,-104.4921875,0.0
154.609375,-27.34375,-43.9453125,-45.8984375,-35.15625,-126.953125,0.0
154.61328125,-37.59765625,-41.9921875,-42.48046875,-35.15625,-154.78515625,0.0
154.6171875,-22.94921875,-27.83203125,-19.53125,-31.25,-115.234375,0.0
154.62109375,-23.92578125,-22.94921875,-22.94921875,-41.015625,-49.31640625,0.0
154.625,-33.203125,-31.25,-36.62109375,-45.41015625,21.97265625,0.0
154.62890625,-35.15625,-36.62109375,-25.390625,-41.9921875,-25.390625,0.0
154.6328125,-29.296875,-37.59765625,-17.08984375,-37.109375,-78.125,0.0
154.63671875,-17.578125,-39.0625,-22.4609375,-32.71484375,-61.5234375,0.0
154.640625,-6.8359375,-41.50390625,-27.83203125,-30.2734375,-97.16796875,0.0
154.64453125,-13.671875,-39.0625,-29.78515625,-30.2734375,-37.59765625,0.0
154.6484375,-25.390625,-35.15625,-36.62109375,-32.2265625,41.50390625,0.0
154.65234375,-26.85546875,-43.45703125,-42.96875,-36.62109375,-54.6875,0.0
154.65625,-24.4140625,-41.9921875,-32.71484375,-33.69140625,-146.484375,0.0
154.66015625,-20.99609375,-33.203125,-32.71484375,-31.25,-82.51953125,0.0
154.6640625,-23.4375,-26.85546875,-34.1796875,-35.64453125,-52.734375,0.0
154.66796875,-36.62109375,-28.3203125,-28.80859375,-44.921875,-88.37890625,0.0
154.671875,-32.2265625,-40.0390625,-30.76171875,-40.0390625,-56.640625,0.0
154.67578125,-21.484375,-38.0859375,-30.2734375,-28.80859375,33.203125,0.0
154.6796875,-25.390625,-32.71484375,-36.62109375,-39.55078125,-1.953125,0.0
154.68359375,-25.87890625,-38.57421875,-27.34375,-42.48046875,-40.0390625,0.0
154.6875,-39.0625,-32.71484375,-7.8125,-34.66796875,13.671875,0.0
154.69140625,-53.22265625,-31.73828125,-23.4375,-39.0625,-4.8828125,0.0
154.6953125,-41.9921875,-43.45703125,-33.69140625,-40.52734375,-35.64453125,0.0
154.69921875,-27.83203125,-24.90234375,-26.3671875,-37.109375,-18.5546875,0.0
154.703125,-26.3671875,-13.671875,-34.66796875,-40.0390625,-71.77734375,0.0
154.70703125,-29.78515625,-24.90234375,-41.50390625,-45.41015625,-140.13671875,0.0
154.7109375,-31.73828125,-34.66796875,-34.66796875,-44.43359375,-177.734375,0.0
154.71484375,-28.80859375,-37.109375,-28.3203125,-41.015625,-104.00390625,0.0
154.71875,-21.484375,-36.62109375,-24.4140625,-40.52734375,4.8828125,0.0
154.72265625,-18.5546875,-36.1328125,-30.76171875,-39.0625,43.45703125,0.0
154.7265625,-29.78515625,-37.109375,-37.109375,-40.52734375,81.0546875,0.0
154.73046875,-45.41015625,-39.55078125,-50.29296875,-44.921875,83.984375,0.0
154.734375,-45.41015625,-40.0390625,-54.6875,-46.38671875,43.45703125,0.0
154.73828125,-39.0625,-42.48046875,-34.1796875,-44.43359375,-15.625,0.0
154.7421875,-32.71484375,-29.78515625,-6.8359375,-41.015625,-102.05078125,0.0
154.74609375,-32.2265625,-25.87890625,-11.23046875,-33.203125,-51.7578125,0.0
154.75,-41.9921875,-26.85546875,-18.5546875,-28.3203125,40.0390625,0.0
154.75390625,-31.25,-32.71484375,-16.11328125,-31.73828125,-50.78125,0.0
154.7578125,-8.7890625,-26.85546875,-17.578125,-33.203125,-25.390625,0.0
154.76171875,-13.671875,-13.671875,-27.83203125,-33.203125,13.671875,0.0
154.765625,-24.90234375,-26.3671875,-41.015625,-32.2265625,-186.03515625,0.0
154.76953125,-35.64453125,-43.45703125,-42.96875,-32.71484375,-278.3203125,0.0
154.7734375,-41.50390625,-49.31640625,-28.80859375,-35.64453125,-222.65625,0.0
154.77734375,-22.94921875,-37.109375,-19.53125,-28.80859375,-207.51953125,0.0
154.78125,-20.01953125,-20.5078125,-40.52734375,-33.69140625,-147.94921875,0.0
154.78515625,-25.390625,-24.4140625,-44.43359375,-42.96875,-66.40625,0.0
154.7890625,-26.3671875,-39.0625,-21.484375,-42.96875,-73.2421875,0.0
154.79296875,-31.73828125,-44.43359375,-33.203125,-47.8515625,-124.51171875,0.0
154.796875,-21.484375,-35.15625,-33.69140625,-45.41015625,-121.58203125,0.0
154.80078125,-7.32421875,-27.34375,-21.97265625,-39.55078125,-91.30859375,0.0
154.8046875,-14.6484375,-23.92578125,-27.83203125,-37.59765625,-156.73828125,0.0
154.80859375,-23.4375,-20.5078125,-40.52734375,-34.1796875,-176.7578125,0.0
154.8125,-35.64453125,-29.296875,-37.109375,-36.62109375,-67.87109375,0.0
154.81640625,-40.52734375,-37.109375,-19.53125,-40.52734375,-42.48046875,0.0
154.8203125,-29.296875,-30.76171875,-16.11328125,-39.55078125,-118.65234375,0.0
154.82421875,-36.62109375,-30.76171875,-27.34375,-39.55078125,-76.171875,0.0
154.828125,-48.33984375,-42.48046875,-42.96875,-44.921875,7.8125,0.0
154.83203125,-45.41015625,-50.29296875,-42.48046875,-45.41015625,95.703125,0.0
154.8359375,-36.1328125,-39.0625,-34.66796875,-40.52734375,85.44921875,0.0
154.83984375,-25.390625,-29.296875,-21.484375,-37.109375,70.3125,0.0
154.84375,-23.92578125,-27.83203125,-23.92578125,-43.9453125,165.0390625,0.0
154.84765625,-37.109375,-32.71484375,-41.50390625,-49.8046875,93.75,0.0
154.8515625,-45.41015625,-33.203125,-37.109375,-41.9921875,-52.24609375,0.0
154.85546875,-38.57421875,-25.87890625,-31.73828125,-31.73828125,-44.43359375,0.0
154.859375,-44.921875,-32.71484375,-33.203125,-45.8984375,19.04296875,0.0
154.86328125,-54.19921875,-48.33984375,-27.83203125,-49.8046875,73.2421875,0.0
154.8671875,-52.734375,-47.8515625,-36.62109375,-41.015625,69.3359375,0.0
154.87109375,-53.22265625,-41.9921875,-44.43359375,-35.64453125,70.3125,0.0
154.875,-35.64453125,-36.62109375,-34.1796875,-24.90234375,38.57421875,0.0
154.87890625,-20.5078125,-34.66796875,-35.64453125,-25.390625,-1.46484375,0.0
154.8828125,-23.92578125,-33.69140625,-48.33984375,-30.2734375,-23.4375,0.0
154.88671875,-32.2265625,-37.109375,-38.57421875,-26.3671875,3.90625,0.0
154.890625,-30.76171875,-43.9453125,-41.015625,-15.625,79.1015625,0.0
154.89453125,-10.7421875,-40.0390625,-49.8046875,-5.37109375,53.7109375,0.0
154.8984375,-5.37109375,-22.94921875,-24.4140625,-17.08984375,-13.671875,0.0
154.90234375,-18.5546875,-20.99609375,-14.6484375,-37.59765625,15.13671875,0.0
154.90625,-17.578125,-26.85546875,-18.5546875,-28.3203125,30.2734375,0.0
154.91015625,-13.671875,-25.87890625,-29.78515625,-21.97265625,5.37109375,0.0
154.9140625,-5.37109375,-36.62109375,-34.66796875,-27.83203125,-19.53125,0.0
154.91796875,10.25390625,-26.3671875,-29.296875,-14.16015625,-20.99609375,0.0
154.921875,5.859375,-13.18359375,-27.34375,-9.27734375,-12.20703125,0.0
154.92578125,-14.16015625,-25.87890625,-31.25,-21.484375,-22.94921875,0.0
154.9296875,-23.4375,-31.73828125,-45.8984375,-19.04296875,-30.76171875,0.0
154.93359375,-4.39453125,-29.296875,-42.96875,-9.27734375,-22.94921875,0.0
154.9375,11.71875,-23.92578125,-28.80859375,-12.6953125,-23.92578125,0.0
154.94140625,10.25390625,-15.13671875,-25.390625,-15.13671875,-9.27734375,0.0
154.9453125,1.953125,-11.23046875,-30.76171875,-17.08984375,-35.15625,0.0
154.94921875,-22.94921875,-23.4375,-49.31640625,-33.203125,-74.70703125,0.0
154.953125,-24.90234375,-32.2265625,-51.26953125,-31.25,-15.625,0.0
154.95703125,-2.44140625,-18.06640625,-23.92578125,-18.06640625,39.0625,0.0
154.9609375,2.44140625,-13.18359375,-20.5078125,-17.08984375,-19.53125,0.0
154.96484375,-0.48828125,-15.13671875,-37.109375,-22.94921875,2.9296875,0.0
154.96875,-10.7421875,-19.53125,-35.64453125,-34.66796875,11.71875,0.0
154.97265625,-0.9765625,-31.73828125,-28.3203125,-31.73828125,-34.1796875,0.0
154.9765625,15.13671875,-26.3671875,-20.5078125,-20.01953125,-38.57421875,0.0
154.98046875,0.48828125,-21.97265625,-26.85546875,-26.3671875,-80.078125,0.0
154.984375,-2.44140625,-22.4609375,-25.87890625,-36.1328125,-150.87890625,0.0
154.98828125,-10.25390625,-26.3671875,-24.4140625,-39.55078125,-207.03125,0.0
154.9921875,-17.08984375,-31.25,-36.1328125,-39.0625,-209.9609375,0.0
154.99609375,4.39453125,-27.34375,-37.59765625,-26.3671875,-254.8828125,0.0
155.0,12.6953125,-24.90234375,-23.4375,-24.90234375,-236.328125,0.0
155.00390625,0.9765625,-24.4140625,-25.390625,-30.76171875,-192.87109375,0.0
155.0078125,-12.20703125,-26.3671875,-34.66796875,-32.2265625,-159.1796875,0.0
155.01171875,-14.6484375,-34.66796875,-36.62109375,-33.69140625,-90.8203125,0.0
155.015625,3.41796875,-30.76171875,-32.71484375,-22.94921875,-131.8359375,0.0
155.01953125,9.765625,-23.4375,-15.13671875,-21.484375,-131.8359375,0.0
155.0234375,-8.30078125,-27.34375,-27.34375,-28.80859375,83.984375,0.0
155.02734375,-12.20703125,-33.69140625,-37.109375,-25.87890625,62.01171875,0.0
155.03125,-10.7421875,-37.59765625,-28.3203125,-21.484375,-24.4140625,0.0
155.03515625,4.39453125,-28.80859375,-34.1796875,-16.6015625,35.15625,0.0
155.0390625,16.11328125,-15.625,-29.296875,-17.578125,-4.8828125,0.0
155.04296875,-3.41796875,-18.5546875,-19.04296875,-35.15625,-26.85546875,0.0
155.046875,-15.13671875,-26.3671875,-20.5078125,-38.0859375,50.78125,0.0
155.05078125,-1.46484375,-19.04296875,-18.06640625,-21.484375,87.890625,0.0
155.0546875,8.30078125,-19.04296875,-19.53125,-11.71875,120.60546875,0.0
155.05859375,15.13671875,-26.3671875,-29.78515625,-17.08984375,128.41796875,0.0
155.0625,18.06640625,-18.06640625,-35.64453125,-21.484375,104.00390625,0.0
155.06640625,-0.48828125,-24.4140625,-41.50390625,-28.80859375,66.40625,0.0
155.0703125,-22.4609375,-40.52734375,-40.52734375,-36.1328125,45.8984375,0.0
155.07421875,-11.23046875,-42.48046875,-34.66796875,-25.390625,4.8828125,0.0
155.078125,10.25390625,-31.25,-39.0625,-14.16015625,-83.984375,0.0
155.08203125,-2.44140625,-26.85546875,-41.50390625,-18.06640625,-30.2734375,0.0
155.0859375,-17.08984375,-26.3671875,-22.4609375,-20.5078125,75.1953125,0.0
155.08984375,-31.73828125,-33.69140625,-18.5546875,-24.4140625,24.4140625,0.0
155.09375,-20.99609375,-30.2734375,-23.4375,-27.34375,-50.29296875,0.0
155.09765625,-7.32421875,-18.06640625,-22.4609375,-26.85546875,-36.62109375,0.0
155.1015625,-12.20703125,-18.5546875,-28.80859375,-37.59765625,-16.11328125,0.0
155.10546875,-10.7421875,-24.4140625,-30.2734375,-42.48046875,-23.4375,0.0
155.109375,-17.578125,-33.203125,-38.57421875,-45.41015625,-11.23046875,0.0
155.11328125,-13.18359375,-36.1328125,-40.52734375,-47.36328125,-62.5,0.0
155.1171875,9.27734375,-31.25,-20.99609375,-38.57421875,-77.63671875,0.0
155.12109375,-2.9296875,-26.3671875,-25.87890625,-40.52734375,15.13671875,0.0
155.125,-27.83203125,-27.83203125,-30.2734375,-40.0390625,76.66015625,0.0
155.12890625,-40.52734375,-31.25,-36.1328125,-34.66796875,73.2421875,0.0
155.1328125,-43.45703125,-30.76171875,-41.015625,-31.73828125,61.03515625,0.0
155.13671875,-20.01953125,-19.04296875,-29.78515625,-19.53125,3.90625,0.0
155.140625,-13.671875,-18.06640625,-19.53125,-20.01953125,-95.21484375,0.0
155.14453125,-41.9921875,-37.109375,-21.97265625,-44.43359375,-55.6640625,0.0
155.1484375,-57.12890625,-47.36328125,-30.2734375,-60.546875,-6.8359375,0.0
155.15234375,-52.734375,-46.38671875,-27.34375,-50.29296875,-23.92578125,0.0
155.15625,-32.71484375,-30.2734375,-30.76171875,-42.96875,2.9296875,0.0
155.16015625,-23.92578125,-27.83203125,-36.62109375,-46.38671875,-8.7890625,0.0
155.1640625,-28.80859375,-36.62109375,-40.52734375,-46.875,-128.41796875,0.0
155.16796875,-39.55078125,-36.1328125,-47.36328125,-49.31640625,-172.36328125,0.0
155.171875,-40.52734375,-36.1328125,-50.78125,-47.8515625,-61.5234375,0.0
155.17578125,-25.390625,-32.71484375,-42.96875,-37.109375,22.4609375,0.0
155.1796875,-16.6015625,-25.87890625,-41.015625,-39.0625,22.94921875,0.0
155.18359375,-10.25390625,-19.53125,-29.78515625,-34.1796875,9.765625,0.0
155.1875,-18.06640625,-15.625,-18.5546875,-34.1796875,13.671875,0.0
155.19140625,-28.80859375,-27.83203125,-37.109375,-43.9453125,25.390625,0.0
155.1953125,-17.08984375,-37.59765625,-32.71484375,-40.0390625,51.7578125,0.0
155.19921875,-11.71875,-36.1328125,-34.1796875,-43.9453125,48.33984375,0.0
155.203125,-20.5078125,-39.55078125,-43.45703125,-55.6640625,-35.15625,0.0
