timestamp,TP9,AF7,AF8,TP10,AUX,Marker,
45.00390625,-43.9453125,-30.76171875,-35.64453125,-51.7578125,-36.62109375,0.0
45.0078125,-41.015625,-30.2734375,-32.2265625,-48.828125,2.9296875,0.0
45.01171875,-45.41015625,-25.390625,-27.83203125,-59.08203125,0.48828125,0.0
45.015625,-48.828125,-22.94921875,-30.2734375,-62.01171875,-13.671875,0.0
45.01953125,-41.50390625,-21.97265625,-32.2265625,-55.6640625,130.37109375,0.0
45.0234375,-32.71484375,-22.94921875,-32.2265625,-48.33984375,65.91796875,0.0
45.02734375,-28.3203125,-27.83203125,-28.3203125,-44.43359375,-38.0859375,0.0
45.03125,-30.2734375,-38.0859375,-28.80859375,-52.734375,51.26953125,0.0
45.03515625,-16.11328125,-27.34375,-16.6015625,-38.0859375,-19.04296875,0.0
45.0390625,1.46484375,-16.6015625,0.0,-20.01953125,-81.54296875,0.0
45.04296875,-14.16015625,-29.78515625,-20.01953125,-34.66796875,58.10546875,0.0
45.046875,-20.5078125,-32.2265625,-25.390625,-38.57421875,59.5703125,0.0
45.05078125,-25.390625,-33.69140625,-28.3203125,-37.59765625,-28.3203125,0.0
45.0546875,-36.62109375,-36.62109375,-40.52734375,-42.48046875,-8.30078125,0.0
45.05859375,-38.57421875,-34.66796875,-39.0625,-47.8515625,-82.03125,0.0
45.0625,-38.0859375,-32.2265625,-32.2265625,-49.8046875,-157.2265625,0.0
45.06640625,-35.15625,-34.1796875,-29.78515625,-45.8984375,-77.63671875,0.0
45.0703125,-41.015625,-33.203125,-29.296875,-47.36328125,5.859375,0.0
45.07421875,-47.8515625,-32.2265625,-27.83203125,-47.36328125,7.8125,0.0
45.078125,-46.875,-35.15625,-30.2734375,-34.66796875,9.765625,0.0
45.08203125,-50.78125,-46.38671875,-37.59765625,-41.015625,69.3359375,0.0
45.0859375,-46.875,-40.52734375,-32.71484375,-53.7109375,108.88671875,0.0
45.08984375,-40.0390625,-31.73828125,-25.87890625,-40.52734375,91.30859375,0.0
45.09375,-40.52734375,-35.64453125,-21.97265625,-35.64453125,89.35546875,0.0
45.09765625,-36.62109375,-33.203125,-20.5078125,-37.59765625,100.09765625,0.0
45.1015625,-34.66796875,-31.73828125,-24.4140625,-30.76171875,20.99609375,0.0
45.10546875,-32.2265625,-32.71484375,-26.3671875,-29.296875,-42.96875,0.0
45.109375,-31.25,-37.59765625,-33.69140625,-28.3203125,26.85546875,0.0
45.11328125,-40.0390625,-41.9921875,-40.52734375,-25.87890625,21.484375,0.0
45.1171875,-39.0625,-35.64453125,-40.0390625,-20.5078125,-65.91796875,0.0
45.12109375,-35.64453125,-28.80859375,-38.0859375,-7.8125,-79.1015625,0.0
45.125,-38.57421875,-33.203125,-38.57421875,-10.7421875,-107.91015625,0.0
45.12890625,-37.59765625,-34.1796875,-30.76171875,-17.578125,-67.87109375,0.0
45.1328125,-41.015625,-34.66796875,-26.3671875,-19.04296875,8.30078125,0.0
45.13671875,-46.38671875,-28.80859375,-25.87890625,-23.4375,33.69140625,0.0
45.140625,-41.9921875,-20.99609375,-25.87890625,-23.4375,16.11328125,0.0
45.14453125,-32.2265625,-21.484375,-29.296875,-31.73828125,-30.2734375,0.0
45.1484375,-29.296875,-22.4609375,-31.25,-33.69140625,-130.859375,0.0
45.15234375,-30.76171875,-20.5078125,-27.34375,-24.90234375,-211.9140625,0.0
45.15625,-41.50390625,-24.90234375,-23.92578125,-32.2265625,-214.35546875,0.0
45.16015625,-42.48046875,-26.85546875,-21.97265625,-34.66796875,-179.6875,0.0
45.1640625,-36.1328125,-22.94921875,-22.94921875,-31.25,-178.22265625,0.0
45.16796875,-37.59765625,-21.97265625,-23.4375,-27.83203125,-162.59765625,0.0
45.171875,-48.33984375,-25.87890625,-29.78515625,-30.76171875,-73.2421875,0.0
45.17578125,-60.05859375,-34.1796875,-36.1328125,-39.0625,-62.98828125,0.0
45.1796875,-51.26953125,-32.71484375,-32.2265625,-45.41015625,-5.859375,0.0
45.18359375,-40.52734375,-33.203125,-33.69140625,-42.96875,111.328125,0.0
45.1875,-41.50390625,-38.57421875,-40.52734375,-41.50390625,118.65234375,0.0
45.19140625,-48.828125,-33.69140625,-40.52734375,-43.9453125,65.91796875,0.0
45.1953125,-56.640625,-28.80859375,-32.2265625,-41.015625,1.46484375,0.0
45.19921875,-51.26953125,-31.25,-35.64453125,-41.015625,-114.74609375,0.0
45.203125,-46.38671875,-37.109375,-39.0625,-39.55078125,-168.45703125,0.0
45.20703125,-45.41015625,-38.57421875,-37.59765625,-37.59765625,-127.9296875,0.0
45.2109375,-41.50390625,-32.2265625,-34.1796875,-35.64453125,-43.9453125,0.0
45.21484375,-45.8984375,-29.78515625,-30.2734375,-37.109375,-4.39453125,0.0
45.21875,-53.22265625,-39.0625,-41.50390625,-44.43359375,-63.4765625,0.0
45.22265625,-49.8046875,-44.43359375,-42.96875,-47.36328125,-62.5,0.0
45.2265625,-47.36328125,-36.1328125,-31.25,-45.41015625,-30.2734375,0.0
45.23046875,-41.015625,-28.3203125,-32.71484375,-46.875,-45.8984375,0.0
45.234375,-33.203125,-30.2734375,-33.69140625,-47.8515625,-45.8984375,0.0
45.23828125,-37.59765625,-29.78515625,-29.296875,-40.52734375,-75.68359375,0.0
45.2421875,-38.0859375,-27.34375,-31.73828125,-36.1328125,-102.5390625,0.0
45.24609375,-30.76171875,-31.25,-39.55078125,-37.109375,3.90625,0.0
45.25,-34.1796875,-36.1328125,-41.015625,-36.1328125,75.68359375,0.0
45.25390625,-47.8515625,-33.69140625,-41.015625,-37.109375,3.41796875,0.0
45.2578125,-44.921875,-34.66796875,-38.57421875,-46.875,-21.484375,0.0
45.26171875,-37.109375,-37.59765625,-36.1328125,-44.921875,-56.640625,0.0
45.265625,-36.62109375,-41.015625,-37.59765625,-35.64453125,-121.09375,0.0
45.26953125,-36.1328125,-37.59765625,-34.66796875,-32.2265625,-106.4453125,0.0
45.2734375,-44.43359375,-34.66796875,-38.0859375,-31.25,-76.66015625,0.0
45.27734375,-39.0625,-30.2734375,-37.59765625,-23.92578125,-67.87109375,0.0
45.28125,-25.87890625,-28.3203125,-29.78515625,-27.83203125,-45.41015625,0.0
45.28515625,-22.94921875,-30.2734375,-27.83203125,-32.71484375,22.94921875,0.0
45.2890625,-19.53125,-28.80859375,-29.296875,-27.83203125,-11.71875,0.0
45.29296875,-27.83203125,-31.73828125,-37.59765625,-28.3203125,-7.8125,0.0
45.296875,-41.015625,-35.64453125,-37.109375,-32.2265625,50.29296875,0.0
45.30078125,-35.64453125,-35.64453125,-29.296875,-27.83203125,9.27734375,0.0
45.3046875,-18.5546875,-33.69140625,-25.87890625,-20.99609375,-21.484375,0.0
45.30859375,-18.06640625,-27.83203125,-23.92578125,-23.92578125,39.0625,0.0
45.3125,-34.1796875,-31.73828125,-27.34375,-28.3203125,109.86328125,0.0
45.31640625,-39.55078125,-34.1796875,-31.25,-23.4375,130.37109375,0.0
45.3203125,-29.78515625,-31.25,-28.3203125,-16.6015625,89.35546875,0.0
45.32421875,-24.90234375,-38.57421875,-29.78515625,-7.8125,5.37109375,0.0
45.328125,-20.5078125,-34.1796875,-32.71484375,-13.671875,-43.9453125,0.0
45.33203125,-26.85546875,-30.2734375,-33.203125,-28.80859375,-49.31640625,0.0
45.3359375,-42.48046875,-35.64453125,-31.25,-27.34375,-21.484375,0.0
45.33984375,-43.45703125,-33.69140625,-27.34375,-20.5078125,-14.16015625,0.0
45.34375,-37.109375,-32.71484375,-26.85546875,-25.390625,-4.39453125,0.0
45.34765625,-34.66796875,-34.66796875,-27.83203125,-27.83203125,10.7421875,0.0
45.3515625,-36.62109375,-37.109375,-27.83203125,-20.01953125,-13.671875,0.0
45.35546875,-39.55078125,-41.9921875,-24.90234375,-18.06640625,-23.4375,0.0
45.359375,-41.50390625,-40.52734375,-28.80859375,-22.94921875,81.54296875,0.0
45.36328125,-40.0390625,-36.1328125,-39.55078125,-25.87890625,86.42578125,0.0
45.3671875,-41.015625,-40.52734375,-44.43359375,-38.57421875,80.078125,0.0
45.37109375,-45.8984375,-39.0625,-33.203125,-38.0859375,29.78515625,0.0
45.375,-51.7578125,-35.15625,-26.3671875,-29.296875,-69.82421875,0.0
45.37890625,-52.734375,-35.64453125,-26.85546875,-33.69140625,-114.2578125,0.0
45.3828125,-32.71484375,-38.57421875,-23.92578125,-31.73828125,-47.36328125,0.0
45.38671875,-21.484375,-36.1328125,-26.85546875,-34.66796875,32.71484375,0.0
45.390625,-28.80859375,-33.203125,-31.73828125,-47.36328125,-14.6484375,0.0
45.39453125,-41.9921875,-35.15625,-35.15625,-49.8046875,-71.77734375,0.0
45.3984375,-41.9921875,-37.109375,-39.0625,-38.57421875,-128.90625,0.0
45.40234375,-28.3203125,-32.71484375,-36.1328125,-28.3203125,-171.875,0.0
45.40625,-33.69140625,-26.3671875,-37.59765625,-27.34375,-140.13671875,0.0
45.41015625,-38.57421875,-29.296875,-41.015625,-26.85546875,-145.5078125,0.0
45.4140625,-37.109375,-32.2265625,-38.57421875,-25.390625,-165.52734375,0.0
45.41796875,-44.43359375,-29.296875,-30.2734375,-26.3671875,-141.11328125,0.0
45.421875,-41.9921875,-28.3203125,-25.390625,-36.62109375,-96.6796875,0.0
45.42578125,-33.203125,-34.1796875,-28.3203125,-33.69140625,-7.8125,0.0
45.4296875,-32.71484375,-32.2265625,-27.34375,-26.85546875,10.25390625,0.0
45.43359375,-39.0625,-31.25,-25.87890625,-31.25,29.78515625,0.0
45.4375,-36.62109375,-39.0625,-29.296875,-38.0859375,-1.46484375,0.0
45.44140625,-27.83203125,-37.59765625,-27.34375,-33.203125,-11.71875,0.0
45.4453125,-23.4375,-32.71484375,-26.85546875,-31.25,54.6875,0.0
45.44921875,-19.53125,-30.76171875,-32.2265625,-27.83203125,4.39453125,0.0
45.453125,-33.203125,-33.69140625,-35.64453125,-30.76171875,-3.41796875,0.0
45.45703125,-47.36328125,-37.109375,-34.66796875,-36.62109375,-27.83203125,0.0
45.4609375,-46.875,-34.1796875,-34.66796875,-31.25,-20.99609375,0.0
45.46484375,-44.921875,-32.71484375,-33.203125,-37.109375,6.8359375,0.0
45.46875,-49.31640625,-38.0859375,-30.76171875,-45.41015625,-10.7421875,0.0
45.47265625,-53.7109375,-37.59765625,-30.76171875,-35.15625,15.625,0.0
45.4765625,-55.17578125,-28.3203125,-33.69140625,-31.73828125,-3.41796875,0.0
45.48046875,-53.22265625,-28.3203125,-39.0625,-43.45703125,13.18359375,0.0
45.484375,-40.52734375,-30.76171875,-38.57421875,-41.015625,-18.06640625,0.0
45.48828125,-41.50390625,-33.203125,-39.55078125,-40.0390625,-64.94140625,0.0
45.4921875,-46.875,-39.0625,-48.828125,-55.17578125,-23.4375,0.0
45.49609375,-44.43359375,-35.64453125,-50.78125,-51.7578125,34.66796875,0.0
45.5,-41.50390625,-36.1328125,-46.875,-47.36328125,19.04296875,0.0
45.50390625,-42.96875,-38.0859375,-50.29296875,-44.43359375,-29.78515625,0.0
45.5078125,-43.45703125,-34.1796875,-47.36328125,-41.015625,-76.66015625,0.0
45.51171875,-43.45703125,-33.69140625,-39.55078125,-47.36328125,-104.00390625,0.0
45.515625,-47.8515625,-27.83203125,-34.66796875,-38.0859375,-71.2890625,0.0
45.51953125,-45.8984375,-27.34375,-41.50390625,-36.1328125,-75.68359375,0.0
45.5234375,-47.8515625,-33.69140625,-48.828125,-34.1796875,-68.84765625,0.0
45.52734375,-47.36328125,-29.78515625,-46.875,-39.55078125,-126.46484375,0.0
45.53125,-39.55078125,-30.2734375,-39.55078125,-48.828125,-77.63671875,0.0
45.53515625,-44.43359375,-34.66796875,-37.109375,-45.8984375,-44.921875,0.0
45.5390625,-45.8984375,-32.71484375,-42.48046875,-47.8515625,-45.8984375,0.0
45.54296875,-35.64453125,-33.203125,-37.59765625,-46.875,45.8984375,0.0
45.546875,-21.97265625,-21.97265625,-21.97265625,-40.0390625,29.78515625,0.0
45.55078125,-20.99609375,-21.484375,-23.92578125,-43.45703125,-59.08203125,0.0
45.5546875,-29.296875,-30.76171875,-33.69140625,-48.828125,-25.87890625,0.0
45.55859375,-30.76171875,-30.2734375,-27.34375,-36.1328125,62.98828125,0.0
45.5625,-28.80859375,-34.1796875,-22.94921875,-36.1328125,-20.5078125,0.0
45.56640625,-24.90234375,-27.83203125,-23.92578125,-49.8046875,-93.26171875,0.0
45.5703125,-33.69140625,-26.3671875,-23.92578125,-46.875,-110.83984375,0.0
45.57421875,-43.9453125,-34.66796875,-26.3671875,-40.52734375,-144.04296875,0.0
45.578125,-41.9921875,-27.83203125,-28.3203125,-42.96875,-158.69140625,0.0
45.58203125,-46.875,-23.92578125,-30.76171875,-47.8515625,-149.4140625,0.0
45.5859375,-53.22265625,-24.90234375,-30.76171875,-44.43359375,-140.13671875,0.0
45.58984375,-57.6171875,-24.4140625,-29.296875,-48.33984375,-215.33203125,0.0
45.59375,-56.640625,-26.85546875,-28.3203125,-48.828125,-243.65234375,0.0
45.59765625,-53.22265625,-29.296875,-27.34375,-43.45703125,-132.32421875,0.0
45.6015625,-51.7578125,-31.73828125,-26.85546875,-39.55078125,-128.90625,0.0
45.60546875,-44.921875,-31.25,-23.4375,-32.71484375,-201.66015625,0.0
45.609375,-44.43359375,-30.2734375,-24.4140625,-37.109375,-112.79296875,0.0
45.61328125,-46.38671875,-35.15625,-29.78515625,-45.8984375,-97.16796875,0.0
45.6171875,-42.96875,-32.71484375,-25.390625,-41.015625,-118.65234375,0.0
45.62109375,-37.59765625,-24.90234375,-17.08984375,-35.64453125,-65.4296875,0.0
45.625,-36.1328125,-25.390625,-17.578125,-35.15625,-73.73046875,0.0
45.62890625,-43.9453125,-25.390625,-21.97265625,-39.55078125,-44.921875,0.0
45.6328125,-48.33984375,-28.3203125,-23.4375,-47.36328125,40.0390625,0.0
45.63671875,-52.734375,-36.1328125,-30.76171875,-62.5,106.4453125,0.0
45.640625,-49.31640625,-35.64453125,-34.1796875,-56.640625,81.54296875,0.0
45.64453125,-40.52734375,-25.390625,-27.34375,-40.52734375,43.9453125,0.0
45.6484375,-39.0625,-26.3671875,-30.2734375,-37.59765625,60.546875,0.0
45.65234375,-38.57421875,-30.76171875,-36.1328125,-33.69140625,13.18359375,0.0
45.65625,-34.1796875,-36.62109375,-36.1328125,-37.109375,20.99609375,0.0
45.66015625,-32.71484375,-42.96875,-37.59765625,-33.69140625,31.25,0.0
45.6640625,-29.296875,-39.0625,-37.59765625,-22.94921875,-27.34375,0.0
45.66796875,-28.80859375,-40.52734375,-34.66796875,-24.90234375,12.20703125,0.0
45.671875,-39.55078125,-41.015625,-38.0859375,-32.71484375,85.9375,0.0
45.67578125,-40.52734375,-29.78515625,-33.203125,-32.2265625,47.8515625,0.0
45.6796875,-42.96875,-31.73828125,-30.2734375,-32.71484375,-28.3203125,0.0
45.68359375,-41.50390625,-30.76171875,-33.69140625,-35.15625,22.4609375,0.0
45.6875,-34.66796875,-28.80859375,-28.3203125,-33.203125,4.39453125,0.0
45.69140625,-46.875,-31.73828125,-24.4140625,-32.2265625,-82.51953125,0.0
45.6953125,-57.12890625,-32.2265625,-32.71484375,-47.36328125,-25.390625,0.0
45.69921875,-53.7109375,-39.0625,-40.52734375,-49.8046875,-15.625,0.0
45.703125,-42.48046875,-30.2734375,-33.203125,-34.66796875,-0.48828125,0.0
45.70703125,-38.57421875,-20.99609375,-30.2734375,-35.15625,96.6796875,0.0
45.7109375,-43.9453125,-24.4140625,-35.15625,-47.36328125,120.1171875,0.0
45.71484375,-50.29296875,-24.4140625,-34.1796875,-45.8984375,26.3671875,0.0
45.71875,-48.33984375,-26.85546875,-33.69140625,-40.0390625,50.29296875,0.0
45.72265625,-35.15625,-32.71484375,-32.2265625,-36.62109375,41.9921875,0.0
45.7265625,-25.87890625,-32.71484375,-31.73828125,-42.48046875,-73.73046875,0.0
45.73046875,-40.0390625,-29.78515625,-38.0859375,-47.8515625,-132.8125,0.0
45.734375,-49.8046875,-33.203125,-40.0390625,-42.48046875,-89.84375,0.0
45.73828125,-38.0859375,-39.0625,-38.0859375,-41.015625,-40.52734375,0.0
45.7421875,-34.66796875,-29.296875,-34.1796875,-36.62109375,-112.79296875,0.0
45.74609375,-31.73828125,-19.04296875,-30.76171875,-25.390625,-119.140625,0.0
45.75,-30.76171875,-18.5546875,-28.80859375,-26.85546875,-53.22265625,0.0
45.75390625,-45.8984375,-25.87890625,-24.90234375,-28.80859375,-83.984375,0.0
45.7578125,-52.24609375,-32.71484375,-26.3671875,-32.2265625,-120.60546875,0.0
45.76171875,-43.45703125,-28.80859375,-30.76171875,-36.62109375,-135.7421875,0.0
45.765625,-40.52734375,-28.80859375,-35.15625,-31.25,-120.1171875,0.0
45.76953125,-39.55078125,-28.80859375,-29.296875,-21.484375,-109.375,0.0
45.7734375,-29.78515625,-18.5546875,-15.13671875,-12.20703125,-115.72265625,0.0
45.77734375,-33.69140625,-24.4140625,-20.01953125,-20.01953125,-60.546875,0.0
45.78125,-38.57421875,-32.71484375,-24.90234375,-9.765625,-39.55078125,0.0
45.78515625,-45.8984375,-31.73828125,-23.92578125,-6.34765625,-49.31640625,0.0
45.7890625,-55.6640625,-30.2734375,-26.3671875,-15.13671875,-48.828125,0.0
45.79296875,-57.6171875,-30.2734375,-29.296875,-14.16015625,49.8046875,0.0
45.796875,-58.59375,-37.59765625,-32.2265625,-25.390625,125.48828125,0.0
45.80078125,-36.1328125,-21.484375,-15.13671875,-11.71875,139.6484375,0.0
45.8046875,-20.5078125,-0.9765625,-0.48828125,15.13671875,165.52734375,0.0
45.80859375,-38.0859375,-21.484375,-17.08984375,-8.7890625,85.44921875,0.0
45.8125,-51.7578125,-31.25,-29.78515625,-34.66796875,15.625,0.0
45.81640625,-59.5703125,-32.2265625,-30.76171875,-29.78515625,-20.5078125,0.0
45.8203125,-44.43359375,-38.57421875,-25.87890625,-20.5078125,-53.22265625,0.0
45.82421875,-40.52734375,-33.203125,-22.94921875,-20.01953125,4.8828125,0.0
45.828125,-45.41015625,-24.90234375,-22.4609375,-27.83203125,-10.25390625,0.0
45.83203125,-38.0859375,-18.06640625,-20.01953125,-20.01953125,-58.10546875,0.0
45.8359375,-43.45703125,-26.3671875,-21.484375,-17.08984375,1.953125,0.0
45.83984375,-41.015625,-29.78515625,-24.4140625,-25.390625,27.34375,0.0
45.84375,-36.1328125,-30.2734375,-26.3671875,-28.3203125,12.6953125,0.0
45.84765625,-37.59765625,-30.2734375,-30.2734375,-23.4375,72.265625,0.0
45.8515625,-42.96875,-28.3203125,-31.73828125,-23.4375,108.3984375,0.0
45.85546875,-61.5234375,-29.296875,-31.73828125,-24.90234375,13.18359375,0.0
45.859375,-57.6171875,-31.25,-29.78515625,-26.3671875,-28.80859375,0.0
45.86328125,-47.36328125,-36.62109375,-27.83203125,-28.80859375,-41.015625,0.0
45.8671875,-51.26953125,-30.2734375,-29.78515625,-26.85546875,-46.38671875,0.0
45.87109375,-49.31640625,-23.92578125,-32.71484375,-24.4140625,-39.0625,0.0
45.875,-35.64453125,-15.625,-22.4609375,-8.7890625,-49.31640625,0.0
45.87890625,-33.69140625,-15.625,-14.6484375,-2.44140625,-34.66796875,0.0
45.8828125,-57.6171875,-33.69140625,-31.25,-22.4609375,45.8984375,0.0
45.88671875,-72.265625,-41.015625,-40.52734375,-34.1796875,68.359375,0.0
45.890625,-66.89453125,-33.69140625,-35.64453125,-29.78515625,8.7890625,0.0
45.89453125,-62.01171875,-30.2734375,-31.25,-32.71484375,34.1796875,0.0
45.8984375,-64.94140625,-39.55078125,-31.25,-33.203125,24.4140625,0.0
45.90234375,-63.4765625,-37.109375,-25.87890625,-31.73828125,-6.34765625,0.0
45.90625,-54.19921875,-32.71484375,-25.390625,-34.66796875,17.578125,0.0
45.91015625,-51.7578125,-36.1328125,-28.3203125,-35.15625,63.96484375,0.0
45.9140625,-56.640625,-32.71484375,-34.1796875,-42.48046875,50.78125,0.0
45.91796875,-44.43359375,-19.04296875,-26.85546875,-28.3203125,-8.30078125,0.0
45.921875,-23.92578125,-10.7421875,-10.7421875,-9.765625,-53.22265625,0.0
45.92578125,-30.76171875,-21.97265625,-23.92578125,-13.671875,-67.3828125,0.0
45.9296875,-51.26953125,-36.62109375,-43.9453125,-27.83203125,-50.78125,0.0
45.93359375,-51.26953125,-39.55078125,-36.1328125,-34.66796875,-44.43359375,0.0
45.9375,-47.8515625,-35.15625,-29.78515625,-33.69140625,-83.0078125,0.0
45.94140625,-40.0390625,-28.80859375,-26.3671875,-29.78515625,-96.19140625,0.0
45.9453125,-34.66796875,-27.34375,-23.92578125,-32.2265625,-124.51171875,0.0
45.94921875,-34.66796875,-30.2734375,-27.34375,-36.62109375,-59.08203125,0.0
45.953125,-40.52734375,-39.55078125,-29.78515625,-26.3671875,-13.671875,0.0
45.95703125,-46.38671875,-41.50390625,-33.69140625,-26.85546875,-42.48046875,0.0
45.9609375,-46.875,-31.25,-37.109375,-32.71484375,-41.50390625,0.0
45.96484375,-49.31640625,-27.83203125,-34.66796875,-24.4140625,-10.25390625,0.0
45.96875,-48.828125,-35.15625,-36.1328125,-29.296875,20.01953125,0.0
45.97265625,-54.6875,-36.62109375,-40.0390625,-36.1328125,61.03515625,0.0
45.9765625,-56.640625,-33.69140625,-41.015625,-38.0859375,67.87109375,0.0
45.98046875,-40.0390625,-23.92578125,-29.78515625,-31.25,25.390625,0.0
45.984375,-26.3671875,-12.20703125,-12.6953125,-13.18359375,8.30078125,0.0
45.98828125,-39.55078125,-29.78515625,-27.34375,-24.90234375,14.16015625,0.0
45.9921875,-57.12890625,-41.015625,-35.64453125,-35.64453125,26.3671875,0.0
45.99609375,-63.4765625,-38.0859375,-31.73828125,-36.1328125,16.6015625,0.0
46.0,-57.6171875,-41.015625,-36.62109375,-26.3671875,-6.8359375,0.0
46.00390625,-48.828125,-41.9921875,-35.64453125,-28.80859375,-99.609375,0.0
46.0078125,-45.8984375,-35.64453125,-28.80859375,-36.62109375,-25.390625,0.0
46.01171875,-37.59765625,-28.3203125,-26.85546875,-22.4609375,33.69140625,0.0
46.015625,-42.96875,-33.69140625,-35.15625,-29.296875,-88.8671875,0.0
46.01953125,-43.45703125,-32.2265625,-32.2265625,-32.71484375,-104.4921875,0.0
46.0234375,-34.1796875,-29.78515625,-30.2734375,-23.92578125,-107.91015625,0.0
46.02734375,-34.1796875,-32.71484375,-31.25,-24.90234375,-104.98046875,0.0
46.03125,-34.1796875,-28.80859375,-32.2265625,-28.80859375,-78.61328125,0.0
46.03515625,-35.64453125,-31.25,-39.55078125,-37.109375,-61.5234375,0.0
46.0390625,-36.62109375,-35.15625,-37.109375,-36.1328125,15.625,0.0
46.04296875,-31.25,-36.1328125,-36.1328125,-29.296875,-74.21875,0.0
46.046875,-36.1328125,-39.0625,-39.0625,-35.15625,-155.2734375,0.0
46.05078125,-41.015625,-32.2265625,-36.62109375,-36.1328125,-26.3671875,0.0
46.0546875,-34.66796875,-28.3203125,-33.203125,-31.25,-50.78125,0.0
46.05859375,-34.66796875,-31.25,-36.62109375,-37.59765625,-134.27734375,0.0
46.0625,-34.66796875,-34.1796875,-41.9921875,-36.1328125,6.8359375,0.0
46.06640625,-33.203125,-34.66796875,-42.96875,-33.69140625,10.7421875,0.0
46.0703125,-39.55078125,-32.2265625,-39.55078125,-31.73828125,-85.44921875,0.0
46.07421875,-36.1328125,-33.203125,-41.50390625,-33.203125,0.9765625,0.0
46.078125,-31.25,-37.109375,-41.50390625,-33.69140625,3.90625,0.0
46.08203125,-28.80859375,-34.66796875,-37.109375,-28.80859375,-37.59765625,0.0
46.0859375,-30.2734375,-31.25,-39.55078125,-28.80859375,93.26171875,0.0
46.08984375,-25.87890625,-26.85546875,-37.109375,-17.08984375,125.48828125,0.0
46.09375,-27.83203125,-29.296875,-39.55078125,-23.4375,105.95703125,0.0
46.09765625,-43.45703125,-36.1328125,-41.9921875,-45.41015625,98.14453125,0.0
46.1015625,-4.39453125,-2.44140625,-5.37109375,-6.8359375,-15.13671875,0.0
46.10546875,36.62109375,21.97265625,23.4375,26.85546875,-45.41015625,0.0
46.109375,48.828125,35.64453125,38.57421875,37.59765625,-47.36328125,0.0
46.11328125,32.71484375,23.92578125,21.97265625,16.6015625,-47.8515625,0.0
46.1171875,-20.99609375,-31.73828125,-21.97265625,-42.96875,-53.22265625,0.0
46.12109375,-30.76171875,-44.43359375,-28.80859375,-56.15234375,-70.80078125,0.0
46.125,-35.64453125,-41.9921875,-33.203125,-53.22265625,-12.20703125,0.0
46.12890625,-41.015625,-39.55078125,-33.69140625,-46.875,93.26171875,0.0
46.1328125,-39.55078125,-34.66796875,-36.1328125,-48.828125,118.1640625,0.0
46.13671875,-37.109375,-37.109375,-42.96875,-49.8046875,-1.953125,0.0
46.140625,-37.59765625,-38.57421875,-45.41015625,-43.45703125,-46.38671875,0.0
46.14453125,-30.2734375,-29.296875,-42.48046875,-50.29296875,1.46484375,0.0
46.1484375,-26.3671875,-30.2734375,-38.57421875,-56.15234375,-11.23046875,0.0
46.15234375,-31.73828125,-40.52734375,-39.0625,-54.19921875,-39.0625,0.0
46.15625,-42.48046875,-47.36328125,-47.8515625,-60.05859375,-40.52734375,0.0
46.16015625,-5.37109375,-9.27734375,-3.90625,-16.11328125,-180.17578125,0.0
46.1640625,24.4140625,22.94921875,23.92578125,16.11328125,-244.62890625,0.0
46.16796875,-20.5078125,-27.34375,-29.78515625,-32.2265625,-70.3125,0.0
46.171875,-32.71484375,-46.38671875,-45.8984375,-44.921875,-66.89453125,0.0
46.17578125,-23.92578125,-27.34375,-23.92578125,-26.85546875,-127.44140625,0.0
46.1796875,-36.1328125,-26.85546875,-24.90234375,-28.80859375,-105.95703125,0.0
46.18359375,-50.29296875,-40.0390625,-43.45703125,-37.109375,-79.1015625,0.0
46.1875,-39.0625,-41.015625,-43.45703125,-40.0390625,-58.10546875,0.0
46.19140625,-38.57421875,-43.9453125,-46.875,-45.41015625,-51.7578125,0.0
46.1953125,-42.96875,-47.36328125,-48.828125,-38.57421875,81.0546875,0.0
46.19921875,-45.41015625,-44.43359375,-50.78125,-36.1328125,137.20703125,0.0
46.203125,-38.57421875,-41.015625,-43.9453125,-34.1796875,2.44140625,0.0
46.20703125,17.08984375,12.6953125,18.5546875,16.11328125,-101.07421875,0.0
46.2109375,1.953125,6.8359375,12.20703125,2.44140625,-64.453125,0.0
46.21484375,-59.08203125,-49.31640625,-45.41015625,-55.17578125,11.71875,0.0
46.21875,-52.24609375,-50.78125,-45.8984375,-43.45703125,20.99609375,0.0
46.22265625,-46.38671875,-41.50390625,-40.0390625,-43.9453125,6.34765625,0.0
46.2265625,-40.52734375,-40.0390625,-40.0390625,-56.640625,69.3359375,0.0
46.23046875,-29.78515625,-42.96875,-40.0390625,-47.8515625,103.02734375,0.0
46.234375,-34.1796875,-35.64453125,-33.203125,-45.8984375,42.96875,0.0
46.23828125,-41.50390625,-36.62109375,-34.1796875,-57.12890625,15.625,0.0
46.2421875,-40.52734375,-39.55078125,-39.0625,-57.6171875,-10.25390625,0.0
46.24609375,-41.50390625,-42.48046875,-42.96875,-54.19921875,-59.5703125,0.0
46.25,-29.78515625,-33.69140625,-36.1328125,-44.43359375,-75.68359375,0.0
46.25390625,-24.4140625,-30.2734375,-36.1328125,-41.015625,-71.2890625,0.0
46.2578125,-46.38671875,-46.38671875,-52.24609375,-59.08203125,-90.33203125,0.0
46.26171875,-49.8046875,-44.921875,-51.26953125,-64.453125,-51.7578125,0.0
46.265625,-48.828125,-37.109375,-41.50390625,-55.6640625,19.04296875,0.0
46.26953125,-51.26953125,-36.62109375,-39.55078125,-52.734375,-53.7109375,0.0
46.2734375,-49.8046875,-52.24609375,-48.828125,-65.91796875,-160.64453125,0.0
46.27734375,-42.96875,-46.38671875,-44.921875,-58.59375,-143.06640625,0.0
46.28125,-42.96875,-35.15625,-35.64453125,-48.33984375,-91.30859375,0.0
46.28515625,-37.109375,-40.52734375,-29.296875,-45.8984375,-31.25,0.0
46.2890625,-35.15625,-32.2265625,-30.2734375,-45.8984375,17.578125,0.0
46.29296875,-38.0859375,-20.01953125,-33.69140625,-47.36328125,18.06640625,0.0
46.296875,-36.62109375,-29.78515625,-32.2265625,-47.36328125,-32.2265625,0.0
46.30078125,-40.52734375,-38.57421875,-36.62109375,-52.24609375,-115.234375,0.0
46.3046875,-41.9921875,-38.57421875,-41.015625,-48.828125,-108.3984375,0.0
46.30859375,-39.55078125,-39.0625,-43.45703125,-52.24609375,-72.75390625,0.0
46.3125,-47.8515625,-42.48046875,-41.015625,-61.5234375,-49.8046875,0.0
46.31640625,-58.10546875,-47.36328125,-39.0625,-54.19921875,-27.83203125,0.0
46.3203125,-52.734375,-43.9453125,-37.59765625,-46.875,-43.45703125,0.0
46.32421875,-54.19921875,-40.0390625,-34.1796875,-42.48046875,-121.09375,0.0
46.328125,-53.22265625,-37.109375,-31.73828125,-36.62109375,-135.25390625,0.0
46.33203125,-49.8046875,-35.64453125,-31.25,-31.25,-104.4921875,0.0
46.3359375,-50.78125,-36.62109375,-32.2265625,-32.2265625,-70.80078125,0.0
46.33984375,-43.45703125,-37.109375,-34.1796875,-36.1328125,37.109375,0.0
46.34375,-45.41015625,-33.203125,-39.0625,-33.203125,59.5703125,0.0
46.34765625,-44.921875,-31.73828125,-39.55078125,-33.203125,-44.43359375,0.0
46.3515625,-25.87890625,-28.3203125,-32.71484375,-27.83203125,-40.52734375,0.0
46.35546875,-30.76171875,-30.2734375,-35.15625,-25.390625,104.00390625,0.0
46.359375,-45.41015625,-45.41015625,-41.9921875,-33.203125,110.83984375,0.0
46.36328125,-39.55078125,-43.45703125,-43.9453125,-31.73828125,-3.41796875,0.0
46.3671875,-43.45703125,-37.59765625,-43.9453125,-30.76171875,-78.61328125,0.0
46.37109375,-44.43359375,-44.43359375,-43.45703125,-29.296875,-62.01171875,0.0
46.375,-41.9921875,-39.0625,-47.8515625,-30.2734375,9.765625,0.0
46.37890625,-45.8984375,-37.109375,-50.78125,-40.0390625,11.23046875,0.0
46.3828125,-39.55078125,-35.64453125,-46.38671875,-34.1796875,0.0,0.0
46.38671875,-31.73828125,-38.0859375,-40.0390625,-26.3671875,21.97265625,0.0
46.390625,-35.64453125,-46.875,-43.45703125,-28.3203125,-20.01953125,0.0
46.39453125,-44.921875,-42.96875,-49.8046875,-25.390625,-110.3515625,0.0
46.3984375,-43.45703125,-41.015625,-46.875,-22.4609375,-101.07421875,0.0
46.40234375,-33.69140625,-31.25,-36.1328125,-26.85546875,-21.97265625,0.0
46.40625,-23.4375,-20.01953125,-28.3203125,-29.78515625,-41.50390625,0.0
46.41015625,-23.4375,-24.90234375,-29.78515625,-26.3671875,-91.30859375,0.0
46.4140625,-19.04296875,-26.3671875,-25.390625,-16.6015625,-54.19921875,0.0
46.41796875,2.44140625,-7.32421875,-10.7421875,6.8359375,-18.06640625,0.0
46.421875,13.18359375,2.44140625,-2.44140625,21.484375,-13.18359375,0.0
46.42578125,17.08984375,-3.41796875,-1.953125,14.16015625,-11.71875,0.0
46.4296875,-6.8359375,-24.4140625,-17.08984375,-17.578125,-51.7578125,0.0
46.43359375,-30.76171875,-40.52734375,-27.34375,-31.73828125,-7.32421875,0.0
46.4375,-28.80859375,-45.41015625,-28.3203125,-22.94921875,71.77734375,0.0
46.44140625,-27.83203125,-51.7578125,-35.15625,-28.3203125,76.171875,0.0
46.4453125,-11.71875,-28.3203125,-18.5546875,-11.23046875,11.71875,0.0
46.44921875,-0.9765625,-0.9765625,-0.48828125,12.6953125,-62.5,0.0
46.453125,-40.0390625,-25.87890625,-30.2734375,-20.01953125,-75.1953125,0.0
46.45703125,-59.08203125,-42.48046875,-43.9453125,-31.25,-33.203125,0.0
46.4609375,-52.734375,-32.2265625,-36.62109375,-27.34375,-102.5390625,0.0
46.46484375,-54.19921875,-37.109375,-39.55078125,-42.96875,-105.46875,0.0
46.46875,-49.31640625,-44.43359375,-37.109375,-41.9921875,-34.66796875,0.0
46.47265625,-40.52734375,-38.57421875,-32.2265625,-33.69140625,-21.97265625,0.0
46.4765625,-43.9453125,-40.0390625,-39.0625,-34.66796875,-15.13671875,0.0
46.48046875,-45.8984375,-41.9921875,-39.55078125,-32.71484375,-41.9921875,0.0
46.484375,-35.15625,-38.57421875,-33.203125,-33.203125,-44.43359375,0.0
46.48828125,-29.296875,-35.15625,-27.83203125,-38.57421875,36.1328125,0.0
46.4921875,-27.34375,-22.4609375,-19.04296875,-32.2265625,23.4375,0.0
46.49609375,-43.45703125,-29.296875,-36.1328125,-34.66796875,-63.4765625,0.0
46.5,-50.78125,-38.57421875,-42.96875,-36.62109375,-122.55859375,0.0
46.50390625,-40.52734375,-36.62109375,-32.71484375,-31.73828125,-31.25,0.0
46.5078125,-41.50390625,-36.1328125,-33.69140625,-35.15625,82.51953125,0.0
46.51171875,-50.29296875,-35.64453125,-35.15625,-35.15625,55.17578125,0.0
46.515625,-50.78125,-35.15625,-38.0859375,-38.57421875,38.57421875,0.0
46.51953125,-42.48046875,-30.2734375,-39.0625,-31.73828125,-12.6953125,0.0
46.5234375,-37.59765625,-28.80859375,-37.109375,-14.6484375,-36.62109375,0.0
46.52734375,-32.71484375,-24.4140625,-30.76171875,-13.671875,32.2265625,0.0
46.53125,-29.296875,-22.94921875,-28.3203125,-26.85546875,18.06640625,0.0
46.53515625,-37.109375,-32.71484375,-27.83203125,-30.76171875,-124.51171875,0.0
46.5390625,-36.1328125,-34.1796875,-21.97265625,-20.01953125,-179.19921875,0.0
46.54296875,-28.80859375,-29.78515625,-26.85546875,-21.97265625,-153.3203125,0.0
46.546875,-33.203125,-31.73828125,-30.2734375,-30.2734375,-155.2734375,0.0
46.55078125,-36.1328125,-37.109375,-34.66796875,-28.3203125,-223.14453125,0.0
46.5546875,-30.76171875,-37.109375,-35.64453125,-21.484375,-199.21875,0.0
46.55859375,-30.76171875,-39.55078125,-33.203125,-24.4140625,-146.97265625,0.0
46.5625,-29.296875,-37.109375,-32.71484375,-20.99609375,-196.2890625,0.0
46.56640625,-31.25,-33.69140625,-29.78515625,-16.6015625,-173.828125,0.0
46.5703125,-40.52734375,-30.76171875,-32.2265625,-20.01953125,-125.9765625,0.0
46.57421875,-45.8984375,-28.3203125,-24.4140625,-26.85546875,-119.140625,0.0
46.578125,-52.24609375,-36.62109375,-17.578125,-31.25,-143.5546875,0.0
46.58203125,-49.31640625,-35.15625,-16.6015625,-27.34375,-166.9921875,0.0
46.5859375,-40.52734375,-29.78515625,-11.23046875,-20.5078125,-86.42578125,0.0
46.58984375,-45.8984375,-33.69140625,-20.99609375,-27.83203125,-51.7578125,0.0
46.59375,-52.24609375,-41.015625,-29.78515625,-41.015625,-92.7734375,0.0
46.59765625,-42.96875,-40.0390625,-28.3203125,-36.62109375,-81.0546875,0.0
46.6015625,-39.55078125,-35.15625,-31.25,-28.80859375,-90.8203125,0.0
46.60546875,-34.1796875,-33.203125,-30.2734375,-32.2265625,-73.73046875,0.0
46.609375,-30.76171875,-29.296875,-29.78515625,-30.2734375,-67.3828125,0.0
46.61328125,-33.69140625,-30.2734375,-28.80859375,-34.66796875,-103.02734375,0.0
46.6171875,-31.25,-33.203125,-27.34375,-44.43359375,14.16015625,0.0
46.62109375,-28.80859375,-33.203125,-25.390625,-27.34375,50.78125,0.0
46.625,-31.25,-33.203125,-25.390625,-27.83203125,-20.5078125,0.0
46.62890625,-27.34375,-28.3203125,-30.76171875,-36.1328125,72.265625,0.0
46.6328125,-29.296875,-29.296875,-28.80859375,-32.2265625,175.78125,0.0
46.63671875,-36.62109375,-34.66796875,-26.85546875,-40.52734375,131.8359375,0.0
46.640625,-31.25,-30.2734375,-27.34375,-41.50390625,53.22265625,0.0
46.64453125,-24.90234375,-27.34375,-28.3203125,-34.1796875,38.57421875,0.0
46.6484375,-31.25,-43.45703125,-32.2265625,-42.48046875,87.890625,0.0
46.65234375,-38.0859375,-46.38671875,-25.87890625,-41.50390625,77.1484375,0.0
46.65625,-40.0390625,-40.0390625,-22.4609375,-37.59765625,46.38671875,0.0
46.66015625,-41.9921875,-42.96875,-29.78515625,-41.50390625,0.0,0.0
46.6640625,-39.55078125,-40.0390625,-25.87890625,-41.50390625,-95.703125,0.0
46.66796875,-38.57421875,-38.0859375,-22.94921875,-36.1328125,-44.921875,0.0
46.671875,-37.109375,-41.015625,-30.76171875,-35.64453125,-36.62109375,0.0
46.67578125,-37.59765625,-39.0625,-32.2265625,-39.55078125,-61.03515625,0.0
46.6796875,-41.9921875,-39.0625,-29.296875,-36.62109375,69.3359375,0.0
46.68359375,-38.0859375,-38.57421875,-26.85546875,-30.76171875,87.890625,0.0
46.6875,-39.55078125,-35.64453125,-26.3671875,-24.4140625,22.94921875,0.0
46.69140625,-44.921875,-34.1796875,-29.296875,-38.0859375,62.5,0.0
46.6953125,-43.45703125,-31.73828125,-32.71484375,-42.96875,101.07421875,0.0
46.69921875,-41.50390625,-27.83203125,-34.1796875,-27.83203125,87.890625,0.0
46.703125,-41.9921875,-34.66796875,-38.57421875,-24.4140625,73.2421875,0.0
46.70703125,-44.921875,-41.9921875,-45.41015625,-32.71484375,73.73046875,0.0
46.7109375,-36.1328125,-28.80859375,-33.69140625,-32.2265625,56.640625,0.0
46.71484375,-44.43359375,-33.203125,-30.2734375,-43.9453125,42.48046875,0.0
46.71875,-59.08203125,-38.57421875,-36.1328125,-48.828125,52.734375,0.0
46.72265625,-50.78125,-29.296875,-31.25,-42.96875,10.7421875,0.0
46.7265625,-39.55078125,-30.76171875,-31.25,-40.0390625,-32.2265625,0.0
46.73046875,-37.59765625,-38.57421875,-37.59765625,-31.73828125,-39.0625,0.0
46.734375,-42.48046875,-35.64453125,-36.62109375,-40.0390625,-14.16015625,0.0
46.73828125,-40.0390625,-30.2734375,-35.15625,-41.9921875,14.16015625,0.0
46.7421875,-35.64453125,-31.25,-38.57421875,-39.0625,36.62109375,0.0
46.74609375,-37.109375,-30.76171875,-31.73828125,-39.55078125,6.34765625,0.0
46.75,-36.1328125,-31.73828125,-24.90234375,-40.52734375,-57.12890625,0.0
46.75390625,-41.015625,-33.203125,-26.3671875,-47.8515625,-9.765625,0.0
46.7578125,-44.43359375,-33.69140625,-25.390625,-41.50390625,50.78125,0.0
46.76171875,-39.55078125,-34.1796875,-26.85546875,-42.96875,-29.78515625,0.0
46.765625,-37.59765625,-36.62109375,-26.3671875,-45.41015625,-116.69921875,0.0
46.76953125,-38.0859375,-35.64453125,-24.4140625,-47.36328125,-86.42578125,0.0
46.7734375,-43.45703125,-32.71484375,-31.25,-51.7578125,-51.26953125,0.0
46.77734375,-50.29296875,-35.64453125,-30.2734375,-44.921875,-74.21875,0.0
46.78125,-45.41015625,-33.69140625,-27.83203125,-33.203125,-135.25390625,0.0
46.78515625,-31.73828125,-22.94921875,-27.83203125,-30.76171875,-118.65234375,0.0
46.7890625,-26.3671875,-20.5078125,-31.25,-42.48046875,-131.8359375,0.0
46.79296875,-36.62109375,-29.296875,-35.15625,-47.36328125,-136.23046875,0.0
46.796875,-46.875,-32.2265625,-30.2734375,-38.57421875,-24.90234375,0.0
46.80078125,-37.109375,-31.25,-28.3203125,-30.76171875,32.71484375,0.0
46.8046875,-35.15625,-28.80859375,-28.80859375,-30.76171875,-25.390625,0.0
46.80859375,-40.0390625,-27.34375,-26.3671875,-29.296875,-7.32421875,0.0
46.8125,-38.57421875,-31.25,-30.76171875,-32.2265625,10.7421875,0.0
46.81640625,-41.50390625,-34.66796875,-35.64453125,-38.0859375,-6.8359375,0.0
46.8203125,-38.57421875,-32.2265625,-28.3203125,-28.3203125,6.34765625,0.0
46.82421875,-41.50390625,-40.52734375,-33.203125,-32.71484375,-22.94921875,0.0
46.828125,-36.62109375,-37.109375,-29.296875,-33.69140625,-12.20703125,0.0
46.83203125,-37.59765625,-25.87890625,-20.5078125,-26.3671875,16.6015625,0.0
46.8359375,-50.29296875,-31.73828125,-25.87890625,-34.66796875,-19.04296875,0.0
46.83984375,-44.43359375,-32.2265625,-25.390625,-35.64453125,0.9765625,0.0
46.84375,-44.921875,-36.1328125,-26.85546875,-31.25,47.8515625,0.0
46.84765625,-56.15234375,-40.0390625,-31.73828125,-32.2265625,33.203125,0.0
46.8515625,-65.4296875,-39.0625,-39.55078125,-41.015625,58.59375,0.0
46.85546875,-74.70703125,-38.0859375,-41.50390625,-50.29296875,57.6171875,0.0
46.859375,-70.80078125,-35.15625,-39.55078125,-44.43359375,-9.27734375,0.0
46.86328125,-66.40625,-38.57421875,-44.43359375,-45.41015625,-73.73046875,0.0
46.8671875,-67.87109375,-53.7109375,-54.6875,-64.94140625,-106.4453125,0.0
46.87109375,-51.7578125,-44.43359375,-45.41015625,-50.78125,14.6484375,0.0
46.875,-46.38671875,-27.34375,-29.78515625,-27.34375,49.31640625,0.0
46.87890625,-66.89453125,-33.203125,-40.0390625,-32.2265625,-82.03125,0.0
46.8828125,-69.82421875,-35.15625,-36.62109375,-36.1328125,-84.47265625,0.0
46.88671875,-53.22265625,-25.390625,-23.4375,-32.2265625,-29.78515625,0.0
46.890625,-61.5234375,-35.64453125,-31.25,-34.1796875,-32.2265625,0.0
46.89453125,-67.3828125,-39.55078125,-27.34375,-32.71484375,53.7109375,0.0
46.8984375,-68.84765625,-37.59765625,-28.3203125,-35.64453125,64.94140625,0.0
46.90234375,-75.68359375,-43.45703125,-38.0859375,-38.0859375,-57.6171875,0.0
46.90625,-65.4296875,-33.69140625,-29.78515625,-29.78515625,-55.6640625,0.0
46.91015625,-75.68359375,-41.9921875,-42.48046875,-46.875,-16.6015625,0.0
46.9140625,-94.7265625,-53.7109375,-57.12890625,-62.98828125,-104.98046875,0.0
46.91796875,-75.1953125,-40.52734375,-38.0859375,-49.8046875,-125.9765625,0.0
46.921875,-69.3359375,-33.69140625,-25.87890625,-41.50390625,-4.39453125,0.0
46.92578125,-77.1484375,-40.0390625,-37.59765625,-50.29296875,-22.4609375,0.0
46.9296875,-66.40625,-41.015625,-39.55078125,-46.38671875,-103.515625,0.0
46.93359375,-50.29296875,-24.90234375,-24.4140625,-25.87890625,-82.51953125,0.0
46.9375,-48.33984375,-22.4609375,-29.78515625,-32.2265625,-75.1953125,0.0
46.94140625,-42.96875,-23.92578125,-31.25,-36.62109375,-101.5625,0.0
46.9453125,-37.109375,-24.90234375,-24.4140625,-25.87890625,1.953125,0.0
46.94921875,-37.59765625,-23.92578125,-23.4375,-18.5546875,36.62109375,0.0
46.953125,-41.015625,-26.85546875,-25.87890625,-15.625,-32.2265625,0.0
46.95703125,-37.109375,-30.76171875,-19.04296875,-20.5078125,-33.69140625,0.0
46.9609375,-35.15625,-36.1328125,-22.94921875,-27.34375,-71.77734375,0.0
46.96484375,-32.71484375,-35.15625,-25.390625,-30.76171875,-45.41015625,0.0
46.96875,-28.80859375,-26.85546875,-22.94921875,-38.0859375,-48.33984375,0.0
46.97265625,-36.62109375,-29.78515625,-31.73828125,-45.41015625,-4.8828125,0.0
46.9765625,-49.8046875,-31.25,-31.25,-41.015625,14.6484375,0.0
46.98046875,-56.15234375,-30.76171875,-26.85546875,-40.0390625,-109.375,0.0
46.984375,-52.734375,-31.73828125,-38.0859375,-48.828125,-155.76171875,0.0
46.98828125,-43.45703125,-30.76171875,-44.43359375,-41.015625,-251.46484375,0.0
46.9921875,-48.828125,-33.203125,-38.0859375,-41.50390625,-179.19921875,0.0
46.99609375,-55.17578125,-29.78515625,-30.76171875,-42.96875,-132.8125,0.0
47.0,-69.82421875,-46.38671875,-39.55078125,-55.17578125,-240.234375,0.0
47.00390625,-83.984375,-74.70703125,-62.01171875,-80.56640625,-221.19140625,0.0
47.0078125,-66.89453125,-70.3125,-59.5703125,-68.359375,-178.22265625,0.0
47.01171875,-39.55078125,-43.45703125,-35.15625,-43.9453125,-150.87890625,0.0
47.015625,-47.36328125,-35.15625,-34.1796875,-57.6171875,-152.34375,0.0
47.01953125,-53.22265625,-34.1796875,-39.55078125,-52.734375,-29.296875,0.0
47.0234375,-37.59765625,-25.390625,-32.2265625,-29.296875,-8.7890625,0.0
47.02734375,-34.1796875,-22.94921875,-26.3671875,-35.15625,-44.921875,0.0
47.03125,-33.203125,-24.4140625,-22.94921875,-36.62109375,-7.8125,0.0
47.03515625,-43.9453125,-29.296875,-24.4140625,-30.2734375,-81.54296875,0.0
47.0390625,-43.45703125,-27.34375,-18.06640625,-29.296875,-137.6953125,0.0
47.04296875,-34.66796875,-28.80859375,-20.99609375,-34.66796875,-135.25390625,0.0
47.046875,-50.78125,-44.921875,-38.57421875,-39.55078125,-126.953125,0.0
47.05078125,-53.7109375,-42.48046875,-38.57421875,-30.2734375,-69.82421875,0.0
47.0546875,-46.875,-31.25,-36.62109375,-18.5546875,-66.89453125,0.0
47.05859375,-48.33984375,-32.71484375,-35.15625,-25.390625,-52.734375,0.0
47.0625,-35.64453125,-28.3203125,-23.92578125,-27.83203125,-75.68359375,0.0
47.06640625,-25.87890625,-16.11328125,-18.5546875,-22.94921875,23.92578125,0.0
47.0703125,-31.25,-11.23046875,-20.99609375,-25.87890625,111.81640625,0.0
47.07421875,-38.0859375,-18.5546875,-23.92578125,-29.296875,94.7265625,0.0
47.078125,-31.73828125,-23.4375,-20.99609375,-33.203125,-35.64453125,0.0
47.08203125,-21.484375,-20.01953125,-20.01953125,-33.69140625,-145.5078125,0.0
47.0859375,-22.4609375,-19.53125,-19.53125,-41.9921875,61.5234375,0.0
47.08984375,-27.34375,-10.7421875,-8.7890625,-35.64453125,163.0859375,0.0
47.09375,-30.2734375,-10.25390625,-6.34765625,-22.4609375,145.5078125,0.0
47.09765625,-43.45703125,-26.3671875,-18.06640625,-38.57421875,147.4609375,0.0
47.1015625,-43.9453125,-32.2265625,-21.484375,-46.875,154.296875,0.0
47.10546875,-24.90234375,-18.5546875,-20.99609375,-33.69140625,133.30078125,0.0
47.109375,-24.90234375,-12.20703125,-19.53125,-37.59765625,111.81640625,0.0
47.11328125,-41.50390625,-25.87890625,-23.92578125,-50.29296875,92.28515625,0.0
47.1171875,-32.71484375,-24.4140625,-22.4609375,-42.48046875,106.93359375,0.0
47.12109375,-21.484375,-20.99609375,-20.5078125,-32.71484375,101.07421875,0.0
47.125,-23.4375,-28.80859375,-27.83203125,-39.0625,6.8359375,0.0
47.12890625,-27.34375,-34.1796875,-28.3203125,-37.109375,-40.52734375,0.0
47.1328125,-29.296875,-27.83203125,-27.83203125,-27.83203125,84.47265625,0.0
47.13671875,-25.87890625,-24.4140625,-23.92578125,-26.85546875,67.3828125,0.0
47.140625,-25.87890625,-30.2734375,-27.34375,-25.87890625,-47.8515625,0.0
47.14453125,-18.5546875,-30.76171875,-28.3203125,-22.4609375,-0.48828125,0.0
47.1484375,-20.99609375,-33.203125,-25.87890625,-20.99609375,74.70703125,0.0
47.15234375,-32.2265625,-30.2734375,-34.1796875,-23.4375,60.05859375,0.0
47.15625,-43.9453125,-27.34375,-37.109375,-37.109375,-21.484375,0.0
47.16015625,-47.36328125,-30.2734375,-37.109375,-38.0859375,-49.8046875,0.0
47.1640625,-36.1328125,-35.64453125,-35.15625,-21.97265625,-105.95703125,0.0
47.16796875,-31.25,-38.0859375,-36.1328125,-25.87890625,-129.8828125,0.0
47.171875,-37.59765625,-35.64453125,-39.0625,-32.2265625,-125.0,0.0
47.17578125,-41.50390625,-32.2265625,-37.59765625,-33.203125,-72.75390625,0.0
47.1796875,-40.52734375,-37.59765625,-36.1328125,-35.15625,-56.15234375,0.0
47.18359375,-38.57421875,-41.015625,-35.64453125,-31.25,-78.61328125,0.0
47.1875,-43.9453125,-42.96875,-38.0859375,-33.69140625,-48.33984375,0.0
47.19140625,-48.828125,-43.45703125,-41.50390625,-34.1796875,-15.625,0.0
47.1953125,-50.78125,-32.71484375,-38.57421875,-28.3203125,6.8359375,0.0
47.19921875,-54.19921875,-28.80859375,-37.109375,-39.55078125,-62.5,0.0
47.203125,-53.22265625,-32.71484375,-36.62109375,-46.875,-43.45703125,0.0
47.20703125,-54.19921875,-37.109375,-36.62109375,-35.64453125,50.78125,0.0
47.2109375,-55.17578125,-46.38671875,-42.96875,-40.0390625,46.38671875,0.0
47.21484375,-43.9453125,-42.96875,-38.0859375,-39.0625,-25.87890625,0.0
47.21875,-44.921875,-36.1328125,-32.2265625,-34.66796875,-84.9609375,0.0
47.22265625,-51.7578125,-37.109375,-35.15625,-39.0625,-5.859375,0.0
47.2265625,-45.8984375,-33.203125,-29.78515625,-37.109375,-41.50390625,0.0
47.23046875,-35.64453125,-29.78515625,-26.85546875,-33.203125,-100.5859375,0.0
47.234375,-41.015625,-33.203125,-25.87890625,-30.2734375,-21.97265625,0.0
47.23828125,-47.36328125,-33.203125,-27.34375,-37.109375,-77.1484375,0.0
47.2421875,-41.9921875,-41.9921875,-43.45703125,-50.78125,-143.5546875,0.0
47.24609375,-27.34375,-36.1328125,-43.45703125,-36.62109375,-76.171875,0.0
47.25,-20.5078125,-29.296875,-36.1328125,-28.3203125,-25.87890625,0.0
47.25390625,-27.34375,-33.69140625,-37.59765625,-38.0859375,41.9921875,0.0
47.2578125,-37.109375,-35.64453125,-34.66796875,-38.0859375,85.9375,0.0
47.26171875,-44.43359375,-34.1796875,-30.76171875,-37.109375,22.4609375,0.0
47.265625,-42.48046875,-27.83203125,-34.66796875,-41.9921875,-9.27734375,0.0
47.26953125,-41.9921875,-30.2734375,-33.69140625,-36.1328125,40.52734375,0.0
47.2734375,-46.38671875,-29.296875,-31.73828125,-30.2734375,44.43359375,0.0
47.27734375,-53.7109375,-28.80859375,-36.1328125,-40.0390625,-72.265625,0.0
47.28125,-48.828125,-26.85546875,-32.2265625,-41.015625,-57.6171875,0.0
47.28515625,-46.38671875,-24.90234375,-25.390625,-42.96875,-20.01953125,0.0
47.2890625,-52.24609375,-27.83203125,-23.92578125,-47.36328125,-38.57421875,0.0
47.29296875,-59.08203125,-36.1328125,-31.73828125,-47.8515625,-30.76171875,0.0
47.296875,-62.98828125,-41.9921875,-40.0390625,-45.8984375,-35.64453125,0.0
47.30078125,-66.40625,-42.48046875,-37.109375,-40.0390625,-31.73828125,0.0
47.3046875,-62.98828125,-43.45703125,-29.296875,-42.48046875,-0.48828125,0.0
47.30859375,-56.640625,-41.50390625,-28.80859375,-47.8515625,0.9765625,0.0
47.3125,-60.05859375,-44.921875,-28.80859375,-41.9921875,-27.83203125,0.0
47.31640625,-62.98828125,-46.875,-30.76171875,-37.59765625,-21.97265625,0.0
47.3203125,-56.15234375,-35.64453125,-24.4140625,-32.2265625,-15.625,0.0
47.32421875,-40.0390625,-31.25,-18.06640625,-35.15625,-74.21875,0.0
47.328125,-42.96875,-33.69140625,-21.97265625,-48.33984375,-3.90625,0.0
47.33203125,-30.2734375,-16.6015625,-7.8125,-28.3203125,35.15625,0.0
47.3359375,-23.4375,-13.18359375,-7.32421875,-24.4140625,-10.25390625,0.0
47.33984375,-41.50390625,-28.3203125,-23.92578125,-46.875,40.0390625,0.0
47.34375,-31.25,-27.34375,-21.484375,-44.921875,54.19921875,0.0
47.34765625,-32.2265625,-25.390625,-26.3671875,-45.8984375,89.84375,0.0
47.3515625,-50.78125,-39.55078125,-35.64453125,-54.19921875,114.74609375,0.0
47.35546875,-49.8046875,-38.57421875,-29.296875,-58.10546875,66.89453125,0.0
47.359375,-39.0625,-20.01953125,-16.6015625,-49.8046875,93.75,0.0
47.36328125,-44.43359375,-25.87890625,-19.04296875,-51.7578125,107.91015625,0.0
47.3671875,-43.45703125,-32.71484375,-21.484375,-50.29296875,21.97265625,0.0
47.37109375,-46.38671875,-34.1796875,-22.4609375,-47.36328125,19.04296875,0.0
47.375,-39.0625,-23.92578125,-14.16015625,-33.203125,-9.27734375,0.0
47.37890625,-20.01953125,-11.23046875,-0.48828125,-19.53125,-85.9375,0.0
47.3828125,-42.96875,-25.87890625,-21.97265625,-30.2734375,-124.0234375,0.0
47.38671875,-50.78125,-35.15625,-35.64453125,-41.50390625,-88.37890625,0.0
47.390625,-32.71484375,-28.3203125,-22.94921875,-36.1328125,7.32421875,0.0
47.39453125,-37.59765625,-35.15625,-25.87890625,-29.296875,22.94921875,0.0
47.3984375,-44.43359375,-50.78125,-37.59765625,-33.69140625,-109.86328125,0.0
47.40234375,-43.9453125,-43.9453125,-37.109375,-30.2734375,-262.20703125,0.0
47.40625,-43.45703125,-35.15625,-35.15625,-21.97265625,-213.8671875,0.0
47.41015625,-40.52734375,-32.71484375,-38.57421875,-35.15625,-119.140625,0.0
47.4140625,-48.33984375,-38.57421875,-38.0859375,-42.96875,-121.58203125,0.0
47.41796875,-47.8515625,-41.9921875,-31.73828125,-35.64453125,-182.6171875,0.0
47.421875,-32.2265625,-26.85546875,-23.92578125,-22.94921875,-211.9140625,0.0
47.42578125,-40.0390625,-29.296875,-26.3671875,-22.94921875,-212.890625,0.0
47.4296875,-47.8515625,-42.96875,-25.87890625,-38.0859375,-141.11328125,0.0
47.43359375,-39.0625,-37.109375,-18.5546875,-34.66796875,-112.3046875,0.0
47.4375,-40.52734375,-27.34375,-20.99609375,-31.73828125,-96.19140625,0.0
47.44140625,-41.9921875,-30.76171875,-25.390625,-36.1328125,-25.390625,0.0
47.4453125,-34.1796875,-35.64453125,-22.94921875,-27.83203125,57.12890625,0.0
47.44921875,-36.62109375,-37.59765625,-23.4375,-36.1328125,141.11328125,0.0
47.453125,-39.0625,-34.66796875,-29.78515625,-42.96875,187.98828125,0.0
47.45703125,-43.45703125,-36.62109375,-36.62109375,-35.64453125,197.75390625,0.0
47.4609375,-48.828125,-40.0390625,-35.15625,-36.62109375,117.67578125,0.0
47.46484375,-37.109375,-29.78515625,-24.4140625,-33.69140625,-20.99609375,0.0
47.46875,-32.2265625,-31.73828125,-24.4140625,-30.2734375,-29.78515625,0.0
47.47265625,-44.921875,-40.52734375,-30.76171875,-32.2265625,-18.5546875,0.0
47.4765625,-46.875,-38.0859375,-26.3671875,-34.1796875,-60.05859375,0.0
47.48046875,-34.66796875,-31.25,-17.578125,-25.87890625,-81.0546875,0.0
47.484375,-28.80859375,-25.87890625,-21.484375,-20.01953125,-57.12890625,0.0
47.48828125,-38.57421875,-29.78515625,-33.69140625,-29.296875,8.30078125,0.0
47.4921875,-35.64453125,-25.87890625,-27.83203125,-36.62109375,-3.41796875,0.0
47.49609375,-23.4375,-20.5078125,-24.4140625,-36.62109375,-21.484375,0.0
47.5,-20.99609375,-25.390625,-26.3671875,-38.57421875,-10.7421875,0.0
47.50390625,-19.04296875,-33.203125,-24.90234375,-40.0390625,-47.8515625,0.0
47.5078125,-21.484375,-36.1328125,-27.34375,-41.9921875,-9.765625,0.0
47.51171875,-23.92578125,-30.76171875,-28.80859375,-41.015625,57.6171875,0.0
47.515625,-34.1796875,-33.69140625,-32.2265625,-48.828125,-4.39453125,0.0
47.51953125,-42.48046875,-39.0625,-40.52734375,-58.10546875,-32.2265625,0.0
47.5234375,-34.66796875,-35.15625,-45.8984375,-46.875,49.31640625,0.0
47.52734375,-29.296875,-27.34375,-41.9921875,-38.0859375,-1.46484375,0.0
47.53125,-31.25,-23.4375,-33.69140625,-37.59765625,-77.1484375,0.0
47.53515625,-42.96875,-28.80859375,-34.1796875,-39.55078125,-18.5546875,0.0
47.5390625,-43.45703125,-38.57421875,-36.62109375,-38.57421875,-70.80078125,0.0
47.54296875,-32.71484375,-35.15625,-29.78515625,-45.41015625,-124.0234375,0.0
47.546875,-38.57421875,-34.1796875,-28.3203125,-52.734375,39.0625,0.0
47.55078125,-46.875,-39.0625,-34.66796875,-47.8515625,45.8984375,0.0
47.5546875,-47.8515625,-34.66796875,-39.55078125,-45.8984375,-98.6328125,0.0
47.55859375,-49.8046875,-32.2265625,-42.48046875,-49.31640625,-118.1640625,0.0
47.5625,-45.41015625,-29.78515625,-41.015625,-44.43359375,-41.50390625,0.0
47.56640625,-31.73828125,-29.78515625,-32.71484375,-36.1328125,-38.0859375,0.0
47.5703125,-49.8046875,-50.78125,-41.9921875,-51.7578125,-17.08984375,0.0
47.57421875,-60.05859375,-52.734375,-52.24609375,-63.4765625,3.41796875,0.0
47.578125,-40.52734375,-38.0859375,-38.57421875,-47.36328125,-26.3671875,0.0
47.58203125,-28.80859375,-33.69140625,-35.64453125,-32.2265625,49.31640625,0.0
47.5859375,-27.83203125,-32.2265625,-35.64453125,-30.76171875,62.5,0.0
47.58984375,-30.2734375,-34.1796875,-39.0625,-43.45703125,-48.33984375,0.0
47.59375,-33.69140625,-34.66796875,-37.109375,-47.36328125,-118.1640625,0.0
47.59765625,-41.9921875,-44.921875,-40.0390625,-41.015625,-65.91796875,0.0
47.6015625,-47.8515625,-58.59375,-55.17578125,-48.828125,-50.29296875,0.0
47.60546875,-36.62109375,-47.36328125,-46.38671875,-48.33984375,-17.08984375,0.0
47.609375,-18.06640625,-29.296875,-29.296875,-41.50390625,3.41796875,0.0
47.61328125,-21.484375,-38.57421875,-35.15625,-48.828125,-38.57421875,0.0
47.6171875,-36.1328125,-48.828125,-45.41015625,-56.640625,-60.05859375,0.0
47.62109375,-31.73828125,-27.34375,-30.76171875,-50.29296875,-46.38671875,0.0
47.625,-24.90234375,-17.578125,-22.4609375,-42.48046875,-7.32421875,0.0
47.62890625,-28.3203125,-21.97265625,-25.390625,-34.66796875,26.85546875,0.0
47.6328125,-35.64453125,-26.85546875,-26.85546875,-32.2265625,-54.6875,0.0
47.63671875,-39.55078125,-31.25,-23.92578125,-38.0859375,-116.2109375,0.0
47.640625,-41.50390625,-35.15625,-23.4375,-35.15625,-59.08203125,0.0
47.64453125,-42.48046875,-32.71484375,-19.53125,-27.83203125,-33.203125,0.0
47.6484375,-40.52734375,-26.85546875,-8.30078125,-26.85546875,-99.609375,0.0
47.65234375,-41.50390625,-26.85546875,-16.11328125,-29.78515625,-83.984375,0.0
47.65625,-40.0390625,-31.25,-22.94921875,-28.3203125,-32.71484375,0.0
47.66015625,-43.9453125,-45.8984375,-24.90234375,-33.69140625,-9.27734375,0.0
47.6640625,-45.41015625,-47.36328125,-32.2265625,-44.921875,-21.484375,0.0
47.66796875,-35.15625,-29.78515625,-27.83203125,-38.0859375,0.9765625,0.0
47.671875,-31.73828125,-34.66796875,-26.85546875,-37.59765625,-41.015625,0.0
47.67578125,-41.9921875,-51.7578125,-38.0859375,-45.8984375,-53.7109375,0.0
47.6796875,-32.2265625,-41.50390625,-25.87890625,-43.45703125,-1.46484375,0.0
47.68359375,-15.13671875,-34.1796875,-11.71875,-41.50390625,-114.2578125,0.0
47.6875,-17.08984375,-34.66796875,-17.08984375,-40.52734375,-82.51953125,0.0
47.69140625,-15.625,-25.390625,-17.578125,-33.69140625,-17.578125,0.0
47.6953125,-23.4375,-26.3671875,-18.5546875,-38.0859375,-18.5546875,0.0
47.69921875,-24.90234375,-19.04296875,-20.01953125,-38.0859375,56.640625,0.0
47.703125,-20.99609375,-22.94921875,-21.97265625,-38.57421875,58.10546875,0.0
47.70703125,-28.80859375,-42.48046875,-29.78515625,-46.875,37.109375,0.0
47.7109375,-21.484375,-37.109375,-26.85546875,-41.9921875,81.0546875,0.0
47.71484375,-20.01953125,-24.4140625,-26.85546875,-38.0859375,102.5390625,0.0
47.71875,-42.96875,-37.59765625,-29.296875,-42.48046875,81.0546875,0.0
47.72265625,-48.828125,-49.31640625,-23.4375,-38.0859375,13.18359375,0.0
47.7265625,-32.2265625,-38.57421875,-24.90234375,-37.59765625,-33.203125,0.0
47.73046875,-33.203125,-31.25,-28.3203125,-43.45703125,-49.31640625,0.0
47.734375,-48.828125,-38.57421875,-25.390625,-43.45703125,-87.890625,0.0
47.73828125,-45.8984375,-40.52734375,-32.2265625,-44.43359375,-41.50390625,0.0
47.7421875,-39.0625,-34.66796875,-38.0859375,-42.96875,-47.36328125,0.0
47.74609375,-42.96875,-31.73828125,-34.1796875,-39.0625,-5.859375,0.0
47.75,-48.33984375,-35.15625,-32.2265625,-40.0390625,48.828125,0.0
47.75390625,-47.36328125,-41.50390625,-32.2265625,-39.55078125,20.01953125,0.0
47.7578125,-45.8984375,-44.43359375,-33.203125,-44.921875,22.94921875,0.0
47.76171875,-42.96875,-36.1328125,-30.76171875,-49.8046875,35.64453125,0.0
47.765625,-42.48046875,-30.76171875,-35.15625,-43.9453125,3.41796875,0.0
47.76953125,-45.41015625,-34.66796875,-39.0625,-41.9921875,-76.171875,0.0
47.7734375,-40.52734375,-31.25,-27.83203125,-46.38671875,-52.734375,0.0
47.77734375,-30.2734375,-30.2734375,-22.4609375,-43.45703125,3.41796875,0.0
47.78125,-24.90234375,-30.2734375,-23.92578125,-34.66796875,-12.6953125,0.0
47.78515625,-29.78515625,-37.109375,-30.76171875,-36.1328125,-35.64453125,0.0
47.7890625,-29.296875,-34.66796875,-34.1796875,-38.0859375,-28.3203125,0.0
47.79296875,-36.62109375,-24.90234375,-37.109375,-35.64453125,-41.50390625,0.0
47.796875,-60.05859375,-41.015625,-55.6640625,-53.22265625,-43.9453125,0.0
47.80078125,-60.546875,-41.9921875,-50.78125,-55.17578125,-40.0390625,0.0
47.8046875,-48.33984375,-29.78515625,-34.1796875,-37.109375,-41.015625,0.0
47.80859375,-47.36328125,-31.73828125,-34.1796875,-35.15625,-103.515625,0.0
47.8125,-47.8515625,-31.73828125,-39.55078125,-42.96875,-151.3671875,0.0
47.81640625,-52.24609375,-36.62109375,-41.015625,-45.41015625,-63.96484375,0.0
47.8203125,-40.52734375,-34.66796875,-28.3203125,-36.1328125,-40.0390625,0.0
47.82421875,-41.50390625,-42.96875,-40.0390625,-47.36328125,-17.578125,0.0
47.828125,-49.8046875,-50.29296875,-46.38671875,-44.921875,41.9921875,0.0
47.83203125,-42.96875,-46.875,-32.71484375,-30.2734375,34.1796875,0.0
47.8359375,-38.0859375,-37.59765625,-26.3671875,-22.94921875,-28.80859375,0.0
47.83984375,-57.6171875,-50.78125,-45.41015625,-44.921875,-62.01171875,0.0
47.84375,-75.1953125,-69.82421875,-64.453125,-70.3125,-24.4140625,0.0
47.84765625,-44.921875,-35.15625,-35.15625,-37.109375,45.41015625,0.0
47.8515625,-42.48046875,-18.5546875,-27.83203125,-28.80859375,70.3125,0.0
47.85546875,-66.40625,-36.62109375,-48.828125,-47.36328125,54.19921875,0.0
47.859375,-67.87109375,-43.9453125,-46.875,-52.24609375,-5.37109375,0.0
47.86328125,-51.7578125,-31.73828125,-30.76171875,-43.9453125,6.34765625,0.0
47.8671875,-39.0625,-27.83203125,-31.73828125,-38.0859375,51.7578125,0.0
47.87109375,-52.24609375,-40.52734375,-41.015625,-53.22265625,16.11328125,0.0
47.875,-57.6171875,-41.9921875,-39.55078125,-57.6171875,-9.27734375,0.0
47.87890625,-44.43359375,-26.85546875,-31.25,-45.41015625,-16.6015625,0.0
47.8828125,-41.015625,-34.1796875,-34.66796875,-41.9921875,-27.34375,0.0
47.88671875,-42.48046875,-51.26953125,-49.8046875,-41.9921875,-68.359375,0.0
47.890625,-45.41015625,-43.9453125,-45.41015625,-43.45703125,-119.62890625,0.0
47.89453125,-48.828125,-30.2734375,-33.203125,-37.109375,-77.63671875,0.0
47.8984375,-46.875,-32.71484375,-31.73828125,-27.83203125,-86.9140625,0.0
47.90234375,-34.66796875,-36.62109375,-25.87890625,-24.4140625,-169.43359375,0.0
47.90625,-37.59765625,-42.96875,-28.3203125,-20.99609375,-144.04296875,0.0
47.91015625,-37.109375,-43.9453125,-28.80859375,-20.99609375,-49.31640625,0.0
47.9140625,-35.64453125,-42.96875,-25.87890625,-27.34375,-99.12109375,0.0
47.91796875,-45.8984375,-40.52734375,-21.484375,-25.390625,-71.77734375,0.0
47.921875,-44.43359375,-39.55078125,-21.97265625,-20.01953125,34.1796875,0.0
47.92578125,-45.41015625,-46.875,-29.78515625,-30.2734375,-44.43359375,0.0
47.9296875,-27.83203125,-28.3203125,-6.8359375,-9.27734375,-109.375,0.0
47.93359375,-4.8828125,0.48828125,14.6484375,25.390625,-75.68359375,0.0
47.9375,-46.38671875,-25.390625,-22.94921875,-9.765625,-63.4765625,0.0
47.94140625,-60.546875,-38.0859375,-41.9921875,-21.484375,-27.34375,0.0
47.9453125,-42.96875,-29.296875,-34.1796875,-9.27734375,1.953125,0.0
47.94921875,-47.36328125,-33.203125,-34.1796875,-19.53125,23.4375,0.0
47.953125,-60.05859375,-42.48046875,-33.69140625,-28.80859375,57.12890625,0.0
47.95703125,-61.03515625,-42.96875,-33.203125,-21.484375,70.80078125,0.0
47.9609375,-55.17578125,-45.8984375,-41.015625,-25.390625,-20.5078125,0.0
47.96484375,-39.55078125,-39.0625,-29.296875,-15.625,7.8125,0.0
47.96875,-31.25,-30.76171875,-16.6015625,-8.30078125,23.4375,0.0
47.97265625,-39.0625,-36.1328125,-19.53125,-12.20703125,-7.32421875,0.0
47.9765625,-40.0390625,-45.8984375,-31.73828125,-18.06640625,8.30078125,0.0
47.98046875,-29.78515625,-35.64453125,-31.73828125,-24.4140625,-6.34765625,0.0
47.984375,-30.76171875,-24.90234375,-23.4375,-20.5078125,-14.6484375,0.0
47.98828125,-34.1796875,-29.78515625,-23.4375,-17.578125,26.85546875,0.0
47.9921875,-36.62109375,-38.57421875,-23.92578125,-14.6484375,-24.90234375,0.0
47.99609375,-44.921875,-36.62109375,-23.92578125,-19.04296875,-156.25,0.0
48.0,-40.52734375,-30.2734375,-24.4140625,-21.484375,-76.171875,0.0
48.00390625,-37.109375,-35.15625,-20.01953125,-18.06640625,-45.41015625,0.0
48.0078125,-40.0390625,-33.203125,-20.5078125,-16.6015625,-71.2890625,0.0
48.01171875,-35.15625,-30.2734375,-22.4609375,-15.625,-52.24609375,0.0
48.015625,-31.73828125,-35.64453125,-23.4375,-26.85546875,-50.29296875,0.0
48.01953125,-36.1328125,-30.2734375,-28.80859375,-29.78515625,-66.89453125,0.0
48.0234375,-30.76171875,-19.53125,-21.97265625,-22.94921875,-130.859375,0.0
48.02734375,-29.296875,-18.5546875,-20.99609375,-26.3671875,-147.94921875,0.0
48.03125,-42.48046875,-31.25,-36.1328125,-31.73828125,-45.8984375,0.0
48.03515625,-38.57421875,-29.296875,-33.203125,-25.87890625,16.6015625,0.0
48.0390625,-32.2265625,-28.80859375,-28.80859375,-25.87890625,0.0,0.0
48.04296875,-34.66796875,-37.59765625,-35.64453125,-35.64453125,34.66796875,0.0
48.046875,-44.921875,-50.29296875,-42.48046875,-41.9921875,25.87890625,0.0
48.05078125,-24.4140625,-20.01953125,-19.04296875,-16.6015625,40.0390625,0.0
48.0546875,2.44140625,11.23046875,3.90625,10.7421875,78.61328125,0.0
48.05859375,-38.57421875,-25.87890625,-31.73828125,-25.87890625,28.3203125,0.0
48.0625,-48.828125,-41.50390625,-44.921875,-40.0390625,-15.625,0.0
48.06640625,-35.64453125,-39.0625,-38.57421875,-39.55078125,9.765625,0.0
48.0703125,-44.43359375,-33.69140625,-37.59765625,-47.36328125,-7.8125,0.0
48.07421875,-51.7578125,-30.76171875,-38.0859375,-51.26953125,-28.3203125,0.0
48.078125,-42.48046875,-30.76171875,-31.73828125,-42.48046875,35.64453125,0.0
48.08203125,-15.13671875,-10.7421875,-9.765625,-7.8125,26.85546875,0.0
48.0859375,-26.3671875,-17.578125,-20.5078125,-26.85546875,47.8515625,0.0
48.08984375,-52.24609375,-43.45703125,-42.96875,-58.10546875,5.859375,0.0
48.09375,-44.921875,-38.0859375,-38.57421875,-38.57421875,-110.83984375,0.0
48.09765625,-41.50390625,-31.73828125,-35.15625,-34.1796875,-106.93359375,0.0
48.1015625,-48.828125,-39.55078125,-43.45703125,-54.19921875,-59.5703125,0.0
48.10546875,-48.33984375,-40.52734375,-38.0859375,-54.6875,-56.640625,0.0
48.109375,-44.921875,-39.0625,-34.66796875,-47.8515625,-82.51953125,0.0
48.11328125,-43.45703125,-37.59765625,-37.59765625,-51.7578125,-58.10546875,0.0
48.1171875,-49.31640625,-37.109375,-34.1796875,-43.9453125,-90.8203125,0.0
48.12109375,-55.17578125,-42.96875,-37.59765625,-45.41015625,-146.484375,0.0
48.125,-34.66796875,-32.2265625,-22.4609375,-41.015625,-66.89453125,0.0
48.12890625,-21.484375,-22.94921875,-14.16015625,-27.83203125,-36.62109375,0.0
48.1328125,-44.921875,-41.015625,-33.203125,-40.0390625,-70.80078125,0.0
48.13671875,-48.828125,-50.78125,-42.48046875,-52.734375,-22.94921875,0.0
48.140625,-29.78515625,-32.71484375,-28.80859375,-45.41015625,-1.46484375,0.0
48.14453125,-27.83203125,-25.87890625,-23.92578125,-49.8046875,-55.6640625,0.0
48.1484375,-32.71484375,-43.45703125,-38.57421875,-60.05859375,-51.26953125,0.0
48.15234375,-29.296875,-38.0859375,-39.55078125,-49.8046875,-10.7421875,0.0
48.15625,-27.83203125,-26.85546875,-28.80859375,-43.9453125,6.34765625,0.0
48.16015625,-29.78515625,-34.66796875,-26.3671875,-44.921875,56.640625,0.0
48.1640625,-30.2734375,-41.9921875,-40.0390625,-51.7578125,65.4296875,0.0
48.16796875,-33.203125,-41.9921875,-42.96875,-49.8046875,44.921875,0.0
48.171875,-33.203125,-35.15625,-37.109375,-41.50390625,15.13671875,0.0
48.17578125,-35.64453125,-36.1328125,-35.15625,-42.48046875,14.16015625,0.0
48.1796875,-48.828125,-40.52734375,-31.25,-51.7578125,-26.3671875,0.0
48.18359375,-46.38671875,-42.48046875,-29.296875,-52.734375,-47.8515625,0.0
48.1875,-35.64453125,-38.0859375,-28.80859375,-49.31640625,11.71875,0.0
48.19140625,-29.78515625,-32.71484375,-31.25,-53.22265625,-11.71875,0.0
48.1953125,-29.78515625,-35.64453125,-35.64453125,-47.8515625,-27.83203125,0.0
48.19921875,-34.66796875,-35.15625,-36.1328125,-47.36328125,-34.1796875,0.0
48.203125,-33.203125,-30.2734375,-30.76171875,-52.734375,-96.6796875,0.0
48.20703125,-23.4375,-29.296875,-26.3671875,-45.8984375,-146.484375,0.0
48.2109375,-23.4375,-34.1796875,-31.73828125,-50.78125,-180.17578125,0.0
48.21484375,-22.94921875,-23.4375,-30.2734375,-48.828125,-166.9921875,0.0
48.21875,0.9765625,2.9296875,-3.90625,-17.08984375,-109.375,0.0
48.22265625,-2.9296875,0.48828125,-2.9296875,-19.04296875,-103.515625,0.0
48.2265625,-31.25,-27.83203125,-29.78515625,-52.24609375,-75.1953125,0.0
48.23046875,-16.6015625,-21.97265625,-22.94921875,-38.57421875,-65.91796875,0.0
48.234375,-13.671875,-17.578125,-20.99609375,-28.80859375,-1.46484375,0.0
48.23828125,-30.76171875,-33.69140625,-36.1328125,-48.828125,31.25,0.0
48.2421875,-26.3671875,-36.1328125,-32.2265625,-44.43359375,29.78515625,0.0
48.24609375,-21.484375,-28.80859375,-30.76171875,-41.50390625,68.84765625,0.0
48.25,-22.94921875,-30.76171875,-36.1328125,-43.9453125,23.92578125,0.0
48.25390625,-33.203125,-37.109375,-40.0390625,-41.50390625,7.32421875,0.0
48.2578125,-34.66796875,-30.2734375,-35.15625,-40.0390625,-3.41796875,0.0
48.26171875,-20.01953125,-19.53125,-20.99609375,-31.73828125,-58.10546875,0.0
48.265625,-20.99609375,-26.85546875,-22.94921875,-35.64453125,5.859375,0.0
48.26953125,-36.1328125,-34.1796875,-36.1328125,-42.48046875,67.3828125,0.0
48.2734375,-41.50390625,-30.76171875,-37.109375,-36.62109375,-32.2265625,0.0
48.27734375,-24.90234375,-24.90234375,-23.92578125,-20.5078125,-96.19140625,0.0
48.28125,-34.1796875,-31.73828125,-26.3671875,-21.97265625,-36.1328125,0.0
48.28515625,-43.45703125,-35.15625,-34.1796875,-35.15625,-43.45703125,0.0
48.2890625,-40.52734375,-30.76171875,-27.34375,-35.64453125,-34.1796875,0.0
48.29296875,-51.7578125,-36.62109375,-30.2734375,-39.0625,34.1796875,0.0
48.296875,-51.26953125,-45.8984375,-35.15625,-48.33984375,-1.953125,0.0
48.30078125,-48.828125,-46.875,-27.83203125,-42.48046875,-31.25,0.0
48.3046875,-41.50390625,-38.57421875,-21.484375,-20.99609375,2.9296875,0.0
48.30859375,-37.59765625,-32.2265625,-25.87890625,-17.08984375,102.05078125,0.0
48.3125,-39.55078125,-31.25,-33.203125,-18.06640625,-23.92578125,0.0
48.31640625,-52.734375,-41.9921875,-38.57421875,-28.3203125,-204.58984375,0.0
48.3203125,-44.43359375,-36.62109375,-27.83203125,-24.4140625,-100.09765625,0.0
48.32421875,-15.13671875,-15.625,-10.25390625,-1.953125,-52.24609375,0.0
48.328125,-30.76171875,-33.69140625,-24.90234375,-18.06640625,-120.60546875,0.0
48.33203125,-42.96875,-44.921875,-35.15625,-29.78515625,-141.6015625,0.0
48.3359375,-45.8984375,-35.15625,-32.2265625,-33.69140625,-150.87890625,0.0
48.33984375,-54.6875,-42.48046875,-27.83203125,-33.203125,-87.40234375,0.0
48.34375,-45.41015625,-48.33984375,-25.390625,-32.2265625,-50.29296875,0.0
48.34765625,-29.78515625,-36.62109375,-26.85546875,-27.83203125,-83.49609375,0.0
48.3515625,-33.69140625,-28.80859375,-28.80859375,-28.80859375,-14.6484375,0.0
48.35546875,-37.109375,-32.2265625,-32.2265625,-24.4140625,-14.6484375,0.0
48.359375,-31.73828125,-35.15625,-37.109375,-28.3203125,52.734375,0.0
48.36328125,-27.83203125,-35.15625,-33.69140625,-37.109375,60.05859375,0.0
48.3671875,-23.4375,-23.4375,-22.94921875,-21.484375,-74.70703125,0.0
48.37109375,-34.1796875,-20.5078125,-26.85546875,-25.87890625,-22.94921875,0.0
48.375,-46.875,-35.15625,-37.109375,-35.64453125,23.4375,0.0
48.37890625,-38.0859375,-39.0625,-36.62109375,-42.48046875,-39.0625,0.0
48.3828125,-21.484375,-34.66796875,-32.2265625,-42.96875,-11.71875,0.0
48.38671875,-20.5078125,-32.71484375,-32.2265625,-41.015625,46.875,0.0
48.390625,-26.85546875,-26.3671875,-33.203125,-39.55078125,43.45703125,0.0
48.39453125,-35.15625,-30.2734375,-37.59765625,-41.015625,17.578125,0.0
48.3984375,-36.62109375,-34.66796875,-37.109375,-42.96875,40.52734375,0.0
48.40234375,-32.71484375,-26.85546875,-27.83203125,-32.2265625,56.15234375,0.0
48.40625,-42.96875,-32.71484375,-31.73828125,-41.015625,32.2265625,0.0
48.41015625,-37.109375,-30.76171875,-27.83203125,-38.57421875,24.90234375,0.0
48.4140625,-30.76171875,-22.94921875,-24.90234375,-30.2734375,46.875,0.0
48.41796875,-43.45703125,-34.1796875,-40.52734375,-46.875,94.7265625,0.0
48.421875,-43.9453125,-38.0859375,-40.0390625,-41.015625,131.34765625,0.0
48.42578125,-24.90234375,-25.390625,-30.2734375,-26.85546875,121.09375,0.0
48.4296875,-19.53125,-19.53125,-28.80859375,-25.87890625,44.43359375,0.0
48.43359375,-44.43359375,-33.69140625,-33.69140625,-34.1796875,-61.03515625,0.0
48.4375,-60.05859375,-33.69140625,-33.203125,-39.55078125,-40.52734375,0.0
48.44140625,-54.19921875,-31.25,-22.94921875,-36.1328125,-26.3671875,0.0
48.4453125,-48.828125,-32.2265625,-18.5546875,-31.25,-20.5078125,0.0
48.44921875,-53.22265625,-32.71484375,-30.76171875,-36.1328125,34.66796875,0.0
48.453125,-52.734375,-34.1796875,-35.64453125,-35.64453125,65.91796875,0.0
48.45703125,-37.109375,-17.08984375,-20.99609375,-14.6484375,-40.0390625,0.0
48.4609375,-43.45703125,-22.4609375,-25.390625,-22.94921875,-160.64453125,0.0
48.46484375,-50.29296875,-35.64453125,-37.59765625,-31.73828125,-118.1640625,0.0
48.46875,-45.8984375,-35.15625,-41.015625,-21.97265625,-129.8828125,0.0
48.47265625,-54.6875,-38.0859375,-41.50390625,-33.203125,-110.83984375,0.0
48.4765625,-55.6640625,-36.1328125,-36.62109375,-36.62109375,-57.12890625,0.0
48.48046875,-54.6875,-36.62109375,-38.57421875,-37.109375,-14.6484375,0.0
48.484375,-41.015625,-29.78515625,-30.2734375,-30.2734375,62.01171875,0.0
48.48828125,-42.48046875,-33.203125,-29.78515625,-26.85546875,16.11328125,0.0
48.4921875,-51.7578125,-38.0859375,-39.55078125,-35.15625,-28.80859375,0.0
48.49609375,-54.19921875,-35.15625,-43.45703125,-36.62109375,14.6484375,0.0
48.5,-34.1796875,-23.4375,-21.97265625,-18.06640625,-15.13671875,0.0
48.50390625,-13.671875,-8.30078125,-6.34765625,-3.41796875,-22.94921875,0.0
48.5078125,-33.203125,-26.85546875,-28.3203125,-24.90234375,-21.97265625,0.0
48.51171875,-42.48046875,-37.109375,-31.25,-39.0625,-15.13671875,0.0
48.515625,-29.78515625,-22.4609375,-20.01953125,-17.578125,-29.78515625,0.0
48.51953125,-30.76171875,-24.4140625,-22.94921875,-12.6953125,-116.69921875,0.0
48.5234375,-50.29296875,-44.921875,-35.64453125,-28.80859375,-75.1953125,0.0
48.52734375,-39.0625,-41.50390625,-35.64453125,-30.76171875,-35.64453125,0.0
48.53125,-31.73828125,-32.71484375,-39.0625,-38.0859375,-14.6484375,0.0
48.53515625,-40.52734375,-35.15625,-42.48046875,-38.57421875,27.34375,0.0
48.5390625,-44.43359375,-38.0859375,-43.9453125,-40.52734375,30.76171875,0.0
48.54296875,-39.55078125,-38.0859375,-41.9921875,-34.1796875,27.34375,0.0
48.546875,3.41796875,0.0,-9.27734375,9.765625,-114.74609375,0.0
48.55078125,3.41796875,0.48828125,-7.8125,-6.34765625,-97.65625,0.0
48.5546875,-47.36328125,-46.875,-42.48046875,-57.6171875,11.23046875,0.0
48.55859375,-52.734375,-46.875,-42.96875,-60.546875,-4.39453125,0.0
48.5625,-51.7578125,-46.38671875,-39.0625,-61.5234375,14.16015625,0.0
48.56640625,-50.78125,-44.43359375,-37.109375,-51.7578125,-15.625,0.0
48.5703125,-55.6640625,-41.50390625,-40.52734375,-46.38671875,11.23046875,0.0
48.57421875,-63.96484375,-46.38671875,-43.9453125,-55.6640625,47.36328125,0.0
48.578125,-57.12890625,-39.55078125,-42.48046875,-54.19921875,26.3671875,0.0
48.58203125,-56.15234375,-37.109375,-42.96875,-51.26953125,-8.30078125,0.0
48.5859375,-55.6640625,-38.0859375,-36.1328125,-45.41015625,45.41015625,0.0
48.58984375,-64.94140625,-46.875,-48.828125,-39.0625,-4.39453125,0.0
48.59375,-71.2890625,-51.26953125,-48.828125,-45.8984375,-141.6015625,0.0
48.59765625,-60.546875,-43.45703125,-33.203125,-36.62109375,-134.27734375,0.0
48.6015625,-63.96484375,-41.9921875,-39.55078125,-33.203125,-64.94140625,0.0
48.60546875,-44.43359375,-32.2265625,-31.25,-29.78515625,-80.56640625,0.0
48.609375,-21.484375,-26.85546875,-25.87890625,-29.296875,6.8359375,0.0
48.61328125,-31.25,-29.296875,-37.109375,-38.0859375,61.03515625,0.0
48.6171875,-41.015625,-33.69140625,-37.109375,-42.48046875,-15.13671875,0.0
48.62109375,-33.203125,-33.69140625,-32.2265625,-45.41015625,-36.62109375,0.0
48.625,-27.34375,-32.2265625,-27.83203125,-46.38671875,-37.59765625,0.0
48.62890625,-28.80859375,-34.1796875,-31.25,-37.109375,-102.05078125,0.0
48.6328125,-28.3203125,-29.296875,-32.2265625,-25.87890625,-117.67578125,0.0
48.63671875,-33.203125,-27.34375,-18.5546875,-9.27734375,-123.53515625,0.0
48.640625,-52.24609375,-35.64453125,-22.4609375,-9.27734375,-67.3828125,0.0
48.64453125,-58.10546875,-36.1328125,-36.1328125,-30.76171875,13.671875,0.0
48.6484375,-46.38671875,-19.53125,-30.2734375,-27.83203125,25.87890625,0.0
48.65234375,-42.48046875,-14.6484375,-19.04296875,-19.04296875,-3.90625,0.0
48.65625,-42.48046875,-31.73828125,-30.76171875,-28.3203125,-145.99609375,0.0
48.66015625,-41.015625,-27.83203125,-36.1328125,-27.34375,-142.08984375,0.0
48.6640625,-43.9453125,-25.87890625,-30.2734375,-24.4140625,-103.515625,0.0
48.66796875,-40.52734375,-28.80859375,-27.34375,-20.5078125,-144.53125,0.0
48.671875,-36.62109375,-28.3203125,-28.3203125,-24.90234375,-108.88671875,0.0
48.67578125,-43.45703125,-35.64453125,-33.69140625,-39.0625,-41.015625,0.0
48.6796875,-25.390625,-23.4375,-21.97265625,-26.85546875,-43.45703125,0.0
48.68359375,-18.06640625,-22.4609375,-17.08984375,-23.92578125,-77.63671875,0.0
48.6875,-32.2265625,-41.9921875,-29.296875,-46.38671875,-86.42578125,0.0
48.69140625,-26.85546875,-33.69140625,-25.390625,-53.7109375,19.53125,0.0
48.6953125,-29.78515625,-20.5078125,-22.4609375,-50.29296875,55.17578125,0.0
48.69921875,-35.15625,-20.99609375,-27.83203125,-51.7578125,-47.36328125,0.0
48.703125,-28.80859375,-26.85546875,-29.296875,-51.26953125,-48.33984375,0.0
48.70703125,-28.80859375,-35.64453125,-30.76171875,-62.01171875,-19.53125,0.0
48.7109375,-3.90625,-10.25390625,-8.7890625,-37.59765625,-55.6640625,0.0
48.71484375,5.859375,7.8125,5.859375,-9.765625,-64.94140625,0.0
48.71875,-35.64453125,-27.83203125,-22.4609375,-40.0390625,-12.20703125,0.0
48.72265625,-33.203125,-41.9921875,-25.390625,-40.0390625,46.875,0.0
48.7265625,-25.390625,-33.203125,-19.53125,-32.2265625,-3.90625,0.0
48.73046875,-38.0859375,-26.3671875,-26.85546875,-35.15625,-98.6328125,0.0
48.734375,-48.828125,-26.85546875,-29.78515625,-33.69140625,-38.57421875,0.0
48.73828125,-46.875,-25.87890625,-26.3671875,-36.1328125,63.4765625,0.0
48.7421875,-27.83203125,-13.671875,-14.16015625,-22.94921875,55.6640625,0.0
48.74609375,-27.83203125,-21.484375,-16.6015625,-22.94921875,49.8046875,0.0
48.75,-37.59765625,-37.109375,-30.76171875,-41.015625,-10.7421875,0.0
48.75390625,-35.64453125,-26.85546875,-24.90234375,-36.62109375,-96.19140625,0.0
48.7578125,-31.25,-20.99609375,-16.6015625,-24.90234375,-63.4765625,0.0
48.76171875,-38.57421875,-36.62109375,-28.80859375,-31.25,3.41796875,0.0
48.765625,-38.0859375,-41.9921875,-34.1796875,-40.52734375,-23.4375,0.0
48.76953125,-23.92578125,-31.25,-32.2265625,-35.15625,-89.35546875,0.0
48.7734375,-16.6015625,-24.90234375,-30.76171875,-25.390625,-131.34765625,0.0
48.77734375,-18.5546875,-27.34375,-35.15625,-31.73828125,-57.6171875,0.0
48.78125,-15.625,-29.78515625,-39.55078125,-31.73828125,54.6875,0.0
48.78515625,-17.578125,-34.66796875,-41.9921875,-26.85546875,57.12890625,0.0
48.7890625,-24.4140625,-35.64453125,-42.96875,-33.203125,30.76171875,0.0
48.79296875,-33.69140625,-33.69140625,-41.015625,-31.25,-10.7421875,0.0
48.796875,-50.29296875,-41.9921875,-43.9453125,-28.80859375,-62.01171875,0.0
48.80078125,-25.87890625,-21.484375,-24.4140625,-2.44140625,-105.46875,0.0
48.8046875,15.625,9.765625,5.859375,30.76171875,-102.05078125,0.0
48.80859375,-15.13671875,-19.04296875,-21.484375,1.953125,-96.19140625,0.0
48.8125,-42.48046875,-35.15625,-44.43359375,-15.625,-94.23828125,0.0
48.81640625,-44.921875,-29.296875,-37.109375,-13.18359375,-38.0859375,0.0
48.8203125,-52.24609375,-35.15625,-32.71484375,-13.671875,-2.9296875,0.0
48.82421875,-59.08203125,-40.52734375,-34.1796875,-12.6953125,-3.41796875,0.0
48.828125,-61.03515625,-41.50390625,-34.66796875,-18.06640625,-18.5546875,0.0
48.83203125,-25.390625,-5.859375,-1.953125,13.671875,-80.56640625,0.0
48.8359375,-28.80859375,-2.9296875,-8.30078125,10.25390625,-95.21484375,0.0
48.83984375,-63.4765625,-38.0859375,-47.36328125,-31.25,-35.15625,0.0
48.84375,-55.17578125,-36.1328125,-44.921875,-31.73828125,-17.08984375,0.0
48.84765625,-45.8984375,-37.109375,-43.45703125,-31.25,-43.45703125,0.0
48.8515625,-54.19921875,-43.9453125,-46.38671875,-35.64453125,-96.19140625,0.0
48.85546875,-58.59375,-40.0390625,-44.43359375,-34.66796875,-104.4921875,0.0
48.859375,-45.8984375,-34.1796875,-41.015625,-27.34375,-95.703125,0.0
48.86328125,-40.0390625,-34.1796875,-40.52734375,-24.4140625,-9.765625,0.0
48.8671875,-36.1328125,-34.1796875,-40.0390625,-22.94921875,71.77734375,0.0
48.87109375,-36.62109375,-32.71484375,-39.0625,-24.90234375,63.4765625,0.0
48.875,-37.109375,-23.4375,-30.2734375,-12.20703125,74.70703125,0.0
48.87890625,-27.83203125,-14.6484375,-22.94921875,-0.9765625,22.4609375,0.0
48.8828125,-40.0390625,-32.2265625,-40.52734375,-23.92578125,-50.78125,0.0
48.88671875,-37.59765625,-45.41015625,-41.015625,-37.59765625,7.8125,0.0
48.890625,-31.73828125,-44.43359375,-38.0859375,-35.15625,122.0703125,0.0
48.89453125,-38.57421875,-40.0390625,-42.48046875,-30.2734375,81.54296875,0.0
48.8984375,-43.9453125,-41.015625,-47.8515625,-39.55078125,27.34375,0.0
48.90234375,-37.59765625,-34.1796875,-41.50390625,-34.1796875,16.11328125,0.0
48.90625,-36.1328125,-35.64453125,-30.2734375,-31.25,40.52734375,0.0
48.91015625,-47.36328125,-41.015625,-38.57421875,-41.9921875,-72.75390625,0.0
48.9140625,-48.828125,-35.15625,-41.50390625,-49.31640625,-215.33203125,0.0
48.91796875,-43.45703125,-35.64453125,-40.0390625,-43.45703125,-198.2421875,0.0
48.921875,-41.015625,-44.921875,-43.45703125,-41.9921875,-223.6328125,0.0
48.92578125,-43.9453125,-43.45703125,-42.96875,-40.52734375,-137.6953125,0.0
48.9296875,-49.8046875,-44.43359375,-38.0859375,-29.78515625,19.53125,0.0
48.93359375,-54.6875,-55.6640625,-38.0859375,-36.62109375,2.9296875,0.0
48.9375,-53.7109375,-55.17578125,-37.59765625,-48.33984375,-54.19921875,0.0
48.94140625,-46.38671875,-41.50390625,-31.25,-39.0625,-28.3203125,0.0
48.9453125,-43.45703125,-33.203125,-28.80859375,-28.3203125,13.18359375,0.0
48.94921875,-41.015625,-33.69140625,-31.25,-34.66796875,47.36328125,0.0
48.953125,-43.9453125,-36.62109375,-37.109375,-43.45703125,34.1796875,0.0
48.95703125,-46.38671875,-36.62109375,-41.015625,-40.0390625,6.8359375,0.0
48.9609375,-41.50390625,-40.0390625,-42.48046875,-37.109375,7.32421875,0.0
48.96484375,-15.625,-27.34375,-23.4375,-19.53125,38.0859375,0.0
48.96875,15.13671875,-1.953125,7.32421875,9.27734375,70.80078125,0.0
48.97265625,16.11328125,9.765625,15.625,16.6015625,-7.8125,0.0
48.9765625,-21.484375,-22.4609375,-13.18359375,-17.08984375,-114.2578125,0.0
48.98046875,-35.64453125,-38.57421875,-20.5078125,-31.25,-27.34375,0.0
48.984375,-27.34375,-22.4609375,-12.20703125,-29.78515625,69.82421875,0.0
48.98828125,-47.8515625,-33.69140625,-32.2265625,-49.31640625,7.8125,0.0
48.9921875,-46.875,-32.2265625,-28.3203125,-45.8984375,-60.546875,0.0
48.99609375,-47.36328125,-28.80859375,-26.3671875,-37.109375,-30.76171875,0.0
49.0,-43.45703125,-31.25,-31.25,-40.0390625,20.01953125,0.0
49.00390625,-34.1796875,-34.66796875,-34.1796875,-37.59765625,32.71484375,0.0
49.0078125,-42.48046875,-27.83203125,-31.25,-33.69140625,-6.8359375,0.0
49.01171875,-37.109375,-15.13671875,-17.578125,-25.390625,-77.1484375,0.0
49.015625,-49.8046875,-25.390625,-20.5078125,-21.97265625,-83.984375,0.0
49.01953125,-60.546875,-37.59765625,-31.73828125,-33.69140625,-23.92578125,0.0
49.0234375,-48.33984375,-40.52734375,-37.109375,-36.62109375,-17.578125,0.0
49.02734375,-42.96875,-38.57421875,-33.203125,-35.64453125,-33.69140625,0.0
49.03125,-51.26953125,-32.2265625,-28.3203125,-45.8984375,-57.12890625,0.0
49.03515625,-61.03515625,-28.3203125,-29.296875,-49.31640625,-41.9921875,0.0
49.0390625,-57.12890625,-26.3671875,-26.3671875,-37.59765625,21.484375,0.0
49.04296875,-48.828125,-27.83203125,-24.90234375,-36.62109375,-24.4140625,0.0
49.046875,-42.48046875,-31.73828125,-28.3203125,-45.8984375,21.484375,0.0
49.05078125,-40.0390625,-43.45703125,-31.73828125,-50.29296875,67.3828125,0.0
49.0546875,-39.55078125,-45.41015625,-27.83203125,-54.6875,3.90625,0.0
49.05859375,-36.1328125,-40.52734375,-31.73828125,-51.7578125,-39.55078125,0.0
49.0625,-30.76171875,-44.43359375,-37.109375,-50.29296875,-18.06640625,0.0
49.06640625,-30.76171875,-41.015625,-36.1328125,-54.6875,-76.171875,0.0
49.0703125,-26.3671875,-26.85546875,-25.390625,-43.45703125,-100.5859375,0.0
49.07421875,-25.87890625,-21.484375,-18.5546875,-35.64453125,-116.2109375,0.0
49.078125,-42.48046875,-30.2734375,-36.1328125,-52.734375,-70.80078125,0.0
49.08203125,-43.9453125,-33.203125,-41.015625,-64.453125,-22.94921875,0.0
49.0859375,-38.57421875,-37.59765625,-43.9453125,-64.453125,-39.55078125,0.0
49.08984375,-39.0625,-36.1328125,-49.8046875,-65.91796875,-30.2734375,0.0
49.09375,-40.0390625,-38.0859375,-46.38671875,-66.89453125,-11.23046875,0.0
49.09765625,-34.66796875,-39.55078125,-39.0625,-55.6640625,20.99609375,0.0
49.1015625,-23.92578125,-33.203125,-36.1328125,-48.828125,-14.6484375,0.0
49.10546875,-25.87890625,-44.921875,-47.36328125,-52.734375,14.16015625,0.0
49.109375,-37.59765625,-51.7578125,-50.78125,-56.15234375,73.73046875,0.0
49.11328125,-48.33984375,-42.96875,-46.875,-51.7578125,31.25,0.0
49.1171875,-45.41015625,-41.9921875,-47.8515625,-51.26953125,-64.94140625,0.0
49.12109375,-35.15625,-40.52734375,-44.921875,-61.03515625,-135.25390625,0.0
49.125,-33.203125,-36.62109375,-41.015625,-59.5703125,-76.66015625,0.0
49.12890625,-26.3671875,-32.2265625,-41.015625,-45.41015625,-81.0546875,0.0
49.1328125,-29.78515625,-32.2265625,-45.41015625,-38.57421875,-130.859375,0.0
49.13671875,-41.015625,-37.59765625,-48.828125,-44.43359375,-79.1015625,0.0
49.140625,-32.2265625,-39.0625,-51.26953125,-52.24609375,-32.71484375,0.0
49.14453125,-13.671875,-28.3203125,-45.8984375,-41.9921875,-20.5078125,0.0
49.1484375,-11.71875,-24.4140625,-38.57421875,-36.1328125,-1.46484375,0.0
49.15234375,-21.97265625,-31.25,-38.57421875,-41.50390625,53.22265625,0.0
49.15625,-28.80859375,-36.62109375,-48.33984375,-42.96875,94.7265625,0.0
49.16015625,-18.06640625,-30.76171875,-44.43359375,-29.78515625,67.87109375,0.0
49.1640625,-6.8359375,-16.11328125,-28.3203125,-13.671875,17.578125,0.0
49.16796875,-22.94921875,-27.83203125,-34.66796875,-28.80859375,29.78515625,0.0
49.171875,-30.2734375,-29.78515625,-35.64453125,-37.59765625,1.46484375,0.0
49.17578125,-30.76171875,-20.5078125,-24.90234375,-28.80859375,-14.6484375,0.0
49.1796875,-31.73828125,-23.92578125,-20.99609375,-29.296875,56.15234375,0.0
49.18359375,-29.296875,-32.71484375,-29.296875,-39.0625,40.52734375,0.0
49.1875,-33.69140625,-30.2734375,-24.4140625,-43.9453125,28.3203125,0.0
49.19140625,-35.15625,-26.3671875,-24.4140625,-41.9921875,12.20703125,0.0
49.1953125,-38.0859375,-32.2265625,-33.203125,-42.48046875,-57.12890625,0.0
49.19921875,-43.45703125,-31.25,-26.85546875,-44.43359375,-21.484375,0.0
49.203125,-42.96875,-28.80859375,-28.3203125,-42.96875,7.32421875,0.0
49.20703125,-42.96875,-27.83203125,-28.3203125,-35.15625,-95.703125,0.0
49.2109375,-45.8984375,-23.4375,-24.90234375,-22.4609375,-83.0078125,0.0
49.21484375,-53.7109375,-25.390625,-32.71484375,-29.296875,-8.7890625,0.0
49.21875,-53.22265625,-30.2734375,-34.1796875,-33.203125,-28.80859375,0.0
49.22265625,-48.33984375,-33.69140625,-32.2265625,-26.85546875,-69.3359375,0.0
49.2265625,-41.015625,-35.64453125,-30.2734375,-30.2734375,-62.5,0.0
49.23046875,-38.0859375,-32.2265625,-30.2734375,-38.0859375,-74.21875,0.0
49.234375,-38.57421875,-27.34375,-36.62109375,-35.15625,-83.0078125,0.0
49.23828125,-31.73828125,-22.4609375,-32.71484375,-23.92578125,-50.78125,0.0
49.2421875,-30.2734375,-26.3671875,-23.4375,-21.97265625,-8.7890625,0.0
49.24609375,-28.80859375,-31.73828125,-26.3671875,-34.1796875,60.05859375,0.0
49.25,-20.5078125,-29.296875,-33.69140625,-36.62109375,24.90234375,0.0
49.25390625,-27.34375,-33.69140625,-32.2265625,-35.64453125,-31.25,0.0
49.2578125,-42.96875,-42.96875,-31.25,-40.52734375,-35.64453125,0.0
49.26171875,-46.875,-41.50390625,-30.2734375,-47.36328125,-24.90234375,0.0
49.265625,-27.34375,-26.3671875,-20.99609375,-36.1328125,-30.2734375,0.0
49.26953125,-25.390625,-21.97265625,-20.5078125,-27.83203125,-16.11328125,0.0
49.2734375,-47.36328125,-37.109375,-26.3671875,-47.36328125,30.2734375,0.0
49.27734375,-48.828125,-40.52734375,-27.34375,-51.26953125,-40.0390625,0.0
49.28125,-42.96875,-36.1328125,-27.83203125,-46.875,-20.01953125,0.0
49.28515625,-41.9921875,-37.109375,-27.83203125,-46.38671875,29.78515625,0.0
49.2890625,-38.57421875,-39.55078125,-27.34375,-45.8984375,-2.9296875,0.0
49.29296875,-39.0625,-33.203125,-29.78515625,-44.921875,34.66796875,0.0
49.296875,-41.9921875,-31.25,-34.1796875,-44.921875,10.7421875,0.0
49.30078125,-49.31640625,-35.64453125,-32.2265625,-46.875,-67.3828125,0.0
49.3046875,-51.26953125,-38.57421875,-27.34375,-40.0390625,-33.69140625,0.0
49.30859375,-35.64453125,-31.73828125,-26.85546875,-28.80859375,-36.1328125,0.0
49.3125,-24.90234375,-23.92578125,-21.97265625,-24.90234375,-62.5,0.0
49.31640625,-37.109375,-33.203125,-23.92578125,-37.109375,28.80859375,0.0
49.3203125,-48.33984375,-38.57421875,-31.25,-39.0625,51.26953125,0.0
49.32421875,-52.734375,-37.109375,-30.76171875,-36.62109375,0.48828125,0.0
49.328125,-53.7109375,-36.1328125,-28.3203125,-40.52734375,-26.3671875,0.0
49.33203125,-62.01171875,-38.0859375,-35.15625,-46.875,-25.390625,0.0
49.3359375,-57.12890625,-36.1328125,-32.2265625,-37.59765625,47.8515625,0.0
49.33984375,-63.4765625,-50.29296875,-43.45703125,-45.41015625,58.59375,0.0
49.34375,-80.56640625,-67.3828125,-59.5703125,-70.80078125,23.92578125,0.0
49.34765625,-55.17578125,-46.38671875,-33.203125,-52.734375,-3.41796875,0.0
49.3515625,-42.48046875,-38.0859375,-20.01953125,-39.0625,38.0859375,0.0
49.35546875,-57.6171875,-48.828125,-31.73828125,-40.52734375,9.765625,0.0
49.359375,-62.01171875,-45.8984375,-34.1796875,-32.71484375,-15.13671875,0.0
49.36328125,-44.921875,-29.78515625,-19.04296875,-22.94921875,11.23046875,0.0
49.3671875,-36.62109375,-33.203125,-16.6015625,-21.484375,-60.05859375,0.0
49.37109375,-34.66796875,-33.203125,-24.4140625,-24.4140625,-123.046875,0.0
49.375,-33.69140625,-32.2265625,-32.2265625,-31.73828125,-76.66015625,0.0
49.37890625,-36.1328125,-36.62109375,-32.2265625,-30.2734375,-66.40625,0.0
49.3828125,-45.41015625,-29.78515625,-30.2734375,-27.83203125,-166.9921875,0.0
49.38671875,-14.16015625,1.46484375,-9.765625,-5.37109375,-182.6171875,0.0
49.390625,0.0,0.9765625,-12.6953125,-3.41796875,-147.94921875,0.0
49.39453125,-30.2734375,-23.92578125,-36.62109375,-34.66796875,-73.73046875,0.0
49.3984375,-34.66796875,-26.3671875,-31.25,-27.83203125,-6.8359375,0.0
49.40234375,-32.71484375,-31.25,-28.80859375,-20.99609375,-12.6953125,0.0
49.40625,-32.2265625,-34.66796875,-36.1328125,-32.71484375,-13.18359375,0.0
49.41015625,-33.69140625,-34.66796875,-43.45703125,-31.73828125,-1.46484375,0.0
49.4140625,-42.96875,-31.25,-41.015625,-22.94921875,-9.765625,0.0
49.41796875,-52.734375,-34.66796875,-39.0625,-26.85546875,-145.99609375,0.0
49.421875,-39.55078125,-38.0859375,-42.48046875,-27.34375,-181.640625,0.0
49.42578125,-23.4375,-37.109375,-41.50390625,-20.99609375,-55.17578125,0.0
49.4296875,-27.83203125,-32.71484375,-36.62109375,-19.53125,-10.7421875,0.0
49.43359375,-40.52734375,-36.1328125,-39.55078125,-22.4609375,-107.421875,0.0
49.4375,-48.828125,-39.55078125,-42.48046875,-30.2734375,-132.32421875,0.0
49.44140625,-42.96875,-30.2734375,-40.0390625,-40.52734375,-7.32421875,0.0
49.4453125,-41.9921875,-32.2265625,-39.55078125,-39.0625,29.296875,0.0
49.44921875,-41.9921875,-37.109375,-32.71484375,-23.92578125,19.04296875,0.0
49.453125,-40.52734375,-35.64453125,-34.66796875,-22.4609375,9.27734375,0.0
49.45703125,-38.57421875,-36.62109375,-37.109375,-29.78515625,28.3203125,0.0
49.4609375,-30.2734375,-40.0390625,-32.71484375,-29.296875,30.2734375,0.0
49.46484375,-32.2265625,-40.0390625,-34.1796875,-26.85546875,-41.50390625,0.0
49.46875,-41.015625,-36.62109375,-37.59765625,-24.4140625,-63.4765625,0.0
49.47265625,-40.0390625,-35.64453125,-43.45703125,-26.3671875,-55.17578125,0.0
49.4765625,-35.64453125,-35.15625,-52.734375,-32.71484375,-115.72265625,0.0
49.48046875,-35.64453125,-28.80859375,-45.8984375,-32.71484375,-116.69921875,0.0
49.484375,-35.64453125,-27.83203125,-35.15625,-30.76171875,-97.65625,0.0
49.48828125,-28.80859375,-28.3203125,-41.015625,-23.92578125,-85.44921875,0.0
49.4921875,2.9296875,0.9765625,-15.625,4.8828125,-23.4375,0.0
49.49609375,28.80859375,27.83203125,15.13671875,26.85546875,0.9765625,0.0
49.5,21.97265625,25.390625,15.13671875,27.34375,-28.3203125,0.0
49.50390625,-9.765625,-4.8828125,-13.18359375,-7.8125,-48.828125,0.0
49.5078125,-34.1796875,-28.3203125,-40.52734375,-38.57421875,-14.16015625,0.0
49.51171875,-42.96875,-34.66796875,-46.875,-36.62109375,-16.6015625,0.0
49.515625,-48.33984375,-44.921875,-43.9453125,-44.43359375,-37.109375,0.0
49.51953125,-42.96875,-48.33984375,-41.9921875,-57.6171875,-0.48828125,0.0
49.5234375,-36.1328125,-44.43359375,-44.921875,-57.6171875,10.7421875,0.0
49.52734375,-41.50390625,-38.0859375,-42.48046875,-46.38671875,28.3203125,0.0
49.53125,-60.05859375,-45.8984375,-45.8984375,-47.8515625,23.92578125,0.0
49.53515625,-44.43359375,-32.2265625,-24.90234375,-31.25,13.18359375,0.0
49.5390625,-14.6484375,-4.39453125,2.9296875,-6.8359375,29.78515625,0.0
49.54296875,-45.41015625,-35.64453125,-25.87890625,-36.1328125,-7.8125,0.0
49.546875,-62.5,-46.38671875,-41.50390625,-57.12890625,20.5078125,0.0
49.55078125,-41.9921875,-31.25,-36.1328125,-48.828125,37.59765625,0.0
49.5546875,-41.015625,-35.15625,-37.59765625,-46.38671875,47.36328125,0.0
49.55859375,-48.828125,-42.48046875,-38.57421875,-51.7578125,62.5,0.0
49.5625,-52.734375,-48.828125,-39.55078125,-48.828125,23.92578125,0.0
49.56640625,-65.4296875,-45.41015625,-39.55078125,-41.015625,25.87890625,0.0
49.5703125,-74.21875,-34.66796875,-39.0625,-42.96875,24.90234375,0.0
49.57421875,-73.73046875,-32.71484375,-47.8515625,-47.36328125,-15.625,0.0
49.578125,-60.546875,-39.0625,-45.41015625,-39.55078125,-45.41015625,0.0
49.58203125,-32.71484375,-22.4609375,-21.97265625,-11.23046875,-126.46484375,0.0
49.5859375,-29.78515625,-23.4375,-23.92578125,-21.484375,-93.26171875,0.0
49.58984375,-44.43359375,-42.96875,-45.41015625,-50.78125,0.48828125,0.0
49.59375,-48.33984375,-39.0625,-38.57421875,-40.52734375,-51.26953125,0.0
49.59765625,-48.828125,-32.71484375,-29.78515625,-35.15625,-83.49609375,0.0
49.6015625,-47.8515625,-36.1328125,-31.73828125,-39.0625,22.4609375,0.0
49.60546875,-43.45703125,-41.50390625,-28.3203125,-38.0859375,35.15625,0.0
49.609375,-42.96875,-42.48046875,-31.25,-41.015625,-30.2734375,0.0
49.61328125,-45.8984375,-40.52734375,-34.1796875,-43.45703125,-32.2265625,0.0
49.6171875,-48.828125,-40.52734375,-33.69140625,-42.96875,-89.35546875,0.0
49.62109375,-57.12890625,-44.921875,-43.9453125,-55.17578125,-81.0546875,0.0
49.625,-29.78515625,-28.80859375,-29.78515625,-27.83203125,8.30078125,0.0
49.62890625,-11.23046875,-18.5546875,-14.16015625,-1.46484375,-21.97265625,0.0
49.6328125,-38.57421875,-34.1796875,-31.73828125,-27.34375,-34.1796875,0.0
49.63671875,-42.96875,-34.1796875,-29.296875,-23.92578125,-35.15625,0.0
49.640625,-32.71484375,-32.71484375,-20.01953125,-8.30078125,-30.76171875,0.0
49.64453125,-29.78515625,-34.66796875,-18.5546875,-4.39453125,-3.90625,0.0
49.6484375,-29.78515625,-32.71484375,-16.6015625,-4.8828125,40.0390625,0.0
49.65234375,-33.69140625,-35.15625,-20.99609375,-18.5546875,75.1953125,0.0
49.65625,-19.04296875,-21.484375,-2.44140625,0.48828125,-18.06640625,0.0
49.66015625,-20.5078125,-22.4609375,-1.46484375,12.20703125,-104.00390625,0.0
49.6640625,-44.921875,-40.52734375,-29.296875,-13.18359375,-101.07421875,0.0
49.66796875,-41.015625,-34.66796875,-29.78515625,-21.97265625,-34.66796875,0.0
49.671875,-1.953125,-4.8828125,2.44140625,0.9765625,5.37109375,0.0
49.67578125,-17.578125,-19.04296875,-5.859375,-5.37109375,19.53125,0.0
49.6796875,-57.6171875,-49.31640625,-36.62109375,-38.0859375,11.23046875,0.0
49.68359375,-44.921875,-38.57421875,-32.2265625,-39.55078125,-10.7421875,0.0
49.6875,-37.59765625,-36.62109375,-28.80859375,-34.1796875,6.8359375,0.0
49.69140625,-44.43359375,-40.0390625,-28.3203125,-37.59765625,-38.57421875,0.0
49.6953125,-54.6875,-39.0625,-33.69140625,-42.96875,-48.33984375,0.0
49.69921875,-53.22265625,-34.66796875,-40.52734375,-48.828125,-47.36328125,0.0
49.703125,-41.50390625,-34.1796875,-41.50390625,-45.8984375,-50.29296875,0.0
49.70703125,-39.0625,-39.55078125,-33.69140625,-41.9921875,-33.69140625,0.0
49.7109375,-48.828125,-40.0390625,-33.69140625,-45.8984375,-9.27734375,0.0
49.71484375,-30.2734375,-22.94921875,-21.484375,-24.90234375,-62.98828125,0.0
49.71875,-12.20703125,-4.8828125,-4.39453125,-10.25390625,-122.55859375,0.0
49.72265625,-41.50390625,-27.34375,-32.71484375,-32.2265625,-95.703125,0.0
49.7265625,-43.45703125,-40.0390625,-43.45703125,-39.55078125,-31.25,0.0
49.73046875,-19.53125,-24.90234375,-20.99609375,-12.20703125,3.90625,0.0
49.734375,-26.85546875,-28.80859375,-21.97265625,-10.25390625,-16.6015625,0.0
49.73828125,-49.31640625,-43.9453125,-35.15625,-31.73828125,-98.6328125,0.0
49.7421875,-50.29296875,-43.45703125,-35.15625,-31.73828125,-141.11328125,0.0
49.74609375,-54.19921875,-47.8515625,-36.1328125,-33.69140625,-79.1015625,0.0
49.75,-59.5703125,-47.36328125,-38.0859375,-36.1328125,-2.44140625,0.0
49.75390625,-56.15234375,-39.55078125,-40.0390625,-32.71484375,-27.83203125,0.0
49.7578125,-51.7578125,-37.109375,-39.0625,-45.8984375,-55.17578125,0.0
49.76171875,-13.18359375,-5.859375,0.0,-21.97265625,-17.578125,0.0
49.765625,-6.34765625,-3.90625,4.39453125,-13.18359375,30.76171875,0.0
49.76953125,-41.015625,-34.66796875,-31.73828125,-52.734375,3.90625,0.0
49.7734375,-36.62109375,-30.76171875,-26.85546875,-50.78125,-85.9375,0.0
49.77734375,-28.3203125,-28.80859375,-26.85546875,-46.875,-81.54296875,0.0
49.78125,-30.76171875,-33.69140625,-36.1328125,-65.4296875,28.3203125,0.0
49.78515625,-33.203125,-34.66796875,-32.2265625,-68.359375,26.3671875,0.0
49.7890625,-37.109375,-34.1796875,-27.34375,-55.17578125,-66.89453125,0.0
49.79296875,-42.48046875,-35.15625,-32.2265625,-51.26953125,-31.25,0.0
49.796875,-38.57421875,-39.55078125,-33.69140625,-56.15234375,58.10546875,0.0
49.80078125,-39.0625,-36.62109375,-37.109375,-56.15234375,10.7421875,0.0
49.8046875,-29.78515625,-17.578125,-30.76171875,-31.25,-69.82421875,0.0
49.80859375,-11.71875,-9.27734375,-26.3671875,-18.06640625,-73.2421875,0.0
49.8125,-28.80859375,-27.34375,-42.48046875,-39.55078125,21.484375,0.0
49.81640625,-41.015625,-37.59765625,-44.43359375,-47.8515625,2.9296875,0.0
49.8203125,-33.69140625,-32.71484375,-42.48046875,-39.0625,-133.30078125,0.0
49.82421875,-31.25,-34.1796875,-44.921875,-34.66796875,-53.7109375,0.0
49.828125,-32.71484375,-37.59765625,-47.36328125,-42.96875,39.0625,0.0
49.83203125,-45.41015625,-37.59765625,-57.12890625,-59.08203125,-25.390625,0.0
49.8359375,-37.109375,-27.34375,-39.0625,-41.50390625,-43.9453125,0.0
49.83984375,-25.390625,-18.06640625,-20.99609375,-18.5546875,-45.8984375,0.0
49.84375,-40.0390625,-37.109375,-42.48046875,-34.66796875,-14.6484375,0.0
49.84765625,-44.921875,-45.41015625,-47.36328125,-37.59765625,38.57421875,0.0
49.8515625,-51.26953125,-40.0390625,-48.33984375,-41.50390625,47.8515625,0.0
49.85546875,-53.7109375,-35.64453125,-55.17578125,-42.48046875,-20.99609375,0.0
49.859375,-53.7109375,-35.15625,-52.734375,-39.55078125,-14.16015625,0.0
49.86328125,-50.29296875,-33.203125,-45.8984375,-43.9453125,96.19140625,0.0
49.8671875,-30.76171875,-20.01953125,-24.4140625,-31.25,25.87890625,0.0
49.87109375,-32.71484375,-24.90234375,-29.78515625,-34.66796875,-61.03515625,0.0
49.875,-48.828125,-44.43359375,-49.8046875,-58.59375,25.390625,0.0
49.87890625,-42.96875,-38.57421875,-37.59765625,-54.19921875,-19.04296875,0.0
49.8828125,-33.203125,-21.484375,-28.3203125,-40.52734375,-24.90234375,0.0
49.88671875,-40.52734375,-33.203125,-44.43359375,-48.828125,-16.11328125,0.0
49.890625,-38.0859375,-41.9921875,-46.875,-52.24609375,-65.91796875,0.0
49.89453125,-37.109375,-37.109375,-45.8984375,-51.7578125,-20.01953125,0.0
49.8984375,-41.9921875,-32.71484375,-49.8046875,-46.875,-19.04296875,0.0
49.90234375,-34.1796875,-26.85546875,-47.8515625,-41.50390625,-52.734375,0.0
49.90625,-34.66796875,-32.71484375,-57.6171875,-45.8984375,-11.23046875,0.0
49.91015625,-29.296875,-24.90234375,-53.7109375,-34.1796875,-5.859375,0.0
49.9140625,-25.390625,-11.23046875,-39.0625,-15.625,-58.59375,0.0
49.91796875,-54.19921875,-32.71484375,-49.8046875,-28.3203125,-20.99609375,0.0
49.921875,-64.94140625,-41.015625,-56.15234375,-34.1796875,56.15234375,0.0
49.92578125,-48.33984375,-26.85546875,-46.38671875,-30.2734375,-49.8046875,0.0
49.9296875,-50.78125,-28.3203125,-42.48046875,-32.71484375,-52.734375,0.0
49.93359375,-62.98828125,-42.96875,-51.7578125,-43.45703125,-29.296875,0.0
49.9375,-53.7109375,-38.0859375,-52.24609375,-48.33984375,-2.9296875,0.0
49.94140625,-35.15625,-19.04296875,-44.43359375,-41.015625,58.59375,0.0
49.9453125,-33.69140625,-18.06640625,-44.921875,-48.828125,12.20703125,0.0
49.94921875,-44.43359375,-31.25,-46.38671875,-64.453125,-10.25390625,0.0
49.953125,-43.45703125,-39.55078125,-47.36328125,-68.84765625,-92.28515625,0.0
49.95703125,-29.78515625,-29.296875,-34.66796875,-50.78125,-166.9921875,0.0
49.9609375,-31.73828125,-33.69140625,-41.015625,-52.734375,-107.421875,0.0
49.96484375,-37.59765625,-36.62109375,-53.22265625,-67.87109375,21.484375,0.0
49.96875,-34.66796875,-30.2734375,-46.38671875,-60.546875,21.484375,0.0
49.97265625,-38.57421875,-38.0859375,-49.8046875,-63.4765625,-62.01171875,0.0
49.9765625,-43.9453125,-41.015625,-53.7109375,-63.96484375,-31.25,0.0
49.98046875,-50.78125,-46.875,-51.26953125,-61.03515625,-23.92578125,0.0
49.984375,-29.78515625,-40.52734375,-44.921875,-49.31640625,37.59765625,0.0
49.98828125,-23.92578125,-35.15625,-47.36328125,-48.33984375,42.48046875,0.0
49.9921875,-42.48046875,-41.50390625,-53.22265625,-58.59375,-46.38671875,0.0
49.99609375,-51.7578125,-44.921875,-55.17578125,-59.08203125,-62.98828125,0.0
50.0,-35.64453125,-35.64453125,-38.57421875,-41.015625,-30.76171875,0.0
50.00390625,-26.85546875,-24.4140625,-25.390625,-38.0859375,-46.875,0.0
50.0078125,-47.8515625,-42.48046875,-47.8515625,-65.4296875,-41.015625,0.0
50.01171875,-53.7109375,-52.24609375,-55.6640625,-56.640625,-13.671875,0.0
50.015625,-60.05859375,-48.828125,-52.24609375,-57.6171875,-11.23046875,0.0
50.01953125,-54.6875,-44.921875,-49.31640625,-62.98828125,-19.04296875,0.0
50.0234375,-47.8515625,-47.36328125,-50.29296875,-46.38671875,-88.37890625,0.0
50.02734375,-51.7578125,-55.17578125,-50.78125,-48.33984375,-107.91015625,0.0
50.03125,-49.8046875,-50.78125,-45.41015625,-63.96484375,-26.85546875,0.0
50.03515625,-47.8515625,-42.96875,-41.9921875,-56.640625,76.171875,0.0
50.0390625,-53.7109375,-35.64453125,-38.0859375,-55.6640625,67.87109375,0.0
50.04296875,-46.875,-28.3203125,-27.83203125,-49.31640625,33.69140625,0.0
50.046875,-37.59765625,-32.2265625,-23.4375,-33.69140625,-16.6015625,0.0
50.05078125,-37.109375,-40.0390625,-29.78515625,-37.59765625,-2.9296875,0.0
50.0546875,-38.0859375,-41.50390625,-33.69140625,-34.66796875,31.25,0.0
50.05859375,-35.15625,-39.0625,-31.25,-25.87890625,22.94921875,0.0
50.0625,-35.15625,-35.15625,-30.2734375,-23.4375,-6.34765625,0.0
50.06640625,-40.0390625,-33.203125,-26.3671875,-16.6015625,35.15625,0.0
50.0703125,-39.0625,-39.0625,-29.296875,-27.34375,-10.25390625,0.0
50.07421875,-34.66796875,-40.52734375,-29.78515625,-37.109375,-111.328125,0.0
50.078125,-28.80859375,-36.1328125,-26.3671875,-32.71484375,-77.63671875,0.0
50.08203125,-28.80859375,-35.64453125,-26.85546875,-36.1328125,-51.7578125,0.0
50.0859375,-28.3203125,-25.390625,-15.625,-22.94921875,-92.28515625,0.0
50.08984375,-42.48046875,-37.59765625,-34.66796875,-40.0390625,-89.84375,0.0
50.09375,-84.9609375,-86.42578125,-79.58984375,-90.8203125,-119.62890625,0.0
50.09765625,-110.3515625,-101.5625,-93.26171875,-96.19140625,-156.25,0.0
50.1015625,-92.7734375,-72.265625,-79.1015625,-73.2421875,-112.3046875,0.0
50.10546875,-48.33984375,-33.203125,-43.45703125,-42.48046875,4.8828125,0.0
50.109375,-34.66796875,-20.5078125,-27.34375,-26.85546875,48.828125,0.0
50.11328125,-41.50390625,-19.04296875,-18.06640625,-26.3671875,-31.73828125,0.0
50.1171875,-40.52734375,-23.92578125,-16.6015625,-30.2734375,-20.5078125,0.0
50.12109375,-38.57421875,-27.34375,-20.99609375,-30.76171875,61.5234375,0.0
50.125,-37.109375,-25.87890625,-19.04296875,-28.3203125,83.0078125,0.0
50.12890625,-36.1328125,-25.87890625,-18.06640625,-28.3203125,29.296875,0.0
50.1328125,-44.921875,-21.484375,-17.08984375,-27.83203125,-8.30078125,0.0
50.13671875,-25.390625,-5.859375,-6.8359375,-17.08984375,-37.109375,0.0
50.140625,-25.87890625,-13.18359375,-10.7421875,-26.85546875,-70.3125,0.0
50.14453125,-48.33984375,-33.203125,-26.85546875,-38.0859375,-152.34375,0.0
50.1484375,-26.85546875,-21.484375,-18.06640625,-24.90234375,-109.375,0.0
50.15234375,-16.11328125,-14.6484375,-9.27734375,-22.94921875,-75.68359375,0.0
50.15625,-26.3671875,-29.296875,-20.01953125,-21.97265625,-25.390625,0.0
50.16015625,-31.73828125,-36.62109375,-20.99609375,-20.5078125,54.6875,0.0
50.1640625,-26.3671875,-32.2265625,-17.578125,-25.87890625,-20.5078125,0.0
50.16796875,-16.6015625,-18.5546875,-15.625,-13.671875,-62.01171875,0.0
50.171875,-31.25,-19.04296875,-18.06640625,-9.765625,-30.2734375,0.0
50.17578125,-45.8984375,-28.80859375,-24.4140625,-14.16015625,10.7421875,0.0
50.1796875,-33.203125,-14.6484375,-17.08984375,-0.48828125,-15.625,0.0
50.18359375,-23.4375,-10.7421875,-19.04296875,0.9765625,-108.88671875,0.0
50.1875,-29.296875,-33.203125,-32.71484375,-16.6015625,-104.00390625,0.0
50.19140625,-42.96875,-39.0625,-42.48046875,-30.2734375,-3.90625,0.0
50.1953125,-23.92578125,-11.71875,-21.484375,-11.23046875,4.39453125,0.0
50.19921875,-12.20703125,-6.8359375,-10.25390625,-4.8828125,16.6015625,0.0
50.203125,-43.45703125,-37.59765625,-35.64453125,-25.87890625,38.0859375,0.0
50.20703125,-46.38671875,-43.9453125,-37.109375,-35.15625,40.52734375,0.0
50.2109375,-21.484375,-21.97265625,-21.484375,-23.92578125,20.5078125,0.0
50.21484375,-25.390625,-20.01953125,-23.4375,-26.3671875,-54.19921875,0.0
50.21875,-41.015625,-35.15625,-41.015625,-48.33984375,-17.08984375,0.0
50.22265625,-40.0390625,-39.0625,-45.8984375,-35.64453125,-7.8125,0.0
50.2265625,-8.7890625,-0.9765625,-7.32421875,-0.48828125,-85.44921875,0.0
50.23046875,8.30078125,22.94921875,16.11328125,11.23046875,-88.8671875,0.0
50.234375,-41.015625,-28.3203125,-25.390625,-30.76171875,-37.109375,0.0
50.23828125,-59.5703125,-46.38671875,-38.0859375,-39.55078125,-20.01953125,0.0
50.2421875,-46.38671875,-35.64453125,-26.85546875,-28.3203125,19.53125,0.0
50.24609375,-50.78125,-39.0625,-28.80859375,-40.0390625,5.37109375,0.0
50.25,-53.7109375,-41.9921875,-36.1328125,-45.41015625,-35.15625,0.0
50.25390625,-49.31640625,-41.50390625,-37.59765625,-42.48046875,-7.32421875,0.0
50.2578125,-48.828125,-36.1328125,-35.64453125,-46.38671875,-17.08984375,0.0
50.26171875,-50.29296875,-28.3203125,-31.73828125,-40.0390625,-94.7265625,0.0
50.265625,-52.734375,-29.78515625,-31.73828125,-45.8984375,-31.25,0.0
50.26953125,-44.43359375,-23.4375,-21.484375,-37.109375,-8.7890625,0.0
50.2734375,-41.50390625,-17.08984375,-17.578125,-29.78515625,-32.71484375,0.0
50.27734375,-54.6875,-27.83203125,-26.85546875,-39.0625,-43.45703125,0.0
50.28125,-51.26953125,-44.43359375,-30.2734375,-32.71484375,-120.1171875,0.0
50.28515625,-11.23046875,-22.4609375,-6.34765625,-1.953125,-91.30859375,0.0
50.2890625,11.23046875,0.9765625,8.30078125,10.25390625,15.625,0.0
50.29296875,-30.76171875,-29.296875,-28.80859375,-29.296875,68.359375,0.0
50.296875,-49.31640625,-45.41015625,-46.38671875,-35.15625,23.4375,0.0
50.30078125,-29.78515625,-28.3203125,-28.80859375,-18.06640625,31.25,0.0
50.3046875,-38.57421875,-23.92578125,-25.390625,-29.78515625,63.96484375,0.0
50.30859375,-52.734375,-36.62109375,-40.52734375,-44.921875,-57.6171875,0.0
50.3125,-36.1328125,-35.64453125,-36.62109375,-44.43359375,-166.50390625,0.0
50.31640625,-36.1328125,-39.55078125,-40.0390625,-61.03515625,-152.34375,0.0
50.3203125,-35.15625,-41.9921875,-43.9453125,-61.03515625,-129.39453125,0.0
50.32421875,-28.80859375,-44.43359375,-42.96875,-53.7109375,-147.4609375,0.0
50.328125,-19.04296875,-40.52734375,-43.45703125,-53.7109375,-109.375,0.0
50.33203125,-13.671875,-33.69140625,-40.52734375,-53.22265625,-10.7421875,0.0
50.3359375,-27.34375,-35.64453125,-38.57421875,-52.734375,-14.16015625,0.0
50.33984375,-24.4140625,-36.1328125,-35.15625,-41.015625,-88.37890625,0.0
50.34375,-15.13671875,-42.48046875,-33.203125,-35.15625,-83.984375,0.0
50.34765625,-15.625,-44.43359375,-35.15625,-43.45703125,9.765625,0.0
50.3515625,-19.04296875,-36.1328125,-35.64453125,-40.0390625,45.8984375,0.0
50.35546875,-29.78515625,-30.76171875,-34.66796875,-36.1328125,5.37109375,0.0
50.359375,-37.109375,-32.71484375,-31.73828125,-38.0859375,-81.0546875,0.0
50.36328125,-38.57421875,-39.0625,-36.1328125,-39.55078125,-66.40625,0.0
50.3671875,-35.15625,-35.64453125,-41.015625,-34.66796875,20.99609375,0.0
50.37109375,-33.203125,-34.66796875,-36.62109375,-35.64453125,-14.16015625,0.0
50.375,-38.0859375,-39.55078125,-34.1796875,-41.9921875,-30.2734375,0.0
50.37890625,-40.0390625,-39.0625,-37.59765625,-39.0625,-37.109375,0.0
50.3828125,-41.9921875,-38.57421875,-36.62109375,-29.78515625,-22.94921875,0.0
50.38671875,-42.96875,-40.52734375,-41.50390625,-28.3203125,17.08984375,0.0
50.390625,-45.8984375,-42.48046875,-43.45703125,-38.0859375,-5.859375,0.0
50.39453125,-43.9453125,-41.015625,-33.69140625,-44.43359375,-61.03515625,0.0
50.3984375,-38.57421875,-32.71484375,-27.34375,-41.50390625,-88.8671875,0.0
50.40234375,-39.0625,-35.15625,-32.71484375,-48.33984375,-55.6640625,0.0
50.40625,-28.3203125,-26.3671875,-24.4140625,-41.9921875,-43.9453125,0.0
50.41015625,-9.27734375,-9.27734375,-16.6015625,-22.94921875,-40.52734375,0.0
50.4140625,-7.8125,-7.8125,-14.6484375,-16.11328125,-115.72265625,0.0
50.41796875,-13.671875,-12.6953125,-13.18359375,-16.6015625,-145.5078125,0.0
50.421875,-30.2734375,-32.2265625,-27.34375,-26.3671875,-77.1484375,0.0
50.42578125,-30.2734375,-38.57421875,-35.15625,-26.3671875,-37.109375,0.0
50.4296875,-28.80859375,-40.0390625,-39.0625,-41.50390625,-24.90234375,0.0
50.43359375,-26.85546875,-38.57421875,-33.203125,-45.41015625,-69.3359375,0.0
50.4375,1.953125,-17.578125,-11.71875,-20.5078125,-125.0,0.0
50.44140625,-4.39453125,-31.25,-21.484375,-37.59765625,-78.125,0.0
50.4453125,-8.30078125,-43.9453125,-27.34375,-45.41015625,-27.83203125,0.0
50.44921875,-0.48828125,-34.66796875,-25.390625,-34.66796875,-39.55078125,0.0
50.453125,-7.32421875,-37.109375,-34.66796875,-40.52734375,-53.7109375,0.0
50.45703125,-24.90234375,-40.0390625,-34.1796875,-38.57421875,-38.0859375,0.0
50.4609375,-45.41015625,-38.57421875,-37.109375,-38.57421875,-21.484375,0.0
50.46484375,-15.625,-16.6015625,-17.578125,-19.04296875,-0.9765625,0.0
50.46875,-5.859375,-13.18359375,-10.25390625,-16.11328125,-3.90625,0.0
50.47265625,-28.3203125,-35.64453125,-27.83203125,-37.109375,62.01171875,0.0
50.4765625,-31.25,-38.57421875,-32.71484375,-43.45703125,42.96875,0.0
50.48046875,-8.7890625,-14.16015625,-8.7890625,-24.4140625,-72.75390625,0.0
50.484375,10.25390625,-3.90625,6.8359375,-5.859375,-52.734375,0.0
50.48828125,-21.97265625,-32.71484375,-26.3671875,-36.1328125,44.43359375,0.0
50.4921875,-35.15625,-41.50390625,-35.15625,-49.8046875,-2.44140625,0.0
50.49609375,-19.53125,-24.90234375,-24.4140625,-31.73828125,-55.17578125,0.0
50.5,-26.85546875,-21.97265625,-24.90234375,-33.69140625,-17.08984375,0.0
50.50390625,-41.50390625,-40.52734375,-40.0390625,-55.6640625,-54.19921875,0.0
50.5078125,-35.15625,-43.9453125,-42.48046875,-53.7109375,-13.18359375,0.0
50.51171875,-16.11328125,-20.99609375,-26.3671875,-28.3203125,82.03125,0.0
50.515625,-21.97265625,-17.578125,-25.390625,-24.90234375,35.15625,0.0
50.51953125,-43.45703125,-36.62109375,-39.0625,-47.36328125,14.16015625,0.0
50.5234375,-40.52734375,-37.59765625,-42.48046875,-42.96875,6.8359375,0.0
50.52734375,-41.9921875,-38.57421875,-40.0390625,-39.55078125,-75.68359375,0.0
50.53125,-44.43359375,-43.45703125,-44.43359375,-51.26953125,-45.8984375,0.0
50.53515625,-48.33984375,-46.38671875,-47.8515625,-56.15234375,-0.9765625,0.0
50.5390625,-34.66796875,-37.109375,-35.15625,-35.64453125,8.30078125,0.0
50.54296875,-29.78515625,-34.1796875,-32.2265625,-22.94921875,25.390625,0.0
50.546875,-45.41015625,-41.50390625,-45.8984375,-41.9921875,20.99609375,0.0
50.55078125,-45.8984375,-39.0625,-53.7109375,-50.29296875,-32.71484375,0.0
50.5546875,-30.76171875,-22.94921875,-37.59765625,-29.78515625,-166.9921875,0.0
50.55859375,-22.94921875,-19.53125,-28.3203125,-18.5546875,-181.640625,0.0
50.5625,-27.83203125,-30.2734375,-38.0859375,-31.25,-128.41796875,0.0
50.56640625,-30.76171875,-34.1796875,-44.43359375,-33.69140625,-76.66015625,0.0
50.5703125,-12.20703125,-16.11328125,-29.78515625,-13.18359375,-21.97265625,0.0
50.57421875,-2.9296875,-0.9765625,-12.20703125,-6.34765625,-30.2734375,0.0
50.578125,-33.203125,-22.4609375,-34.66796875,-20.5078125,0.0,0.0
50.58203125,-34.1796875,-27.34375,-49.31640625,-27.83203125,14.6484375,0.0
50.5859375,-39.0625,-34.66796875,-52.24609375,-41.50390625,-49.31640625,0.0
50.58984375,-49.31640625,-43.45703125,-52.24609375,-35.64453125,-90.33203125,0.0
50.59375,-45.41015625,-38.0859375,-54.19921875,-32.71484375,-45.41015625,0.0
50.59765625,-46.38671875,-34.66796875,-53.7109375,-35.15625,15.625,0.0
50.6015625,-37.109375,-24.4140625,-38.57421875,-19.53125,38.57421875,0.0
50.60546875,-36.1328125,-21.97265625,-36.1328125,-19.04296875,9.27734375,0.0
50.609375,-43.45703125,-30.76171875,-41.9921875,-31.73828125,13.671875,0.0
50.61328125,-34.66796875,-26.3671875,-35.64453125,-35.15625,72.265625,0.0
50.6171875,-13.671875,-9.27734375,-17.08984375,-17.578125,17.08984375,0.0
50.62109375,-24.90234375,-21.484375,-23.4375,-22.4609375,-34.1796875,0.0
50.625,-44.921875,-38.0859375,-37.109375,-37.109375,8.30078125,0.0
50.62890625,-41.015625,-41.015625,-39.55078125,-38.0859375,25.87890625,0.0
50.6328125,-44.43359375,-41.9921875,-42.96875,-51.26953125,-77.63671875,0.0
50.63671875,-43.45703125,-36.1328125,-32.71484375,-48.33984375,-86.9140625,0.0
50.640625,-28.80859375,-37.109375,-28.3203125,-41.015625,-18.5546875,0.0
50.64453125,-17.578125,-31.25,-30.2734375,-37.109375,-27.83203125,0.0
50.6484375,-18.5546875,-26.3671875,-34.66796875,-30.2734375,-48.828125,0.0
50.65234375,-34.66796875,-38.0859375,-43.9453125,-35.15625,-95.21484375,0.0
50.65625,-36.62109375,-47.36328125,-44.43359375,-36.62109375,-128.41796875,0.0
50.66015625,-26.85546875,-45.8984375,-41.50390625,-35.64453125,-72.265625,0.0
50.6640625,-31.73828125,-42.96875,-39.0625,-34.1796875,-80.078125,0.0
50.66796875,-40.0390625,-46.875,-35.64453125,-32.2265625,-64.453125,0.0
50.671875,-45.41015625,-50.29296875,-30.2734375,-32.71484375,-5.859375,0.0
50.67578125,-43.45703125,-45.8984375,-26.3671875,-29.296875,-9.765625,0.0
50.6796875,-45.8984375,-46.875,-26.3671875,-33.203125,-19.04296875,0.0
50.68359375,-43.45703125,-45.8984375,-27.34375,-37.109375,-40.0390625,0.0
50.6875,-39.55078125,-47.36328125,-33.203125,-32.2265625,-36.1328125,0.0
50.69140625,-39.0625,-51.26953125,-37.109375,-34.1796875,-55.6640625,0.0
50.6953125,-39.0625,-46.875,-35.15625,-36.62109375,-58.10546875,0.0
50.69921875,-49.31640625,-42.96875,-37.109375,-30.76171875,-58.10546875,0.0
50.703125,-48.828125,-41.9921875,-25.390625,-28.80859375,-25.390625,0.0
50.70703125,-41.50390625,-40.52734375,-18.5546875,-34.66796875,-6.34765625,0.0
50.7109375,-38.0859375,-33.69140625,-22.94921875,-33.69140625,10.7421875,0.0
50.71484375,-45.8984375,-33.69140625,-24.4140625,-39.0625,46.38671875,0.0
50.71875,-51.7578125,-37.109375,-30.76171875,-48.33984375,-13.671875,0.0
50.72265625,-37.109375,-27.34375,-24.4140625,-41.9921875,-27.83203125,0.0
50.7265625,-28.3203125,-24.90234375,-20.5078125,-31.73828125,0.0,0.0
50.73046875,-32.71484375,-30.2734375,-31.25,-43.9453125,-70.80078125,0.0
50.734375,-44.921875,-31.25,-36.1328125,-55.17578125,-40.0390625,0.0
50.73828125,-51.7578125,-36.62109375,-34.1796875,-46.875,-24.4140625,0.0
50.7421875,-41.50390625,-37.109375,-33.203125,-52.734375,-48.33984375,0.0
50.74609375,-37.109375,-30.76171875,-29.296875,-59.5703125,6.8359375,0.0
50.75,-52.734375,-34.66796875,-34.1796875,-60.546875,21.97265625,0.0
50.75390625,-62.98828125,-41.015625,-44.921875,-65.4296875,-4.39453125,0.0
50.7578125,-58.59375,-36.1328125,-41.50390625,-57.6171875,-34.66796875,0.0
50.76171875,-44.43359375,-28.3203125,-34.1796875,-47.36328125,3.90625,0.0
50.765625,-53.22265625,-42.96875,-51.26953125,-64.453125,-16.11328125,0.0
50.76953125,-59.5703125,-47.36328125,-53.22265625,-67.3828125,-58.10546875,0.0
50.7734375,-41.9921875,-26.3671875,-29.78515625,-51.26953125,-62.01171875,0.0
50.77734375,-30.76171875,-25.87890625,-30.76171875,-55.6640625,-96.6796875,0.0
50.78125,-26.85546875,-33.69140625,-34.66796875,-51.7578125,-28.3203125,0.0
50.78515625,-27.34375,-37.59765625,-36.62109375,-53.7109375,9.765625,0.0
50.7890625,-18.06640625,-40.52734375,-34.66796875,-50.78125,-6.8359375,0.0
50.79296875,-18.5546875,-41.9921875,-31.25,-49.8046875,6.8359375,0.0
50.796875,-29.78515625,-42.96875,-38.57421875,-63.96484375,3.90625,0.0
50.80078125,-40.0390625,-42.96875,-42.96875,-61.03515625,39.0625,0.0
50.8046875,-36.1328125,-38.0859375,-31.25,-47.8515625,24.4140625,0.0
50.80859375,-34.1796875,-39.55078125,-28.80859375,-48.33984375,-23.4375,0.0
50.8125,-30.76171875,-39.0625,-29.296875,-44.43359375,-8.7890625,0.0
50.81640625,-25.87890625,-31.73828125,-26.3671875,-38.0859375,64.453125,0.0
50.8203125,-43.45703125,-40.52734375,-32.2265625,-40.52734375,145.01953125,0.0
50.82421875,-34.66796875,-36.62109375,-19.53125,-22.94921875,72.75390625,0.0
50.828125,-20.5078125,-33.203125,-16.11328125,-14.6484375,-38.57421875,0.0
50.83203125,-40.52734375,-48.828125,-32.71484375,-43.9453125,-87.40234375,0.0
50.8359375,-47.36328125,-40.0390625,-31.25,-49.31640625,44.921875,0.0
50.83984375,-35.15625,-29.296875,-22.94921875,-31.73828125,104.4921875,0.0
50.84375,-17.578125,-29.78515625,-14.16015625,-19.53125,-79.1015625,0.0
50.84765625,-18.06640625,-40.52734375,-28.3203125,-29.296875,-76.171875,0.0
50.8515625,-20.99609375,-37.59765625,-34.1796875,-35.64453125,40.52734375,0.0
50.85546875,-22.4609375,-34.1796875,-28.80859375,-24.90234375,29.296875,0.0
50.859375,-33.69140625,-36.1328125,-29.78515625,-22.4609375,-24.90234375,0.0
50.86328125,-45.41015625,-45.8984375,-40.52734375,-34.1796875,-38.0859375,0.0
50.8671875,-31.73828125,-43.9453125,-43.45703125,-34.1796875,-77.1484375,0.0
50.87109375,-17.08984375,-36.1328125,-35.15625,-27.83203125,-52.734375,0.0
50.875,-26.85546875,-36.62109375,-30.76171875,-26.85546875,-26.3671875,0.0
50.87890625,-37.109375,-42.48046875,-32.71484375,-27.34375,-62.98828125,0.0
50.8828125,-29.296875,-45.8984375,-31.25,-20.01953125,-64.453125,0.0
50.88671875,-17.578125,-28.3203125,-19.53125,-9.27734375,-93.26171875,0.0
50.890625,-23.4375,-25.87890625,-22.4609375,-10.7421875,-65.91796875,0.0
50.89453125,-35.15625,-40.52734375,-28.80859375,-12.20703125,-20.99609375,0.0
50.8984375,-31.73828125,-40.52734375,-22.4609375,-13.671875,-7.8125,0.0
50.90234375,-5.859375,-16.11328125,0.0,-0.9765625,-7.32421875,0.0
50.90625,-13.671875,-16.11328125,-5.37109375,-9.27734375,-52.734375,0.0
50.91015625,-44.43359375,-35.64453125,-25.87890625,-36.1328125,-76.171875,0.0
50.9140625,-47.8515625,-40.0390625,-26.3671875,-34.1796875,-59.08203125,0.0
50.91796875,-47.36328125,-40.52734375,-26.85546875,-29.78515625,-65.4296875,0.0
50.921875,-42.96875,-40.52734375,-24.90234375,-25.390625,-94.23828125,0.0
50.92578125,-33.69140625,-39.55078125,-22.94921875,-20.99609375,-76.171875,0.0
50.9296875,-34.66796875,-41.50390625,-27.83203125,-29.296875,-66.40625,0.0
50.93359375,-45.8984375,-48.828125,-32.2265625,-33.69140625,-51.7578125,0.0
50.9375,-50.78125,-44.43359375,-28.3203125,-26.3671875,-91.796875,0.0
50.94140625,-52.24609375,-38.0859375,-35.64453125,-30.76171875,-91.30859375,0.0
50.9453125,-44.43359375,-38.0859375,-35.15625,-26.85546875,-43.9453125,0.0
50.94921875,-30.76171875,-41.50390625,-28.3203125,-30.76171875,-29.296875,0.0
50.953125,-25.87890625,-43.45703125,-29.78515625,-39.0625,18.5546875,0.0
50.95703125,-38.57421875,-41.015625,-31.25,-23.92578125,86.9140625,0.0
50.9609375,-60.546875,-55.17578125,-51.26953125,-34.1796875,85.44921875,0.0
50.96484375,-51.26953125,-53.22265625,-57.6171875,-34.66796875,31.73828125,0.0
50.96875,-31.25,-40.0390625,-41.015625,-20.99609375,11.71875,0.0
50.97265625,-32.2265625,-33.203125,-39.0625,-23.92578125,4.8828125,0.0
50.9765625,-59.08203125,-56.15234375,-68.84765625,-53.22265625,-10.7421875,0.0
50.98046875,-70.3125,-78.61328125,-85.44921875,-72.265625,-14.16015625,0.0
50.984375,-40.0390625,-47.8515625,-54.19921875,-40.0390625,-1.46484375,0.0
50.98828125,-33.69140625,-35.64453125,-48.33984375,-33.203125,9.27734375,0.0
50.9921875,-38.57421875,-41.50390625,-54.19921875,-37.109375,39.55078125,0.0
50.99609375,-31.25,-28.80859375,-40.0390625,-24.90234375,17.578125,0.0
51.0,-27.34375,-20.99609375,-31.25,-21.97265625,23.4375,0.0
51.00390625,-28.80859375,-26.3671875,-39.0625,-33.69140625,28.3203125,0.0
51.0078125,-30.76171875,-35.15625,-42.48046875,-28.3203125,-10.25390625,0.0
51.01171875,-40.0390625,-35.64453125,-34.66796875,-24.4140625,33.69140625,0.0
51.015625,-49.31640625,-34.1796875,-33.203125,-29.78515625,4.8828125,0.0
51.01953125,-50.29296875,-33.69140625,-37.109375,-23.92578125,-142.08984375,0.0
51.0234375,-42.96875,-30.2734375,-35.64453125,-18.06640625,-258.30078125,0.0
51.02734375,-36.1328125,-35.15625,-34.1796875,-23.92578125,-141.6015625,0.0
51.03125,-39.0625,-32.71484375,-32.2265625,-25.87890625,-45.8984375,0.0
51.03515625,-55.17578125,-44.43359375,-45.41015625,-41.015625,-5.37109375,0.0
51.0390625,-59.5703125,-54.6875,-56.15234375,-54.19921875,-49.31640625,0.0
51.04296875,-37.109375,-36.1328125,-38.0859375,-31.25,-52.24609375,0.0
51.046875,-20.5078125,-27.34375,-26.3671875,-10.7421875,69.3359375,0.0
51.05078125,-39.55078125,-46.38671875,-44.921875,-37.59765625,138.671875,0.0
51.0546875,-43.9453125,-45.8984375,-52.24609375,-54.19921875,104.98046875,0.0
51.05859375,-31.25,-27.34375,-36.1328125,-33.203125,35.15625,0.0
51.0625,-38.57421875,-26.3671875,-35.64453125,-36.1328125,-39.0625,0.0
51.06640625,-31.73828125,-25.87890625,-32.71484375,-42.96875,0.0,0.0
51.0703125,-27.83203125,-26.85546875,-31.25,-43.9453125,42.48046875,0.0
51.07421875,-28.3203125,-21.97265625,-30.76171875,-35.64453125,-2.9296875,0.0
51.078125,-32.71484375,-25.390625,-36.62109375,-40.0390625,-68.359375,0.0
51.08203125,-62.5,-53.7109375,-62.01171875,-65.91796875,-133.30078125,0.0
51.0859375,-46.875,-43.45703125,-50.78125,-53.22265625,-141.11328125,0.0
51.08984375,-10.7421875,-9.765625,-26.3671875,-21.97265625,-97.65625,0.0
51.09375,-30.76171875,-22.4609375,-41.50390625,-34.66796875,-72.75390625,0.0
51.09765625,-38.57421875,-37.59765625,-44.921875,-48.33984375,-100.5859375,0.0
51.1015625,-23.4375,-31.25,-33.69140625,-28.80859375,-52.734375,0.0
51.10546875,-20.5078125,-25.390625,-31.25,-28.80859375,-0.48828125,0.0
51.109375,-23.92578125,-32.2265625,-35.64453125,-36.62109375,-2.44140625,0.0
51.11328125,-31.25,-37.59765625,-35.64453125,-32.71484375,-7.8125,0.0
51.1171875,-28.80859375,-28.80859375,-27.83203125,-34.1796875,4.8828125,0.0
51.12109375,-25.390625,-20.99609375,-22.94921875,-26.85546875,37.109375,0.0
51.125,-43.9453125,-40.0390625,-38.0859375,-30.2734375,47.36328125,0.0
51.12890625,-47.36328125,-50.78125,-44.43359375,-38.57421875,13.18359375,0.0
51.1328125,-30.2734375,-30.76171875,-20.5078125,-27.83203125,-23.4375,0.0
51.13671875,-28.3203125,-29.78515625,-20.99609375,-23.92578125,0.48828125,0.0
51.140625,-27.34375,-33.69140625,-28.80859375,-22.94921875,15.625,0.0
51.14453125,-28.80859375,-32.2265625,-21.484375,-22.94921875,3.41796875,0.0
51.1484375,-28.3203125,-25.390625,-18.5546875,-23.92578125,-63.4765625,0.0
51.15234375,-25.390625,-21.97265625,-27.83203125,-29.78515625,-114.2578125,0.0
51.15625,-28.80859375,-30.2734375,-29.296875,-32.2265625,-6.8359375,0.0
51.16015625,-34.66796875,-32.71484375,-22.94921875,-24.90234375,84.47265625,0.0
51.1640625,-33.69140625,-25.87890625,-21.484375,-18.5546875,55.6640625,0.0
51.16796875,-28.3203125,-29.78515625,-21.97265625,-16.6015625,-29.296875,0.0
51.171875,-21.97265625,-36.1328125,-21.484375,-23.92578125,-119.140625,0.0
51.17578125,-23.92578125,-33.69140625,-21.484375,-35.15625,-118.1640625,0.0
51.1796875,-24.90234375,-30.76171875,-21.484375,-34.1796875,18.06640625,0.0
51.18359375,-19.53125,-28.80859375,-22.4609375,-24.90234375,108.88671875,0.0
51.1875,-20.01953125,-31.73828125,-20.01953125,-18.5546875,81.54296875,0.0
51.19140625,-29.296875,-35.15625,-21.97265625,-25.390625,3.41796875,0.0
51.1953125,-34.66796875,-33.69140625,-23.92578125,-23.92578125,-72.75390625,0.0
51.19921875,-38.57421875,-33.69140625,-24.4140625,-23.4375,-58.10546875,0.0
51.203125,-27.83203125,-28.80859375,-23.92578125,-26.85546875,-68.84765625,0.0
51.20703125,-16.11328125,-22.94921875,-20.99609375,-21.97265625,-105.95703125,0.0
51.2109375,-19.04296875,-25.87890625,-21.97265625,-19.04296875,-78.125,0.0
51.21484375,-25.390625,-34.66796875,-24.4140625,-20.5078125,-64.453125,0.0
51.21875,-34.66796875,-41.015625,-26.3671875,-27.34375,-114.2578125,0.0
51.22265625,-29.78515625,-29.78515625,-20.5078125,-23.92578125,-120.1171875,0.0
51.2265625,-19.04296875,-22.94921875,-20.5078125,-12.6953125,-95.21484375,0.0
51.23046875,-23.92578125,-27.83203125,-30.76171875,-23.4375,-69.82421875,0.0
51.234375,-32.2265625,-23.92578125,-26.85546875,-34.1796875,-60.546875,0.0
51.23828125,-29.296875,-19.53125,-21.97265625,-23.92578125,24.90234375,0.0
51.2421875,-25.390625,-27.34375,-27.34375,-30.2734375,24.90234375,0.0
51.24609375,-19.53125,-25.87890625,-26.85546875,-37.109375,-29.78515625,0.0
51.25,-20.01953125,-22.4609375,-27.83203125,-31.73828125,28.80859375,0.0
51.25390625,-23.92578125,-24.4140625,-24.90234375,-21.97265625,3.90625,0.0
51.2578125,-23.92578125,-26.85546875,-21.97265625,-28.80859375,-62.01171875,0.0
51.26171875,-22.4609375,-27.83203125,-22.94921875,-32.71484375,-11.23046875,0.0
51.265625,-23.92578125,-31.73828125,-24.4140625,-25.390625,-11.71875,0.0
51.26953125,-22.94921875,-33.203125,-26.3671875,-29.78515625,-53.22265625,0.0
51.2734375,-25.390625,-27.34375,-24.90234375,-29.296875,-30.76171875,0.0
51.27734375,-31.25,-23.92578125,-20.99609375,-27.34375,-4.39453125,0.0
51.28125,-31.73828125,-22.4609375,-23.92578125,-37.109375,-15.625,0.0
51.28515625,-30.2734375,-30.2734375,-28.80859375,-37.109375,6.8359375,0.0
