timestamp,TP9,AF7,AF8,TP10,AUX,Marker,
32.00390625,-25.87890625,-36.1328125,-32.71484375,-25.87890625,-30.76171875,0.0
32.0078125,-44.43359375,-32.71484375,-29.296875,-44.921875,-16.6015625,0.0
32.01171875,-89.84375,-42.48046875,-22.94921875,-69.82421875,-59.5703125,0.0
32.015625,-89.84375,-40.0390625,-33.69140625,-49.31640625,-31.73828125,0.0
32.01953125,-51.7578125,-42.48046875,-28.3203125,-32.71484375,2.44140625,0.0
32.0234375,-17.08984375,-35.64453125,-18.06640625,-43.45703125,-47.36328125,0.0
32.02734375,-8.30078125,-31.25,-41.015625,-43.9453125,-124.51171875,0.0
32.03125,-36.1328125,-34.66796875,-36.1328125,-38.0859375,-119.62890625,0.0
32.03515625,-73.2421875,-36.1328125,-29.296875,-39.55078125,-61.03515625,0.0
32.0390625,-51.7578125,-29.78515625,-14.16015625,-41.015625,-25.87890625,0.0
32.04296875,-6.8359375,-14.16015625,-13.671875,-18.5546875,-10.7421875,0.0
32.046875,-5.859375,-20.01953125,-23.4375,-12.6953125,12.20703125,0.0
32.05078125,-48.828125,-41.9921875,-26.85546875,-32.2265625,55.17578125,0.0
32.0546875,-65.91796875,-51.7578125,-33.69140625,-37.59765625,-20.99609375,0.0
32.05859375,-43.9453125,-48.33984375,-32.71484375,-35.64453125,8.30078125,0.0
32.0625,-25.87890625,-42.48046875,-24.4140625,-27.34375,36.1328125,0.0
32.06640625,-21.484375,-44.43359375,-37.109375,-41.015625,36.1328125,0.0
32.0703125,-56.640625,-51.7578125,-64.453125,-57.6171875,29.296875,0.0
32.07421875,-74.21875,-47.8515625,-36.62109375,-55.17578125,-54.19921875,0.0
32.078125,-35.15625,-39.55078125,2.44140625,-39.55078125,-45.8984375,0.0
32.08203125,-6.34765625,-51.26953125,-2.44140625,-30.76171875,-47.36328125,0.0
32.0859375,18.06640625,-36.1328125,-9.27734375,-26.85546875,-120.1171875,0.0
32.08984375,4.8828125,-24.90234375,-18.06640625,-36.1328125,-154.78515625,0.0
32.09375,-51.7578125,-45.8984375,-34.66796875,-54.19921875,-103.02734375,0.0
32.09765625,-53.22265625,-51.7578125,-28.80859375,-41.9921875,-41.9921875,0.0
32.1015625,-12.6953125,-44.43359375,-12.6953125,-32.2265625,-28.3203125,0.0
32.10546875,0.48828125,-30.76171875,-1.46484375,-35.64453125,-53.7109375,0.0
32.109375,-22.4609375,-35.64453125,-20.99609375,-46.875,-71.2890625,0.0
32.11328125,-58.59375,-40.52734375,-32.71484375,-51.7578125,-51.26953125,0.0
32.1171875,-52.734375,-35.15625,-17.08984375,-42.48046875,-65.91796875,0.0
32.12109375,-3.90625,-36.1328125,-7.32421875,-33.203125,-40.52734375,0.0
32.125,17.08984375,-34.66796875,1.953125,-40.0390625,41.9921875,0.0
32.12890625,-14.6484375,-42.48046875,-15.625,-46.38671875,-15.13671875,0.0
32.1328125,-45.41015625,-41.9921875,-2.44140625,-46.38671875,-99.12109375,0.0
32.13671875,-22.4609375,-31.25,16.6015625,-31.25,-70.3125,0.0
32.140625,3.90625,-35.64453125,0.0,-25.87890625,-39.55078125,0.0
32.14453125,-4.39453125,-54.19921875,8.30078125,-55.17578125,-39.0625,0.0
32.1484375,-19.53125,-48.33984375,-4.8828125,-77.63671875,-9.765625,0.0
32.15234375,-62.98828125,-37.109375,-41.50390625,-70.80078125,18.06640625,0.0
32.15625,-67.3828125,-42.96875,-27.34375,-51.7578125,23.92578125,0.0
32.16015625,-40.52734375,-54.19921875,0.0,-54.6875,24.4140625,0.0
32.1640625,-8.7890625,-53.7109375,11.23046875,-58.59375,-49.31640625,0.0
32.16796875,-10.7421875,-43.45703125,-4.39453125,-61.5234375,56.15234375,0.0
32.171875,-60.546875,-36.62109375,-19.04296875,-71.77734375,83.0078125,0.0
32.17578125,-60.05859375,-36.1328125,-11.71875,-57.12890625,6.8359375,0.0
32.1796875,-18.5546875,-31.73828125,-27.83203125,-41.9921875,83.49609375,0.0
32.18359375,5.37109375,-33.203125,-30.76171875,-48.33984375,147.94921875,0.0
32.1875,-3.41796875,-39.55078125,-10.7421875,-56.15234375,89.35546875,0.0
32.19140625,-44.921875,-54.6875,-17.578125,-64.94140625,7.32421875,0.0
32.1953125,-48.33984375,-51.26953125,-16.11328125,-42.48046875,-37.59765625,0.0
32.19921875,-15.13671875,-43.9453125,-5.859375,-20.99609375,-32.71484375,0.0
32.203125,8.30078125,-46.38671875,-1.46484375,-25.87890625,19.04296875,0.0
32.20703125,13.18359375,-31.25,-4.8828125,-31.73828125,24.4140625,0.0
32.2109375,-22.94921875,-21.97265625,-15.13671875,-42.96875,2.44140625,0.0
32.21484375,-50.29296875,-41.015625,-21.484375,-41.015625,22.94921875,0.0
32.21875,-17.08984375,-47.36328125,-29.78515625,-23.92578125,-2.44140625,0.0
32.22265625,19.04296875,-41.015625,-38.0859375,-22.94921875,-90.8203125,0.0
32.2265625,38.57421875,-28.3203125,-32.71484375,-34.1796875,-116.2109375,0.0
32.23046875,-6.34765625,-36.62109375,-26.85546875,-59.5703125,-133.30078125,0.0
32.234375,-36.1328125,-57.12890625,-26.85546875,-34.66796875,-181.640625,0.0
32.23828125,-10.25390625,-43.9453125,-21.97265625,-11.71875,-177.734375,0.0
32.2421875,31.73828125,-21.484375,7.32421875,-24.4140625,-186.03515625,0.0
32.24609375,36.1328125,-30.76171875,10.7421875,-51.7578125,-210.44921875,0.0
32.25,-28.80859375,-40.0390625,-8.30078125,-77.63671875,-130.859375,0.0
32.25390625,-61.5234375,-35.15625,-20.01953125,-67.3828125,-111.81640625,0.0
32.2578125,-26.85546875,-27.83203125,-19.53125,-49.8046875,-140.625,0.0
32.26171875,6.8359375,-23.4375,0.9765625,-64.453125,-61.03515625,0.0
32.265625,18.5546875,-25.87890625,9.765625,-70.80078125,-41.50390625,0.0
32.26953125,-15.13671875,-28.80859375,-9.27734375,-56.15234375,-114.74609375,0.0
32.2734375,-53.7109375,-25.390625,-17.578125,-46.38671875,-113.28125,0.0
32.27734375,-52.24609375,-28.3203125,-17.08984375,-46.38671875,-78.61328125,0.0
32.28125,-29.78515625,-32.71484375,-19.53125,-35.15625,-79.58984375,0.0
32.28515625,2.44140625,-26.85546875,-3.90625,-20.5078125,-11.71875,0.0
32.2890625,-9.27734375,-23.4375,-11.71875,-28.3203125,44.43359375,0.0
32.29296875,-62.5,-24.90234375,-39.0625,-46.38671875,-58.59375,0.0
32.296875,-65.91796875,-30.76171875,-18.06640625,-47.36328125,-125.9765625,0.0
32.30078125,-44.921875,-35.64453125,2.44140625,-43.45703125,-34.66796875,0.0
32.3046875,-33.69140625,-34.1796875,-7.32421875,-41.015625,24.4140625,0.0
32.30859375,-63.96484375,-37.59765625,-21.97265625,-53.22265625,113.76953125,0.0
32.3125,-125.9765625,-37.109375,-37.109375,-57.12890625,101.07421875,0.0
32.31640625,-139.16015625,-39.55078125,-36.1328125,-36.62109375,-14.16015625,0.0
32.3203125,-103.02734375,-34.1796875,-42.96875,-30.76171875,51.26953125,0.0
32.32421875,-76.66015625,-28.80859375,-50.29296875,-34.66796875,112.79296875,0.0
32.328125,-85.9375,-23.4375,-15.625,-36.62109375,34.66796875,0.0
32.33203125,-149.4140625,-31.73828125,-5.37109375,-55.6640625,-33.69140625,0.0
32.3359375,-183.10546875,-42.48046875,-24.4140625,-51.7578125,-11.23046875,0.0
32.33984375,-140.625,-32.2265625,-20.01953125,-32.71484375,1.953125,0.0
32.34375,-99.12109375,-26.3671875,-18.06640625,-41.015625,51.7578125,0.0
32.34765625,-106.4453125,-28.80859375,-31.25,-62.01171875,113.76953125,0.0
32.3515625,-140.13671875,-33.203125,-32.71484375,-68.84765625,38.0859375,0.0
32.35546875,-158.69140625,-31.73828125,-29.296875,-43.45703125,-15.625,0.0
32.359375,-137.20703125,-30.76171875,-21.484375,-32.71484375,-1.46484375,0.0
32.36328125,-94.23828125,-39.0625,-17.578125,-25.390625,-65.4296875,0.0
32.3671875,-95.703125,-44.921875,-32.2265625,-30.76171875,-124.51171875,0.0
32.37109375,-133.7890625,-37.59765625,-12.20703125,-47.36328125,-39.55078125,0.0
32.375,-156.25,-33.203125,13.671875,-41.9921875,-66.40625,0.0
32.37890625,-134.27734375,-40.0390625,18.5546875,-33.203125,-104.98046875,0.0
32.3828125,-88.8671875,-36.62109375,27.83203125,-25.87890625,-34.1796875,0.0
32.38671875,-70.80078125,-29.296875,20.01953125,-25.87890625,5.859375,0.0
32.390625,-96.19140625,-35.64453125,-3.41796875,-35.15625,-49.8046875,0.0
32.39453125,-113.76953125,-45.41015625,-14.16015625,-35.15625,-60.05859375,0.0
32.3984375,-91.30859375,-30.2734375,-6.8359375,-24.4140625,7.32421875,0.0
32.40234375,-58.10546875,-23.4375,-20.01953125,-22.94921875,1.953125,0.0
32.40625,-38.57421875,-34.1796875,-1.46484375,-26.85546875,-37.59765625,0.0
32.41015625,-77.1484375,-36.62109375,12.6953125,-40.0390625,-101.07421875,0.0
32.4140625,-118.65234375,-33.203125,-6.34765625,-42.48046875,-110.3515625,0.0
32.41796875,-105.46875,-33.203125,-13.671875,-38.0859375,-94.23828125,0.0
32.421875,-64.453125,-33.69140625,-6.8359375,-31.73828125,-60.546875,0.0
32.42578125,-45.41015625,-33.69140625,-0.9765625,-35.15625,10.25390625,0.0
32.4296875,-66.89453125,-30.76171875,4.39453125,-35.15625,-13.671875,0.0
32.43359375,-102.5390625,-37.59765625,-1.953125,-35.15625,-94.23828125,0.0
32.4375,-102.05078125,-36.1328125,-26.3671875,-23.92578125,35.15625,0.0
32.44140625,-64.453125,-30.2734375,-22.94921875,-15.625,92.7734375,0.0
32.4453125,-35.64453125,-35.15625,-6.8359375,-40.52734375,34.1796875,0.0
32.44921875,-52.24609375,-34.66796875,-1.46484375,-42.48046875,62.5,0.0
32.453125,-92.7734375,-40.52734375,-5.37109375,-33.69140625,68.84765625,0.0
32.45703125,-82.03125,-50.78125,-9.765625,-33.203125,62.5,0.0
32.4609375,-36.62109375,-46.38671875,-8.30078125,-30.2734375,92.7734375,0.0
32.46484375,-16.11328125,-39.55078125,-23.92578125,-37.109375,41.015625,0.0
32.46875,-40.0390625,-46.38671875,-32.71484375,-49.31640625,1.953125,0.0
32.47265625,-95.703125,-57.12890625,-54.19921875,-56.15234375,-24.4140625,0.0
32.4765625,-104.4921875,-53.7109375,-71.2890625,-31.25,-58.10546875,0.0
32.48046875,-51.26953125,-39.55078125,-40.0390625,-5.859375,-88.37890625,0.0
32.484375,-20.5078125,-25.390625,-22.94921875,-11.23046875,-36.1328125,0.0
32.48828125,-45.41015625,-25.87890625,-44.43359375,-30.2734375,42.48046875,0.0
32.4921875,-83.984375,-32.2265625,-47.8515625,-43.9453125,82.03125,0.0
32.49609375,-94.7265625,-32.2265625,-58.10546875,-17.08984375,3.90625,0.0
32.5,-63.96484375,-35.64453125,-61.03515625,-19.04296875,-44.43359375,0.0
32.50390625,-35.64453125,-44.921875,-39.55078125,-39.0625,73.73046875,0.0
32.5078125,-36.62109375,-28.80859375,-26.3671875,-34.1796875,67.3828125,0.0
32.51171875,-81.0546875,-28.80859375,-40.52734375,-38.57421875,85.9375,0.0
32.515625,-101.07421875,-41.50390625,-59.5703125,-27.34375,156.73828125,0.0
32.51953125,-65.91796875,-34.66796875,-37.59765625,-15.625,112.3046875,0.0
32.5234375,-48.33984375,-44.921875,-16.6015625,-24.90234375,17.578125,0.0
32.52734375,-32.71484375,-42.96875,-27.83203125,-24.4140625,-4.8828125,0.0
32.53125,-68.359375,-32.2265625,-42.48046875,-30.76171875,8.7890625,0.0
32.53515625,-121.58203125,-47.36328125,-65.4296875,-43.45703125,-45.41015625,0.0
32.5390625,-81.0546875,-43.45703125,-68.84765625,-28.3203125,-146.97265625,0.0
32.54296875,-34.66796875,-20.01953125,-32.71484375,-19.53125,-87.890625,0.0
32.546875,-37.59765625,-22.4609375,-25.390625,-28.3203125,-30.2734375,0.0
32.55078125,-66.89453125,-32.2265625,-49.31640625,-24.90234375,-10.7421875,0.0
32.5546875,-84.47265625,-15.625,-36.62109375,-21.484375,28.3203125,0.0
32.55859375,-72.265625,-20.5078125,-13.18359375,-3.90625,-63.96484375,0.0
32.5625,-38.57421875,-41.015625,-8.7890625,2.44140625,-93.26171875,0.0
32.56640625,-35.64453125,-47.8515625,-20.5078125,-30.2734375,29.296875,0.0
32.5703125,-67.3828125,-38.57421875,-32.2265625,-55.17578125,-34.1796875,0.0
32.57421875,-79.58984375,-28.3203125,-33.69140625,-30.76171875,-130.37109375,0.0
32.578125,-76.171875,-38.0859375,-23.4375,-18.06640625,-106.4453125,0.0
32.58203125,-59.5703125,-47.36328125,-6.34765625,-39.0625,-61.03515625,0.0
32.5859375,-23.92578125,-38.57421875,4.39453125,-34.66796875,-113.76953125,0.0
32.58984375,-40.0390625,-49.31640625,2.9296875,-43.45703125,-126.46484375,0.0
32.59375,-88.37890625,-43.9453125,-17.08984375,-51.26953125,-80.078125,0.0
32.59765625,-88.8671875,-42.96875,-21.484375,-50.29296875,-52.734375,0.0
32.6015625,-34.66796875,-33.69140625,12.6953125,-47.36328125,-37.59765625,0.0
32.60546875,2.44140625,-16.6015625,24.90234375,-39.0625,-47.8515625,0.0
32.609375,-23.92578125,-28.3203125,4.39453125,-52.734375,-3.90625,0.0
32.61328125,-61.5234375,-39.55078125,-19.53125,-59.08203125,-10.25390625,0.0
32.6171875,-60.05859375,-40.0390625,-15.625,-41.50390625,3.90625,0.0
32.62109375,-32.2265625,-34.66796875,-5.37109375,-30.2734375,67.3828125,0.0
32.625,0.9765625,-34.66796875,-2.9296875,-44.43359375,30.76171875,0.0
32.62890625,-10.25390625,-30.76171875,16.6015625,-60.546875,45.8984375,0.0
32.6328125,-53.22265625,-24.90234375,15.13671875,-55.17578125,71.77734375,0.0
32.63671875,-74.70703125,-33.69140625,-1.46484375,-61.5234375,-1.46484375,0.0
32.640625,-42.96875,-45.8984375,-12.6953125,-53.7109375,-0.48828125,0.0
32.64453125,4.39453125,-40.0390625,-19.04296875,-47.8515625,15.13671875,0.0
32.6484375,-12.6953125,-25.87890625,-17.08984375,-71.77734375,-79.58984375,0.0
32.65234375,-59.08203125,-28.3203125,-34.66796875,-64.453125,-66.89453125,0.0
32.65625,-66.40625,-42.96875,-42.96875,-57.12890625,-26.85546875,0.0
32.66015625,-27.83203125,-43.9453125,-26.85546875,-45.8984375,-45.8984375,0.0
32.6640625,-6.8359375,-36.1328125,-19.53125,-52.24609375,20.99609375,0.0
32.66796875,-26.3671875,-34.66796875,-58.59375,-67.3828125,45.8984375,0.0
32.671875,-58.59375,-38.0859375,-99.12109375,-74.70703125,-26.3671875,0.0
32.67578125,-78.125,-46.38671875,-75.68359375,-71.77734375,-96.6796875,0.0
32.6796875,-56.640625,-40.52734375,-36.62109375,-62.98828125,-104.4921875,0.0
32.68359375,-12.20703125,-31.73828125,-38.0859375,-65.91796875,-79.1015625,0.0
32.6875,-14.6484375,-35.15625,-55.17578125,-71.77734375,-59.5703125,0.0
32.69140625,-65.4296875,-50.78125,-35.64453125,-86.9140625,-30.76171875,0.0
32.6953125,-79.1015625,-46.38671875,-11.71875,-81.54296875,-65.4296875,0.0
32.69921875,-41.015625,-30.76171875,-12.6953125,-62.98828125,-75.68359375,0.0
32.703125,2.44140625,-30.76171875,-16.6015625,-47.8515625,-5.37109375,0.0
32.70703125,-1.953125,-35.64453125,-21.484375,-57.6171875,39.55078125,0.0
32.7109375,-49.31640625,-39.0625,-20.01953125,-67.3828125,3.41796875,0.0
32.71484375,-75.68359375,-42.48046875,-11.23046875,-60.546875,-47.8515625,0.0
32.71875,-62.5,-41.50390625,-11.71875,-55.17578125,-83.49609375,0.0
32.72265625,-16.6015625,-38.57421875,-5.859375,-60.546875,-87.890625,0.0
32.7265625,-2.44140625,-30.2734375,-8.30078125,-59.08203125,-49.8046875,0.0
32.73046875,-46.38671875,-27.83203125,-21.484375,-53.7109375,-44.43359375,0.0
32.734375,-80.56640625,-43.45703125,-34.1796875,-53.22265625,-104.4921875,0.0
32.73828125,-50.78125,-43.45703125,-38.0859375,-42.48046875,-91.30859375,0.0
32.7421875,-11.23046875,-39.0625,-36.62109375,-45.8984375,-93.75,0.0
32.74609375,3.41796875,-20.5078125,-25.87890625,-52.24609375,-95.21484375,0.0
32.75,-21.97265625,-3.41796875,-31.73828125,-47.8515625,8.30078125,0.0
32.75390625,-65.91796875,-23.92578125,-49.8046875,-56.640625,-16.11328125,0.0
32.7578125,-51.7578125,-41.50390625,-20.99609375,-44.43359375,-79.1015625,0.0
32.76171875,-17.08984375,-37.59765625,-12.20703125,-29.296875,-28.3203125,0.0
32.765625,0.48828125,-26.3671875,-19.53125,-36.62109375,-5.859375,0.0
32.76953125,-20.99609375,-29.296875,-22.4609375,-52.24609375,-22.94921875,0.0
32.7734375,-56.15234375,-35.15625,-23.92578125,-55.6640625,23.4375,0.0
32.77734375,-55.6640625,-36.1328125,-26.85546875,-40.0390625,18.5546875,0.0
32.78125,-10.7421875,-31.73828125,-18.06640625,-40.0390625,41.50390625,0.0
32.78515625,31.25,-21.484375,-18.5546875,-29.78515625,96.19140625,0.0
32.7890625,11.23046875,-7.32421875,-20.99609375,-35.15625,69.3359375,0.0
32.79296875,-36.1328125,-10.25390625,-21.97265625,-42.48046875,-4.8828125,0.0
32.796875,-50.29296875,-22.4609375,-44.43359375,-30.76171875,6.34765625,0.0
32.80078125,-10.7421875,-35.64453125,-44.43359375,-24.90234375,94.23828125,0.0
32.8046875,19.04296875,-40.52734375,-17.08984375,-38.0859375,72.75390625,0.0
32.80859375,0.0,-30.2734375,-9.765625,-34.1796875,-60.05859375,0.0
32.8125,-57.6171875,-36.1328125,-16.6015625,-32.71484375,-118.1640625,0.0
32.81640625,-73.2421875,-45.41015625,-23.4375,-35.64453125,-55.6640625,0.0
32.8203125,-34.66796875,-47.8515625,-17.08984375,-31.25,-59.5703125,0.0
32.82421875,2.9296875,-41.015625,1.953125,-31.73828125,-66.89453125,0.0
32.828125,-21.484375,-39.55078125,-11.71875,-42.48046875,2.44140625,0.0
32.83203125,-63.4765625,-47.36328125,-51.26953125,-47.8515625,21.484375,0.0
32.8359375,-63.4765625,-35.64453125,-46.875,-53.22265625,-32.2265625,0.0
32.83984375,-48.828125,-22.94921875,-29.78515625,-44.921875,-67.87109375,0.0
32.84375,-22.94921875,-34.66796875,-41.015625,-43.45703125,-8.7890625,0.0
32.84765625,-23.4375,-41.9921875,-43.45703125,-55.6640625,37.59765625,0.0
32.8515625,-66.89453125,-42.96875,-24.90234375,-57.12890625,45.41015625,0.0
32.85546875,-96.19140625,-36.62109375,-8.7890625,-59.08203125,112.3046875,0.0
32.859375,-58.10546875,-37.59765625,-21.97265625,-36.1328125,92.7734375,0.0
32.86328125,-27.34375,-46.38671875,-25.87890625,-43.45703125,-20.5078125,0.0
32.8671875,-22.94921875,-34.66796875,-18.06640625,-61.5234375,-64.94140625,0.0
32.87109375,-47.8515625,-37.109375,-35.64453125,-62.01171875,-63.4765625,0.0
32.875,-91.30859375,-57.12890625,-52.24609375,-70.3125,-65.4296875,0.0
32.87890625,-80.078125,-62.01171875,-55.17578125,-62.98828125,-42.96875,0.0
32.8828125,-14.6484375,-43.9453125,-49.31640625,-53.7109375,-51.7578125,0.0
32.88671875,3.90625,-32.2265625,-38.57421875,-60.05859375,-38.0859375,0.0
32.890625,-52.734375,-46.38671875,-47.36328125,-70.80078125,16.6015625,0.0
32.89453125,-78.61328125,-53.22265625,-62.01171875,-58.10546875,-29.296875,0.0
32.8984375,-62.01171875,-55.6640625,-48.33984375,-48.33984375,-120.60546875,0.0
32.90234375,-17.08984375,-46.38671875,-31.73828125,-43.45703125,-90.33203125,0.0
32.90625,14.16015625,-41.015625,-18.5546875,-43.45703125,-41.9921875,0.0
32.91015625,-31.25,-40.0390625,-20.5078125,-62.98828125,-24.4140625,0.0
32.9140625,-76.66015625,-40.52734375,-27.83203125,-59.5703125,-101.07421875,0.0
32.91796875,-66.89453125,-42.96875,-21.97265625,-49.8046875,-184.5703125,0.0
32.921875,-18.5546875,-34.66796875,-1.953125,-34.1796875,-137.20703125,0.0
32.92578125,0.0,-29.296875,11.23046875,-28.3203125,-80.078125,0.0
32.9296875,-35.15625,-20.99609375,0.0,-49.8046875,-50.29296875,0.0
32.93359375,-65.4296875,-22.4609375,-23.4375,-58.10546875,-44.43359375,0.0
32.9375,-63.4765625,-41.015625,-35.64453125,-48.828125,-107.91015625,0.0
32.94140625,-26.85546875,-46.38671875,-31.73828125,-43.9453125,-135.25390625,0.0
32.9453125,2.9296875,-41.9921875,-14.16015625,-52.734375,-73.73046875,0.0
32.94921875,-13.671875,-37.59765625,-2.9296875,-51.7578125,-20.99609375,0.0
32.953125,-50.78125,-45.41015625,-13.671875,-45.8984375,2.9296875,0.0
32.95703125,-55.17578125,-54.19921875,-28.80859375,-49.8046875,-76.66015625,0.0
32.9609375,-6.34765625,-34.66796875,-11.71875,-52.734375,-117.1875,0.0
32.96484375,36.62109375,-17.578125,11.23046875,-23.4375,-29.296875,0.0
32.96875,0.0,-26.3671875,-8.7890625,-28.80859375,-25.390625,0.0
32.97265625,-60.546875,-42.96875,-42.48046875,-49.8046875,-14.6484375,0.0
32.9765625,-62.01171875,-35.15625,-33.69140625,-30.2734375,47.8515625,0.0
32.98046875,-33.203125,-39.55078125,-27.83203125,-27.83203125,10.7421875,0.0
32.984375,-6.8359375,-46.38671875,-29.296875,-42.96875,20.5078125,0.0
32.98828125,-26.85546875,-43.9453125,-39.55078125,-49.31640625,30.76171875,0.0
32.9921875,-69.82421875,-43.45703125,-47.8515625,-51.7578125,50.78125,0.0
32.99609375,-83.0078125,-40.52734375,-30.76171875,-52.734375,76.66015625,0.0
33.0,-44.43359375,-41.9921875,-18.06640625,-29.78515625,29.78515625,0.0
33.00390625,3.90625,-38.57421875,-11.23046875,-22.4609375,-34.1796875,0.0
33.0078125,10.25390625,-30.2734375,-15.625,-39.55078125,-14.6484375,0.0
33.01171875,-31.25,-34.66796875,-52.24609375,-43.9453125,29.78515625,0.0
33.015625,-70.80078125,-38.57421875,-73.2421875,-41.9921875,33.203125,0.0
33.01953125,-53.7109375,-36.62109375,-58.10546875,-45.8984375,-21.484375,0.0
33.0234375,-8.7890625,-31.25,-51.7578125,-43.45703125,-125.9765625,0.0
33.02734375,3.90625,-25.87890625,-49.31640625,-51.7578125,-109.86328125,0.0
33.03125,-36.62109375,-38.57421875,-43.45703125,-52.24609375,13.18359375,0.0
33.03515625,-64.453125,-47.8515625,-42.96875,-45.41015625,1.46484375,0.0
33.0390625,-36.62109375,-42.96875,-37.109375,-50.29296875,26.85546875,0.0
33.04296875,0.9765625,-41.9921875,-31.25,-54.6875,73.73046875,0.0
33.046875,-1.953125,-41.015625,-25.390625,-58.59375,-2.44140625,0.0
33.05078125,-41.50390625,-41.9921875,-30.76171875,-57.6171875,-111.81640625,0.0
33.0546875,-63.96484375,-44.921875,-33.69140625,-46.875,-171.38671875,0.0
33.05859375,-45.41015625,-49.31640625,-19.53125,-38.57421875,-192.87109375,0.0
33.0625,-18.5546875,-52.734375,-31.73828125,-51.7578125,-238.28125,0.0
33.06640625,-14.6484375,-46.38671875,-45.41015625,-57.6171875,-288.0859375,0.0
33.0703125,-41.9921875,-35.15625,-60.546875,-60.546875,-283.203125,0.0
33.07421875,-68.84765625,-40.0390625,-64.94140625,-73.73046875,-242.67578125,0.0
33.078125,-48.828125,-45.41015625,-49.31640625,-46.875,-168.45703125,0.0
33.08203125,-12.6953125,-45.8984375,-42.48046875,-33.69140625,-90.33203125,0.0
33.0859375,0.48828125,-53.22265625,-51.7578125,-57.12890625,19.04296875,0.0
33.08984375,-20.5078125,-42.96875,-58.59375,-46.875,-29.78515625,0.0
33.09375,-53.7109375,-41.9921875,-47.8515625,-46.875,-181.15234375,0.0
33.09765625,-53.7109375,-64.94140625,-48.33984375,-43.45703125,-180.17578125,0.0
33.1015625,10.7421875,-34.66796875,-18.5546875,-12.6953125,-44.921875,0.0
33.10546875,33.69140625,-10.7421875,-12.6953125,-25.390625,43.9453125,0.0
33.109375,-14.16015625,-36.1328125,-55.17578125,-62.01171875,-0.48828125,0.0
33.11328125,-34.66796875,-46.38671875,-69.82421875,-58.10546875,-19.53125,0.0
33.1171875,-25.87890625,-37.59765625,-47.36328125,-59.5703125,-7.32421875,0.0
33.12109375,11.71875,-31.73828125,-20.99609375,-56.640625,49.8046875,0.0
33.125,57.12890625,-34.66796875,-20.01953125,-33.69140625,86.9140625,0.0
33.12890625,33.203125,-41.015625,-22.4609375,-40.0390625,78.125,0.0
33.1328125,-18.5546875,-45.8984375,-44.43359375,-58.59375,122.0703125,0.0
33.13671875,-23.4375,-46.875,-45.41015625,-45.8984375,104.4921875,0.0
33.140625,19.53125,-35.64453125,-30.2734375,-37.109375,40.0390625,0.0
33.14453125,43.45703125,-26.3671875,-26.85546875,-48.828125,47.8515625,0.0
33.1484375,2.44140625,-21.484375,-25.390625,-60.546875,132.8125,0.0
33.15234375,-64.453125,-33.69140625,-36.62109375,-69.82421875,145.01953125,0.0
33.15625,-70.3125,-43.9453125,-45.41015625,-53.22265625,66.89453125,0.0
33.16015625,-40.0390625,-48.33984375,-46.875,-55.6640625,123.046875,0.0
33.1640625,14.6484375,-37.109375,-38.0859375,-61.03515625,102.5390625,0.0
33.16796875,41.50390625,-24.90234375,-32.2265625,-41.50390625,14.6484375,0.0
33.171875,0.0,-34.66796875,-31.73828125,-35.64453125,40.52734375,0.0
33.17578125,-26.3671875,-53.7109375,-45.8984375,-40.0390625,14.6484375,0.0
33.1796875,9.27734375,-51.7578125,-42.48046875,-41.9921875,-12.6953125,0.0
33.18359375,62.01171875,-37.109375,-41.015625,-37.59765625,12.6953125,0.0
33.1875,62.98828125,-33.203125,-43.9453125,-45.8984375,29.296875,0.0
33.19140625,14.16015625,-46.875,-62.98828125,-62.5,15.13671875,0.0
33.1953125,-24.90234375,-54.19921875,-95.703125,-53.7109375,21.484375,0.0
33.19921875,-2.44140625,-41.9921875,-89.84375,-39.55078125,20.01953125,0.0
33.203125,44.921875,-51.26953125,-84.9609375,-54.19921875,3.41796875,0.0
33.20703125,45.8984375,-57.6171875,-93.75,-63.96484375,85.44921875,0.0
33.2109375,0.9765625,-39.55078125,-74.21875,-75.1953125,-1.46484375,0.0
33.21484375,-45.8984375,-40.0390625,-56.640625,-61.5234375,-76.66015625,0.0
33.21875,-30.2734375,-43.9453125,-53.7109375,-37.59765625,8.7890625,0.0
33.22265625,2.44140625,-47.36328125,-41.9921875,-43.9453125,-33.203125,0.0
33.2265625,11.71875,-49.8046875,-26.3671875,-60.05859375,-92.7734375,0.0
33.23046875,-25.87890625,-44.43359375,-56.640625,-58.10546875,-86.42578125,0.0
33.234375,-56.15234375,-43.45703125,-76.171875,-48.828125,-99.609375,0.0
33.23828125,-45.41015625,-44.921875,-54.6875,-60.546875,-81.0546875,0.0
33.2421875,-6.8359375,-32.2265625,-28.3203125,-60.546875,-80.56640625,0.0
33.24609375,2.44140625,-25.87890625,-18.5546875,-60.05859375,-69.82421875,0.0
33.25,-71.2890625,-47.8515625,-46.875,-80.56640625,-132.32421875,0.0
33.25390625,-114.74609375,-54.6875,-63.96484375,-74.70703125,-183.59375,0.0
33.2578125,-87.890625,-35.15625,-73.73046875,-56.640625,-102.5390625,0.0
33.26171875,-67.3828125,-35.15625,-49.31640625,-48.828125,-66.89453125,0.0
33.265625,-47.8515625,-45.41015625,1.953125,-49.8046875,-19.04296875,0.0
33.26953125,-81.0546875,-50.78125,-20.99609375,-64.94140625,63.4765625,0.0
33.2734375,-123.53515625,-46.875,-55.17578125,-56.640625,42.48046875,0.0
33.27734375,-117.67578125,-45.41015625,-40.52734375,-31.73828125,11.71875,0.0
33.28125,-83.984375,-45.41015625,-11.23046875,-30.2734375,10.7421875,0.0
33.28515625,-54.19921875,-37.59765625,-10.25390625,-47.36328125,35.15625,0.0
33.2890625,-74.21875,-35.15625,-25.390625,-45.8984375,22.94921875,0.0
33.29296875,-114.2578125,-39.55078125,-22.94921875,-37.59765625,-25.87890625,0.0
33.296875,-121.09375,-44.43359375,-15.13671875,-50.78125,-32.2265625,0.0
33.30078125,-89.35546875,-49.31640625,-6.8359375,-50.29296875,-16.6015625,0.0
33.3046875,-47.8515625,-38.57421875,3.41796875,-39.55078125,38.57421875,0.0
33.30859375,-65.4296875,-25.390625,-9.27734375,-48.828125,0.48828125,0.0
33.3125,-129.8828125,-54.19921875,-49.8046875,-56.15234375,-84.9609375,0.0
33.31640625,-133.7890625,-66.40625,-61.5234375,-43.9453125,-94.23828125,0.0
33.3203125,-73.2421875,-45.8984375,-46.875,-21.97265625,-80.078125,0.0
33.32421875,-31.25,-36.62109375,-33.203125,-22.4609375,-13.18359375,0.0
33.328125,-45.8984375,-46.38671875,-26.3671875,-39.0625,-22.94921875,0.0
33.33203125,-92.28515625,-45.41015625,-36.62109375,-41.9921875,-52.24609375,0.0
33.3359375,-121.58203125,-38.57421875,-34.66796875,-30.76171875,-42.48046875,0.0
33.33984375,-92.28515625,-43.9453125,-11.23046875,-17.578125,-6.34765625,0.0
33.34375,-51.26953125,-42.48046875,3.41796875,-20.5078125,-29.296875,0.0
33.34765625,-54.19921875,-34.1796875,-4.8828125,-31.73828125,-112.3046875,0.0
33.3515625,-73.73046875,-24.4140625,-26.3671875,-24.4140625,-63.4765625,0.0
33.35546875,-107.91015625,-33.203125,-44.921875,-32.2265625,-33.69140625,0.0
33.359375,-91.30859375,-44.921875,-33.203125,-45.41015625,-35.64453125,0.0
33.36328125,-25.390625,-37.59765625,-3.41796875,-25.390625,-13.18359375,0.0
33.3671875,-26.85546875,-21.484375,-14.16015625,-25.87890625,-12.6953125,0.0
33.37109375,-74.21875,-37.109375,-38.57421875,-44.43359375,-75.1953125,0.0
33.375,-99.12109375,-41.9921875,-12.20703125,-38.0859375,-51.7578125,0.0
33.37890625,-64.453125,-33.203125,11.71875,-25.87890625,-22.4609375,0.0
33.3828125,-23.92578125,-36.62109375,1.46484375,-24.4140625,-71.2890625,0.0
33.38671875,-17.578125,-35.15625,-8.30078125,-29.78515625,-20.01953125,0.0
33.390625,-53.7109375,-32.71484375,-13.18359375,-33.203125,120.60546875,0.0
33.39453125,-104.4921875,-39.0625,-23.4375,-26.85546875,115.72265625,0.0
33.3984375,-80.078125,-41.9921875,-17.08984375,-14.6484375,8.7890625,0.0
33.40234375,-36.62109375,-34.1796875,-4.39453125,-13.18359375,-36.62109375,0.0
33.40625,-25.87890625,-20.01953125,-17.578125,-11.71875,34.66796875,0.0
33.41015625,-45.8984375,-15.625,-22.94921875,-19.04296875,77.1484375,0.0
33.4140625,-72.75390625,-27.83203125,-9.27734375,-16.6015625,-73.2421875,0.0
33.41796875,-66.89453125,-38.0859375,-1.953125,-3.90625,-102.05078125,0.0
33.421875,-37.59765625,-38.0859375,-2.44140625,-9.765625,33.203125,0.0
33.42578125,-6.34765625,-40.0390625,-9.27734375,-20.99609375,72.265625,0.0
33.4296875,-33.69140625,-31.73828125,-7.8125,-26.3671875,3.41796875,0.0
33.43359375,-93.75,-34.66796875,-24.4140625,-28.3203125,36.62109375,0.0
33.4375,-86.42578125,-43.9453125,-32.71484375,-22.94921875,-20.99609375,0.0
33.44140625,-48.828125,-42.96875,-10.25390625,-24.90234375,-82.51953125,0.0
33.4453125,-21.97265625,-34.1796875,-0.9765625,-27.34375,-41.9921875,0.0
33.44921875,-33.203125,-24.90234375,-16.11328125,-14.16015625,-81.0546875,0.0
33.453125,-70.3125,-33.203125,-57.6171875,-11.23046875,-126.46484375,0.0
33.45703125,-80.56640625,-49.31640625,-48.828125,-10.25390625,-139.6484375,0.0
33.4609375,-60.546875,-57.6171875,-12.20703125,-23.4375,-87.890625,0.0
33.46484375,-30.76171875,-41.015625,4.39453125,-46.38671875,-67.3828125,0.0
33.46875,-47.36328125,-30.2734375,11.23046875,-53.7109375,-84.47265625,0.0
33.47265625,-87.40234375,-47.8515625,-17.08984375,-48.33984375,-27.34375,0.0
33.4765625,-92.28515625,-47.8515625,-22.4609375,-35.15625,17.578125,0.0
33.48046875,-63.4765625,-44.921875,-11.23046875,-24.90234375,-53.7109375,0.0
33.484375,-27.34375,-43.9453125,-13.671875,-20.5078125,-41.9921875,0.0
33.48828125,-32.71484375,-40.0390625,-22.94921875,-47.8515625,-27.83203125,0.0
33.4921875,-76.66015625,-35.64453125,-45.41015625,-53.22265625,-99.12109375,0.0
33.49609375,-91.30859375,-37.109375,-66.40625,-39.55078125,-98.6328125,0.0
33.5,-48.33984375,-45.41015625,-52.24609375,-33.203125,-106.4453125,0.0
33.50390625,-8.30078125,-47.36328125,-14.6484375,-28.3203125,-99.12109375,0.0
33.5078125,-17.08984375,-36.1328125,-7.32421875,-40.52734375,-34.1796875,0.0
33.51171875,-56.640625,-31.25,-29.78515625,-45.8984375,20.99609375,0.0
33.515625,-70.3125,-40.52734375,-43.45703125,-35.15625,19.04296875,0.0
33.51953125,-32.71484375,-48.828125,-37.59765625,-31.73828125,-71.77734375,0.0
33.5234375,12.6953125,-30.76171875,-29.296875,-26.85546875,-159.66796875,0.0
33.52734375,4.8828125,-19.04296875,-30.2734375,-24.90234375,-117.1875,0.0
33.53125,-33.203125,-25.87890625,-19.04296875,-28.3203125,-57.12890625,0.0
33.53515625,-67.3828125,-34.66796875,-26.3671875,-45.41015625,-74.21875,0.0
33.5390625,-53.7109375,-34.66796875,-34.1796875,-47.36328125,-101.07421875,0.0
33.54296875,5.859375,-20.5078125,-28.3203125,-32.71484375,-79.58984375,0.0
33.546875,14.6484375,-26.85546875,-36.62109375,-32.2265625,-11.23046875,0.0
33.55078125,-38.0859375,-40.0390625,-70.80078125,-55.6640625,17.578125,0.0
33.5546875,-61.03515625,-39.55078125,-94.23828125,-57.12890625,40.52734375,0.0
33.55859375,-46.875,-40.0390625,-70.3125,-43.45703125,66.40625,0.0
33.5625,-0.48828125,-38.0859375,-24.90234375,-37.109375,61.5234375,0.0
33.56640625,24.4140625,-33.203125,-27.83203125,-30.76171875,41.015625,0.0
33.5703125,-26.85546875,-38.57421875,-60.05859375,-53.22265625,28.80859375,0.0
33.57421875,-75.68359375,-39.55078125,-70.80078125,-60.05859375,-28.3203125,0.0
33.578125,-60.05859375,-30.76171875,-59.08203125,-41.50390625,-1.953125,0.0
33.58203125,-14.6484375,-38.0859375,-37.109375,-45.41015625,75.1953125,0.0
33.5859375,14.6484375,-23.4375,-32.71484375,-33.69140625,-1.46484375,0.0
33.58984375,-17.08984375,-12.6953125,-52.734375,-34.66796875,-70.80078125,0.0
33.59375,-72.265625,-41.015625,-75.1953125,-60.546875,-82.51953125,0.0
33.59765625,-76.66015625,-51.7578125,-70.3125,-53.7109375,-53.7109375,0.0
33.6015625,-35.64453125,-43.9453125,-54.19921875,-34.66796875,-85.9375,0.0
33.60546875,3.90625,-26.85546875,-36.1328125,-32.71484375,-86.9140625,0.0
33.609375,-23.92578125,-21.484375,-24.4140625,-43.45703125,-17.578125,0.0
33.61328125,-81.54296875,-48.33984375,-37.59765625,-66.40625,-10.7421875,0.0
33.6171875,-72.75390625,-54.19921875,-45.41015625,-45.8984375,-62.01171875,0.0
33.62109375,-26.85546875,-35.64453125,-23.92578125,-24.90234375,-41.50390625,0.0
33.625,0.48828125,-29.78515625,4.39453125,-34.66796875,47.8515625,0.0
33.62890625,-21.484375,-37.59765625,-2.44140625,-44.921875,47.8515625,0.0
33.6328125,-63.4765625,-29.296875,-14.6484375,-53.7109375,29.78515625,0.0
33.63671875,-54.19921875,-30.2734375,-5.859375,-34.1796875,-24.90234375,0.0
33.640625,-14.16015625,-36.62109375,1.953125,-22.4609375,-3.41796875,0.0
33.64453125,12.6953125,-40.0390625,0.9765625,-34.1796875,8.30078125,0.0
33.6484375,-14.16015625,-38.0859375,-20.5078125,-45.8984375,-63.4765625,0.0
33.65234375,-63.4765625,-38.0859375,-34.66796875,-57.6171875,-33.69140625,0.0
33.65625,-79.58984375,-44.43359375,-41.50390625,-51.26953125,5.37109375,0.0
33.66015625,-53.7109375,-49.8046875,-43.9453125,-31.25,-61.03515625,0.0
33.6640625,-3.90625,-40.0390625,-19.04296875,-26.3671875,-26.85546875,0.0
33.66796875,-6.8359375,-29.296875,-10.25390625,-38.0859375,23.92578125,0.0
33.671875,-55.6640625,-37.109375,-35.15625,-48.828125,-8.30078125,0.0
33.67578125,-60.05859375,-43.45703125,-45.8984375,-25.390625,-73.2421875,0.0
33.6796875,-19.04296875,-32.71484375,-26.3671875,-8.7890625,-114.2578125,0.0
33.68359375,-3.41796875,-39.0625,-29.78515625,-33.69140625,-106.93359375,0.0
33.6875,2.44140625,-45.8984375,-33.69140625,-48.828125,-7.8125,0.0
33.69140625,-38.0859375,-42.48046875,-43.45703125,-57.12890625,-19.04296875,0.0
33.6953125,-73.73046875,-55.17578125,-49.31640625,-50.78125,-96.19140625,0.0
33.69921875,-52.24609375,-54.19921875,-22.4609375,-29.296875,-101.07421875,0.0
33.703125,-15.13671875,-42.48046875,4.39453125,-36.62109375,-120.60546875,0.0
33.70703125,4.8828125,-29.296875,14.6484375,-47.8515625,-97.65625,0.0
33.7109375,-38.0859375,-23.92578125,-14.6484375,-57.6171875,-52.734375,0.0
33.71484375,-92.28515625,-48.828125,-38.0859375,-58.10546875,-18.5546875,0.0
33.71875,-67.87109375,-54.19921875,-27.83203125,-37.109375,60.05859375,0.0
33.72265625,-17.08984375,-47.8515625,-14.6484375,-28.80859375,70.3125,0.0
33.7265625,18.5546875,-32.2265625,-4.39453125,-41.015625,55.17578125,0.0
33.73046875,-23.4375,-30.2734375,-24.4140625,-47.8515625,95.703125,0.0
33.734375,-78.125,-52.24609375,-48.33984375,-50.29296875,19.53125,0.0
33.73828125,-48.33984375,-58.59375,-41.9921875,-43.9453125,-73.2421875,0.0
33.7421875,17.578125,-48.828125,-21.97265625,-22.94921875,-117.1875,0.0
33.74609375,30.2734375,-44.921875,-20.99609375,-29.78515625,-42.48046875,0.0
33.75,-15.13671875,-51.7578125,-39.55078125,-39.55078125,-17.08984375,0.0
33.75390625,-61.03515625,-48.33984375,-62.5,-28.3203125,-85.44921875,0.0
33.7578125,-58.10546875,-45.41015625,-49.31640625,-26.85546875,-65.91796875,0.0
33.76171875,-2.44140625,-38.0859375,-20.01953125,-30.2734375,-25.87890625,0.0
33.765625,20.5078125,-40.52734375,-4.39453125,-32.2265625,-32.71484375,0.0
33.76953125,-20.01953125,-48.828125,-18.5546875,-27.83203125,-12.20703125,0.0
33.7734375,-83.49609375,-36.62109375,-52.24609375,-40.0390625,14.6484375,0.0
33.77734375,-87.890625,-36.62109375,-64.94140625,-38.0859375,0.0,0.0
33.78125,-41.015625,-41.50390625,-48.828125,-32.71484375,-33.203125,0.0
33.78515625,-10.7421875,-38.0859375,-21.484375,-32.2265625,-92.28515625,0.0
33.7890625,-24.90234375,-41.50390625,-14.16015625,-30.2734375,-147.94921875,0.0
33.79296875,-76.66015625,-43.45703125,-29.78515625,-41.9921875,-132.32421875,0.0
33.796875,-96.19140625,-40.52734375,-37.59765625,-41.50390625,-43.9453125,0.0
33.80078125,-61.5234375,-39.55078125,-20.01953125,-41.015625,-11.23046875,0.0
33.8046875,-13.18359375,-35.15625,-5.859375,-20.01953125,22.94921875,0.0
33.80859375,-26.85546875,-27.83203125,-27.34375,-8.7890625,43.45703125,0.0
33.8125,-86.9140625,-40.52734375,-65.91796875,-24.90234375,46.875,0.0
33.81640625,-91.30859375,-50.29296875,-58.59375,-23.92578125,14.6484375,0.0
33.8203125,-53.7109375,-35.15625,-33.69140625,-21.484375,-4.39453125,0.0
33.82421875,-16.11328125,-37.109375,-17.08984375,-24.4140625,-33.203125,0.0
33.828125,-15.13671875,-39.55078125,-6.8359375,-26.3671875,-46.38671875,0.0
33.83203125,-66.40625,-32.2265625,-13.671875,-26.85546875,-17.578125,0.0
33.8359375,-96.6796875,-43.9453125,-24.90234375,-28.80859375,-40.52734375,0.0
33.83984375,-67.3828125,-46.875,-16.6015625,-21.484375,-30.2734375,0.0
33.84375,-19.04296875,-38.57421875,-11.71875,-19.04296875,50.29296875,0.0
33.84765625,-25.87890625,-35.64453125,-25.390625,-32.2265625,43.45703125,0.0
33.8515625,-74.70703125,-38.0859375,-36.1328125,-42.48046875,-5.37109375,0.0
33.85546875,-80.56640625,-37.109375,-38.0859375,-38.57421875,0.48828125,0.0
33.859375,-45.8984375,-35.64453125,-40.0390625,-23.4375,16.6015625,0.0
33.86328125,-18.06640625,-41.015625,-66.89453125,-20.01953125,-48.33984375,0.0
33.8671875,-20.5078125,-36.1328125,-61.03515625,-41.50390625,-47.36328125,0.0
33.87109375,-58.59375,-32.2265625,-60.05859375,-48.828125,7.8125,0.0
33.875,-94.23828125,-47.8515625,-72.265625,-39.0625,14.6484375,0.0
33.87890625,-70.3125,-50.78125,-59.5703125,-33.203125,81.0546875,0.0
33.8828125,-23.4375,-35.15625,-56.15234375,-23.4375,149.4140625,0.0
33.88671875,-13.671875,-39.55078125,-51.26953125,-34.1796875,63.96484375,0.0
33.890625,-35.64453125,-48.828125,-41.9921875,-42.96875,-41.9921875,0.0
33.89453125,-54.19921875,-36.1328125,-48.33984375,-25.390625,-6.8359375,0.0
33.8984375,-59.08203125,-21.97265625,-38.57421875,-24.90234375,94.7265625,0.0
33.90234375,-28.3203125,-25.390625,-17.08984375,-21.484375,64.453125,0.0
33.90625,8.7890625,-31.73828125,-14.6484375,-18.5546875,-11.71875,0.0
33.91015625,-43.45703125,-40.52734375,-36.1328125,-50.78125,-21.97265625,0.0
33.9140625,-93.75,-44.921875,-37.59765625,-61.5234375,-28.3203125,0.0
33.91796875,-83.0078125,-48.33984375,-41.015625,-37.59765625,-52.24609375,0.0
33.921875,-43.45703125,-54.19921875,-29.78515625,-31.25,-84.9609375,0.0
33.92578125,-14.6484375,-45.41015625,-13.671875,-36.62109375,-17.08984375,0.0
33.9296875,-56.15234375,-46.875,-34.66796875,-58.59375,10.7421875,0.0
33.93359375,-91.796875,-50.29296875,-44.43359375,-60.546875,-30.2734375,0.0
33.9375,-69.82421875,-53.22265625,-40.0390625,-34.66796875,-50.29296875,0.0
33.94140625,-28.80859375,-44.43359375,-32.2265625,-37.109375,-83.984375,0.0
33.9453125,3.41796875,-24.4140625,-12.6953125,-46.38671875,-26.3671875,0.0
33.94921875,-19.04296875,-27.34375,-13.18359375,-39.0625,0.0,0.0
33.953125,-71.2890625,-38.57421875,-24.90234375,-32.71484375,14.16015625,0.0
33.95703125,-79.58984375,-31.25,-26.85546875,-24.90234375,74.21875,0.0
33.9609375,-46.38671875,-31.25,-32.2265625,-33.69140625,54.6875,0.0
33.96484375,-14.16015625,-28.3203125,-22.4609375,-28.80859375,-14.6484375,0.0
33.96875,-32.2265625,-33.203125,-26.85546875,-38.57421875,-83.0078125,0.0
33.97265625,-102.05078125,-49.31640625,-56.640625,-63.96484375,-25.87890625,0.0
33.9765625,-105.95703125,-38.0859375,-59.5703125,-39.55078125,-6.8359375,0.0
33.98046875,-74.70703125,-35.15625,-54.19921875,-38.0859375,-110.83984375,0.0
33.984375,-63.96484375,-51.26953125,-49.8046875,-56.15234375,-67.3828125,0.0
33.98828125,-58.59375,-52.24609375,-47.36328125,-61.5234375,-59.08203125,0.0
33.9921875,-70.3125,-31.73828125,-50.29296875,-50.29296875,-162.59765625,0.0
33.99609375,-91.796875,-32.71484375,-34.66796875,-29.78515625,-112.79296875,0.0
34.0,-73.2421875,-45.41015625,-6.34765625,-28.80859375,-103.515625,0.0
34.00390625,-26.3671875,-29.296875,10.7421875,-25.87890625,-85.9375,0.0
34.0078125,-27.83203125,-19.53125,3.90625,-35.64453125,22.94921875,0.0
34.01171875,-74.70703125,-31.73828125,-19.53125,-42.48046875,14.16015625,0.0
34.015625,-109.375,-49.8046875,-13.671875,-37.109375,-107.421875,0.0
34.01953125,-79.1015625,-54.6875,-0.9765625,-36.62109375,-127.9296875,0.0
34.0234375,-20.99609375,-39.55078125,4.39453125,-32.2265625,-67.87109375,0.0
34.02734375,-24.90234375,-37.59765625,-6.34765625,-40.0390625,-33.203125,0.0
34.03125,-76.171875,-46.875,-37.59765625,-61.5234375,2.44140625,0.0
34.03515625,-105.95703125,-50.78125,-58.10546875,-57.12890625,-46.875,0.0
34.0390625,-69.82421875,-37.109375,-33.203125,-30.76171875,-117.67578125,0.0
34.04296875,-13.671875,-24.90234375,5.37109375,-29.296875,-96.6796875,0.0
34.046875,-21.484375,-33.69140625,-8.30078125,-40.0390625,-86.42578125,0.0
34.05078125,-65.4296875,-41.9921875,-29.296875,-50.78125,-44.43359375,0.0
34.0546875,-81.54296875,-31.25,-14.6484375,-40.52734375,-11.23046875,0.0
34.05859375,-72.75390625,-35.64453125,-18.06640625,-39.55078125,-99.609375,0.0
34.0625,-28.3203125,-46.38671875,-26.3671875,-39.0625,-109.375,0.0
34.06640625,-4.8828125,-51.26953125,-21.97265625,-30.2734375,-73.73046875,0.0
34.0703125,-41.50390625,-44.921875,-28.80859375,-36.62109375,-0.9765625,0.0
34.07421875,-95.21484375,-43.45703125,-41.50390625,-42.48046875,55.6640625,0.0
34.078125,-80.56640625,-47.8515625,-32.71484375,-19.53125,125.48828125,0.0
34.08203125,-42.96875,-42.48046875,-6.34765625,-17.578125,115.234375,0.0
34.0859375,-14.16015625,-23.92578125,4.39453125,-33.69140625,58.59375,0.0
34.08984375,-40.52734375,-29.296875,-16.11328125,-39.0625,-28.80859375,0.0
34.09375,-101.07421875,-49.31640625,-22.94921875,-52.24609375,-54.6875,0.0
34.09765625,-106.93359375,-50.29296875,-32.2265625,-37.109375,-11.23046875,0.0
34.1015625,-65.4296875,-39.0625,-14.6484375,-35.64453125,-4.39453125,0.0
34.10546875,-39.55078125,-34.1796875,3.41796875,-60.05859375,16.11328125,0.0
34.109375,-78.61328125,-42.96875,-19.53125,-69.82421875,-36.1328125,0.0
34.11328125,-110.3515625,-45.41015625,-38.57421875,-62.01171875,-129.39453125,0.0
34.1171875,-104.00390625,-44.921875,-22.94921875,-44.921875,-126.953125,0.0
34.12109375,-67.87109375,-42.48046875,-6.34765625,-41.015625,-19.04296875,0.0
34.125,-24.90234375,-34.66796875,-13.18359375,-48.33984375,-25.87890625,0.0
34.12890625,-46.875,-40.52734375,-32.2265625,-48.828125,-53.22265625,0.0
34.1328125,-89.84375,-44.43359375,-27.83203125,-54.6875,-28.80859375,0.0
34.13671875,-88.37890625,-43.45703125,-20.99609375,-51.7578125,-4.39453125,0.0
34.140625,-59.08203125,-41.9921875,-27.34375,-42.48046875,-19.04296875,0.0
34.14453125,-18.06640625,-30.2734375,-15.625,-35.15625,-34.66796875,0.0
34.1484375,-22.94921875,-22.94921875,3.90625,-41.50390625,17.08984375,0.0
34.15234375,-75.68359375,-35.15625,2.9296875,-40.0390625,-10.25390625,0.0
34.15625,-107.421875,-44.921875,-8.30078125,-37.59765625,-22.4609375,0.0
34.16015625,-69.82421875,-30.2734375,-11.71875,-43.9453125,45.41015625,0.0
34.1640625,-15.625,-18.5546875,7.32421875,-44.43359375,41.9921875,0.0
34.16796875,-27.83203125,-29.78515625,12.20703125,-42.96875,-23.92578125,0.0
34.171875,-63.96484375,-33.203125,-18.06640625,-43.45703125,-49.8046875,0.0
34.17578125,-79.1015625,-28.80859375,-55.6640625,-44.921875,-29.296875,0.0
34.1796875,-62.98828125,-30.2734375,-61.03515625,-44.921875,-53.22265625,0.0
34.18359375,-23.4375,-36.62109375,-33.203125,-41.50390625,-23.92578125,0.0
34.1875,-22.94921875,-36.62109375,-19.53125,-45.41015625,-51.7578125,0.0
34.19140625,-77.63671875,-45.41015625,-58.59375,-63.4765625,-85.44921875,0.0
34.1953125,-104.4921875,-49.8046875,-76.66015625,-70.3125,-47.36328125,0.0
34.19921875,-77.63671875,-41.015625,-54.19921875,-48.828125,-135.25390625,0.0
34.203125,-40.52734375,-49.8046875,-36.62109375,-35.15625,-180.6640625,0.0
34.20703125,-18.06640625,-50.29296875,-29.78515625,-35.15625,-77.63671875,0.0
34.2109375,-49.31640625,-44.921875,-42.48046875,-40.0390625,0.48828125,0.0
34.21484375,-81.54296875,-51.26953125,-68.359375,-38.0859375,-60.05859375,0.0
34.21875,-81.0546875,-55.6640625,-76.66015625,-36.1328125,-108.3984375,0.0
34.22265625,-34.66796875,-54.6875,-48.828125,-42.48046875,-68.84765625,0.0
34.2265625,-8.30078125,-42.96875,-30.2734375,-45.41015625,-10.7421875,0.0
34.23046875,-49.31640625,-39.0625,-44.43359375,-39.55078125,-78.125,0.0
34.234375,-69.3359375,-41.015625,-54.6875,-31.73828125,-75.1953125,0.0
34.23828125,-64.94140625,-41.50390625,-50.78125,-24.90234375,20.5078125,0.0
34.2421875,-46.38671875,-42.96875,-37.109375,-28.3203125,13.18359375,0.0
34.24609375,-11.71875,-39.0625,-19.53125,-48.33984375,-25.390625,0.0
34.25,-25.87890625,-35.15625,-20.01953125,-47.36328125,41.015625,0.0
34.25390625,-86.42578125,-51.7578125,-33.69140625,-52.24609375,67.3828125,0.0
34.2578125,-98.14453125,-70.80078125,-47.36328125,-61.5234375,65.4296875,0.0
34.26171875,-58.10546875,-68.359375,-40.0390625,-43.9453125,37.59765625,0.0
34.265625,-17.08984375,-49.8046875,-20.99609375,-46.38671875,2.9296875,0.0
34.26953125,-33.203125,-40.0390625,-14.16015625,-56.640625,-27.34375,0.0
34.2734375,-73.2421875,-39.55078125,-20.5078125,-48.828125,-18.5546875,0.0
34.27734375,-75.1953125,-47.8515625,-15.625,-38.0859375,62.01171875,0.0
34.28125,-29.78515625,-38.57421875,-6.8359375,-16.11328125,11.71875,0.0
34.28515625,4.39453125,-27.83203125,-2.9296875,-18.06640625,-40.52734375,0.0
34.2890625,-13.671875,-19.53125,5.859375,-37.109375,23.92578125,0.0
34.29296875,-75.1953125,-33.69140625,-16.11328125,-37.109375,50.29296875,0.0
34.296875,-106.4453125,-66.40625,-32.2265625,-41.9921875,16.6015625,0.0
34.30078125,-50.29296875,-61.03515625,-9.765625,-45.41015625,-54.19921875,0.0
34.3046875,-6.8359375,-50.29296875,5.37109375,-36.1328125,-20.5078125,0.0
34.30859375,-16.6015625,-46.38671875,-2.44140625,-34.1796875,-0.9765625,0.0
34.3125,-53.7109375,-40.52734375,-21.484375,-27.83203125,-80.078125,0.0
34.31640625,-90.33203125,-44.921875,-35.15625,-34.1796875,-46.38671875,0.0
34.3203125,-62.98828125,-38.57421875,-22.94921875,-33.203125,33.203125,0.0
34.32421875,-3.41796875,-26.3671875,11.71875,-24.4140625,-32.71484375,0.0
34.328125,-13.18359375,-29.296875,11.23046875,-32.2265625,-62.98828125,0.0
34.33203125,-69.82421875,-45.8984375,-12.20703125,-50.78125,-64.94140625,0.0
34.3359375,-85.44921875,-45.41015625,-19.53125,-44.43359375,-69.82421875,0.0
34.33984375,-36.1328125,-28.80859375,-11.23046875,-15.625,3.90625,0.0
34.34375,13.671875,-26.85546875,6.34765625,-18.5546875,28.3203125,0.0
34.34765625,3.90625,-41.50390625,3.41796875,-21.97265625,-25.87890625,0.0
34.3515625,-28.3203125,-37.109375,-16.6015625,-22.94921875,27.83203125,0.0
34.35546875,-55.6640625,-31.25,-33.69140625,-27.34375,49.8046875,0.0
34.359375,-61.03515625,-60.05859375,-37.59765625,-30.2734375,-45.8984375,0.0
34.36328125,10.25390625,-62.98828125,-7.8125,-32.2265625,-56.640625,0.0
34.3671875,36.62109375,-34.66796875,8.7890625,-34.1796875,-55.17578125,0.0
34.37109375,-11.71875,-28.80859375,-15.625,-21.97265625,-95.703125,0.0
34.375,-53.22265625,-36.62109375,-22.94921875,-26.85546875,-36.1328125,0.0
34.37890625,-36.1328125,-40.52734375,-6.34765625,-34.1796875,-8.30078125,0.0
34.3828125,12.20703125,-23.4375,7.8125,-17.08984375,-20.01953125,0.0
34.38671875,25.87890625,-7.8125,4.39453125,-18.5546875,-46.38671875,0.0
34.390625,-18.06640625,-31.73828125,-20.01953125,-49.8046875,-115.72265625,0.0
34.39453125,-59.5703125,-57.6171875,-40.52734375,-40.52734375,-83.49609375,0.0
34.3984375,-28.80859375,-42.96875,-17.08984375,-13.18359375,-41.9921875,0.0
34.40234375,26.3671875,-22.94921875,0.9765625,-9.27734375,-28.3203125,0.0
34.40625,18.5546875,-27.34375,-18.06640625,-20.5078125,-8.30078125,0.0
34.41015625,-33.69140625,-43.9453125,-34.1796875,-43.9453125,-71.77734375,0.0
34.4140625,-65.4296875,-50.78125,-55.17578125,-47.36328125,-98.14453125,0.0
34.41796875,-65.91796875,-54.19921875,-60.546875,-30.76171875,-84.9609375,0.0
34.421875,-34.1796875,-57.6171875,-36.62109375,-32.2265625,-21.484375,0.0
34.42578125,13.671875,-42.96875,-20.5078125,-38.0859375,5.37109375,0.0
34.4296875,-10.25390625,-23.92578125,-23.92578125,-41.50390625,0.9765625,0.0
34.43359375,-63.4765625,-25.390625,-37.59765625,-42.48046875,11.71875,0.0
34.4375,-69.82421875,-47.8515625,-43.45703125,-37.59765625,47.8515625,0.0
34.44140625,-39.55078125,-60.05859375,-43.9453125,-33.69140625,52.24609375,0.0
34.4453125,3.41796875,-37.59765625,-25.87890625,-32.2265625,-24.90234375,0.0
34.44921875,-13.18359375,-32.2265625,-25.390625,-42.48046875,-14.16015625,0.0
34.453125,-59.5703125,-47.8515625,-55.17578125,-31.25,49.8046875,0.0
34.45703125,-57.6171875,-44.43359375,-59.5703125,-23.4375,63.4765625,0.0
34.4609375,-17.08984375,-40.0390625,-58.10546875,-29.296875,19.04296875,0.0
34.46484375,-2.9296875,-43.45703125,-64.94140625,-38.57421875,-85.9375,0.0
34.46875,-20.01953125,-36.1328125,-57.12890625,-45.41015625,-173.33984375,0.0
34.47265625,-67.3828125,-44.921875,-50.78125,-51.26953125,-178.7109375,0.0
34.4765625,-71.77734375,-48.828125,-28.80859375,-30.76171875,-155.2734375,0.0
34.48046875,-22.4609375,-29.296875,-18.5546875,-10.7421875,-126.46484375,0.0
34.484375,13.18359375,-24.90234375,-31.25,-21.484375,-171.38671875,0.0
34.48828125,-7.32421875,-37.59765625,-37.59765625,-44.921875,-162.109375,0.0
34.4921875,-58.10546875,-46.38671875,-45.41015625,-48.33984375,-65.91796875,0.0
34.49609375,-73.2421875,-41.50390625,-53.7109375,-36.62109375,-31.73828125,0.0
34.5,-31.25,-35.64453125,-36.62109375,-34.1796875,43.45703125,0.0
34.50390625,2.44140625,-42.96875,-22.4609375,-36.62109375,8.30078125,0.0
34.5078125,-1.46484375,-41.9921875,-16.6015625,-37.59765625,-14.16015625,0.0
34.51171875,-34.66796875,-40.0390625,-24.4140625,-24.4140625,-18.06640625,0.0
34.515625,-61.03515625,-46.875,-39.55078125,-25.87890625,-156.25,0.0
34.51953125,-41.015625,-42.96875,-13.18359375,-28.3203125,-210.9375,0.0
34.5234375,5.37109375,-35.64453125,17.578125,-25.87890625,-103.515625,0.0
34.52734375,16.6015625,-28.80859375,28.80859375,-36.1328125,3.90625,0.0
34.53125,-32.2265625,-30.76171875,-1.953125,-42.96875,84.47265625,0.0
34.53515625,-83.984375,-48.828125,-51.26953125,-28.80859375,93.26171875,0.0
34.5390625,-58.10546875,-54.6875,-46.875,-21.484375,70.80078125,0.0
34.54296875,-8.30078125,-45.41015625,-11.71875,-27.83203125,106.93359375,0.0
34.546875,-1.953125,-47.8515625,-17.578125,-40.0390625,106.4453125,0.0
34.55078125,-50.29296875,-54.6875,-48.33984375,-56.640625,81.0546875,0.0
34.5546875,-85.9375,-42.48046875,-60.05859375,-44.43359375,65.91796875,0.0
34.55859375,-73.73046875,-40.52734375,-50.29296875,-36.1328125,49.31640625,0.0
34.5625,-20.5078125,-48.33984375,-44.921875,-38.0859375,29.296875,0.0
34.56640625,2.9296875,-41.9921875,-55.17578125,-34.66796875,73.73046875,0.0
34.5703125,-30.2734375,-40.52734375,-56.15234375,-39.0625,56.15234375,0.0
34.57421875,-84.47265625,-46.875,-62.01171875,-46.38671875,-6.8359375,0.0
34.578125,-82.03125,-54.6875,-74.21875,-40.52734375,-17.08984375,0.0
34.58203125,-35.15625,-59.08203125,-62.01171875,-24.4140625,-46.875,0.0
34.5859375,-15.625,-53.22265625,-45.41015625,-32.71484375,34.66796875,0.0
34.58984375,-60.546875,-48.33984375,-57.6171875,-64.453125,44.921875,0.0
34.59375,-101.07421875,-62.01171875,-65.91796875,-47.8515625,3.90625,0.0
34.59765625,-89.84375,-65.91796875,-64.453125,-31.25,-4.8828125,0.0
34.6015625,-39.0625,-55.17578125,-50.78125,-42.48046875,-18.5546875,0.0
34.60546875,-11.71875,-51.7578125,-37.109375,-49.8046875,-1.953125,0.0
34.609375,-48.33984375,-43.9453125,-54.6875,-64.453125,-82.03125,0.0
34.61328125,-90.8203125,-42.96875,-45.41015625,-62.01171875,-55.17578125,0.0
34.6171875,-91.796875,-37.109375,-23.92578125,-46.875,56.15234375,0.0
34.62109375,-51.7578125,-31.25,-19.53125,-35.64453125,28.3203125,0.0
34.625,-14.6484375,-39.55078125,-12.20703125,-28.3203125,-50.78125,0.0
34.62890625,-17.08984375,-40.52734375,-3.90625,-29.296875,-53.22265625,0.0
34.6328125,-51.7578125,-32.2265625,-20.01953125,-35.64453125,54.6875,0.0
34.63671875,-73.73046875,-33.69140625,-40.0390625,-44.921875,44.921875,0.0
34.640625,-45.41015625,-46.38671875,-47.36328125,-27.34375,-35.64453125,0.0
34.64453125,-2.9296875,-42.48046875,-43.45703125,-23.92578125,-66.89453125,0.0
34.6484375,14.6484375,-18.5546875,-24.90234375,-36.1328125,-56.640625,0.0
34.65234375,-49.8046875,-17.578125,-15.13671875,-41.015625,20.01953125,0.0
34.65625,-79.58984375,-32.2265625,-6.8359375,-32.2265625,-14.6484375,0.0
34.66015625,-34.1796875,-42.48046875,-11.23046875,-27.83203125,-1.953125,0.0
34.6640625,3.41796875,-32.71484375,-15.13671875,-30.76171875,42.96875,0.0
34.66796875,-4.39453125,-20.99609375,-10.25390625,-44.921875,33.203125,0.0
34.671875,-31.25,-32.2265625,-14.16015625,-34.1796875,42.48046875,0.0
34.67578125,-63.4765625,-47.8515625,-22.94921875,-41.50390625,0.0,0.0
34.6796875,-53.7109375,-46.38671875,-18.06640625,-53.7109375,-51.7578125,0.0
34.68359375,2.44140625,-31.73828125,-13.671875,-35.15625,-65.91796875,0.0
34.6875,12.6953125,-23.4375,-0.9765625,-36.1328125,-57.12890625,0.0
34.69140625,-46.875,-26.85546875,-23.4375,-51.7578125,-99.609375,0.0
34.6953125,-97.16796875,-50.29296875,-63.4765625,-54.6875,-156.73828125,0.0
34.69921875,-75.68359375,-51.26953125,-54.6875,-37.109375,-107.91015625,0.0
34.703125,-16.11328125,-31.25,-33.69140625,-30.2734375,-44.921875,0.0
34.70703125,6.34765625,-27.34375,-35.64453125,-36.62109375,-20.99609375,0.0
34.7109375,-30.76171875,-20.5078125,-39.0625,-33.203125,67.87109375,0.0
34.71484375,-69.3359375,-16.11328125,-27.83203125,-30.76171875,62.01171875,0.0
34.71875,-77.1484375,-32.71484375,-21.484375,-29.296875,0.9765625,0.0
34.72265625,-37.109375,-39.0625,-28.80859375,-27.83203125,18.5546875,0.0
34.7265625,-5.37109375,-33.69140625,-24.4140625,-31.25,-44.921875,0.0
34.73046875,-48.33984375,-43.45703125,-10.25390625,-48.33984375,-64.94140625,0.0
34.734375,-100.5859375,-46.38671875,-21.484375,-53.7109375,-19.53125,0.0
34.73828125,-91.796875,-39.0625,-23.4375,-33.69140625,-50.78125,0.0
34.7421875,-37.109375,-30.76171875,19.53125,-24.90234375,-55.6640625,0.0
34.74609375,-10.25390625,-18.5546875,31.73828125,-23.92578125,14.6484375,0.0
34.75,-52.24609375,-27.83203125,6.8359375,-35.15625,54.6875,0.0
34.75390625,-96.19140625,-44.43359375,0.0,-44.43359375,87.40234375,0.0
34.7578125,-85.44921875,-33.69140625,-1.953125,-39.55078125,-42.48046875,0.0
34.76171875,-26.3671875,-22.94921875,-20.01953125,-33.69140625,-72.75390625,0.0
34.765625,2.44140625,-24.4140625,-33.203125,-36.1328125,-21.97265625,0.0
34.76953125,-35.15625,-23.4375,-25.390625,-53.7109375,-28.80859375,0.0
34.7734375,-60.546875,-29.296875,-21.97265625,-66.40625,-76.66015625,0.0
34.77734375,-71.77734375,-38.0859375,-27.34375,-50.78125,-73.73046875,0.0
34.78125,-32.71484375,-35.15625,-13.671875,-32.71484375,-32.2265625,0.0
34.78515625,26.3671875,-27.34375,-12.6953125,-29.296875,-44.921875,0.0
34.7890625,10.25390625,-28.80859375,-19.53125,-46.38671875,-125.0,0.0
34.79296875,-39.55078125,-28.3203125,-21.484375,-48.33984375,-89.35546875,0.0
34.796875,-52.24609375,-22.94921875,-25.87890625,-35.15625,-3.90625,0.0
34.80078125,-26.85546875,-31.25,-17.578125,-38.0859375,-2.44140625,0.0
34.8046875,4.39453125,-29.78515625,7.8125,-36.1328125,-20.99609375,0.0
34.80859375,-2.44140625,-27.34375,6.8359375,-38.57421875,10.25390625,0.0
34.8125,-42.48046875,-43.45703125,-26.85546875,-45.8984375,36.1328125,0.0
34.81640625,-53.7109375,-50.29296875,-35.64453125,-46.38671875,54.19921875,0.0
34.8203125,-19.04296875,-36.62109375,-20.99609375,-48.828125,82.51953125,0.0
34.82421875,31.73828125,-24.90234375,-9.27734375,-33.203125,42.96875,0.0
34.828125,18.06640625,-28.80859375,0.0,-41.015625,-1.46484375,0.0
34.83203125,-39.55078125,-39.0625,-14.16015625,-69.3359375,-26.3671875,0.0
34.8359375,-56.640625,-46.38671875,-36.1328125,-52.24609375,-67.87109375,0.0
34.83984375,-31.25,-53.22265625,-30.2734375,-43.45703125,-100.09765625,0.0
34.84375,4.8828125,-48.33984375,3.90625,-53.22265625,-7.32421875,0.0
34.84765625,0.0,-41.9921875,15.13671875,-46.875,41.015625,0.0
34.8515625,-27.34375,-28.80859375,9.765625,-44.921875,-2.44140625,0.0
34.85546875,-49.31640625,-24.90234375,-2.9296875,-38.0859375,-54.19921875,0.0
34.859375,-44.921875,-36.1328125,-8.7890625,-42.96875,-88.37890625,0.0
34.86328125,-9.765625,-45.8984375,-2.9296875,-40.52734375,-79.58984375,0.0
34.8671875,19.04296875,-33.69140625,3.41796875,-23.4375,-69.82421875,0.0
34.87109375,-18.06640625,-33.203125,1.46484375,-37.109375,-58.10546875,0.0
34.875,-67.87109375,-46.875,-15.625,-58.10546875,-49.8046875,0.0
34.87890625,-50.78125,-41.015625,-23.4375,-33.69140625,-62.01171875,0.0
34.8828125,-3.90625,-30.2734375,-8.30078125,-15.13671875,-47.8515625,0.0
34.88671875,31.25,-13.671875,-12.20703125,-21.484375,38.57421875,0.0
34.890625,1.953125,-9.765625,-13.671875,-28.80859375,108.88671875,0.0
34.89453125,-65.4296875,-31.25,-12.20703125,-45.8984375,8.7890625,0.0
34.8984375,-52.734375,-35.64453125,-8.30078125,-35.64453125,-52.734375,0.0
34.90234375,-6.8359375,-36.62109375,-4.39453125,-17.578125,-81.0546875,0.0
34.90625,3.90625,-43.45703125,0.0,-38.0859375,-74.70703125,0.0
34.91015625,-11.71875,-41.015625,-32.71484375,-37.109375,-110.3515625,0.0
34.9140625,-42.48046875,-37.59765625,-69.3359375,-32.2265625,-45.41015625,0.0
34.91796875,-36.62109375,-29.78515625,-58.59375,-23.92578125,45.8984375,0.0
34.921875,16.11328125,-33.203125,-39.0625,-19.04296875,51.7578125,0.0
34.92578125,25.390625,-41.9921875,-24.4140625,-37.59765625,74.70703125,0.0
34.9296875,-4.8828125,-29.296875,-15.625,-51.7578125,-23.4375,0.0
34.93359375,-42.96875,-35.64453125,-24.4140625,-58.10546875,-36.1328125,0.0
34.9375,-53.7109375,-44.43359375,-41.50390625,-34.1796875,-27.34375,0.0
34.94140625,-15.625,-32.2265625,-40.0390625,-21.97265625,-43.45703125,0.0
34.9453125,14.6484375,-24.90234375,-32.71484375,-30.2734375,41.015625,0.0
34.94921875,-12.20703125,-27.83203125,-37.109375,-37.109375,14.16015625,0.0
34.953125,-68.84765625,-45.41015625,-49.8046875,-45.41015625,-85.44921875,0.0
34.95703125,-68.84765625,-49.31640625,-58.10546875,-41.9921875,-109.375,0.0
34.9609375,-20.5078125,-36.62109375,-34.66796875,-32.71484375,-39.0625,0.0
34.96484375,19.04296875,-29.296875,-11.71875,-31.25,15.13671875,0.0
34.96875,-4.8828125,-28.80859375,-29.78515625,-48.828125,-67.3828125,0.0
34.97265625,-57.12890625,-43.9453125,-43.9453125,-56.640625,-145.99609375,0.0
34.9765625,-78.61328125,-50.78125,-43.9453125,-45.8984375,-69.3359375,0.0
34.98046875,-52.24609375,-39.55078125,-34.1796875,-28.80859375,10.7421875,0.0
34.984375,-12.6953125,-33.69140625,-31.73828125,-23.92578125,37.109375,0.0
34.98828125,-31.73828125,-42.96875,-37.59765625,-46.38671875,-63.4765625,0.0
34.9921875,-61.5234375,-35.64453125,-35.64453125,-45.41015625,-130.37109375,0.0
34.99609375,-70.80078125,-33.203125,-46.875,-25.390625,-77.1484375,0.0
35.0,-51.26953125,-51.7578125,-56.640625,-19.04296875,-100.09765625,0.0
35.00390625,2.44140625,-51.26953125,-41.50390625,-10.7421875,-90.8203125,0.0
35.0078125,18.5546875,-34.66796875,-32.2265625,-17.08984375,-13.671875,0.0
35.01171875,-33.203125,-24.4140625,-56.15234375,-13.671875,18.5546875,0.0
35.015625,-62.98828125,-28.80859375,-75.1953125,4.8828125,72.265625,0.0
35.01953125,-65.91796875,-43.9453125,-75.68359375,-13.18359375,92.7734375,0.0
35.0234375,-37.59765625,-41.015625,-69.3359375,-31.73828125,-19.04296875,0.0
35.02734375,-12.6953125,-31.73828125,-54.6875,-27.83203125,27.83203125,0.0
35.03125,-59.5703125,-42.48046875,-47.36328125,-34.66796875,114.74609375,0.0
35.03515625,-89.84375,-52.24609375,-47.36328125,-32.2265625,6.8359375,0.0
35.0390625,-59.08203125,-42.96875,-35.15625,-20.01953125,-62.98828125,0.0
35.04296875,-22.94921875,-25.87890625,-4.39453125,-13.18359375,-16.11328125,0.0
35.046875,-16.11328125,-34.66796875,-8.30078125,-22.4609375,-3.41796875,0.0
35.05078125,-47.8515625,-46.875,-27.83203125,-28.3203125,-22.94921875,0.0
35.0546875,-81.54296875,-47.8515625,-37.59765625,-13.671875,21.484375,0.0
35.05859375,-63.96484375,-49.31640625,-38.57421875,-9.765625,76.171875,0.0
35.0625,-17.578125,-31.73828125,-32.2265625,4.8828125,66.89453125,0.0
35.06640625,-14.6484375,-28.3203125,-36.1328125,-1.953125,79.58984375,0.0
35.0703125,-52.24609375,-37.109375,-34.1796875,-27.83203125,77.1484375,0.0
35.07421875,-85.9375,-33.69140625,-17.578125,-18.5546875,-0.9765625,0.0
35.078125,-100.09765625,-42.48046875,-25.390625,-17.08984375,-22.4609375,0.0
35.08203125,-48.33984375,-37.109375,-20.99609375,-3.90625,-0.48828125,0.0
35.0859375,-6.8359375,-26.3671875,-0.48828125,-1.46484375,-27.83203125,0.0
35.08984375,-44.921875,-37.59765625,-0.9765625,-9.27734375,8.7890625,0.0
35.09375,-79.58984375,-42.48046875,-3.90625,-7.8125,-19.04296875,0.0
35.09765625,-94.23828125,-35.15625,-14.16015625,-12.20703125,-39.0625,0.0
35.1015625,-64.94140625,-37.109375,-19.53125,-5.37109375,-38.0859375,0.0
35.10546875,-32.2265625,-41.9921875,-17.08984375,-3.41796875,-73.73046875,0.0
35.109375,-39.0625,-32.2265625,-35.64453125,-16.6015625,-19.53125,0.0
35.11328125,-84.9609375,-43.9453125,-50.29296875,-24.90234375,-67.3828125,0.0
35.1171875,-89.84375,-48.828125,-39.55078125,-14.6484375,-168.45703125,0.0
35.12109375,-46.875,-42.96875,-23.92578125,-6.34765625,-130.859375,0.0
35.125,-20.01953125,-41.015625,-25.87890625,-16.6015625,-87.890625,0.0
35.12890625,-28.3203125,-38.57421875,-37.59765625,-20.5078125,-104.00390625,0.0
35.1328125,-56.640625,-35.64453125,-31.73828125,-11.23046875,-69.3359375,0.0
35.13671875,-65.4296875,-28.80859375,-39.55078125,-6.8359375,-29.78515625,0.0
35.140625,-33.203125,-30.76171875,-30.2734375,-5.37109375,0.9765625,0.0
35.14453125,-11.23046875,-37.109375,-27.34375,-6.8359375,15.625,0.0
35.1484375,-26.3671875,-38.0859375,-37.59765625,-15.625,50.29296875,0.0
35.15234375,-65.91796875,-36.62109375,-40.52734375,-26.85546875,25.390625,0.0
35.15625,-85.44921875,-35.64453125,-61.03515625,-19.53125,-14.6484375,0.0
35.16015625,-51.26953125,-35.15625,-41.50390625,-9.765625,21.484375,0.0
35.1640625,-13.671875,-41.9921875,-2.9296875,-7.8125,46.875,0.0
35.16796875,-29.78515625,-52.24609375,-15.13671875,-29.296875,-26.85546875,0.0
35.171875,-68.84765625,-49.31640625,-32.71484375,-46.875,-45.8984375,0.0
35.17578125,-93.26171875,-46.38671875,-34.66796875,-41.50390625,-11.71875,0.0
35.1796875,-63.96484375,-32.2265625,-24.90234375,-22.94921875,17.08984375,0.0
35.18359375,-30.2734375,-25.87890625,-21.484375,-19.53125,2.44140625,0.0
35.1875,-19.04296875,-34.1796875,-16.6015625,-25.390625,-12.20703125,0.0
35.19140625,-41.50390625,-39.0625,-22.4609375,-26.85546875,16.11328125,0.0
35.1953125,-68.359375,-44.921875,-26.3671875,-24.4140625,21.484375,0.0
35.19921875,-49.8046875,-46.38671875,-14.6484375,-15.625,-70.3125,0.0
35.203125,-8.7890625,-44.921875,-5.859375,-12.6953125,-80.56640625,0.0
35.20703125,-11.71875,-41.015625,-4.39453125,-23.4375,-73.73046875,0.0
35.2109375,-61.03515625,-29.78515625,0.9765625,-41.015625,-119.140625,0.0
35.21484375,-90.8203125,-36.1328125,-9.27734375,-29.296875,-99.609375,0.0
35.21875,-67.87109375,-57.6171875,-8.7890625,-15.13671875,-51.7578125,0.0
35.22265625,-14.6484375,-59.08203125,23.4375,-10.25390625,-7.8125,0.0
35.2265625,9.27734375,-36.1328125,42.96875,-11.71875,30.2734375,0.0
35.23046875,-40.0390625,-35.15625,15.13671875,-32.2265625,-37.109375,0.0
35.234375,-94.23828125,-44.43359375,-25.390625,-39.0625,-41.50390625,0.0
35.23828125,-80.56640625,-42.96875,-31.25,-22.94921875,-42.96875,0.0
35.2421875,-33.203125,-42.96875,-11.71875,-19.04296875,-92.28515625,0.0
35.24609375,-17.578125,-33.69140625,-18.06640625,-30.2734375,-81.0546875,0.0
35.25,-39.55078125,-37.109375,-12.6953125,-38.0859375,-27.34375,0.0
35.25390625,-79.1015625,-52.24609375,-8.7890625,-33.69140625,42.96875,0.0
35.2578125,-83.0078125,-53.22265625,-23.92578125,-27.34375,-4.8828125,0.0
35.26171875,-51.7578125,-54.19921875,-8.7890625,-27.83203125,-86.42578125,0.0
35.265625,-17.578125,-50.78125,0.9765625,-26.85546875,-54.6875,0.0
35.26953125,-44.921875,-48.33984375,-2.9296875,-41.015625,-128.90625,0.0
35.2734375,-84.47265625,-40.0390625,4.8828125,-43.9453125,-123.046875,0.0
35.27734375,-78.125,-33.203125,-2.44140625,-29.296875,-22.94921875,0.0
35.28125,-44.43359375,-34.66796875,-5.37109375,-30.76171875,-16.6015625,0.0
35.28515625,-11.71875,-34.1796875,-4.39453125,-31.73828125,28.3203125,0.0
35.2890625,-14.6484375,-36.62109375,-22.4609375,-28.3203125,5.859375,0.0
35.29296875,-53.22265625,-35.64453125,-33.203125,-26.3671875,8.30078125,0.0
35.296875,-83.0078125,-43.45703125,-44.43359375,-31.73828125,-38.0859375,0.0
35.30078125,-50.29296875,-43.9453125,-49.8046875,-24.4140625,-81.54296875,0.0
35.3046875,-0.9765625,-24.4140625,-15.625,-20.01953125,-19.04296875,0.0
35.30859375,-13.18359375,-22.94921875,11.23046875,-30.2734375,-27.83203125,0.0
35.3125,-59.5703125,-35.15625,11.23046875,-30.76171875,3.90625,0.0
35.31640625,-78.125,-43.45703125,4.8828125,-20.5078125,58.10546875,0.0
35.3203125,-58.10546875,-39.55078125,1.953125,-18.5546875,36.62109375,0.0
35.32421875,-13.18359375,-29.296875,15.13671875,-22.4609375,29.78515625,0.0
35.328125,-11.71875,-28.3203125,0.0,-26.3671875,27.83203125,0.0
35.33203125,-46.875,-40.52734375,-30.2734375,-37.109375,23.92578125,0.0
35.3359375,-77.63671875,-47.36328125,-38.0859375,-41.9921875,-8.30078125,0.0
35.33984375,-61.5234375,-42.48046875,-37.109375,-23.4375,-22.4609375,0.0
35.34375,-10.25390625,-38.0859375,-41.015625,-6.8359375,-74.21875,0.0
35.34765625,-0.9765625,-40.0390625,-39.0625,-30.76171875,-155.76171875,0.0
35.3515625,-48.828125,-51.7578125,-40.52734375,-62.5,-154.296875,0.0
35.35546875,-85.9375,-51.7578125,-53.7109375,-55.17578125,-81.0546875,0.0
35.359375,-59.5703125,-42.96875,-36.62109375,-41.50390625,-81.54296875,0.0
35.36328125,-6.34765625,-42.96875,-8.30078125,-37.109375,-58.10546875,0.0
35.3671875,-3.90625,-32.2265625,1.46484375,-41.50390625,12.6953125,0.0
35.37109375,-52.734375,-31.73828125,-5.37109375,-60.546875,-19.04296875,0.0
35.375,-88.37890625,-43.9453125,-29.296875,-54.6875,-45.8984375,0.0
35.37890625,-59.5703125,-39.0625,-30.2734375,-22.4609375,-60.05859375,0.0
35.3828125,-8.30078125,-30.76171875,-34.1796875,-18.5546875,13.671875,0.0
35.38671875,-1.953125,-29.296875,-40.52734375,-24.90234375,102.05078125,0.0
35.390625,-43.45703125,-31.73828125,-38.57421875,-35.64453125,25.390625,0.0
35.39453125,-82.03125,-35.15625,-34.66796875,-47.36328125,-42.48046875,0.0
35.3984375,-69.82421875,-35.64453125,-20.5078125,-32.2265625,35.64453125,0.0
35.40234375,-28.80859375,-37.109375,-18.5546875,-22.94921875,64.94140625,0.0
35.40625,2.44140625,-34.1796875,-23.4375,-30.2734375,39.55078125,0.0
35.41015625,-15.625,-33.203125,-30.2734375,-46.875,50.78125,0.0
35.4140625,-52.24609375,-31.73828125,-43.9453125,-46.38671875,18.06640625,0.0
35.41796875,-58.10546875,-35.15625,-39.0625,-35.64453125,20.99609375,0.0
35.421875,-39.0625,-41.50390625,-26.85546875,-33.69140625,7.32421875,0.0
35.42578125,-8.7890625,-45.8984375,-25.87890625,-39.55078125,-78.125,0.0
35.4296875,-20.99609375,-39.55078125,-26.3671875,-45.8984375,-46.38671875,0.0
35.43359375,-67.87109375,-31.73828125,-17.578125,-43.9453125,-55.17578125,0.0
35.4375,-85.9375,-33.69140625,-12.20703125,-43.9453125,-101.07421875,0.0
35.44140625,-54.6875,-40.52734375,-11.23046875,-33.69140625,-69.82421875,0.0
35.4453125,-12.6953125,-28.80859375,2.44140625,-40.0390625,-59.08203125,0.0
35.44921875,-20.5078125,-17.08984375,5.859375,-48.33984375,-48.33984375,0.0
35.453125,-72.75390625,-30.2734375,-15.13671875,-44.921875,-13.18359375,0.0
35.45703125,-97.16796875,-42.96875,-24.90234375,-40.52734375,-67.3828125,0.0
35.4609375,-35.15625,-27.83203125,0.0,-16.6015625,-141.11328125,0.0
35.46484375,-8.7890625,-14.16015625,-1.46484375,-20.99609375,-79.58984375,0.0
35.46875,-48.828125,-27.83203125,-28.3203125,-55.17578125,-21.97265625,0.0
35.47265625,-86.42578125,-47.8515625,-39.0625,-66.40625,-32.71484375,0.0
35.4765625,-104.4921875,-54.19921875,-41.9921875,-57.12890625,-6.8359375,0.0
35.48046875,-68.84765625,-37.59765625,-36.1328125,-36.62109375,19.04296875,0.0
35.484375,-13.18359375,-25.390625,-37.109375,-33.203125,39.55078125,0.0
35.48828125,-18.06640625,-25.87890625,-32.71484375,-44.43359375,49.31640625,0.0
35.4921875,-62.5,-23.4375,-25.87890625,-48.33984375,54.6875,0.0
35.49609375,-80.56640625,-28.3203125,-41.50390625,-24.90234375,32.71484375,0.0
35.5,-67.3828125,-35.15625,-26.3671875,-11.71875,-34.1796875,0.0
35.50390625,-13.18359375,-35.64453125,-15.625,-25.87890625,-29.78515625,0.0
35.5078125,20.5078125,-11.71875,4.8828125,-20.5078125,45.8984375,0.0
35.51171875,-36.62109375,-23.92578125,-16.6015625,-21.97265625,51.7578125,0.0
35.515625,-78.61328125,-53.7109375,-64.453125,-31.73828125,14.6484375,0.0
35.51953125,-56.640625,-51.7578125,-51.26953125,-26.3671875,68.84765625,0.0
35.5234375,-18.5546875,-37.59765625,-26.3671875,-26.3671875,-2.44140625,0.0
35.52734375,-4.39453125,-26.3671875,-30.76171875,-24.4140625,-65.4296875,0.0
35.53125,-27.83203125,-23.92578125,-47.36328125,-32.71484375,-40.52734375,0.0
35.53515625,-66.40625,-34.66796875,-46.38671875,-41.9921875,2.9296875,0.0
35.5390625,-64.94140625,-43.45703125,-41.9921875,-37.59765625,-2.44140625,0.0
35.54296875,-16.11328125,-36.62109375,-37.59765625,-28.3203125,-94.7265625,0.0
35.546875,-2.9296875,-40.52734375,-31.25,-34.1796875,-87.890625,0.0
35.55078125,-40.52734375,-46.38671875,-36.62109375,-40.52734375,-14.16015625,0.0
35.5546875,-75.68359375,-33.203125,-40.52734375,-40.52734375,-44.921875,0.0
35.55859375,-61.03515625,-31.73828125,-33.69140625,-32.71484375,-62.5,0.0
35.5625,-25.390625,-36.62109375,-19.53125,-34.1796875,28.3203125,0.0
35.56640625,-12.20703125,-42.96875,-15.13671875,-45.41015625,-29.296875,0.0
35.5703125,-18.5546875,-38.0859375,-5.859375,-52.24609375,-113.28125,0.0
35.57421875,-61.5234375,-37.59765625,2.44140625,-62.5,-69.82421875,0.0
35.578125,-75.1953125,-47.8515625,-0.9765625,-54.19921875,-87.40234375,0.0
35.58203125,-42.48046875,-50.29296875,1.46484375,-45.8984375,-105.46875,0.0
35.5859375,-11.71875,-38.57421875,9.27734375,-45.41015625,-21.97265625,0.0
35.58984375,-28.80859375,-38.0859375,-14.16015625,-50.29296875,-5.859375,0.0
35.59375,-70.80078125,-50.29296875,-45.8984375,-42.48046875,-51.7578125,0.0
35.59765625,-80.078125,-45.41015625,-31.25,-29.78515625,-115.234375,0.0
35.6015625,-40.0390625,-34.66796875,-19.04296875,-41.015625,-120.1171875,0.0
35.60546875,12.6953125,-18.06640625,-11.23046875,-41.9921875,31.25,0.0
35.609375,-0.9765625,-19.04296875,-7.32421875,-38.0859375,83.984375,0.0
35.61328125,-36.62109375,-34.1796875,-13.671875,-32.2265625,15.625,0.0
35.6171875,-47.8515625,-37.59765625,-33.203125,-29.78515625,-37.59765625,0.0
35.62109375,-36.62109375,-36.1328125,-48.33984375,-44.43359375,-39.55078125,0.0
35.625,11.23046875,-27.83203125,-34.1796875,-45.41015625,-50.29296875,0.0
35.62890625,23.92578125,-23.92578125,-21.484375,-41.015625,-84.47265625,0.0
35.6328125,-24.4140625,-25.390625,-32.71484375,-49.8046875,-86.9140625,0.0
35.63671875,-68.84765625,-27.34375,-47.8515625,-57.12890625,-100.09765625,0.0
35.640625,-42.96875,-40.52734375,-58.10546875,-59.5703125,-119.62890625,0.0
35.64453125,2.9296875,-37.59765625,-38.57421875,-55.17578125,-98.14453125,0.0
35.6484375,-2.44140625,-19.53125,-20.5078125,-58.59375,-129.8828125,0.0
35.65234375,-37.109375,-30.76171875,-33.69140625,-56.15234375,-119.62890625,0.0
35.65625,-47.36328125,-48.33984375,-43.9453125,-32.71484375,-43.45703125,0.0
35.66015625,-36.62109375,-48.828125,-50.78125,-23.4375,5.37109375,0.0
35.6640625,-10.25390625,-35.64453125,-40.52734375,-40.0390625,12.20703125,0.0
35.66796875,11.23046875,-26.3671875,-13.671875,-34.66796875,38.57421875,0.0
35.671875,-14.16015625,-33.69140625,-25.87890625,-35.64453125,94.7265625,0.0
35.67578125,-38.0859375,-40.52734375,-56.15234375,-47.36328125,104.00390625,0.0
35.6796875,-14.16015625,-31.73828125,-46.38671875,-18.5546875,7.32421875,0.0
35.68359375,10.25390625,-37.59765625,-30.2734375,-20.99609375,-52.24609375,0.0
35.6875,23.4375,-34.66796875,-25.390625,-36.62109375,-50.78125,0.0
35.69140625,-2.44140625,-21.97265625,-31.73828125,-37.109375,-18.06640625,0.0
35.6953125,-37.59765625,-25.390625,-54.19921875,-42.48046875,-11.71875,0.0
35.69921875,-33.203125,-31.73828125,-66.89453125,-42.96875,-7.8125,0.0
35.703125,-2.44140625,-35.64453125,-64.453125,-37.59765625,59.5703125,0.0
35.70703125,18.06640625,-32.71484375,-50.78125,-45.41015625,-9.27734375,0.0
35.7109375,-12.20703125,-34.66796875,-71.77734375,-55.17578125,-46.875,0.0
35.71484375,-59.08203125,-44.43359375,-82.51953125,-49.8046875,-67.3828125,0.0
35.71875,-63.96484375,-47.8515625,-62.5,-51.26953125,-82.51953125,0.0
35.72265625,-23.4375,-46.875,-58.59375,-51.26953125,-32.71484375,0.0
35.7265625,9.765625,-36.1328125,-44.43359375,-40.52734375,-83.984375,0.0
35.73046875,-20.5078125,-24.90234375,-35.64453125,-41.015625,-113.76953125,0.0
35.734375,-62.01171875,-41.015625,-59.5703125,-47.8515625,-125.48828125,0.0
35.73828125,-58.10546875,-48.33984375,-72.265625,-33.69140625,-97.65625,0.0
35.7421875,-26.3671875,-37.59765625,-56.640625,-33.203125,-85.44921875,0.0
35.74609375,11.71875,-28.80859375,-36.62109375,-40.0390625,-62.01171875,0.0
35.75,-16.6015625,-36.62109375,-41.9921875,-35.64453125,-14.6484375,0.0
35.75390625,-68.359375,-55.17578125,-56.15234375,-40.52734375,-51.7578125,0.0
35.7578125,-54.19921875,-55.17578125,-54.19921875,-32.71484375,-20.5078125,0.0
35.76171875,-16.11328125,-42.96875,-48.828125,-21.484375,28.3203125,0.0
35.765625,16.11328125,-41.015625,-39.0625,-25.390625,-66.40625,0.0
35.76953125,27.34375,-47.36328125,-38.57421875,-27.83203125,-38.0859375,0.0
35.7734375,-12.6953125,-32.71484375,-38.57421875,-27.83203125,39.0625,0.0
35.77734375,-52.24609375,-37.59765625,-42.96875,-23.92578125,0.9765625,0.0
35.78125,-32.71484375,-52.734375,-58.10546875,-25.390625,-80.078125,0.0
35.78515625,3.41796875,-45.8984375,-59.5703125,-30.2734375,-98.14453125,0.0
35.7890625,9.765625,-28.80859375,-26.85546875,-19.53125,-83.984375,0.0
35.79296875,-42.96875,-22.4609375,-30.2734375,-28.80859375,-66.40625,0.0
35.796875,-90.33203125,-44.43359375,-57.12890625,-27.34375,-53.22265625,0.0
35.80078125,-58.59375,-56.640625,-45.8984375,-13.18359375,-109.86328125,0.0
35.8046875,-13.671875,-47.36328125,-10.7421875,-19.53125,-68.84765625,0.0
35.80859375,-4.39453125,-44.43359375,-16.6015625,-27.83203125,-50.78125,0.0
35.8125,-41.015625,-46.38671875,-36.62109375,-28.80859375,-72.265625,0.0
35.81640625,-72.265625,-44.43359375,-41.015625,-22.4609375,-77.1484375,0.0
35.8203125,-58.59375,-52.24609375,-18.06640625,-20.01953125,-84.9609375,0.0
35.82421875,-20.99609375,-53.7109375,-2.44140625,-14.16015625,-20.5078125,0.0
35.828125,-5.37109375,-38.57421875,-16.6015625,-21.97265625,20.01953125,0.0
35.83203125,-37.109375,-42.48046875,-26.85546875,-28.3203125,-58.59375,0.0
35.8359375,-60.546875,-34.66796875,-28.3203125,-24.90234375,-27.34375,0.0
35.83984375,-42.48046875,-32.2265625,-32.2265625,-19.53125,13.671875,0.0
35.84375,-4.8828125,-44.921875,-30.2734375,-20.99609375,49.31640625,0.0
35.84765625,0.0,-44.921875,-28.80859375,-31.73828125,120.60546875,0.0
35.8515625,-36.62109375,-45.41015625,-37.109375,-28.3203125,70.3125,0.0
35.85546875,-51.7578125,-44.921875,-57.12890625,-20.01953125,-0.9765625,0.0
35.859375,-49.8046875,-49.31640625,-57.12890625,-13.18359375,-42.48046875,0.0
35.86328125,-26.85546875,-58.10546875,-41.015625,-26.3671875,-79.58984375,0.0
35.8671875,-3.41796875,-46.875,-19.04296875,-31.25,-86.9140625,0.0
35.87109375,-33.69140625,-34.66796875,-38.0859375,-23.92578125,-72.265625,0.0
35.875,-70.3125,-40.52734375,-60.546875,-27.83203125,-84.47265625,0.0
35.87890625,-72.75390625,-52.734375,-50.29296875,-22.4609375,-52.734375,0.0
35.8828125,-30.76171875,-37.59765625,-48.828125,-8.7890625,84.47265625,0.0
35.88671875,-0.9765625,-22.4609375,-49.8046875,-14.16015625,70.3125,0.0
35.890625,-38.57421875,-41.50390625,-55.17578125,-33.69140625,-11.23046875,0.0
35.89453125,-84.9609375,-55.17578125,-72.75390625,-35.15625,0.48828125,0.0
35.8984375,-87.890625,-55.17578125,-55.6640625,-31.25,-13.671875,0.0
35.90234375,-46.875,-45.8984375,-17.08984375,-20.99609375,-52.734375,0.0
35.90625,-28.3203125,-35.64453125,-16.11328125,-23.4375,-10.7421875,0.0
35.91015625,-57.6171875,-40.0390625,-38.0859375,-41.50390625,-14.6484375,0.0
35.9140625,-83.0078125,-34.1796875,-34.1796875,-26.85546875,-42.48046875,0.0
35.91796875,-88.8671875,-31.73828125,-35.15625,-11.23046875,9.765625,0.0
35.921875,-58.10546875,-38.57421875,-38.0859375,-20.5078125,37.109375,0.0
35.92578125,-32.71484375,-31.25,-17.08984375,-34.66796875,-5.859375,0.0
35.9296875,-37.109375,-21.484375,14.6484375,-32.2265625,-69.3359375,0.0
35.93359375,-66.89453125,-30.76171875,1.953125,-30.76171875,-23.92578125,0.0
35.9375,-99.12109375,-41.9921875,-32.2265625,-38.57421875,43.9453125,0.0
35.94140625,-74.70703125,-41.9921875,-31.73828125,-35.15625,-26.85546875,0.0
35.9453125,-26.3671875,-41.50390625,-12.6953125,-32.2265625,-80.078125,0.0
35.94921875,-31.25,-38.57421875,-10.25390625,-42.48046875,23.92578125,0.0
35.953125,-68.84765625,-43.45703125,-31.25,-42.96875,23.4375,0.0
35.95703125,-74.21875,-47.8515625,-31.73828125,-34.1796875,-11.23046875,0.0
35.9609375,-48.33984375,-40.52734375,-16.6015625,-26.85546875,-8.30078125,0.0
35.96484375,-31.73828125,-42.96875,-10.7421875,-42.96875,37.109375,0.0
35.96875,-36.1328125,-39.0625,-20.01953125,-68.359375,1.953125,0.0
35.97265625,-38.57421875,-36.62109375,-28.3203125,-59.08203125,12.6953125,0.0
35.9765625,-41.9921875,-20.99609375,-13.671875,-37.109375,62.98828125,0.0
35.98046875,-35.15625,-26.3671875,-8.7890625,-28.3203125,41.50390625,0.0
35.984375,-14.6484375,-41.9921875,-7.8125,-33.203125,23.92578125,0.0
35.98828125,-9.27734375,-36.62109375,-15.13671875,-40.52734375,55.17578125,0.0
35.9921875,-45.41015625,-44.43359375,-40.0390625,-50.29296875,-3.90625,0.0
35.99609375,-86.42578125,-52.734375,-43.9453125,-60.05859375,1.953125,0.0
36.0,-78.61328125,-52.24609375,-31.25,-51.7578125,53.22265625,0.0
36.00390625,-42.96875,-44.43359375,-26.3671875,-44.921875,-25.87890625,0.0
36.0078125,-22.4609375,-33.69140625,-33.203125,-47.36328125,-86.42578125,0.0
36.01171875,-37.109375,-41.50390625,-51.26953125,-38.0859375,-111.328125,0.0
36.015625,-63.96484375,-47.8515625,-45.41015625,-36.62109375,-22.4609375,0.0
36.01953125,-56.15234375,-42.96875,-39.0625,-30.76171875,-33.69140625,0.0
36.0234375,-14.6484375,-37.59765625,-34.1796875,-30.76171875,-98.6328125,0.0
36.02734375,3.90625,-21.484375,-27.34375,-46.38671875,-89.84375,0.0
36.03125,-16.6015625,-22.94921875,-20.99609375,-55.6640625,-91.796875,0.0
36.03515625,-69.3359375,-39.0625,-22.94921875,-49.31640625,-41.015625,0.0
36.0390625,-76.66015625,-45.8984375,-48.828125,-38.0859375,-36.1328125,0.0
36.04296875,-16.6015625,-54.6875,-42.48046875,-40.52734375,-36.62109375,0.0
36.046875,23.92578125,-48.33984375,-14.16015625,-37.109375,-42.48046875,0.0
36.05078125,6.34765625,-40.0390625,-13.671875,-40.0390625,-50.78125,0.0
36.0546875,-29.78515625,-34.1796875,-15.13671875,-45.8984375,-27.83203125,0.0
36.05859375,-37.59765625,-33.203125,-41.50390625,-32.2265625,-1.953125,0.0
36.0625,-9.27734375,-38.57421875,-53.7109375,-24.90234375,21.484375,0.0
36.06640625,17.578125,-33.69140625,-36.62109375,-25.87890625,8.7890625,0.0
36.0703125,7.8125,-28.3203125,-35.15625,-32.2265625,-23.92578125,0.0
36.07421875,-41.50390625,-38.57421875,-49.31640625,-35.15625,-113.28125,0.0
36.078125,-62.5,-47.8515625,-53.22265625,-35.64453125,-151.3671875,0.0
36.08203125,-40.0390625,-43.45703125,-39.0625,-23.92578125,-93.75,0.0
36.0859375,-5.859375,-35.15625,-33.69140625,-30.76171875,-59.08203125,0.0
36.08984375,-0.9765625,-30.76171875,-31.25,-43.9453125,-76.171875,0.0
36.09375,-35.64453125,-37.109375,-41.9921875,-36.1328125,-37.59765625,0.0
36.09765625,-47.8515625,-41.015625,-46.38671875,-34.66796875,-8.7890625,0.0
36.1015625,-20.01953125,-36.1328125,-28.3203125,-24.4140625,-23.92578125,0.0
36.10546875,7.8125,-31.25,-26.85546875,-20.99609375,-27.34375,0.0
36.109375,-1.46484375,-24.90234375,-33.203125,-36.1328125,-44.43359375,0.0
36.11328125,-46.875,-33.69140625,-35.64453125,-33.69140625,-86.42578125,0.0
36.1171875,-56.640625,-40.0390625,-41.9921875,-36.1328125,-107.91015625,0.0
36.12109375,-33.69140625,-33.203125,-37.109375,-38.0859375,-96.19140625,0.0
36.125,-14.6484375,-43.45703125,-30.2734375,-43.9453125,6.34765625,0.0
36.12890625,-9.27734375,-46.38671875,-28.80859375,-50.29296875,41.015625,0.0
36.1328125,-35.64453125,-34.66796875,-23.92578125,-38.0859375,7.32421875,0.0
36.13671875,-68.359375,-28.3203125,-17.578125,-29.296875,20.5078125,0.0
36.140625,-63.96484375,-42.48046875,-22.4609375,-39.0625,22.94921875,0.0
36.14453125,-22.4609375,-47.36328125,-41.9921875,-41.015625,-1.46484375,0.0
36.1484375,-1.953125,-26.3671875,-30.76171875,-34.66796875,28.80859375,0.0
36.15234375,-39.0625,-26.85546875,-25.87890625,-48.828125,22.4609375,0.0
36.15625,-71.77734375,-38.57421875,-34.1796875,-42.48046875,-46.38671875,0.0
36.16015625,-60.05859375,-47.36328125,-33.203125,-17.08984375,-116.69921875,0.0
36.1640625,-12.20703125,-33.69140625,-33.203125,-26.85546875,-159.66796875,0.0
36.16796875,2.9296875,-17.578125,-31.25,-44.43359375,-121.58203125,0.0
36.171875,-38.0859375,-30.2734375,-36.1328125,-47.36328125,-35.64453125,0.0
36.17578125,-72.75390625,-45.41015625,-34.66796875,-37.59765625,-17.578125,0.0
36.1796875,-54.6875,-41.9921875,-30.76171875,-37.109375,-72.75390625,0.0
36.18359375,-20.99609375,-31.25,-25.390625,-30.2734375,-110.83984375,0.0
36.1875,-14.6484375,-29.78515625,-22.94921875,-39.0625,-95.21484375,0.0
36.19140625,-39.55078125,-27.83203125,-39.0625,-43.45703125,-144.53125,0.0
36.1953125,-67.87109375,-32.71484375,-60.05859375,-26.3671875,-177.734375,0.0
36.19921875,-60.05859375,-44.921875,-45.8984375,-25.390625,-80.56640625,0.0
36.203125,-24.4140625,-42.96875,-10.25390625,-34.1796875,18.5546875,0.0
36.20703125,-9.765625,-40.0390625,-12.20703125,-44.921875,-35.64453125,0.0
36.2109375,-38.0859375,-37.59765625,-27.83203125,-53.7109375,-56.15234375,0.0
36.21484375,-83.984375,-43.9453125,-40.52734375,-64.453125,29.78515625,0.0
36.21875,-70.80078125,-56.15234375,-51.7578125,-52.734375,-0.9765625,0.0
36.22265625,-19.04296875,-50.29296875,-39.55078125,-37.109375,-13.18359375,0.0
36.2265625,7.8125,-39.55078125,-30.2734375,-41.015625,44.921875,0.0
36.23046875,-7.32421875,-33.203125,-44.43359375,-47.8515625,50.78125,0.0
36.234375,-57.12890625,-47.36328125,-50.78125,-52.24609375,48.828125,0.0
36.23828125,-76.171875,-52.734375,-40.52734375,-43.9453125,-51.7578125,0.0
36.2421875,-25.390625,-30.76171875,-28.80859375,-32.2265625,-88.8671875,0.0
36.24609375,0.48828125,-31.73828125,-31.73828125,-40.52734375,-45.41015625,0.0
36.25,-32.71484375,-42.48046875,-37.109375,-59.5703125,-28.3203125,0.0
36.25390625,-51.7578125,-45.41015625,-47.8515625,-50.29296875,14.6484375,0.0
36.2578125,-41.015625,-35.64453125,-41.9921875,-29.78515625,-44.43359375,0.0
36.26171875,-22.4609375,-27.83203125,-23.92578125,-32.71484375,-129.8828125,0.0
36.265625,-4.8828125,-30.76171875,-27.34375,-41.9921875,-69.82421875,0.0
36.26953125,-12.20703125,-39.0625,-33.69140625,-43.9453125,-37.59765625,0.0
36.2734375,-38.57421875,-41.015625,-37.109375,-43.9453125,62.5,0.0
36.27734375,-65.91796875,-41.015625,-62.98828125,-40.0390625,67.87109375,0.0
36.28125,-51.7578125,-43.9453125,-72.265625,-35.64453125,41.50390625,0.0
36.28515625,-9.27734375,-46.875,-42.96875,-34.66796875,10.25390625,0.0
36.2890625,4.39453125,-36.1328125,-14.6484375,-38.0859375,-43.45703125,0.0
36.29296875,-17.08984375,-27.83203125,-9.27734375,-36.62109375,11.23046875,0.0
36.296875,-57.12890625,-31.73828125,-34.1796875,-37.59765625,34.66796875,0.0
36.30078125,-43.45703125,-35.64453125,-48.33984375,-36.1328125,29.296875,0.0
36.3046875,-3.41796875,-31.25,-27.83203125,-41.50390625,25.87890625,0.0
36.30859375,0.0,-25.390625,-30.76171875,-50.29296875,40.0390625,0.0
36.3125,-51.26953125,-42.48046875,-61.03515625,-59.08203125,19.53125,0.0
36.31640625,-86.42578125,-52.24609375,-56.640625,-53.22265625,-16.6015625,0.0
36.3203125,-66.89453125,-54.19921875,-42.48046875,-40.0390625,-63.4765625,0.0
36.32421875,-11.23046875,-46.875,-38.0859375,-41.015625,-47.8515625,0.0
36.328125,-2.44140625,-40.52734375,-33.69140625,-50.29296875,-11.23046875,0.0
36.33203125,-39.55078125,-43.45703125,-36.1328125,-47.36328125,-2.9296875,0.0
36.3359375,-73.73046875,-41.015625,-44.43359375,-48.33984375,-83.49609375,0.0
36.33984375,-55.6640625,-48.828125,-34.1796875,-42.96875,-187.01171875,0.0
36.34375,-3.90625,-41.50390625,-14.16015625,-38.57421875,-127.44140625,0.0
36.34765625,0.48828125,-31.25,-5.859375,-52.734375,-60.05859375,0.0
36.3515625,-31.25,-28.80859375,-0.48828125,-50.29296875,6.34765625,0.0
36.35546875,-79.1015625,-39.55078125,-10.7421875,-62.5,40.52734375,0.0
36.359375,-83.0078125,-46.38671875,-22.4609375,-63.4765625,11.23046875,0.0
36.36328125,-22.94921875,-39.0625,-10.25390625,-34.1796875,-23.4375,0.0
36.3671875,15.13671875,-27.34375,7.32421875,-27.83203125,2.44140625,0.0
36.37109375,-26.85546875,-35.64453125,-7.32421875,-42.96875,-22.4609375,0.0
36.375,-68.359375,-45.41015625,-11.23046875,-37.59765625,-16.11328125,0.0
36.37890625,-70.3125,-44.921875,-7.32421875,-32.2265625,-6.34765625,0.0
36.3828125,-39.55078125,-39.55078125,-9.27734375,-35.64453125,1.953125,0.0
36.38671875,-16.11328125,-29.78515625,6.8359375,-39.55078125,78.125,0.0
36.390625,-41.50390625,-32.71484375,-6.8359375,-42.96875,138.671875,0.0
36.39453125,-94.23828125,-40.52734375,-30.2734375,-41.015625,66.89453125,0.0
36.3984375,-84.47265625,-26.3671875,-6.8359375,-27.34375,41.9921875,0.0
36.40234375,-34.1796875,-18.5546875,20.99609375,-30.76171875,114.2578125,0.0
36.40625,-19.04296875,-34.66796875,27.83203125,-45.41015625,97.16796875,0.0
36.41015625,-36.1328125,-50.78125,9.27734375,-49.8046875,-45.8984375,0.0
36.4140625,-54.6875,-47.36328125,-10.7421875,-43.45703125,-109.375,0.0
36.41796875,-72.265625,-43.9453125,-25.87890625,-42.48046875,-55.6640625,0.0
36.421875,-41.015625,-41.015625,-19.53125,-41.50390625,-9.765625,0.0
36.42578125,-11.23046875,-41.9921875,-2.9296875,-46.875,-30.2734375,0.0
36.4296875,-17.08984375,-36.1328125,-8.7890625,-59.5703125,-2.44140625,0.0
36.43359375,-58.59375,-34.1796875,-39.55078125,-54.6875,8.30078125,0.0
36.4375,-84.47265625,-41.9921875,-34.66796875,-52.734375,-32.2265625,0.0
36.44140625,-47.36328125,-39.55078125,-26.3671875,-60.05859375,-74.70703125,0.0
36.4453125,-5.37109375,-25.390625,-20.99609375,-47.8515625,-72.265625,0.0
36.44921875,-11.23046875,-17.578125,-4.39453125,-47.36328125,-45.8984375,0.0
36.453125,-58.10546875,-25.390625,-28.3203125,-51.26953125,-14.16015625,0.0
36.45703125,-72.75390625,-41.9921875,-49.31640625,-37.59765625,36.62109375,0.0
36.4609375,-51.7578125,-45.8984375,-51.7578125,-38.57421875,24.90234375,0.0
36.46484375,-20.99609375,-40.52734375,-47.36328125,-46.38671875,-29.78515625,0.0
36.46875,-7.32421875,-26.85546875,-36.1328125,-41.9921875,49.8046875,0.0
36.47265625,-53.22265625,-28.80859375,-37.59765625,-58.59375,107.91015625,0.0
36.4765625,-83.49609375,-32.71484375,-48.33984375,-45.41015625,37.59765625,0.0
36.48046875,-48.828125,-31.73828125,-38.0859375,-16.6015625,-36.1328125,0.0
36.484375,-14.6484375,-34.66796875,-37.109375,-27.83203125,-99.609375,0.0
36.48828125,-11.23046875,-32.71484375,-55.6640625,-42.96875,-100.5859375,0.0
36.4921875,-35.64453125,-26.85546875,-56.640625,-45.41015625,-78.61328125,0.0
36.49609375,-75.68359375,-21.97265625,-72.265625,-41.50390625,-80.078125,0.0
36.5,-59.5703125,-31.25,-85.9375,-29.78515625,-49.8046875,0.0
36.50390625,0.9765625,-35.64453125,-60.546875,-25.87890625,-79.58984375,0.0
36.5078125,3.41796875,-38.0859375,-51.7578125,-47.36328125,-106.4453125,0.0
36.51171875,-39.55078125,-35.64453125,-39.55078125,-60.05859375,39.0625,0.0
36.515625,-72.75390625,-34.66796875,-34.1796875,-46.38671875,86.9140625,0.0
36.51953125,-78.125,-44.43359375,-37.59765625,-45.8984375,-55.17578125,0.0
36.5234375,-31.25,-34.66796875,-17.578125,-44.43359375,-54.19921875,0.0
36.52734375,-4.39453125,-27.34375,-6.34765625,-47.8515625,-17.08984375,0.0
36.53125,-40.52734375,-40.0390625,-32.71484375,-60.05859375,-55.6640625,0.0
36.53515625,-82.03125,-51.7578125,-62.01171875,-56.640625,-47.8515625,0.0
36.5390625,-59.08203125,-41.015625,-47.36328125,-40.0390625,-51.26953125,0.0
36.54296875,-13.671875,-28.80859375,-30.76171875,-35.64453125,-78.125,0.0
36.546875,4.8828125,-32.71484375,-31.25,-40.52734375,-89.35546875,0.0
36.55078125,-22.4609375,-34.66796875,-46.38671875,-41.50390625,-42.96875,0.0
36.5546875,-60.05859375,-28.80859375,-48.33984375,-44.43359375,-42.48046875,0.0
36.55859375,-70.80078125,-39.0625,-40.52734375,-46.38671875,-77.63671875,0.0
36.5625,-51.26953125,-45.8984375,-41.015625,-47.36328125,-57.6171875,0.0
36.56640625,-14.6484375,-27.83203125,-41.9921875,-45.8984375,-91.796875,0.0
36.5703125,-26.3671875,-24.90234375,-50.29296875,-54.19921875,-85.44921875,0.0
36.57421875,-56.640625,-25.390625,-52.734375,-46.875,-48.33984375,0.0
36.578125,-76.171875,-30.76171875,-44.43359375,-32.71484375,-69.3359375,0.0
36.58203125,-64.453125,-43.9453125,-29.78515625,-33.69140625,-70.80078125,0.0
36.5859375,-17.578125,-34.1796875,-7.8125,-34.66796875,-55.17578125,0.0
36.58984375,-26.3671875,-29.78515625,-24.90234375,-39.0625,-48.828125,0.0
36.59375,-72.265625,-37.59765625,-39.0625,-46.38671875,-24.4140625,0.0
36.59765625,-95.21484375,-43.9453125,-52.24609375,-43.9453125,-2.44140625,0.0
36.6015625,-54.6875,-36.62109375,-48.828125,-27.34375,18.5546875,0.0
36.60546875,-15.13671875,-35.64453125,-10.7421875,-33.69140625,39.0625,0.0
36.609375,-12.20703125,-48.33984375,-21.97265625,-49.8046875,4.8828125,0.0
36.61328125,-28.3203125,-43.45703125,-56.640625,-41.50390625,-27.83203125,0.0
36.6171875,-50.29296875,-27.83203125,-47.8515625,-27.83203125,-1.46484375,0.0
36.62109375,-39.55078125,-26.3671875,-40.0390625,-36.62109375,39.0625,0.0
36.625,-16.6015625,-34.66796875,-41.9921875,-48.828125,-10.25390625,0.0
36.62890625,-20.99609375,-42.96875,-38.0859375,-53.7109375,-122.0703125,0.0
36.6328125,-39.0625,-32.2265625,-24.4140625,-43.45703125,-198.73046875,0.0
36.63671875,-51.26953125,-20.5078125,-3.90625,-29.78515625,-167.48046875,0.0
36.640625,-49.8046875,-33.69140625,0.0,-30.2734375,-99.12109375,0.0
36.64453125,2.44140625,-36.62109375,2.44140625,-28.3203125,-92.7734375,0.0
36.6484375,23.92578125,-25.390625,7.32421875,-27.34375,-117.1875,0.0
36.65234375,-25.87890625,-33.203125,-10.7421875,-37.59765625,-143.5546875,0.0
36.65625,-62.5,-33.69140625,-16.6015625,-24.90234375,-66.40625,0.0
36.66015625,-46.875,-22.4609375,-13.671875,-11.23046875,109.375,0.0
36.6640625,-13.18359375,-19.04296875,6.34765625,-20.99609375,206.54296875,0.0
36.66796875,-3.41796875,-16.6015625,20.99609375,-31.25,88.8671875,0.0
36.671875,-28.3203125,-25.87890625,-0.9765625,-29.78515625,48.33984375,0.0
36.67578125,-67.3828125,-36.1328125,-19.53125,-32.2265625,97.16796875,0.0
36.6796875,-58.10546875,-26.85546875,-26.3671875,-25.87890625,47.8515625,0.0
36.68359375,-20.01953125,-20.99609375,-15.625,-19.04296875,40.52734375,0.0
36.6875,-6.34765625,-33.69140625,-15.625,-11.23046875,74.21875,0.0
36.69140625,-24.90234375,-32.2265625,-21.484375,-19.04296875,85.44921875,0.0
36.6953125,-60.05859375,-31.73828125,-22.4609375,-25.87890625,81.0546875,0.0
36.69921875,-70.3125,-33.203125,-33.203125,-15.13671875,45.8984375,0.0
36.703125,-25.87890625,-28.80859375,-23.4375,-15.13671875,-1.46484375,0.0
36.70703125,-3.41796875,-41.9921875,-26.3671875,-28.80859375,-42.96875,0.0
36.7109375,-20.01953125,-38.57421875,-36.62109375,-35.64453125,30.76171875,0.0
36.71484375,-54.6875,-35.15625,-27.83203125,-24.4140625,-31.73828125,0.0
36.71875,-54.6875,-39.55078125,-29.78515625,-8.30078125,-112.3046875,0.0
36.72265625,-27.83203125,-35.64453125,-36.1328125,-12.6953125,-99.609375,0.0
36.7265625,-14.16015625,-25.87890625,-26.3671875,-18.5546875,-35.15625,0.0
36.73046875,1.46484375,-13.671875,-20.5078125,-5.37109375,-39.0625,0.0
36.734375,-21.484375,-32.2265625,-33.69140625,0.0,-77.1484375,0.0
36.73828125,-67.87109375,-48.33984375,-46.38671875,-16.11328125,5.37109375,0.0
36.7421875,-60.05859375,-45.41015625,-22.94921875,-24.4140625,-4.8828125,0.0
36.74609375,-28.3203125,-37.59765625,-2.44140625,-25.390625,-55.17578125,0.0
36.75,-22.4609375,-33.69140625,-13.671875,-16.6015625,-85.44921875,0.0
36.75390625,-58.10546875,-41.015625,-40.0390625,-12.6953125,-148.4375,0.0
36.7578125,-75.1953125,-37.109375,-42.48046875,-14.16015625,-94.23828125,0.0
36.76171875,-38.57421875,-26.3671875,-35.64453125,-10.7421875,4.39453125,0.0
36.765625,-12.20703125,-36.62109375,-41.015625,-12.6953125,4.8828125,0.0
36.76953125,-25.87890625,-41.9921875,-40.0390625,-21.97265625,5.859375,0.0
36.7734375,-65.91796875,-23.92578125,-30.2734375,-25.390625,-13.671875,0.0
36.77734375,-93.75,-23.4375,-37.59765625,-20.5078125,-59.08203125,0.0
36.78125,-78.61328125,-40.0390625,-40.52734375,-25.390625,-118.65234375,0.0
36.78515625,-37.109375,-36.62109375,-24.90234375,-31.25,-106.4453125,0.0
36.7890625,-25.87890625,-22.4609375,-22.94921875,-30.2734375,-20.5078125,0.0
36.79296875,-61.03515625,-24.4140625,-52.734375,-41.015625,-29.296875,0.0
36.796875,-74.70703125,-33.203125,-75.68359375,-31.73828125,-16.11328125,0.0
36.80078125,-40.0390625,-36.62109375,-62.01171875,-11.23046875,-27.83203125,0.0
36.8046875,2.9296875,-25.390625,-27.34375,-4.8828125,35.64453125,0.0
36.80859375,-2.9296875,-22.4609375,-17.578125,-14.6484375,79.58984375,0.0
36.8125,-48.33984375,-45.41015625,-25.87890625,-29.78515625,79.1015625,0.0
36.81640625,-78.61328125,-55.17578125,-31.25,-27.34375,45.41015625,0.0
36.8203125,-71.77734375,-48.828125,-35.15625,-13.671875,-22.4609375,0.0
36.82421875,-34.66796875,-46.38671875,-35.64453125,-18.06640625,-46.875,0.0
36.828125,-20.01953125,-48.828125,-28.80859375,-27.34375,-13.671875,0.0
36.83203125,-56.15234375,-57.12890625,-38.57421875,-33.69140625,-51.26953125,0.0
36.8359375,-93.26171875,-55.6640625,-63.4765625,-36.1328125,-62.01171875,0.0
36.83984375,-68.359375,-41.015625,-52.734375,-16.11328125,-34.66796875,0.0
36.84375,-22.4609375,-38.0859375,-17.08984375,-2.9296875,-12.20703125,0.0
36.84765625,-12.20703125,-41.9921875,-4.8828125,-15.13671875,9.27734375,0.0
36.8515625,-45.8984375,-39.55078125,-6.34765625,-29.296875,69.3359375,0.0
36.85546875,-85.44921875,-42.96875,-13.671875,-19.04296875,45.8984375,0.0
36.859375,-90.8203125,-54.19921875,-13.671875,-10.25390625,-26.85546875,0.0
36.86328125,-54.6875,-51.7578125,2.9296875,-13.671875,8.7890625,0.0
36.8671875,-22.94921875,-34.66796875,24.4140625,-15.13671875,9.27734375,0.0
36.87109375,-34.1796875,-34.1796875,4.39453125,-20.5078125,-34.1796875,0.0
36.875,-72.75390625,-48.33984375,-20.01953125,-16.11328125,-79.58984375,0.0
36.87890625,-86.42578125,-52.24609375,-17.08984375,-14.6484375,-81.54296875,0.0
36.8828125,-44.921875,-47.36328125,-8.7890625,-15.625,-66.89453125,0.0
36.88671875,-10.7421875,-33.69140625,-4.8828125,-11.23046875,-60.05859375,0.0
36.890625,-20.5078125,-33.69140625,-22.4609375,-24.4140625,-75.1953125,0.0
36.89453125,-52.24609375,-43.45703125,-23.4375,-30.76171875,-99.12109375,0.0
36.8984375,-49.8046875,-30.2734375,7.8125,-23.4375,-41.9921875,0.0
36.90234375,-5.859375,-33.203125,23.4375,-11.71875,20.5078125,0.0
36.90625,23.4375,-43.9453125,13.671875,-15.625,30.2734375,0.0
36.91015625,3.41796875,-48.828125,-22.4609375,-35.64453125,10.25390625,0.0
36.9140625,-23.4375,-36.62109375,-22.4609375,-21.484375,25.390625,0.0
36.91796875,-34.66796875,-28.3203125,-7.32421875,-11.71875,32.71484375,0.0
36.921875,-13.671875,-35.64453125,-16.11328125,-14.6484375,51.26953125,0.0
36.92578125,8.7890625,-41.015625,-31.73828125,-17.578125,-19.04296875,0.0
36.9296875,-1.953125,-44.921875,-32.2265625,-34.1796875,-64.453125,0.0
36.93359375,-38.57421875,-42.48046875,-26.3671875,-33.69140625,-20.5078125,0.0
36.9375,-66.89453125,-37.109375,-32.71484375,-23.4375,-1.953125,0.0
36.94140625,-39.0625,-38.57421875,-30.76171875,-20.99609375,12.20703125,0.0
36.9453125,11.23046875,-30.2734375,-13.18359375,-16.11328125,-3.90625,0.0
36.94921875,21.484375,-23.4375,-3.90625,-22.4609375,30.2734375,0.0
36.953125,-31.73828125,-29.78515625,-19.53125,-20.99609375,60.546875,0.0
36.95703125,-62.98828125,-44.43359375,-48.33984375,-17.08984375,-14.6484375,0.0
36.9609375,-41.50390625,-46.38671875,-38.0859375,-21.97265625,-101.07421875,0.0
36.96484375,-9.27734375,-30.2734375,-16.6015625,-26.85546875,-110.83984375,0.0
36.96875,5.859375,-23.92578125,-20.5078125,-28.80859375,-113.28125,0.0
36.97265625,-39.55078125,-48.33984375,-36.62109375,-33.69140625,-115.72265625,0.0
36.9765625,-79.58984375,-52.734375,-42.48046875,-40.0390625,-53.7109375,0.0
36.98046875,-62.98828125,-35.64453125,-28.3203125,-43.45703125,44.921875,0.0
36.984375,-27.83203125,-44.43359375,-24.4140625,-41.015625,5.37109375,0.0
36.98828125,-12.20703125,-46.38671875,-32.2265625,-48.828125,-96.6796875,0.0
36.9921875,-42.48046875,-26.85546875,-24.4140625,-52.24609375,-11.71875,0.0
36.99609375,-72.265625,-34.66796875,-22.4609375,-33.203125,5.37109375,0.0
37.0,-58.10546875,-50.78125,-34.1796875,-30.2734375,-22.94921875,0.0
37.00390625,-16.11328125,-43.45703125,-35.15625,-30.2734375,51.7578125,0.0
37.0078125,3.90625,-28.80859375,-16.11328125,-30.76171875,90.8203125,0.0
37.01171875,-19.04296875,-19.04296875,-13.18359375,-32.2265625,50.29296875,0.0
37.015625,-52.734375,-32.2265625,-23.92578125,-27.34375,68.359375,0.0
37.01953125,-49.8046875,-50.78125,-21.97265625,-21.97265625,100.09765625,0.0
37.0234375,-11.71875,-47.36328125,-22.4609375,-25.87890625,12.20703125,0.0
37.02734375,15.625,-40.0390625,-35.64453125,-19.04296875,-89.84375,0.0
37.03125,-21.484375,-48.33984375,-52.734375,-26.3671875,-50.78125,0.0
37.03515625,-82.03125,-55.6640625,-64.94140625,-42.96875,-15.625,0.0
37.0390625,-69.3359375,-48.33984375,-57.6171875,-23.4375,-81.54296875,0.0
37.04296875,-20.01953125,-41.015625,-44.921875,-16.6015625,-93.26171875,0.0
37.046875,-5.37109375,-40.52734375,-51.26953125,-30.76171875,-71.2890625,0.0
37.05078125,-26.85546875,-36.62109375,-61.03515625,-32.71484375,-47.36328125,0.0
37.0546875,-62.5,-28.80859375,-62.5,-34.1796875,-33.203125,0.0
37.05859375,-81.54296875,-30.2734375,-61.03515625,-27.34375,-14.16015625,0.0
37.0625,-51.7578125,-43.45703125,-59.08203125,-15.625,-34.66796875,0.0
37.06640625,-8.30078125,-40.0390625,-49.8046875,-11.23046875,-83.984375,0.0
37.0703125,-24.90234375,-26.3671875,-62.01171875,-19.53125,-45.8984375,0.0
37.07421875,-65.91796875,-34.66796875,-75.1953125,-33.69140625,7.32421875,0.0
37.078125,-81.0546875,-49.31640625,-57.6171875,-41.015625,16.11328125,0.0
37.08203125,-41.50390625,-42.96875,-32.71484375,-37.59765625,-10.25390625,0.0
37.0859375,-0.9765625,-34.1796875,-17.578125,-39.55078125,-32.71484375,0.0
37.08984375,-19.53125,-40.0390625,-25.87890625,-50.29296875,-65.91796875,0.0
37.09375,-59.5703125,-46.875,-42.96875,-57.12890625,-60.05859375,0.0
37.09765625,-92.28515625,-54.6875,-30.2734375,-59.08203125,-132.32421875,0.0
37.1015625,-51.7578125,-44.921875,-22.94921875,-37.59765625,-270.01953125,0.0
37.10546875,8.30078125,-27.34375,-25.390625,-34.66796875,-161.1328125,0.0
37.109375,0.0,-35.64453125,-16.11328125,-47.8515625,-42.96875,0.0
37.11328125,-57.6171875,-51.26953125,-32.71484375,-50.78125,-35.64453125,0.0
37.1171875,-81.54296875,-48.33984375,-35.15625,-40.0390625,-18.5546875,0.0
37.12109375,-63.96484375,-45.41015625,-32.71484375,-36.62109375,-33.69140625,0.0
37.125,-40.52734375,-51.26953125,-30.2734375,-50.78125,-75.68359375,0.0
37.12890625,-7.32421875,-55.6640625,-23.4375,-56.640625,-105.46875,0.0
37.1328125,-20.01953125,-46.875,-24.90234375,-35.64453125,-97.65625,0.0
37.13671875,-57.12890625,-40.0390625,-24.4140625,-27.34375,-87.890625,0.0
37.140625,-57.12890625,-51.26953125,-31.73828125,-41.015625,-93.26171875,0.0
37.14453125,-8.30078125,-43.9453125,-22.94921875,-39.0625,-4.39453125,0.0
37.1484375,18.5546875,-23.4375,-20.99609375,-31.73828125,19.53125,0.0
37.15234375,-36.1328125,-29.78515625,-53.22265625,-46.875,-10.7421875,0.0
37.15625,-81.0546875,-48.33984375,-55.6640625,-64.94140625,60.546875,0.0
37.16015625,-63.4765625,-49.8046875,-22.4609375,-40.52734375,75.68359375,0.0
37.1640625,-15.13671875,-41.9921875,-9.27734375,-29.296875,87.890625,0.0
37.16796875,-3.41796875,-38.57421875,-14.6484375,-53.7109375,126.953125,0.0
37.171875,-34.66796875,-38.57421875,-31.73828125,-62.01171875,107.91015625,0.0
37.17578125,-59.08203125,-41.9921875,-51.26953125,-52.24609375,11.71875,0.0
37.1796875,-45.41015625,-40.0390625,-36.62109375,-43.45703125,-67.87109375,0.0
37.18359375,1.953125,-42.96875,-16.6015625,-40.0390625,-6.8359375,0.0
37.1875,20.99609375,-43.45703125,-20.99609375,-44.921875,33.69140625,0.0
37.19140625,-0.9765625,-24.90234375,-19.04296875,-41.015625,3.90625,0.0
37.1953125,-44.921875,-20.01953125,-30.76171875,-47.8515625,-21.484375,0.0
37.19921875,-49.8046875,-35.15625,-42.48046875,-49.31640625,-22.94921875,0.0
37.203125,-21.484375,-39.55078125,-40.52734375,-41.50390625,-3.90625,0.0
37.20703125,-1.46484375,-33.69140625,-20.99609375,-48.33984375,-29.78515625,0.0
37.2109375,-20.99609375,-38.0859375,-13.18359375,-72.265625,-31.73828125,0.0
37.21484375,-51.26953125,-36.62109375,-23.4375,-66.89453125,24.4140625,0.0
37.21875,-47.36328125,-27.83203125,-24.4140625,-35.15625,31.73828125,0.0
37.22265625,-11.71875,-30.2734375,-20.01953125,-29.296875,31.25,0.0
37.2265625,14.6484375,-29.78515625,-14.16015625,-37.59765625,-14.16015625,0.0
37.23046875,-6.8359375,-24.90234375,-18.06640625,-52.734375,-42.96875,0.0
37.234375,-50.29296875,-27.34375,-35.15625,-54.6875,-85.44921875,0.0
37.23828125,-70.3125,-42.96875,-40.0390625,-45.8984375,-120.60546875,0.0
37.2421875,-52.734375,-42.96875,-24.4140625,-44.43359375,-133.30078125,0.0
37.24609375,-31.73828125,-28.3203125,-28.3203125,-50.78125,-66.40625,0.0
37.25,-32.71484375,-24.4140625,-43.9453125,-54.19921875,-1.953125,0.0
37.25390625,-82.03125,-32.2265625,-54.6875,-58.10546875,-58.10546875,0.0
37.2578125,-90.8203125,-36.1328125,-58.59375,-46.875,-16.11328125,0.0
37.26171875,-59.08203125,-36.1328125,-66.40625,-36.1328125,21.484375,0.0
37.265625,-25.390625,-41.9921875,-46.38671875,-38.57421875,-35.15625,0.0
37.26953125,-17.578125,-44.43359375,-13.18359375,-46.38671875,-13.671875,0.0
37.2734375,-41.9921875,-39.0625,-26.3671875,-47.36328125,-33.203125,0.0
37.27734375,-58.59375,-35.64453125,-32.71484375,-35.15625,-62.5,0.0
37.28125,-35.64453125,-31.25,0.48828125,-27.83203125,-42.48046875,0.0
37.28515625,-5.859375,-29.78515625,5.37109375,-43.45703125,-77.1484375,0.0
37.2890625,-22.94921875,-31.73828125,-7.32421875,-71.2890625,-94.7265625,0.0
37.29296875,-50.78125,-29.296875,-21.97265625,-70.3125,-40.52734375,0.0
37.296875,-77.63671875,-43.9453125,-45.41015625,-63.4765625,-29.78515625,0.0
37.30078125,-66.89453125,-62.01171875,-60.05859375,-63.96484375,-56.15234375,0.0
37.3046875,0.0,-45.41015625,-60.546875,-66.89453125,-74.21875,0.0
37.30859375,20.99609375,-33.69140625,-45.8984375,-73.2421875,-96.19140625,0.0
37.3125,-11.71875,-38.57421875,-40.52734375,-84.47265625,-24.90234375,0.0
37.31640625,-50.29296875,-49.31640625,-53.7109375,-80.56640625,10.25390625,0.0
37.3203125,-37.59765625,-51.7578125,-35.64453125,-62.98828125,32.2265625,0.0
37.32421875,19.53125,-30.2734375,-6.34765625,-48.33984375,97.65625,0.0
37.328125,35.64453125,-29.78515625,-15.13671875,-55.17578125,9.27734375,0.0
37.33203125,-7.32421875,-46.875,-34.1796875,-66.89453125,-81.0546875,0.0
37.3359375,-30.76171875,-34.1796875,-23.4375,-47.36328125,-72.75390625,0.0
37.33984375,-12.20703125,-24.4140625,-6.34765625,-38.0859375,-67.87109375,0.0
37.34375,12.6953125,-43.45703125,-19.53125,-48.828125,-62.01171875,0.0
37.34765625,23.92578125,-46.875,-20.99609375,-55.6640625,-65.91796875,0.0
37.3515625,-11.23046875,-41.9921875,-21.97265625,-63.4765625,-84.9609375,0.0
37.35546875,-63.96484375,-46.875,-41.015625,-71.2890625,-111.328125,0.0
37.359375,-57.12890625,-45.8984375,-45.8984375,-70.3125,-176.7578125,0.0
37.36328125,-3.41796875,-44.921875,-42.48046875,-53.7109375,-169.43359375,0.0
37.3671875,43.9453125,-32.2265625,-28.3203125,-41.9921875,-60.546875,0.0
37.37109375,16.6015625,-27.83203125,-17.578125,-51.7578125,-3.90625,0.0
37.375,-27.83203125,-38.57421875,-26.3671875,-47.36328125,-69.82421875,0.0
37.37890625,-37.109375,-39.55078125,-32.71484375,-47.36328125,-39.55078125,0.0
37.3828125,11.23046875,-22.4609375,-9.765625,-39.0625,-25.390625,0.0
37.38671875,34.1796875,-19.04296875,-1.46484375,-36.1328125,-49.31640625,0.0
37.390625,-7.32421875,-35.64453125,-21.97265625,-69.82421875,29.296875,0.0
37.39453125,-33.69140625,-47.8515625,-43.9453125,-67.87109375,90.8203125,0.0
37.3984375,-50.29296875,-51.7578125,-51.7578125,-50.78125,41.9921875,0.0
37.40234375,-32.2265625,-48.828125,-52.734375,-49.31640625,-60.05859375,0.0
37.40625,19.04296875,-41.9921875,-41.015625,-49.8046875,-14.6484375,0.0
37.41015625,10.25390625,-42.48046875,-29.296875,-61.03515625,-20.99609375,0.0
37.4140625,-40.52734375,-32.71484375,-26.85546875,-64.94140625,-100.5859375,0.0
37.41796875,-62.01171875,-31.25,-40.52734375,-54.19921875,-59.08203125,0.0
37.421875,-41.50390625,-42.96875,-44.921875,-43.9453125,20.5078125,0.0
37.42578125,-17.08984375,-45.41015625,-30.2734375,-51.26953125,5.37109375,0.0
37.4296875,-15.13671875,-24.4140625,-8.7890625,-57.12890625,20.01953125,0.0
37.43359375,-56.15234375,-18.06640625,-17.578125,-49.8046875,-12.20703125,0.0
37.4375,-95.21484375,-40.52734375,-39.55078125,-50.29296875,-76.171875,0.0
37.44140625,-45.8984375,-39.0625,-21.97265625,-37.59765625,-39.55078125,0.0
37.4453125,15.13671875,-20.01953125,2.9296875,-15.625,-30.76171875,0.0
37.44921875,-11.23046875,-25.87890625,-18.06640625,-29.296875,-51.7578125,0.0
37.453125,-58.59375,-39.55078125,-48.828125,-52.734375,-23.4375,0.0
37.45703125,-62.01171875,-38.0859375,-54.19921875,-39.0625,-43.9453125,0.0
37.4609375,-53.22265625,-42.96875,-38.0859375,-30.76171875,-77.63671875,0.0
37.46484375,-27.83203125,-51.7578125,-21.484375,-41.9921875,-6.34765625,0.0
37.46875,-7.8125,-43.45703125,-13.671875,-41.50390625,-73.2421875,0.0
37.47265625,-43.9453125,-41.50390625,-30.76171875,-38.57421875,-84.47265625,0.0
37.4765625,-72.75390625,-39.55078125,-44.43359375,-25.390625,48.828125,0.0
37.48046875,-64.453125,-29.78515625,-35.15625,-16.11328125,88.8671875,0.0
37.484375,-32.2265625,-42.48046875,-20.01953125,-25.390625,47.36328125,0.0
37.48828125,-16.6015625,-47.36328125,-4.8828125,-27.83203125,-51.7578125,0.0
37.4921875,-46.875,-35.15625,-11.23046875,-43.45703125,-23.4375,0.0
37.49609375,-82.51953125,-35.64453125,-11.71875,-34.1796875,32.2265625,0.0
37.5,-69.3359375,-41.50390625,12.6953125,-24.90234375,-5.37109375,0.0
37.50390625,-33.203125,-41.9921875,27.34375,-33.203125,32.2265625,0.0
37.5078125,-20.5078125,-36.62109375,31.25,-36.62109375,99.12109375,0.0
37.51171875,-42.48046875,-39.0625,19.53125,-50.29296875,-20.01953125,0.0
37.515625,-70.3125,-41.9921875,-4.8828125,-47.8515625,-27.83203125,0.0
37.51953125,-77.63671875,-48.828125,-14.6484375,-37.109375,-12.6953125,0.0
37.5234375,-34.1796875,-47.36328125,-11.23046875,-31.73828125,-114.74609375,0.0
37.52734375,5.859375,-24.90234375,0.0,-20.5078125,-107.421875,0.0
37.53125,-16.6015625,-23.4375,-2.9296875,-35.15625,-43.9453125,0.0
37.53515625,-55.17578125,-40.0390625,-20.01953125,-34.1796875,-35.64453125,0.0
37.5390625,-52.734375,-42.48046875,-31.25,-18.5546875,-46.875,0.0
37.54296875,-16.6015625,-33.69140625,-14.6484375,-22.4609375,-33.69140625,0.0
37.546875,14.16015625,-24.4140625,10.25390625,-27.83203125,-32.2265625,0.0
37.55078125,-10.25390625,-32.71484375,7.8125,-40.52734375,-92.7734375,0.0
37.5546875,-54.6875,-38.57421875,-0.9765625,-39.55078125,-122.55859375,0.0
37.55859375,-64.453125,-48.33984375,-26.85546875,-33.69140625,-21.484375,0.0
37.5625,-39.55078125,-46.875,-26.85546875,-31.73828125,52.24609375,0.0
37.56640625,-13.18359375,-41.50390625,-11.23046875,-28.3203125,4.39453125,0.0
37.5703125,-12.6953125,-47.8515625,-23.92578125,-43.45703125,31.25,0.0
37.57421875,-53.7109375,-50.29296875,-32.71484375,-40.0390625,80.56640625,0.0
37.578125,-69.82421875,-45.41015625,-21.484375,-29.78515625,38.0859375,0.0
37.58203125,-43.9453125,-34.66796875,-10.7421875,-28.80859375,-47.36328125,0.0
37.5859375,-10.25390625,-35.15625,-14.6484375,-32.71484375,-111.81640625,0.0
37.58984375,-9.27734375,-40.0390625,-33.203125,-39.55078125,-90.33203125,0.0
37.59375,-39.0625,-34.66796875,-32.2265625,-29.296875,-71.2890625,0.0
37.59765625,-68.84765625,-40.52734375,-25.87890625,-31.25,-116.2109375,0.0
37.6015625,-39.55078125,-40.52734375,-32.71484375,-30.2734375,-152.34375,0.0
37.60546875,12.20703125,-36.62109375,-13.671875,-31.25,-77.1484375,0.0
37.609375,14.6484375,-36.1328125,-4.39453125,-49.31640625,41.50390625,0.0
37.61328125,-22.94921875,-40.52734375,-21.97265625,-44.921875,37.109375,0.0
37.6171875,-41.9921875,-39.55078125,-31.25,-30.76171875,-9.765625,0.0
37.62109375,-27.34375,-37.59765625,-30.2734375,-41.015625,-15.625,0.0
37.625,0.0,-51.7578125,-24.4140625,-46.875,-74.21875,0.0
37.62890625,8.7890625,-59.5703125,-14.16015625,-48.828125,-132.8125,0.0
37.6328125,-12.20703125,-47.8515625,-17.578125,-44.43359375,-45.41015625,0.0
37.63671875,-27.34375,-26.85546875,-11.23046875,-20.01953125,52.24609375,0.0
37.640625,-39.0625,-28.80859375,0.0,-13.671875,40.0390625,0.0
37.64453125,-10.7421875,-40.0390625,-11.23046875,-30.76171875,8.30078125,0.0
37.6484375,20.5078125,-25.87890625,-21.97265625,-41.015625,78.125,0.0
37.65234375,-25.390625,-27.34375,-39.55078125,-49.31640625,158.69140625,0.0
37.65625,-71.2890625,-39.55078125,-39.55078125,-49.31640625,93.26171875,0.0
37.66015625,-43.45703125,-38.57421875,-20.01953125,-30.76171875,16.11328125,0.0
37.6640625,-7.32421875,-32.2265625,-4.39453125,-37.59765625,14.6484375,0.0
37.66796875,2.44140625,-31.73828125,-20.5078125,-50.78125,19.53125,0.0
37.671875,-23.4375,-45.41015625,-54.19921875,-53.22265625,45.8984375,0.0
37.67578125,-76.66015625,-52.734375,-64.94140625,-53.7109375,109.375,0.0
37.6796875,-68.84765625,-51.7578125,-56.15234375,-38.57421875,108.88671875,0.0
37.68359375,-24.4140625,-47.36328125,-31.25,-37.109375,68.359375,0.0
37.6875,-6.34765625,-34.66796875,-9.27734375,-40.0390625,119.62890625,0.0
37.69140625,-31.73828125,-32.71484375,-23.4375,-34.66796875,57.12890625,0.0
37.6953125,-77.1484375,-28.3203125,-49.8046875,-34.66796875,-29.296875,0.0
37.69921875,-81.54296875,-38.0859375,-57.12890625,-26.3671875,-91.796875,0.0
37.703125,-44.921875,-52.734375,-49.8046875,-29.296875,-128.90625,0.0
37.70703125,-17.08984375,-47.8515625,-52.24609375,-34.66796875,-115.234375,0.0
37.7109375,-27.34375,-33.69140625,-52.24609375,-41.015625,-114.2578125,0.0
37.71484375,-66.89453125,-31.73828125,-66.89453125,-36.1328125,-72.265625,0.0
37.71875,-83.0078125,-56.15234375,-89.84375,-32.2265625,11.71875,0.0
37.72265625,-45.41015625,-59.5703125,-81.0546875,-36.62109375,26.85546875,0.0
37.7265625,11.71875,-39.55078125,-52.24609375,-21.484375,2.9296875,0.0
37.73046875,0.9765625,-34.1796875,-49.31640625,-29.296875,61.5234375,0.0
37.734375,-64.94140625,-42.48046875,-62.5,-39.0625,83.49609375,0.0
37.73828125,-81.54296875,-45.41015625,-71.2890625,-27.83203125,50.29296875,0.0
37.7421875,-44.43359375,-31.73828125,-53.22265625,-15.13671875,-41.9921875,0.0
37.74609375,-14.16015625,-21.484375,-40.52734375,-18.06640625,-0.48828125,0.0
37.75,-29.296875,-38.57421875,-61.03515625,-40.0390625,37.109375,0.0
37.75390625,-63.4765625,-50.29296875,-64.453125,-48.828125,-22.4609375,0.0
37.7578125,-69.82421875,-36.62109375,-55.17578125,-24.90234375,-3.90625,0.0
37.76171875,-36.62109375,-31.25,-59.08203125,-7.8125,17.578125,0.0
37.765625,-3.90625,-41.50390625,-79.58984375,-26.85546875,80.56640625,0.0
37.76953125,-31.25,-60.546875,-82.51953125,-50.29296875,50.78125,0.0
37.7734375,-63.4765625,-51.26953125,-65.91796875,-51.26953125,-7.32421875,0.0
37.77734375,-78.61328125,-30.76171875,-70.3125,-34.66796875,-15.625,0.0
37.78125,-54.19921875,-36.1328125,-62.98828125,-26.3671875,-85.44921875,0.0
37.78515625,-3.90625,-37.109375,-50.29296875,-23.92578125,-88.37890625,0.0
37.7890625,0.48828125,-24.90234375,-38.0859375,-30.2734375,-29.296875,0.0
37.79296875,-35.64453125,-23.4375,-36.62109375,-34.1796875,-32.71484375,0.0
37.796875,-69.82421875,-36.62109375,-60.05859375,-36.62109375,-42.48046875,0.0
37.80078125,-53.7109375,-34.1796875,-50.78125,-24.4140625,-2.9296875,0.0
37.8046875,-6.8359375,-20.01953125,-29.296875,-17.578125,17.08984375,0.0
37.80859375,0.9765625,-23.92578125,-46.38671875,-31.25,-0.48828125,0.0
37.8125,-38.57421875,-33.69140625,-56.15234375,-34.1796875,-20.5078125,0.0
37.81640625,-77.63671875,-51.26953125,-65.91796875,-39.0625,-88.8671875,0.0
37.8203125,-65.91796875,-54.6875,-48.33984375,-29.296875,-67.87109375,0.0
37.82421875,-22.94921875,-37.59765625,-7.8125,-20.99609375,-28.80859375,0.0
37.828125,-2.9296875,-37.109375,-4.8828125,-36.62109375,-23.92578125,0.0
37.83203125,-26.85546875,-42.48046875,-15.13671875,-41.50390625,-30.76171875,0.0
37.8359375,-52.24609375,-35.15625,-5.37109375,-32.71484375,-55.17578125,0.0
37.83984375,-57.6171875,-44.43359375,-2.9296875,-26.3671875,-73.73046875,0.0
37.84375,-26.3671875,-50.78125,-14.6484375,-36.1328125,-82.03125,0.0
37.84765625,14.16015625,-37.109375,-27.34375,-53.22265625,52.24609375,0.0
37.8515625,-16.11328125,-26.85546875,-27.83203125,-53.7109375,95.703125,0.0
37.85546875,-63.4765625,-33.69140625,-31.25,-47.36328125,-45.8984375,0.0
37.859375,-59.08203125,-41.9921875,-33.69140625,-43.9453125,-58.59375,0.0
37.86328125,-19.53125,-40.0390625,-29.296875,-32.71484375,45.8984375,0.0
37.8671875,-5.859375,-43.45703125,-20.01953125,-42.48046875,77.1484375,0.0
37.87109375,-20.5078125,-45.8984375,-10.7421875,-48.33984375,92.7734375,0.0
37.875,-60.546875,-45.8984375,-20.5078125,-42.48046875,95.21484375,0.0
37.87890625,-80.078125,-44.43359375,-24.90234375,-31.25,64.453125,0.0
37.8828125,-36.62109375,-31.25,-4.8828125,-25.390625,67.3828125,0.0
37.88671875,-11.23046875,-34.1796875,-4.39453125,-36.62109375,95.703125,0.0
37.890625,-34.66796875,-45.8984375,-20.99609375,-45.8984375,28.3203125,0.0
37.89453125,-72.75390625,-45.8984375,-22.4609375,-47.8515625,-125.9765625,0.0
37.8984375,-91.796875,-35.64453125,-10.25390625,-44.43359375,-144.04296875,0.0
37.90234375,-66.89453125,-26.85546875,-7.8125,-27.34375,-75.68359375,0.0
37.90625,-31.73828125,-30.76171875,-9.27734375,-30.76171875,-137.20703125,0.0
37.91015625,-39.0625,-39.0625,-18.06640625,-48.33984375,-112.3046875,0.0
37.9140625,-83.49609375,-39.55078125,-33.69140625,-50.29296875,-105.95703125,0.0
37.91796875,-117.67578125,-48.828125,-66.40625,-41.9921875,-220.21484375,0.0
37.921875,-89.35546875,-62.01171875,-69.82421875,-35.64453125,-232.91015625,0.0
37.92578125,-42.48046875,-53.22265625,-37.109375,-29.78515625,-219.23828125,0.0
37.9296875,-28.3203125,-28.80859375,-22.94921875,-36.1328125,-173.33984375,0.0
37.93359375,-62.5,-30.76171875,-43.45703125,-36.62109375,-171.875,0.0
37.9375,-102.05078125,-45.8984375,-62.01171875,-38.0859375,-168.9453125,0.0
37.94140625,-79.58984375,-43.9453125,-65.91796875,-39.0625,-118.1640625,0.0
37.9453125,-9.765625,-34.66796875,-57.6171875,-32.71484375,-155.2734375,0.0
37.94921875,3.41796875,-34.1796875,-46.38671875,-43.45703125,-69.3359375,0.0
37.953125,-32.71484375,-39.55078125,-62.98828125,-48.33984375,8.30078125,0.0
37.95703125,-61.03515625,-37.109375,-68.359375,-45.41015625,-13.18359375,0.0
37.9609375,-46.875,-42.48046875,-56.15234375,-40.0390625,35.64453125,0.0
37.96484375,3.41796875,-38.57421875,-42.96875,-29.296875,87.40234375,0.0
37.96875,9.765625,-25.87890625,-43.45703125,-37.59765625,47.36328125,0.0
37.97265625,-42.48046875,-41.50390625,-60.546875,-58.10546875,-22.4609375,0.0
37.9765625,-66.40625,-55.17578125,-61.03515625,-43.9453125,-21.484375,0.0
37.98046875,-47.8515625,-54.19921875,-38.0859375,-28.80859375,22.4609375,0.0
37.984375,-11.71875,-43.45703125,-29.296875,-38.57421875,30.76171875,0.0
37.98828125,3.41796875,-30.76171875,-29.78515625,-53.7109375,11.71875,0.0
37.9921875,-21.97265625,-23.4375,-42.96875,-57.6171875,31.73828125,0.0
37.99609375,-54.19921875,-32.2265625,-59.08203125,-53.22265625,-15.13671875,0.0
38.0,-60.546875,-47.36328125,-57.6171875,-40.52734375,-118.65234375,0.0
38.00390625,-19.04296875,-45.41015625,-49.8046875,-38.0859375,-144.53125,0.0
38.0078125,20.5078125,-24.90234375,-46.38671875,-34.66796875,-158.69140625,0.0
38.01171875,-12.20703125,-26.85546875,-48.828125,-43.45703125,-188.4765625,0.0
38.015625,-50.78125,-48.33984375,-39.55078125,-51.7578125,-186.03515625,0.0
38.01953125,-44.43359375,-60.05859375,-37.109375,-40.52734375,-45.8984375,0.0
38.0234375,-9.765625,-42.96875,-33.203125,-37.109375,68.359375,0.0
38.02734375,33.69140625,-24.90234375,-22.94921875,-35.64453125,-1.953125,0.0
38.03125,17.578125,-36.62109375,-28.3203125,-44.43359375,-34.1796875,0.0
38.03515625,-33.69140625,-45.8984375,-42.96875,-49.8046875,-10.7421875,0.0
38.0390625,-46.875,-33.203125,-41.9921875,-45.41015625,2.44140625,0.0
38.04296875,-2.9296875,-21.484375,-8.30078125,-31.25,-6.34765625,0.0
38.046875,33.203125,-21.97265625,11.71875,-32.71484375,-55.17578125,0.0
38.05078125,8.30078125,-25.87890625,-3.41796875,-39.55078125,-5.859375,0.0
38.0546875,-41.50390625,-24.90234375,-40.0390625,-42.96875,44.43359375,0.0
38.05859375,-69.3359375,-38.0859375,-48.828125,-41.50390625,-9.27734375,0.0
38.0625,-33.203125,-43.9453125,-11.23046875,-37.109375,33.203125,0.0
38.06640625,18.06640625,-43.45703125,-5.37109375,-32.71484375,20.01953125,0.0
38.0703125,28.80859375,-33.203125,-10.25390625,-26.85546875,41.015625,0.0
38.07421875,-20.01953125,-34.1796875,-8.7890625,-33.203125,81.0546875,0.0
38.078125,-46.38671875,-42.48046875,-2.9296875,-18.06640625,81.54296875,0.0
38.08203125,-26.3671875,-37.59765625,1.953125,-11.71875,95.21484375,0.0
38.0859375,17.08984375,-28.3203125,0.48828125,-31.25,45.41015625,0.0
38.08984375,29.296875,-23.92578125,-12.20703125,-34.66796875,-17.578125,0.0
38.09375,-2.44140625,-32.71484375,-24.4140625,-35.64453125,-47.36328125,0.0
38.09765625,-38.57421875,-49.8046875,-34.1796875,-39.55078125,-25.87890625,0.0
38.1015625,-39.55078125,-46.875,-37.59765625,-36.62109375,36.62109375,0.0
38.10546875,4.39453125,-36.1328125,-38.57421875,-34.66796875,52.734375,0.0
38.109375,17.578125,-37.59765625,-36.1328125,-43.45703125,42.48046875,0.0
38.11328125,-17.578125,-41.50390625,-36.62109375,-52.24609375,41.9921875,0.0
38.1171875,-36.1328125,-38.57421875,-42.48046875,-35.64453125,-4.8828125,0.0
38.12109375,-24.4140625,-36.62109375,-32.71484375,-19.04296875,-10.25390625,0.0
38.125,11.23046875,-36.62109375,-20.01953125,-12.6953125,-24.4140625,0.0
38.12890625,33.69140625,-34.66796875,-21.97265625,-29.78515625,-64.453125,0.0
38.1328125,19.53125,-20.5078125,-16.6015625,-34.1796875,-53.7109375,0.0
38.13671875,-20.5078125,-19.04296875,-17.08984375,-18.06640625,-44.921875,0.0
38.140625,-29.296875,-41.015625,-29.296875,-27.34375,-83.49609375,0.0
38.14453125,14.16015625,-52.734375,-34.66796875,-39.55078125,-28.80859375,0.0
38.1484375,24.4140625,-42.96875,-16.6015625,-41.015625,-8.30078125,0.0
38.15234375,-29.296875,-36.62109375,-17.08984375,-50.29296875,-57.6171875,0.0
38.15625,-72.265625,-48.33984375,-41.9921875,-55.6640625,-76.66015625,0.0
38.16015625,-55.6640625,-61.5234375,-31.73828125,-47.36328125,-59.5703125,0.0
38.1640625,-20.01953125,-55.17578125,-17.578125,-53.22265625,-48.828125,0.0
38.16796875,11.71875,-35.64453125,-7.32421875,-61.03515625,-57.6171875,0.0
38.171875,4.8828125,-33.69140625,-5.859375,-56.15234375,-73.2421875,0.0
38.17578125,-41.50390625,-50.29296875,-25.390625,-40.52734375,-158.203125,0.0
38.1796875,-22.4609375,-36.1328125,-4.39453125,-18.06640625,-107.91015625,0.0
38.18359375,12.20703125,-18.06640625,14.16015625,-10.7421875,-26.85546875,0.0
38.1875,19.04296875,-29.78515625,3.41796875,-20.5078125,0.48828125,0.0
38.19140625,6.34765625,-30.2734375,0.0,-24.90234375,-16.11328125,0.0
38.1953125,-39.0625,-31.73828125,-9.27734375,-17.08984375,-10.7421875,0.0
38.19921875,-90.33203125,-42.48046875,-35.64453125,-21.97265625,68.359375,0.0
38.203125,-74.21875,-46.38671875,-23.92578125,-26.3671875,23.4375,0.0
38.20703125,-32.71484375,-51.26953125,-9.27734375,-23.92578125,-91.30859375,0.0
38.2109375,-33.203125,-34.66796875,-17.578125,-34.1796875,-80.078125,0.0
38.21484375,-62.01171875,-34.66796875,-34.1796875,-41.9921875,-37.59765625,0.0
38.21875,-70.3125,-40.0390625,-13.18359375,-21.97265625,7.8125,0.0
38.22265625,-52.24609375,-41.015625,1.953125,-14.6484375,34.66796875,0.0
38.2265625,-22.94921875,-33.203125,0.9765625,-30.2734375,26.3671875,0.0
38.23046875,-22.4609375,-24.90234375,-2.44140625,-39.0625,-21.484375,0.0
38.234375,-74.70703125,-41.9921875,-37.59765625,-41.015625,-68.84765625,0.0
38.23828125,-83.0078125,-46.875,-48.33984375,-27.34375,-2.9296875,0.0
38.2421875,-36.62109375,-37.59765625,-33.203125,-13.671875,35.64453125,0.0
38.24609375,-5.37109375,-39.55078125,-34.66796875,-15.13671875,-23.92578125,0.0
38.25,-6.8359375,-37.109375,-33.69140625,-35.15625,7.32421875,0.0
38.25390625,-51.7578125,-41.50390625,-46.875,-56.15234375,0.0,0.0
38.2578125,-77.63671875,-38.57421875,-49.31640625,-19.53125,-83.984375,0.0
38.26171875,-55.6640625,-41.015625,-39.55078125,-3.90625,-106.4453125,0.0
38.265625,-14.6484375,-48.828125,-52.24609375,-24.90234375,-83.984375,0.0
38.26953125,-18.5546875,-42.96875,-58.10546875,-27.34375,-64.453125,0.0
38.2734375,-51.7578125,-38.57421875,-53.22265625,-21.484375,-92.28515625,0.0
38.27734375,-65.91796875,-39.0625,-47.36328125,-27.34375,-31.25,0.0
38.28125,-52.734375,-40.52734375,-41.015625,-24.4140625,55.17578125,0.0
38.28515625,-9.765625,-37.59765625,-43.9453125,-16.11328125,31.73828125,0.0
38.2890625,8.30078125,-29.78515625,-44.921875,-23.4375,11.23046875,0.0
38.29296875,-35.15625,-35.15625,-52.734375,-33.203125,50.78125,0.0
38.296875,-60.546875,-33.203125,-70.80078125,-20.99609375,49.31640625,0.0
38.30078125,-43.9453125,-33.203125,-53.22265625,-6.34765625,-15.625,0.0
