timestamp,TP9,AF7,AF8,TP10,AUX,Marker,
57.00390625,-128.41796875,164.55078125,-29.78515625,1.953125,-104.00390625,0.0
57.0078125,-146.97265625,144.53125,-35.15625,-36.1328125,-136.23046875,0.0
57.01171875,-152.34375,168.45703125,-41.015625,-31.25,-93.26171875,0.0
57.015625,-110.83984375,175.29296875,-37.59765625,-4.39453125,-73.73046875,0.0
57.01953125,-93.26171875,147.94921875,-23.4375,6.8359375,-115.234375,0.0
57.0234375,-59.08203125,144.04296875,-10.7421875,20.5078125,-101.5625,0.0
57.02734375,-85.9375,121.58203125,-10.25390625,9.27734375,-8.30078125,0.0
57.03125,-159.1796875,109.86328125,-18.06640625,-31.25,-4.8828125,0.0
57.03515625,-126.46484375,141.11328125,-20.99609375,-49.8046875,-98.14453125,0.0
57.0390625,-78.61328125,157.71484375,-28.80859375,-53.22265625,-124.0234375,0.0
57.04296875,-39.0625,146.484375,-25.87890625,-37.109375,-77.63671875,0.0
57.046875,-58.59375,138.671875,-18.06640625,-31.73828125,-30.76171875,0.0
57.05078125,-102.5390625,142.578125,-25.390625,-38.0859375,-2.44140625,0.0
57.0546875,-98.14453125,130.859375,-26.3671875,-20.5078125,-37.109375,0.0
57.05859375,-70.80078125,95.21484375,-21.484375,-18.06640625,-2.44140625,0.0
57.0625,-65.4296875,91.796875,-13.18359375,-56.640625,91.796875,0.0
57.06640625,-86.42578125,103.515625,-13.671875,-46.875,32.2265625,0.0
57.0703125,-82.03125,95.21484375,-19.04296875,-20.99609375,-75.1953125,0.0
57.07421875,-35.15625,90.8203125,-19.04296875,-19.53125,-13.671875,0.0
57.078125,3.90625,90.8203125,-20.01953125,-28.3203125,0.9765625,0.0
57.08203125,-19.53125,77.1484375,-19.04296875,-1.953125,-5.859375,0.0
57.0859375,-41.015625,70.80078125,-21.97265625,0.48828125,129.39453125,0.0
57.08984375,-41.9921875,60.546875,-20.01953125,-30.2734375,83.984375,0.0
57.09375,-42.96875,51.26953125,-20.01953125,-44.43359375,-6.8359375,0.0
57.09765625,-35.64453125,38.0859375,-26.85546875,-51.7578125,-0.9765625,0.0
57.1015625,-30.2734375,18.06640625,-19.04296875,-25.87890625,-33.69140625,0.0
57.10546875,-24.90234375,21.97265625,-10.25390625,-7.32421875,-45.8984375,0.0
57.109375,-45.41015625,23.92578125,-13.671875,-13.18359375,-118.1640625,0.0
57.11328125,-51.7578125,12.6953125,-24.90234375,-31.25,-64.94140625,0.0
57.1171875,-19.53125,16.6015625,-25.390625,-45.8984375,-19.53125,0.0
57.12109375,18.5546875,22.94921875,-15.625,-24.90234375,-28.3203125,0.0
57.125,28.3203125,23.92578125,-13.671875,-10.25390625,30.2734375,0.0
57.12890625,-13.18359375,18.06640625,-23.4375,-17.08984375,28.80859375,0.0
57.1328125,-46.38671875,-0.48828125,-28.80859375,-26.3671875,30.2734375,0.0
57.13671875,-15.13671875,4.8828125,-21.97265625,-51.26953125,28.3203125,0.0
57.140625,28.3203125,8.7890625,-17.08984375,-39.55078125,-49.31640625,0.0
57.14453125,17.08984375,-0.48828125,-10.7421875,-1.953125,-59.5703125,0.0
57.1484375,0.0,1.953125,-10.7421875,-19.04296875,-40.52734375,0.0
57.15234375,-22.4609375,4.39453125,-21.97265625,-24.4140625,-17.578125,0.0
57.15625,-17.08984375,3.90625,-28.3203125,-39.55078125,-77.1484375,0.0
57.16015625,-9.27734375,1.953125,-24.90234375,-58.10546875,-108.3984375,0.0
57.1640625,-4.8828125,10.7421875,-21.484375,-2.44140625,-22.4609375,0.0
57.16796875,-33.69140625,1.953125,-18.5546875,9.27734375,-14.6484375,0.0
57.171875,-62.98828125,-5.859375,-20.99609375,-48.828125,-52.734375,0.0
57.17578125,-35.15625,0.0,-29.296875,-63.4765625,-10.25390625,0.0
57.1796875,-0.9765625,-6.8359375,-26.85546875,-40.52734375,53.22265625,0.0
57.18359375,4.39453125,-11.23046875,-18.5546875,-7.32421875,45.8984375,0.0
57.1875,-17.578125,-17.578125,-23.4375,-2.44140625,30.76171875,0.0
57.19140625,-45.41015625,-19.04296875,-30.76171875,-48.828125,-102.5390625,0.0
57.1953125,-44.921875,-14.16015625,-36.62109375,-69.3359375,-139.16015625,0.0
57.19921875,13.18359375,-1.953125,-35.15625,-50.78125,-30.2734375,0.0
57.203125,35.64453125,-3.90625,-27.34375,-33.203125,-91.796875,0.0
57.20703125,5.859375,-15.13671875,-27.34375,-15.13671875,-125.0,0.0
57.2109375,-0.48828125,-11.71875,-35.64453125,-7.8125,-82.51953125,0.0
57.21484375,16.6015625,-3.90625,-41.015625,-48.33984375,-65.91796875,0.0
57.21875,27.83203125,-16.11328125,-41.50390625,-52.24609375,22.94921875,0.0
57.22265625,-26.3671875,-28.80859375,-41.9921875,-32.2265625,12.6953125,0.0
57.2265625,-62.98828125,-20.01953125,-36.1328125,-36.1328125,-56.15234375,0.0
57.23046875,-54.6875,-23.4375,-35.64453125,-31.25,-12.20703125,0.0
57.234375,-54.19921875,-29.78515625,-42.48046875,-41.9921875,14.16015625,0.0
57.23828125,-27.83203125,-19.53125,-41.50390625,-32.71484375,18.06640625,0.0
57.2421875,12.6953125,-19.04296875,-32.2265625,1.46484375,29.78515625,0.0
57.24609375,-15.13671875,-25.390625,-24.4140625,-7.32421875,-33.203125,0.0
57.25,-50.29296875,-20.99609375,-24.4140625,-41.50390625,-31.25,0.0
57.25390625,-21.97265625,-15.625,-26.85546875,-57.12890625,14.16015625,0.0
57.2578125,11.23046875,-15.625,-30.2734375,-45.41015625,-19.53125,0.0
57.26171875,-16.11328125,-14.16015625,-32.2265625,-12.6953125,-13.18359375,0.0
57.265625,-34.1796875,-23.4375,-35.64453125,-26.3671875,12.6953125,0.0
57.26953125,-21.97265625,-25.87890625,-29.78515625,-63.4765625,9.27734375,0.0
57.2734375,-22.4609375,-13.671875,-31.25,-62.98828125,-26.3671875,0.0
57.27734375,-11.71875,-20.01953125,-35.64453125,-51.7578125,-20.5078125,0.0
57.28125,-2.44140625,-35.64453125,-21.484375,-8.30078125,53.7109375,0.0
57.28515625,-36.62109375,-36.62109375,-14.6484375,-8.30078125,-17.08984375,0.0
57.2890625,-16.11328125,-31.73828125,-20.5078125,-27.34375,-69.3359375,0.0
57.29296875,1.953125,-41.9921875,-25.390625,-25.87890625,-57.12890625,0.0
57.296875,-12.6953125,-47.36328125,-32.2265625,-39.55078125,-157.71484375,0.0
57.30078125,-37.109375,-36.1328125,-29.78515625,-9.27734375,-177.24609375,0.0
57.3046875,-33.69140625,-33.203125,-16.6015625,20.99609375,-50.78125,0.0
57.30859375,-4.8828125,-37.109375,-17.08984375,-4.39453125,28.80859375,0.0
57.3125,0.9765625,-39.0625,-33.203125,-40.0390625,22.4609375,0.0
57.31640625,-8.7890625,-35.64453125,-32.71484375,-32.71484375,-27.34375,0.0
57.3203125,-22.94921875,-33.203125,-20.5078125,6.34765625,18.06640625,0.0
57.32421875,-32.71484375,-39.0625,-17.578125,7.8125,97.65625,0.0
57.328125,-24.90234375,-38.0859375,-19.53125,-22.4609375,107.91015625,0.0
57.33203125,-64.453125,-42.96875,-22.4609375,-22.94921875,18.06640625,0.0
57.3359375,-44.43359375,-40.52734375,-24.90234375,-21.97265625,-172.8515625,0.0
57.33984375,-22.4609375,-36.62109375,-31.73828125,-25.390625,-252.44140625,0.0
57.34375,-16.11328125,-34.1796875,-30.2734375,11.71875,-142.578125,0.0
57.34765625,-43.9453125,-30.2734375,-21.97265625,25.390625,-80.078125,0.0
57.3515625,-49.8046875,-38.0859375,-16.6015625,0.48828125,-65.4296875,0.0
57.35546875,-25.390625,-37.109375,-27.83203125,-14.16015625,-85.9375,0.0
57.359375,-20.99609375,-29.296875,-33.203125,-6.8359375,-47.36328125,0.0
57.36328125,-21.484375,-25.390625,-25.390625,25.87890625,1.953125,0.0
57.3671875,12.6953125,-21.484375,-25.87890625,18.5546875,6.8359375,0.0
57.37109375,20.01953125,-27.34375,-25.87890625,-19.53125,-7.8125,0.0
57.375,-38.0859375,-40.0390625,-26.85546875,-33.203125,6.34765625,0.0
57.37890625,-56.640625,-36.62109375,-35.64453125,-23.92578125,47.8515625,0.0
57.3828125,-29.78515625,-29.296875,-38.0859375,0.48828125,29.78515625,0.0
57.38671875,-39.0625,-33.69140625,-24.90234375,-6.8359375,16.11328125,0.0
57.390625,-60.546875,-34.1796875,-24.90234375,-14.16015625,7.8125,0.0
57.39453125,-56.640625,-22.4609375,-33.69140625,-16.6015625,83.984375,0.0
57.3984375,-36.62109375,-17.578125,-30.76171875,-20.5078125,80.56640625,0.0
57.40234375,-2.9296875,-22.4609375,-26.85546875,-9.27734375,-18.06640625,0.0
57.40625,-18.06640625,-43.45703125,-23.92578125,12.6953125,-68.84765625,0.0
57.41015625,-37.109375,-53.22265625,-31.73828125,-12.20703125,-39.55078125,0.0
57.4140625,-23.92578125,-42.96875,-34.66796875,-30.2734375,-63.4765625,0.0
57.41796875,-14.6484375,-33.69140625,-26.3671875,-25.87890625,-55.17578125,0.0
57.421875,3.90625,-30.76171875,-28.80859375,-29.78515625,17.578125,0.0
57.42578125,13.671875,-29.296875,-28.3203125,-21.97265625,-38.0859375,0.0
57.4296875,-19.04296875,-36.1328125,-26.3671875,-23.4375,-74.70703125,0.0
57.43359375,-31.73828125,-42.48046875,-31.25,-25.87890625,-38.57421875,0.0
57.4375,-15.13671875,-40.0390625,-40.52734375,-49.8046875,-104.00390625,0.0
57.44140625,3.41796875,-39.0625,-41.50390625,-53.7109375,-169.921875,0.0
57.4453125,15.625,-37.109375,-24.4140625,1.953125,-148.4375,0.0
57.44921875,-15.13671875,-36.62109375,-22.4609375,-13.671875,-83.0078125,0.0
57.453125,-33.203125,-41.015625,-33.203125,-52.734375,-45.41015625,0.0
57.45703125,13.671875,-31.25,-37.59765625,-35.15625,-9.27734375,0.0
57.4609375,23.4375,-28.3203125,-39.55078125,-38.0859375,7.8125,0.0
57.46484375,80.56640625,-29.296875,-34.66796875,-41.9921875,16.11328125,0.0
57.46875,50.78125,-28.3203125,-29.78515625,-26.3671875,23.4375,0.0
57.47265625,-71.77734375,-35.64453125,-43.9453125,-29.78515625,-24.90234375,0.0
57.4765625,-49.31640625,-28.3203125,-44.921875,-30.2734375,-8.7890625,0.0
57.48046875,1.46484375,-24.90234375,-28.80859375,-31.73828125,1.46484375,0.0
57.484375,4.8828125,-31.73828125,-20.99609375,-35.15625,-66.89453125,0.0
57.48828125,-31.73828125,-38.0859375,-25.87890625,-30.76171875,-51.7578125,0.0
57.4921875,-31.25,-35.64453125,-34.66796875,-37.59765625,-69.82421875,0.0
57.49609375,15.625,-29.78515625,-35.64453125,-45.8984375,-60.05859375,0.0
57.5,13.671875,-22.94921875,-29.78515625,-41.9921875,-7.32421875,0.0
57.50390625,12.20703125,-24.4140625,-30.2734375,-41.50390625,-5.37109375,0.0
57.5078125,5.859375,-39.55078125,-29.78515625,-39.0625,71.77734375,0.0
57.51171875,-20.99609375,-43.9453125,-25.87890625,-46.875,59.5703125,0.0
57.515625,-39.0625,-42.48046875,-30.76171875,-59.5703125,-53.7109375,0.0
57.51953125,5.859375,-36.1328125,-32.71484375,-33.203125,-17.08984375,0.0
57.5234375,45.41015625,-32.2265625,-21.484375,-13.671875,57.12890625,0.0
57.52734375,9.765625,-32.2265625,-15.625,-38.57421875,0.0,0.0
57.53125,-28.80859375,-34.66796875,-25.87890625,-62.01171875,-35.15625,0.0
57.53515625,-30.76171875,-36.1328125,-34.1796875,-58.10546875,-50.29296875,0.0
57.5390625,28.3203125,-28.80859375,-25.390625,-41.50390625,0.48828125,0.0
57.54296875,59.08203125,-24.4140625,-23.92578125,-26.3671875,7.32421875,0.0
57.546875,-8.30078125,-46.875,-33.203125,-19.53125,-17.578125,0.0
57.55078125,-43.9453125,-52.24609375,-39.0625,-39.55078125,-11.23046875,0.0
57.5546875,-29.78515625,-34.66796875,-34.66796875,-51.26953125,-30.76171875,0.0
57.55859375,-8.30078125,-32.71484375,-25.390625,-36.62109375,-48.33984375,0.0
57.5625,-2.9296875,-31.73828125,-21.484375,-8.7890625,-37.59765625,0.0
57.56640625,-10.25390625,-31.25,-18.5546875,-12.6953125,-42.96875,0.0
57.5703125,-24.4140625,-36.62109375,-23.92578125,-36.1328125,-82.51953125,0.0
57.57421875,-28.80859375,-37.109375,-32.2265625,-40.0390625,-123.53515625,0.0
57.578125,-4.8828125,-34.66796875,-36.1328125,-48.33984375,-65.4296875,0.0
57.58203125,6.8359375,-31.73828125,-30.76171875,-42.96875,0.0,0.0
57.5859375,-1.46484375,-22.94921875,-25.390625,-14.16015625,-39.55078125,0.0
57.58984375,-41.9921875,-26.85546875,-24.4140625,-14.6484375,-108.88671875,0.0
57.59375,-62.5,-48.828125,-35.15625,-24.4140625,-109.86328125,0.0
57.59765625,-40.0390625,-46.875,-33.69140625,-39.55078125,-80.078125,0.0
57.6015625,-3.90625,-34.1796875,-24.90234375,-48.33984375,-36.62109375,0.0
57.60546875,-4.39453125,-38.0859375,-25.390625,-17.08984375,-13.671875,0.0
57.609375,-29.296875,-41.015625,-23.92578125,-12.20703125,15.625,0.0
57.61328125,-37.59765625,-33.203125,-20.99609375,-21.97265625,-34.1796875,0.0
57.6171875,-21.484375,-37.109375,-35.64453125,-31.73828125,-73.73046875,0.0
57.62109375,-12.6953125,-41.015625,-37.59765625,-32.2265625,-95.21484375,0.0
57.625,-17.08984375,-40.0390625,-20.99609375,-9.765625,-127.44140625,0.0
57.62890625,-10.25390625,-41.015625,-15.13671875,20.99609375,-59.5703125,0.0
57.6328125,-36.62109375,-44.43359375,-20.99609375,-8.30078125,-71.77734375,0.0
57.63671875,-50.78125,-44.43359375,-25.390625,-52.24609375,-43.9453125,0.0
57.640625,-29.296875,-41.015625,-23.4375,-28.3203125,69.3359375,0.0
57.64453125,-16.6015625,-38.0859375,-20.01953125,-4.8828125,28.80859375,0.0
57.6484375,-35.64453125,-39.55078125,-14.16015625,-7.8125,-67.3828125,0.0
57.65234375,-42.48046875,-40.0390625,-19.04296875,-19.53125,-39.0625,0.0
57.65625,-24.90234375,-37.59765625,-30.2734375,-30.2734375,-30.2734375,0.0
57.66015625,-3.41796875,-26.85546875,-20.5078125,-4.8828125,-39.55078125,0.0
57.6640625,-12.6953125,-31.73828125,-11.23046875,18.5546875,-15.13671875,0.0
57.66796875,-53.7109375,-51.26953125,-17.578125,-23.4375,-33.203125,0.0
57.671875,-67.87109375,-43.45703125,-22.94921875,-29.296875,-40.52734375,0.0
57.67578125,-36.62109375,-30.2734375,-27.83203125,-32.71484375,-33.69140625,0.0
57.6796875,-4.39453125,-33.203125,-32.71484375,-36.1328125,-74.21875,0.0
57.68359375,-15.625,-33.69140625,-33.203125,-19.53125,-20.5078125,0.0
57.6875,-32.71484375,-29.296875,-31.25,-32.2265625,92.28515625,0.0
57.69140625,-48.33984375,-33.203125,-25.87890625,-10.7421875,45.8984375,0.0
57.6953125,-59.5703125,-36.62109375,-28.80859375,-18.06640625,-24.4140625,0.0
57.69921875,-29.296875,-36.1328125,-33.203125,-54.6875,8.7890625,0.0
57.703125,-4.8828125,-35.15625,-32.2265625,-34.1796875,18.5546875,0.0
57.70703125,-30.2734375,-36.62109375,-27.34375,-16.11328125,-5.859375,0.0
57.7109375,-65.4296875,-42.48046875,-28.3203125,-14.16015625,-105.46875,0.0
57.71484375,-63.96484375,-48.33984375,-38.0859375,-47.8515625,-119.62890625,0.0
57.71875,-34.66796875,-44.921875,-42.96875,-67.3828125,-30.76171875,0.0
57.72265625,-18.5546875,-38.57421875,-39.55078125,-30.76171875,-18.5546875,0.0
57.7265625,-41.50390625,-38.57421875,-25.87890625,-27.34375,41.015625,0.0
57.73046875,-61.5234375,-41.015625,-24.4140625,-25.87890625,30.2734375,0.0
57.734375,-56.640625,-43.9453125,-30.76171875,-25.87890625,-180.17578125,0.0
57.73828125,-22.94921875,-42.48046875,-30.76171875,-54.19921875,-204.58984375,0.0
57.7421875,-16.6015625,-41.015625,-26.3671875,-24.90234375,-147.4609375,0.0
57.74609375,-40.52734375,-37.109375,-29.296875,-10.7421875,-185.05859375,0.0
57.75,-52.24609375,-27.34375,-27.34375,-26.3671875,-205.56640625,0.0
57.75390625,-11.71875,-35.15625,-25.390625,-32.71484375,-214.84375,0.0
57.7578125,-12.20703125,-43.45703125,-26.85546875,-27.34375,-88.37890625,0.0
57.76171875,-23.92578125,-31.25,-15.625,-11.23046875,14.6484375,0.0
57.765625,-32.2265625,-23.92578125,-11.23046875,2.9296875,-10.25390625,0.0
57.76953125,-22.94921875,-22.4609375,-16.6015625,-8.7890625,-48.828125,0.0
57.7734375,-12.20703125,-21.97265625,-23.92578125,-29.78515625,-27.34375,0.0
57.77734375,-15.13671875,-13.671875,-31.25,-19.53125,-2.9296875,0.0
57.78125,-28.3203125,-8.7890625,-27.83203125,4.39453125,1.953125,0.0
57.78515625,-36.1328125,-17.578125,-21.484375,-14.6484375,-20.99609375,0.0
57.7890625,-31.25,-27.83203125,-25.390625,-36.1328125,-6.8359375,0.0
57.79296875,-12.20703125,-19.53125,-26.85546875,-32.2265625,37.109375,0.0
57.796875,-19.04296875,-9.765625,-33.203125,-34.1796875,18.06640625,0.0
57.80078125,-5.37109375,-7.8125,-29.296875,-33.203125,-2.44140625,0.0
57.8046875,-49.31640625,-9.27734375,-16.6015625,-12.20703125,50.29296875,0.0
57.80859375,-58.59375,-7.8125,-14.16015625,14.6484375,-18.06640625,0.0
57.8125,-52.24609375,-16.6015625,-25.390625,-23.4375,-109.375,0.0
57.81640625,-36.62109375,-14.16015625,-33.69140625,-79.58984375,-53.22265625,0.0
57.8203125,-16.6015625,-2.9296875,-24.90234375,-33.203125,40.0390625,0.0
57.82421875,-26.85546875,-5.859375,-21.97265625,21.484375,75.1953125,0.0
57.828125,-58.10546875,-19.53125,-20.99609375,-30.2734375,28.80859375,0.0
57.83203125,-73.73046875,-21.484375,-24.90234375,-51.7578125,-49.31640625,0.0
57.8359375,-60.546875,-14.6484375,-33.203125,-43.45703125,-103.515625,0.0
57.83984375,-25.87890625,-6.8359375,-35.64453125,-39.55078125,-112.79296875,0.0
57.84375,-23.4375,-1.46484375,-37.109375,-16.6015625,-108.3984375,0.0
57.84765625,-46.38671875,-6.34765625,-32.71484375,-19.04296875,-40.0390625,0.0
57.8515625,-70.80078125,-20.01953125,-40.0390625,-50.29296875,-32.2265625,0.0
57.85546875,-65.91796875,-19.04296875,-46.875,-76.66015625,-9.765625,0.0
57.859375,-28.80859375,-18.5546875,-40.52734375,-60.546875,-21.484375,0.0
57.86328125,-27.34375,-24.4140625,-35.64453125,-48.33984375,-46.875,0.0
57.8671875,-52.24609375,-21.484375,-34.66796875,-54.6875,-57.12890625,0.0
57.87109375,-64.453125,-18.5546875,-40.0390625,-51.7578125,-86.9140625,0.0
57.875,-51.26953125,-22.4609375,-41.50390625,-56.640625,-102.05078125,0.0
57.87890625,-40.0390625,-27.83203125,-38.57421875,-51.7578125,-51.26953125,0.0
57.8828125,-37.59765625,-19.53125,-28.80859375,-11.71875,-31.73828125,0.0
57.88671875,-42.96875,-10.7421875,-20.99609375,-2.44140625,-30.76171875,0.0
57.890625,-64.453125,-13.18359375,-30.2734375,-40.0390625,-64.453125,0.0
57.89453125,-69.3359375,-17.08984375,-38.0859375,-51.26953125,-95.703125,0.0
57.8984375,-48.828125,-13.18359375,-30.76171875,-33.203125,27.83203125,0.0
57.90234375,-20.01953125,-6.8359375,-20.01953125,-15.13671875,73.2421875,0.0
57.90625,-24.90234375,-2.9296875,-25.87890625,-16.6015625,14.6484375,0.0
57.91015625,-56.640625,-13.18359375,-31.73828125,-36.62109375,-123.046875,0.0
57.9140625,-58.10546875,-9.765625,-31.73828125,-55.17578125,-206.0546875,0.0
57.91796875,-45.41015625,4.8828125,-36.1328125,-57.6171875,-150.87890625,0.0
57.921875,-33.203125,-1.46484375,-36.1328125,-33.203125,-98.6328125,0.0
57.92578125,-42.48046875,-9.27734375,-36.62109375,-15.13671875,-7.8125,0.0
57.9296875,-101.5625,3.41796875,-40.52734375,-24.4140625,-3.90625,0.0
57.93359375,-111.81640625,15.13671875,-37.109375,-45.41015625,-84.47265625,0.0
57.9375,-78.125,19.53125,-35.15625,-61.03515625,-14.6484375,0.0
57.94140625,-31.73828125,26.3671875,-34.66796875,-41.015625,23.92578125,0.0
57.9453125,-28.80859375,43.45703125,-30.76171875,-4.39453125,52.24609375,0.0
57.94921875,-129.8828125,43.45703125,-31.25,-28.3203125,55.6640625,0.0
57.953125,-209.9609375,33.203125,-36.62109375,-44.43359375,-38.57421875,0.0
57.95703125,-186.03515625,47.36328125,-35.15625,-24.4140625,-17.08984375,0.0
57.9609375,-162.59765625,60.546875,-27.34375,-27.83203125,-7.32421875,0.0
57.96484375,-178.22265625,54.19921875,-27.34375,-22.4609375,-5.859375,0.0
57.96875,-239.74609375,39.0625,-26.85546875,-6.8359375,8.7890625,0.0
57.97265625,-250.9765625,43.9453125,-27.83203125,-33.203125,-1.953125,0.0
57.9765625,-202.1484375,59.5703125,-33.203125,-53.22265625,35.64453125,0.0
57.98046875,-226.5625,62.5,-33.203125,-35.15625,-32.71484375,0.0
57.984375,-269.53125,56.15234375,-32.2265625,-15.625,-41.9921875,0.0
57.98828125,-274.4140625,55.17578125,-32.2265625,-9.27734375,-38.0859375,0.0
57.9921875,-275.390625,54.19921875,-27.34375,-33.203125,-41.015625,0.0
57.99609375,-275.87890625,47.36328125,-27.34375,-63.96484375,-21.97265625,0.0
58.0,-254.8828125,36.62109375,-21.97265625,-21.484375,-56.15234375,0.0
58.00390625,-236.81640625,32.2265625,-19.04296875,-22.94921875,-55.6640625,0.0
58.0078125,-262.20703125,28.3203125,-18.5546875,-43.9453125,54.19921875,0.0
58.01171875,-276.85546875,12.20703125,-15.13671875,-17.578125,84.47265625,0.0
58.015625,-230.46875,-4.8828125,-25.87890625,-27.83203125,68.84765625,0.0
58.01953125,-162.109375,1.46484375,-32.2265625,-20.01953125,26.3671875,0.0
58.0234375,-191.89453125,-1.953125,-27.83203125,-14.6484375,-54.6875,0.0
58.02734375,-230.46875,-17.578125,-29.78515625,-30.76171875,-77.1484375,0.0
58.03125,-184.08203125,-21.97265625,-34.66796875,-31.73828125,-62.01171875,0.0
58.03515625,-158.69140625,-25.390625,-37.109375,-20.5078125,-6.34765625,0.0
58.0390625,-157.2265625,-34.1796875,-34.1796875,-33.69140625,11.23046875,0.0
58.04296875,-121.09375,-45.41015625,-28.80859375,-36.1328125,8.30078125,0.0
58.046875,-99.609375,-41.015625,-21.97265625,-16.11328125,10.7421875,0.0
58.05078125,-88.8671875,-31.73828125,-20.99609375,-25.390625,23.4375,0.0
58.0546875,-65.4296875,-33.69140625,-32.71484375,-50.78125,-49.8046875,0.0
58.05859375,-34.1796875,-45.41015625,-32.2265625,-30.2734375,-50.29296875,0.0
58.0625,-9.765625,-49.31640625,-23.92578125,-0.9765625,23.4375,0.0
58.06640625,-7.8125,-44.43359375,-22.94921875,-29.296875,-81.54296875,0.0
58.0703125,-24.90234375,-43.9453125,-27.83203125,-27.83203125,-76.171875,0.0
58.07421875,-21.484375,-42.96875,-29.296875,-14.16015625,2.9296875,0.0
58.078125,20.01953125,-42.48046875,-28.80859375,-26.3671875,19.53125,0.0
58.08203125,51.26953125,-33.69140625,-32.2265625,-12.6953125,49.8046875,0.0
58.0859375,34.1796875,-23.4375,-33.203125,-20.01953125,26.85546875,0.0
58.08984375,19.04296875,-18.5546875,-32.71484375,-43.9453125,11.23046875,0.0
58.09375,25.87890625,-20.99609375,-34.66796875,-28.3203125,-23.92578125,0.0
58.09765625,47.36328125,-17.578125,-36.1328125,-19.04296875,-18.06640625,0.0
58.1015625,55.17578125,-20.01953125,-32.2265625,-12.20703125,-1.46484375,0.0
58.10546875,27.34375,-30.76171875,-21.97265625,-4.8828125,-78.125,0.0
58.109375,7.8125,-25.390625,-23.92578125,-25.87890625,-115.72265625,0.0
58.11328125,14.6484375,-19.53125,-35.15625,-41.50390625,-76.171875,0.0
58.1171875,41.9921875,-18.5546875,-45.8984375,-32.71484375,-34.66796875,0.0
58.12109375,58.59375,-14.6484375,-40.52734375,-11.23046875,-28.3203125,0.0
58.125,42.48046875,-14.6484375,-27.34375,-2.9296875,4.39453125,0.0
58.12890625,18.06640625,-20.99609375,-30.76171875,28.80859375,66.89453125,0.0
58.1328125,19.04296875,-22.94921875,-34.66796875,1.953125,84.47265625,0.0
58.13671875,16.11328125,-15.13671875,-38.0859375,-62.01171875,37.59765625,0.0
58.140625,20.5078125,-17.578125,-34.1796875,-11.71875,7.8125,0.0
58.14453125,39.0625,-15.13671875,-24.4140625,22.94921875,79.1015625,0.0
58.1484375,8.7890625,-7.8125,-23.92578125,-22.94921875,23.4375,0.0
58.15234375,-21.97265625,-8.30078125,-24.4140625,-54.19921875,-189.453125,0.0
58.15625,-12.20703125,-13.18359375,-27.34375,-50.29296875,-211.9140625,0.0
58.16015625,7.8125,-18.5546875,-30.2734375,-41.50390625,-94.23828125,0.0
58.1640625,26.3671875,-20.5078125,-24.90234375,-19.53125,15.13671875,0.0
58.16796875,15.625,-16.11328125,-20.5078125,7.32421875,-23.92578125,0.0
58.171875,-27.34375,-15.13671875,-22.94921875,18.06640625,-55.17578125,0.0
58.17578125,-30.2734375,-20.99609375,-32.71484375,-7.8125,16.6015625,0.0
58.1796875,-3.90625,-24.90234375,-38.57421875,-25.87890625,61.03515625,0.0
58.18359375,7.32421875,-24.4140625,-33.69140625,-4.39453125,30.2734375,0.0
58.1875,-16.6015625,-31.25,-28.3203125,5.859375,-64.453125,0.0
58.19140625,-63.96484375,-37.59765625,-34.1796875,-35.15625,-149.90234375,0.0
58.1953125,-38.0859375,-30.76171875,-34.1796875,-62.5,-98.14453125,0.0
58.19921875,10.25390625,-26.85546875,-29.78515625,-15.13671875,-5.859375,0.0
58.203125,-9.765625,-29.296875,-33.203125,-24.90234375,0.48828125,0.0
58.20703125,-53.22265625,-32.2265625,-35.64453125,-70.80078125,-35.15625,0.0
58.2109375,-86.42578125,-38.0859375,-32.71484375,-46.875,-21.97265625,0.0
58.21484375,-60.546875,-32.71484375,-39.55078125,-52.734375,15.13671875,0.0
58.21875,-20.01953125,-29.78515625,-36.62109375,-47.36328125,-8.30078125,0.0
58.22265625,-37.109375,-31.73828125,-23.4375,-33.69140625,-7.32421875,0.0
58.2265625,-63.96484375,-28.3203125,-30.76171875,-54.19921875,0.48828125,0.0
58.23046875,-89.84375,-31.25,-39.55078125,-60.546875,-26.3671875,0.0
58.234375,-86.42578125,-38.57421875,-43.45703125,-51.26953125,-37.59765625,0.0
58.23828125,-39.0625,-39.0625,-45.8984375,-47.8515625,-20.5078125,0.0
58.2421875,-19.04296875,-31.25,-33.69140625,-30.76171875,-5.859375,0.0
58.24609375,-29.78515625,-32.2265625,-21.97265625,-13.18359375,-37.109375,0.0
58.25,-72.75390625,-36.1328125,-29.296875,-47.8515625,-32.2265625,0.0
58.25390625,-111.328125,-41.9921875,-36.62109375,-76.66015625,-97.65625,0.0
58.2578125,-88.37890625,-38.57421875,-32.71484375,-64.94140625,-183.59375,0.0
58.26171875,-31.25,-30.2734375,-20.5078125,-20.5078125,-124.51171875,0.0
58.265625,-21.484375,-37.59765625,-18.5546875,-11.23046875,-43.9453125,0.0
58.26953125,-47.8515625,-41.015625,-22.4609375,-35.15625,-14.6484375,0.0
58.2734375,-51.26953125,-30.76171875,-25.390625,-34.1796875,12.20703125,0.0
58.27734375,-40.0390625,-29.78515625,-28.80859375,-28.80859375,48.828125,0.0
58.28125,-28.3203125,-37.59765625,-29.78515625,-39.0625,26.3671875,0.0
58.28515625,-42.96875,-37.59765625,-35.15625,-37.109375,27.34375,0.0
58.2890625,-55.17578125,-32.71484375,-29.296875,-10.7421875,65.91796875,0.0
58.29296875,-62.5,-29.296875,-24.90234375,-22.94921875,21.484375,0.0
58.296875,-59.5703125,-39.0625,-32.71484375,-55.6640625,-94.7265625,0.0
58.30078125,-16.11328125,-32.71484375,-30.76171875,9.27734375,-54.6875,0.0
58.3046875,-4.39453125,-20.5078125,-10.7421875,21.484375,14.6484375,0.0
58.30859375,-45.41015625,-29.296875,-8.7890625,-52.24609375,-71.77734375,0.0
58.3125,-62.01171875,-40.0390625,-26.3671875,-69.82421875,-83.0078125,0.0
58.31640625,-41.9921875,-33.69140625,-34.66796875,-76.66015625,-24.90234375,0.0
58.3203125,-19.04296875,-27.34375,-32.2265625,-56.640625,-0.9765625,0.0
58.32421875,-11.71875,-29.78515625,-31.25,-26.85546875,1.46484375,0.0
58.328125,-45.41015625,-45.8984375,-35.64453125,-27.34375,-30.2734375,0.0
58.33203125,-75.1953125,-43.9453125,-41.9921875,-46.875,-13.18359375,0.0
58.3359375,-58.59375,-30.76171875,-36.62109375,-42.48046875,-51.26953125,0.0
58.33984375,-22.4609375,-28.3203125,-34.1796875,-35.15625,19.53125,0.0
58.34375,-17.08984375,-40.52734375,-35.15625,-36.1328125,0.48828125,0.0
58.34765625,-27.34375,-39.0625,-34.1796875,-24.4140625,-106.93359375,0.0
58.3515625,-48.33984375,-32.2265625,-38.0859375,-41.50390625,-125.9765625,0.0
58.35546875,-51.7578125,-34.1796875,-47.8515625,-60.05859375,-132.32421875,0.0
58.359375,-39.0625,-28.80859375,-43.45703125,-38.0859375,-71.77734375,0.0
58.36328125,-34.66796875,-23.4375,-33.203125,-23.92578125,-79.1015625,0.0
58.3671875,-45.8984375,-29.78515625,-37.59765625,-49.8046875,-104.00390625,0.0
58.37109375,-48.33984375,-29.296875,-45.8984375,-62.01171875,-90.8203125,0.0
58.375,-31.25,-23.92578125,-48.33984375,-57.12890625,-77.63671875,0.0
58.37890625,-24.90234375,-23.92578125,-43.9453125,-43.9453125,-5.37109375,0.0
58.3828125,-2.9296875,-17.578125,-35.64453125,-41.50390625,-49.8046875,0.0
58.38671875,-1.46484375,-23.4375,-29.296875,-42.96875,-148.4375,0.0
58.390625,-28.3203125,-37.59765625,-41.9921875,-38.0859375,-138.671875,0.0
58.39453125,-41.9921875,-32.2265625,-48.828125,-29.78515625,-35.15625,0.0
58.3984375,-40.52734375,-33.203125,-39.55078125,-64.94140625,-3.90625,0.0
58.40234375,-33.69140625,-37.109375,-31.25,-52.24609375,8.30078125,0.0
58.40625,-38.0859375,-26.85546875,-21.97265625,-1.46484375,36.1328125,0.0
58.41015625,-53.22265625,-22.94921875,-29.296875,-20.5078125,-32.71484375,0.0
58.4140625,-59.5703125,-26.85546875,-43.9453125,-30.76171875,-104.00390625,0.0
58.41796875,-38.0859375,-36.1328125,-43.9453125,-26.3671875,-26.85546875,0.0
58.421875,-13.18359375,-28.3203125,-43.9453125,-65.91796875,34.1796875,0.0
58.42578125,-16.11328125,-16.11328125,-43.9453125,-55.6640625,21.97265625,0.0
58.4296875,-48.828125,-20.5078125,-35.64453125,-31.25,-26.85546875,0.0
58.43359375,-73.2421875,-32.2265625,-34.1796875,-46.38671875,-88.37890625,0.0
58.4375,-42.48046875,-27.34375,-36.62109375,-47.36328125,-67.87109375,0.0
58.44140625,-7.8125,-14.6484375,-31.73828125,-24.4140625,20.5078125,0.0
58.4453125,-13.18359375,-15.625,-28.3203125,-9.765625,21.484375,0.0
58.44921875,-28.80859375,-25.390625,-32.2265625,-36.1328125,16.6015625,0.0
58.453125,-40.0390625,-24.4140625,-37.59765625,-70.3125,-30.76171875,0.0
58.45703125,-30.76171875,-17.08984375,-31.73828125,-48.33984375,-63.96484375,0.0
58.4609375,-6.34765625,-15.13671875,-24.4140625,-31.25,-3.90625,0.0
58.46484375,-8.7890625,-20.5078125,-26.3671875,-53.7109375,-12.6953125,0.0
58.46875,-39.0625,-27.34375,-30.76171875,-41.9921875,-62.01171875,0.0
58.47265625,-56.15234375,-28.3203125,-40.0390625,-63.96484375,-118.1640625,0.0
58.4765625,-22.4609375,-25.87890625,-40.0390625,-51.26953125,-141.11328125,0.0
58.48046875,-13.18359375,-25.87890625,-35.64453125,-25.87890625,-133.30078125,0.0
58.484375,-24.4140625,-21.97265625,-34.66796875,-80.078125,-149.90234375,0.0
58.48828125,-26.85546875,-21.484375,-34.66796875,-84.47265625,-203.61328125,0.0
58.4921875,-49.8046875,-35.15625,-34.1796875,-53.7109375,-193.84765625,0.0
58.49609375,-64.94140625,-37.59765625,-39.0625,-41.015625,-185.05859375,0.0
58.5,-34.66796875,-27.34375,-41.9921875,-48.828125,-85.9375,0.0
58.50390625,-7.32421875,-21.484375,-36.62109375,-42.96875,21.484375,0.0
58.5078125,-31.73828125,-31.73828125,-34.66796875,-41.9921875,-27.34375,0.0
58.51171875,-58.10546875,-32.2265625,-35.64453125,-59.08203125,8.7890625,0.0
58.515625,-50.78125,-26.85546875,-34.66796875,-54.19921875,40.52734375,0.0
58.51953125,-24.90234375,-28.80859375,-35.64453125,-44.43359375,31.25,0.0
58.5234375,-10.25390625,-21.97265625,-33.69140625,-22.94921875,10.7421875,0.0
58.52734375,-33.203125,-20.01953125,-31.73828125,-21.97265625,-132.32421875,0.0
58.53125,-59.5703125,-31.73828125,-40.0390625,-41.9921875,-190.4296875,0.0
58.53515625,-58.59375,-32.2265625,-47.8515625,-61.03515625,-4.39453125,0.0
58.5390625,-32.2265625,-31.73828125,-44.43359375,-56.640625,37.59765625,0.0
58.54296875,-10.25390625,-26.85546875,-33.203125,-25.87890625,-29.78515625,0.0
58.546875,-33.203125,-22.94921875,-26.85546875,-22.94921875,53.7109375,0.0
58.55078125,-68.84765625,-26.3671875,-29.78515625,-53.7109375,44.921875,0.0
58.5546875,-66.40625,-29.78515625,-37.59765625,-59.5703125,9.27734375,0.0
58.55859375,-28.3203125,-30.76171875,-37.59765625,-45.8984375,26.3671875,0.0
58.5625,-2.9296875,-28.3203125,-27.34375,-17.578125,-0.9765625,0.0
58.56640625,-30.2734375,-28.3203125,-23.4375,6.34765625,-15.13671875,0.0
58.5703125,-47.36328125,-29.78515625,-36.1328125,-22.4609375,31.25,0.0
58.57421875,-40.52734375,-28.3203125,-41.50390625,-85.9375,67.3828125,0.0
58.578125,-30.2734375,-29.78515625,-42.48046875,-71.2890625,66.89453125,0.0
58.58203125,-16.11328125,-37.59765625,-49.31640625,-23.4375,-39.55078125,0.0
58.5859375,-17.578125,-42.48046875,-41.50390625,-23.92578125,-115.234375,0.0
58.58984375,-40.52734375,-40.0390625,-32.2265625,-37.109375,-43.45703125,0.0
58.59375,-67.87109375,-45.41015625,-40.0390625,-44.921875,-70.80078125,0.0
58.59765625,-54.19921875,-34.66796875,-45.41015625,-59.5703125,-79.58984375,0.0
58.6015625,-24.90234375,-21.484375,-32.71484375,-14.16015625,-55.6640625,0.0
58.60546875,-9.27734375,-25.390625,-24.4140625,-0.9765625,-77.1484375,0.0
58.609375,-20.01953125,-26.85546875,-33.69140625,-59.5703125,-60.546875,0.0
58.61328125,-44.43359375,-28.80859375,-45.8984375,-61.03515625,17.08984375,0.0
58.6171875,-8.30078125,-24.4140625,-42.48046875,-46.875,8.7890625,0.0
58.62109375,37.59765625,-14.16015625,-30.2734375,-26.3671875,-5.859375,0.0
58.625,11.23046875,-23.4375,-32.2265625,-21.97265625,42.96875,0.0
58.62890625,-45.8984375,-35.15625,-31.73828125,-44.921875,0.9765625,0.0
58.6328125,-75.68359375,-38.0859375,-30.76171875,-55.17578125,-20.5078125,0.0
58.63671875,-43.9453125,-32.2265625,-29.296875,-65.4296875,48.33984375,0.0
58.640625,-10.7421875,-23.4375,-20.01953125,-39.55078125,126.953125,0.0
58.64453125,-20.99609375,-25.390625,-14.16015625,-14.6484375,105.46875,0.0
58.6484375,-47.36328125,-30.76171875,-16.11328125,-29.78515625,-5.859375,0.0
58.65234375,-65.91796875,-30.76171875,-21.97265625,-49.31640625,3.90625,0.0
58.65625,-58.59375,-32.71484375,-30.76171875,-47.8515625,-59.08203125,0.0
58.66015625,-33.69140625,-33.69140625,-30.76171875,-10.25390625,-64.453125,0.0
58.6640625,-19.04296875,-24.4140625,-17.578125,1.953125,-0.48828125,0.0
58.66796875,-37.109375,-24.90234375,-10.7421875,-58.10546875,-56.15234375,0.0
58.671875,-69.3359375,-40.52734375,-9.765625,-65.4296875,-108.88671875,0.0
58.67578125,-78.125,-52.734375,-19.53125,-25.87890625,-37.59765625,0.0
58.6796875,-56.15234375,-46.875,-23.4375,-20.99609375,63.96484375,0.0
58.68359375,-32.2265625,-34.1796875,-13.671875,-27.34375,-16.11328125,0.0
58.6875,-49.31640625,-35.64453125,-13.18359375,-24.90234375,-107.91015625,0.0
58.69140625,-84.47265625,-42.48046875,-22.4609375,-24.4140625,-26.85546875,0.0
58.6953125,-95.703125,-48.828125,-28.3203125,-39.55078125,-57.6171875,0.0
58.69921875,-66.89453125,-44.43359375,-20.99609375,-12.6953125,-99.12109375,0.0
58.703125,-33.203125,-32.71484375,-10.7421875,-5.859375,-18.06640625,0.0
58.70703125,-45.8984375,-31.73828125,-16.11328125,-17.578125,-3.90625,0.0
58.7109375,-61.5234375,-29.78515625,-23.92578125,9.27734375,-43.45703125,0.0
58.71484375,-64.453125,-31.25,-23.92578125,18.5546875,-41.015625,0.0
58.71875,-72.75390625,-42.48046875,-19.04296875,-23.4375,-92.28515625,0.0
58.72265625,-57.6171875,-39.55078125,-18.5546875,-4.8828125,-103.02734375,0.0
58.7265625,-54.19921875,-39.0625,-26.3671875,42.96875,-62.5,0.0
58.73046875,-89.84375,-43.9453125,-32.2265625,35.64453125,-81.54296875,0.0
58.734375,-92.7734375,-40.52734375,-39.55078125,16.6015625,14.16015625,0.0
58.73828125,-61.03515625,-32.2265625,-37.59765625,32.71484375,27.34375,0.0
58.7421875,-25.87890625,-30.2734375,-20.99609375,53.22265625,-99.609375,0.0
58.74609375,-22.94921875,-38.57421875,-16.6015625,44.921875,-87.890625,0.0
58.75,-77.63671875,-42.48046875,-25.390625,47.8515625,-32.2265625,0.0
58.75390625,-105.46875,-40.0390625,-22.94921875,61.03515625,-65.4296875,0.0
58.7578125,-84.47265625,-35.64453125,-16.11328125,47.36328125,-88.8671875,0.0
58.76171875,-45.41015625,-28.80859375,-9.27734375,67.3828125,-59.08203125,0.0
58.765625,-39.55078125,-30.76171875,-12.20703125,83.0078125,-43.45703125,0.0
58.76953125,-69.82421875,-39.55078125,-16.11328125,43.45703125,-32.2265625,0.0
58.7734375,-83.984375,-41.50390625,-23.4375,19.04296875,-66.40625,0.0
58.77734375,-71.2890625,-39.55078125,-28.80859375,30.76171875,-36.62109375,0.0
58.78125,-35.15625,-41.50390625,-22.4609375,56.15234375,28.80859375,0.0
58.78515625,-29.78515625,-39.0625,-25.390625,45.41015625,27.83203125,0.0
58.7890625,-59.5703125,-39.55078125,-29.78515625,21.97265625,14.16015625,0.0
58.79296875,-81.54296875,-46.875,-30.2734375,4.39453125,-10.25390625,0.0
58.796875,-74.21875,-46.875,-33.203125,-4.39453125,-62.01171875,0.0
58.80078125,-47.36328125,-40.0390625,-32.2265625,19.04296875,-75.1953125,0.0
58.8046875,-37.109375,-37.59765625,-29.296875,32.2265625,-34.66796875,0.0
58.80859375,-59.5703125,-39.0625,-26.85546875,12.6953125,5.37109375,0.0
58.8125,-86.9140625,-46.875,-34.66796875,-4.8828125,-30.2734375,0.0
58.81640625,-78.61328125,-45.8984375,-40.52734375,2.9296875,-84.47265625,0.0
58.8203125,-41.9921875,-33.69140625,-33.69140625,1.953125,-78.125,0.0
58.82421875,-28.80859375,-31.25,-22.94921875,7.8125,-56.15234375,0.0
58.828125,-54.19921875,-38.0859375,-13.671875,15.13671875,-59.08203125,0.0
58.83203125,-73.2421875,-41.9921875,-19.53125,-20.5078125,-40.52734375,0.0
58.8359375,-66.89453125,-41.50390625,-25.390625,-41.9921875,-0.48828125,0.0
58.83984375,-27.34375,-36.62109375,-19.04296875,-24.90234375,-94.23828125,0.0
58.84375,-14.16015625,-33.203125,-15.13671875,21.484375,-85.9375,0.0
58.84765625,-58.10546875,-34.1796875,-16.6015625,6.34765625,20.99609375,0.0
58.8515625,-67.87109375,-24.4140625,-22.94921875,-40.0390625,38.0859375,0.0
58.85546875,-61.5234375,-26.3671875,-33.203125,-45.8984375,8.7890625,0.0
58.859375,-46.875,-37.59765625,-34.1796875,-15.625,27.34375,0.0
58.86328125,-20.5078125,-33.69140625,-32.71484375,2.44140625,40.52734375,0.0
58.8671875,-28.80859375,-33.203125,-31.25,-44.921875,-21.97265625,0.0
58.87109375,-54.6875,-43.9453125,-27.34375,-59.5703125,-68.359375,0.0
58.875,-61.03515625,-46.38671875,-25.87890625,-32.2265625,-47.8515625,0.0
58.87890625,-30.76171875,-40.52734375,-27.34375,-32.2265625,10.7421875,0.0
58.8828125,-7.32421875,-35.15625,-24.90234375,-1.953125,-10.25390625,0.0
58.88671875,-24.90234375,-35.64453125,-24.90234375,-9.765625,-24.90234375,0.0
58.890625,-53.22265625,-43.9453125,-28.80859375,-59.08203125,-20.01953125,0.0
58.89453125,-64.94140625,-43.9453125,-25.390625,-58.10546875,-28.3203125,0.0
58.8984375,-35.64453125,-35.15625,-25.390625,-56.15234375,-40.0390625,0.0
58.90234375,0.0,-33.203125,-20.5078125,-12.20703125,-44.921875,0.0
58.90625,-2.9296875,-39.0625,-20.5078125,1.953125,15.625,0.0
58.91015625,-29.296875,-41.50390625,-24.90234375,-23.92578125,-8.7890625,0.0
58.9140625,-51.7578125,-44.921875,-29.78515625,-71.77734375,-107.421875,0.0
58.91796875,-34.1796875,-43.9453125,-30.76171875,-76.66015625,-38.57421875,0.0
58.921875,7.8125,-38.57421875,-24.4140625,-9.765625,15.625,0.0
58.92578125,22.94921875,-30.76171875,-14.16015625,-4.39453125,31.73828125,0.0
58.9296875,-24.90234375,-27.83203125,-16.6015625,-29.296875,85.9375,0.0
58.93359375,-79.1015625,-36.1328125,-25.87890625,-28.3203125,-15.13671875,0.0
58.9375,-68.359375,-44.43359375,-31.25,-48.828125,-41.50390625,0.0
58.94140625,-32.2265625,-48.828125,-36.1328125,-51.26953125,-29.296875,0.0
58.9453125,-24.4140625,-37.109375,-20.99609375,0.48828125,-61.5234375,0.0
58.94921875,-34.1796875,-32.71484375,-13.18359375,-32.71484375,-43.45703125,0.0
58.953125,-58.10546875,-38.57421875,-15.13671875,-91.796875,-45.41015625,0.0
58.95703125,-49.31640625,-33.203125,-20.5078125,-96.19140625,-2.44140625,0.0
58.9609375,-31.25,-38.57421875,-21.484375,-78.61328125,-13.18359375,0.0
58.96484375,-37.59765625,-42.96875,-11.71875,-35.15625,-93.26171875,0.0
58.96875,-53.22265625,-38.57421875,-24.90234375,-63.4765625,-61.5234375,0.0
58.97265625,-66.40625,-36.62109375,-33.203125,-82.51953125,27.83203125,0.0
58.9765625,-60.05859375,-42.48046875,-34.1796875,-69.3359375,4.8828125,0.0
58.98046875,-22.4609375,-38.57421875,-31.73828125,-55.17578125,-5.37109375,0.0
58.984375,-15.625,-31.73828125,-22.94921875,-38.0859375,74.21875,0.0
58.98828125,-50.29296875,-36.62109375,-24.4140625,-46.38671875,84.9609375,0.0
58.9921875,-65.91796875,-39.55078125,-22.94921875,-29.78515625,-8.30078125,0.0
58.99609375,-58.59375,-37.59765625,-23.4375,-49.8046875,-72.265625,0.0
59.0,-36.1328125,-40.52734375,-29.78515625,-92.28515625,-35.15625,0.0
59.00390625,-37.59765625,-45.41015625,-24.4140625,-71.77734375,-15.625,0.0
59.0078125,-57.12890625,-44.921875,-22.4609375,-71.2890625,6.34765625,0.0
59.01171875,-69.82421875,-40.52734375,-35.64453125,-101.07421875,-7.32421875,0.0
59.015625,-61.5234375,-40.52734375,-33.69140625,-85.44921875,-19.53125,0.0
59.01953125,-35.15625,-41.50390625,-25.87890625,-71.77734375,-16.6015625,0.0
59.0234375,-20.5078125,-34.66796875,-25.87890625,-50.78125,-95.703125,0.0
59.02734375,-28.3203125,-34.1796875,-26.3671875,-53.22265625,-91.796875,0.0
59.03125,-64.94140625,-40.0390625,-39.0625,-99.12109375,-69.3359375,0.0
59.03515625,-83.984375,-44.43359375,-52.24609375,-110.3515625,-88.37890625,0.0
59.0390625,-43.9453125,-40.0390625,-46.38671875,-88.8671875,-103.515625,0.0
59.04296875,-19.53125,-34.66796875,-34.1796875,-60.05859375,-60.05859375,0.0
59.046875,-24.4140625,-34.66796875,-42.48046875,-37.59765625,-50.29296875,0.0
59.05078125,-49.31640625,-34.66796875,-41.015625,-62.98828125,-76.66015625,0.0
59.0546875,-72.265625,-37.59765625,-40.0390625,-99.12109375,-38.0859375,0.0
59.05859375,-57.12890625,-37.59765625,-41.9921875,-81.0546875,-73.2421875,0.0
59.0625,-30.2734375,-34.66796875,-36.1328125,-84.9609375,-110.83984375,0.0
59.06640625,-34.66796875,-26.85546875,-29.78515625,-68.84765625,-65.4296875,0.0
59.0703125,-63.96484375,-32.2265625,-25.87890625,-59.5703125,-37.59765625,0.0
59.07421875,-62.01171875,-34.66796875,-37.109375,-55.6640625,-42.48046875,0.0
59.078125,-32.2265625,-28.80859375,-42.96875,-56.640625,-45.8984375,0.0
59.08203125,-17.578125,-37.109375,-34.66796875,-51.7578125,-96.19140625,0.0
59.0859375,-24.90234375,-33.69140625,-32.2265625,-56.15234375,-33.203125,0.0
59.08984375,-48.33984375,-33.203125,-35.64453125,-67.3828125,29.78515625,0.0
59.09375,-74.70703125,-39.0625,-40.52734375,-69.3359375,-54.6875,0.0
59.09765625,-59.5703125,-33.203125,-33.69140625,-57.6171875,-48.33984375,0.0
59.1015625,-32.71484375,-30.2734375,-29.296875,-55.6640625,-21.484375,0.0
59.10546875,-27.83203125,-33.203125,-31.25,-58.10546875,-54.19921875,0.0
59.109375,-53.22265625,-38.0859375,-35.64453125,-51.26953125,-27.34375,0.0
59.11328125,-105.46875,-45.41015625,-44.43359375,-78.61328125,-18.5546875,0.0
59.1171875,-128.90625,-39.55078125,-38.0859375,-68.84765625,-44.921875,0.0
59.12109375,-142.578125,-29.78515625,-25.390625,-62.98828125,-75.1953125,0.0
59.125,-134.27734375,-31.25,-25.390625,-66.89453125,22.4609375,0.0
59.12890625,-102.05078125,-35.15625,-24.90234375,-37.109375,0.48828125,0.0
59.1328125,-95.21484375,-38.0859375,-23.4375,-50.78125,3.90625,0.0
59.13671875,-109.375,-34.66796875,-27.34375,-67.3828125,-0.48828125,0.0
59.140625,-115.72265625,-33.203125,-25.390625,-39.0625,-90.8203125,0.0
59.14453125,-107.91015625,-32.71484375,-27.83203125,-27.83203125,-55.6640625,0.0
59.1484375,-100.5859375,-31.73828125,-26.3671875,-30.2734375,3.90625,0.0
59.15234375,-101.5625,-36.1328125,-19.53125,-26.3671875,20.5078125,0.0
59.15625,-120.1171875,-41.50390625,-30.2734375,-22.94921875,-108.3984375,0.0
59.16015625,-29.78515625,-32.71484375,-36.62109375,-44.43359375,-96.6796875,0.0
59.1640625,-2.9296875,-21.484375,-33.69140625,-73.2421875,35.64453125,0.0
59.16796875,-27.83203125,-24.4140625,-37.109375,-51.7578125,-1.46484375,0.0
59.171875,-55.6640625,-38.0859375,-44.921875,-51.7578125,-9.27734375,0.0
59.17578125,-63.96484375,-42.96875,-42.96875,-69.82421875,-13.671875,0.0
59.1796875,-30.76171875,-28.3203125,-27.83203125,-64.94140625,-1.953125,0.0
59.18359375,-7.32421875,-20.99609375,-24.4140625,-32.2265625,-0.9765625,0.0
59.1875,-36.62109375,-33.69140625,-22.94921875,-40.52734375,-35.15625,0.0
59.19140625,-61.03515625,-39.0625,-18.06640625,-75.1953125,-72.265625,0.0
59.1953125,-56.640625,-36.1328125,-29.78515625,-78.125,-114.2578125,0.0
59.19921875,-49.31640625,-35.64453125,-31.73828125,-88.8671875,-97.65625,0.0
59.203125,-59.5703125,-38.57421875,-24.90234375,-29.296875,-55.17578125,0.0
59.20703125,-68.359375,-38.0859375,-29.78515625,-11.71875,-9.765625,0.0
59.2109375,-75.68359375,-40.52734375,-25.87890625,-53.7109375,-34.66796875,0.0
59.21484375,-93.75,-41.015625,-31.73828125,-80.078125,-37.59765625,0.0
59.21875,-97.16796875,-38.57421875,-28.80859375,-44.921875,-2.44140625,0.0
59.22265625,-74.70703125,-33.203125,-15.625,5.37109375,17.578125,0.0
59.2265625,-62.01171875,-27.83203125,-18.5546875,-8.7890625,10.25390625,0.0
59.23046875,-84.9609375,-32.2265625,-19.53125,-22.94921875,25.390625,0.0
59.234375,-91.796875,-37.109375,-16.11328125,-35.64453125,42.48046875,0.0
59.23828125,-53.22265625,-36.62109375,-26.3671875,-41.015625,-6.34765625,0.0
59.2421875,-25.87890625,-30.2734375,-33.203125,-22.94921875,-13.18359375,0.0
59.24609375,-34.66796875,-29.78515625,-27.83203125,-35.15625,15.13671875,0.0
59.25,-54.6875,-33.203125,-28.3203125,-45.41015625,-8.7890625,0.0
59.25390625,-58.10546875,-32.71484375,-30.76171875,-45.8984375,11.23046875,0.0
59.2578125,-53.7109375,-39.0625,-36.1328125,-71.77734375,11.71875,0.0
59.26171875,-37.59765625,-35.64453125,-32.71484375,-57.6171875,-5.37109375,0.0
59.265625,-34.1796875,-31.73828125,-25.87890625,-21.484375,1.46484375,0.0
59.26953125,-57.6171875,-31.25,-27.83203125,-57.12890625,-77.63671875,0.0
59.2734375,-70.3125,-28.3203125,-33.203125,-62.5,-116.69921875,0.0
59.27734375,-54.6875,-28.80859375,-26.3671875,-32.71484375,-92.28515625,0.0
59.28125,-25.87890625,-28.80859375,-21.97265625,-26.85546875,-2.44140625,0.0
59.28515625,-9.27734375,-26.3671875,-26.3671875,-20.99609375,28.3203125,0.0
59.2890625,-42.48046875,-30.2734375,-35.15625,-57.12890625,-62.01171875,0.0
59.29296875,-69.3359375,-41.015625,-37.59765625,-50.78125,-87.890625,0.0
59.296875,-59.5703125,-36.62109375,-35.64453125,-41.015625,-71.77734375,0.0
59.30078125,-40.0390625,-30.76171875,-27.34375,-41.015625,-44.921875,0.0
59.3046875,-29.296875,-33.69140625,-27.83203125,-31.73828125,-50.29296875,0.0
59.30859375,-34.66796875,-28.80859375,-31.25,-51.26953125,-75.1953125,0.0
59.3125,-39.55078125,-30.76171875,-29.296875,-49.8046875,-22.4609375,0.0
59.31640625,-62.01171875,-33.69140625,-34.66796875,-39.0625,24.90234375,0.0
59.3203125,-50.29296875,-25.390625,-27.83203125,-49.8046875,-13.671875,0.0
59.32421875,-22.94921875,-26.3671875,-21.97265625,-45.41015625,45.8984375,0.0
59.328125,-37.59765625,-40.52734375,-22.94921875,-37.59765625,-23.4375,0.0
59.33203125,-67.3828125,-45.8984375,-35.15625,-56.640625,-172.36328125,0.0
59.3359375,-73.2421875,-39.0625,-43.9453125,-39.0625,-133.7890625,0.0
59.33984375,-49.31640625,-27.83203125,-27.83203125,-14.6484375,-25.87890625,0.0
59.34375,-35.15625,-32.2265625,-19.04296875,-21.97265625,-26.3671875,0.0
59.34765625,-40.0390625,-39.0625,-26.3671875,-13.18359375,-89.35546875,0.0
59.3515625,-62.5,-43.9453125,-35.15625,-32.2265625,-86.9140625,0.0
59.35546875,-63.4765625,-39.55078125,-36.62109375,-53.22265625,-31.73828125,0.0
59.359375,-38.57421875,-35.64453125,-30.76171875,-25.87890625,-90.8203125,0.0
59.36328125,-21.97265625,-31.73828125,-22.4609375,-14.16015625,-119.140625,0.0
59.3671875,-28.3203125,-25.390625,-23.92578125,-32.2265625,-99.609375,0.0
59.37109375,-49.8046875,-27.83203125,-27.83203125,-56.15234375,-60.05859375,0.0
59.375,-62.5,-28.3203125,-32.71484375,-46.875,-20.5078125,0.0
59.37890625,-69.3359375,-35.15625,-33.203125,-35.15625,-14.6484375,0.0
59.3828125,-40.0390625,-34.1796875,-21.484375,-33.203125,-16.11328125,0.0
59.38671875,-20.01953125,-24.4140625,-18.5546875,-22.94921875,3.41796875,0.0
59.390625,-35.15625,-29.78515625,-26.3671875,-54.19921875,-55.17578125,0.0
59.39453125,-53.7109375,-37.59765625,-26.3671875,-60.05859375,-74.70703125,0.0
59.3984375,-31.73828125,-27.34375,-21.97265625,-29.78515625,16.6015625,0.0
59.40234375,1.46484375,-19.53125,-22.4609375,-32.71484375,38.57421875,0.0
59.40625,-11.71875,-24.4140625,-23.4375,-43.45703125,-1.953125,0.0
59.41015625,-40.0390625,-27.34375,-20.99609375,-26.85546875,-17.578125,0.0
59.4140625,-55.17578125,-31.25,-23.92578125,-30.76171875,-65.4296875,0.0
59.41796875,-46.38671875,-31.25,-38.0859375,-73.73046875,-130.37109375,0.0
59.421875,-32.71484375,-37.109375,-36.1328125,-57.6171875,-150.390625,0.0
59.42578125,-34.1796875,-37.109375,-30.2734375,-30.76171875,-136.71875,0.0
59.4296875,-59.08203125,-31.25,-36.1328125,-56.640625,-105.46875,0.0
59.43359375,-76.171875,-41.50390625,-32.71484375,-36.62109375,-55.6640625,0.0
59.4375,-50.78125,-39.55078125,-35.15625,-46.38671875,-28.3203125,0.0
59.44140625,-13.18359375,-25.390625,-36.62109375,-50.29296875,-10.25390625,0.0
59.4453125,-17.578125,-26.3671875,-23.4375,-5.859375,-7.8125,0.0
59.44921875,-53.7109375,-36.62109375,-20.5078125,-35.64453125,-26.3671875,0.0
59.453125,-75.1953125,-43.45703125,-25.87890625,-75.1953125,7.32421875,0.0
59.45703125,-56.15234375,-41.50390625,-29.78515625,-105.46875,6.34765625,0.0
59.4609375,-15.625,-33.69140625,-24.4140625,-92.28515625,-5.859375,0.0
59.46484375,-12.20703125,-30.76171875,-19.53125,21.97265625,-6.34765625,0.0
59.46875,-47.8515625,-38.0859375,-21.97265625,-39.55078125,-72.265625,0.0
59.47265625,-57.6171875,-34.1796875,-30.76171875,-82.51953125,-21.484375,0.0
59.4765625,-30.76171875,-27.83203125,-28.3203125,8.30078125,-5.859375,0.0
59.48046875,-2.9296875,-31.73828125,-22.94921875,-2.44140625,-93.26171875,0.0
59.484375,-17.08984375,-36.1328125,-28.80859375,-10.7421875,-59.5703125,0.0
59.48828125,-51.7578125,-35.15625,-33.69140625,-30.76171875,49.8046875,0.0
59.4921875,-70.80078125,-35.64453125,-45.41015625,-68.359375,73.73046875,0.0
59.49609375,-61.5234375,-39.0625,-37.59765625,-37.59765625,24.90234375,0.0
59.5,-26.3671875,-32.2265625,-46.38671875,-51.26953125,-4.8828125,0.0
59.50390625,-4.8828125,-28.80859375,-40.0390625,-17.08984375,21.97265625,0.0
59.5078125,-17.578125,-28.3203125,-33.69140625,-17.578125,-4.8828125,0.0
59.51171875,-48.33984375,-24.90234375,-46.875,-75.68359375,-78.125,0.0
59.515625,-45.41015625,-26.85546875,-48.33984375,-30.2734375,-60.05859375,0.0
59.51953125,-17.578125,-32.2265625,-23.92578125,-15.625,-59.08203125,0.0
59.5234375,-10.25390625,-28.3203125,-20.5078125,-27.83203125,-98.14453125,0.0
59.52734375,-11.23046875,-25.87890625,-51.26953125,-40.0390625,-36.62109375,0.0
59.53125,-38.0859375,-35.15625,-51.7578125,-19.53125,-3.90625,0.0
59.53515625,-59.5703125,-33.203125,-42.96875,-40.52734375,-86.42578125,0.0
59.5390625,-36.62109375,-25.87890625,-37.109375,-51.7578125,-83.984375,0.0
59.54296875,-12.20703125,-25.390625,-32.2265625,-35.15625,45.8984375,0.0
59.546875,-20.01953125,-34.66796875,-51.26953125,-68.84765625,75.68359375,0.0
59.55078125,-38.57421875,-35.15625,-58.59375,-46.38671875,-3.90625,0.0
59.5546875,-45.8984375,-33.203125,-46.38671875,-41.50390625,-106.4453125,0.0
59.55859375,-28.80859375,-39.55078125,-50.78125,-63.4765625,-148.92578125,0.0
59.5625,-28.80859375,-39.55078125,-49.8046875,-47.8515625,-99.12109375,0.0
59.56640625,-33.69140625,-36.1328125,-37.59765625,-46.38671875,-51.26953125,0.0
59.5703125,-47.36328125,-39.55078125,-34.66796875,-15.625,-69.82421875,0.0
59.57421875,-66.40625,-47.36328125,-30.2734375,-28.3203125,-94.23828125,0.0
59.578125,-57.12890625,-47.8515625,-28.3203125,-40.52734375,-27.34375,0.0
59.58203125,-26.3671875,-39.55078125,-36.62109375,-19.53125,28.3203125,0.0
59.5859375,-14.6484375,-33.69140625,-54.19921875,-78.61328125,34.1796875,0.0
59.58984375,-45.8984375,-39.55078125,-48.33984375,-43.45703125,-7.32421875,0.0
59.59375,-75.1953125,-49.31640625,-35.64453125,-4.39453125,-68.359375,0.0
59.59765625,-59.5703125,-40.0390625,-35.15625,-28.80859375,-120.60546875,0.0
59.6015625,-30.2734375,-26.3671875,-28.80859375,-84.9609375,-56.640625,0.0
59.60546875,-31.73828125,-28.3203125,-31.25,-77.63671875,-25.390625,0.0
59.609375,-48.828125,-30.76171875,-27.34375,-32.2265625,-61.03515625,0.0
59.61328125,-65.91796875,-31.73828125,-35.64453125,-45.41015625,-38.57421875,0.0
59.6171875,-58.59375,-37.59765625,-47.8515625,-47.36328125,-73.2421875,0.0
59.62109375,-26.3671875,-38.0859375,-44.43359375,-20.01953125,0.9765625,0.0
59.625,-28.3203125,-34.1796875,-44.921875,-36.1328125,52.734375,0.0
59.62890625,-49.31640625,-25.87890625,-51.7578125,-40.52734375,2.44140625,0.0
59.6328125,-60.05859375,-24.90234375,-55.6640625,-32.71484375,28.80859375,0.0
59.63671875,-56.640625,-32.71484375,-63.4765625,-92.28515625,67.3828125,0.0
59.640625,-31.73828125,-35.64453125,-30.76171875,-53.7109375,-28.80859375,0.0
59.64453125,-8.30078125,-27.83203125,-24.90234375,-84.47265625,-41.015625,0.0
59.6484375,-20.99609375,-21.484375,-48.33984375,-88.8671875,-32.2265625,0.0
59.65234375,-39.0625,-20.5078125,-40.52734375,-9.765625,-29.296875,0.0
59.65625,-40.0390625,-30.2734375,-46.38671875,3.90625,16.6015625,0.0
59.66015625,-54.6875,-40.52734375,-46.38671875,-20.99609375,-35.64453125,0.0
59.6640625,-28.3203125,-40.52734375,-49.31640625,-49.8046875,-37.59765625,0.0
59.66796875,-14.16015625,-36.62109375,-51.7578125,-77.1484375,-7.8125,0.0
59.671875,-48.828125,-40.52734375,-52.734375,-62.98828125,-53.7109375,0.0
59.67578125,-63.4765625,-40.52734375,-66.89453125,-57.12890625,-70.80078125,0.0
59.6796875,-40.0390625,-37.109375,-71.2890625,-61.03515625,-45.8984375,0.0
59.68359375,-11.23046875,-38.57421875,-47.36328125,-31.25,-35.64453125,0.0
59.6875,-11.23046875,-32.2265625,-34.66796875,-25.390625,-48.33984375,0.0
59.69140625,-27.34375,-29.296875,-31.25,-26.85546875,-20.01953125,0.0
59.6953125,-27.34375,-29.78515625,-36.1328125,-43.9453125,-41.9921875,0.0
59.69921875,-20.01953125,-29.296875,-47.8515625,-33.203125,-33.69140625,0.0
59.703125,-12.20703125,-30.76171875,-41.015625,-17.08984375,-35.64453125,0.0
59.70703125,-14.6484375,-26.85546875,-31.73828125,-35.15625,-108.3984375,0.0
59.7109375,-46.875,-30.76171875,-32.71484375,-36.62109375,-107.91015625,0.0
59.71484375,-62.5,-39.0625,-32.2265625,-28.80859375,-2.44140625,0.0
59.71875,-16.11328125,-39.0625,-41.9921875,-69.82421875,44.43359375,0.0
59.72265625,38.0859375,-35.15625,-58.59375,-146.484375,10.25390625,0.0
59.7265625,9.765625,-30.76171875,-34.1796875,-42.96875,20.99609375,0.0
59.73046875,-55.6640625,-24.90234375,-24.4140625,10.25390625,38.0859375,0.0
59.734375,-62.01171875,-30.76171875,-56.640625,-74.70703125,4.39453125,0.0
59.73828125,-26.85546875,-30.76171875,-51.26953125,-35.64453125,-71.2890625,0.0
59.7421875,2.9296875,-23.4375,-30.2734375,-36.1328125,-95.21484375,0.0
59.74609375,8.7890625,-25.390625,-32.2265625,-37.59765625,2.44140625,0.0
59.75,-10.7421875,-42.96875,-33.203125,-42.48046875,56.640625,0.0
59.75390625,-62.98828125,-71.77734375,-44.921875,-81.54296875,10.25390625,0.0
59.7578125,-56.640625,-54.6875,-54.19921875,-64.453125,-42.48046875,0.0
59.76171875,-14.16015625,-31.25,-39.55078125,-49.8046875,-144.04296875,0.0
59.765625,-22.94921875,-41.50390625,-34.1796875,-35.64453125,-113.76953125,0.0
59.76953125,-52.24609375,-34.1796875,-35.64453125,-49.8046875,-13.18359375,0.0
59.7734375,-61.5234375,-3.90625,-40.52734375,-83.0078125,47.36328125,0.0
59.77734375,-53.7109375,-15.625,-48.828125,-84.47265625,-29.78515625,0.0
59.78125,-29.296875,-43.45703125,-39.55078125,-52.24609375,-99.12109375,0.0
59.78515625,-7.8125,-39.55078125,-28.80859375,-40.0390625,-36.62109375,0.0
59.7890625,-27.83203125,-37.109375,-21.97265625,-47.36328125,-89.84375,0.0
59.79296875,-48.33984375,-38.0859375,-24.4140625,-61.5234375,-126.46484375,0.0
59.796875,-34.1796875,-43.9453125,-31.73828125,-77.1484375,-47.36328125,0.0
59.80078125,-8.30078125,-51.7578125,-37.59765625,-65.4296875,-38.57421875,0.0
59.8046875,-7.32421875,-43.9453125,-37.59765625,-49.8046875,-34.1796875,0.0
59.80859375,-37.109375,-40.0390625,-32.2265625,-45.41015625,-58.10546875,0.0
59.8125,-65.91796875,-47.8515625,-40.0390625,-48.33984375,-102.05078125,0.0
59.81640625,-39.55078125,-48.828125,-36.62109375,-51.7578125,-145.01953125,0.0
59.8203125,-1.953125,-54.6875,-33.69140625,-62.01171875,-48.828125,0.0
59.82421875,9.27734375,-80.078125,-38.57421875,-60.05859375,93.26171875,0.0
59.828125,-6.8359375,-100.5859375,-34.66796875,-45.8984375,67.87109375,0.0
59.83203125,-44.921875,-65.4296875,-28.3203125,-53.22265625,104.4921875,0.0
59.8359375,-55.6640625,-34.66796875,-26.3671875,-51.7578125,136.71875,0.0
59.83984375,-12.20703125,-43.9453125,-48.828125,-63.96484375,-0.48828125,0.0
59.84375,1.953125,-103.02734375,-51.26953125,-94.23828125,-76.171875,0.0
59.84765625,-13.671875,-129.8828125,-41.9921875,-81.54296875,-66.40625,0.0
59.8515625,-46.38671875,-109.375,-24.4140625,-35.64453125,-70.80078125,0.0
59.85546875,-62.5,-125.9765625,-15.625,-16.6015625,-26.3671875,0.0
59.859375,-48.828125,-128.41796875,-20.99609375,-44.43359375,41.015625,0.0
59.86328125,-30.2734375,-108.3984375,-24.90234375,-81.0546875,71.77734375,0.0
59.8671875,-38.0859375,-177.24609375,-34.1796875,-50.29296875,27.83203125,0.0
59.87109375,-78.125,-232.91015625,-60.546875,-84.47265625,-69.82421875,0.0
59.875,-86.9140625,-190.4296875,-74.70703125,-139.16015625,-115.234375,0.0
59.87890625,-88.8671875,-158.69140625,-64.453125,-78.61328125,-80.078125,0.0
59.8828125,-49.31640625,-172.36328125,-46.875,-32.71484375,-31.73828125,0.0
59.88671875,-11.23046875,-223.14453125,-42.48046875,-34.66796875,-86.9140625,0.0
59.890625,-100.09765625,-270.5078125,-49.8046875,-33.69140625,-75.1953125,0.0
59.89453125,-118.65234375,-252.44140625,-45.8984375,-44.43359375,10.7421875,0.0
59.8984375,-47.36328125,-289.0625,-55.6640625,-70.80078125,43.45703125,0.0
59.90234375,-67.87109375,-315.91796875,-53.22265625,-48.33984375,19.04296875,0.0
59.90625,-113.76953125,-298.828125,-25.390625,-7.32421875,-24.90234375,0.0
59.91015625,-120.1171875,-311.03515625,-24.90234375,-16.11328125,-48.33984375,0.0
59.9140625,-98.6328125,-302.734375,-23.4375,-31.73828125,-18.5546875,0.0
59.91796875,-148.4375,-286.62109375,-4.8828125,-25.390625,57.6171875,0.0
59.921875,-219.23828125,-288.0859375,7.32421875,-0.48828125,56.15234375,0.0
59.92578125,-148.92578125,-305.6640625,10.7421875,12.20703125,-49.31640625,0.0
59.9296875,-80.078125,-267.08984375,8.7890625,-13.18359375,-121.58203125,0.0
59.93359375,-133.30078125,-199.70703125,-10.7421875,-48.33984375,-106.4453125,0.0
59.9375,-238.28125,-181.640625,-26.85546875,-31.25,-71.2890625,0.0
59.94140625,-242.1875,-213.8671875,-15.625,-19.53125,-43.45703125,0.0
59.9453125,-167.96875,-204.58984375,-9.765625,-32.2265625,-33.203125,0.0
59.94921875,-128.90625,-203.125,-18.5546875,-42.48046875,-36.1328125,0.0
59.953125,-176.26953125,-265.13671875,-20.5078125,-49.8046875,-47.36328125,0.0
59.95703125,-190.91796875,-198.2421875,-12.20703125,-28.80859375,-4.39453125,0.0
59.9609375,-87.890625,-126.953125,-0.48828125,-8.30078125,30.2734375,0.0
59.96484375,-44.921875,-134.27734375,1.46484375,4.8828125,-41.015625,0.0
59.96875,-51.7578125,-114.74609375,-1.953125,11.23046875,-29.78515625,0.0
59.97265625,-82.03125,-131.8359375,-16.6015625,-16.11328125,-18.5546875,0.0
59.9765625,-72.75390625,-161.1328125,-35.15625,-44.921875,-55.6640625,0.0
59.98046875,2.9296875,-125.48828125,-29.296875,-31.73828125,-15.13671875,0.0
59.984375,109.86328125,-83.984375,-21.484375,-9.765625,-61.03515625,0.0
59.98828125,150.87890625,-85.9375,-41.9921875,-20.5078125,-54.19921875,0.0
59.9921875,96.19140625,-81.54296875,-68.84765625,-51.26953125,-69.82421875,0.0
59.99609375,67.3828125,-82.03125,-69.3359375,-62.01171875,-55.6640625,0.0
60.0,131.8359375,-55.17578125,-57.6171875,-70.80078125,13.671875,0.0
60.00390625,180.6640625,-50.29296875,-46.875,-51.7578125,6.34765625,0.0
60.0078125,93.75,-78.61328125,-47.8515625,-56.15234375,1.46484375,0.0
60.01171875,68.84765625,-81.54296875,-40.52734375,-44.43359375,34.1796875,0.0
60.015625,86.9140625,-114.74609375,-34.1796875,-2.44140625,-23.4375,0.0
60.01953125,56.15234375,-83.49609375,-32.71484375,-5.37109375,-40.0390625,0.0
60.0234375,76.66015625,-36.1328125,-20.99609375,-4.8828125,-21.484375,0.0
60.02734375,86.9140625,-42.96875,-7.32421875,-4.8828125,-64.453125,0.0
60.03125,74.70703125,-52.24609375,-1.953125,-17.08984375,-108.88671875,0.0
60.03515625,25.87890625,-65.4296875,-8.30078125,-18.06640625,-94.23828125,0.0
60.0390625,23.92578125,-62.01171875,-15.625,-6.8359375,-102.5390625,0.0
60.04296875,76.66015625,-41.50390625,-7.8125,-4.39453125,-99.609375,0.0
60.046875,64.94140625,-57.12890625,-5.859375,1.953125,-57.12890625,0.0
60.05078125,37.109375,-66.40625,-3.41796875,31.73828125,-26.3671875,0.0
60.0546875,35.15625,-68.84765625,-9.765625,6.8359375,-20.01953125,0.0
60.05859375,34.1796875,-87.40234375,-18.5546875,-18.06640625,-24.90234375,0.0
60.0625,37.109375,-83.0078125,-38.57421875,-20.01953125,22.94921875,0.0
60.06640625,37.59765625,-69.82421875,-50.78125,-31.73828125,-87.890625,0.0
60.0703125,13.18359375,-66.40625,-37.109375,-29.296875,-221.6796875,0.0
60.07421875,25.87890625,-72.75390625,-23.92578125,-35.15625,-208.984375,0.0
60.078125,47.8515625,-70.3125,-32.71484375,-31.25,-162.59765625,0.0
60.08203125,50.29296875,-61.03515625,-38.0859375,-22.94921875,-5.37109375,0.0
60.0859375,40.52734375,-74.21875,-13.18359375,-14.6484375,103.02734375,0.0
60.08984375,5.859375,-77.1484375,-5.859375,-6.8359375,84.9609375,0.0
60.09375,-10.7421875,-56.640625,-15.625,-20.99609375,-13.671875,0.0
60.09765625,44.921875,-34.1796875,-27.34375,-41.015625,-28.3203125,0.0
60.1015625,86.9140625,-20.5078125,-38.0859375,-37.59765625,-1.46484375,0.0
60.10546875,59.5703125,-11.71875,-24.90234375,-15.13671875,-13.18359375,0.0
60.109375,7.8125,-11.71875,-23.92578125,-22.4609375,-75.68359375,0.0
60.11328125,13.18359375,-6.34765625,-40.0390625,-37.59765625,-103.02734375,0.0
60.1171875,43.45703125,-3.90625,-29.296875,-20.99609375,-112.3046875,0.0
60.12109375,74.21875,-6.8359375,-29.296875,-11.71875,-64.453125,0.0
60.125,91.796875,-18.06640625,-41.9921875,-20.01953125,-1.46484375,0.0
60.12890625,47.36328125,-29.296875,-41.50390625,-33.203125,-9.765625,0.0
60.1328125,-9.27734375,-23.92578125,-40.0390625,-46.875,-61.5234375,0.0
60.13671875,-14.16015625,-32.71484375,-44.921875,-59.5703125,-54.19921875,0.0
60.140625,-1.46484375,-39.0625,-43.45703125,-26.3671875,-17.08984375,0.0
60.14453125,43.45703125,-19.04296875,-40.52734375,-25.390625,-7.8125,0.0
60.1484375,51.7578125,3.90625,-41.50390625,-31.25,26.3671875,0.0
60.15234375,-39.55078125,12.6953125,-47.8515625,-16.11328125,-13.671875,0.0
60.15625,-72.265625,4.8828125,-47.8515625,-25.390625,0.0,0.0
60.16015625,-23.4375,8.7890625,-42.48046875,-32.71484375,5.37109375,0.0
60.1640625,-5.37109375,29.78515625,-39.55078125,-20.5078125,-95.21484375,0.0
60.16796875,-25.390625,50.78125,-36.1328125,-5.859375,-167.48046875,0.0
60.171875,-58.10546875,66.40625,-41.9921875,-26.85546875,-161.62109375,0.0
60.17578125,-59.08203125,76.171875,-40.52734375,-28.3203125,-111.328125,0.0
60.1796875,-30.2734375,73.2421875,-26.3671875,-10.7421875,-122.55859375,0.0
60.18359375,-42.96875,69.3359375,-27.83203125,-2.9296875,-62.01171875,0.0
60.1875,-50.78125,85.44921875,-29.296875,-6.34765625,23.92578125,0.0
60.19140625,-43.9453125,96.19140625,-26.85546875,-22.94921875,-30.76171875,0.0
60.1953125,-28.80859375,96.19140625,-34.1796875,-24.4140625,-32.2265625,0.0
60.19921875,20.99609375,97.16796875,-31.25,-25.87890625,-14.16015625,0.0
60.203125,14.6484375,101.5625,-26.3671875,-28.80859375,-4.8828125,0.0
60.20703125,-29.296875,102.05078125,-29.78515625,-27.83203125,59.08203125,0.0
60.2109375,-49.8046875,93.26171875,-36.62109375,-36.1328125,-9.765625,0.0
60.21484375,-54.6875,99.12109375,-36.1328125,-28.80859375,-100.09765625,0.0
60.21875,-40.0390625,104.4921875,-33.69140625,-22.4609375,-53.7109375,0.0
60.22265625,1.46484375,105.95703125,-36.62109375,-20.99609375,31.73828125,0.0
60.2265625,25.87890625,118.1640625,-37.59765625,-10.25390625,-10.7421875,0.0
60.23046875,-27.34375,113.28125,-40.52734375,-11.71875,-120.1171875,0.0
60.234375,-59.5703125,95.21484375,-33.69140625,-1.46484375,-128.90625,0.0
60.23828125,-18.06640625,98.14453125,-28.80859375,2.9296875,-27.34375,0.0
60.2421875,21.484375,115.72265625,-35.64453125,-8.7890625,28.3203125,0.0
60.24609375,20.01953125,114.2578125,-32.71484375,-2.44140625,4.39453125,0.0
60.25,0.48828125,94.23828125,-39.55078125,-16.6015625,-70.3125,0.0
60.25390625,25.87890625,93.26171875,-44.43359375,-27.83203125,-75.68359375,0.0
60.2578125,57.12890625,95.21484375,-33.69140625,-24.4140625,-20.5078125,0.0
60.26171875,60.546875,91.30859375,-18.06640625,-15.13671875,-30.76171875,0.0
60.265625,31.25,87.40234375,-6.8359375,-7.32421875,-4.8828125,0.0
60.26953125,7.8125,63.96484375,-13.671875,-29.296875,17.578125,0.0
60.2734375,7.32421875,55.6640625,-20.01953125,-38.0859375,-19.53125,0.0
60.27734375,23.4375,60.05859375,-13.671875,-33.69140625,-3.90625,0.0
60.28125,26.85546875,46.875,-19.53125,-25.390625,25.87890625,0.0
60.28515625,27.34375,50.78125,-29.78515625,-13.671875,26.85546875,0.0
60.2890625,56.15234375,58.59375,-25.390625,-22.94921875,36.1328125,0.0
60.29296875,20.01953125,42.96875,-23.4375,-44.921875,2.9296875,0.0
60.296875,-14.6484375,40.52734375,-33.69140625,-39.55078125,-10.7421875,0.0
60.30078125,21.484375,41.9921875,-26.85546875,-1.953125,34.66796875,0.0
60.3046875,55.17578125,36.62109375,-17.578125,12.20703125,50.29296875,0.0
60.30859375,37.109375,31.73828125,-24.4140625,-13.671875,-23.92578125,0.0
60.3125,-0.9765625,29.78515625,-41.9921875,-47.8515625,-61.5234375,0.0
60.31640625,8.30078125,30.76171875,-43.9453125,-50.29296875,-37.59765625,0.0
60.3203125,45.8984375,28.3203125,-39.0625,-36.1328125,-72.265625,0.0
60.32421875,53.7109375,26.85546875,-40.0390625,-44.921875,-19.53125,0.0
60.328125,46.38671875,27.34375,-38.0859375,-57.12890625,3.41796875,0.0
60.33203125,20.99609375,18.5546875,-41.015625,-72.265625,-9.27734375,0.0
60.3359375,16.6015625,12.6953125,-42.48046875,-74.21875,-74.21875,0.0
60.33984375,2.44140625,12.20703125,-31.25,-57.12890625,-18.06640625,0.0
60.34375,5.859375,5.859375,-27.34375,-49.31640625,-6.34765625,0.0
60.34765625,13.18359375,4.8828125,-38.57421875,-47.36328125,-39.55078125,0.0
60.3515625,10.25390625,3.41796875,-26.85546875,-39.55078125,5.859375,0.0
60.35546875,7.8125,2.44140625,-9.765625,-31.73828125,-73.2421875,0.0
60.359375,-22.4609375,-9.765625,-8.30078125,-27.34375,-180.6640625,0.0
60.36328125,-15.625,-3.41796875,9.27734375,-32.71484375,-138.671875,0.0
60.3671875,1.46484375,14.6484375,5.37109375,-63.96484375,-131.34765625,0.0
60.37109375,-12.6953125,7.8125,-6.8359375,-84.9609375,-191.89453125,0.0
60.375,-17.578125,1.46484375,-0.48828125,-83.984375,-147.94921875,0.0
60.37890625,20.5078125,18.5546875,-1.46484375,-82.03125,-18.5546875,0.0
60.3828125,56.15234375,12.20703125,15.13671875,-80.078125,38.0859375,0.0
60.38671875,-11.71875,0.0,17.08984375,-86.42578125,68.359375,0.0
60.390625,-22.4609375,-6.8359375,14.6484375,-113.28125,101.07421875,0.0
60.39453125,39.0625,-2.44140625,22.4609375,-143.5546875,103.515625,0.0
60.3984375,0.48828125,7.8125,18.5546875,-150.87890625,133.7890625,0.0
60.40234375,-38.0859375,1.46484375,24.4140625,-151.3671875,101.07421875,0.0
60.40625,-7.32421875,6.8359375,30.76171875,-157.2265625,32.2265625,0.0
60.41015625,-2.9296875,10.25390625,18.06640625,-159.66796875,-14.6484375,0.0
60.4140625,-28.80859375,-9.27734375,3.41796875,-182.6171875,-24.90234375,0.0
60.41796875,-9.765625,-1.46484375,-2.44140625,-186.5234375,-16.11328125,0.0
60.421875,22.4609375,14.16015625,-5.37109375,-166.015625,-27.83203125,0.0
60.42578125,25.390625,4.8828125,-5.37109375,-169.43359375,-36.62109375,0.0
60.4296875,2.44140625,-15.13671875,-14.16015625,-190.91796875,-53.7109375,0.0
60.43359375,-26.3671875,-24.90234375,-24.4140625,-197.75390625,-31.73828125,0.0
60.4375,-21.97265625,-9.27734375,-26.85546875,-202.1484375,0.9765625,0.0
60.44140625,5.859375,-7.8125,-28.80859375,-186.03515625,4.8828125,0.0
60.4453125,21.484375,-22.4609375,-28.3203125,-164.55078125,-16.6015625,0.0
60.44921875,2.44140625,-22.94921875,-31.73828125,-165.0390625,-73.2421875,0.0
60.453125,-28.80859375,-48.828125,-37.109375,-170.41015625,-61.5234375,0.0
60.45703125,-3.41796875,-57.6171875,-44.43359375,-164.55078125,-40.0390625,0.0
60.4609375,36.62109375,-26.85546875,-53.22265625,-139.16015625,-36.62109375,0.0
60.46484375,16.11328125,-14.6484375,-47.8515625,-101.5625,2.44140625,0.0
60.46875,-24.4140625,-3.90625,-41.015625,-79.1015625,20.5078125,0.0
60.47265625,-2.9296875,-16.11328125,-42.96875,-75.1953125,-14.16015625,0.0
60.4765625,-23.4375,-66.40625,-51.7578125,-73.2421875,-46.38671875,0.0
60.48046875,-45.8984375,-55.17578125,-46.38671875,-42.48046875,-40.52734375,0.0
60.484375,-18.5546875,-25.390625,-33.69140625,-16.6015625,6.8359375,0.0
60.48828125,-47.8515625,-48.828125,-36.1328125,-20.5078125,12.20703125,0.0
60.4921875,-74.21875,-89.84375,-46.38671875,-28.3203125,-28.80859375,0.0
60.49609375,-54.19921875,-87.890625,-45.41015625,-16.6015625,-21.97265625,0.0
60.5,-33.69140625,-94.7265625,-53.7109375,5.859375,43.45703125,0.0
60.50390625,0.48828125,-154.296875,-63.4765625,29.296875,58.10546875,0.0
60.5078125,-7.8125,-147.94921875,-52.734375,30.2734375,-11.71875,0.0
60.51171875,-62.01171875,-91.796875,-42.48046875,4.8828125,13.671875,0.0
60.515625,-55.6640625,-129.39453125,-36.62109375,-5.37109375,24.4140625,0.0
60.51953125,-32.2265625,-200.68359375,-42.96875,10.7421875,4.8828125,0.0
60.5234375,-1.46484375,-122.55859375,-55.6640625,28.3203125,-27.83203125,0.0
60.52734375,32.2265625,-101.5625,-50.78125,33.69140625,-32.2265625,0.0
60.53125,28.3203125,-183.59375,-41.015625,19.04296875,-44.43359375,0.0
60.53515625,10.25390625,-124.0234375,-44.921875,6.8359375,-29.296875,0.0
60.5390625,88.8671875,-111.328125,-38.0859375,27.34375,-55.6640625,0.0
60.54296875,116.69921875,-143.5546875,-29.78515625,41.9921875,-113.28125,0.0
60.546875,-8.7890625,-108.3984375,-42.96875,26.85546875,-97.65625,0.0
60.55078125,-40.0390625,-115.234375,-45.41015625,23.4375,-29.78515625,0.0
60.5546875,32.2265625,-155.76171875,-46.875,32.71484375,-0.9765625,0.0
60.55859375,73.2421875,-168.9453125,-52.24609375,31.25,-64.453125,0.0
60.5625,29.78515625,-191.89453125,-43.9453125,37.109375,-50.29296875,0.0
60.56640625,-14.6484375,-159.66796875,-41.015625,41.50390625,-9.765625,0.0
60.5703125,19.53125,-168.45703125,-44.921875,19.53125,-23.4375,0.0
60.57421875,-8.30078125,-202.63671875,-52.24609375,-6.34765625,-104.4921875,0.0
60.578125,-77.1484375,-198.73046875,-51.7578125,9.765625,-121.09375,0.0
60.58203125,-88.8671875,-206.0546875,-48.828125,40.0390625,-95.21484375,0.0
60.5859375,-76.66015625,-216.796875,-37.109375,30.2734375,-140.13671875,0.0
60.58984375,-68.359375,-223.14453125,-32.71484375,4.8828125,-202.63671875,0.0
60.59375,-83.0078125,-201.171875,-43.9453125,-5.859375,-246.58203125,0.0
60.59765625,-110.83984375,-218.26171875,-39.55078125,3.90625,-270.5078125,0.0
60.6015625,-82.03125,-276.3671875,-30.76171875,23.4375,-182.6171875,0.0
60.60546875,-73.73046875,-247.55859375,-32.2265625,28.80859375,-108.3984375,0.0
60.609375,-85.44921875,-181.15234375,-32.71484375,2.9296875,-205.078125,0.0
60.61328125,-79.58984375,-192.3828125,-32.71484375,-6.34765625,-156.73828125,0.0
60.6171875,-14.16015625,-218.75,-33.69140625,10.25390625,-16.11328125,0.0
60.62109375,-29.78515625,-186.03515625,-35.64453125,30.76171875,-11.71875,0.0
60.625,-112.3046875,-145.99609375,-27.34375,34.66796875,-55.6640625,0.0
60.62890625,-84.47265625,-143.06640625,-17.08984375,9.765625,-29.78515625,0.0
60.6328125,-51.26953125,-150.87890625,-24.90234375,-21.97265625,0.9765625,0.0
60.63671875,-71.2890625,-161.62109375,-26.3671875,-17.578125,21.97265625,0.0
60.640625,-41.015625,-169.43359375,-24.90234375,-18.5546875,67.87109375,0.0
60.64453125,-8.30078125,-181.15234375,-24.90234375,-9.765625,68.359375,0.0
60.6484375,-22.94921875,-171.38671875,-26.3671875,-21.97265625,8.30078125,0.0
60.65234375,-83.984375,-118.65234375,-34.66796875,-39.55078125,-9.27734375,0.0
60.65625,-92.7734375,-115.234375,-35.64453125,-26.85546875,34.1796875,0.0
60.66015625,-54.19921875,-132.32421875,-33.69140625,-15.13671875,52.24609375,0.0
60.6640625,-33.203125,-114.2578125,-36.1328125,-19.04296875,20.99609375,0.0
60.66796875,-39.55078125,-111.328125,-47.8515625,-34.1796875,-71.77734375,0.0
60.671875,-60.05859375,-114.2578125,-59.08203125,-75.1953125,-170.41015625,0.0
60.67578125,-96.6796875,-134.765625,-80.078125,-106.93359375,-215.8203125,0.0
60.6796875,-106.93359375,-150.390625,-83.984375,-84.9609375,-98.6328125,0.0
60.68359375,-72.265625,-142.578125,-82.03125,-85.9375,77.1484375,0.0
60.6875,-54.6875,-125.48828125,-76.66015625,-83.0078125,102.5390625,0.0
60.69140625,-59.5703125,-116.69921875,-64.453125,-49.8046875,-76.66015625,0.0
60.6953125,-71.77734375,-124.51171875,-61.03515625,-64.94140625,-172.36328125,0.0
60.69921875,-52.734375,-125.48828125,-62.01171875,-82.51953125,-169.43359375,0.0
60.703125,-41.015625,-108.88671875,-58.10546875,-44.43359375,-179.19921875,0.0
60.70703125,-34.66796875,-96.19140625,-54.19921875,-37.109375,-173.33984375,0.0
60.7109375,-48.33984375,-113.76953125,-51.26953125,-49.8046875,-217.28515625,0.0
60.71484375,-61.5234375,-107.421875,-47.8515625,-59.5703125,-229.98046875,0.0
60.71875,-15.13671875,-96.19140625,-48.33984375,-75.68359375,-113.28125,0.0
60.72265625,-8.30078125,-117.1875,-40.0390625,-49.31640625,-22.94921875,0.0
60.7265625,-32.71484375,-118.1640625,-24.4140625,-22.94921875,6.34765625,0.0
60.73046875,-37.59765625,-91.796875,-22.94921875,-26.3671875,6.34765625,0.0
60.734375,-38.57421875,-97.16796875,-38.57421875,-43.45703125,26.85546875,0.0
60.73828125,-28.3203125,-104.98046875,-44.43359375,-63.96484375,57.12890625,0.0
60.7421875,-33.203125,-94.23828125,-38.57421875,-58.59375,16.6015625,0.0
60.74609375,-29.78515625,-84.9609375,-28.3203125,-35.64453125,37.59765625,0.0
60.75,-37.109375,-81.54296875,-35.15625,-44.43359375,67.87109375,0.0
60.75390625,-22.94921875,-70.80078125,-42.48046875,-77.63671875,6.8359375,0.0
60.7578125,-16.11328125,-78.61328125,-43.45703125,-81.0546875,-12.20703125,0.0
60.76171875,-34.66796875,-84.47265625,-40.52734375,-50.29296875,-15.13671875,0.0
60.765625,-17.08984375,-77.1484375,-32.2265625,-18.5546875,-117.1875,0.0
60.76953125,-64.453125,-90.33203125,-38.57421875,-22.4609375,-167.96875,0.0
60.7734375,-139.16015625,-112.3046875,-40.52734375,-45.41015625,-65.4296875,0.0
60.77734375,-98.6328125,-106.93359375,-38.0859375,-62.01171875,18.5546875,0.0
60.78125,-27.83203125,-94.7265625,-43.45703125,-66.89453125,3.41796875,0.0
60.78515625,-31.25,-90.8203125,-52.734375,-73.2421875,-8.30078125,0.0
60.7890625,-68.359375,-81.54296875,-39.0625,-56.640625,9.27734375,0.0
60.79296875,-99.12109375,-83.49609375,-23.4375,-42.48046875,59.5703125,0.0
60.796875,-104.98046875,-82.51953125,-29.296875,-50.29296875,106.93359375,0.0
60.80078125,-51.7578125,-72.75390625,-26.3671875,-28.80859375,103.515625,0.0
60.8046875,-17.08984375,-57.6171875,-24.4140625,-7.8125,67.3828125,0.0
60.80859375,-59.5703125,-49.8046875,-27.34375,-28.3203125,28.80859375,0.0
60.8125,-93.26171875,-54.19921875,-34.66796875,-35.15625,21.97265625,0.0
60.81640625,-79.1015625,-50.29296875,-39.0625,-37.109375,16.6015625,0.0
60.8203125,-45.41015625,-34.66796875,-36.62109375,-34.1796875,33.69140625,0.0
60.82421875,-53.7109375,-32.2265625,-22.94921875,-4.8828125,54.19921875,0.0
60.828125,-89.84375,-43.45703125,-34.1796875,-41.015625,39.0625,0.0
60.83203125,-112.79296875,-46.875,-63.4765625,-84.47265625,13.18359375,0.0
60.8359375,-97.65625,-34.1796875,-55.17578125,-73.2421875,-59.08203125,0.0
60.83984375,-44.43359375,-15.13671875,-34.1796875,-54.19921875,-21.484375,0.0
60.84375,0.0,-2.9296875,-29.78515625,-39.55078125,22.4609375,0.0
60.84765625,-19.04296875,5.37109375,-32.2265625,-35.15625,32.2265625,0.0
60.8515625,-69.82421875,8.7890625,-41.50390625,-53.22265625,-10.7421875,0.0
60.85546875,-81.54296875,10.7421875,-54.19921875,-59.5703125,-44.921875,0.0
60.859375,-67.87109375,14.16015625,-54.6875,-46.38671875,11.23046875,0.0
60.86328125,-52.734375,22.4609375,-36.62109375,-27.83203125,31.25,0.0
60.8671875,-49.8046875,37.109375,-20.01953125,-16.11328125,13.671875,0.0
60.87109375,-70.3125,55.6640625,-17.578125,-27.83203125,-3.41796875,0.0
60.875,-62.01171875,66.40625,-46.875,-50.29296875,-62.5,0.0
60.87890625,-40.0390625,60.05859375,-44.43359375,-38.57421875,-87.890625,0.0
60.8828125,-35.64453125,56.640625,-7.32421875,-16.11328125,-83.984375,0.0
60.88671875,-50.29296875,70.3125,0.9765625,-8.7890625,-74.70703125,0.0
60.890625,-70.80078125,82.51953125,-9.765625,-16.6015625,-29.78515625,0.0
60.89453125,-62.01171875,84.47265625,-18.5546875,-31.73828125,15.625,0.0
60.8984375,-42.96875,83.0078125,-23.4375,-42.48046875,37.109375,0.0
60.90234375,-28.3203125,85.44921875,-31.73828125,-33.203125,-66.40625,0.0
60.90625,-24.4140625,91.30859375,-21.484375,-3.90625,-187.98828125,0.0
60.91015625,-44.43359375,96.6796875,-23.92578125,-23.4375,-148.4375,0.0
60.9140625,-59.5703125,98.6328125,-32.2265625,-50.78125,-162.109375,0.0
60.91796875,-26.85546875,95.21484375,-49.8046875,-66.40625,-174.31640625,0.0
60.921875,-8.7890625,87.40234375,-52.24609375,-53.22265625,-104.4921875,0.0
60.92578125,-12.20703125,85.44921875,-16.6015625,0.48828125,-77.63671875,0.0
60.9296875,-26.85546875,80.56640625,-13.18359375,-0.9765625,-111.81640625,0.0
60.93359375,-45.8984375,78.61328125,-27.83203125,-47.8515625,17.578125,0.0
60.9375,-33.203125,80.56640625,-47.36328125,-81.54296875,93.26171875,0.0
60.94140625,-12.20703125,84.9609375,-40.52734375,-60.546875,42.96875,0.0
60.9453125,3.41796875,80.56640625,-23.92578125,-30.2734375,52.24609375,0.0
60.94921875,-18.5546875,75.1953125,-20.5078125,-11.71875,-8.7890625,0.0
60.953125,-50.29296875,70.80078125,-17.578125,-31.25,5.859375,0.0
60.95703125,-47.36328125,64.453125,-15.13671875,-52.734375,44.43359375,0.0
60.9609375,2.9296875,83.49609375,-21.97265625,-57.12890625,38.0859375,0.0
60.96484375,12.6953125,88.37890625,-33.69140625,-56.15234375,54.6875,0.0
60.96875,-37.59765625,57.12890625,-37.59765625,-56.15234375,67.3828125,0.0
60.97265625,-41.9921875,58.59375,-33.69140625,-61.5234375,-3.41796875,0.0
60.9765625,-33.69140625,55.6640625,-36.1328125,-62.01171875,-43.45703125,0.0
60.98046875,3.90625,50.78125,-43.45703125,-71.77734375,32.71484375,0.0
60.984375,10.25390625,65.91796875,-31.25,-41.015625,49.8046875,0.0
60.98828125,-45.41015625,73.2421875,-18.06640625,-16.11328125,-25.390625,0.0
60.9921875,-74.21875,62.5,-26.85546875,-44.921875,-32.71484375,0.0
60.99609375,-63.4765625,49.8046875,-21.97265625,-31.73828125,-2.44140625,0.0
61.0,-18.5546875,62.98828125,-21.97265625,-24.4140625,-86.42578125,0.0
61.00390625,-8.7890625,67.3828125,-20.99609375,-6.34765625,-108.3984375,0.0
61.0078125,-23.4375,68.359375,-20.01953125,6.34765625,-79.58984375,0.0
61.01171875,-51.26953125,55.6640625,-29.78515625,-43.45703125,-87.40234375,0.0
61.015625,-82.51953125,31.25,-25.87890625,-53.7109375,-51.26953125,0.0
61.01953125,-74.21875,44.921875,-29.296875,-33.69140625,-32.2265625,0.0
61.0234375,-46.38671875,67.87109375,-32.71484375,-41.50390625,-19.04296875,0.0
61.02734375,-15.13671875,64.94140625,-25.390625,-24.90234375,3.41796875,0.0
61.03125,-19.04296875,51.7578125,-20.99609375,-14.6484375,-34.1796875,0.0
61.03515625,-64.94140625,36.62109375,-26.3671875,-43.45703125,-74.70703125,0.0
61.0390625,-62.98828125,20.01953125,-31.73828125,-50.78125,0.48828125,0.0
61.04296875,-21.484375,34.1796875,-29.296875,-34.66796875,83.984375,0.0
61.046875,-61.5234375,34.1796875,-22.4609375,-15.625,20.01953125,0.0
61.05078125,-105.46875,14.16015625,-25.87890625,-29.78515625,-51.7578125,0.0
61.0546875,-84.9609375,24.90234375,-35.15625,-63.4765625,-74.70703125,0.0
61.05859375,-83.0078125,36.62109375,-32.71484375,-46.38671875,-79.1015625,0.0
61.0625,-61.03515625,33.203125,-34.1796875,-14.6484375,-24.90234375,0.0
61.06640625,-31.73828125,24.4140625,-31.73828125,-15.625,-70.3125,0.0
61.0703125,-59.5703125,13.18359375,-24.4140625,-17.578125,-98.6328125,0.0
61.07421875,-84.9609375,11.23046875,-19.53125,-13.671875,-22.94921875,0.0
61.078125,-64.453125,19.04296875,-21.484375,-26.85546875,10.25390625,0.0
61.08203125,-38.57421875,23.4375,-20.5078125,-27.34375,18.5546875,0.0
61.0859375,-23.92578125,18.5546875,-12.6953125,-8.7890625,-60.546875,0.0
61.08984375,-49.31640625,11.71875,-10.25390625,-24.4140625,-140.13671875,0.0
61.09375,-77.1484375,-0.48828125,-24.90234375,-45.8984375,-58.59375,0.0
61.09765625,-52.734375,-0.48828125,-33.69140625,-49.8046875,-32.71484375,0.0
61.1015625,-21.97265625,15.13671875,-24.4140625,-32.2265625,-62.5,0.0
61.10546875,-36.62109375,15.625,-20.5078125,-5.859375,-22.4609375,0.0
61.109375,-52.24609375,-2.9296875,-24.4140625,-18.5546875,16.6015625,0.0
61.11328125,-63.96484375,-15.625,-42.48046875,-62.01171875,33.69140625,0.0
61.1171875,-57.6171875,-11.71875,-54.6875,-64.94140625,-44.43359375,0.0
61.12109375,-21.97265625,-4.8828125,-33.69140625,-13.671875,-78.61328125,0.0
61.125,-11.23046875,3.41796875,-24.90234375,-6.8359375,31.25,0.0
61.12890625,-30.76171875,0.48828125,-39.0625,-40.0390625,29.78515625,0.0
61.1328125,-37.59765625,-8.30078125,-48.33984375,-63.4765625,-69.82421875,0.0
61.13671875,-32.2265625,-7.32421875,-54.6875,-56.15234375,-59.5703125,0.0
61.140625,-14.16015625,-4.8828125,-41.9921875,-27.34375,-2.44140625,0.0
61.14453125,10.7421875,0.48828125,-30.2734375,-22.4609375,41.50390625,0.0
61.1484375,-21.97265625,-16.11328125,-23.92578125,-22.94921875,-26.85546875,0.0
61.15234375,-61.5234375,-29.78515625,-26.85546875,-27.34375,-76.171875,0.0
61.15625,-60.546875,-23.4375,-35.15625,-28.3203125,-72.265625,0.0
61.16015625,-42.48046875,-17.578125,-24.90234375,1.46484375,-38.0859375,0.0
61.1640625,-0.48828125,-20.99609375,-35.64453125,-16.6015625,-11.71875,0.0
61.16796875,10.7421875,-23.92578125,-42.48046875,-55.17578125,-10.7421875,0.0
61.171875,-27.83203125,-10.25390625,-45.8984375,-63.4765625,-60.05859375,0.0
61.17578125,-41.015625,0.9765625,-58.59375,-66.89453125,-113.76953125,0.0
61.1796875,-17.08984375,5.859375,-45.8984375,-30.2734375,-100.5859375,0.0
61.18359375,21.97265625,4.39453125,-36.62109375,-12.6953125,-117.67578125,0.0
61.1875,13.671875,-10.7421875,-43.45703125,-36.1328125,-161.62109375,0.0
61.19140625,-31.73828125,-20.01953125,-45.41015625,-64.453125,-105.46875,0.0
61.1953125,-35.64453125,-21.97265625,-39.0625,-55.17578125,-67.3828125,0.0
61.19921875,18.5546875,-27.34375,-34.66796875,-38.57421875,-47.8515625,0.0
61.203125,68.84765625,-24.4140625,-13.18359375,-18.5546875,53.22265625,0.0
61.20703125,66.40625,-18.06640625,0.48828125,-2.44140625,71.77734375,0.0
61.2109375,38.57421875,-18.5546875,-11.23046875,-3.90625,22.4609375,0.0
61.21484375,33.69140625,-24.4140625,-15.13671875,-14.6484375,-25.87890625,0.0
61.21875,69.82421875,-21.97265625,-16.11328125,-33.69140625,-7.8125,0.0
61.22265625,98.14453125,-15.625,-4.39453125,-10.7421875,11.71875,0.0
61.2265625,87.40234375,-20.01953125,4.39453125,11.23046875,22.94921875,0.0
61.23046875,68.359375,-20.01953125,0.48828125,6.34765625,37.59765625,0.0
61.234375,59.08203125,-17.578125,-1.953125,-15.625,-34.66796875,0.0
61.23828125,81.54296875,-19.04296875,-9.765625,-34.66796875,-104.98046875,0.0
61.2421875,117.1875,-11.71875,-12.6953125,-15.13671875,-101.5625,0.0
61.24609375,110.3515625,-1.953125,-3.41796875,5.859375,-63.96484375,0.0
61.25,97.65625,-11.23046875,-12.6953125,-19.53125,-1.953125,0.0
61.25390625,73.2421875,-27.83203125,-20.01953125,-39.55078125,-25.87890625,0.0
61.2578125,59.5703125,-23.4375,-11.23046875,-26.3671875,-90.8203125,0.0
61.26171875,88.8671875,-14.6484375,-5.37109375,-22.4609375,-91.30859375,0.0
61.265625,96.6796875,-18.06640625,-7.32421875,-20.5078125,-51.26953125,0.0
61.26953125,59.5703125,-25.87890625,-17.08984375,-25.390625,-65.91796875,0.0
61.2734375,33.69140625,-24.90234375,-16.11328125,-28.3203125,-149.90234375,0.0
61.27734375,43.9453125,-9.27734375,-12.6953125,-27.34375,-86.9140625,0.0
61.28125,69.3359375,-2.9296875,-14.6484375,-20.99609375,-31.25,0.0
61.28515625,74.21875,-13.671875,-19.04296875,-12.20703125,-43.9453125,0.0
61.2890625,41.015625,-15.13671875,-27.83203125,-26.3671875,-8.7890625,0.0
61.29296875,3.41796875,-12.20703125,-33.69140625,-47.8515625,0.48828125,0.0
61.296875,-5.859375,-14.16015625,-41.015625,-57.12890625,-27.83203125,0.0
61.30078125,25.87890625,-17.578125,-34.66796875,-33.69140625,18.06640625,0.0
61.3046875,50.78125,-5.859375,-27.34375,-11.23046875,137.20703125,0.0
61.30859375,28.3203125,-1.953125,-29.78515625,-20.5078125,121.09375,0.0
61.3125,0.0,-10.25390625,-29.296875,-38.57421875,41.015625,0.0
61.31640625,5.37109375,-10.7421875,-29.78515625,-42.48046875,23.92578125,0.0
61.3203125,24.4140625,-6.8359375,-25.390625,-33.203125,-6.8359375,0.0
61.32421875,38.0859375,-6.8359375,-20.99609375,-24.4140625,-18.5546875,0.0
61.328125,12.20703125,-17.08984375,-26.85546875,-33.203125,-6.8359375,0.0
61.33203125,-28.3203125,-16.6015625,-32.71484375,-48.33984375,-30.76171875,0.0
61.3359375,-25.390625,-4.39453125,-42.96875,-53.7109375,-48.828125,0.0
61.33984375,13.671875,7.8125,-27.34375,-32.2265625,-42.48046875,0.0
61.34375,25.390625,8.30078125,-18.5546875,-13.671875,-80.56640625,0.0
61.34765625,11.23046875,10.7421875,-24.90234375,-10.25390625,-36.1328125,0.0
61.3515625,-2.9296875,9.765625,-23.92578125,-17.08984375,-13.18359375,0.0
61.35546875,-11.71875,2.9296875,-31.73828125,-23.4375,-72.75390625,0.0
61.359375,3.41796875,7.32421875,-34.1796875,-7.8125,-71.77734375,0.0
61.36328125,15.13671875,11.23046875,-24.90234375,0.9765625,-63.96484375,0.0
61.3671875,-2.9296875,11.23046875,-23.92578125,-22.94921875,-5.859375,0.0
61.37109375,-35.64453125,6.8359375,-29.78515625,-43.45703125,-29.78515625,0.0
61.375,-43.45703125,4.8828125,-29.78515625,-59.08203125,-40.52734375,0.0
61.37890625,-23.92578125,13.671875,-31.73828125,-43.45703125,48.33984375,0.0
61.3828125,-3.41796875,16.11328125,-25.390625,-6.8359375,-44.43359375,0.0
61.38671875,-9.27734375,13.671875,-36.62109375,-33.203125,-106.4453125,0.0
61.390625,-48.33984375,11.71875,-48.828125,-61.03515625,-61.5234375,0.0
61.39453125,-50.78125,9.765625,-37.109375,-47.8515625,-25.390625,0.0
61.3984375,-22.94921875,13.18359375,-21.97265625,-34.1796875,12.6953125,0.0
61.40234375,-3.41796875,22.4609375,-10.25390625,-3.41796875,11.23046875,0.0
61.40625,-21.484375,23.92578125,-9.765625,9.27734375,2.44140625,0.0
61.41015625,-46.875,19.53125,-15.625,-4.8828125,-60.05859375,0.0
61.4140625,-50.29296875,17.08984375,-24.4140625,-28.3203125,-90.33203125,0.0
61.41796875,-53.7109375,15.625,-28.3203125,-31.73828125,-87.40234375,0.0
61.421875,-31.25,18.06640625,-21.484375,-4.8828125,-18.06640625,0.0
61.42578125,-9.765625,17.578125,-24.90234375,4.8828125,44.43359375,0.0
61.4296875,-26.3671875,18.5546875,-38.57421875,-16.6015625,-10.7421875,0.0
61.43359375,-52.734375,17.578125,-41.50390625,-32.2265625,-74.21875,0.0
61.4375,-52.734375,8.30078125,-46.38671875,-36.62109375,-85.44921875,0.0
61.44140625,-29.78515625,10.25390625,-32.71484375,-17.08984375,-21.97265625,0.0
61.4453125,-22.94921875,15.625,-18.06640625,0.48828125,-35.15625,0.0
61.44921875,-45.8984375,13.18359375,-24.4140625,-5.859375,-65.4296875,0.0
61.453125,-58.10546875,9.27734375,-28.80859375,-28.80859375,27.83203125,0.0
61.45703125,-47.8515625,6.34765625,-32.71484375,-43.9453125,15.13671875,0.0
61.4609375,-41.015625,5.859375,-26.85546875,-20.01953125,-50.29296875,0.0
61.46484375,-20.01953125,5.859375,-22.94921875,3.41796875,-26.85546875,0.0
61.46875,-21.484375,10.7421875,-20.99609375,-0.48828125,7.8125,0.0
61.47265625,-46.38671875,10.7421875,-24.90234375,-13.18359375,-36.62109375,0.0
61.4765625,-32.2265625,16.11328125,-32.71484375,-16.6015625,-67.87109375,0.0
61.48046875,-35.15625,19.04296875,-25.87890625,-13.671875,-33.203125,0.0
61.484375,-46.38671875,6.34765625,-25.87890625,-6.8359375,-31.25,0.0
61.48828125,-54.6875,2.44140625,-27.34375,-6.8359375,-56.640625,0.0
61.4921875,-78.61328125,-2.44140625,-28.3203125,-23.4375,-73.2421875,0.0
61.49609375,-69.3359375,-3.90625,-28.3203125,-40.52734375,-24.90234375,0.0
61.5,-40.52734375,-3.90625,-27.83203125,-23.4375,-44.921875,0.0
61.50390625,-24.4140625,3.90625,-32.2265625,-5.859375,-82.03125,0.0
61.5078125,-30.76171875,14.16015625,-32.71484375,-11.23046875,0.48828125,0.0
61.51171875,-57.6171875,5.859375,-37.109375,-35.15625,-1.46484375,0.0
61.515625,-59.08203125,1.46484375,-39.0625,-41.50390625,-152.34375,0.0
61.51953125,-32.2265625,6.34765625,-29.78515625,-20.99609375,-163.0859375,0.0
61.5234375,-7.8125,6.8359375,-23.4375,-13.671875,-57.12890625,0.0
61.52734375,-25.390625,2.44140625,-20.01953125,-4.8828125,-80.078125,0.0
61.53125,-62.98828125,-3.90625,-25.390625,-22.4609375,-194.3359375,0.0
61.53515625,-51.26953125,8.7890625,-34.1796875,-52.734375,-165.0390625,0.0
61.5390625,-26.3671875,19.53125,-32.71484375,-42.96875,-75.68359375,0.0
61.54296875,-6.8359375,20.99609375,-24.4140625,-13.18359375,-31.73828125,0.0
61.546875,20.99609375,27.83203125,-26.85546875,-7.32421875,37.59765625,0.0
61.55078125,11.71875,32.71484375,-31.73828125,-39.0625,32.71484375,0.0
61.5546875,-9.765625,30.2734375,-30.76171875,-56.15234375,3.90625,0.0
61.55859375,20.01953125,35.15625,-31.73828125,-47.36328125,18.06640625,0.0
61.5625,62.5,40.52734375,-31.73828125,-36.62109375,92.7734375,0.0
61.56640625,71.77734375,45.41015625,-26.3671875,-15.13671875,70.80078125,0.0
61.5703125,56.640625,54.19921875,-24.90234375,-14.16015625,-94.23828125,0.0
61.57421875,53.7109375,59.08203125,-29.296875,-37.109375,-127.9296875,0.0
61.578125,66.89453125,52.734375,-37.109375,-51.26953125,-101.5625,0.0
61.58203125,90.8203125,52.24609375,-41.015625,-43.45703125,-38.0859375,0.0
61.5859375,101.5625,62.5,-42.48046875,-29.296875,34.66796875,0.0
61.58984375,69.82421875,66.40625,-45.41015625,-39.0625,11.71875,0.0
61.59375,47.8515625,60.546875,-46.38671875,-51.26953125,-2.44140625,0.0
61.59765625,53.22265625,57.12890625,-42.48046875,-45.8984375,-48.33984375,0.0
61.6015625,63.96484375,57.6171875,-29.78515625,-24.90234375,-32.71484375,0.0
61.60546875,68.359375,57.12890625,-20.01953125,-10.25390625,-13.18359375,0.0
61.609375,49.31640625,52.24609375,-21.484375,-10.7421875,-48.828125,0.0
61.61328125,13.671875,50.29296875,-24.4140625,-24.4140625,-98.14453125,0.0
61.6171875,0.9765625,52.24609375,-28.3203125,-37.59765625,-65.91796875,0.0
61.62109375,23.92578125,53.22265625,-35.64453125,-36.1328125,-3.41796875,0.0
61.625,35.64453125,41.9921875,-27.83203125,-19.04296875,79.1015625,0.0
61.62890625,4.8828125,32.71484375,-30.76171875,-20.01953125,98.6328125,0.0
61.6328125,-4.8828125,37.59765625,-40.0390625,-51.26953125,35.15625,0.0
61.63671875,9.27734375,38.0859375,-33.203125,-66.89453125,-42.96875,0.0
61.640625,24.4140625,35.64453125,-34.66796875,-52.24609375,-34.1796875,0.0
61.64453125,1.953125,37.59765625,-35.15625,-38.57421875,7.8125,0.0
61.6484375,-26.3671875,31.73828125,-32.2265625,-44.43359375,-10.25390625,0.0
61.65234375,-23.92578125,30.76171875,-32.71484375,-58.10546875,-67.87109375,0.0
61.65625,-0.48828125,33.203125,-28.3203125,-60.05859375,-129.39453125,0.0
61.66015625,-7.8125,20.99609375,-17.08984375,-33.69140625,-189.94140625,0.0
61.6640625,-23.4375,22.4609375,-5.37109375,-11.71875,-149.4140625,0.0
61.66796875,-25.390625,30.76171875,-9.765625,-23.92578125,-141.6015625,0.0
61.671875,-48.33984375,20.5078125,-11.71875,-48.828125,-149.90234375,0.0
61.67578125,-65.91796875,15.625,-19.04296875,-40.52734375,-94.7265625,0.0
61.6796875,-48.33984375,28.80859375,-28.3203125,-39.0625,-87.40234375,0.0
61.68359375,-31.25,35.64453125,-17.578125,-50.29296875,-100.5859375,0.0
61.6875,-19.04296875,38.57421875,-16.6015625,-40.52734375,-86.42578125,0.0
61.69140625,-40.52734375,37.59765625,-23.4375,-51.26953125,-121.09375,0.0
61.6953125,-76.171875,31.25,-20.01953125,-59.5703125,-48.33984375,0.0
61.69921875,-77.63671875,29.78515625,-25.87890625,-46.38671875,-21.97265625,0.0
61.703125,-63.96484375,30.76171875,-31.25,-34.1796875,-97.65625,0.0
61.70703125,-61.03515625,29.78515625,-32.2265625,-36.1328125,-77.63671875,0.0
61.7109375,-85.44921875,27.34375,-37.109375,-49.8046875,5.37109375,0.0
61.71484375,-108.88671875,26.3671875,-38.0859375,-58.59375,85.9375,0.0
61.71875,-101.5625,20.5078125,-33.69140625,-53.22265625,63.96484375,0.0
61.72265625,-80.56640625,16.6015625,-27.83203125,-33.69140625,14.6484375,0.0
61.7265625,-88.37890625,17.08984375,-24.90234375,-17.08984375,-45.8984375,0.0
61.73046875,-117.67578125,19.53125,-30.2734375,-36.1328125,-5.37109375,0.0
61.734375,-164.0625,12.20703125,-36.62109375,-62.5,-5.859375,0.0
61.73828125,-156.25,7.32421875,-38.0859375,-45.8984375,-83.0078125,0.0
61.7421875,-155.2734375,11.71875,-33.69140625,-20.5078125,-105.95703125,0.0
61.74609375,-174.8046875,10.25390625,-32.2265625,-27.34375,-86.9140625,0.0
61.75,-180.17578125,3.41796875,-32.2265625,-37.59765625,-18.5546875,0.0
61.75390625,-199.21875,1.46484375,-34.66796875,-54.6875,-13.18359375,0.0
61.7578125,-204.58984375,3.41796875,-36.1328125,-52.734375,-82.51953125,0.0
61.76171875,-202.1484375,-3.41796875,-31.25,-32.2265625,-16.11328125,0.0
61.765625,-204.58984375,2.9296875,-31.25,-23.4375,78.125,0.0
61.76953125,-212.890625,6.34765625,-39.55078125,-28.80859375,37.109375,0.0
61.7734375,-220.21484375,1.46484375,-42.48046875,-31.25,66.89453125,0.0
61.77734375,-202.1484375,4.8828125,-45.8984375,-39.0625,47.36328125,0.0
61.78125,-167.96875,-0.9765625,-41.9921875,-21.97265625,23.92578125,0.0
61.78515625,-173.828125,-5.37109375,-30.76171875,-1.46484375,35.15625,0.0
61.7890625,-231.93359375,-7.32421875,-31.73828125,-17.08984375,-48.828125,0.0
61.79296875,-238.28125,-11.23046875,-38.0859375,-29.296875,-56.15234375,0.0
61.796875,-192.87109375,-11.23046875,-37.109375,-20.5078125,-35.15625,0.0
61.80078125,-193.84765625,-16.11328125,-30.2734375,-10.7421875,7.32421875,0.0
61.8046875,-193.84765625,-16.11328125,-32.2265625,-3.41796875,-24.90234375,0.0
61.80859375,-191.40625,-17.578125,-36.62109375,-9.27734375,-47.8515625,0.0
61.8125,-186.5234375,-20.99609375,-38.57421875,-29.78515625,11.71875,0.0
61.81640625,-170.41015625,-15.13671875,-35.64453125,-41.50390625,49.8046875,0.0
61.8203125,-164.55078125,-12.6953125,-35.64453125,-42.48046875,5.859375,0.0
61.82421875,-142.578125,-12.6953125,-33.203125,-18.06640625,-98.6328125,0.0
61.828125,-141.6015625,-16.6015625,-29.78515625,-14.6484375,-58.59375,0.0
61.83203125,-145.99609375,-18.5546875,-40.0390625,-52.24609375,29.296875,0.0
61.8359375,-134.27734375,-19.04296875,-38.0859375,-65.4296875,-26.3671875,0.0
61.83984375,-114.74609375,-14.6484375,-30.2734375,-47.8515625,-43.45703125,0.0
61.84375,-81.54296875,-19.53125,-27.83203125,-35.15625,-3.90625,0.0
61.84765625,-76.171875,-22.4609375,-26.3671875,-26.85546875,53.22265625,0.0
61.8515625,-102.5390625,-19.04296875,-29.296875,-39.55078125,-49.31640625,0.0
61.85546875,-98.14453125,-16.11328125,-33.69140625,-62.5,-123.046875,0.0
61.859375,-55.6640625,-15.13671875,-31.73828125,-46.875,-41.015625,0.0
61.86328125,-20.99609375,-18.06640625,-26.3671875,-12.20703125,33.203125,0.0
61.8671875,-18.06640625,-18.5546875,-30.2734375,-18.5546875,57.12890625,0.0
61.87109375,-44.43359375,-20.01953125,-39.0625,-42.96875,-46.38671875,0.0
61.875,-59.5703125,-25.390625,-36.1328125,-48.33984375,-90.33203125,0.0
61.87890625,-21.97265625,-22.94921875,-41.50390625,-42.48046875,-81.54296875,0.0
61.8828125,21.97265625,-19.53125,-41.015625,-27.83203125,-38.57421875,0.0
61.88671875,13.18359375,-20.5078125,-30.2734375,-12.6953125,23.92578125,0.0
61.890625,-14.6484375,-20.99609375,-33.203125,-29.296875,3.41796875,0.0
61.89453125,-37.109375,-25.87890625,-43.45703125,-59.08203125,-126.46484375,0.0
61.8984375,-16.6015625,-19.53125,-48.33984375,-50.78125,-139.6484375,0.0
61.90234375,38.0859375,0.0,-41.50390625,-24.90234375,-24.4140625,0.0
61.90625,24.90234375,-10.7421875,-41.015625,-26.85546875,-39.0625,0.0
61.91015625,-17.578125,-21.484375,-40.0390625,-45.8984375,-74.21875,0.0
61.9140625,-15.13671875,-12.6953125,-36.62109375,-57.12890625,-16.11328125,0.0
61.91796875,13.18359375,-16.11328125,-41.50390625,-61.5234375,27.34375,0.0
61.921875,35.64453125,-16.6015625,-43.45703125,-44.43359375,63.96484375,0.0
61.92578125,33.69140625,-14.16015625,-41.50390625,-22.4609375,8.7890625,0.0
61.9296875,21.97265625,-14.6484375,-43.45703125,-40.0390625,-49.31640625,0.0
61.93359375,-1.46484375,-12.20703125,-38.0859375,-56.15234375,-105.46875,0.0
61.9375,-19.04296875,-17.578125,-34.66796875,-52.734375,-72.265625,0.0
61.94140625,3.41796875,-8.30078125,-36.1328125,-35.64453125,7.8125,0.0
61.9453125,30.2734375,-7.32421875,-35.64453125,-24.4140625,6.8359375,0.0
61.94921875,7.8125,-20.5078125,-41.015625,-38.0859375,-16.6015625,0.0
61.953125,-18.06640625,-19.04296875,-41.015625,-38.0859375,35.15625,0.0
61.95703125,-29.78515625,-23.4375,-34.66796875,-48.33984375,45.8984375,0.0
61.9609375,-19.53125,-28.80859375,-38.0859375,-54.6875,-7.32421875,0.0
61.96484375,2.9296875,-22.4609375,-37.109375,-30.2734375,10.25390625,0.0
61.96875,1.46484375,-18.06640625,-36.62109375,-29.78515625,-51.7578125,0.0
61.97265625,-22.4609375,-17.578125,-40.0390625,-41.9921875,-61.03515625,0.0
61.9765625,-33.69140625,-23.4375,-42.48046875,-43.45703125,-14.6484375,0.0
61.98046875,11.71875,-19.04296875,-37.59765625,-42.96875,-26.85546875,0.0
61.984375,38.0859375,-11.71875,-27.34375,-33.69140625,-122.55859375,0.0
61.98828125,-14.6484375,-21.97265625,-37.59765625,-28.3203125,-194.82421875,0.0
61.9921875,-36.1328125,-28.3203125,-34.1796875,-32.71484375,-145.5078125,0.0
61.99609375,-28.3203125,-24.90234375,-21.484375,-40.52734375,-104.00390625,0.0
62.0,-18.06640625,-22.4609375,-18.5546875,-34.1796875,-74.21875,0.0
62.00390625,-8.30078125,-20.99609375,-24.4140625,-22.94921875,-49.8046875,0.0
62.0078125,-15.13671875,-17.578125,-28.80859375,-22.4609375,-44.921875,0.0
62.01171875,-27.83203125,-20.01953125,-26.3671875,-31.73828125,-40.0390625,0.0
62.015625,-24.90234375,-24.90234375,-30.2734375,-49.8046875,-30.76171875,0.0
62.01953125,-6.8359375,-26.3671875,-32.2265625,-46.38671875,-36.62109375,0.0
62.0234375,6.34765625,-24.90234375,-28.80859375,-22.4609375,-34.66796875,0.0
62.02734375,-5.37109375,-22.94921875,-20.99609375,-6.34765625,-0.48828125,0.0
62.03125,-36.62109375,-27.34375,-25.390625,-17.08984375,-10.7421875,0.0
62.03515625,-41.015625,-25.87890625,-31.73828125,-40.52734375,-62.5,0.0
62.0390625,-13.671875,-17.578125,-24.4140625,-37.59765625,-83.984375,0.0
62.04296875,-8.30078125,-14.16015625,-19.53125,-34.1796875,-98.14453125,0.0
62.046875,-15.625,-11.71875,-18.06640625,-36.1328125,-23.92578125,0.0
62.05078125,-41.9921875,-17.08984375,-20.99609375,-35.15625,25.87890625,0.0
62.0546875,-69.82421875,-28.3203125,-22.4609375,-42.96875,-11.23046875,0.0
62.05859375,-47.36328125,-27.83203125,-20.5078125,-36.62109375,-17.08984375,0.0
62.0625,-16.6015625,-23.92578125,-22.4609375,-19.53125,-43.45703125,0.0
62.06640625,-18.06640625,-20.01953125,-21.97265625,-16.11328125,-10.7421875,0.0
62.0703125,-43.45703125,-18.5546875,-17.08984375,-13.671875,30.2734375,0.0
62.07421875,-56.15234375,-24.4140625,-29.78515625,-28.80859375,-8.7890625,0.0
62.078125,-39.55078125,-26.3671875,-36.62109375,-66.89453125,-9.765625,0.0
62.08203125,-34.66796875,-29.78515625,-30.2734375,-56.640625,-55.17578125,0.0
62.0859375,-33.203125,-27.34375,-24.4140625,-26.85546875,-51.7578125,0.0
62.08984375,-19.04296875,-20.5078125,-23.92578125,-38.57421875,-18.5546875,0.0
62.09375,-30.2734375,-16.11328125,-31.25,-67.3828125,-16.11328125,0.0
62.09765625,-37.59765625,-15.625,-29.296875,-63.96484375,53.7109375,0.0
62.1015625,-45.8984375,-11.23046875,-29.296875,-37.59765625,36.1328125,0.0
62.10546875,-41.9921875,-8.30078125,-27.34375,-30.2734375,-50.78125,0.0
62.109375,-47.8515625,-10.7421875,-23.92578125,-38.0859375,-13.18359375,0.0
62.11328125,-69.3359375,-9.27734375,-29.78515625,-29.78515625,-59.08203125,0.0
62.1171875,-55.17578125,-1.46484375,-42.48046875,-42.48046875,-77.1484375,0.0
62.12109375,-27.83203125,3.90625,-42.96875,-64.453125,-54.6875,0.0
62.125,0.48828125,6.34765625,-33.203125,-41.50390625,-94.23828125,0.0
62.12890625,1.953125,9.27734375,-33.203125,-32.2265625,-54.6875,0.0
62.1328125,-26.85546875,11.71875,-34.66796875,-40.52734375,90.8203125,0.0
62.13671875,-29.296875,9.27734375,-35.64453125,-36.62109375,41.015625,0.0
62.140625,-8.7890625,0.0,-37.59765625,-35.64453125,-51.7578125,0.0
62.14453125,-1.953125,-1.46484375,-31.25,-24.4140625,-89.35546875,0.0
62.1484375,-18.06640625,2.9296875,-30.76171875,-25.390625,-115.72265625,0.0
62.15234375,-39.0625,0.48828125,-36.62109375,-47.8515625,-103.02734375,0.0
62.15625,-49.8046875,-2.9296875,-38.57421875,-49.8046875,-119.140625,0.0
62.16015625,-17.578125,-2.9296875,-35.15625,-37.109375,-91.30859375,0.0
62.1640625,-9.27734375,-7.32421875,-31.25,-21.97265625,-85.9375,0.0
62.16796875,-33.203125,-10.25390625,-27.83203125,-14.6484375,-88.37890625,0.0
62.171875,-50.29296875,-14.16015625,-29.78515625,-24.90234375,-61.03515625,0.0
62.17578125,-35.15625,-9.765625,-38.0859375,-44.921875,-5.37109375,0.0
62.1796875,0.0,-0.48828125,-33.69140625,-47.8515625,20.5078125,0.0
62.18359375,1.953125,0.0,-27.83203125,-24.90234375,-8.30078125,0.0
62.1875,-20.5078125,-10.7421875,-28.3203125,-12.6953125,7.8125,0.0
62.19140625,-39.0625,-16.6015625,-26.85546875,-34.66796875,37.59765625,0.0
62.1953125,-41.015625,-15.13671875,-30.2734375,-46.38671875,-2.44140625,0.0
62.19921875,-20.01953125,-15.625,-29.296875,-30.2734375,-99.609375,0.0
62.203125,3.90625,-15.13671875,-22.4609375,-19.53125,-137.20703125,0.0
62.20703125,-3.41796875,-10.25390625,-23.92578125,-13.671875,-84.9609375,0.0
62.2109375,-25.87890625,-10.7421875,-32.71484375,-22.94921875,-146.484375,0.0
62.21484375,-38.57421875,-20.01953125,-34.1796875,-43.9453125,-175.78125,0.0
62.21875,-34.66796875,-26.85546875,-35.15625,-46.875,-96.6796875,0.0
62.22265625,-22.4609375,-26.3671875,-33.203125,-33.203125,-71.77734375,0.0
62.2265625,-9.765625,-16.11328125,-30.2734375,-26.85546875,-27.34375,0.0
62.23046875,-17.08984375,-11.23046875,-35.15625,-42.48046875,-25.87890625,0.0
62.234375,-44.921875,-27.34375,-38.0859375,-54.19921875,-127.44140625,0.0
62.23828125,-42.48046875,-26.85546875,-36.62109375,-44.43359375,-139.6484375,0.0
62.2421875,-26.3671875,-17.08984375,-31.25,-18.5546875,-33.69140625,0.0
62.24609375,-19.53125,-18.06640625,-30.76171875,-21.484375,0.9765625,0.0
62.25,-24.4140625,-20.01953125,-36.1328125,-46.38671875,-17.08984375,0.0
62.25390625,-35.15625,-22.4609375,-36.62109375,-54.6875,-52.734375,0.0
62.2578125,-38.57421875,-27.83203125,-30.76171875,-48.828125,17.08984375,0.0
62.26171875,-14.16015625,-24.4140625,-24.4140625,-23.4375,23.4375,0.0
62.265625,2.9296875,-18.5546875,-26.85546875,-20.5078125,-43.45703125,0.0
62.26953125,-15.625,-17.08984375,-30.2734375,-34.1796875,5.859375,0.0
62.2734375,-35.15625,-22.4609375,-28.3203125,-44.921875,48.828125,0.0
62.27734375,-41.9921875,-26.85546875,-30.76171875,-52.24609375,23.92578125,0.0
62.28125,-22.94921875,-29.296875,-31.25,-49.31640625,-43.45703125,0.0
62.28515625,-10.7421875,-23.92578125,-25.390625,-33.203125,-57.6171875,0.0
62.2890625,-26.85546875,-17.08984375,-24.90234375,-28.3203125,-37.59765625,0.0
62.29296875,-42.48046875,-21.484375,-33.203125,-39.55078125,-55.6640625,0.0
62.296875,-55.17578125,-21.484375,-38.0859375,-53.7109375,-95.703125,0.0
62.30078125,-26.85546875,-13.671875,-36.1328125,-52.24609375,-3.41796875,0.0
62.3046875,-4.8828125,-9.27734375,-39.55078125,-30.2734375,112.3046875,0.0
62.30859375,-31.73828125,-9.27734375,-39.55078125,-31.73828125,94.23828125,0.0
62.3125,-59.5703125,-16.6015625,-34.1796875,-43.9453125,118.65234375,0.0
62.31640625,-57.6171875,-23.92578125,-35.64453125,-51.7578125,132.8125,0.0
62.3203125,-31.73828125,-24.4140625,-29.296875,-56.15234375,44.921875,0.0
62.32421875,-14.16015625,-25.390625,-15.625,-28.3203125,11.23046875,0.0
62.328125,-24.4140625,-22.94921875,-18.5546875,-27.83203125,47.36328125,0.0
62.33203125,-47.36328125,-25.87890625,-24.4140625,-62.01171875,50.29296875,0.0
62.3359375,-60.546875,-35.15625,-25.390625,-66.40625,30.2734375,0.0
62.33984375,-45.41015625,-32.2265625,-19.53125,-45.8984375,-5.859375,0.0
62.34375,-21.484375,-31.73828125,-17.08984375,-34.1796875,-64.453125,0.0
62.34765625,-28.3203125,-28.3203125,-20.99609375,-35.15625,-74.70703125,0.0
62.3515625,-24.90234375,-29.296875,-22.4609375,-41.50390625,-14.6484375,0.0
62.35546875,-26.85546875,-34.1796875,-23.4375,-40.0390625,-9.765625,0.0
62.359375,-33.203125,-31.25,-25.87890625,-28.80859375,-102.5390625,0.0
62.36328125,-41.015625,-25.390625,-29.296875,-21.484375,-184.5703125,0.0
62.3671875,-35.64453125,-16.11328125,-30.2734375,-25.390625,-101.5625,0.0
62.37109375,-21.484375,-18.06640625,-32.2265625,-42.48046875,0.9765625,0.0
62.375,-31.73828125,-31.73828125,-44.43359375,-62.5,-14.6484375,0.0
62.37890625,-51.7578125,-34.1796875,-45.41015625,-51.7578125,20.99609375,0.0
62.3828125,-41.015625,-30.2734375,-39.0625,-21.484375,10.25390625,0.0
62.38671875,-12.6953125,-34.1796875,-37.109375,-14.6484375,-68.359375,0.0
62.390625,-6.34765625,-40.0390625,-40.0390625,-23.92578125,-111.81640625,0.0
62.39453125,-54.19921875,-43.45703125,-43.9453125,-40.52734375,-124.51171875,0.0
62.3984375,-40.0390625,-43.9453125,-40.52734375,-46.875,-108.88671875,0.0
62.40234375,-14.6484375,-40.0390625,-34.66796875,-25.390625,-88.37890625,0.0
62.40625,-24.4140625,-36.62109375,-32.71484375,-12.6953125,-72.75390625,0.0
62.41015625,-44.43359375,-32.2265625,-38.57421875,-28.3203125,-17.578125,0.0
62.4140625,-45.8984375,-26.85546875,-42.96875,-49.8046875,-9.765625,0.0
62.41796875,-41.015625,-25.390625,-41.015625,-45.8984375,-15.13671875,0.0
62.421875,-31.25,-34.66796875,-38.57421875,-24.90234375,-10.25390625,0.0
62.42578125,-19.04296875,-34.66796875,-35.15625,-26.3671875,-6.8359375,0.0
62.4296875,-22.4609375,-31.73828125,-34.66796875,-40.0390625,65.91796875,0.0
62.43359375,-30.2734375,-34.66796875,-37.59765625,-52.24609375,50.78125,0.0
62.4375,-23.4375,-37.109375,-39.55078125,-55.17578125,26.85546875,0.0
62.44140625,6.8359375,-28.80859375,-36.1328125,-35.64453125,41.015625,0.0
62.4453125,-17.08984375,-22.94921875,-30.2734375,-24.4140625,36.62109375,0.0
62.44921875,-61.5234375,-29.296875,-26.3671875,-28.3203125,8.7890625,0.0
62.453125,-60.546875,-32.71484375,-29.296875,-41.9921875,-40.0390625,0.0
62.45703125,-48.33984375,-29.296875,-29.78515625,-44.921875,-20.99609375,0.0
62.4609375,-16.11328125,-13.18359375,-28.3203125,-27.83203125,-12.20703125,0.0
62.46484375,-13.18359375,-9.765625,-26.85546875,-21.484375,-90.33203125,0.0
62.46875,-32.71484375,-22.4609375,-26.3671875,-35.15625,-77.1484375,0.0
62.47265625,-44.921875,-22.94921875,-30.76171875,-42.48046875,-35.15625,0.0
62.4765625,-39.55078125,-19.04296875,-34.66796875,-50.78125,-56.15234375,0.0
62.48046875,-13.671875,-18.06640625,-31.73828125,-47.8515625,31.25,0.0
62.484375,-4.8828125,-18.06640625,-21.484375,-33.69140625,53.7109375,0.0
62.48828125,-8.30078125,-14.16015625,-17.08984375,-38.0859375,20.99609375,0.0
62.4921875,-25.390625,-15.625,-19.53125,-49.8046875,0.9765625,0.0
62.49609375,-39.55078125,-26.85546875,-17.08984375,-62.98828125,-44.921875,0.0
62.5,-23.92578125,-25.87890625,-22.94921875,-62.5,-17.08984375,0.0
62.50390625,-4.39453125,-15.625,-20.5078125,-72.265625,-9.27734375,0.0
62.5078125,-16.6015625,-14.16015625,-13.671875,-100.5859375,6.8359375,0.0
62.51171875,-41.015625,-19.53125,-9.27734375,-115.234375,45.8984375,0.0
62.515625,-42.96875,-26.3671875,-12.6953125,-120.1171875,27.83203125,0.0
62.51953125,-26.85546875,-24.4140625,-4.8828125,-127.9296875,-32.2265625,0.0
62.5234375,-11.23046875,-18.5546875,1.46484375,-124.51171875,-15.13671875,0.0
62.52734375,-9.765625,-24.4140625,-11.23046875,-136.71875,-23.92578125,0.0
62.53125,-37.109375,-30.2734375,-14.16015625,-171.875,-72.265625,0.0
62.53515625,-49.8046875,-26.3671875,-14.16015625,-188.96484375,-71.2890625,0.0
62.5390625,-32.2265625,-25.87890625,-19.53125,-179.6875,8.30078125,0.0
62.54296875,-20.01953125,-25.87890625,-17.578125,-166.9921875,30.76171875,0.0
62.546875,-9.27734375,-20.01953125,-13.18359375,-176.26953125,25.87890625,0.0
62.55078125,-13.671875,-20.99609375,-14.6484375,-188.96484375,4.8828125,0.0
62.5546875,-32.2265625,-23.92578125,-19.04296875,-193.84765625,-74.21875,0.0
62.55859375,-28.3203125,-25.87890625,-14.16015625,-158.69140625,-27.34375,0.0
62.5625,-21.97265625,-29.78515625,-18.5546875,-145.5078125,6.8359375,0.0
62.56640625,-17.08984375,-28.3203125,-34.66796875,-166.50390625,-101.5625,0.0
62.5703125,-41.50390625,-29.296875,-38.57421875,-176.26953125,-138.671875,0.0
62.57421875,-62.98828125,-34.66796875,-30.2734375,-177.734375,-83.0078125,0.0
62.578125,-41.9921875,-30.2734375,-25.390625,-160.15625,9.27734375,0.0
62.58203125,-10.25390625,-21.484375,-28.80859375,-139.16015625,16.11328125,0.0
62.5859375,-18.5546875,-21.97265625,-35.64453125,-126.953125,-21.97265625,0.0
62.58984375,-45.8984375,-30.76171875,-34.66796875,-123.046875,-12.20703125,0.0
62.59375,-54.6875,-33.203125,-37.59765625,-119.62890625,27.34375,0.0
62.59765625,-49.8046875,-32.2265625,-40.52734375,-101.07421875,21.97265625,0.0
62.6015625,-12.6953125,-29.78515625,-37.109375,-72.265625,-43.9453125,0.0
62.60546875,-1.46484375,-27.34375,-33.69140625,-58.59375,-54.19921875,0.0
62.609375,-43.45703125,-29.296875,-37.59765625,-49.8046875,-140.13671875,0.0
62.61328125,-57.12890625,-28.80859375,-45.41015625,-52.734375,-153.80859375,0.0
62.6171875,-38.0859375,-30.2734375,-45.8984375,-45.8984375,-53.7109375,0.0
62.62109375,-20.01953125,-27.34375,-38.0859375,-12.6953125,11.23046875,0.0
62.625,-14.6484375,-26.85546875,-27.34375,15.625,-4.39453125,0.0
62.62890625,-18.06640625,-29.296875,-32.2265625,18.06640625,-21.484375,0.0
62.6328125,-41.9921875,-33.203125,-44.921875,9.27734375,-43.9453125,0.0
62.63671875,-57.6171875,-35.15625,-46.875,13.18359375,-120.60546875,0.0
62.640625,-47.36328125,-39.55078125,-47.36328125,30.76171875,-140.13671875,0.0
62.64453125,-38.57421875,-41.9921875,-45.41015625,35.64453125,-183.10546875,0.0
62.6484375,-35.64453125,-38.57421875,-41.9921875,27.83203125,-129.8828125,0.0
62.65234375,-59.08203125,-41.9921875,-42.48046875,28.3203125,-47.8515625,0.0
62.65625,-75.1953125,-43.9453125,-41.50390625,28.3203125,-77.1484375,0.0
62.66015625,-52.734375,-53.22265625,-36.1328125,35.64453125,-84.47265625,0.0
62.6640625,-27.83203125,-57.12890625,-29.78515625,54.6875,-48.828125,0.0
62.66796875,-21.97265625,-50.29296875,-36.1328125,41.50390625,-18.5546875,0.0
62.671875,-50.29296875,-53.22265625,-41.50390625,20.5078125,-84.9609375,0.0
62.67578125,-67.3828125,-49.8046875,-44.921875,38.0859375,-46.38671875,0.0
62.6796875,-50.29296875,-44.921875,-49.31640625,46.38671875,24.90234375,0.0
62.68359375,-29.296875,-45.41015625,-48.33984375,37.59765625,54.6875,0.0
62.6875,-31.25,-45.41015625,-40.52734375,41.9921875,105.46875,0.0
62.69140625,-60.546875,-48.33984375,-41.50390625,28.80859375,99.12109375,0.0
62.6953125,-68.359375,-46.38671875,-43.9453125,17.08984375,16.11328125,0.0
62.69921875,-40.52734375,-44.43359375,-32.2265625,34.66796875,-25.87890625,0.0
62.703125,-19.04296875,-44.921875,-25.87890625,56.640625,-13.671875,0.0
62.70703125,-28.80859375,-44.43359375,-28.80859375,54.19921875,-61.5234375,0.0
62.7109375,-61.5234375,-56.640625,-34.1796875,21.484375,-33.69140625,0.0
62.71484375,-80.56640625,-65.91796875,-32.71484375,6.8359375,25.87890625,0.0
62.71875,-72.75390625,-62.98828125,-32.2265625,21.484375,-79.1015625,0.0
62.72265625,-32.71484375,-41.9921875,-32.2265625,34.1796875,-143.5546875,0.0
62.7265625,-11.71875,-31.73828125,-34.66796875,38.0859375,-99.12109375,0.0
62.73046875,-34.1796875,-48.828125,-32.71484375,29.296875,-94.7265625,0.0
62.734375,-50.29296875,-48.33984375,-34.66796875,17.08984375,-88.8671875,0.0
62.73828125,-44.43359375,-32.2265625,-36.62109375,26.3671875,-34.66796875,0.0
62.7421875,-17.578125,-31.25,-26.85546875,34.66796875,-18.5546875,0.0
62.74609375,-17.578125,-32.2265625,-27.83203125,25.390625,-33.69140625,0.0
62.75,-40.0390625,-19.53125,-33.203125,13.18359375,-37.59765625,0.0
62.75390625,-51.26953125,-12.20703125,-34.1796875,-2.44140625,-58.59375,0.0
62.7578125,-45.8984375,7.8125,-41.015625,5.37109375,-20.99609375,0.0
62.76171875,-23.4375,34.66796875,-36.1328125,16.11328125,41.9921875,0.0
62.765625,-19.53125,65.4296875,-30.76171875,15.625,20.5078125,0.0
62.76953125,-37.109375,85.9375,-34.66796875,11.71875,-4.8828125,0.0
62.7734375,-52.734375,88.8671875,-38.57421875,-7.32421875,-6.8359375,0.0
62.77734375,-46.875,112.3046875,-37.109375,-7.8125,-46.38671875,0.0
62.78125,-18.06640625,118.65234375,-27.83203125,8.7890625,-86.42578125,0.0
62.78515625,-1.46484375,115.72265625,-23.92578125,21.484375,-26.3671875,0.0
62.7890625,-18.5546875,136.71875,-25.87890625,5.859375,-24.90234375,0.0
62.79296875,-49.8046875,143.06640625,-31.25,-21.484375,-37.59765625,0.0
62.796875,-57.12890625,150.390625,-33.203125,-19.53125,18.5546875,0.0
62.80078125,-32.2265625,164.55078125,-31.73828125,4.39453125,0.48828125,0.0
62.8046875,-26.3671875,165.0390625,-31.25,11.23046875,9.27734375,0.0
62.80859375,-30.2734375,172.36328125,-31.25,-11.71875,42.96875,0.0
62.8125,-50.29296875,182.12890625,-36.62109375,-31.25,-16.6015625,0.0
62.81640625,-59.5703125,185.05859375,-41.9921875,-36.1328125,-116.69921875,0.0
62.8203125,-44.921875,184.5703125,-42.48046875,-27.34375,-92.7734375,0.0
62.82421875,-23.92578125,192.3828125,-33.203125,-10.7421875,-36.1328125,0.0
62.828125,-38.0859375,189.453125,-35.15625,-15.625,3.41796875,0.0
62.83203125,-66.89453125,184.08203125,-42.48046875,-36.1328125,25.87890625,0.0
62.8359375,-49.8046875,192.87109375,-36.62109375,-35.15625,-59.5703125,0.0
62.83984375,-38.0859375,193.359375,-31.73828125,-31.73828125,-137.6953125,0.0
62.84375,-31.25,167.48046875,-38.57421875,-24.4140625,-164.55078125,0.0
62.84765625,-26.3671875,160.64453125,-38.57421875,-16.6015625,-154.296875,0.0
62.8515625,-65.4296875,171.875,-34.1796875,-34.1796875,-105.46875,0.0
62.85546875,-77.63671875,164.0625,-32.2265625,-30.2734375,-180.6640625,0.0
62.859375,-47.8515625,165.0390625,-38.57421875,-12.6953125,-210.9375,0.0
62.86328125,-27.34375,168.45703125,-36.62109375,-14.16015625,-118.1640625,0.0
62.8671875,-32.71484375,167.96875,-24.90234375,-26.85546875,-138.18359375,0.0
62.87109375,-46.38671875,179.19921875,-25.390625,-39.0625,-161.1328125,0.0
62.875,-54.19921875,156.25,-22.4609375,-19.53125,-78.61328125,0.0
62.87890625,-42.48046875,126.953125,-20.99609375,1.953125,-104.98046875,0.0
62.8828125,-23.92578125,139.6484375,-23.4375,-3.90625,-153.80859375,0.0
62.88671875,-38.57421875,135.7421875,-20.99609375,-11.71875,-154.78515625,0.0
62.890625,-47.8515625,121.58203125,-29.296875,-28.80859375,-97.16796875,0.0
62.89453125,-37.109375,117.1875,-38.57421875,-52.24609375,1.953125,0.0
62.8984375,-38.0859375,107.91015625,-34.66796875,-48.33984375,14.6484375,0.0
62.90234375,-11.71875,94.7265625,-29.78515625,-27.83203125,6.8359375,0.0
62.90625,10.25390625,89.35546875,-31.25,-26.85546875,75.68359375,0.0
62.91015625,-12.20703125,83.49609375,-28.3203125,-40.0390625,103.02734375,0.0
62.9140625,-41.50390625,62.5,-34.1796875,-48.33984375,51.26953125,0.0
62.91796875,-5.859375,57.12890625,-35.15625,-35.64453125,31.73828125,0.0
62.921875,14.16015625,47.36328125,-26.3671875,-18.5546875,68.84765625,0.0
62.92578125,0.0,28.3203125,-21.484375,-21.484375,77.1484375,0.0
62.9296875,-19.04296875,16.6015625,-20.99609375,-29.78515625,60.05859375,0.0
62.93359375,-54.19921875,-5.37109375,-27.83203125,-35.15625,49.8046875,0.0
62.9375,-66.89453125,-32.2265625,-33.203125,-39.0625,-5.37109375,0.0
62.94140625,-31.73828125,-33.203125,-31.25,-28.3203125,-25.390625,0.0
62.9453125,-21.484375,-33.203125,-20.5078125,-15.625,23.92578125,0.0
62.94921875,-47.36328125,-44.921875,-21.97265625,-24.90234375,47.8515625,0.0
62.953125,-56.15234375,-57.12890625,-29.78515625,-34.1796875,56.640625,0.0
62.95703125,-74.21875,-77.63671875,-33.203125,-38.0859375,83.49609375,0.0
62.9609375,-59.08203125,-75.1953125,-30.76171875,-22.4609375,111.328125,0.0
62.96484375,-32.2265625,-76.66015625,-28.80859375,-1.953125,55.6640625,0.0
62.96875,-37.59765625,-82.03125,-36.1328125,-12.6953125,54.6875,0.0
62.97265625,-57.6171875,-81.54296875,-40.52734375,-41.015625,-1.953125,0.0
62.9765625,-52.734375,-96.6796875,-38.0859375,-49.8046875,-42.96875,0.0
62.98046875,-28.80859375,-99.609375,-37.109375,-41.50390625,-29.78515625,0.0
62.984375,-20.5078125,-102.5390625,-37.59765625,-38.0859375,-55.6640625,0.0
62.98828125,-29.296875,-116.2109375,-36.62109375,-44.43359375,-30.2734375,0.0
62.9921875,-52.734375,-122.0703125,-34.1796875,-51.26953125,0.0,0.0
62.99609375,-70.3125,-141.11328125,-35.64453125,-47.8515625,40.0390625,0.0
63.0,-45.8984375,-150.390625,-27.83203125,-24.90234375,2.44140625,0.0
63.00390625,-26.3671875,-141.6015625,-19.04296875,-3.90625,-92.28515625,0.0
63.0078125,-27.83203125,-134.765625,-23.92578125,-8.7890625,-78.125,0.0
63.01171875,-62.01171875,-166.50390625,-29.296875,-32.71484375,-0.9765625,0.0
63.015625,-78.125,-186.5234375,-29.296875,-41.9921875,83.0078125,0.0
63.01953125,-42.96875,-167.48046875,-26.85546875,-20.5078125,77.63671875,0.0
63.0234375,-19.04296875,-149.90234375,-27.34375,-7.32421875,-74.21875,0.0
63.02734375,-28.80859375,-151.3671875,-32.71484375,-15.625,-187.5,0.0
63.03125,-45.41015625,-174.31640625,-39.0625,-32.2265625,-179.19921875,0.0
63.03515625,-59.08203125,-180.17578125,-40.0390625,-38.57421875,-125.0,0.0
63.0390625,-49.8046875,-175.29296875,-35.64453125,-32.2265625,-38.0859375,0.0
63.04296875,-20.01953125,-164.0625,-34.66796875,-21.97265625,-38.0859375,0.0
63.046875,-21.484375,-169.921875,-36.62109375,-26.3671875,-103.02734375,0.0
63.05078125,-58.59375,-193.359375,-41.50390625,-40.0390625,-127.9296875,0.0
63.0546875,-58.10546875,-194.82421875,-40.52734375,-46.38671875,-61.03515625,0.0
63.05859375,-32.2265625,-187.98828125,-39.0625,-42.48046875,-11.23046875,0.0
63.0625,-27.83203125,-190.91796875,-35.15625,-28.3203125,-30.2734375,0.0
63.06640625,-27.83203125,-206.0546875,-33.203125,-22.4609375,-85.9375,0.0
63.0703125,-41.9921875,-207.03125,-34.66796875,-36.1328125,-81.54296875,0.0
63.07421875,-69.3359375,-208.984375,-31.25,-46.875,-23.4375,0.0
63.078125,-62.5,-214.84375,-22.94921875,-40.0390625,20.01953125,0.0
63.08203125,-33.69140625,-205.56640625,-20.5078125,-26.85546875,-30.76171875,0.0
63.0859375,-42.96875,-203.125,-16.11328125,-23.92578125,-83.984375,0.0
63.08984375,-57.6171875,-213.8671875,-18.06640625,-39.0625,-56.15234375,0.0
63.09375,-64.94140625,-222.65625,-26.3671875,-51.7578125,-52.24609375,0.0
63.09765625,-59.08203125,-214.84375,-23.4375,-54.6875,-111.328125,0.0
63.1015625,-43.45703125,-210.44921875,-21.97265625,-37.59765625,-52.24609375,0.0
63.10546875,-34.1796875,-211.42578125,-20.99609375,-26.3671875,107.91015625,0.0
63.109375,-52.734375,-216.30859375,-19.53125,-40.0390625,67.87109375,0.0
63.11328125,-82.03125,-220.21484375,-27.83203125,-50.78125,-44.43359375,0.0
63.1171875,-59.5703125,-196.77734375,-32.71484375,-46.875,-7.8125,0.0
63.12109375,-41.50390625,-187.98828125,-24.90234375,-39.0625,-8.30078125,0.0
63.125,-46.875,-205.56640625,-20.01953125,-31.73828125,-78.61328125,0.0
63.12890625,-45.8984375,-207.03125,-19.53125,-31.73828125,-87.890625,0.0
63.1328125,-66.89453125,-205.56640625,-24.90234375,-44.43359375,-62.5,0.0
63.13671875,-88.8671875,-208.0078125,-31.25,-38.57421875,-9.765625,0.0
63.140625,-81.0546875,-199.70703125,-23.92578125,-23.4375,-20.99609375,0.0
63.14453125,-64.453125,-184.08203125,-17.578125,-20.5078125,-25.87890625,0.0
63.1484375,-71.77734375,-190.4296875,-21.97265625,-30.2734375,-63.96484375,0.0
63.15234375,-114.2578125,-198.73046875,-25.87890625,-44.921875,-135.7421875,0.0
63.15625,-156.73828125,-196.77734375,-23.92578125,-45.41015625,-150.390625,0.0
63.16015625,-149.4140625,-194.3359375,-23.92578125,-43.9453125,-94.7265625,0.0
63.1640625,-134.765625,-187.01171875,-18.5546875,-25.390625,-51.7578125,0.0
63.16796875,-165.52734375,-182.6171875,-18.5546875,-21.484375,-70.3125,0.0
63.171875,-195.3125,-203.125,-28.80859375,-43.9453125,-53.22265625,0.0
63.17578125,-205.078125,-213.8671875,-32.71484375,-58.59375,17.08984375,0.0
63.1796875,-171.875,-194.82421875,-26.85546875,-53.22265625,45.8984375,0.0
63.18359375,-139.6484375,-193.84765625,-19.53125,-34.1796875,29.296875,0.0
63.1875,-158.69140625,-198.2421875,-24.4140625,-30.2734375,-12.6953125,0.0
63.19140625,-179.19921875,-183.10546875,-23.92578125,-41.015625,-57.6171875,0.0
63.1953125,-186.03515625,-185.546875,-29.78515625,-46.38671875,-91.796875,0.0
63.19921875,-152.34375,-194.3359375,-32.2265625,-34.66796875,-58.10546875,0.0
63.203125,-111.81640625,-190.4296875,-30.76171875,-32.71484375,-30.2734375,0.0
63.20703125,-114.74609375,-178.7109375,-39.55078125,-42.96875,-12.20703125,0.0
63.2109375,-100.09765625,-162.59765625,-36.62109375,-53.7109375,-32.71484375,0.0
63.21484375,-64.453125,-155.2734375,-30.2734375,-69.82421875,-73.2421875,0.0
63.21875,-56.15234375,-152.34375,-33.203125,-60.546875,-48.828125,0.0
63.22265625,-38.0859375,-138.671875,-35.64453125,-35.64453125,-32.71484375,0.0
63.2265625,-10.7421875,-128.90625,-24.90234375,-28.3203125,-65.91796875,0.0
63.23046875,6.8359375,-127.44140625,-25.87890625,-40.0390625,-129.8828125,0.0
63.234375,14.6484375,-120.60546875,-35.15625,-44.921875,-113.76953125,0.0
63.23828125,0.0,-108.88671875,-33.203125,-36.62109375,-51.26953125,0.0
63.2421875,14.6484375,-107.91015625,-28.3203125,-32.71484375,-71.77734375,0.0
63.24609375,41.9921875,-102.05078125,-28.80859375,-32.71484375,-113.28125,0.0
63.25,46.875,-92.7734375,-34.1796875,-41.50390625,-32.71484375,0.0
63.25390625,40.0390625,-101.07421875,-41.9921875,-60.05859375,56.640625,0.0
63.2578125,42.48046875,-88.8671875,-34.1796875,-37.109375,-25.390625,0.0
63.26171875,43.9453125,-74.21875,-22.94921875,-2.9296875,-17.578125,0.0
63.265625,32.2265625,-86.42578125,-27.34375,-14.16015625,54.6875,0.0
63.26953125,21.484375,-87.890625,-38.57421875,-44.43359375,45.41015625,0.0
63.2734375,14.6484375,-83.0078125,-39.0625,-47.8515625,23.92578125,0.0
63.27734375,24.4140625,-79.58984375,-32.2265625,-35.15625,-51.7578125,0.0
63.28125,37.59765625,-74.21875,-35.15625,-30.2734375,-48.828125,0.0
63.28515625,45.41015625,-62.01171875,-35.15625,-21.484375,-4.39453125,0.0
63.2890625,42.48046875,-55.6640625,-38.0859375,-26.85546875,-8.30078125,0.0
63.29296875,19.04296875,-60.05859375,-44.43359375,-44.921875,-13.671875,0.0
63.296875,11.23046875,-67.87109375,-39.0625,-57.6171875,-22.4609375,0.0
63.30078125,41.50390625,-67.87109375,-35.15625,-43.9453125,-34.66796875,0.0
63.3046875,60.546875,-59.08203125,-33.203125,-24.90234375,-107.91015625,0.0
63.30859375,26.85546875,-66.40625,-33.69140625,-34.66796875,-132.8125,0.0
63.3125,20.99609375,-64.94140625,-40.52734375,-53.22265625,-78.125,0.0
63.31640625,26.85546875,-59.08203125,-36.1328125,-48.33984375,-53.7109375,0.0
