timestamp,TP9,AF7,AF8,TP10,AUX,Marker,
42.00390625,-37.109375,-46.38671875,-18.06640625,-30.2734375,-16.11328125,0.0
42.0078125,-28.3203125,-40.0390625,-18.5546875,-24.4140625,-31.73828125,0.0
42.01171875,-35.64453125,-23.92578125,-23.92578125,-22.4609375,-101.5625,0.0
42.015625,-36.62109375,-30.2734375,-24.90234375,-20.01953125,-84.9609375,0.0
42.01953125,-51.26953125,-57.12890625,-24.4140625,-24.90234375,-83.984375,0.0
42.0234375,-52.24609375,-41.015625,-34.66796875,-32.71484375,-116.2109375,0.0
42.02734375,-28.3203125,-14.16015625,-36.1328125,-14.16015625,-120.1171875,0.0
42.03125,-9.765625,-17.08984375,-33.203125,-5.859375,-77.1484375,0.0
42.03515625,-17.578125,-28.80859375,-32.71484375,-21.484375,-16.11328125,0.0
42.0390625,-32.71484375,-20.99609375,-24.90234375,-26.3671875,-54.6875,0.0
42.04296875,-38.57421875,-25.390625,-31.73828125,-29.296875,-71.2890625,0.0
42.046875,-22.4609375,-36.1328125,-35.64453125,-20.01953125,-87.40234375,0.0
42.05078125,-17.08984375,-29.296875,-23.92578125,-10.25390625,-59.08203125,0.0
42.0546875,-45.41015625,-32.2265625,-22.4609375,-20.99609375,-12.6953125,0.0
42.05859375,-56.640625,-41.50390625,-25.87890625,-21.97265625,-10.25390625,0.0
42.0625,-47.36328125,-41.9921875,-23.92578125,-8.7890625,-0.9765625,0.0
42.06640625,-31.25,-32.2265625,-22.94921875,-2.9296875,-134.765625,0.0
42.0703125,-36.62109375,-10.7421875,-22.4609375,-10.7421875,-166.015625,0.0
42.07421875,-39.0625,-12.20703125,-23.92578125,-24.4140625,-55.6640625,0.0
42.078125,-50.78125,-37.59765625,-29.296875,-41.9921875,-52.734375,0.0
42.08203125,-76.66015625,-30.2734375,-28.3203125,-42.96875,8.7890625,0.0
42.0859375,-61.03515625,-28.3203125,-28.3203125,-21.97265625,29.296875,0.0
42.08984375,-25.390625,-39.0625,-23.92578125,-24.90234375,15.13671875,0.0
42.09375,-26.85546875,-42.96875,-26.3671875,-28.80859375,52.24609375,0.0
42.09765625,-51.7578125,-52.734375,-38.57421875,-20.01953125,24.90234375,0.0
42.1015625,-55.17578125,-61.03515625,-29.296875,-26.85546875,-39.0625,0.0
42.10546875,-55.6640625,-59.08203125,-23.4375,-20.5078125,-46.875,0.0
42.109375,-40.0390625,-43.9453125,-26.85546875,-10.7421875,-17.578125,0.0
42.11328125,-22.94921875,-44.43359375,-28.80859375,-24.4140625,33.69140625,0.0
42.1171875,-32.2265625,-46.875,-29.296875,-30.2734375,11.71875,0.0
42.12109375,-35.15625,-39.0625,-33.69140625,-30.76171875,17.578125,0.0
42.125,-23.4375,-47.8515625,-20.99609375,-24.90234375,-13.671875,0.0
42.12890625,-22.94921875,-42.48046875,-14.16015625,-17.578125,-10.25390625,0.0
42.1328125,-14.16015625,-32.2265625,-19.53125,-23.92578125,5.37109375,0.0
42.13671875,1.953125,-32.71484375,-10.7421875,-25.390625,6.8359375,0.0
42.140625,-20.5078125,-45.41015625,-11.71875,-24.90234375,-20.99609375,0.0
42.14453125,-36.62109375,-62.01171875,-15.625,-20.01953125,-89.35546875,0.0
42.1484375,-5.37109375,-63.4765625,-12.20703125,-17.08984375,-69.3359375,0.0
42.15234375,-5.37109375,-47.8515625,-18.5546875,-30.2734375,-48.33984375,0.0
42.15625,-23.4375,-38.0859375,-26.85546875,-33.69140625,-57.12890625,0.0
42.16015625,-28.80859375,-43.45703125,-28.3203125,-31.25,-45.8984375,0.0
42.1640625,-20.5078125,-35.64453125,-27.83203125,-33.69140625,-115.234375,0.0
42.16796875,2.44140625,-25.390625,-24.90234375,-30.2734375,-122.0703125,0.0
42.171875,-8.30078125,-41.9921875,-27.83203125,-25.87890625,-52.24609375,0.0
42.17578125,-21.97265625,-48.33984375,-29.78515625,-24.90234375,-42.48046875,0.0
42.1796875,-39.0625,-50.78125,-30.2734375,-26.3671875,-34.1796875,0.0
42.18359375,-42.48046875,-58.10546875,-30.2734375,-29.296875,-49.31640625,0.0
42.1875,-18.06640625,-42.96875,-23.92578125,-27.83203125,-53.7109375,0.0
42.19140625,2.9296875,-26.3671875,-21.97265625,-28.3203125,-26.85546875,0.0
42.1953125,-3.90625,-38.57421875,-29.296875,-30.2734375,-27.34375,0.0
42.19921875,-28.80859375,-50.29296875,-38.57421875,-30.76171875,-27.34375,0.0
42.203125,-45.8984375,-43.9453125,-40.52734375,-26.3671875,-100.09765625,0.0
42.20703125,-28.3203125,-43.45703125,-36.62109375,-22.4609375,-136.23046875,0.0
42.2109375,-6.34765625,-30.2734375,-34.1796875,-25.390625,-75.68359375,0.0
42.21484375,-36.1328125,-29.78515625,-30.2734375,-28.80859375,16.11328125,0.0
42.21875,-73.2421875,-51.7578125,-37.59765625,-29.296875,4.39453125,0.0
42.22265625,-67.87109375,-41.015625,-36.62109375,-31.25,-68.359375,0.0
42.2265625,-36.1328125,-17.578125,-16.11328125,-20.01953125,-60.546875,0.0
42.23046875,-16.11328125,-9.27734375,-11.23046875,-10.25390625,20.01953125,0.0
42.234375,-17.08984375,-24.90234375,-24.4140625,-18.5546875,40.0390625,0.0
42.23828125,-21.97265625,-41.9921875,-20.5078125,-17.578125,-18.06640625,0.0
42.2421875,-19.53125,-38.0859375,-19.53125,-14.6484375,-47.8515625,0.0
42.24609375,9.27734375,-21.484375,-26.85546875,-17.578125,-55.17578125,0.0
42.25,26.3671875,-8.7890625,-21.97265625,-24.90234375,-66.89453125,0.0
42.25390625,12.20703125,-21.97265625,-27.83203125,-26.85546875,-77.1484375,0.0
42.2578125,-3.41796875,-31.73828125,-29.296875,-22.94921875,-113.28125,0.0
42.26171875,-2.44140625,-21.97265625,-28.3203125,-20.01953125,-74.21875,0.0
42.265625,-16.11328125,-22.4609375,-31.73828125,-22.94921875,-41.015625,0.0
42.26953125,-25.390625,-20.99609375,-37.59765625,-26.3671875,-50.78125,0.0
42.2734375,-9.765625,-40.52734375,-44.43359375,-26.3671875,-94.23828125,0.0
42.27734375,-12.20703125,-41.50390625,-42.48046875,-24.4140625,-13.18359375,0.0
42.28125,-24.4140625,-28.80859375,-44.43359375,-20.99609375,28.80859375,0.0
42.28515625,-14.6484375,-44.921875,-42.96875,-22.4609375,-73.73046875,0.0
42.2890625,9.765625,-39.55078125,-41.50390625,-16.11328125,-81.54296875,0.0
42.29296875,28.3203125,-17.08984375,-38.57421875,-11.71875,-22.4609375,0.0
42.296875,-3.90625,-18.06640625,-36.62109375,-14.6484375,-3.90625,0.0
42.30078125,-30.2734375,-23.92578125,-43.9453125,-22.94921875,2.9296875,0.0
42.3046875,-3.41796875,-15.625,-42.48046875,-20.99609375,0.9765625,0.0
42.30859375,19.53125,-2.44140625,-47.8515625,-10.25390625,-22.4609375,0.0
42.3125,7.8125,-19.53125,-58.10546875,-11.23046875,31.25,0.0
42.31640625,-17.578125,-49.8046875,-59.08203125,-24.90234375,-25.87890625,0.0
42.3203125,-31.73828125,-42.96875,-60.05859375,-22.94921875,-93.75,0.0
42.32421875,-35.15625,-27.34375,-52.734375,-10.7421875,-83.0078125,0.0
42.328125,-26.85546875,-24.4140625,-50.78125,-11.71875,-66.40625,0.0
42.33203125,-15.625,-19.04296875,-47.36328125,-11.71875,-76.171875,0.0
42.3359375,-25.390625,-21.484375,-45.8984375,-20.99609375,-73.2421875,0.0
42.33984375,-32.2265625,-34.1796875,-45.41015625,-30.76171875,-65.4296875,0.0
42.34375,-43.45703125,-41.015625,-46.875,-19.53125,-62.01171875,0.0
42.34765625,-28.3203125,-24.90234375,-44.43359375,-6.34765625,-53.22265625,0.0
42.3515625,-7.8125,-20.99609375,-41.50390625,-15.625,-92.7734375,0.0
42.35546875,-6.34765625,-52.734375,-49.8046875,-29.296875,-106.93359375,0.0
42.359375,-24.4140625,-45.8984375,-49.8046875,-35.64453125,-100.09765625,0.0
42.36328125,-38.57421875,-28.3203125,-43.45703125,-34.1796875,-148.4375,0.0
42.3671875,-29.78515625,-38.57421875,-36.1328125,-27.83203125,-109.375,0.0
42.37109375,-7.32421875,-20.99609375,-37.109375,-26.3671875,47.36328125,0.0
42.375,3.90625,-10.25390625,-43.9453125,-24.4140625,88.8671875,0.0
42.37890625,-15.13671875,-37.109375,-44.43359375,-26.3671875,-17.578125,0.0
42.3828125,-8.30078125,-51.26953125,-35.64453125,-26.3671875,-35.64453125,0.0
42.38671875,3.41796875,-23.4375,-24.90234375,-17.08984375,-50.78125,0.0
42.390625,2.9296875,-5.859375,-21.97265625,-2.9296875,-47.36328125,0.0
42.39453125,11.71875,-12.6953125,-23.4375,0.48828125,24.4140625,0.0
42.3984375,-18.06640625,-20.01953125,-26.85546875,-1.953125,42.96875,0.0
42.40234375,-61.03515625,-28.80859375,-23.4375,-10.7421875,63.4765625,0.0
42.40625,-46.38671875,-46.875,-27.83203125,-13.18359375,-23.4375,0.0
42.41015625,-12.6953125,-42.96875,-31.25,0.9765625,-63.96484375,0.0
42.4140625,-5.37109375,-23.92578125,-23.92578125,4.39453125,1.953125,0.0
42.41796875,-30.2734375,-31.25,-28.80859375,1.953125,-100.5859375,0.0
42.421875,-41.9921875,-39.0625,-23.4375,-0.48828125,-141.11328125,0.0
42.42578125,-33.203125,-31.25,-7.32421875,-10.25390625,-87.40234375,0.0
42.4296875,-18.5546875,-32.2265625,-10.7421875,-16.11328125,-49.31640625,0.0
42.43359375,-5.859375,-32.2265625,-17.08984375,-20.99609375,-32.2265625,0.0
42.4375,-33.203125,-37.109375,-24.4140625,-38.57421875,-50.29296875,0.0
42.44140625,-56.640625,-36.62109375,-34.1796875,-44.43359375,-32.2265625,0.0
42.4453125,-51.7578125,-29.78515625,-32.2265625,-40.52734375,-10.25390625,0.0
42.44921875,-26.3671875,-24.4140625,-36.1328125,-37.109375,-54.6875,0.0
42.453125,-28.80859375,-20.5078125,-49.31640625,-28.3203125,-50.78125,0.0
42.45703125,-59.5703125,-35.15625,-48.33984375,-32.2265625,-13.18359375,0.0
42.4609375,-61.03515625,-47.36328125,-41.015625,-35.15625,-50.29296875,0.0
42.46484375,-31.25,-30.76171875,-43.45703125,-30.76171875,-15.13671875,0.0
42.46875,-28.80859375,-16.11328125,-41.50390625,-22.94921875,-10.7421875,0.0
42.47265625,-36.1328125,-18.06640625,-42.96875,-15.625,-34.1796875,0.0
42.4765625,-48.828125,-35.64453125,-44.921875,-30.2734375,9.27734375,0.0
42.48046875,-40.0390625,-45.41015625,-48.828125,-17.08984375,68.84765625,0.0
42.484375,-24.4140625,-48.828125,-52.24609375,-9.27734375,49.31640625,0.0
42.48828125,-32.2265625,-40.0390625,-51.7578125,-11.23046875,2.44140625,0.0
42.4921875,-21.484375,-14.6484375,-49.31640625,-8.30078125,28.3203125,0.0
42.49609375,-36.62109375,-27.83203125,-52.24609375,-5.859375,-6.8359375,0.0
42.5,-47.8515625,-41.9921875,-52.734375,4.39453125,2.44140625,0.0
42.50390625,-52.24609375,-23.4375,-57.6171875,8.30078125,59.5703125,0.0
42.5078125,-52.24609375,-14.16015625,-62.98828125,9.27734375,58.10546875,0.0
42.51171875,-38.0859375,-14.16015625,-52.24609375,12.20703125,82.03125,0.0
42.515625,-44.43359375,-26.85546875,-55.17578125,4.39453125,104.4921875,0.0
42.51953125,-56.640625,-45.41015625,-57.12890625,-1.953125,31.73828125,0.0
42.5234375,-35.15625,-38.57421875,-49.31640625,0.0,-12.20703125,0.0
42.52734375,-27.34375,-15.13671875,-49.31640625,1.46484375,-79.1015625,0.0
42.53125,-44.43359375,-19.53125,-54.19921875,-7.8125,-94.7265625,0.0
42.53515625,-45.41015625,-33.203125,-58.10546875,-21.97265625,-34.1796875,0.0
42.5390625,-58.59375,-32.2265625,-52.734375,-25.87890625,-40.52734375,0.0
42.54296875,-61.5234375,-34.1796875,-42.48046875,-26.3671875,-57.6171875,0.0
42.546875,-36.1328125,-27.83203125,-37.109375,-22.4609375,-20.99609375,0.0
42.55078125,-26.3671875,-13.671875,-36.1328125,-23.92578125,-16.6015625,0.0
42.5546875,-47.36328125,-22.94921875,-40.52734375,-33.203125,-44.43359375,0.0
42.55859375,-50.29296875,-24.90234375,-37.109375,-41.015625,-80.56640625,0.0
42.5625,-57.6171875,-14.6484375,-36.1328125,-40.52734375,-112.79296875,0.0
42.56640625,-68.84765625,-19.04296875,-39.0625,-39.0625,-47.8515625,0.0
42.5703125,-41.015625,-20.99609375,-40.52734375,-37.59765625,36.62109375,0.0
42.57421875,-38.57421875,-18.06640625,-41.50390625,-39.0625,28.3203125,0.0
42.578125,-61.03515625,-28.80859375,-43.9453125,-37.59765625,-14.16015625,0.0
42.58203125,-61.5234375,-40.0390625,-38.0859375,-37.109375,-13.18359375,0.0
42.5859375,-55.6640625,-21.484375,-25.390625,-31.25,0.0,0.0
42.58984375,-55.6640625,-14.16015625,-28.3203125,-14.16015625,-28.3203125,0.0
42.59375,-44.43359375,-25.87890625,-35.64453125,-9.27734375,-13.671875,0.0
42.59765625,-42.48046875,-35.64453125,-40.52734375,-13.671875,9.27734375,0.0
42.6015625,-43.45703125,-33.203125,-38.57421875,-11.23046875,13.671875,0.0
42.60546875,-16.6015625,-38.0859375,-37.59765625,-7.8125,-14.6484375,0.0
42.609375,-7.8125,-45.8984375,-37.59765625,-5.859375,-71.77734375,0.0
42.61328125,-26.3671875,-35.15625,-28.80859375,-7.8125,-33.69140625,0.0
42.6171875,-33.69140625,-49.31640625,-24.4140625,0.48828125,-31.25,0.0
42.62109375,-27.34375,-34.66796875,-21.97265625,11.71875,-27.83203125,0.0
42.625,-12.20703125,-6.34765625,-23.92578125,3.90625,-45.41015625,0.0
42.62890625,3.90625,-8.7890625,-17.08984375,9.27734375,-52.24609375,0.0
42.6328125,13.18359375,-8.30078125,-20.01953125,16.11328125,19.04296875,0.0
42.63671875,-6.34765625,-13.671875,-31.25,8.30078125,8.30078125,0.0
42.640625,-18.06640625,-30.76171875,-31.73828125,6.8359375,-23.4375,0.0
42.64453125,-13.18359375,-51.26953125,-36.1328125,11.23046875,-2.44140625,0.0
42.6484375,-0.9765625,-40.52734375,-29.78515625,10.25390625,-52.734375,0.0
42.65234375,9.27734375,-8.7890625,-20.01953125,0.48828125,4.8828125,0.0
42.65625,-4.8828125,-10.25390625,-17.08984375,-10.7421875,37.109375,0.0
42.66015625,-23.92578125,-27.83203125,-21.97265625,-15.625,-59.08203125,0.0
42.6640625,-16.6015625,-35.15625,-27.34375,-14.6484375,-81.54296875,0.0
42.66796875,10.25390625,-20.01953125,-26.3671875,-4.8828125,-26.3671875,0.0
42.671875,10.7421875,-7.8125,-24.4140625,-4.39453125,31.25,0.0
42.67578125,-3.90625,-24.90234375,-30.2734375,-16.11328125,-32.2265625,0.0
42.6796875,-29.296875,-43.45703125,-35.15625,-29.78515625,-104.98046875,0.0
42.68359375,-41.50390625,-38.57421875,-32.2265625,-28.80859375,-104.4921875,0.0
42.6875,-18.06640625,-20.01953125,-24.4140625,-18.5546875,-102.5390625,0.0
42.69140625,0.9765625,4.8828125,-20.5078125,-8.7890625,-24.4140625,0.0
42.6953125,-5.37109375,-9.27734375,-19.04296875,-10.25390625,-49.31640625,0.0
42.69921875,-23.92578125,-34.66796875,-21.484375,-17.578125,-105.95703125,0.0
42.703125,-39.0625,-26.3671875,-25.87890625,-13.18359375,-110.83984375,0.0
42.70703125,-31.73828125,-28.3203125,-17.08984375,1.46484375,-102.05078125,0.0
42.7109375,-10.7421875,-40.0390625,-14.6484375,8.30078125,-92.7734375,0.0
42.71484375,-11.23046875,-18.06640625,-17.08984375,9.765625,-58.59375,0.0
42.71875,-14.6484375,-10.7421875,-15.13671875,3.41796875,-36.1328125,0.0
42.72265625,10.25390625,-30.76171875,-19.53125,4.39453125,-35.64453125,0.0
42.7265625,6.8359375,-12.20703125,-17.08984375,11.71875,-36.1328125,0.0
42.73046875,-3.41796875,8.30078125,-16.11328125,9.27734375,-9.765625,0.0
42.734375,5.859375,-7.8125,-21.484375,1.953125,-32.2265625,0.0
42.73828125,-6.8359375,-12.6953125,-21.97265625,-4.39453125,-9.27734375,0.0
42.7421875,-22.94921875,-23.92578125,-32.2265625,-3.90625,28.80859375,0.0
42.74609375,-29.296875,-30.2734375,-35.64453125,-2.9296875,-86.42578125,0.0
42.75,-18.5546875,-12.6953125,-23.92578125,0.0,-94.23828125,0.0
42.75390625,-14.6484375,-18.06640625,-18.5546875,3.41796875,9.765625,0.0
42.7578125,-43.9453125,-41.015625,-27.34375,-12.6953125,-24.4140625,0.0
42.76171875,-49.8046875,-26.3671875,-35.15625,-22.4609375,22.4609375,0.0
42.765625,-32.2265625,-20.99609375,-29.296875,-9.27734375,59.5703125,0.0
42.76953125,-21.97265625,-44.43359375,-29.296875,-17.578125,1.953125,0.0
42.7734375,-27.83203125,-42.96875,-31.73828125,-35.64453125,34.1796875,0.0
42.77734375,-34.66796875,-38.57421875,-36.62109375,-41.50390625,54.6875,0.0
42.78125,-57.6171875,-53.7109375,-44.43359375,-40.52734375,16.6015625,0.0
42.78515625,-70.3125,-50.78125,-40.0390625,-35.64453125,-35.15625,0.0
42.7890625,-44.921875,-34.66796875,-29.78515625,-29.296875,-57.6171875,0.0
42.79296875,-38.57421875,-36.62109375,-35.64453125,-37.109375,16.6015625,0.0
42.796875,-35.64453125,-55.6640625,-36.62109375,-29.296875,63.96484375,0.0
42.80078125,-45.8984375,-69.3359375,-34.1796875,-13.671875,-55.6640625,0.0
42.8046875,-47.8515625,-57.12890625,-33.203125,-16.11328125,-115.234375,0.0
42.80859375,-25.390625,-42.96875,-31.25,-16.6015625,-60.546875,0.0
42.8125,-27.34375,-42.96875,-34.66796875,-11.71875,-41.50390625,0.0
42.81640625,-32.71484375,-42.48046875,-34.1796875,-8.30078125,-52.734375,0.0
42.8203125,-35.64453125,-42.96875,-26.3671875,-9.765625,-79.1015625,0.0
42.82421875,-37.109375,-43.45703125,-20.5078125,-19.53125,-102.05078125,0.0
42.828125,-6.34765625,-39.55078125,-22.4609375,-15.13671875,-47.36328125,0.0
42.83203125,16.11328125,-37.109375,-24.4140625,2.9296875,-52.734375,0.0
42.8359375,-14.16015625,-36.1328125,-24.90234375,-0.9765625,-132.8125,0.0
42.83984375,-36.1328125,-34.1796875,-26.3671875,-16.6015625,-155.76171875,0.0
42.84375,-31.25,-37.59765625,-21.97265625,-18.5546875,-148.92578125,0.0
42.84765625,-16.11328125,-38.0859375,-17.08984375,-16.6015625,-170.8984375,0.0
42.8515625,-10.25390625,-29.296875,-21.484375,-10.25390625,-83.0078125,0.0
42.85546875,-17.578125,-32.2265625,-23.92578125,-5.37109375,0.48828125,0.0
42.859375,-14.16015625,-32.71484375,-19.04296875,-4.39453125,-24.4140625,0.0
42.86328125,-30.2734375,-34.1796875,-18.06640625,-12.20703125,-54.19921875,0.0
42.8671875,-37.59765625,-33.203125,-20.5078125,-16.11328125,-76.171875,0.0
42.87109375,-9.765625,-30.76171875,-23.4375,-22.4609375,-48.828125,0.0
42.875,-8.7890625,-39.0625,-25.87890625,-19.04296875,33.203125,0.0
42.87890625,-39.0625,-41.50390625,-33.203125,-34.1796875,53.22265625,0.0
42.8828125,-46.38671875,-40.0390625,-34.66796875,-47.8515625,-75.1953125,0.0
42.88671875,-22.4609375,-27.34375,-26.3671875,-30.2734375,-96.19140625,0.0
42.890625,2.9296875,-15.13671875,-18.06640625,-41.015625,-68.84765625,0.0
42.89453125,-16.11328125,-19.53125,-21.484375,-45.41015625,-36.1328125,0.0
42.8984375,-48.33984375,-29.78515625,-22.94921875,-42.96875,5.859375,0.0
42.90234375,-44.43359375,-28.80859375,-14.16015625,-49.31640625,-1.953125,0.0
42.90625,-24.4140625,-32.2265625,-13.671875,-45.41015625,-17.578125,0.0
42.91015625,-8.7890625,-39.55078125,-8.7890625,-26.85546875,-48.828125,0.0
42.9140625,-2.9296875,-35.15625,-11.71875,-31.25,-21.484375,0.0
42.91796875,-29.296875,-31.25,-19.53125,-41.50390625,-69.3359375,0.0
42.921875,-48.33984375,-30.76171875,-22.4609375,-26.3671875,-50.29296875,0.0
42.92578125,-36.62109375,-20.5078125,-24.90234375,-19.53125,73.2421875,0.0
42.9296875,-24.90234375,-6.34765625,-17.08984375,-27.83203125,43.9453125,0.0
42.93359375,-18.06640625,-6.8359375,-15.625,-30.2734375,9.765625,0.0
42.9375,-24.90234375,-20.01953125,-25.87890625,-22.4609375,-15.13671875,0.0
42.94140625,-32.71484375,-29.78515625,-29.296875,-21.484375,-36.1328125,0.0
42.9453125,-26.3671875,-26.3671875,-25.87890625,-8.30078125,67.87109375,0.0
42.94921875,-6.34765625,-22.94921875,-26.85546875,1.46484375,86.42578125,0.0
42.953125,-5.37109375,-45.41015625,-31.25,-5.37109375,8.30078125,0.0
42.95703125,-42.48046875,-58.10546875,-31.73828125,-0.48828125,-31.25,0.0
42.9609375,-57.12890625,-35.64453125,-35.64453125,-9.27734375,-32.71484375,0.0
42.96484375,-37.109375,-13.671875,-34.1796875,-17.578125,-79.58984375,0.0
42.96875,-19.53125,-15.625,-31.73828125,-5.37109375,-133.30078125,0.0
42.97265625,-29.78515625,-17.08984375,-23.4375,-5.859375,-74.70703125,0.0
42.9765625,-49.8046875,-16.11328125,-19.04296875,-6.8359375,-44.43359375,0.0
42.98046875,-52.734375,-14.16015625,-24.90234375,-7.32421875,-72.75390625,0.0
42.984375,-42.96875,-24.90234375,-25.87890625,-11.71875,-92.7734375,0.0
42.98828125,-37.59765625,-24.90234375,-31.73828125,-18.06640625,-64.94140625,0.0
42.9921875,-29.78515625,-33.203125,-35.15625,-14.6484375,-42.48046875,0.0
42.99609375,-38.0859375,-34.1796875,-31.73828125,-7.8125,-16.11328125,0.0
43.0,-58.10546875,-22.94921875,-35.64453125,-22.4609375,-42.48046875,0.0
43.00390625,-44.921875,-23.92578125,-38.0859375,-33.203125,-132.32421875,0.0
43.0078125,-20.99609375,-17.578125,-31.25,-33.203125,-194.82421875,0.0
43.01171875,-0.48828125,-17.578125,-24.4140625,-26.85546875,-99.12109375,0.0
43.015625,-1.46484375,-38.0859375,-24.90234375,-16.6015625,5.859375,0.0
43.01953125,-38.0859375,-50.29296875,-23.4375,-24.4140625,-15.13671875,0.0
43.0234375,-47.36328125,-39.0625,-23.92578125,-21.484375,-51.7578125,0.0
43.02734375,-17.08984375,-17.578125,-21.97265625,-16.11328125,61.5234375,0.0
43.03125,-7.32421875,-20.5078125,-14.16015625,-30.2734375,111.81640625,0.0
43.03515625,-17.578125,-42.48046875,-14.16015625,-27.34375,86.9140625,0.0
43.0390625,-32.2265625,-68.84765625,-17.578125,-22.94921875,104.4921875,0.0
43.04296875,-28.80859375,-51.26953125,-21.484375,-27.83203125,8.30078125,0.0
43.046875,-18.5546875,-32.2265625,-22.94921875,-31.25,-81.54296875,0.0
43.05078125,-11.71875,-38.0859375,-15.625,-30.76171875,-114.74609375,0.0
43.0546875,-9.765625,-19.04296875,-15.625,-27.34375,-120.60546875,0.0
43.05859375,-12.6953125,-23.4375,-12.6953125,-19.53125,-128.41796875,0.0
43.0625,-18.5546875,-43.45703125,-5.859375,-6.8359375,-75.1953125,0.0
43.06640625,-15.625,-23.4375,-1.46484375,0.9765625,22.4609375,0.0
43.0703125,14.16015625,-11.71875,-3.90625,5.859375,19.53125,0.0
43.07421875,21.97265625,-26.3671875,-10.25390625,-0.48828125,-6.34765625,0.0
43.078125,4.39453125,-46.875,-9.765625,-5.859375,5.37109375,0.0
43.08203125,-15.625,-46.875,-8.30078125,1.953125,29.78515625,0.0
43.0859375,-24.4140625,-38.0859375,-4.8828125,-3.90625,-64.94140625,0.0
43.08984375,-6.8359375,-24.4140625,-9.27734375,-1.953125,-49.31640625,0.0
43.09375,-7.32421875,-21.484375,-15.625,5.37109375,83.0078125,0.0
43.09765625,-26.3671875,-44.921875,-13.671875,-3.90625,17.578125,0.0
43.1015625,-31.25,-36.1328125,-13.671875,-3.41796875,-56.640625,0.0
43.10546875,-31.73828125,-29.78515625,-6.34765625,6.34765625,-7.32421875,0.0
43.109375,-25.87890625,-40.52734375,-7.8125,6.34765625,27.34375,0.0
43.11328125,-33.203125,-53.22265625,-9.27734375,-7.32421875,29.296875,0.0
43.1171875,-39.0625,-63.4765625,-5.859375,-21.97265625,-56.15234375,0.0
43.12109375,-48.828125,-40.52734375,-14.16015625,-21.484375,-67.3828125,0.0
43.125,-48.33984375,-26.3671875,-22.94921875,-25.87890625,0.0,0.0
43.12890625,-35.64453125,-26.3671875,-19.53125,-40.52734375,-25.87890625,0.0
43.1328125,-26.85546875,-36.62109375,-17.578125,-40.0390625,-16.11328125,0.0
43.13671875,-27.83203125,-43.9453125,-20.5078125,-34.66796875,-26.3671875,0.0
43.140625,-56.15234375,-39.55078125,-18.5546875,-26.3671875,-85.9375,0.0
43.14453125,-55.6640625,-44.43359375,-15.13671875,-24.90234375,-86.9140625,0.0
43.1484375,-38.57421875,-38.0859375,-14.6484375,-24.4140625,10.7421875,0.0
43.15234375,-30.76171875,-29.78515625,-16.6015625,-18.06640625,37.59765625,0.0
43.15625,-37.59765625,-37.59765625,-12.20703125,-23.92578125,7.8125,0.0
43.16015625,-34.66796875,-49.31640625,-10.7421875,-10.7421875,-54.19921875,0.0
43.1640625,-28.3203125,-49.31640625,-18.06640625,-6.34765625,-62.5,0.0
43.16796875,-51.7578125,-46.875,-13.671875,-17.578125,-20.5078125,0.0
43.171875,-95.703125,-51.7578125,-4.8828125,-13.18359375,-18.5546875,0.0
43.17578125,-156.25,-43.9453125,-8.30078125,-6.8359375,-95.703125,0.0
43.1796875,-195.80078125,-43.9453125,-15.13671875,-10.7421875,-157.71484375,0.0
43.18359375,-227.05078125,-34.66796875,-17.08984375,-15.13671875,-67.87109375,0.0
43.1875,-227.5390625,-18.5546875,-9.765625,-8.30078125,-33.203125,0.0
43.19140625,-203.125,-23.92578125,-6.8359375,-13.18359375,-63.96484375,0.0
43.1953125,-226.07421875,-19.53125,-15.13671875,-14.6484375,-36.62109375,0.0
43.19921875,-247.0703125,-22.4609375,-23.4375,-8.7890625,-41.50390625,0.0
43.203125,-242.67578125,-43.45703125,-19.04296875,-9.27734375,-6.8359375,0.0
43.20703125,-222.65625,-32.71484375,-16.6015625,-12.20703125,-12.6953125,0.0
43.2109375,-199.21875,-7.32421875,-31.73828125,-16.11328125,-64.94140625,0.0
43.21484375,-197.75390625,-6.8359375,-29.78515625,-21.97265625,1.46484375,0.0
43.21875,-233.3984375,-26.3671875,-26.3671875,-30.2734375,43.45703125,0.0
43.22265625,-250.0,-31.73828125,-31.25,-39.55078125,-26.85546875,0.0
43.2265625,-231.93359375,-14.6484375,-31.25,-39.55078125,-90.33203125,0.0
43.23046875,-197.265625,-2.9296875,-34.66796875,-32.2265625,-89.84375,0.0
43.234375,-177.734375,-6.8359375,-29.78515625,-22.4609375,-7.8125,0.0
43.23828125,-185.05859375,-18.06640625,-27.34375,-27.83203125,39.55078125,0.0
43.2421875,-183.59375,-31.25,-27.34375,-26.85546875,13.671875,0.0
43.24609375,-166.9921875,-40.0390625,-29.78515625,-20.01953125,-2.44140625,0.0
43.25,-145.5078125,-33.203125,-30.76171875,-17.08984375,-34.66796875,0.0
43.25390625,-144.53125,-21.484375,-32.71484375,-13.18359375,-62.98828125,0.0
43.2578125,-156.25,-19.04296875,-29.78515625,-11.71875,-42.96875,0.0
43.26171875,-160.15625,-22.94921875,-25.87890625,-10.7421875,-50.29296875,0.0
43.265625,-150.390625,-22.94921875,-28.80859375,-8.30078125,-68.359375,0.0
43.26953125,-135.7421875,-28.3203125,-26.85546875,-1.46484375,-12.6953125,0.0
43.2734375,-121.09375,-37.109375,-39.55078125,-2.44140625,0.0,0.0
43.27734375,-120.60546875,-22.4609375,-41.9921875,-16.11328125,46.38671875,0.0
43.28125,-120.60546875,-17.08984375,-37.109375,-19.04296875,50.29296875,0.0
43.28515625,-111.328125,-19.53125,-39.55078125,-18.06640625,-27.83203125,0.0
43.2890625,-104.4921875,-9.765625,-41.015625,-23.92578125,49.8046875,0.0
43.29296875,-119.140625,-10.25390625,-40.0390625,-21.97265625,59.5703125,0.0
43.296875,-145.5078125,-31.25,-43.45703125,-15.13671875,-1.953125,0.0
43.30078125,-172.8515625,-44.43359375,-49.31640625,-19.53125,-72.265625,0.0
43.3046875,-147.4609375,-41.9921875,-39.0625,-28.80859375,-115.72265625,0.0
43.30859375,-116.69921875,-37.59765625,-30.76171875,-27.34375,-101.07421875,0.0
43.3125,-139.6484375,-30.2734375,-20.01953125,-27.34375,15.13671875,0.0
43.31640625,-154.78515625,-22.4609375,-10.7421875,-34.1796875,17.08984375,0.0
43.3203125,-143.5546875,-27.83203125,-10.7421875,-32.2265625,-139.6484375,0.0
43.32421875,-144.04296875,-26.85546875,-10.25390625,-25.390625,-125.9765625,0.0
43.328125,-138.18359375,-20.01953125,-13.18359375,-25.87890625,-33.203125,0.0
43.33203125,-121.09375,-26.85546875,-15.13671875,-22.4609375,-77.1484375,0.0
43.3359375,-114.74609375,-26.85546875,-17.578125,-19.04296875,-33.69140625,0.0
43.33984375,-110.3515625,-35.64453125,-23.92578125,-30.76171875,24.90234375,0.0
43.34375,-109.86328125,-51.26953125,-20.5078125,-33.203125,-62.98828125,0.0
43.34765625,-85.44921875,-23.92578125,-18.5546875,-29.78515625,-80.56640625,0.0
43.3515625,6.8359375,0.48828125,-21.97265625,-24.4140625,-43.9453125,0.0
43.35546875,103.02734375,-8.7890625,-20.01953125,-26.85546875,-28.3203125,0.0
43.359375,149.90234375,-17.08984375,-24.4140625,-26.85546875,-34.66796875,0.0
43.36328125,169.921875,-20.99609375,-22.4609375,-25.390625,26.3671875,0.0
43.3671875,180.17578125,-32.71484375,-20.5078125,-30.76171875,-14.16015625,0.0
43.37109375,197.75390625,-23.92578125,-24.90234375,-18.06640625,-48.33984375,0.0
43.375,173.828125,-33.203125,-25.87890625,-9.765625,-8.30078125,0.0
43.37890625,161.1328125,-26.85546875,-29.296875,-3.41796875,22.4609375,0.0
43.3828125,170.8984375,-1.46484375,-28.3203125,1.953125,-11.71875,0.0
43.38671875,184.5703125,-4.39453125,-23.92578125,0.9765625,-135.25390625,0.0
43.390625,190.91796875,-19.53125,-26.3671875,10.25390625,-119.62890625,0.0
43.39453125,174.8046875,-23.4375,-31.25,2.9296875,-38.57421875,0.0
43.3984375,152.34375,-22.94921875,-32.2265625,-3.41796875,-78.61328125,0.0
43.40234375,136.71875,-23.4375,-26.3671875,2.44140625,-54.19921875,0.0
43.40625,136.23046875,-34.66796875,-21.97265625,-1.953125,-36.1328125,0.0
43.41015625,149.90234375,-30.76171875,-20.99609375,-3.90625,-50.29296875,0.0
43.4140625,142.578125,-20.01953125,-19.04296875,-6.34765625,-97.65625,0.0
43.41796875,121.58203125,-21.97265625,-15.625,2.44140625,-129.8828125,0.0
43.421875,114.2578125,-35.64453125,-11.23046875,2.9296875,-59.08203125,0.0
43.42578125,104.4921875,-36.1328125,-11.71875,-9.765625,-85.9375,0.0
43.4296875,108.88671875,-8.7890625,-3.90625,-3.41796875,-144.04296875,0.0
43.43359375,120.1171875,0.48828125,-0.48828125,2.44140625,-46.38671875,0.0
43.4375,90.33203125,-34.1796875,-10.25390625,-12.6953125,87.890625,0.0
43.44140625,44.43359375,-57.12890625,-21.97265625,-23.4375,35.15625,0.0
43.4453125,50.78125,-29.78515625,-28.80859375,-22.4609375,-45.41015625,0.0
43.44921875,86.9140625,-15.13671875,-28.80859375,-10.7421875,-62.01171875,0.0
43.453125,91.30859375,-18.06640625,-34.66796875,-13.671875,-43.9453125,0.0
43.45703125,69.82421875,-14.16015625,-35.15625,-15.625,-10.7421875,0.0
43.4609375,48.828125,-29.78515625,-27.83203125,-12.6953125,-85.44921875,0.0
43.46484375,42.48046875,-23.4375,-21.97265625,-10.25390625,-49.31640625,0.0
43.46875,57.12890625,-12.6953125,-23.4375,-13.18359375,21.97265625,0.0
43.47265625,63.4765625,-15.13671875,-27.83203125,-23.4375,19.04296875,0.0
43.4765625,38.57421875,-18.06640625,-20.99609375,-28.3203125,6.8359375,0.0
43.48046875,26.85546875,-18.5546875,-22.94921875,-32.71484375,37.109375,0.0
43.484375,32.71484375,-12.6953125,-29.296875,-43.9453125,-59.5703125,0.0
43.48828125,46.38671875,-5.37109375,-25.390625,-36.1328125,-75.68359375,0.0
43.4921875,45.41015625,-10.25390625,-21.484375,-22.4609375,11.71875,0.0
43.49609375,36.1328125,-25.87890625,-27.34375,-34.1796875,60.05859375,0.0
43.5,36.1328125,-37.109375,-31.25,-38.0859375,40.0390625,0.0
43.50390625,25.390625,-37.109375,-25.390625,-35.64453125,-49.8046875,0.0
43.5078125,32.2265625,-16.11328125,-20.01953125,-25.87890625,-30.2734375,0.0
43.51171875,46.875,1.46484375,-21.97265625,-19.04296875,7.32421875,0.0
43.515625,41.9921875,-11.71875,-29.296875,-10.7421875,-1.46484375,0.0
43.51953125,22.4609375,-21.484375,-24.4140625,-7.8125,25.390625,0.0
43.5234375,17.578125,-10.25390625,-22.4609375,-8.7890625,72.265625,0.0
43.52734375,36.1328125,-15.13671875,-25.390625,-5.859375,-20.5078125,0.0
43.53125,40.52734375,-30.76171875,-22.4609375,-1.953125,-96.19140625,0.0
43.53515625,20.99609375,-41.50390625,-22.94921875,-3.90625,-65.91796875,0.0
43.5390625,-1.46484375,-40.0390625,-15.625,-6.34765625,-24.90234375,0.0
43.54296875,-9.27734375,-30.76171875,-6.8359375,-8.7890625,-16.6015625,0.0
43.546875,18.06640625,-23.4375,-11.71875,-11.23046875,55.6640625,0.0
43.55078125,35.15625,-16.11328125,-9.27734375,-9.27734375,147.4609375,0.0
43.5546875,14.16015625,-32.71484375,-11.23046875,-11.71875,118.1640625,0.0
43.55859375,-8.7890625,-38.57421875,-22.4609375,-16.6015625,38.57421875,0.0
43.5625,-8.30078125,-31.73828125,-22.4609375,-23.4375,-11.71875,0.0
43.56640625,16.6015625,-27.34375,-17.578125,-16.6015625,27.34375,0.0
43.5703125,41.9921875,-18.5546875,-6.34765625,0.48828125,23.92578125,0.0
43.57421875,55.6640625,-10.7421875,-11.23046875,-6.8359375,25.87890625,0.0
43.578125,13.18359375,-26.3671875,-25.87890625,-13.18359375,-30.76171875,0.0
43.58203125,-8.7890625,-41.50390625,-23.4375,-10.25390625,-83.0078125,0.0
43.5859375,-2.9296875,-33.203125,-15.13671875,-18.5546875,-123.53515625,0.0
43.58984375,1.46484375,-26.85546875,-12.6953125,-14.6484375,-165.52734375,0.0
43.59375,9.765625,-33.69140625,-20.01953125,-14.16015625,-126.953125,0.0
43.59765625,-13.18359375,-45.41015625,-24.90234375,-19.04296875,-79.58984375,0.0
43.6015625,-31.25,-49.31640625,-24.90234375,-17.08984375,-82.03125,0.0
43.60546875,-20.01953125,-30.76171875,-31.73828125,-12.20703125,-57.6171875,0.0
43.609375,1.953125,-7.32421875,-24.90234375,7.8125,-64.453125,0.0
43.61328125,-0.48828125,-12.20703125,-18.06640625,0.48828125,-86.42578125,0.0
43.6171875,-19.53125,-21.484375,-17.578125,-21.97265625,-60.05859375,0.0
43.62109375,-34.1796875,-20.99609375,-4.39453125,-19.53125,-62.01171875,0.0
43.625,-31.25,-20.01953125,-2.44140625,-10.25390625,10.25390625,0.0
43.62890625,-17.578125,-22.94921875,-3.90625,-9.27734375,-3.41796875,0.0
43.6328125,-6.8359375,-23.4375,-7.32421875,-8.30078125,-64.453125,0.0
43.63671875,-11.71875,-25.390625,-14.16015625,-4.39453125,-28.3203125,0.0
43.640625,-15.13671875,-35.64453125,-5.859375,1.46484375,2.9296875,0.0
43.64453125,-12.6953125,-35.64453125,0.0,0.48828125,41.50390625,0.0
43.6484375,-8.30078125,-20.99609375,-9.765625,-6.8359375,60.546875,0.0
43.65234375,-7.32421875,-15.13671875,-17.578125,-15.625,-7.32421875,0.0
43.65625,-20.01953125,-25.87890625,-17.578125,-15.13671875,-102.05078125,0.0
43.66015625,-24.4140625,-42.48046875,-15.625,-15.625,-69.3359375,0.0
43.6640625,-15.625,-38.57421875,-5.859375,-22.4609375,0.9765625,0.0
43.66796875,3.41796875,-12.6953125,-0.48828125,-14.16015625,43.45703125,0.0
43.671875,12.6953125,-17.08984375,-3.41796875,-10.7421875,1.953125,0.0
43.67578125,-10.7421875,-44.43359375,-11.71875,-16.6015625,-86.42578125,0.0
43.6796875,-28.3203125,-41.9921875,-12.20703125,-17.578125,-117.67578125,0.0
43.68359375,-30.76171875,-10.7421875,-13.671875,-12.20703125,-59.08203125,0.0
43.6875,-25.87890625,-0.48828125,-19.04296875,-9.765625,40.0390625,0.0
43.69140625,-17.08984375,-23.92578125,-23.4375,-20.99609375,-3.41796875,0.0
43.6953125,-33.203125,-34.66796875,-23.92578125,-23.4375,-111.328125,0.0
43.69921875,-40.0390625,-27.34375,-7.8125,-17.08984375,-166.9921875,0.0
43.703125,-38.57421875,-37.109375,1.46484375,-20.01953125,-270.99609375,0.0
43.70703125,-34.1796875,-25.87890625,-3.41796875,-18.5546875,-284.1796875,0.0
43.7109375,-3.90625,-8.7890625,-7.8125,-19.04296875,-149.90234375,0.0
43.71484375,-10.7421875,-23.92578125,-18.06640625,-26.3671875,-122.55859375,0.0
43.71875,-36.62109375,-33.69140625,-22.94921875,-23.92578125,-151.3671875,0.0
43.72265625,-36.62109375,-30.76171875,-16.11328125,-18.5546875,-129.8828125,0.0
43.7265625,-9.27734375,-28.3203125,-11.71875,-31.25,-92.7734375,0.0
43.73046875,6.34765625,-19.53125,-12.6953125,-30.76171875,-146.484375,0.0
43.734375,7.8125,-34.1796875,-15.13671875,-19.04296875,-127.44140625,0.0
43.73828125,3.90625,-57.12890625,-12.6953125,-16.6015625,55.6640625,0.0
43.7421875,-16.11328125,-38.57421875,-17.578125,-16.11328125,85.44921875,0.0
43.74609375,-8.30078125,-17.578125,-20.01953125,-14.6484375,39.55078125,0.0
43.75,21.484375,-12.6953125,-16.11328125,-10.7421875,100.5859375,0.0
43.75390625,13.671875,-16.11328125,-22.94921875,-15.625,88.8671875,0.0
43.7578125,-9.27734375,-32.71484375,-26.3671875,-17.578125,-34.66796875,0.0
43.76171875,-16.11328125,-30.2734375,-22.94921875,-21.484375,-44.43359375,0.0
43.765625,1.46484375,-23.4375,-22.94921875,-14.16015625,46.38671875,0.0
43.76953125,20.5078125,-19.04296875,-15.625,-14.16015625,72.265625,0.0
43.7734375,20.5078125,-20.99609375,-9.765625,-25.390625,19.04296875,0.0
43.77734375,1.46484375,-38.0859375,-11.23046875,-25.390625,48.33984375,0.0
43.78125,-1.46484375,-41.015625,-10.25390625,-18.5546875,51.26953125,0.0
43.78515625,14.16015625,-17.08984375,-9.27734375,-13.18359375,-36.1328125,0.0
43.7890625,14.6484375,-16.6015625,-11.23046875,-20.99609375,-77.63671875,0.0
43.79296875,17.08984375,-19.04296875,-7.8125,-24.4140625,-11.23046875,0.0
43.796875,-0.48828125,-20.99609375,-15.13671875,-19.53125,44.43359375,0.0
43.80078125,-8.30078125,-37.109375,-24.4140625,-18.5546875,-24.4140625,0.0
43.8046875,-2.44140625,-33.203125,-27.34375,-18.5546875,-17.578125,0.0
43.80859375,-7.32421875,-14.16015625,-28.80859375,-18.5546875,-24.90234375,0.0
43.8125,-15.13671875,-20.99609375,-25.390625,-19.04296875,-22.94921875,0.0
43.81640625,-33.203125,-45.41015625,-28.80859375,-28.80859375,21.484375,0.0
43.8203125,-42.48046875,-37.59765625,-26.85546875,-31.73828125,-79.1015625,0.0
43.82421875,-40.0390625,-26.3671875,-15.13671875,-18.5546875,-140.13671875,0.0
43.828125,-29.296875,-33.203125,-9.27734375,-21.97265625,-81.54296875,0.0
43.83203125,-12.20703125,-36.1328125,-14.16015625,-26.3671875,-131.34765625,0.0
43.8359375,-20.01953125,-33.69140625,-20.5078125,-29.296875,-134.765625,0.0
43.83984375,-42.48046875,-31.73828125,-21.484375,-37.109375,-54.19921875,0.0
43.84375,-52.734375,-35.15625,-19.53125,-31.73828125,-63.4765625,0.0
43.84765625,-45.41015625,-29.296875,-19.04296875,-28.80859375,-88.8671875,0.0
43.8515625,-36.62109375,-20.99609375,-14.16015625,-24.90234375,-39.0625,0.0
43.85546875,-35.15625,-22.4609375,-19.04296875,-22.94921875,38.0859375,0.0
43.859375,-42.96875,-24.90234375,-28.80859375,-35.15625,-13.18359375,0.0
43.86328125,-50.29296875,-24.90234375,-32.71484375,-43.9453125,-66.89453125,0.0
43.8671875,-55.17578125,-38.0859375,-29.78515625,-37.59765625,-56.640625,0.0
43.87109375,-47.8515625,-31.73828125,-24.90234375,-31.25,3.90625,0.0
43.875,-41.9921875,-16.11328125,-28.3203125,-25.390625,63.4765625,0.0
43.87890625,-45.41015625,-19.04296875,-33.203125,-17.578125,85.44921875,0.0
43.8828125,-47.36328125,-26.85546875,-33.203125,-25.390625,59.08203125,0.0
43.88671875,-28.80859375,-27.83203125,-31.25,-24.4140625,55.17578125,0.0
43.890625,-18.5546875,-26.3671875,-32.71484375,-20.5078125,35.15625,0.0
43.89453125,-23.92578125,-20.01953125,-30.2734375,-24.90234375,29.296875,0.0
43.8984375,-33.203125,-26.85546875,-22.94921875,-27.34375,6.34765625,0.0
43.90234375,-37.109375,-25.390625,-23.92578125,-30.2734375,1.953125,0.0
43.90625,-28.3203125,-20.5078125,-27.34375,-18.06640625,58.59375,0.0
43.91015625,-7.32421875,-25.390625,-20.5078125,-2.44140625,69.82421875,0.0
43.9140625,-4.39453125,-11.71875,-17.578125,-13.18359375,0.48828125,0.0
43.91796875,-25.390625,-16.11328125,-19.04296875,-26.3671875,-86.42578125,0.0
43.921875,-25.390625,-32.71484375,-20.5078125,-23.92578125,-55.6640625,0.0
43.92578125,-14.16015625,-31.25,-25.87890625,-18.5546875,-68.359375,0.0
43.9296875,-15.625,-19.53125,-27.83203125,-11.23046875,6.34765625,0.0
43.93359375,-22.4609375,-17.08984375,-30.76171875,-27.34375,29.78515625,0.0
43.9375,-35.64453125,-34.66796875,-41.015625,-36.62109375,-57.12890625,0.0
43.94140625,-51.7578125,-43.9453125,-45.8984375,-25.87890625,-24.4140625,0.0
43.9453125,-30.76171875,-36.62109375,-40.52734375,-22.94921875,26.85546875,0.0
43.94921875,-15.625,-39.0625,-41.015625,-22.4609375,49.8046875,0.0
43.953125,-18.5546875,-49.31640625,-45.8984375,-19.04296875,88.37890625,0.0
43.95703125,-22.94921875,-53.7109375,-41.50390625,-17.08984375,36.1328125,0.0
43.9609375,-33.69140625,-68.84765625,-37.59765625,-18.06640625,-36.62109375,0.0
43.96484375,-33.69140625,-53.7109375,-34.1796875,-24.4140625,-63.4765625,0.0
43.96875,-14.16015625,-20.99609375,-27.34375,-32.71484375,-81.0546875,0.0
43.97265625,-2.44140625,-12.6953125,-32.2265625,-36.62109375,-108.88671875,0.0
43.9765625,-13.671875,-20.5078125,-41.015625,-37.109375,-119.62890625,0.0
43.98046875,-16.11328125,-31.73828125,-36.1328125,-34.66796875,-124.51171875,0.0
43.984375,-18.06640625,-34.1796875,-30.76171875,-14.6484375,-87.890625,0.0
43.98828125,6.8359375,-31.25,-26.85546875,-7.32421875,38.57421875,0.0
43.9921875,20.99609375,-20.99609375,-25.390625,-7.32421875,2.44140625,0.0
43.99609375,3.90625,-28.80859375,-23.92578125,-6.8359375,34.1796875,0.0
44.0,-13.18359375,-40.0390625,-26.3671875,-17.578125,59.08203125,0.0
44.00390625,-16.6015625,-33.69140625,-32.2265625,-8.7890625,-20.01953125,0.0
44.0078125,-6.8359375,-32.2265625,-32.71484375,-16.6015625,17.578125,0.0
44.01171875,5.859375,-29.78515625,-29.296875,-23.92578125,41.50390625,0.0
44.015625,-13.671875,-33.203125,-32.2265625,-21.484375,47.8515625,0.0
44.01953125,-47.36328125,-38.57421875,-38.0859375,-25.87890625,-1.46484375,0.0
44.0234375,-40.52734375,-28.3203125,-34.66796875,-21.484375,-9.27734375,0.0
44.02734375,-17.578125,-26.3671875,-30.76171875,-15.625,60.546875,0.0
44.03125,-4.39453125,-33.203125,-32.71484375,-10.7421875,-1.953125,0.0
44.03515625,-5.37109375,-33.69140625,-35.15625,-7.8125,-37.59765625,0.0
44.0390625,-17.08984375,-35.15625,-40.52734375,-3.90625,-7.8125,0.0
44.04296875,-35.64453125,-38.0859375,-45.41015625,-5.859375,-33.69140625,0.0
44.046875,-27.34375,-49.31640625,-42.96875,-2.9296875,-23.4375,0.0
44.05078125,-4.8828125,-50.78125,-41.50390625,3.41796875,-22.94921875,0.0
44.0546875,-16.11328125,-41.50390625,-43.9453125,-10.25390625,3.41796875,0.0
44.05859375,-31.73828125,-28.3203125,-37.59765625,-19.53125,64.94140625,0.0
44.0625,-30.2734375,-49.31640625,-39.0625,-12.20703125,57.6171875,0.0
44.06640625,-27.34375,-50.29296875,-48.828125,-7.32421875,-43.9453125,0.0
44.0703125,-7.32421875,-16.11328125,-44.921875,-13.18359375,-76.171875,0.0
44.07421875,8.7890625,-10.25390625,-37.59765625,-9.765625,-42.48046875,0.0
44.078125,-4.39453125,-17.578125,-35.64453125,2.44140625,-19.53125,0.0
44.08203125,-25.87890625,-33.69140625,-41.9921875,-4.39453125,-41.50390625,0.0
44.0859375,-9.765625,-37.59765625,-43.9453125,-5.859375,-89.35546875,0.0
44.08984375,15.13671875,-18.5546875,-36.62109375,0.48828125,-99.609375,0.0
44.09375,-8.30078125,-18.5546875,-37.59765625,2.44140625,-19.04296875,0.0
44.09765625,-26.3671875,-52.734375,-50.29296875,-0.48828125,59.08203125,0.0
44.1015625,-20.01953125,-61.5234375,-47.8515625,-7.8125,-13.671875,0.0
44.10546875,-21.97265625,-46.38671875,-42.48046875,-6.34765625,3.90625,0.0
44.109375,-6.8359375,-41.9921875,-36.1328125,2.44140625,-36.62109375,0.0
44.11328125,3.41796875,-35.64453125,-34.66796875,4.8828125,-25.390625,0.0
44.1171875,-13.671875,-31.73828125,-43.45703125,1.953125,13.671875,0.0
44.12109375,-25.390625,-31.25,-41.9921875,0.0,26.3671875,0.0
44.125,-15.13671875,-27.34375,-33.69140625,5.37109375,87.890625,0.0
44.12890625,8.30078125,-26.85546875,-38.0859375,11.71875,19.53125,0.0
44.1328125,26.85546875,-42.48046875,-42.96875,10.7421875,0.9765625,0.0
44.13671875,10.25390625,-50.29296875,-40.0390625,4.8828125,12.20703125,0.0
44.140625,-7.8125,-43.45703125,-48.828125,-6.8359375,-84.9609375,0.0
44.14453125,2.44140625,-29.78515625,-50.78125,-10.25390625,-144.04296875,0.0
44.1484375,12.6953125,-25.390625,-43.9453125,-1.953125,-133.7890625,0.0
44.15234375,10.7421875,-28.3203125,-47.36328125,-2.9296875,-83.0078125,0.0
44.15625,-9.765625,-34.66796875,-52.24609375,-4.8828125,-20.01953125,0.0
44.16015625,-15.625,-43.9453125,-58.10546875,-5.859375,-58.10546875,0.0
44.1640625,-15.625,-42.48046875,-58.10546875,-11.71875,-72.265625,0.0
44.16796875,-9.27734375,-32.2265625,-46.875,-9.27734375,-15.13671875,0.0
44.171875,-13.671875,-32.71484375,-41.50390625,-9.27734375,2.44140625,0.0
44.17578125,-37.109375,-57.6171875,-41.50390625,-12.6953125,-135.25390625,0.0
44.1796875,-47.36328125,-68.84765625,-36.62109375,-21.97265625,-208.984375,0.0
44.18359375,-51.26953125,-42.96875,-37.59765625,-18.06640625,-115.234375,0.0
44.1875,-31.73828125,-41.50390625,-37.109375,-9.765625,-37.59765625,0.0
44.19140625,-8.30078125,-50.29296875,-33.203125,-9.27734375,-46.875,0.0
44.1953125,-12.6953125,-47.36328125,-29.78515625,-12.20703125,-17.08984375,0.0
44.19921875,-26.85546875,-45.8984375,-35.15625,-20.01953125,-0.48828125,0.0
44.203125,-23.92578125,-42.48046875,-47.36328125,-14.6484375,-42.48046875,0.0
44.20703125,-12.20703125,-46.875,-42.48046875,-9.27734375,25.390625,0.0
44.2109375,-1.953125,-47.36328125,-34.1796875,-8.7890625,68.359375,0.0
44.21484375,4.8828125,-40.0390625,-35.64453125,-2.9296875,-33.69140625,0.0
44.21875,-12.6953125,-40.52734375,-42.96875,-8.30078125,-54.6875,0.0
44.22265625,-16.6015625,-31.25,-47.36328125,-4.39453125,17.578125,0.0
44.2265625,12.20703125,-29.78515625,-44.43359375,-13.671875,4.8828125,0.0
44.23046875,12.6953125,-51.7578125,-46.875,-19.53125,-76.66015625,0.0
44.234375,-4.8828125,-57.6171875,-49.31640625,-6.8359375,-147.94921875,0.0
44.23828125,-29.296875,-46.38671875,-49.31640625,-4.8828125,-160.15625,0.0
44.2421875,-37.109375,-33.69140625,-45.41015625,1.46484375,-137.20703125,0.0
44.24609375,-8.7890625,-29.78515625,-44.921875,1.953125,-34.66796875,0.0
44.25,14.6484375,-30.2734375,-45.41015625,4.39453125,10.7421875,0.0
44.25390625,21.484375,-30.76171875,-46.875,7.8125,5.859375,0.0
44.2578125,1.46484375,-42.48046875,-47.36328125,3.41796875,27.34375,0.0
44.26171875,-24.4140625,-45.41015625,-41.9921875,2.44140625,-22.4609375,0.0
44.265625,-10.25390625,-43.45703125,-36.1328125,5.859375,-49.31640625,0.0
44.26953125,14.6484375,-45.8984375,-35.64453125,1.46484375,-36.1328125,0.0
44.2734375,9.765625,-35.15625,-40.0390625,-7.8125,-98.6328125,0.0
44.27734375,-3.90625,-32.71484375,-38.0859375,-10.25390625,-85.44921875,0.0
44.28125,-16.6015625,-61.5234375,-35.15625,-15.625,-52.24609375,0.0
44.28515625,-8.7890625,-53.7109375,-28.80859375,-17.578125,-59.5703125,0.0
44.2890625,15.625,-16.6015625,-25.390625,-7.32421875,-34.66796875,0.0
44.29296875,19.04296875,-23.92578125,-27.83203125,-7.8125,-52.734375,0.0
44.296875,22.4609375,-39.55078125,-26.85546875,-16.6015625,-67.3828125,0.0
44.30078125,14.6484375,-48.828125,-31.73828125,-22.94921875,-107.91015625,0.0
44.3046875,13.18359375,-50.29296875,-35.64453125,-15.13671875,-145.5078125,0.0
44.30859375,34.1796875,-31.73828125,-28.80859375,-9.765625,-85.44921875,0.0
44.3125,36.62109375,-24.90234375,-30.2734375,-17.08984375,-0.9765625,0.0
44.31640625,11.23046875,-45.8984375,-33.203125,-25.87890625,-22.94921875,0.0
44.3203125,-5.859375,-51.7578125,-33.69140625,-20.99609375,-48.33984375,0.0
44.32421875,-8.7890625,-40.52734375,-36.62109375,-14.16015625,-80.078125,0.0
44.328125,-14.16015625,-48.828125,-35.64453125,-20.99609375,-121.09375,0.0
44.33203125,-1.953125,-42.48046875,-24.90234375,-19.04296875,-66.89453125,0.0
44.3359375,-4.39453125,-46.875,-22.94921875,-21.97265625,24.90234375,0.0
44.33984375,-23.92578125,-65.4296875,-31.25,-23.92578125,40.52734375,0.0
44.34375,-20.01953125,-69.82421875,-41.015625,-18.06640625,-43.45703125,0.0
44.34765625,-14.6484375,-56.15234375,-46.38671875,-13.671875,-31.25,0.0
44.3515625,-10.7421875,-45.8984375,-40.0390625,-11.71875,27.83203125,0.0
44.35546875,-10.7421875,-37.59765625,-37.59765625,-21.484375,51.26953125,0.0
44.359375,-22.94921875,-35.15625,-39.0625,-18.5546875,-52.734375,0.0
44.36328125,-32.71484375,-31.25,-40.52734375,-22.4609375,-94.7265625,0.0
44.3671875,-31.25,-27.34375,-42.96875,-25.390625,-51.26953125,0.0
44.37109375,-25.390625,-38.57421875,-38.57421875,-18.06640625,31.73828125,0.0
44.375,-12.6953125,-46.875,-36.1328125,-3.90625,74.70703125,0.0
44.37890625,-20.01953125,-54.19921875,-31.73828125,3.41796875,11.71875,0.0
44.3828125,-29.296875,-47.8515625,-33.203125,-6.34765625,34.66796875,0.0
44.38671875,-9.27734375,-32.71484375,-37.109375,3.41796875,28.3203125,0.0
44.390625,5.859375,-30.76171875,-39.55078125,11.23046875,-71.77734375,0.0
44.39453125,-2.9296875,-28.80859375,-44.921875,-3.90625,-71.77734375,0.0
44.3984375,-15.625,-37.59765625,-44.43359375,-8.7890625,-14.6484375,0.0
44.40234375,-17.08984375,-37.109375,-41.015625,-9.765625,-74.70703125,0.0
44.40625,-9.765625,-22.94921875,-36.1328125,-20.01953125,-63.4765625,0.0
44.41015625,6.34765625,-30.76171875,-37.59765625,-15.13671875,-19.04296875,0.0
44.4140625,15.13671875,-47.36328125,-41.50390625,-14.6484375,-53.7109375,0.0
44.41796875,-11.23046875,-39.0625,-41.015625,-19.53125,12.6953125,0.0
44.421875,-32.2265625,-36.1328125,-38.0859375,-17.578125,21.484375,0.0
44.42578125,-20.5078125,-43.9453125,-35.64453125,-14.6484375,3.90625,0.0
44.4296875,10.7421875,-34.66796875,-36.62109375,-9.27734375,19.53125,0.0
44.43359375,15.13671875,-29.78515625,-33.203125,-14.16015625,-12.6953125,0.0
44.4375,-19.53125,-48.33984375,-24.90234375,-27.34375,-28.80859375,0.0
44.44140625,-29.78515625,-48.33984375,-20.01953125,-20.5078125,-2.44140625,0.0
44.4453125,-20.99609375,-48.828125,-24.4140625,-8.7890625,20.5078125,0.0
44.44921875,-13.18359375,-43.45703125,-23.92578125,-6.8359375,93.26171875,0.0
44.453125,-15.13671875,-31.25,-14.16015625,-2.9296875,35.15625,0.0
44.45703125,-30.2734375,-38.0859375,-10.25390625,3.41796875,-61.03515625,0.0
44.4609375,-45.41015625,-33.69140625,-9.765625,4.8828125,-54.19921875,0.0
44.46484375,-35.64453125,-26.3671875,-1.953125,10.25390625,16.11328125,0.0
44.46875,-8.7890625,-26.3671875,1.953125,20.01953125,86.9140625,0.0
44.47265625,-3.90625,-29.296875,-2.44140625,8.30078125,44.921875,0.0
44.4765625,-20.99609375,-31.73828125,-5.859375,-6.8359375,53.22265625,0.0
44.48046875,-32.71484375,-35.15625,-6.8359375,-8.30078125,55.17578125,0.0
44.484375,-18.06640625,-47.8515625,-9.765625,-0.48828125,48.33984375,0.0
44.48828125,-7.8125,-48.828125,-7.8125,5.37109375,32.2265625,0.0
44.4921875,-12.6953125,-48.828125,-4.8828125,7.8125,1.46484375,0.0
44.49609375,-13.18359375,-45.41015625,-1.953125,-0.9765625,-39.0625,0.0
44.5,-23.4375,-32.71484375,-5.37109375,2.9296875,-133.7890625,0.0
44.50390625,-33.69140625,-25.87890625,-11.23046875,3.41796875,-130.37109375,0.0
44.5078125,-18.5546875,-8.7890625,-6.8359375,-0.48828125,-54.6875,0.0
44.51171875,-8.7890625,-7.32421875,-3.41796875,15.13671875,-71.2890625,0.0
44.515625,-20.01953125,-41.015625,-6.34765625,11.71875,-91.796875,0.0
44.51953125,-21.97265625,-38.57421875,-9.765625,-1.46484375,-57.6171875,0.0
44.5234375,-18.06640625,-31.25,-11.23046875,0.0,-44.43359375,0.0
44.52734375,-24.90234375,-35.15625,-14.16015625,5.859375,-101.07421875,0.0
44.53125,-22.4609375,-19.53125,-15.13671875,3.41796875,-109.86328125,0.0
44.53515625,-20.01953125,-26.3671875,-21.97265625,-8.7890625,-12.6953125,0.0
44.5390625,-39.55078125,-35.64453125,-28.80859375,-11.23046875,49.8046875,0.0
44.54296875,-48.828125,-41.9921875,-23.4375,-11.23046875,-7.8125,0.0
44.546875,-13.671875,-37.109375,-21.97265625,-15.13671875,-40.0390625,0.0
44.55078125,-5.859375,-42.48046875,-21.484375,-20.99609375,44.921875,0.0
44.5546875,-11.71875,-57.12890625,-22.94921875,-28.80859375,81.54296875,0.0
44.55859375,-8.30078125,-48.33984375,-23.4375,-40.0390625,52.734375,0.0
44.5625,-21.484375,-45.41015625,-28.80859375,-30.76171875,-40.52734375,0.0
44.56640625,-16.6015625,-42.48046875,-23.92578125,-14.16015625,-26.85546875,0.0
44.5703125,-3.41796875,-30.76171875,-25.87890625,-17.578125,46.875,0.0
44.57421875,-7.32421875,-33.203125,-38.0859375,-29.78515625,-26.85546875,0.0
44.578125,-21.484375,-51.26953125,-41.50390625,-32.71484375,-66.40625,0.0
44.58203125,-20.01953125,-45.41015625,-44.43359375,-30.76171875,-43.9453125,0.0
44.5859375,-9.765625,-45.8984375,-42.48046875,-15.625,-33.69140625,0.0
44.58984375,7.32421875,-54.6875,-29.296875,-0.48828125,-26.3671875,0.0
44.59375,18.06640625,-40.0390625,-27.34375,-2.44140625,-17.08984375,0.0
44.59765625,-0.9765625,-47.36328125,-31.73828125,-20.01953125,8.7890625,0.0
44.6015625,-9.765625,-48.828125,-31.25,-40.0390625,-41.9921875,0.0
44.60546875,0.0,-36.1328125,-26.3671875,-20.5078125,-0.9765625,0.0
44.609375,-6.34765625,-48.33984375,-29.296875,1.953125,4.39453125,0.0
44.61328125,-3.90625,-39.0625,-37.59765625,-2.9296875,-12.6953125,0.0
44.6171875,-1.46484375,-34.66796875,-35.64453125,-3.41796875,-21.484375,0.0
44.62109375,-17.578125,-45.41015625,-32.2265625,8.7890625,-26.3671875,0.0
44.625,-6.8359375,-40.52734375,-35.64453125,8.30078125,-26.85546875,0.0
44.62890625,41.9921875,-36.62109375,-44.921875,-4.39453125,-27.34375,0.0
44.6328125,30.2734375,-32.71484375,-50.29296875,-8.30078125,21.484375,0.0
44.63671875,-21.97265625,-38.0859375,-46.38671875,-14.16015625,-37.109375,0.0
44.640625,-21.484375,-38.0859375,-37.109375,-28.3203125,-101.5625,0.0
44.64453125,-5.37109375,-48.33984375,-32.2265625,-27.83203125,-124.0234375,0.0
44.6484375,8.30078125,-56.15234375,-37.109375,-23.92578125,-102.5390625,0.0
44.65234375,16.6015625,-46.38671875,-37.59765625,-28.3203125,-90.33203125,0.0
44.65625,15.625,-42.96875,-38.0859375,-34.66796875,-20.5078125,0.0
44.66015625,-1.46484375,-48.33984375,-30.76171875,-40.52734375,10.25390625,0.0
44.6640625,-23.4375,-57.6171875,-31.73828125,-39.0625,-89.35546875,0.0
44.66796875,2.44140625,-44.921875,-40.52734375,-35.64453125,-59.5703125,0.0
44.671875,20.99609375,-36.1328125,-33.203125,-29.296875,-43.45703125,0.0
44.67578125,6.8359375,-35.15625,-33.69140625,-32.71484375,-91.30859375,0.0
44.6796875,-7.8125,-32.2265625,-30.2734375,-33.69140625,-106.93359375,0.0
44.68359375,-5.859375,-35.15625,-23.4375,-23.4375,-141.6015625,0.0
44.6875,6.34765625,-41.9921875,-19.04296875,-22.4609375,-118.1640625,0.0
44.69140625,24.4140625,-31.73828125,-18.06640625,-25.390625,-72.75390625,0.0
44.6953125,27.83203125,-27.34375,-18.06640625,-27.34375,-86.9140625,0.0
44.69921875,6.8359375,-39.0625,-28.80859375,-31.25,-37.109375,0.0
44.703125,-6.8359375,-40.52734375,-27.83203125,-40.0390625,-34.1796875,0.0
44.70703125,12.6953125,-39.55078125,-25.390625,-27.34375,-154.78515625,0.0
44.7109375,38.0859375,-31.25,-28.80859375,-8.30078125,-137.20703125,0.0
44.71484375,28.3203125,-28.3203125,-25.87890625,-14.16015625,-16.11328125,0.0
44.71875,-0.48828125,-38.0859375,-27.83203125,-16.6015625,-31.73828125,0.0
44.72265625,-11.71875,-55.6640625,-28.80859375,-7.8125,-25.390625,0.0
44.7265625,13.671875,-51.7578125,-32.2265625,1.953125,46.38671875,0.0
44.73046875,29.296875,-32.2265625,-27.83203125,5.37109375,19.53125,0.0
44.734375,9.765625,-27.34375,-20.01953125,0.0,-27.34375,0.0
44.73828125,-32.2265625,-36.62109375,-28.3203125,1.46484375,18.5546875,0.0
44.7421875,-136.23046875,-41.50390625,-34.66796875,-2.44140625,62.98828125,0.0
44.74609375,-223.14453125,-44.43359375,-37.109375,-11.23046875,71.2890625,0.0
44.75,-229.00390625,-28.3203125,-30.2734375,-0.48828125,57.6171875,0.0
44.75390625,-221.6796875,-23.92578125,-26.85546875,1.953125,50.29296875,0.0
44.7578125,-244.62890625,-46.38671875,-31.25,-3.41796875,-58.10546875,0.0
44.76171875,-259.27734375,-35.15625,-25.87890625,-1.46484375,-50.78125,0.0
44.765625,-254.39453125,-23.92578125,-28.80859375,-6.34765625,18.06640625,0.0
44.76953125,-237.3046875,-26.85546875,-35.15625,-8.7890625,-59.5703125,0.0
44.7734375,-212.40234375,-29.78515625,-40.0390625,-15.13671875,-34.66796875,0.0
44.77734375,-212.40234375,-33.203125,-40.52734375,-23.4375,83.984375,0.0
44.78125,-225.09765625,-43.9453125,-35.15625,-16.11328125,52.24609375,0.0
44.78515625,-216.30859375,-51.7578125,-30.76171875,-20.01953125,-30.2734375,0.0
44.7890625,-207.03125,-46.875,-30.76171875,-27.83203125,-136.23046875,0.0
44.79296875,-220.21484375,-50.29296875,-28.3203125,-27.34375,-257.32421875,0.0
44.796875,-232.421875,-63.96484375,-36.1328125,-24.4140625,-174.8046875,0.0
44.80078125,-233.3984375,-58.59375,-40.0390625,-28.3203125,-137.6953125,0.0
44.8046875,-225.09765625,-41.9921875,-31.73828125,-25.390625,-155.76171875,0.0
44.80859375,-189.453125,-29.296875,-34.66796875,-24.4140625,-135.7421875,0.0
44.8125,-187.01171875,-31.25,-40.52734375,-34.66796875,-156.73828125,0.0
44.81640625,-204.1015625,-42.48046875,-41.50390625,-38.57421875,-149.4140625,0.0
44.8203125,-188.4765625,-44.43359375,-41.015625,-40.0390625,28.80859375,0.0
44.82421875,-161.62109375,-43.45703125,-32.2265625,-29.296875,55.17578125,0.0
44.828125,-121.09375,-31.25,-23.4375,-21.484375,30.76171875,0.0
44.83203125,-98.6328125,-19.04296875,-21.484375,-15.625,91.796875,0.0
44.8359375,-98.14453125,-19.04296875,-21.97265625,-11.23046875,111.81640625,0.0
44.83984375,-120.1171875,-42.48046875,-16.11328125,-17.578125,32.71484375,0.0
44.84375,-130.37109375,-61.03515625,-14.6484375,-15.13671875,-47.36328125,0.0
44.84765625,-112.3046875,-26.3671875,-20.01953125,-12.6953125,25.390625,0.0
44.8515625,-103.02734375,1.46484375,-18.5546875,-15.625,65.4296875,0.0
44.85546875,-111.81640625,-20.5078125,-15.13671875,-9.765625,48.828125,0.0
44.859375,-114.2578125,-32.2265625,-20.5078125,-17.08984375,62.01171875,0.0
44.86328125,-116.2109375,-20.99609375,-26.3671875,-25.390625,20.01953125,0.0
44.8671875,-100.5859375,-23.92578125,-20.99609375,-16.6015625,-34.66796875,0.0
44.87109375,-76.66015625,-31.25,-18.06640625,-8.30078125,-23.92578125,0.0
44.875,-76.171875,-40.0390625,-23.4375,-12.6953125,-20.01953125,0.0
44.87890625,-90.33203125,-37.59765625,-30.2734375,-24.4140625,-79.58984375,0.0
44.8828125,-95.703125,-30.76171875,-24.90234375,-24.4140625,-54.19921875,0.0
44.88671875,-75.68359375,-33.69140625,-21.484375,-17.08984375,10.25390625,0.0
44.890625,-53.22265625,-34.66796875,-21.484375,-20.5078125,-10.7421875,0.0
44.89453125,-52.24609375,-27.83203125,-27.83203125,-33.203125,39.55078125,0.0
44.8984375,-67.87109375,-26.3671875,-37.109375,-41.015625,16.6015625,0.0
44.90234375,-74.70703125,-28.3203125,-36.1328125,-39.55078125,-8.30078125,0.0
44.90625,-51.26953125,-21.484375,-38.0859375,-23.4375,26.85546875,0.0
44.91015625,-19.04296875,-18.5546875,-46.38671875,-15.13671875,21.97265625,0.0
44.9140625,-25.87890625,-32.2265625,-45.8984375,-27.34375,31.73828125,0.0
44.91796875,-57.6171875,-32.71484375,-46.875,-33.69140625,-53.22265625,0.0
44.921875,-59.5703125,-39.55078125,-49.8046875,-34.66796875,-212.890625,0.0
44.92578125,-54.19921875,-41.9921875,-40.52734375,-26.85546875,-210.44921875,0.0
44.9296875,-40.0390625,-19.04296875,-31.73828125,-18.5546875,-103.02734375,0.0
44.93359375,-25.87890625,-7.8125,-35.64453125,-18.5546875,-75.68359375,0.0
44.9375,-43.45703125,-32.2265625,-40.52734375,-14.16015625,-162.109375,0.0
44.94140625,-55.17578125,-44.921875,-34.66796875,-16.11328125,-212.40234375,0.0
44.9453125,-48.828125,-23.92578125,-28.80859375,-24.4140625,-226.07421875,0.0
44.94921875,-32.71484375,-10.25390625,-28.3203125,-9.765625,-91.30859375,0.0
44.953125,-30.76171875,-15.13671875,-30.2734375,1.46484375,31.73828125,0.0
44.95703125,-55.6640625,-38.0859375,-38.0859375,-10.7421875,4.8828125,0.0
44.9609375,-70.3125,-49.31640625,-36.1328125,-23.4375,-40.0390625,0.0
44.96484375,-47.8515625,-29.78515625,-34.1796875,-25.390625,-32.2265625,0.0
44.96875,-24.90234375,-29.296875,-34.66796875,-22.4609375,24.90234375,0.0
44.97265625,-21.484375,-26.3671875,-32.71484375,-23.92578125,32.71484375,0.0
44.9765625,-17.578125,-20.01953125,-41.50390625,-27.83203125,9.27734375,0.0
44.98046875,-10.25390625,-32.2265625,-49.8046875,-27.34375,15.625,0.0
44.984375,4.39453125,-37.109375,-43.45703125,-26.85546875,49.8046875,0.0
44.98828125,2.44140625,-43.9453125,-40.52734375,-29.78515625,66.89453125,0.0
44.9921875,0.0,-45.8984375,-40.0390625,-32.71484375,67.87109375,0.0
44.99609375,-9.765625,-33.203125,-43.9453125,-38.57421875,-27.34375,0.0
45.0,-19.53125,-38.57421875,-41.50390625,-43.9453125,-94.7265625,0.0
45.00390625,-20.5078125,-47.8515625,-34.66796875,-40.52734375,-91.796875,0.0
45.0078125,-5.37109375,-39.55078125,-33.203125,-30.76171875,-99.609375,0.0
45.01171875,6.34765625,-24.4140625,-34.66796875,-30.2734375,-116.2109375,0.0
45.015625,-3.41796875,-25.87890625,-32.71484375,-38.57421875,-62.5,0.0
45.01953125,-18.5546875,-33.69140625,-24.4140625,-41.015625,11.71875,0.0
45.0234375,-11.71875,-31.25,-20.99609375,-40.0390625,45.8984375,0.0
45.02734375,12.20703125,-35.15625,-22.94921875,-36.1328125,37.59765625,0.0
45.03125,26.85546875,-32.2265625,-30.76171875,-27.83203125,-11.23046875,0.0
45.03515625,22.94921875,-41.9921875,-29.78515625,-27.83203125,-12.6953125,0.0
45.0390625,16.6015625,-50.29296875,-13.18359375,-31.25,9.765625,0.0
45.04296875,29.296875,-42.48046875,-12.6953125,-29.296875,47.8515625,0.0
45.046875,32.2265625,-33.69140625,-12.6953125,-21.97265625,21.97265625,0.0
45.05078125,16.6015625,-32.71484375,-11.23046875,-16.6015625,-11.71875,0.0
45.0546875,3.90625,-48.828125,-18.5546875,-11.71875,27.83203125,0.0
45.05859375,8.7890625,-73.2421875,-22.4609375,-9.765625,22.94921875,0.0
45.0625,-19.04296875,-64.453125,-19.53125,-21.97265625,-26.85546875,0.0
45.06640625,-35.64453125,-38.57421875,-14.16015625,-7.32421875,-69.82421875,0.0
45.0703125,0.0,-20.5078125,-17.08984375,4.39453125,-109.375,0.0
45.07421875,5.37109375,-34.66796875,-21.484375,-9.765625,-34.1796875,0.0
45.078125,-10.25390625,-68.359375,-26.85546875,-9.27734375,0.48828125,0.0
45.08203125,-22.94921875,-53.7109375,-29.78515625,-4.8828125,-30.76171875,0.0
45.0859375,-27.34375,-30.2734375,-34.1796875,-8.30078125,-20.5078125,0.0
45.08984375,-17.08984375,-39.0625,-36.62109375,-14.16015625,-123.046875,0.0
45.09375,1.46484375,-41.015625,-36.62109375,-10.7421875,-129.39453125,0.0
45.09765625,3.90625,-41.50390625,-41.50390625,-13.18359375,-9.27734375,0.0
45.1015625,-0.9765625,-53.22265625,-41.015625,-22.4609375,-12.20703125,0.0
45.10546875,30.2734375,-40.52734375,-34.1796875,-23.4375,-40.52734375,0.0
45.109375,65.4296875,-24.4140625,-29.296875,-16.6015625,7.32421875,0.0
45.11328125,53.7109375,-34.1796875,-29.78515625,-13.671875,33.203125,0.0
45.1171875,39.0625,-39.55078125,-33.69140625,-17.578125,41.9921875,0.0
45.12109375,41.015625,-31.25,-36.62109375,-18.5546875,21.484375,0.0
45.125,41.9921875,-51.26953125,-33.69140625,1.46484375,-13.18359375,0.0
45.12890625,52.734375,-50.29296875,-32.2265625,18.5546875,0.9765625,0.0
45.1328125,68.84765625,-25.390625,-34.66796875,8.30078125,28.3203125,0.0
45.13671875,50.78125,-29.296875,-39.0625,4.8828125,23.4375,0.0
45.140625,25.87890625,-31.25,-41.015625,10.25390625,-31.73828125,0.0
45.14453125,37.59765625,-29.78515625,-33.203125,7.8125,-48.33984375,0.0
45.1484375,32.2265625,-38.57421875,-31.73828125,9.27734375,-45.41015625,0.0
45.15234375,20.5078125,-48.33984375,-35.15625,6.8359375,-38.57421875,0.0
45.15625,19.53125,-54.19921875,-34.1796875,-2.9296875,-6.8359375,0.0
45.16015625,6.8359375,-66.40625,-36.1328125,-14.6484375,-92.7734375,0.0
45.1640625,6.8359375,-59.5703125,-35.64453125,-25.390625,-131.34765625,0.0
45.16796875,21.484375,-31.73828125,-35.64453125,-26.85546875,-62.01171875,0.0
45.171875,36.1328125,-36.1328125,-37.59765625,-26.85546875,-25.87890625,0.0
45.17578125,20.5078125,-60.546875,-44.43359375,-29.296875,-85.44921875,0.0
45.1796875,-3.90625,-60.05859375,-41.9921875,-30.76171875,-197.75390625,0.0
45.18359375,-15.625,-38.0859375,-32.2265625,-31.73828125,-246.58203125,0.0
45.1875,-11.23046875,-43.45703125,-34.66796875,-29.296875,-230.95703125,0.0
45.19140625,2.9296875,-46.875,-40.52734375,-29.296875,-148.4375,0.0
45.1953125,-5.37109375,-25.87890625,-43.45703125,-29.78515625,-86.9140625,0.0
45.19921875,-19.53125,-25.87890625,-44.921875,-28.3203125,-100.5859375,0.0
45.203125,-22.4609375,-42.96875,-44.921875,-27.83203125,-103.02734375,0.0
45.20703125,-17.08984375,-47.8515625,-47.36328125,-17.08984375,-107.421875,0.0
45.2109375,-5.859375,-34.66796875,-46.38671875,-18.5546875,-104.4921875,0.0
45.21484375,3.90625,-37.109375,-41.9921875,-10.25390625,-96.6796875,0.0
45.21875,-12.20703125,-58.59375,-40.0390625,4.8828125,-25.87890625,0.0
45.22265625,-4.8828125,-56.15234375,-43.45703125,-0.9765625,12.6953125,0.0
45.2265625,7.8125,-51.7578125,-41.9921875,4.39453125,-51.7578125,0.0
45.23046875,-13.671875,-37.59765625,-41.50390625,0.48828125,-57.12890625,0.0
45.234375,-17.578125,-26.85546875,-42.48046875,-3.90625,-84.47265625,0.0
45.23828125,-30.2734375,-28.80859375,-46.38671875,1.46484375,-49.8046875,0.0
45.2421875,-31.25,-31.73828125,-51.26953125,2.9296875,1.953125,0.0
45.24609375,-12.20703125,-26.85546875,-47.8515625,-2.44140625,7.32421875,0.0
45.25,6.8359375,-27.34375,-41.015625,-6.8359375,36.1328125,0.0
45.25390625,0.48828125,-33.203125,-36.62109375,-17.08984375,9.765625,0.0
45.2578125,-35.15625,-33.69140625,-35.64453125,-24.90234375,53.7109375,0.0
45.26171875,-57.12890625,-47.8515625,-37.59765625,-18.06640625,46.38671875,0.0
45.265625,-61.03515625,-64.453125,-37.109375,-21.484375,-54.19921875,0.0
45.26953125,-41.50390625,-50.29296875,-37.109375,-22.94921875,29.78515625,0.0
45.2734375,-33.203125,-34.1796875,-36.62109375,-19.53125,59.08203125,0.0
45.27734375,-45.8984375,-55.6640625,-37.109375,-20.01953125,36.62109375,0.0
45.28125,-45.41015625,-67.87109375,-32.71484375,-23.92578125,72.75390625,0.0
45.28515625,-40.0390625,-39.55078125,-26.85546875,-20.01953125,93.26171875,0.0
45.2890625,-33.203125,-33.203125,-22.4609375,-8.7890625,133.7890625,0.0
45.29296875,-13.671875,-33.69140625,-19.04296875,-12.20703125,109.86328125,0.0
45.296875,-6.34765625,-30.76171875,-24.90234375,-29.78515625,17.08984375,0.0
45.30078125,-35.64453125,-50.78125,-14.16015625,-35.64453125,-80.078125,0.0
45.3046875,-51.26953125,-52.24609375,-7.8125,-11.23046875,-121.09375,0.0
45.30859375,-27.34375,-31.73828125,-8.30078125,-2.9296875,-51.26953125,0.0
45.3125,-15.13671875,-27.34375,-9.27734375,-17.578125,35.15625,0.0
45.31640625,-24.90234375,-38.57421875,-17.578125,-24.4140625,16.11328125,0.0
45.3203125,-48.828125,-42.48046875,-14.16015625,-15.625,-95.703125,0.0
45.32421875,-66.89453125,-40.0390625,-11.71875,-4.8828125,-138.18359375,0.0
45.328125,-50.78125,-46.875,-14.16015625,-6.8359375,-139.16015625,0.0
45.33203125,-16.6015625,-39.0625,-19.53125,2.9296875,-125.48828125,0.0
45.3359375,-18.5546875,-27.83203125,-23.92578125,9.27734375,-52.734375,0.0
45.33984375,-33.203125,-29.78515625,-18.06640625,5.37109375,-62.5,0.0
45.34375,-26.3671875,-26.3671875,-20.99609375,8.30078125,-131.8359375,0.0
45.34765625,0.48828125,-17.08984375,-19.53125,11.23046875,-89.35546875,0.0
45.3515625,17.08984375,-8.30078125,-5.859375,-2.44140625,-65.91796875,0.0
45.35546875,17.578125,-9.765625,-5.859375,-17.08984375,-49.8046875,0.0
45.359375,11.71875,-25.390625,-19.04296875,-13.18359375,-31.73828125,0.0
45.36328125,5.37109375,-35.15625,-21.484375,-20.5078125,-63.4765625,0.0
45.3671875,13.18359375,-32.2265625,-22.94921875,-20.5078125,-67.87109375,0.0
45.37109375,20.01953125,-26.85546875,-27.83203125,-14.16015625,-64.94140625,0.0
45.375,4.39453125,-14.16015625,-26.85546875,-22.94921875,-24.4140625,0.0
45.37890625,-14.6484375,-15.625,-36.62109375,-31.25,-106.4453125,0.0
45.3828125,-20.99609375,-28.80859375,-42.96875,-26.85546875,-208.0078125,0.0
45.38671875,-15.13671875,-34.1796875,-43.45703125,-36.1328125,-125.48828125,0.0
45.390625,-6.34765625,-27.34375,-41.50390625,-36.1328125,-58.10546875,0.0
45.39453125,-3.41796875,-26.85546875,-39.55078125,-27.83203125,-43.45703125,0.0
45.3984375,-18.5546875,-43.9453125,-40.0390625,-38.57421875,-44.43359375,0.0
45.40234375,-38.57421875,-53.7109375,-41.9921875,-34.1796875,-61.5234375,0.0
45.40625,-29.78515625,-48.33984375,-41.50390625,-29.78515625,-65.4296875,0.0
45.41015625,-20.99609375,-44.921875,-39.0625,-34.1796875,-25.87890625,0.0
45.4140625,-32.2265625,-33.203125,-38.57421875,-40.0390625,-2.44140625,0.0
45.41796875,-44.921875,-27.34375,-34.66796875,-37.109375,15.13671875,0.0
45.421875,-54.6875,-37.109375,-31.25,-41.015625,-5.37109375,0.0
45.42578125,-57.12890625,-32.71484375,-37.59765625,-44.921875,0.0,0.0
45.4296875,-24.4140625,-32.2265625,-38.0859375,-36.1328125,16.11328125,0.0
45.43359375,-12.20703125,-35.64453125,-37.109375,-29.78515625,-38.0859375,0.0
45.4375,-43.9453125,-42.96875,-36.1328125,-32.2265625,-16.11328125,0.0
45.44140625,-63.4765625,-48.828125,-34.1796875,-26.85546875,21.484375,0.0
45.4453125,-67.3828125,-37.59765625,-24.90234375,-13.671875,28.3203125,0.0
45.44921875,-53.22265625,-27.34375,-18.5546875,-17.08984375,-5.37109375,0.0
45.453125,-29.296875,-34.66796875,-22.4609375,-20.99609375,38.57421875,0.0
45.45703125,-22.94921875,-42.96875,-22.94921875,-14.6484375,13.18359375,0.0
45.4609375,-42.96875,-60.05859375,-25.390625,-20.5078125,-108.3984375,0.0
45.46484375,-47.36328125,-55.17578125,-22.4609375,-23.4375,-88.8671875,0.0
45.46875,-20.99609375,-26.85546875,-20.5078125,-19.04296875,-8.7890625,0.0
45.47265625,-1.953125,-24.90234375,-20.99609375,-33.203125,0.0,0.0
45.4765625,-18.06640625,-29.78515625,-20.99609375,-34.66796875,-8.7890625,0.0
45.48046875,-37.59765625,-41.015625,-22.4609375,-25.390625,-2.44140625,0.0
45.484375,-36.62109375,-35.15625,-20.99609375,-23.4375,-8.30078125,0.0
45.48828125,-13.671875,-27.83203125,-19.53125,-25.390625,-8.30078125,0.0
45.4921875,-9.765625,-41.9921875,-19.04296875,-22.4609375,-34.1796875,0.0
45.49609375,-39.55078125,-45.8984375,-22.94921875,-19.04296875,-54.6875,0.0
45.5,-47.36328125,-41.50390625,-19.53125,-18.06640625,-75.1953125,0.0
45.50390625,-33.69140625,-39.0625,-13.671875,-17.578125,15.625,0.0
45.5078125,-27.34375,-35.15625,-24.90234375,-32.2265625,61.03515625,0.0
45.51171875,-20.01953125,-42.48046875,-25.87890625,-24.4140625,69.3359375,0.0
45.515625,-10.7421875,-47.36328125,-18.06640625,-20.99609375,109.375,0.0
45.51953125,-16.6015625,-42.96875,-13.671875,-31.25,28.3203125,0.0
45.5234375,-38.57421875,-49.8046875,-17.08984375,-30.76171875,-65.91796875,0.0
45.52734375,-33.69140625,-33.69140625,-24.4140625,-22.4609375,-48.828125,0.0
45.53125,-17.578125,-12.20703125,-20.5078125,-23.92578125,-24.4140625,0.0
45.53515625,-14.16015625,-30.2734375,-16.6015625,-33.69140625,-11.23046875,0.0
45.5390625,-22.4609375,-46.38671875,-9.27734375,-36.1328125,-52.734375,0.0
45.54296875,-45.41015625,-42.96875,-3.41796875,-30.2734375,20.01953125,0.0
45.546875,-44.921875,-39.55078125,-5.859375,-15.625,14.16015625,0.0
45.55078125,-17.08984375,-32.71484375,-10.7421875,-15.625,-67.87109375,0.0
45.5546875,-20.99609375,-25.390625,-17.578125,-20.99609375,53.7109375,0.0
45.55859375,-49.31640625,-42.48046875,-19.04296875,-15.13671875,34.66796875,0.0
45.5625,-54.6875,-53.22265625,-22.94921875,-15.13671875,-48.33984375,0.0
45.56640625,-34.66796875,-33.203125,-25.390625,-16.6015625,-56.640625,0.0
45.5703125,-2.9296875,-30.76171875,-25.87890625,-19.04296875,-77.63671875,0.0
45.57421875,-12.20703125,-33.69140625,-22.94921875,-27.34375,-51.7578125,0.0
45.578125,-41.50390625,-43.45703125,-19.04296875,-30.76171875,-30.76171875,0.0
45.58203125,-44.921875,-51.7578125,-25.87890625,-13.18359375,-7.32421875,0.0
45.5859375,-34.1796875,-29.78515625,-21.97265625,-3.41796875,23.4375,0.0
45.58984375,-18.06640625,-24.4140625,-15.625,-6.8359375,40.52734375,0.0
45.59375,-5.859375,-47.8515625,-26.3671875,-0.9765625,58.10546875,0.0
45.59765625,-21.484375,-68.359375,-27.34375,6.8359375,6.8359375,0.0
45.6015625,-44.921875,-56.15234375,-18.5546875,7.8125,-46.875,0.0
45.60546875,-33.203125,-50.29296875,-19.04296875,1.953125,-87.40234375,0.0
45.609375,-10.7421875,-58.10546875,-20.5078125,3.90625,-240.72265625,0.0
45.61328125,-12.6953125,-38.0859375,-19.04296875,0.9765625,-274.4140625,0.0
45.6171875,-27.34375,-28.3203125,-23.4375,-10.7421875,-206.54296875,0.0
45.62109375,-29.296875,-32.2265625,-30.2734375,-11.71875,-73.2421875,0.0
45.625,-19.04296875,-40.0390625,-35.15625,-8.7890625,0.9765625,0.0
45.62890625,-17.08984375,-49.8046875,-41.015625,-4.8828125,-34.66796875,0.0
45.6328125,-19.04296875,-45.41015625,-38.0859375,-12.20703125,13.18359375,0.0
45.63671875,-8.30078125,-31.25,-31.25,-16.6015625,14.16015625,0.0
45.640625,-14.6484375,-45.41015625,-37.59765625,-10.7421875,-38.57421875,0.0
45.64453125,-34.1796875,-64.453125,-36.62109375,-12.6953125,-81.54296875,0.0
45.6484375,-19.04296875,-54.19921875,-33.203125,-22.94921875,-87.40234375,0.0
45.65234375,0.9765625,-39.55078125,-31.25,-21.484375,5.859375,0.0
45.65625,-16.6015625,-41.50390625,-27.83203125,-20.5078125,0.48828125,0.0
45.66015625,-37.59765625,-51.7578125,-41.015625,-22.94921875,-44.921875,0.0
45.6640625,-43.9453125,-70.3125,-45.41015625,-22.94921875,-47.8515625,0.0
45.66796875,-31.25,-57.12890625,-35.15625,-26.3671875,-21.97265625,0.0
45.671875,-8.30078125,-33.203125,-33.69140625,-32.2265625,32.71484375,0.0
45.67578125,5.37109375,-38.0859375,-39.55078125,-32.2265625,39.55078125,0.0
45.6796875,-10.7421875,-50.29296875,-41.015625,-25.87890625,-2.9296875,0.0
45.68359375,-41.015625,-56.15234375,-39.55078125,-19.04296875,-39.0625,0.0
45.6875,-31.25,-49.8046875,-40.0390625,-32.2265625,25.87890625,0.0
45.69140625,1.46484375,-52.24609375,-45.8984375,-48.33984375,39.0625,0.0
45.6953125,5.37109375,-48.33984375,-45.8984375,-35.64453125,47.36328125,0.0
45.69921875,-17.08984375,-39.0625,-41.9921875,-29.78515625,74.70703125,0.0
45.703125,-34.1796875,-62.5,-56.640625,-39.0625,55.6640625,0.0
45.70703125,-40.0390625,-63.4765625,-59.5703125,-31.25,19.04296875,0.0
45.7109375,-28.80859375,-46.875,-51.26953125,-23.4375,-33.203125,0.0
45.71484375,-20.01953125,-35.15625,-54.19921875,-30.2734375,-64.94140625,0.0
45.71875,-38.57421875,-46.38671875,-61.03515625,-31.73828125,3.90625,0.0
45.72265625,-45.41015625,-70.3125,-52.24609375,-25.87890625,24.90234375,0.0
45.7265625,-21.484375,-68.359375,-37.59765625,-19.53125,-29.296875,0.0
45.73046875,-4.39453125,-44.43359375,-30.76171875,-18.5546875,6.8359375,0.0
45.734375,-14.16015625,-27.34375,-26.85546875,-21.97265625,30.76171875,0.0
45.73828125,-20.99609375,-35.64453125,-26.85546875,-12.20703125,-51.26953125,0.0
45.7421875,-0.9765625,-45.8984375,-25.87890625,4.39453125,-57.6171875,0.0
45.74609375,-1.46484375,-40.52734375,-18.5546875,2.9296875,33.69140625,0.0
45.75,-20.01953125,-38.0859375,-15.13671875,-1.46484375,-24.4140625,0.0
45.75390625,-17.578125,-47.36328125,-21.484375,0.9765625,-93.75,0.0
45.7578125,-25.87890625,-48.33984375,-30.76171875,-1.953125,-112.3046875,0.0
45.76171875,-30.76171875,-30.76171875,-31.73828125,-15.13671875,-131.34765625,0.0
45.765625,-27.34375,-32.2265625,-28.80859375,-30.2734375,-24.90234375,0.0
45.76953125,-9.765625,-47.36328125,-27.83203125,-31.73828125,-84.9609375,0.0
45.7734375,11.71875,-29.296875,-29.78515625,-22.94921875,-64.453125,0.0
45.77734375,-3.90625,-24.90234375,-32.71484375,-26.3671875,26.3671875,0.0
45.78125,-26.3671875,-58.59375,-34.66796875,-28.3203125,-50.29296875,0.0
45.78515625,-33.203125,-50.78125,-31.25,-11.71875,-7.8125,0.0
45.7890625,-28.80859375,-13.18359375,-33.69140625,-6.8359375,46.38671875,0.0
45.79296875,-14.16015625,-11.23046875,-49.8046875,-14.6484375,34.1796875,0.0
45.796875,-12.6953125,-30.2734375,-57.6171875,-31.25,45.41015625,0.0
45.80078125,-37.59765625,-28.3203125,-45.8984375,-33.69140625,39.55078125,0.0
45.8046875,-56.15234375,-38.0859375,-37.109375,-26.3671875,-37.109375,0.0
45.80859375,-43.45703125,-48.33984375,-42.96875,-27.34375,-63.96484375,0.0
45.8125,-17.08984375,-43.45703125,-46.38671875,-26.85546875,-68.359375,0.0
45.81640625,-28.80859375,-48.828125,-47.8515625,-46.38671875,-91.30859375,0.0
45.8203125,-42.96875,-34.1796875,-44.921875,-47.8515625,-79.1015625,0.0
45.82421875,-36.1328125,-21.97265625,-41.50390625,-31.25,-74.70703125,0.0
45.828125,-35.64453125,-35.15625,-43.9453125,-30.2734375,-83.0078125,0.0
45.83203125,-20.99609375,-44.43359375,-48.33984375,-25.87890625,-107.421875,0.0
45.8359375,-10.25390625,-46.38671875,-56.15234375,-23.4375,-55.6640625,0.0
45.83984375,-13.671875,-41.50390625,-60.546875,-22.4609375,-57.12890625,0.0
45.84375,-15.625,-34.1796875,-57.12890625,-15.13671875,-144.04296875,0.0
45.84765625,-11.71875,-37.59765625,-56.15234375,-16.11328125,-122.0703125,0.0
45.8515625,-1.46484375,-51.26953125,-56.640625,-28.3203125,-33.203125,0.0
45.85546875,-12.6953125,-52.24609375,-51.7578125,-40.0390625,24.4140625,0.0
45.859375,-18.5546875,-51.26953125,-52.24609375,-40.0390625,20.99609375,0.0
45.86328125,-25.87890625,-41.9921875,-49.31640625,-29.296875,-19.53125,0.0
45.8671875,-27.34375,-36.62109375,-38.0859375,-33.203125,-58.59375,0.0
45.87109375,-14.16015625,-27.34375,-35.64453125,-36.62109375,-41.015625,0.0
45.875,-21.484375,-21.97265625,-32.2265625,-27.83203125,76.66015625,0.0
45.87890625,-40.52734375,-40.0390625,-33.203125,-20.01953125,124.51171875,0.0
45.8828125,-35.15625,-36.62109375,-40.0390625,-23.92578125,82.03125,0.0
45.88671875,-18.5546875,-35.64453125,-38.57421875,-23.4375,85.44921875,0.0
45.890625,-6.8359375,-40.0390625,-36.62109375,-20.01953125,-0.48828125,0.0
45.89453125,-9.27734375,-31.73828125,-38.57421875,-24.90234375,-21.484375,0.0
45.8984375,-26.3671875,-47.8515625,-41.9921875,-30.76171875,-65.4296875,0.0
45.90234375,-39.0625,-46.38671875,-40.0390625,-25.390625,-129.39453125,0.0
45.90625,-12.6953125,-30.2734375,-41.015625,-17.578125,-56.15234375,0.0
45.91015625,4.8828125,-27.83203125,-43.9453125,-21.484375,-57.6171875,0.0
45.9140625,-10.25390625,-28.80859375,-48.33984375,-17.08984375,-144.53125,0.0
45.91796875,-32.71484375,-43.45703125,-47.36328125,-14.16015625,-122.55859375,0.0
45.921875,-37.59765625,-53.22265625,-41.015625,-3.41796875,-153.3203125,0.0
45.92578125,-29.296875,-44.43359375,-40.0390625,3.41796875,-192.87109375,0.0
45.9296875,-38.57421875,-33.203125,-45.41015625,-16.6015625,-96.19140625,0.0
45.93359375,-36.1328125,-26.3671875,-48.33984375,-34.1796875,-153.3203125,0.0
45.9375,-40.52734375,-45.41015625,-47.8515625,-31.25,-202.1484375,0.0
45.94140625,-50.78125,-50.29296875,-51.26953125,-25.87890625,-109.375,0.0
45.9453125,-45.41015625,-32.71484375,-48.828125,-38.0859375,-128.41796875,0.0
45.94921875,-25.390625,-23.92578125,-42.96875,-36.62109375,-118.1640625,0.0
45.953125,0.9765625,-33.69140625,-43.9453125,-23.92578125,25.390625,0.0
45.95703125,-2.44140625,-50.29296875,-43.45703125,-19.04296875,28.80859375,0.0
45.9609375,-22.94921875,-38.0859375,-42.96875,-21.97265625,10.25390625,0.0
45.96484375,-27.83203125,-32.71484375,-39.0625,-21.97265625,61.03515625,0.0
45.96875,-17.578125,-46.875,-40.0390625,-15.625,44.921875,0.0
45.97265625,-11.71875,-40.0390625,-44.43359375,-22.94921875,37.59765625,0.0
45.9765625,-29.296875,-34.66796875,-42.96875,-29.296875,49.31640625,0.0
45.98046875,-53.7109375,-51.7578125,-36.1328125,-27.34375,56.15234375,0.0
45.984375,-60.546875,-65.4296875,-33.203125,-21.97265625,33.203125,0.0
45.98828125,-38.0859375,-42.48046875,-31.73828125,-16.11328125,94.7265625,0.0
45.9921875,-22.94921875,-37.109375,-28.3203125,-16.6015625,151.3671875,0.0
45.99609375,-29.78515625,-40.0390625,-28.3203125,-19.04296875,120.1171875,0.0
46.0,-36.1328125,-35.15625,-26.3671875,-27.34375,87.40234375,0.0
46.00390625,-29.296875,-37.109375,-33.203125,-25.390625,79.1015625,0.0
46.0078125,-18.5546875,-25.87890625,-29.78515625,-17.578125,32.2265625,0.0
46.01171875,1.46484375,-19.53125,-20.99609375,-16.11328125,25.87890625,0.0
46.015625,11.71875,-38.0859375,-29.296875,-2.9296875,51.26953125,0.0
46.01953125,-4.8828125,-52.24609375,-32.71484375,-10.25390625,-25.87890625,0.0
46.0234375,-12.6953125,-52.24609375,-26.85546875,-16.6015625,-101.5625,0.0
46.02734375,-7.8125,-52.24609375,-20.5078125,-7.32421875,-33.69140625,0.0
46.03125,3.41796875,-48.33984375,-17.08984375,-9.27734375,18.5546875,0.0
46.03515625,-11.23046875,-50.29296875,-22.4609375,-19.53125,31.25,0.0
46.0390625,-44.921875,-55.17578125,-28.3203125,-28.3203125,21.484375,0.0
46.04296875,-50.78125,-40.0390625,-30.76171875,-35.15625,9.765625,0.0
46.046875,-16.11328125,-41.9921875,-29.78515625,-38.0859375,-29.296875,0.0
46.05078125,0.0,-52.734375,-30.2734375,-31.73828125,-116.2109375,0.0
46.0546875,7.8125,-48.33984375,-34.1796875,-20.5078125,-93.75,0.0
46.05859375,7.32421875,-56.15234375,-30.2734375,-17.578125,-45.8984375,0.0
46.0625,-14.6484375,-55.17578125,-27.34375,-25.87890625,-18.5546875,0.0
46.06640625,-9.27734375,-31.25,-25.87890625,-30.76171875,16.11328125,0.0
46.0703125,6.8359375,-24.4140625,-22.4609375,-18.06640625,-59.08203125,0.0
46.07421875,0.9765625,-35.64453125,-22.4609375,-21.484375,-8.30078125,0.0
46.078125,-19.53125,-41.9921875,-31.73828125,-35.64453125,52.24609375,0.0
46.08203125,-25.390625,-42.96875,-39.0625,-32.2265625,-46.38671875,0.0
46.0859375,-17.08984375,-51.26953125,-32.71484375,-21.484375,-92.28515625,0.0
46.08984375,-8.30078125,-43.9453125,-23.4375,-24.4140625,-24.90234375,0.0
46.09375,8.7890625,-13.671875,-23.92578125,-29.296875,36.1328125,0.0
46.09765625,-6.34765625,-20.99609375,-28.80859375,-26.85546875,5.859375,0.0
46.1015625,-40.52734375,-41.50390625,-36.62109375,-26.3671875,-57.12890625,0.0
46.10546875,-27.34375,-36.62109375,-37.109375,-18.5546875,-49.31640625,0.0
46.109375,-15.13671875,-41.50390625,-39.0625,-10.7421875,-20.01953125,0.0
46.11328125,-20.99609375,-36.62109375,-31.25,-6.8359375,29.296875,0.0
46.1171875,-41.015625,-27.34375,-36.62109375,-5.859375,1.953125,0.0
46.12109375,-63.96484375,-47.36328125,-45.41015625,-1.953125,-44.921875,0.0
46.125,-63.96484375,-42.96875,-39.55078125,4.8828125,-65.4296875,0.0
46.12890625,-48.33984375,-20.99609375,-35.64453125,3.90625,-111.81640625,0.0
46.1328125,-31.73828125,-14.16015625,-31.73828125,-8.30078125,-95.21484375,0.0
46.13671875,-41.015625,-22.94921875,-31.73828125,-23.92578125,-56.15234375,0.0
46.140625,-53.22265625,-41.9921875,-36.62109375,-28.80859375,-44.921875,0.0
46.14453125,-49.8046875,-51.26953125,-32.2265625,-28.3203125,-7.8125,0.0
46.1484375,-44.43359375,-47.8515625,-27.83203125,-28.3203125,8.30078125,0.0
46.15234375,-39.0625,-31.25,-32.71484375,-20.99609375,-79.58984375,0.0
46.15625,-53.22265625,-55.6640625,-39.55078125,-12.6953125,-71.77734375,0.0
46.16015625,-47.8515625,-77.1484375,-32.71484375,-6.34765625,-91.796875,0.0
46.1640625,-24.90234375,-51.7578125,-22.4609375,-14.16015625,-112.79296875,0.0
46.16796875,-32.71484375,-38.0859375,-31.73828125,-29.296875,-132.32421875,0.0
46.171875,-21.97265625,-23.92578125,-23.92578125,-30.2734375,-109.86328125,0.0
46.17578125,0.9765625,-23.4375,-22.94921875,-22.4609375,35.15625,0.0
46.1796875,-10.7421875,-40.0390625,-38.0859375,-15.13671875,17.578125,0.0
46.18359375,-18.5546875,-43.45703125,-36.62109375,-17.578125,15.625,0.0
46.1875,-12.20703125,-46.875,-30.76171875,-20.01953125,-24.90234375,0.0
46.19140625,-23.92578125,-47.8515625,-30.2734375,-23.4375,-89.84375,0.0
46.1953125,-33.203125,-58.59375,-28.80859375,-27.83203125,-115.234375,0.0
46.19921875,-39.0625,-58.10546875,-20.01953125,-24.4140625,-70.3125,0.0
46.203125,-47.8515625,-41.015625,-18.06640625,-26.3671875,-49.31640625,0.0
46.20703125,-23.4375,-34.1796875,-8.7890625,-14.6484375,-30.2734375,0.0
46.2109375,-4.8828125,-24.90234375,-6.8359375,-21.97265625,41.50390625,0.0
46.21484375,-19.53125,-16.6015625,-16.6015625,-40.0390625,25.87890625,0.0
46.21875,-34.66796875,-19.04296875,-21.97265625,-30.2734375,1.953125,0.0
46.22265625,-37.59765625,-36.62109375,-22.4609375,-29.296875,-54.19921875,0.0
46.2265625,-39.0625,-41.50390625,-22.4609375,-28.3203125,-73.73046875,0.0
46.23046875,-25.390625,-36.62109375,-24.90234375,-21.97265625,-54.6875,0.0
46.234375,-21.484375,-41.015625,-26.85546875,-25.390625,-131.34765625,0.0
46.23828125,-34.66796875,-39.55078125,-33.203125,-33.203125,-154.78515625,0.0
46.2421875,-29.296875,-27.83203125,-33.203125,-27.83203125,-136.23046875,0.0
46.24609375,-42.48046875,-22.94921875,-23.92578125,-25.87890625,-137.20703125,0.0
46.25,-41.50390625,-29.296875,-20.5078125,-32.2265625,-123.046875,0.0
46.25390625,-16.11328125,-21.97265625,-21.484375,-27.83203125,-95.703125,0.0
46.2578125,-21.484375,-23.4375,-30.2734375,-23.92578125,-22.4609375,0.0
46.26171875,-32.2265625,-49.31640625,-33.69140625,-21.484375,99.609375,0.0
46.265625,-25.87890625,-69.82421875,-30.2734375,-14.6484375,185.546875,0.0
46.26953125,-9.765625,-53.22265625,-36.1328125,-12.20703125,106.4453125,0.0
46.2734375,-4.39453125,-28.80859375,-40.0390625,-20.99609375,-85.9375,0.0
46.27734375,-7.8125,-13.671875,-41.015625,-15.625,-148.4375,0.0
46.28125,-10.7421875,-20.5078125,-33.203125,-12.20703125,-104.00390625,0.0
46.28515625,-3.90625,-31.73828125,-34.66796875,-16.11328125,-83.984375,0.0
46.2890625,1.953125,-26.85546875,-43.45703125,-14.16015625,-129.8828125,0.0
46.29296875,12.20703125,-21.97265625,-36.62109375,-13.18359375,-120.60546875,0.0
46.296875,14.6484375,-40.52734375,-33.69140625,-8.7890625,-86.42578125,0.0
46.30078125,-8.7890625,-54.6875,-39.0625,-15.625,-76.66015625,0.0
46.3046875,-31.73828125,-54.19921875,-41.015625,-27.83203125,-7.8125,0.0
46.30859375,-29.296875,-35.64453125,-39.0625,-31.73828125,42.96875,0.0
46.3125,-4.8828125,-30.2734375,-41.015625,-29.78515625,65.91796875,0.0
46.31640625,-4.39453125,-44.43359375,-42.96875,-41.015625,92.28515625,0.0
46.3203125,-36.1328125,-38.0859375,-40.0390625,-44.921875,139.6484375,0.0
46.32421875,-36.62109375,-28.3203125,-38.57421875,-34.1796875,27.34375,0.0
46.328125,-19.04296875,-24.90234375,-34.66796875,-27.83203125,-4.39453125,0.0
46.33203125,-21.97265625,-28.3203125,-29.78515625,-19.53125,26.3671875,0.0
46.3359375,-25.390625,-28.3203125,-31.73828125,-20.01953125,5.859375,0.0
46.33984375,-18.06640625,-40.52734375,-28.80859375,-12.20703125,22.94921875,0.0
46.34375,-31.25,-60.05859375,-24.90234375,-1.953125,-24.90234375,0.0
46.34765625,-37.59765625,-47.36328125,-33.69140625,-11.23046875,-20.5078125,0.0
46.3515625,-12.20703125,-31.73828125,-35.64453125,-20.5078125,-135.25390625,0.0
46.35546875,-10.7421875,-42.96875,-29.296875,-19.04296875,-305.6640625,0.0
46.359375,-24.4140625,-45.41015625,-32.2265625,-15.13671875,-280.76171875,0.0
46.36328125,-33.69140625,-27.34375,-37.59765625,-23.4375,-143.06640625,0.0
46.3671875,-31.73828125,-32.2265625,-37.59765625,-44.921875,-116.2109375,0.0
46.37109375,-20.01953125,-36.62109375,-45.8984375,-39.55078125,-110.83984375,0.0
46.375,-20.01953125,-41.015625,-53.7109375,-34.1796875,-83.984375,0.0
46.37890625,-39.0625,-43.45703125,-49.31640625,-34.66796875,26.3671875,0.0
46.3828125,-49.31640625,-34.66796875,-46.38671875,-19.53125,75.68359375,0.0
46.38671875,-31.73828125,-22.4609375,-39.55078125,-10.25390625,36.62109375,0.0
46.390625,9.765625,-18.5546875,-38.57421875,-12.20703125,16.11328125,0.0
46.39453125,7.8125,-36.1328125,-36.1328125,-15.13671875,-26.85546875,0.0
46.3984375,-15.13671875,-43.9453125,-38.57421875,-11.23046875,-29.78515625,0.0
46.40234375,-29.78515625,-29.296875,-48.33984375,-4.8828125,48.828125,0.0
46.40625,-42.48046875,-32.71484375,-44.43359375,-5.37109375,81.54296875,0.0
46.41015625,-25.390625,-51.26953125,-41.50390625,-17.08984375,79.58984375,0.0
46.4140625,-13.671875,-37.59765625,-45.41015625,-20.01953125,70.80078125,0.0
46.41796875,-31.73828125,-14.6484375,-42.96875,-26.85546875,26.3671875,0.0
46.421875,-50.78125,-24.4140625,-40.52734375,-29.78515625,20.5078125,0.0
46.42578125,-45.8984375,-41.50390625,-38.0859375,-10.25390625,18.06640625,0.0
46.4296875,-22.94921875,-26.3671875,-31.25,-7.32421875,14.6484375,0.0
46.43359375,-10.7421875,-23.4375,-29.296875,-4.8828125,7.8125,0.0
46.4375,-31.73828125,-41.015625,-36.1328125,-2.44140625,-12.20703125,0.0
46.44140625,-37.109375,-41.015625,-34.1796875,-14.16015625,-70.80078125,0.0
46.4453125,-31.73828125,-39.0625,-23.92578125,-20.01953125,-118.65234375,0.0
46.44921875,-21.484375,-25.87890625,-24.90234375,-24.90234375,-30.76171875,0.0
46.453125,-2.44140625,-28.3203125,-29.296875,-19.53125,-23.92578125,0.0
46.45703125,0.9765625,-34.66796875,-33.203125,-23.4375,-71.2890625,0.0
46.4609375,-31.25,-30.76171875,-35.15625,-32.2265625,-59.5703125,0.0
46.46484375,-45.8984375,-27.34375,-32.2265625,-27.34375,-38.57421875,0.0
46.46875,-30.2734375,-29.296875,-33.203125,-26.85546875,14.16015625,0.0
46.47265625,-2.44140625,-28.3203125,-32.2265625,-19.04296875,26.85546875,0.0
46.4765625,0.48828125,-25.87890625,-27.34375,-22.4609375,-20.01953125,0.0
46.48046875,-20.99609375,-27.34375,-28.80859375,-26.3671875,-36.1328125,0.0
46.484375,-36.62109375,-27.34375,-38.57421875,-20.99609375,14.6484375,0.0
46.48828125,-40.0390625,-30.2734375,-33.69140625,-20.99609375,15.13671875,0.0
46.4921875,-11.23046875,-24.90234375,-21.484375,-7.8125,-39.0625,0.0
46.49609375,-4.39453125,-29.78515625,-27.83203125,-11.71875,18.06640625,0.0
46.5,-25.87890625,-37.109375,-32.71484375,-29.296875,65.4296875,0.0
46.50390625,-36.1328125,-46.875,-21.484375,-26.3671875,-15.625,0.0
46.5078125,-30.2734375,-47.8515625,-11.71875,-18.5546875,-30.2734375,0.0
46.51171875,0.48828125,-41.015625,-9.27734375,-15.13671875,31.25,0.0
46.515625,-6.8359375,-33.203125,-16.11328125,-17.578125,8.7890625,0.0
46.51953125,-35.15625,-24.4140625,-23.92578125,-20.99609375,-26.3671875,0.0
46.5234375,-39.0625,-17.578125,-21.97265625,-15.13671875,-9.765625,0.0
46.52734375,-37.59765625,-28.80859375,-22.94921875,1.46484375,39.55078125,0.0
46.53125,-26.85546875,-43.9453125,-23.92578125,-1.953125,27.83203125,0.0
46.53515625,-30.76171875,-37.59765625,-18.5546875,-9.27734375,47.36328125,0.0
46.5390625,-56.640625,-34.1796875,-18.06640625,-11.23046875,17.578125,0.0
46.54296875,-68.359375,-44.921875,-23.92578125,-20.99609375,18.06640625,0.0
46.546875,-56.640625,-57.12890625,-31.73828125,-20.01953125,107.421875,0.0
46.55078125,-41.015625,-47.36328125,-20.99609375,-22.4609375,24.90234375,0.0
46.5546875,-45.41015625,-40.52734375,-9.765625,-26.85546875,-59.5703125,0.0
46.55859375,-66.40625,-27.34375,-14.6484375,-35.64453125,-10.7421875,0.0
46.5625,-73.73046875,-16.11328125,-14.6484375,-34.66796875,128.90625,0.0
46.56640625,-73.2421875,-28.3203125,-16.11328125,-22.94921875,98.14453125,0.0
46.5703125,-38.0859375,-29.78515625,-12.20703125,-23.92578125,-53.22265625,0.0
46.57421875,5.37109375,-22.4609375,-18.06640625,-18.06640625,-83.0078125,0.0
46.578125,-37.109375,-43.45703125,-27.83203125,-20.5078125,-26.85546875,0.0
46.58203125,-53.22265625,-50.29296875,-30.76171875,-28.80859375,-92.28515625,0.0
46.5859375,-21.97265625,-31.73828125,-40.52734375,-41.9921875,-192.3828125,0.0
46.58984375,-17.578125,-16.11328125,-46.875,-56.640625,-100.5859375,0.0
46.59375,-12.20703125,-17.08984375,-42.48046875,-55.17578125,-94.23828125,0.0
46.59765625,-13.671875,-17.578125,-41.50390625,-57.12890625,-110.83984375,0.0
46.6015625,-27.83203125,-22.4609375,-43.9453125,-58.10546875,-50.29296875,0.0
46.60546875,-30.2734375,-33.203125,-45.41015625,-54.6875,-68.84765625,0.0
46.609375,-17.578125,-32.2265625,-42.48046875,-44.43359375,-105.46875,0.0
46.61328125,-28.3203125,-38.0859375,-39.55078125,-38.0859375,-43.45703125,0.0
46.6171875,-56.640625,-34.66796875,-39.55078125,-44.921875,-32.2265625,0.0
46.62109375,-67.87109375,-37.59765625,-51.26953125,-42.48046875,-81.0546875,0.0
46.625,-68.84765625,-46.875,-50.78125,-30.2734375,-41.9921875,0.0
46.62890625,-33.69140625,-36.62109375,-34.1796875,-19.53125,-4.8828125,0.0
46.6328125,1.953125,-27.83203125,-23.92578125,-27.34375,-22.4609375,0.0
46.63671875,-16.6015625,-33.203125,-28.3203125,-35.64453125,-38.0859375,0.0
46.640625,-38.0859375,-34.66796875,-34.66796875,-24.90234375,-83.984375,0.0
46.64453125,-20.5078125,-18.5546875,-26.3671875,-17.578125,-21.97265625,0.0
46.6484375,-13.671875,-31.73828125,-26.85546875,-28.80859375,49.31640625,0.0
46.65234375,-15.13671875,-46.875,-33.203125,-36.62109375,58.59375,0.0
46.65625,-20.01953125,-33.69140625,-38.57421875,-36.1328125,-18.5546875,0.0
46.66015625,-35.64453125,-30.76171875,-43.9453125,-28.3203125,-43.9453125,0.0
46.6640625,-39.0625,-38.0859375,-46.38671875,-25.87890625,7.32421875,0.0
46.66796875,-25.390625,-38.57421875,-45.41015625,-22.94921875,7.32421875,0.0
46.671875,3.41796875,-19.04296875,-43.9453125,-9.765625,3.90625,0.0
46.67578125,0.0,-21.484375,-42.48046875,-5.859375,81.54296875,0.0
46.6796875,-28.3203125,-50.29296875,-41.015625,-20.5078125,18.5546875,0.0
46.68359375,-21.97265625,-48.33984375,-48.828125,-33.203125,-32.2265625,0.0
46.6875,-13.671875,-29.78515625,-53.22265625,-32.71484375,47.36328125,0.0
46.69140625,-21.97265625,-35.15625,-48.33984375,-38.0859375,77.63671875,0.0
46.6953125,-5.37109375,-49.8046875,-49.31640625,-42.48046875,63.4765625,0.0
46.69921875,-20.99609375,-38.57421875,-46.38671875,-33.69140625,90.8203125,0.0
46.703125,-42.48046875,-38.0859375,-37.109375,-25.87890625,72.265625,0.0
46.70703125,-28.80859375,-44.921875,-31.73828125,-32.71484375,27.83203125,0.0
46.7109375,-17.08984375,-42.48046875,-34.66796875,-40.52734375,-28.3203125,0.0
46.71484375,0.0,-19.04296875,-23.4375,-32.2265625,-55.6640625,0.0
46.71875,-11.23046875,-25.87890625,-17.08984375,-21.484375,-31.25,0.0
46.72265625,-39.0625,-40.52734375,-35.15625,-29.296875,22.94921875,0.0
46.7265625,-25.87890625,-24.90234375,-40.52734375,-27.83203125,52.734375,0.0
46.73046875,-7.32421875,-27.34375,-30.2734375,-15.625,-30.76171875,0.0
46.734375,-18.06640625,-44.921875,-34.66796875,-17.578125,-66.89453125,0.0
46.73828125,-26.85546875,-56.15234375,-41.015625,-20.5078125,-20.01953125,0.0
46.7421875,-22.4609375,-51.26953125,-39.55078125,-17.08984375,-47.36328125,0.0
46.74609375,-31.25,-35.64453125,-40.52734375,-15.625,-88.8671875,0.0
46.75,-24.4140625,-24.90234375,-30.76171875,-9.765625,-100.5859375,0.0
46.75390625,-9.27734375,-25.87890625,-27.34375,-0.9765625,-117.67578125,0.0
46.7578125,-29.296875,-41.9921875,-34.66796875,-13.18359375,-95.703125,0.0
46.76171875,-33.203125,-51.26953125,-35.15625,-11.71875,-85.44921875,0.0
46.765625,-28.80859375,-54.19921875,-30.76171875,3.41796875,-145.99609375,0.0
46.76953125,-32.71484375,-45.41015625,-30.76171875,-6.8359375,-168.9453125,0.0
46.7734375,-25.390625,-48.828125,-30.2734375,-15.625,-69.3359375,0.0
46.77734375,-26.3671875,-54.19921875,-25.390625,-7.32421875,-44.921875,0.0
46.78125,-30.76171875,-36.1328125,-21.484375,-10.25390625,3.90625,0.0
46.78515625,-28.80859375,-39.0625,-25.87890625,-12.20703125,56.15234375,0.0
46.7890625,1.953125,-38.0859375,-29.296875,-7.32421875,16.6015625,0.0
46.79296875,27.83203125,-18.06640625,-24.90234375,-20.99609375,-2.44140625,0.0
46.796875,-10.7421875,-30.2734375,-16.11328125,-24.90234375,-21.97265625,0.0
46.80078125,-43.9453125,-51.7578125,-23.4375,-22.4609375,-33.69140625,0.0
46.8046875,-37.59765625,-36.1328125,-31.73828125,-29.78515625,-92.28515625,0.0
46.80859375,-18.5546875,-34.1796875,-22.94921875,-27.34375,-115.72265625,0.0
46.8125,-18.06640625,-43.9453125,-16.6015625,-24.90234375,-50.78125,0.0
46.81640625,-40.0390625,-43.45703125,-19.53125,-17.578125,-5.859375,0.0
46.8203125,-49.8046875,-38.57421875,-22.4609375,-16.11328125,-52.734375,0.0
46.82421875,-39.55078125,-41.9921875,-11.23046875,-16.6015625,-81.0546875,0.0
46.828125,-23.92578125,-44.921875,-15.625,-17.578125,-71.2890625,0.0
46.83203125,-31.25,-45.8984375,-23.4375,-32.2265625,-100.5859375,0.0
46.8359375,-36.62109375,-52.734375,-27.34375,-42.96875,-81.54296875,0.0
46.83984375,-28.80859375,-51.7578125,-22.4609375,-38.0859375,10.25390625,0.0
46.84375,-28.80859375,-52.24609375,-20.99609375,-37.109375,13.18359375,0.0
46.84765625,-16.11328125,-34.66796875,-25.390625,-29.78515625,42.96875,0.0
46.8515625,-15.625,-20.99609375,-21.484375,-20.01953125,51.26953125,0.0
46.85546875,-39.55078125,-22.4609375,-23.92578125,-11.71875,-2.9296875,0.0
46.859375,-54.6875,-38.0859375,-26.85546875,-5.37109375,-52.24609375,0.0
46.86328125,-55.6640625,-38.57421875,-23.92578125,-1.46484375,-113.76953125,0.0
46.8671875,-41.9921875,-27.34375,-16.6015625,-4.8828125,-81.54296875,0.0
46.87109375,-44.921875,-42.96875,-22.4609375,-10.7421875,-20.01953125,0.0
46.875,-48.828125,-57.12890625,-40.52734375,-9.27734375,18.5546875,0.0
46.87890625,-49.8046875,-44.921875,-39.55078125,-10.25390625,35.64453125,0.0
46.8828125,-51.7578125,-44.43359375,-24.4140625,-4.8828125,11.23046875,0.0
46.88671875,-40.52734375,-43.45703125,-19.04296875,-2.44140625,-52.734375,0.0
46.890625,-38.57421875,-32.71484375,-26.85546875,-11.23046875,-78.125,0.0
46.89453125,-35.64453125,-30.76171875,-30.76171875,-12.6953125,-99.12109375,0.0
46.8984375,-19.53125,-25.390625,-34.1796875,-6.34765625,-192.3828125,0.0
46.90234375,-25.390625,-21.484375,-33.203125,-6.34765625,-125.0,0.0
46.90625,-27.34375,-23.92578125,-32.71484375,0.0,-11.23046875,0.0
46.91015625,-11.23046875,-27.83203125,-35.64453125,6.34765625,-84.47265625,0.0
46.9140625,-15.13671875,-24.90234375,-34.66796875,-3.41796875,-63.4765625,0.0
46.91796875,-22.4609375,-31.25,-45.41015625,-12.6953125,26.3671875,0.0
46.921875,-28.80859375,-28.80859375,-51.26953125,-13.18359375,82.03125,0.0
46.92578125,-33.203125,-27.34375,-45.8984375,-12.6953125,14.16015625,0.0
46.9296875,-14.16015625,-22.94921875,-37.59765625,-17.08984375,4.39453125,0.0
46.93359375,-9.765625,-20.5078125,-31.25,-19.53125,64.94140625,0.0
46.9375,-24.4140625,-34.66796875,-30.2734375,-16.11328125,23.92578125,0.0
46.94140625,-31.73828125,-40.0390625,-31.73828125,-13.671875,-1.953125,0.0
46.9453125,-38.0859375,-31.25,-29.78515625,-14.16015625,-66.40625,0.0
46.94921875,-34.1796875,-23.92578125,-32.2265625,-16.6015625,-48.828125,0.0
46.953125,-26.85546875,-22.4609375,-35.15625,-20.5078125,1.953125,0.0
46.95703125,-30.2734375,-26.3671875,-31.25,-23.92578125,-74.21875,0.0
46.9609375,-49.8046875,-36.62109375,-33.203125,-24.90234375,-49.8046875,0.0
46.96484375,-64.94140625,-33.203125,-31.73828125,-26.3671875,-14.16015625,0.0
46.96875,-67.3828125,-33.203125,-29.296875,-28.3203125,-104.00390625,0.0
46.97265625,-49.31640625,-24.4140625,-30.2734375,-33.69140625,-80.078125,0.0
46.9765625,-40.52734375,-26.85546875,-24.4140625,-29.78515625,-21.484375,0.0
46.98046875,-53.22265625,-57.6171875,-28.3203125,-31.73828125,-1.953125,0.0
46.984375,-63.4765625,-50.78125,-24.90234375,-28.3203125,-0.48828125,0.0
46.98828125,-57.6171875,-28.80859375,-17.578125,-17.08984375,-27.83203125,0.0
46.9921875,-48.33984375,-23.4375,-15.625,-20.99609375,-122.0703125,0.0
46.99609375,-36.62109375,-13.671875,-17.08984375,-26.3671875,-94.7265625,0.0
47.0,-21.97265625,-20.99609375,-23.4375,-17.08984375,-80.56640625,0.0
47.00390625,-20.5078125,-33.69140625,-24.4140625,-16.11328125,-111.328125,0.0
47.0078125,-24.4140625,-29.296875,-28.3203125,-30.76171875,-65.4296875,0.0
47.01171875,-1.46484375,-37.109375,-27.34375,-25.390625,-41.9921875,0.0
47.015625,-2.9296875,-51.7578125,-24.4140625,-17.578125,-31.25,0.0
47.01953125,-16.6015625,-40.52734375,-22.94921875,-31.73828125,-45.8984375,0.0
47.0234375,-22.4609375,-36.62109375,-20.01953125,-38.57421875,-110.3515625,0.0
47.02734375,-21.97265625,-32.2265625,-17.08984375,-33.69140625,-224.609375,0.0
47.03125,-11.71875,-20.01953125,-7.8125,-21.97265625,-164.0625,0.0
47.03515625,0.0,-37.109375,-6.8359375,-17.578125,-91.796875,0.0
47.0390625,-25.87890625,-78.125,-15.13671875,-23.92578125,-146.97265625,0.0
47.04296875,-49.8046875,-67.87109375,-16.6015625,-16.11328125,-88.37890625,0.0
47.046875,-27.83203125,-49.31640625,-15.13671875,-13.18359375,-32.2265625,0.0
47.05078125,-10.25390625,-46.38671875,-14.6484375,-27.83203125,4.8828125,0.0
47.0546875,-23.4375,-29.296875,-19.53125,-40.52734375,7.32421875,0.0
47.05859375,-21.484375,-21.97265625,-23.92578125,-32.71484375,25.87890625,0.0
47.0625,-5.37109375,-30.2734375,-24.4140625,-35.15625,-1.953125,0.0
47.06640625,-23.4375,-35.15625,-14.16015625,-36.1328125,-18.06640625,0.0
47.0703125,-16.11328125,-32.2265625,-10.7421875,-17.08984375,48.828125,0.0
47.07421875,11.23046875,-30.76171875,-15.625,-1.953125,20.01953125,0.0
47.078125,-7.8125,-41.50390625,-13.18359375,-12.6953125,25.87890625,0.0
47.08203125,-37.109375,-54.6875,-16.11328125,-15.625,24.4140625,0.0
47.0859375,-30.76171875,-52.24609375,-20.01953125,-6.34765625,40.52734375,0.0
47.08984375,-12.20703125,-31.73828125,-17.08984375,-17.578125,99.12109375,0.0
47.09375,-9.765625,-29.296875,-15.625,-12.6953125,-15.625,0.0
47.09765625,-20.01953125,-41.9921875,-19.53125,-11.23046875,-61.03515625,0.0
47.1015625,-34.1796875,-43.9453125,-23.4375,-30.2734375,-58.59375,0.0
47.10546875,-24.4140625,-44.43359375,-19.53125,-26.85546875,-126.46484375,0.0
47.109375,-9.27734375,-30.2734375,-16.11328125,-23.4375,-83.49609375,0.0
47.11328125,1.953125,-16.11328125,-18.06640625,-30.76171875,-16.11328125,0.0
47.1171875,3.41796875,-28.80859375,-25.390625,-31.25,-3.41796875,0.0
47.12109375,-34.1796875,-38.57421875,-35.15625,-22.94921875,-46.38671875,0.0
47.125,-23.92578125,-27.83203125,-24.90234375,-15.13671875,-79.58984375,0.0
47.12890625,8.7890625,-16.11328125,-24.4140625,-15.13671875,-48.828125,0.0
47.1328125,1.953125,-20.01953125,-36.62109375,-20.99609375,-81.0546875,0.0
47.13671875,10.25390625,-40.0390625,-27.83203125,-12.20703125,-20.01953125,0.0
47.140625,-11.23046875,-50.29296875,-28.80859375,-21.484375,31.73828125,0.0
47.14453125,-34.1796875,-44.43359375,-34.1796875,-35.15625,-12.20703125,0.0
47.1484375,-5.37109375,-43.45703125,-32.71484375,-23.92578125,13.671875,0.0
47.15234375,-1.46484375,-33.203125,-32.2265625,-12.20703125,58.59375,0.0
47.15625,-12.20703125,-46.38671875,-39.55078125,-12.20703125,29.78515625,0.0
47.16015625,-19.53125,-57.6171875,-47.36328125,-16.6015625,-96.6796875,0.0
47.1640625,-32.71484375,-41.015625,-47.8515625,-15.625,-92.28515625,0.0
47.16796875,-22.4609375,-34.1796875,-53.7109375,-14.16015625,-39.0625,0.0
47.171875,-10.7421875,-24.4140625,-49.31640625,-13.671875,-23.92578125,0.0
47.17578125,-9.27734375,-31.25,-45.41015625,-21.97265625,80.078125,0.0
47.1796875,-10.25390625,-46.875,-46.875,-32.2265625,88.37890625,0.0
47.18359375,-21.97265625,-47.8515625,-42.48046875,-27.83203125,47.8515625,0.0
47.1875,-15.625,-41.50390625,-44.921875,-21.97265625,122.0703125,0.0
47.19140625,0.48828125,-36.62109375,-47.8515625,-24.90234375,59.08203125,0.0
47.1953125,-2.44140625,-38.57421875,-32.71484375,-13.671875,-122.0703125,0.0
47.19921875,-13.18359375,-41.015625,-29.78515625,-15.13671875,-150.390625,0.0
47.203125,-19.53125,-45.41015625,-33.203125,-22.94921875,-70.80078125,0.0
47.20703125,-15.625,-41.50390625,-30.2734375,-13.671875,-41.50390625,0.0
47.2109375,-13.671875,-41.9921875,-32.2265625,-3.90625,24.4140625,0.0
47.21484375,-7.8125,-37.109375,-25.390625,-5.37109375,110.83984375,0.0
47.21875,-25.390625,-34.1796875,-28.3203125,-9.765625,109.375,0.0
47.22265625,-53.7109375,-48.33984375,-30.76171875,-10.7421875,28.80859375,0.0
47.2265625,-40.52734375,-45.8984375,-24.90234375,-8.30078125,-51.26953125,0.0
47.23046875,-17.578125,-36.1328125,-18.06640625,-1.953125,-13.18359375,0.0
47.234375,-11.23046875,-28.3203125,-27.83203125,-12.20703125,-10.7421875,0.0
47.23828125,-32.71484375,-32.71484375,-40.0390625,-20.5078125,-16.6015625,0.0
47.2421875,-27.34375,-46.38671875,-23.4375,-12.20703125,-19.04296875,0.0
47.24609375,2.9296875,-33.69140625,-11.71875,1.953125,-51.7578125,0.0
47.25,4.39453125,-27.34375,-24.90234375,6.8359375,-64.453125,0.0
47.25390625,10.25390625,-29.78515625,-27.34375,-7.32421875,14.6484375,0.0
47.2578125,-3.90625,-31.73828125,-29.78515625,-22.94921875,-11.71875,0.0
47.26171875,-35.15625,-48.828125,-33.203125,-25.390625,-102.5390625,0.0
47.265625,-35.64453125,-45.8984375,-24.90234375,-24.4140625,-87.890625,0.0
47.26953125,-0.48828125,-24.90234375,-20.5078125,-17.578125,-55.6640625,0.0
47.2734375,16.11328125,-8.30078125,-20.99609375,-8.7890625,-6.8359375,0.0
47.27734375,-7.32421875,-16.6015625,-15.13671875,-15.13671875,3.90625,0.0
47.28125,-23.92578125,-41.9921875,-12.6953125,-17.08984375,-37.59765625,0.0
47.28515625,-15.13671875,-49.8046875,-9.765625,-13.18359375,-134.27734375,0.0
47.2890625,-7.8125,-29.78515625,-11.71875,-21.484375,-151.3671875,0.0
47.29296875,-14.6484375,-17.08984375,-28.3203125,-21.484375,-80.56640625,0.0
47.296875,-26.3671875,-36.1328125,-29.78515625,-6.8359375,-52.734375,0.0
47.30078125,-22.4609375,-40.0390625,-26.85546875,-9.765625,-44.921875,0.0
47.3046875,-15.13671875,-30.76171875,-25.87890625,-20.99609375,-6.8359375,0.0
47.30859375,-20.01953125,-37.59765625,-26.3671875,-22.94921875,-6.34765625,0.0
47.3125,-14.6484375,-44.43359375,-28.3203125,-20.99609375,-14.6484375,0.0
47.31640625,-23.92578125,-49.31640625,-23.92578125,-15.625,-6.34765625,0.0
47.3203125,-38.57421875,-45.41015625,-27.83203125,-17.08984375,43.9453125,0.0
47.32421875,-41.9921875,-33.69140625,-28.80859375,-20.01953125,60.546875,0.0
47.328125,-13.671875,-32.71484375,-22.94921875,-15.625,-48.33984375,0.0
47.33203125,18.06640625,-33.203125,-16.6015625,-9.765625,-135.7421875,0.0
47.3359375,-12.20703125,-40.52734375,-20.01953125,-20.01953125,-113.76953125,0.0
47.33984375,-41.50390625,-41.9921875,-24.90234375,-25.87890625,28.3203125,0.0
47.34375,-37.109375,-41.9921875,-20.01953125,-25.390625,26.85546875,0.0
47.34765625,-9.765625,-34.1796875,-15.625,-19.53125,-28.80859375,0.0
47.3515625,28.80859375,-22.4609375,-12.6953125,-7.8125,31.73828125,0.0
47.35546875,24.4140625,-29.78515625,-12.6953125,-22.94921875,23.4375,0.0
47.359375,-5.859375,-38.57421875,-12.6953125,-19.53125,14.16015625,0.0
47.36328125,-15.13671875,-45.41015625,-14.16015625,-9.765625,3.90625,0.0
47.3671875,-0.48828125,-47.8515625,-14.16015625,-16.6015625,-45.8984375,0.0
47.37109375,12.6953125,-38.0859375,-21.97265625,-14.6484375,-79.1015625,0.0
47.375,1.46484375,-25.390625,-29.296875,-14.6484375,-87.40234375,0.0
47.37890625,-28.3203125,-28.80859375,-25.87890625,-20.99609375,-134.765625,0.0
47.3828125,-26.3671875,-44.43359375,-31.25,-21.97265625,-173.33984375,0.0
47.38671875,-12.6953125,-47.8515625,-28.80859375,-23.4375,-192.87109375,0.0
47.390625,-17.08984375,-26.3671875,-21.484375,-13.671875,-177.734375,0.0
47.39453125,-13.18359375,-28.3203125,-26.85546875,-21.97265625,-119.140625,0.0
47.3984375,-24.4140625,-46.875,-25.87890625,-30.2734375,-58.10546875,0.0
47.40234375,-47.36328125,-49.31640625,-23.92578125,-16.6015625,-40.52734375,0.0
47.40625,-44.43359375,-45.8984375,-29.78515625,-19.53125,-19.04296875,0.0
47.41015625,-21.97265625,-41.015625,-33.69140625,-10.25390625,3.90625,0.0
47.4140625,-31.73828125,-45.8984375,-36.62109375,-11.71875,6.34765625,0.0
47.41796875,-45.8984375,-52.24609375,-38.0859375,-33.69140625,34.66796875,0.0
47.421875,-49.8046875,-52.24609375,-31.73828125,-29.78515625,18.06640625,0.0
47.42578125,-54.6875,-47.36328125,-24.4140625,-30.2734375,-23.92578125,0.0
47.4296875,-41.9921875,-31.25,-22.94921875,-38.57421875,-21.484375,0.0
47.43359375,-28.3203125,-25.87890625,-25.87890625,-28.80859375,-31.25,0.0
47.4375,-47.8515625,-35.15625,-21.97265625,-27.83203125,-1.953125,0.0
47.44140625,-57.6171875,-60.05859375,-16.11328125,-32.2265625,-47.36328125,0.0
47.4453125,-49.31640625,-71.77734375,-23.92578125,-23.4375,-88.8671875,0.0
47.44921875,-52.24609375,-30.76171875,-24.4140625,-26.85546875,-16.6015625,0.0
47.453125,-40.52734375,-12.20703125,-19.53125,-28.80859375,-33.69140625,0.0
47.45703125,-24.4140625,-33.69140625,-28.3203125,-21.484375,-52.734375,0.0
47.4609375,-27.83203125,-40.0390625,-34.1796875,-21.484375,-23.4375,0.0
47.46484375,-23.4375,-28.80859375,-23.92578125,-10.7421875,-43.45703125,0.0
47.46875,-0.9765625,-31.73828125,-20.99609375,-4.8828125,-104.4921875,0.0
47.47265625,4.39453125,-40.52734375,-35.64453125,-23.4375,-33.69140625,0.0
47.4765625,-17.578125,-47.36328125,-38.0859375,-23.4375,9.765625,0.0
47.48046875,-37.109375,-47.8515625,-33.69140625,-17.578125,-17.578125,0.0
47.484375,-26.3671875,-46.875,-33.203125,-23.92578125,27.83203125,0.0
47.48828125,10.7421875,-47.8515625,-42.48046875,-21.484375,36.62109375,0.0
47.4921875,18.5546875,-36.1328125,-48.828125,-22.4609375,-4.8828125,0.0
47.49609375,4.39453125,-31.25,-49.31640625,-43.9453125,-12.20703125,0.0
47.5,-2.44140625,-35.64453125,-46.38671875,-48.33984375,30.76171875,0.0
47.50390625,4.39453125,-43.45703125,-46.38671875,-36.62109375,15.625,0.0
47.5078125,7.8125,-39.55078125,-45.41015625,-27.83203125,-38.0859375,0.0
47.51171875,-14.6484375,-33.69140625,-35.15625,-17.578125,18.06640625,0.0
47.515625,-24.90234375,-44.921875,-31.25,-7.32421875,36.62109375,0.0
47.51953125,-41.015625,-36.1328125,-33.203125,-19.04296875,-39.55078125,0.0
47.5234375,-62.98828125,-30.76171875,-34.1796875,-23.4375,-86.9140625,0.0
47.52734375,-45.41015625,-30.2734375,-28.80859375,-5.37109375,-105.46875,0.0
47.53125,-33.69140625,-19.53125,-30.76171875,-15.13671875,-46.38671875,0.0
47.53515625,-55.17578125,-23.92578125,-32.2265625,-27.34375,55.6640625,0.0
47.5390625,-62.5,-40.0390625,-27.34375,-28.80859375,-9.27734375,0.0
47.54296875,-62.5,-43.45703125,-33.69140625,-26.85546875,-109.86328125,0.0
47.546875,-53.22265625,-60.546875,-41.9921875,-20.99609375,-22.94921875,0.0
47.55078125,-33.69140625,-61.03515625,-43.9453125,-19.53125,39.55078125,0.0
47.5546875,-33.203125,-24.4140625,-39.0625,-19.53125,-17.08984375,0.0
47.55859375,-56.15234375,-17.578125,-31.73828125,-26.3671875,-64.94140625,0.0
47.5625,-76.66015625,-37.59765625,-39.55078125,-28.80859375,8.30078125,0.0
47.56640625,-55.17578125,-40.52734375,-43.45703125,-33.69140625,41.9921875,0.0
47.5703125,-34.66796875,-20.99609375,-31.73828125,-37.59765625,-6.34765625,0.0
47.57421875,-50.29296875,-14.6484375,-31.25,-45.41015625,92.7734375,0.0
47.578125,-67.3828125,-55.6640625,-38.0859375,-54.6875,67.87109375,0.0
47.58203125,-60.546875,-61.03515625,-31.25,-54.19921875,12.6953125,0.0
47.5859375,-48.828125,-41.50390625,-29.78515625,-36.62109375,-28.80859375,0.0
47.58984375,-44.43359375,-30.2734375,-30.76171875,-22.94921875,-55.6640625,0.0
47.59375,-35.64453125,-27.34375,-27.83203125,-27.34375,58.59375,0.0
47.59765625,-38.0859375,-38.57421875,-23.92578125,-26.3671875,40.52734375,0.0
47.6015625,-33.69140625,-38.57421875,-20.5078125,-21.484375,-92.28515625,0.0
47.60546875,-30.76171875,-30.76171875,-25.87890625,-22.94921875,-116.2109375,0.0
47.609375,-31.73828125,-32.71484375,-28.3203125,-31.73828125,-83.984375,0.0
47.61328125,-12.6953125,-28.80859375,-26.85546875,-26.3671875,-112.79296875,0.0
47.6171875,-36.62109375,-23.92578125,-26.85546875,-16.11328125,-87.40234375,0.0
47.62109375,-59.5703125,-37.109375,-27.34375,-24.4140625,4.8828125,0.0
47.625,-40.52734375,-33.203125,-24.90234375,-22.94921875,10.7421875,0.0
47.62890625,-25.87890625,-8.30078125,-27.83203125,-15.625,-38.57421875,0.0
47.6328125,-22.94921875,-15.625,-29.78515625,-22.94921875,-42.48046875,0.0
47.63671875,-14.6484375,-34.1796875,-23.4375,-34.1796875,27.34375,0.0
47.640625,-21.484375,-39.55078125,-20.5078125,-21.97265625,-29.296875,0.0
47.64453125,-34.1796875,-33.203125,-13.18359375,-9.765625,-88.8671875,0.0
47.6484375,-14.6484375,-19.53125,-7.8125,-15.625,-125.48828125,0.0
47.65234375,-15.13671875,-14.16015625,-9.765625,-18.5546875,-107.91015625,0.0
47.65625,-28.80859375,-37.109375,-9.765625,-33.203125,-17.08984375,0.0
47.66015625,-22.4609375,-42.96875,-10.25390625,-30.76171875,20.01953125,0.0
47.6640625,-20.99609375,-18.5546875,-15.13671875,-16.6015625,-1.953125,0.0
47.66796875,-20.5078125,-23.92578125,-22.94921875,-20.99609375,-18.06640625,0.0
47.671875,-11.23046875,-38.0859375,-20.99609375,-12.20703125,-10.7421875,0.0
47.67578125,-34.66796875,-37.109375,-14.6484375,-11.23046875,-14.16015625,0.0
47.6796875,-47.36328125,-33.203125,-13.671875,-17.578125,-65.4296875,0.0
47.68359375,-39.55078125,-32.2265625,-16.11328125,-15.13671875,-22.4609375,0.0
47.6875,-23.4375,-30.76171875,-11.71875,-15.13671875,-12.6953125,0.0
47.69140625,-15.13671875,-36.62109375,-11.23046875,-16.6015625,-15.625,0.0
47.6953125,-24.4140625,-30.2734375,-20.5078125,-20.99609375,-16.11328125,0.0
47.69921875,-39.55078125,-22.4609375,-27.83203125,-26.3671875,-70.80078125,0.0
47.703125,-37.109375,-37.59765625,-31.25,-24.4140625,-42.96875,0.0
47.70703125,-35.15625,-42.96875,-32.71484375,-21.97265625,-24.90234375,0.0
47.7109375,-31.73828125,-26.85546875,-39.55078125,-19.53125,-104.98046875,0.0
47.71484375,-39.0625,-25.87890625,-44.43359375,-25.87890625,-88.37890625,0.0
47.71875,-56.640625,-42.96875,-39.55078125,-36.62109375,-55.6640625,0.0
47.72265625,-44.43359375,-38.57421875,-26.85546875,-27.34375,-109.375,0.0
47.7265625,-20.5078125,-29.78515625,-27.83203125,-23.4375,-68.359375,0.0
47.73046875,-16.11328125,-43.45703125,-28.80859375,-32.71484375,-45.41015625,0.0
47.734375,-4.8828125,-48.828125,-22.4609375,-37.59765625,-80.56640625,0.0
47.73828125,-24.90234375,-30.76171875,-33.69140625,-49.8046875,-122.55859375,0.0
47.7421875,-53.7109375,-23.92578125,-37.59765625,-44.921875,-94.7265625,0.0
47.74609375,-33.203125,-18.5546875,-24.4140625,-30.2734375,-14.16015625,0.0
47.75,-7.32421875,-19.04296875,-19.04296875,-20.01953125,-67.3828125,0.0
47.75390625,10.25390625,-22.94921875,-20.5078125,-13.18359375,-138.671875,0.0
47.7578125,-1.46484375,-28.3203125,-18.06640625,-11.71875,-38.0859375,0.0
47.76171875,-30.76171875,-39.0625,-18.06640625,-9.27734375,39.55078125,0.0
47.765625,-12.6953125,-38.57421875,-20.01953125,-8.7890625,-9.765625,0.0
47.76953125,-4.8828125,-29.296875,-27.34375,-12.6953125,-24.90234375,0.0
47.7734375,-17.08984375,-22.4609375,-30.2734375,-24.4140625,-14.16015625,0.0
47.77734375,-9.27734375,-27.34375,-21.97265625,-30.76171875,-11.71875,0.0
47.78125,-35.15625,-54.19921875,-25.390625,-23.4375,-62.5,0.0
47.78515625,-25.87890625,-56.15234375,-38.0859375,-17.08984375,-73.73046875,0.0
47.7890625,15.625,-28.3203125,-35.15625,-7.8125,-26.3671875,0.0
47.79296875,-0.48828125,-31.25,-24.4140625,-10.25390625,-2.44140625,0.0
47.796875,-25.390625,-59.5703125,-20.5078125,-21.484375,7.8125,0.0
47.80078125,-32.71484375,-60.05859375,-24.90234375,-20.01953125,33.203125,0.0
47.8046875,-39.55078125,-35.15625,-25.390625,-19.04296875,28.3203125,0.0
47.80859375,-41.50390625,-19.53125,-19.53125,-20.5078125,-32.71484375,0.0
47.8125,-27.83203125,-26.85546875,-28.3203125,-20.99609375,-27.83203125,0.0
47.81640625,-20.99609375,-47.8515625,-34.66796875,-33.203125,-7.8125,0.0
47.8203125,-51.7578125,-51.7578125,-27.83203125,-39.0625,-24.90234375,0.0
47.82421875,-65.91796875,-37.59765625,-26.85546875,-29.296875,20.01953125,0.0
47.828125,-52.24609375,-35.15625,-31.25,-28.80859375,69.82421875,0.0
47.83203125,-33.203125,-57.6171875,-32.2265625,-37.109375,23.92578125,0.0
47.8359375,-28.3203125,-56.15234375,-36.1328125,-39.55078125,9.765625,0.0
47.83984375,-41.015625,-33.69140625,-30.76171875,-35.64453125,-1.953125,0.0
47.84375,-32.71484375,-32.2265625,-24.90234375,-34.1796875,-96.19140625,0.0
47.84765625,-39.0625,-41.9921875,-30.2734375,-41.015625,4.39453125,0.0
47.8515625,-48.828125,-41.50390625,-31.25,-46.875,56.640625,0.0
47.85546875,-40.52734375,-29.296875,-33.203125,-57.6171875,-45.41015625,0.0
47.859375,-46.38671875,-29.296875,-34.66796875,-56.640625,-43.45703125,0.0
47.86328125,-62.01171875,-31.25,-37.109375,-48.33984375,-118.1640625,0.0
47.8671875,-54.6875,-38.0859375,-30.76171875,-39.0625,-136.23046875,0.0
47.87109375,-25.87890625,-32.2265625,-29.78515625,-24.90234375,-122.0703125,0.0
47.875,-17.578125,-22.4609375,-36.1328125,-20.5078125,-145.99609375,0.0
47.87890625,-16.11328125,-26.3671875,-31.25,-26.3671875,-84.47265625,0.0
47.8828125,-29.78515625,-19.53125,-29.78515625,-27.83203125,-41.50390625,0.0
47.88671875,-31.25,-13.18359375,-32.71484375,-20.99609375,-98.14453125,0.0
47.890625,-26.3671875,-25.390625,-35.15625,-35.15625,-130.859375,0.0
47.89453125,-20.5078125,-28.80859375,-37.109375,-41.9921875,-8.30078125,0.0
47.8984375,-30.2734375,-31.25,-41.9921875,-29.296875,2.9296875,0.0
47.90234375,-39.55078125,-33.203125,-43.9453125,-22.4609375,-41.9921875,0.0
47.90625,-29.296875,-25.390625,-38.0859375,-12.20703125,76.66015625,0.0
47.91015625,-32.71484375,-27.83203125,-41.015625,-10.7421875,49.31640625,0.0
47.9140625,-26.3671875,-44.43359375,-47.8515625,-26.3671875,-168.9453125,0.0
47.91796875,-41.9921875,-45.41015625,-45.8984375,-27.83203125,-213.8671875,0.0
47.921875,-61.5234375,-42.96875,-49.31640625,-26.3671875,-155.76171875,0.0
47.92578125,-53.7109375,-43.45703125,-51.7578125,-26.85546875,-118.65234375,0.0
47.9296875,-32.2265625,-26.3671875,-54.19921875,-19.53125,-169.43359375,0.0
47.93359375,-11.23046875,-20.5078125,-53.22265625,-13.18359375,-147.4609375,0.0
47.9375,-17.578125,-38.0859375,-54.6875,-21.484375,-17.08984375,0.0
47.94140625,-21.484375,-48.33984375,-56.15234375,-19.04296875,-11.23046875,0.0
47.9453125,-20.5078125,-37.59765625,-49.31640625,-13.18359375,3.90625,0.0
47.94921875,-23.92578125,-34.66796875,-52.734375,-13.18359375,41.9921875,0.0
47.953125,-7.8125,-41.9921875,-59.08203125,-0.48828125,-1.953125,0.0
47.95703125,-18.06640625,-35.64453125,-57.12890625,-3.41796875,-10.7421875,0.0
47.9609375,-33.203125,-42.96875,-43.45703125,-11.23046875,-16.11328125,0.0
47.96484375,-13.18359375,-49.31640625,-40.52734375,-8.30078125,25.390625,0.0
47.96875,-0.48828125,-40.0390625,-50.29296875,-12.6953125,114.74609375,0.0
47.97265625,-14.16015625,-49.31640625,-45.41015625,-22.4609375,117.67578125,0.0
47.9765625,-20.99609375,-47.8515625,-44.921875,-24.4140625,35.64453125,0.0
47.98046875,-21.97265625,-32.2265625,-47.8515625,-31.25,-37.59765625,0.0
47.984375,-18.06640625,-30.76171875,-46.38671875,-35.64453125,29.78515625,0.0
47.98828125,-11.23046875,-24.90234375,-39.55078125,-33.203125,106.4453125,0.0
47.9921875,-4.8828125,-30.76171875,-33.203125,-26.85546875,10.25390625,0.0
47.99609375,-3.90625,-29.78515625,-35.15625,-17.08984375,-34.66796875,0.0
48.0,-32.2265625,-23.4375,-38.57421875,-21.97265625,9.27734375,0.0
48.00390625,-58.59375,-40.52734375,-35.64453125,-23.4375,11.23046875,0.0
48.0078125,-48.828125,-47.36328125,-35.15625,-15.625,16.11328125,0.0
48.01171875,-21.484375,-38.57421875,-29.78515625,-13.671875,60.05859375,0.0
48.015625,-19.53125,-41.9921875,-25.87890625,-21.484375,7.32421875,0.0
48.01953125,-37.109375,-47.8515625,-26.85546875,-26.3671875,-58.59375,0.0
48.0234375,-36.62109375,-41.015625,-27.34375,-15.625,-39.0625,0.0
48.02734375,-19.53125,-44.43359375,-20.99609375,-6.34765625,-45.8984375,0.0
48.03125,1.46484375,-56.640625,-18.5546875,-9.765625,-95.21484375,0.0
48.03515625,-4.39453125,-48.828125,-17.08984375,-13.671875,-57.6171875,0.0
48.0390625,-29.296875,-40.52734375,-23.92578125,-11.23046875,-32.2265625,0.0
48.04296875,-36.1328125,-55.6640625,-31.73828125,-9.27734375,-51.7578125,0.0
48.046875,-21.97265625,-56.640625,-40.52734375,-11.23046875,-24.90234375,0.0
48.05078125,0.9765625,-32.2265625,-43.45703125,-13.18359375,-0.9765625,0.0
48.0546875,-16.11328125,-28.3203125,-34.1796875,-13.18359375,-3.90625,0.0
48.05859375,-28.3203125,-31.73828125,-23.4375,-17.578125,-35.64453125,0.0
48.0625,-31.73828125,-47.36328125,-17.08984375,-24.4140625,-13.671875,0.0
48.06640625,-41.015625,-59.5703125,-16.11328125,-27.83203125,-44.43359375,0.0
48.0703125,-27.34375,-56.640625,-8.30078125,-28.3203125,-53.7109375,0.0
48.07421875,-23.4375,-45.41015625,-5.37109375,-24.90234375,13.671875,0.0
48.078125,-30.2734375,-53.7109375,-12.6953125,-20.99609375,-19.53125,0.0
48.08203125,-37.59765625,-50.29296875,-13.18359375,-18.5546875,-95.21484375,0.0
48.0859375,-15.625,-35.15625,-9.27734375,-20.99609375,-41.015625,0.0
48.08984375,-4.8828125,-42.96875,-13.671875,-33.203125,-14.16015625,0.0
48.09375,-19.04296875,-39.55078125,-21.97265625,-21.97265625,-47.36328125,0.0
48.09765625,-27.83203125,-39.0625,-24.4140625,-17.08984375,-28.80859375,0.0
48.1015625,-23.4375,-60.546875,-24.4140625,-30.2734375,-12.6953125,0.0
48.10546875,-15.625,-50.29296875,-16.6015625,-27.83203125,-54.19921875,0.0
48.109375,-22.4609375,-33.203125,-18.5546875,-20.99609375,-58.10546875,0.0
48.11328125,-1.953125,-31.73828125,-29.296875,-16.11328125,-81.54296875,0.0
48.1171875,-24.90234375,-28.80859375,-26.85546875,-20.99609375,-90.8203125,0.0
48.12109375,-54.19921875,-29.78515625,-30.2734375,-28.80859375,-15.625,0.0
48.125,-44.921875,-27.34375,-29.78515625,-28.3203125,-19.53125,0.0
48.12890625,-50.78125,-32.2265625,-18.5546875,-17.08984375,-89.84375,0.0
48.1328125,-25.390625,-39.55078125,-23.4375,-9.27734375,-78.61328125,0.0
48.13671875,-20.5078125,-34.1796875,-37.59765625,-15.13671875,-10.25390625,0.0
48.140625,-61.5234375,-29.296875,-42.48046875,-33.69140625,-49.31640625,0.0
48.14453125,-49.8046875,-21.97265625,-37.59765625,-28.80859375,-94.23828125,0.0
48.1484375,-34.1796875,-23.92578125,-31.73828125,-12.6953125,-60.05859375,0.0
48.15234375,-22.4609375,-28.80859375,-30.2734375,-17.08984375,0.9765625,0.0
48.15625,-23.4375,-34.1796875,-24.90234375,-15.625,13.18359375,0.0
48.16015625,-41.9921875,-38.57421875,-15.625,-10.25390625,31.73828125,0.0
48.1640625,-40.52734375,-33.69140625,-5.37109375,-10.25390625,17.578125,0.0
48.16796875,-20.01953125,-17.08984375,0.9765625,-4.39453125,-9.27734375,0.0
48.171875,-9.765625,-27.83203125,2.9296875,-7.32421875,-28.80859375,0.0
48.17578125,-29.296875,-40.52734375,-4.8828125,-18.06640625,-83.49609375,0.0
48.1796875,-39.55078125,-38.0859375,-18.5546875,-28.3203125,-62.5,0.0
48.18359375,-50.78125,-42.48046875,-16.6015625,-35.64453125,-57.12890625,0.0
48.1875,-52.734375,-26.85546875,-9.765625,-31.73828125,-18.5546875,0.0
48.19140625,-45.8984375,-23.92578125,-8.7890625,-35.15625,30.76171875,0.0
48.1953125,-53.7109375,-36.62109375,-14.6484375,-33.203125,94.23828125,0.0
48.19921875,-42.48046875,-33.69140625,-19.53125,-24.4140625,67.87109375,0.0
48.203125,-54.19921875,-29.296875,-18.06640625,-27.34375,-30.76171875,0.0
48.20703125,-63.4765625,-44.43359375,-20.99609375,-23.4375,-135.25390625,0.0
48.2109375,-35.15625,-47.8515625,-14.6484375,-17.08984375,-157.71484375,0.0
48.21484375,-19.53125,-40.0390625,-15.625,-20.99609375,-177.734375,0.0
48.21875,-32.2265625,-39.55078125,-30.2734375,-24.90234375,-209.9609375,0.0
48.22265625,-48.33984375,-45.41015625,-30.76171875,-29.296875,-119.62890625,0.0
48.2265625,-48.33984375,-53.7109375,-30.2734375,-23.92578125,-88.8671875,0.0
48.23046875,-49.8046875,-63.96484375,-32.2265625,-20.5078125,-127.9296875,0.0
48.234375,-48.828125,-48.33984375,-31.25,-24.90234375,-89.35546875,0.0
48.23828125,-46.38671875,-28.80859375,-30.76171875,-15.13671875,-25.390625,0.0
48.2421875,-64.453125,-33.203125,-31.25,-16.11328125,37.109375,0.0
48.24609375,-54.6875,-42.48046875,-32.2265625,-22.4609375,3.41796875,0.0
48.25,-26.3671875,-30.2734375,-29.296875,-17.08984375,29.296875,0.0
48.25390625,-25.390625,-23.4375,-29.296875,-19.53125,41.50390625,0.0
48.2578125,-33.69140625,-25.87890625,-31.73828125,-30.76171875,21.97265625,0.0
48.26171875,-32.2265625,-34.1796875,-24.90234375,-17.578125,54.19921875,0.0
48.265625,-30.2734375,-37.59765625,-18.5546875,-7.32421875,43.45703125,0.0
48.26953125,-25.390625,-28.80859375,-21.97265625,-16.11328125,32.2265625,0.0
48.2734375,-13.671875,-32.2265625,-22.4609375,-12.6953125,59.5703125,0.0
48.27734375,-16.11328125,-35.64453125,-21.97265625,-16.6015625,80.56640625,0.0
48.28125,-24.4140625,-33.69140625,-16.6015625,-24.90234375,80.56640625,0.0
48.28515625,-46.875,-37.109375,-19.53125,-37.109375,90.8203125,0.0
48.2890625,-63.96484375,-26.85546875,-20.99609375,-43.45703125,46.875,0.0
48.29296875,-48.828125,-15.13671875,-20.5078125,-34.66796875,-13.18359375,0.0
48.296875,-42.96875,-28.80859375,-24.90234375,-40.52734375,38.0859375,0.0
48.30078125,-51.7578125,-39.0625,-26.3671875,-39.55078125,20.99609375,0.0
48.3046875,-36.62109375,-28.3203125,-22.94921875,-22.94921875,7.8125,0.0
48.30859375,-21.484375,-15.625,-18.5546875,-21.484375,-4.39453125,0.0
48.3125,-18.5546875,-22.94921875,-26.3671875,-21.484375,-107.421875,0.0
48.31640625,-15.13671875,-35.64453125,-29.296875,-17.578125,-62.5,0.0
48.3203125,-28.80859375,-32.2265625,-29.78515625,-28.80859375,-15.625,0.0
