timestamp,TP9,AF7,AF8,TP10,AUX,Marker,
42.00390625,-28.80859375,-102.05078125,-43.45703125,-32.2265625,35.64453125,0.0
42.0078125,-23.4375,-112.3046875,-35.15625,-29.78515625,-36.1328125,0.0
42.01171875,-15.625,-118.65234375,-27.34375,-29.78515625,-2.44140625,0.0
42.015625,-27.83203125,-113.28125,-36.62109375,-29.78515625,21.484375,0.0
42.01953125,-22.94921875,-114.74609375,-35.64453125,-22.94921875,18.5546875,0.0
42.0234375,-11.23046875,-113.76953125,-29.296875,-15.625,30.2734375,0.0
42.02734375,-23.92578125,-105.95703125,-31.73828125,-13.18359375,-1.953125,0.0
42.03125,-24.90234375,-92.7734375,-33.203125,-19.04296875,-23.92578125,0.0
42.03515625,-12.6953125,-78.125,-31.73828125,-29.78515625,-0.9765625,0.0
42.0390625,-21.97265625,-84.47265625,-32.2265625,-30.76171875,74.21875,0.0
42.04296875,-26.85546875,-86.9140625,-29.78515625,-19.53125,81.54296875,0.0
42.046875,-17.08984375,-87.40234375,-27.34375,-22.4609375,20.01953125,0.0
42.05078125,-23.4375,-89.84375,-24.90234375,-29.296875,-64.453125,0.0
42.0546875,-35.64453125,-97.16796875,-31.73828125,-38.57421875,-70.80078125,0.0
42.05859375,-33.69140625,-103.02734375,-41.015625,-39.0625,19.53125,0.0
42.0625,-21.97265625,-94.23828125,-38.57421875,-33.203125,49.8046875,0.0
42.06640625,-30.2734375,-91.796875,-31.25,-23.92578125,19.53125,0.0
42.0703125,-23.92578125,-84.9609375,-19.53125,-16.6015625,-27.83203125,0.0
42.07421875,-10.7421875,-84.47265625,-20.5078125,-20.99609375,48.33984375,0.0
42.078125,-30.2734375,-93.75,-32.2265625,-35.64453125,30.76171875,0.0
42.08203125,-35.15625,-98.6328125,-38.57421875,-35.64453125,-24.4140625,0.0
42.0859375,-38.0859375,-106.4453125,-33.203125,-27.34375,-21.97265625,0.0
42.08984375,-40.52734375,-107.91015625,-25.87890625,-33.203125,-77.1484375,0.0
42.09375,-22.94921875,-102.05078125,-26.85546875,-39.55078125,-50.29296875,0.0
42.09765625,-20.5078125,-100.09765625,-30.76171875,-36.1328125,17.578125,0.0
42.1015625,-29.296875,-103.02734375,-35.64453125,-34.1796875,-57.6171875,0.0
42.10546875,-28.3203125,-100.09765625,-29.78515625,-32.71484375,-104.4921875,0.0
42.109375,-23.4375,-91.30859375,-24.4140625,-37.59765625,10.25390625,0.0
42.11328125,-20.99609375,-92.7734375,-25.390625,-42.48046875,58.59375,0.0
42.1171875,-29.78515625,-96.6796875,-26.3671875,-42.96875,-62.01171875,0.0
42.12109375,-38.57421875,-100.09765625,-35.15625,-40.0390625,-11.23046875,0.0
42.125,-32.2265625,-109.86328125,-36.1328125,-24.90234375,106.4453125,0.0
42.12890625,-20.99609375,-117.1875,-30.76171875,-20.99609375,154.296875,0.0
42.1328125,-21.484375,-119.140625,-32.71484375,-23.4375,125.9765625,0.0
42.13671875,-26.3671875,-118.1640625,-36.1328125,-29.78515625,39.55078125,0.0
42.140625,-26.3671875,-119.140625,-39.55078125,-42.96875,-1.46484375,0.0
42.14453125,-23.92578125,-125.48828125,-40.52734375,-44.921875,41.9921875,0.0
42.1484375,-26.85546875,-130.859375,-36.1328125,-41.50390625,60.546875,0.0
42.15234375,-15.13671875,-128.41796875,-32.71484375,-42.96875,0.9765625,0.0
42.15625,-6.34765625,-126.46484375,-33.69140625,-46.875,36.1328125,0.0
42.16015625,-25.390625,-124.51171875,-36.1328125,-38.57421875,34.1796875,0.0
42.1640625,-26.85546875,-127.9296875,-32.71484375,-35.64453125,20.5078125,0.0
42.16796875,-19.53125,-127.9296875,-27.34375,-37.59765625,28.3203125,0.0
42.171875,-20.99609375,-118.65234375,-32.71484375,-41.015625,1.953125,0.0
42.17578125,-16.6015625,-110.83984375,-37.59765625,-46.38671875,16.11328125,0.0
42.1796875,-15.13671875,-117.1875,-36.62109375,-40.0390625,-16.11328125,0.0
42.18359375,-17.08984375,-127.44140625,-34.66796875,-28.3203125,-15.625,0.0
42.1875,-19.53125,-126.46484375,-32.71484375,-27.34375,-0.9765625,0.0
42.19140625,-15.13671875,-124.0234375,-27.83203125,-27.83203125,-34.1796875,0.0
42.1953125,-8.30078125,-124.0234375,-33.203125,-24.90234375,-34.66796875,0.0
42.19921875,-18.06640625,-120.1171875,-41.50390625,-30.76171875,41.9921875,0.0
42.203125,-40.0390625,-116.2109375,-38.0859375,-39.0625,15.625,0.0
42.20703125,-21.484375,-110.3515625,-30.2734375,-32.71484375,-13.671875,0.0
42.2109375,-12.20703125,-115.234375,-27.34375,-33.69140625,128.41796875,0.0
42.21484375,-34.66796875,-119.62890625,-37.59765625,-41.015625,102.05078125,0.0
42.21875,-39.0625,-107.421875,-45.41015625,-40.52734375,-13.18359375,0.0
42.22265625,-44.921875,-99.609375,-47.36328125,-39.0625,-39.0625,0.0
42.2265625,-33.203125,-98.14453125,-46.38671875,-29.78515625,19.53125,0.0
42.23046875,-18.5546875,-97.16796875,-33.203125,-30.2734375,137.20703125,0.0
42.234375,-20.01953125,-91.796875,-24.4140625,-26.85546875,98.6328125,0.0
42.23828125,-11.23046875,-92.28515625,-33.69140625,-14.6484375,-4.39453125,0.0
42.2421875,-25.390625,-100.09765625,-39.0625,-22.94921875,-34.66796875,0.0
42.24609375,-39.0625,-102.05078125,-37.59765625,-36.1328125,-97.65625,0.0
42.25,-24.4140625,-97.16796875,-32.2265625,-30.76171875,-49.8046875,0.0
42.25390625,-19.53125,-100.09765625,-30.76171875,-24.4140625,49.8046875,0.0
42.2578125,-34.66796875,-103.515625,-31.25,-24.90234375,104.4921875,0.0
42.26171875,-36.1328125,-103.02734375,-32.2265625,-23.4375,115.234375,0.0
42.265625,-36.62109375,-107.91015625,-27.34375,-24.90234375,45.8984375,0.0
42.26953125,-32.2265625,-108.88671875,-17.578125,-26.85546875,2.44140625,0.0
42.2734375,-18.06640625,-106.4453125,-18.06640625,-29.78515625,41.015625,0.0
42.27734375,-26.3671875,-106.93359375,-24.90234375,-29.296875,20.99609375,0.0
42.28125,-34.66796875,-106.93359375,-30.76171875,-31.73828125,-60.546875,0.0
42.28515625,-29.78515625,-110.83984375,-29.296875,-40.52734375,-12.20703125,0.0
42.2890625,-24.4140625,-113.28125,-27.34375,-34.66796875,60.546875,0.0
42.29296875,-17.08984375,-109.375,-28.3203125,-36.1328125,47.36328125,0.0
42.296875,-18.5546875,-114.74609375,-32.71484375,-44.921875,29.78515625,0.0
42.30078125,-32.71484375,-128.41796875,-32.2265625,-41.9921875,-2.9296875,0.0
42.3046875,-43.45703125,-125.0,-29.296875,-39.0625,26.3671875,0.0
42.30859375,-34.66796875,-117.67578125,-28.3203125,-39.0625,123.046875,0.0
42.3125,-18.06640625,-122.0703125,-19.53125,-34.1796875,105.95703125,0.0
42.31640625,-23.92578125,-127.44140625,-34.1796875,-41.50390625,30.76171875,0.0
42.3203125,-39.0625,-130.37109375,-50.29296875,-46.875,-62.5,0.0
42.32421875,-47.36328125,-128.41796875,-38.57421875,-47.36328125,-90.33203125,0.0
42.328125,-33.69140625,-125.0,-31.73828125,-45.41015625,-35.15625,0.0
42.33203125,-31.25,-134.765625,-30.76171875,-36.62109375,-61.5234375,0.0
42.3359375,-30.76171875,-134.27734375,-26.85546875,-29.296875,-5.859375,0.0
42.33984375,-32.2265625,-136.23046875,-32.71484375,-42.48046875,20.99609375,0.0
42.34375,-41.015625,-146.97265625,-37.109375,-43.9453125,-9.27734375,0.0
42.34765625,-38.0859375,-141.6015625,-27.34375,-26.3671875,20.01953125,0.0
42.3515625,-31.25,-126.953125,-21.97265625,-19.53125,-34.1796875,0.0
42.35546875,-24.4140625,-118.1640625,-21.97265625,-15.625,-47.8515625,0.0
42.359375,-22.4609375,-116.2109375,-29.78515625,-23.4375,-57.12890625,0.0
42.36328125,-19.53125,-125.48828125,-34.66796875,-22.4609375,-108.3984375,0.0
42.3671875,-25.390625,-132.32421875,-24.4140625,-9.27734375,-114.74609375,0.0
42.37109375,-28.3203125,-119.140625,-18.06640625,-23.4375,-108.88671875,0.0
42.375,-25.87890625,-111.81640625,-27.34375,-41.50390625,-113.28125,0.0
42.37890625,-26.85546875,-114.74609375,-34.66796875,-26.85546875,-138.671875,0.0
42.3828125,-23.4375,-113.28125,-34.1796875,-15.625,-163.57421875,0.0
42.38671875,-26.3671875,-105.95703125,-27.34375,-19.04296875,-119.62890625,0.0
42.390625,-17.08984375,-97.16796875,-21.484375,-23.4375,-7.32421875,0.0
42.39453125,-16.6015625,-97.65625,-25.87890625,-31.25,20.01953125,0.0
42.3984375,-29.296875,-98.14453125,-28.3203125,-31.25,-35.64453125,0.0
42.40234375,-20.99609375,-104.00390625,-34.66796875,-36.1328125,-84.47265625,0.0
42.40625,-28.80859375,-111.328125,-31.25,-41.50390625,-97.65625,0.0
42.41015625,-29.78515625,-111.81640625,-19.53125,-29.296875,-83.49609375,0.0
42.4140625,-20.99609375,-107.91015625,-21.484375,-22.4609375,-118.1640625,0.0
42.41796875,-11.71875,-103.02734375,-34.66796875,-22.4609375,-154.296875,0.0
42.421875,-15.625,-100.5859375,-38.57421875,-25.87890625,-162.109375,0.0
42.42578125,-35.64453125,-103.515625,-31.25,-30.76171875,-194.3359375,0.0
42.4296875,-24.90234375,-108.88671875,-24.90234375,-26.85546875,-190.4296875,0.0
42.43359375,-10.7421875,-104.98046875,-20.01953125,-21.97265625,-128.90625,0.0
42.4375,-22.94921875,-94.23828125,-27.34375,-24.4140625,-128.41796875,0.0
42.44140625,-34.66796875,-99.12109375,-37.59765625,-32.71484375,-137.6953125,0.0
42.4453125,-33.203125,-106.4453125,-33.203125,-35.64453125,-66.40625,0.0
42.44921875,-36.1328125,-109.86328125,-28.80859375,-35.64453125,73.73046875,0.0
42.453125,-16.11328125,-108.3984375,-34.1796875,-30.76171875,81.0546875,0.0
42.45703125,-9.27734375,-104.98046875,-39.0625,-34.1796875,28.80859375,0.0
42.4609375,-10.25390625,-99.609375,-41.9921875,-28.80859375,41.9921875,0.0
42.46484375,-16.6015625,-96.19140625,-33.203125,-24.4140625,2.44140625,0.0
42.46875,-27.34375,-84.9609375,-23.92578125,-22.94921875,-21.97265625,0.0
42.47265625,-11.71875,-81.0546875,-27.83203125,-28.3203125,20.5078125,0.0
42.4765625,-14.6484375,-94.23828125,-32.71484375,-39.0625,90.33203125,0.0
42.48046875,-22.94921875,-100.09765625,-42.96875,-43.45703125,37.109375,0.0
42.484375,-32.2265625,-106.4453125,-39.55078125,-48.828125,-14.6484375,0.0
42.48828125,-30.2734375,-106.93359375,-27.34375,-33.69140625,113.76953125,0.0
42.4921875,-4.8828125,-113.28125,-25.390625,-21.97265625,148.4375,0.0
42.49609375,-7.8125,-125.0,-31.25,-28.3203125,90.8203125,0.0
42.5,-38.57421875,-122.0703125,-35.64453125,-32.71484375,21.484375,0.0
42.50390625,-38.0859375,-117.67578125,-37.109375,-29.296875,19.04296875,0.0
42.5078125,-23.92578125,-121.09375,-33.69140625,-28.3203125,9.27734375,0.0
42.51171875,-7.8125,-118.65234375,-28.3203125,-34.1796875,18.06640625,0.0
42.515625,2.9296875,-117.1875,-34.1796875,-33.69140625,33.203125,0.0
42.51953125,-11.23046875,-133.30078125,-41.50390625,-33.69140625,39.0625,0.0
42.5234375,-34.66796875,-140.625,-34.1796875,-33.203125,70.80078125,0.0
42.52734375,-27.83203125,-138.671875,-31.73828125,-27.83203125,52.24609375,0.0
42.53125,-10.7421875,-140.13671875,-30.2734375,-33.203125,17.08984375,0.0
42.53515625,-2.9296875,-125.48828125,-23.4375,-31.25,21.97265625,0.0
42.5390625,-11.71875,-114.74609375,-30.76171875,-32.71484375,6.34765625,0.0
42.54296875,-22.94921875,-122.0703125,-38.57421875,-39.0625,-41.015625,0.0
42.546875,-14.16015625,-141.6015625,-36.1328125,-32.71484375,6.34765625,0.0
42.55078125,10.7421875,-148.4375,-33.69140625,-28.3203125,8.30078125,0.0
42.5546875,-0.9765625,-111.328125,-38.57421875,-33.203125,6.34765625,0.0
42.55859375,-23.4375,-81.0546875,-45.8984375,-46.875,-44.921875,0.0
42.5625,-20.01953125,-80.56640625,-41.9921875,-43.9453125,-112.3046875,0.0
42.56640625,-19.04296875,-81.0546875,-31.73828125,-39.0625,-83.984375,0.0
42.5703125,-2.44140625,-79.58984375,-30.76171875,-43.9453125,-40.0390625,0.0
42.57421875,1.46484375,-83.984375,-37.109375,-45.41015625,14.16015625,0.0
42.578125,-21.97265625,-95.703125,-34.66796875,-42.48046875,112.3046875,0.0
42.58203125,-19.53125,-100.09765625,-32.2265625,-29.78515625,68.84765625,0.0
42.5859375,-10.7421875,-93.26171875,-29.296875,-22.4609375,-12.20703125,0.0
42.58984375,-13.18359375,-93.75,-25.390625,-24.4140625,-16.11328125,0.0
42.59375,-11.23046875,-101.5625,-33.203125,-32.71484375,-36.1328125,0.0
42.59765625,-11.23046875,-101.5625,-40.52734375,-36.1328125,9.27734375,0.0
42.6015625,-22.94921875,-98.14453125,-42.48046875,-34.1796875,26.3671875,0.0
42.60546875,-20.01953125,-100.5859375,-34.1796875,-33.203125,21.97265625,0.0
42.609375,-0.48828125,-102.5390625,-25.87890625,-25.390625,-9.27734375,0.0
42.61328125,10.7421875,-99.12109375,-23.4375,-11.71875,-35.64453125,0.0
42.6171875,-8.30078125,-104.98046875,-34.1796875,-16.11328125,47.36328125,0.0
42.62109375,-19.53125,-112.3046875,-44.921875,-33.69140625,33.69140625,0.0
42.625,-27.34375,-111.81640625,-39.55078125,-30.76171875,-75.68359375,0.0
42.62890625,-41.015625,-116.69921875,-36.62109375,-22.94921875,-40.0390625,0.0
42.6328125,-29.78515625,-109.86328125,-34.66796875,-24.4140625,38.0859375,0.0
42.63671875,-21.97265625,-104.00390625,-30.2734375,-31.73828125,30.76171875,0.0
42.640625,-26.85546875,-111.81640625,-33.203125,-32.2265625,-50.78125,0.0
42.64453125,-30.2734375,-112.3046875,-32.71484375,-23.92578125,3.41796875,0.0
42.6484375,-30.2734375,-109.86328125,-26.3671875,-20.99609375,105.46875,0.0
42.65234375,-22.94921875,-112.3046875,-28.80859375,-21.97265625,65.91796875,0.0
42.65625,-23.92578125,-109.86328125,-36.62109375,-31.73828125,27.34375,0.0
42.66015625,-37.109375,-112.79296875,-41.50390625,-43.45703125,7.32421875,0.0
42.6640625,-39.0625,-115.72265625,-37.59765625,-48.828125,-15.13671875,0.0
42.66796875,-38.0859375,-113.28125,-29.296875,-41.9921875,-6.8359375,0.0
42.671875,-36.62109375,-107.421875,-20.99609375,-38.0859375,-14.16015625,0.0
42.67578125,-30.2734375,-106.4453125,-20.5078125,-34.66796875,-35.64453125,0.0
42.6796875,-31.25,-110.83984375,-28.80859375,-22.4609375,-40.52734375,0.0
42.68359375,-40.0390625,-119.140625,-30.2734375,-26.85546875,-43.9453125,0.0
42.6875,-34.1796875,-125.9765625,-27.34375,-27.34375,-0.48828125,0.0
42.69140625,-17.08984375,-118.1640625,-24.90234375,-25.390625,30.76171875,0.0
42.6953125,-20.01953125,-120.60546875,-28.80859375,-38.0859375,-2.9296875,0.0
42.69921875,-34.1796875,-127.9296875,-30.76171875,-38.0859375,-65.91796875,0.0
42.703125,-36.62109375,-128.41796875,-31.73828125,-33.69140625,-74.21875,0.0
42.70703125,-36.1328125,-132.32421875,-29.78515625,-32.2265625,-24.4140625,0.0
42.7109375,-14.16015625,-134.27734375,-26.3671875,-32.71484375,14.6484375,0.0
42.71484375,-3.90625,-129.8828125,-31.25,-41.9921875,38.0859375,0.0
42.71875,-23.92578125,-123.046875,-36.1328125,-43.45703125,39.0625,0.0
42.72265625,-33.203125,-120.60546875,-37.109375,-37.59765625,57.12890625,0.0
42.7265625,-22.4609375,-117.1875,-31.25,-37.59765625,32.2265625,0.0
42.73046875,-12.20703125,-110.3515625,-26.85546875,-33.203125,-18.06640625,0.0
42.734375,-10.7421875,-113.28125,-35.15625,-24.4140625,-20.5078125,0.0
42.73828125,-11.71875,-117.1875,-43.45703125,-29.78515625,-9.765625,0.0
42.7421875,-14.6484375,-116.2109375,-42.96875,-31.25,-22.94921875,0.0
42.74609375,-20.99609375,-117.1875,-39.0625,-33.203125,-13.18359375,0.0
42.75,-21.97265625,-113.28125,-35.15625,-42.48046875,23.4375,0.0
42.75390625,-15.13671875,-119.62890625,-39.0625,-42.48046875,-20.01953125,0.0
42.7578125,-13.18359375,-127.44140625,-45.8984375,-41.9921875,-79.1015625,0.0
42.76171875,-23.4375,-116.69921875,-47.36328125,-33.69140625,-84.47265625,0.0
42.765625,-21.484375,-110.3515625,-38.0859375,-27.83203125,-75.68359375,0.0
42.76953125,-11.71875,-115.234375,-27.34375,-32.2265625,-81.54296875,0.0
42.7734375,-19.53125,-112.3046875,-25.87890625,-41.50390625,-59.5703125,0.0
42.77734375,-28.3203125,-108.88671875,-37.59765625,-44.43359375,-16.6015625,0.0
42.78125,-35.64453125,-111.81640625,-45.41015625,-39.55078125,48.33984375,0.0
42.78515625,-45.41015625,-114.2578125,-41.9921875,-42.48046875,81.54296875,0.0
42.7890625,-36.62109375,-115.72265625,-40.0390625,-43.9453125,33.203125,0.0
42.79296875,-38.0859375,-106.93359375,-34.66796875,-37.59765625,45.8984375,0.0
42.796875,-48.33984375,-102.5390625,-36.62109375,-34.66796875,59.08203125,0.0
42.80078125,-49.8046875,-104.4921875,-43.45703125,-45.41015625,14.6484375,0.0
42.8046875,-51.7578125,-108.3984375,-41.50390625,-41.50390625,13.671875,0.0
42.80859375,-47.36328125,-107.91015625,-32.2265625,-37.109375,42.48046875,0.0
42.8125,-45.41015625,-95.21484375,-32.2265625,-43.9453125,59.08203125,0.0
42.81640625,-44.43359375,-86.42578125,-44.43359375,-47.36328125,47.8515625,0.0
42.8203125,-41.50390625,-88.8671875,-44.921875,-46.38671875,26.85546875,0.0
42.82421875,-47.8515625,-104.00390625,-38.0859375,-41.50390625,-6.34765625,0.0
42.828125,-48.828125,-107.91015625,-32.71484375,-36.62109375,-11.71875,0.0
42.83203125,-36.62109375,-96.6796875,-31.25,-28.80859375,27.83203125,0.0
42.8359375,-26.3671875,-85.44921875,-38.0859375,-26.3671875,-2.9296875,0.0
42.83984375,-31.73828125,-86.42578125,-48.33984375,-39.0625,-70.80078125,0.0
42.84375,-39.0625,-92.7734375,-43.9453125,-45.41015625,-43.9453125,0.0
42.84765625,-35.64453125,-92.7734375,-33.203125,-40.52734375,66.40625,0.0
42.8515625,-25.87890625,-90.33203125,-38.0859375,-50.29296875,107.91015625,0.0
42.85546875,-14.6484375,-91.30859375,-41.9921875,-54.6875,104.4921875,0.0
42.859375,-17.08984375,-99.12109375,-41.015625,-45.8984375,46.38671875,0.0
42.86328125,-31.25,-107.91015625,-42.48046875,-45.41015625,31.73828125,0.0
42.8671875,-29.296875,-105.95703125,-28.80859375,-28.80859375,21.484375,0.0
42.87109375,-11.71875,-106.93359375,-26.85546875,-19.53125,-36.1328125,0.0
42.875,-16.11328125,-113.76953125,-34.66796875,-24.90234375,-62.5,0.0
42.87890625,-27.34375,-121.58203125,-37.59765625,-27.83203125,-116.69921875,0.0
42.8828125,-26.85546875,-131.34765625,-41.015625,-30.2734375,-170.8984375,0.0
42.88671875,-20.5078125,-128.90625,-36.62109375,-25.87890625,-109.86328125,0.0
42.890625,-17.578125,-120.1171875,-32.71484375,-20.01953125,-19.04296875,0.0
42.89453125,-15.625,-116.2109375,-36.62109375,-30.76171875,29.78515625,0.0
42.8984375,-23.92578125,-119.62890625,-38.57421875,-40.0390625,21.97265625,0.0
42.90234375,-41.50390625,-121.58203125,-40.0390625,-34.66796875,-18.06640625,0.0
42.90625,-26.3671875,-114.2578125,-35.15625,-27.34375,12.20703125,0.0
42.91015625,-20.5078125,-111.81640625,-23.92578125,-20.99609375,40.0390625,0.0
42.9140625,-24.90234375,-105.46875,-23.4375,-32.71484375,86.42578125,0.0
42.91796875,-22.94921875,-101.07421875,-29.78515625,-39.0625,41.015625,0.0
42.921875,-33.69140625,-107.91015625,-37.109375,-38.0859375,38.57421875,0.0
42.92578125,-34.1796875,-112.3046875,-40.52734375,-36.62109375,90.8203125,0.0
42.9296875,-22.94921875,-105.46875,-30.76171875,-26.3671875,81.54296875,0.0
42.93359375,-21.484375,-94.23828125,-29.296875,-24.90234375,28.80859375,0.0
42.9375,-22.94921875,-93.26171875,-37.109375,-30.2734375,-55.17578125,0.0
42.94140625,-28.80859375,-94.23828125,-37.109375,-22.4609375,-24.90234375,0.0
42.9453125,-31.73828125,-89.35546875,-31.25,-21.97265625,-44.921875,0.0
42.94921875,-18.5546875,-89.84375,-22.94921875,-23.4375,-96.6796875,0.0
42.953125,-14.6484375,-85.9375,-24.4140625,-27.83203125,-86.9140625,0.0
42.95703125,-18.5546875,-79.58984375,-33.69140625,-38.57421875,4.39453125,0.0
42.9609375,-25.87890625,-82.03125,-40.0390625,-34.66796875,5.859375,0.0
42.96484375,-27.34375,-88.37890625,-40.0390625,-29.296875,-14.6484375,0.0
42.96875,-11.23046875,-81.54296875,-27.83203125,-19.53125,68.359375,0.0
42.97265625,-5.37109375,-82.03125,-27.34375,-14.6484375,1.953125,0.0
42.9765625,-9.27734375,-92.28515625,-32.71484375,-21.484375,-19.53125,0.0
42.98046875,-9.27734375,-92.28515625,-32.2265625,-20.99609375,14.6484375,0.0
42.984375,-26.3671875,-89.84375,-30.2734375,-15.13671875,7.8125,0.0
42.98828125,-28.3203125,-90.8203125,-26.3671875,-23.4375,-16.11328125,0.0
42.9921875,-16.11328125,-88.8671875,-23.4375,-20.5078125,-15.13671875,0.0
42.99609375,-20.01953125,-93.75,-29.78515625,-24.4140625,51.26953125,0.0
43.0,-23.92578125,-106.4453125,-38.57421875,-41.9921875,16.11328125,0.0
43.00390625,-23.92578125,-115.234375,-35.15625,-39.55078125,-11.71875,0.0
43.0078125,-22.4609375,-119.140625,-29.78515625,-35.64453125,-49.8046875,0.0
43.01171875,-17.578125,-122.0703125,-28.80859375,-29.296875,-97.65625,0.0
43.015625,-15.625,-127.44140625,-28.80859375,-23.4375,-56.15234375,0.0
43.01953125,-22.94921875,-124.0234375,-32.2265625,-31.73828125,-4.39453125,0.0
43.0234375,-30.76171875,-117.67578125,-33.69140625,-35.15625,-7.8125,0.0
43.02734375,-20.5078125,-118.1640625,-29.296875,-32.2265625,-47.36328125,0.0
43.03125,-7.8125,-114.2578125,-24.4140625,-31.73828125,-34.66796875,0.0
43.03515625,-26.85546875,-113.76953125,-24.90234375,-36.1328125,-30.2734375,0.0
43.0390625,-35.15625,-119.140625,-34.1796875,-35.64453125,-45.41015625,0.0
43.04296875,-28.80859375,-113.76953125,-34.1796875,-30.76171875,-26.3671875,0.0
43.046875,-24.90234375,-103.02734375,-25.87890625,-24.4140625,-20.5078125,0.0
43.05078125,-15.625,-99.609375,-22.4609375,-10.25390625,13.671875,0.0
43.0546875,-14.16015625,-88.37890625,-21.484375,-13.671875,104.98046875,0.0
43.05859375,-25.87890625,-84.47265625,-26.3671875,-21.97265625,114.2578125,0.0
43.0625,-33.203125,-95.703125,-38.57421875,-23.92578125,19.53125,0.0
43.06640625,-34.1796875,-93.75,-39.0625,-25.390625,-17.08984375,0.0
43.0703125,-26.85546875,-89.35546875,-28.3203125,-22.4609375,1.46484375,0.0
43.07421875,-17.08984375,-91.30859375,-25.390625,-22.4609375,25.390625,0.0
43.078125,-21.97265625,-91.30859375,-31.73828125,-29.78515625,4.39453125,0.0
43.08203125,-22.94921875,-92.7734375,-38.0859375,-37.109375,-5.37109375,0.0
43.0859375,-20.99609375,-99.609375,-38.57421875,-39.55078125,0.48828125,0.0
43.08984375,-14.16015625,-100.09765625,-34.1796875,-33.69140625,-2.9296875,0.0
43.09375,-3.90625,-94.23828125,-27.83203125,-30.76171875,48.33984375,0.0
43.09765625,-2.44140625,-90.8203125,-36.1328125,-38.57421875,112.3046875,0.0
43.1015625,-19.04296875,-92.28515625,-45.41015625,-47.36328125,138.671875,0.0
43.10546875,-38.0859375,-94.7265625,-42.96875,-41.9921875,68.359375,0.0
43.109375,-31.73828125,-95.21484375,-36.1328125,-25.87890625,-81.0546875,0.0
43.11328125,-16.6015625,-88.37890625,-30.2734375,-22.4609375,-85.44921875,0.0
43.1171875,-13.671875,-90.8203125,-32.2265625,-27.83203125,-6.8359375,0.0
43.12109375,-28.3203125,-102.05078125,-38.57421875,-27.34375,-31.73828125,0.0
43.125,-37.109375,-107.91015625,-40.0390625,-23.92578125,-133.7890625,0.0
43.12890625,-30.76171875,-105.95703125,-31.73828125,-22.94921875,-64.94140625,0.0
43.1328125,-28.3203125,-95.703125,-27.83203125,-26.85546875,50.29296875,0.0
43.13671875,-33.203125,-92.7734375,-37.109375,-35.64453125,-7.32421875,0.0
43.140625,-39.55078125,-92.28515625,-45.41015625,-34.66796875,-138.18359375,0.0
43.14453125,-47.36328125,-93.75,-38.57421875,-33.203125,-132.32421875,0.0
43.1484375,-39.0625,-89.35546875,-29.78515625,-33.203125,44.921875,0.0
43.15234375,-25.87890625,-87.890625,-31.25,-31.73828125,148.92578125,0.0
43.15625,-35.15625,-97.16796875,-34.66796875,-29.296875,155.2734375,0.0
43.16015625,-47.36328125,-103.02734375,-37.109375,-26.85546875,127.9296875,0.0
43.1640625,-47.36328125,-109.86328125,-37.59765625,-35.15625,62.01171875,0.0
43.16796875,-35.64453125,-102.5390625,-30.76171875,-34.66796875,40.0390625,0.0
43.171875,-23.92578125,-89.84375,-26.3671875,-34.1796875,37.109375,0.0
43.17578125,-21.97265625,-86.42578125,-31.73828125,-44.43359375,75.1953125,0.0
43.1796875,-23.4375,-88.37890625,-35.15625,-39.0625,192.3828125,0.0
43.18359375,-30.76171875,-95.703125,-37.109375,-34.66796875,132.8125,0.0
43.1875,-41.015625,-102.5390625,-35.64453125,-29.78515625,20.99609375,0.0
43.19140625,-30.2734375,-97.16796875,-25.87890625,-26.85546875,18.06640625,0.0
43.1953125,-26.85546875,-83.0078125,-26.3671875,-31.73828125,13.18359375,0.0
43.19921875,-39.0625,-92.28515625,-39.55078125,-37.59765625,-68.359375,0.0
43.203125,-37.109375,-98.6328125,-43.45703125,-43.9453125,-111.81640625,0.0
43.20703125,-30.76171875,-91.30859375,-38.57421875,-39.0625,-67.87109375,0.0
43.2109375,-25.87890625,-85.9375,-28.3203125,-29.296875,-42.96875,0.0
43.21484375,-19.04296875,-84.9609375,-24.90234375,-26.3671875,-0.9765625,0.0
43.21875,-26.3671875,-87.40234375,-31.73828125,-28.80859375,38.0859375,0.0
43.22265625,-38.0859375,-87.40234375,-33.203125,-24.4140625,58.10546875,0.0
43.2265625,-31.73828125,-90.8203125,-28.3203125,-21.484375,21.97265625,0.0
43.23046875,-25.390625,-95.703125,-28.3203125,-19.04296875,27.83203125,0.0
43.234375,-18.06640625,-95.703125,-32.2265625,-15.13671875,59.08203125,0.0
43.23828125,-20.99609375,-97.65625,-39.55078125,-39.0625,21.97265625,0.0
43.2421875,-36.1328125,-98.6328125,-36.1328125,-41.9921875,20.5078125,0.0
43.24609375,-20.5078125,-100.5859375,-33.69140625,-14.16015625,-3.41796875,0.0
43.25,-5.859375,-102.05078125,-29.296875,0.48828125,-65.4296875,0.0
43.25390625,-14.16015625,-102.05078125,-25.87890625,-13.671875,-59.5703125,0.0
43.2578125,-21.484375,-99.609375,-30.76171875,-32.71484375,-94.7265625,0.0
43.26171875,-34.66796875,-90.8203125,-32.71484375,-30.2734375,-4.39453125,0.0
43.265625,-40.0390625,-91.796875,-31.25,-23.4375,183.59375,0.0
43.26953125,-27.83203125,-92.28515625,-23.4375,-20.01953125,147.4609375,0.0
43.2734375,-11.23046875,-83.49609375,-20.99609375,-24.4140625,41.9921875,0.0
43.27734375,-24.90234375,-84.47265625,-31.25,-35.15625,-38.0859375,0.0
43.28125,-36.62109375,-87.890625,-37.59765625,-34.66796875,-33.69140625,0.0
43.28515625,-33.203125,-82.51953125,-33.69140625,-26.85546875,-53.7109375,0.0
43.2890625,-30.2734375,-81.54296875,-30.76171875,-23.92578125,-132.8125,0.0
43.29296875,-8.30078125,-74.21875,-29.296875,-18.5546875,-117.67578125,0.0
43.296875,1.953125,-69.82421875,-33.203125,-21.97265625,-125.0,0.0
43.30078125,-19.53125,-78.125,-36.1328125,-27.83203125,-115.234375,0.0
43.3046875,-32.2265625,-79.58984375,-33.69140625,-19.53125,-98.14453125,0.0
43.30859375,-23.92578125,-79.1015625,-29.78515625,-15.625,-67.3828125,0.0
43.3125,-7.8125,-78.125,-24.90234375,-22.4609375,34.66796875,0.0
43.31640625,-5.859375,-71.2890625,-26.3671875,-26.85546875,51.7578125,0.0
43.3203125,-27.83203125,-78.125,-33.69140625,-26.3671875,-24.4140625,0.0
43.32421875,-30.2734375,-88.8671875,-33.203125,-20.99609375,6.8359375,0.0
43.328125,-8.30078125,-85.44921875,-28.3203125,-20.99609375,78.125,0.0
43.33203125,-5.37109375,-84.47265625,-30.76171875,-31.25,60.05859375,0.0
43.3359375,-15.13671875,-80.078125,-33.69140625,-38.57421875,-65.91796875,0.0
43.33984375,-27.34375,-76.66015625,-35.64453125,-37.109375,-75.68359375,0.0
43.34375,-37.109375,-83.984375,-37.109375,-42.48046875,-10.7421875,0.0
43.34765625,-35.64453125,-90.33203125,-34.1796875,-43.45703125,36.62109375,0.0
43.3515625,-23.4375,-88.37890625,-29.296875,-32.71484375,82.51953125,0.0
43.35546875,-6.34765625,-81.0546875,-28.3203125,-37.59765625,97.16796875,0.0
43.359375,-13.18359375,-78.61328125,-33.203125,-39.55078125,138.18359375,0.0
43.36328125,-29.296875,-90.33203125,-41.015625,-38.0859375,42.96875,0.0
43.3671875,-24.90234375,-98.14453125,-43.9453125,-30.2734375,-97.65625,0.0
43.37109375,-14.6484375,-90.8203125,-37.109375,-29.78515625,-126.953125,0.0
43.375,-13.18359375,-82.03125,-29.78515625,-33.69140625,-39.55078125,0.0
43.37890625,-21.97265625,-81.0546875,-35.15625,-31.73828125,27.34375,0.0
43.3828125,-31.25,-80.56640625,-36.62109375,-32.71484375,10.7421875,0.0
43.38671875,-22.94921875,-80.56640625,-32.2265625,-28.80859375,-24.90234375,0.0
43.390625,-20.01953125,-85.9375,-31.25,-27.34375,-47.8515625,0.0
43.39453125,-21.484375,-86.9140625,-29.78515625,-32.2265625,-68.359375,0.0
43.3984375,-20.5078125,-93.26171875,-35.64453125,-37.59765625,-29.78515625,0.0
43.40234375,-25.87890625,-95.21484375,-33.69140625,-31.73828125,-11.23046875,0.0
43.40625,-34.66796875,-92.28515625,-34.1796875,-23.92578125,-26.85546875,0.0
43.41015625,-34.1796875,-92.7734375,-31.25,-28.3203125,15.13671875,0.0
43.4140625,-24.90234375,-93.26171875,-27.83203125,-30.76171875,8.7890625,0.0
43.41796875,-26.3671875,-90.33203125,-36.62109375,-28.80859375,24.90234375,0.0
43.421875,-36.1328125,-87.40234375,-34.66796875,-23.92578125,59.08203125,0.0
43.42578125,-43.45703125,-94.7265625,-28.3203125,-22.4609375,-8.7890625,0.0
43.4296875,-38.0859375,-92.7734375,-27.83203125,-32.71484375,-16.11328125,0.0
43.43359375,-28.3203125,-87.890625,-30.76171875,-41.9921875,59.08203125,0.0
43.4375,-29.78515625,-93.75,-37.109375,-36.1328125,96.6796875,0.0
43.44140625,-39.0625,-103.515625,-38.0859375,-27.83203125,84.47265625,0.0
43.4453125,-32.2265625,-103.515625,-39.0625,-17.578125,67.3828125,0.0
43.44921875,-23.92578125,-90.8203125,-31.25,-16.11328125,41.9921875,0.0
43.453125,-21.97265625,-82.51953125,-21.484375,-15.13671875,96.19140625,0.0
43.45703125,-19.53125,-95.21484375,-33.69140625,-18.06640625,103.515625,0.0
43.4609375,-29.78515625,-101.5625,-38.57421875,-32.71484375,37.109375,0.0
43.46484375,-29.296875,-91.30859375,-31.25,-34.66796875,-2.9296875,0.0
43.46875,-16.6015625,-83.984375,-28.3203125,-32.2265625,-51.26953125,0.0
43.47265625,-13.671875,-78.125,-27.34375,-32.71484375,-51.26953125,0.0
43.4765625,-18.06640625,-74.21875,-25.390625,-30.76171875,-67.3828125,0.0
43.48046875,-22.94921875,-75.68359375,-27.83203125,-21.97265625,-2.44140625,0.0
43.484375,-30.76171875,-83.49609375,-34.1796875,-22.94921875,41.50390625,0.0
43.48828125,-37.109375,-89.84375,-36.1328125,-40.0390625,-21.97265625,0.0
43.4921875,-37.109375,-91.30859375,-35.64453125,-43.9453125,-61.5234375,0.0
43.49609375,-32.71484375,-86.9140625,-34.66796875,-40.0390625,63.4765625,0.0
43.5,-31.73828125,-79.1015625,-36.62109375,-40.0390625,145.5078125,0.0
43.50390625,-40.52734375,-83.49609375,-40.0390625,-38.0859375,59.5703125,0.0
43.5078125,-32.71484375,-83.984375,-37.109375,-38.0859375,-34.66796875,0.0
43.51171875,-32.2265625,-76.171875,-29.296875,-38.57421875,-17.08984375,0.0
43.515625,-30.76171875,-70.3125,-30.76171875,-46.875,58.59375,0.0
43.51953125,-28.3203125,-72.265625,-38.57421875,-42.96875,-39.0625,0.0
43.5234375,-36.1328125,-77.63671875,-38.0859375,-29.78515625,-160.64453125,0.0
43.52734375,-28.3203125,-78.125,-38.0859375,-40.52734375,-125.0,0.0
43.53125,-26.85546875,-83.984375,-44.921875,-41.9921875,-31.73828125,0.0
43.53515625,-43.9453125,-89.35546875,-43.45703125,-33.203125,-28.3203125,0.0
43.5390625,-38.57421875,-91.30859375,-35.15625,-36.1328125,-4.39453125,0.0
43.54296875,-22.4609375,-86.9140625,-27.83203125,-30.2734375,59.08203125,0.0
43.546875,-29.78515625,-86.42578125,-33.203125,-30.76171875,18.06640625,0.0
43.55078125,-44.921875,-97.16796875,-46.38671875,-43.9453125,-41.015625,0.0
43.5546875,-47.8515625,-92.7734375,-49.31640625,-42.48046875,-20.01953125,0.0
43.55859375,-31.25,-91.796875,-39.0625,-40.0390625,-86.42578125,0.0
43.5625,-28.80859375,-97.65625,-36.1328125,-44.921875,-157.2265625,0.0
43.56640625,-30.76171875,-90.33203125,-41.015625,-35.15625,-73.73046875,0.0
43.5703125,-31.25,-88.37890625,-40.0390625,-33.69140625,32.2265625,0.0
43.57421875,-41.50390625,-92.28515625,-39.55078125,-34.66796875,105.95703125,0.0
43.578125,-34.66796875,-93.26171875,-37.109375,-29.296875,20.01953125,0.0
43.58203125,-25.87890625,-99.12109375,-33.69140625,-32.71484375,-46.38671875,0.0
43.5859375,-16.6015625,-97.16796875,-35.64453125,-42.48046875,-70.80078125,0.0
43.58984375,-20.99609375,-93.75,-44.921875,-43.9453125,-125.0,0.0
43.59375,-47.36328125,-97.16796875,-48.828125,-39.55078125,-98.14453125,0.0
43.59765625,-37.59765625,-94.7265625,-41.9921875,-32.2265625,-3.41796875,0.0
43.6015625,-19.04296875,-87.40234375,-33.203125,-20.99609375,86.9140625,0.0
43.60546875,-21.484375,-92.7734375,-35.15625,-21.484375,3.41796875,0.0
43.609375,-27.34375,-99.609375,-42.96875,-22.94921875,-47.36328125,0.0
43.61328125,-33.69140625,-104.98046875,-40.52734375,-17.08984375,-48.33984375,0.0
43.6171875,-34.1796875,-102.05078125,-39.55078125,-23.92578125,-99.609375,0.0
43.62109375,-33.203125,-92.7734375,-38.0859375,-27.83203125,-71.77734375,0.0
43.625,-25.87890625,-97.16796875,-36.1328125,-30.2734375,12.6953125,0.0
43.62890625,-27.83203125,-100.5859375,-34.66796875,-31.25,80.078125,0.0
43.6328125,-38.0859375,-100.09765625,-36.62109375,-33.69140625,88.37890625,0.0
43.63671875,-31.25,-103.02734375,-34.1796875,-34.1796875,83.0078125,0.0
43.640625,-24.90234375,-101.5625,-25.87890625,-18.06640625,71.2890625,0.0
43.64453125,-22.94921875,-95.21484375,-21.484375,-18.5546875,97.16796875,0.0
43.6484375,-20.99609375,-91.30859375,-24.4140625,-28.80859375,99.12109375,0.0
43.65234375,-24.90234375,-88.8671875,-31.73828125,-25.87890625,65.4296875,0.0
43.65625,-32.71484375,-95.21484375,-33.69140625,-30.2734375,91.796875,0.0
43.66015625,-39.0625,-98.6328125,-24.90234375,-32.2265625,94.7265625,0.0
43.6640625,-26.85546875,-85.44921875,-18.06640625,-30.76171875,52.24609375,0.0
43.66796875,-10.7421875,-85.44921875,-28.80859375,-38.57421875,-4.39453125,0.0
43.671875,-29.78515625,-104.98046875,-34.66796875,-40.0390625,-50.78125,0.0
43.67578125,-41.50390625,-105.46875,-30.76171875,-34.1796875,-4.39453125,0.0
43.6796875,-26.3671875,-94.23828125,-29.296875,-34.1796875,53.7109375,0.0
43.68359375,-21.484375,-92.28515625,-27.34375,-33.69140625,53.7109375,0.0
43.6875,-22.94921875,-88.8671875,-29.78515625,-38.57421875,56.640625,0.0
43.69140625,-29.296875,-86.9140625,-36.1328125,-47.8515625,61.5234375,0.0
43.6953125,-34.66796875,-87.890625,-33.69140625,-39.55078125,46.38671875,0.0
43.69921875,-32.2265625,-91.796875,-28.80859375,-28.3203125,43.45703125,0.0
43.703125,-18.5546875,-95.21484375,-28.3203125,-26.85546875,47.8515625,0.0
43.70703125,-18.06640625,-92.28515625,-25.390625,-28.3203125,0.0,0.0
43.7109375,-27.34375,-90.33203125,-29.78515625,-26.3671875,-40.52734375,0.0
43.71484375,-24.90234375,-95.703125,-36.1328125,-28.80859375,-10.25390625,0.0
43.71875,-27.34375,-104.4921875,-33.69140625,-31.25,-16.6015625,0.0
43.72265625,-27.83203125,-102.05078125,-35.15625,-32.71484375,-23.92578125,0.0
43.7265625,-9.765625,-100.09765625,-38.0859375,-37.59765625,19.04296875,0.0
43.73046875,-18.5546875,-103.02734375,-38.0859375,-31.25,-6.34765625,0.0
43.734375,-40.52734375,-105.95703125,-42.48046875,-33.69140625,-19.53125,0.0
43.73828125,-33.69140625,-103.02734375,-40.52734375,-42.48046875,2.44140625,0.0
43.7421875,-23.92578125,-103.02734375,-38.0859375,-46.875,-20.01953125,0.0
43.74609375,-15.625,-98.14453125,-39.0625,-41.9921875,-1.46484375,0.0
43.75,-20.99609375,-99.609375,-41.015625,-31.73828125,0.48828125,0.0
43.75390625,-29.78515625,-106.4453125,-41.9921875,-40.0390625,-46.875,0.0
43.7578125,-35.64453125,-101.5625,-34.66796875,-49.8046875,-80.56640625,0.0
43.76171875,-34.66796875,-106.4453125,-34.1796875,-44.921875,-117.1875,0.0
43.765625,-16.11328125,-106.4453125,-35.64453125,-39.0625,-34.66796875,0.0
43.76953125,-8.7890625,-96.6796875,-36.1328125,-37.109375,-27.34375,0.0
43.7734375,-25.87890625,-101.5625,-40.52734375,-36.1328125,-119.62890625,0.0
43.77734375,-24.90234375,-107.91015625,-39.55078125,-22.4609375,-62.98828125,0.0
43.78125,-6.34765625,-101.5625,-29.296875,-5.859375,23.4375,0.0
43.78515625,-11.23046875,-92.7734375,-26.85546875,-11.71875,57.12890625,0.0
43.7890625,-24.90234375,-93.75,-35.15625,-24.90234375,55.6640625,0.0
43.79296875,-29.78515625,-98.6328125,-34.1796875,-20.01953125,32.2265625,0.0
43.796875,-24.90234375,-101.07421875,-28.80859375,-11.71875,30.76171875,0.0
43.80078125,-18.5546875,-99.609375,-29.296875,-12.20703125,46.38671875,0.0
43.8046875,-20.99609375,-92.7734375,-33.69140625,-22.94921875,23.92578125,0.0
43.80859375,-32.71484375,-95.703125,-37.59765625,-35.64453125,1.953125,0.0
43.8125,-32.71484375,-106.4453125,-42.96875,-39.55078125,-22.94921875,0.0
43.81640625,-24.90234375,-102.5390625,-34.66796875,-31.73828125,-0.9765625,0.0
43.8203125,-18.5546875,-99.12109375,-24.90234375,-22.4609375,-50.29296875,0.0
43.82421875,-1.953125,-89.84375,-21.97265625,-23.92578125,-15.625,0.0
43.828125,-4.8828125,-87.40234375,-36.1328125,-32.2265625,42.48046875,0.0
43.83203125,-24.4140625,-89.84375,-40.52734375,-39.55078125,42.48046875,0.0
43.8359375,-27.83203125,-81.54296875,-33.69140625,-40.0390625,12.20703125,0.0
43.83984375,-20.01953125,-82.03125,-26.3671875,-25.87890625,-34.66796875,0.0
43.84375,-15.625,-81.0546875,-22.94921875,-20.5078125,17.578125,0.0
43.84765625,-21.97265625,-78.125,-28.3203125,-29.78515625,3.41796875,0.0
43.8515625,-27.34375,-79.58984375,-35.64453125,-40.52734375,46.875,0.0
43.85546875,-31.73828125,-84.9609375,-32.71484375,-40.0390625,135.25390625,0.0
43.859375,-19.53125,-94.23828125,-22.94921875,-24.90234375,109.86328125,0.0
43.86328125,-7.32421875,-92.28515625,-22.94921875,-22.94921875,75.1953125,0.0
43.8671875,-22.4609375,-86.9140625,-28.3203125,-34.66796875,87.40234375,0.0
43.87109375,-31.25,-89.84375,-35.15625,-37.109375,38.57421875,0.0
43.875,-32.2265625,-95.703125,-37.109375,-36.1328125,-44.921875,0.0
43.87890625,-36.1328125,-96.6796875,-30.76171875,-30.76171875,-7.8125,0.0
43.8828125,-28.3203125,-94.23828125,-25.87890625,-23.92578125,-5.859375,0.0
43.88671875,-25.390625,-89.84375,-33.203125,-29.78515625,-36.62109375,0.0
43.890625,-29.296875,-90.33203125,-39.0625,-31.25,-26.85546875,0.0
43.89453125,-32.2265625,-87.890625,-34.66796875,-29.296875,11.71875,0.0
43.8984375,-27.83203125,-81.54296875,-25.390625,-25.390625,2.44140625,0.0
43.90234375,-17.578125,-77.1484375,-21.97265625,-27.34375,7.8125,0.0
43.90625,-19.53125,-77.63671875,-26.85546875,-34.66796875,57.12890625,0.0
43.91015625,-18.5546875,-81.0546875,-35.15625,-37.59765625,11.71875,0.0
43.9140625,-15.625,-92.28515625,-38.57421875,-34.1796875,-71.77734375,0.0
43.91796875,-22.94921875,-89.35546875,-30.2734375,-27.34375,-61.03515625,0.0
43.921875,-20.5078125,-79.1015625,-20.5078125,-16.6015625,-28.80859375,0.0
43.92578125,-11.23046875,-78.61328125,-17.578125,-17.08984375,-19.53125,0.0
43.9296875,-18.06640625,-77.63671875,-29.78515625,-27.83203125,-4.8828125,0.0
43.93359375,-32.71484375,-81.0546875,-34.1796875,-26.3671875,-9.27734375,0.0
43.9375,-40.52734375,-89.35546875,-30.76171875,-18.06640625,-35.15625,0.0
43.94140625,-34.66796875,-86.42578125,-34.1796875,-25.87890625,-60.05859375,0.0
43.9453125,-29.78515625,-73.73046875,-30.2734375,-36.62109375,-36.62109375,0.0
43.94921875,-42.48046875,-71.77734375,-36.1328125,-37.59765625,-29.296875,0.0
43.953125,-43.45703125,-86.42578125,-43.45703125,-35.64453125,-53.22265625,0.0
43.95703125,-35.64453125,-94.7265625,-37.109375,-36.1328125,-26.3671875,0.0
43.9609375,-33.69140625,-80.56640625,-31.25,-35.64453125,63.96484375,0.0
43.96484375,-20.99609375,-75.68359375,-30.2734375,-31.73828125,144.04296875,0.0
43.96875,-20.5078125,-86.9140625,-36.1328125,-24.4140625,-1.46484375,0.0
43.97265625,-39.0625,-95.21484375,-34.1796875,-28.3203125,-186.03515625,0.0
43.9765625,-46.38671875,-93.75,-30.2734375,-31.73828125,-211.42578125,0.0
43.98046875,-33.69140625,-90.33203125,-30.76171875,-20.01953125,-253.41796875,0.0
43.984375,-18.06640625,-80.56640625,-32.71484375,-21.484375,-196.2890625,0.0
43.98828125,-22.4609375,-74.21875,-39.0625,-41.9921875,-104.98046875,0.0
43.9921875,-33.203125,-76.66015625,-40.52734375,-48.828125,-148.4375,0.0
43.99609375,-34.66796875,-83.49609375,-40.0390625,-39.0625,-118.65234375,0.0
44.0,-39.55078125,-87.890625,-36.62109375,-40.0390625,-116.69921875,0.0
44.00390625,-28.80859375,-77.1484375,-29.296875,-41.9921875,-62.98828125,0.0
44.0078125,-40.0390625,-73.2421875,-37.109375,-49.8046875,12.20703125,0.0
44.01171875,-44.43359375,-81.54296875,-41.50390625,-49.31640625,-75.68359375,0.0
44.015625,-31.25,-86.9140625,-38.57421875,-43.45703125,-123.53515625,0.0
44.01953125,-36.1328125,-83.984375,-38.0859375,-39.55078125,-115.234375,0.0
44.0234375,-35.64453125,-73.73046875,-32.71484375,-26.85546875,-152.34375,0.0
44.02734375,-33.69140625,-72.265625,-41.015625,-28.3203125,-157.2265625,0.0
44.03125,-40.0390625,-85.9375,-48.33984375,-37.59765625,-120.1171875,0.0
44.03515625,-42.48046875,-88.37890625,-41.50390625,-39.0625,-102.05078125,0.0
44.0390625,-29.296875,-81.0546875,-31.25,-29.296875,-126.46484375,0.0
44.04296875,-22.94921875,-78.61328125,-23.4375,-24.4140625,-166.015625,0.0
44.046875,-19.04296875,-81.0546875,-38.0859375,-36.62109375,-123.046875,0.0
44.05078125,-18.5546875,-80.56640625,-52.734375,-39.0625,-63.4765625,0.0
44.0546875,-37.59765625,-85.9375,-52.734375,-30.76171875,-34.1796875,0.0
44.05859375,-50.29296875,-84.9609375,-45.41015625,-35.64453125,-10.7421875,0.0
44.0625,-41.50390625,-76.66015625,-41.50390625,-37.59765625,10.25390625,0.0
44.06640625,-24.4140625,-66.89453125,-39.55078125,-28.3203125,74.21875,0.0
44.0703125,-36.1328125,-65.4296875,-43.9453125,-27.83203125,120.60546875,0.0
44.07421875,-50.78125,-79.58984375,-45.8984375,-35.15625,179.19921875,0.0
44.078125,-41.9921875,-91.796875,-39.55078125,-35.64453125,139.6484375,0.0
44.08203125,-31.73828125,-88.8671875,-33.203125,-27.34375,166.50390625,0.0
44.0859375,-27.34375,-80.56640625,-31.73828125,-27.83203125,189.453125,0.0
44.08984375,-30.2734375,-84.47265625,-40.0390625,-37.59765625,115.72265625,0.0
44.09375,-39.55078125,-93.75,-46.875,-37.59765625,52.734375,0.0
44.09765625,-30.76171875,-91.30859375,-29.78515625,-16.11328125,55.6640625,0.0
44.1015625,-32.71484375,-80.56640625,-22.94921875,-19.04296875,101.5625,0.0
44.10546875,-45.41015625,-77.1484375,-26.85546875,-33.203125,139.6484375,0.0
44.109375,-49.31640625,-80.078125,-38.57421875,-38.57421875,129.39453125,0.0
44.11328125,-46.38671875,-75.1953125,-41.50390625,-32.71484375,149.90234375,0.0
44.1171875,-39.0625,-66.89453125,-25.87890625,-24.90234375,1.953125,0.0
44.12109375,-32.2265625,-66.40625,-24.90234375,-29.78515625,-128.41796875,0.0
44.125,-23.4375,-64.453125,-27.34375,-27.34375,-26.85546875,0.0
44.12890625,-21.484375,-61.03515625,-27.83203125,-25.390625,-2.44140625,0.0
44.1328125,-34.66796875,-62.01171875,-32.71484375,-32.71484375,57.12890625,0.0
44.13671875,-45.8984375,-73.2421875,-35.64453125,-33.203125,50.29296875,0.0
44.140625,-35.15625,-84.9609375,-36.62109375,-29.78515625,-15.625,0.0
44.14453125,-17.08984375,-81.0546875,-30.76171875,-31.25,1.953125,0.0
44.1484375,-8.7890625,-76.66015625,-30.76171875,-36.62109375,37.59765625,0.0
44.15234375,-18.5546875,-82.03125,-34.1796875,-29.296875,67.3828125,0.0
44.15625,-41.9921875,-92.7734375,-30.76171875,-22.4609375,112.3046875,0.0
44.16015625,-30.2734375,-96.19140625,-27.34375,-23.92578125,26.85546875,0.0
44.1640625,-15.625,-90.33203125,-25.87890625,-24.4140625,49.31640625,0.0
44.16796875,-29.296875,-83.0078125,-29.78515625,-29.78515625,111.328125,0.0
44.171875,-37.109375,-84.9609375,-38.0859375,-42.48046875,3.90625,0.0
44.17578125,-33.203125,-85.44921875,-35.64453125,-32.2265625,-0.48828125,0.0
44.1796875,-23.4375,-77.1484375,-29.296875,-19.04296875,97.65625,0.0
44.18359375,-12.20703125,-72.265625,-29.78515625,-19.53125,9.27734375,0.0
44.1875,-18.5546875,-76.66015625,-34.66796875,-28.80859375,-116.2109375,0.0
44.19140625,-38.57421875,-87.40234375,-39.55078125,-40.0390625,-72.265625,0.0
44.1953125,-32.71484375,-97.16796875,-42.96875,-40.52734375,-62.5,0.0
44.19921875,-32.71484375,-96.6796875,-38.0859375,-34.66796875,-25.390625,0.0
44.203125,-24.4140625,-91.796875,-31.73828125,-36.1328125,22.94921875,0.0
44.20703125,-15.13671875,-86.9140625,-35.64453125,-39.0625,-4.39453125,0.0
44.2109375,-35.64453125,-89.35546875,-43.45703125,-42.96875,-0.9765625,0.0
44.21484375,-39.0625,-89.84375,-41.50390625,-32.71484375,-2.44140625,0.0
44.21875,-27.83203125,-89.84375,-32.71484375,-21.97265625,-60.05859375,0.0
44.22265625,-31.25,-86.9140625,-24.90234375,-32.2265625,22.4609375,0.0
44.2265625,-38.0859375,-85.9375,-29.296875,-31.73828125,119.140625,0.0
44.23046875,-51.7578125,-87.40234375,-39.0625,-24.90234375,-10.25390625,0.0
44.234375,-51.26953125,-89.35546875,-33.203125,-16.11328125,-75.1953125,0.0
44.23828125,-44.43359375,-94.23828125,-21.97265625,-10.25390625,9.765625,0.0
44.2421875,-30.76171875,-86.42578125,-20.01953125,-14.6484375,74.70703125,0.0
44.24609375,-19.04296875,-76.171875,-25.390625,-30.76171875,66.89453125,0.0
44.25,-40.0390625,-75.68359375,-34.66796875,-42.96875,48.828125,0.0
44.25390625,-55.17578125,-76.171875,-36.62109375,-33.69140625,14.16015625,0.0
44.2578125,-32.71484375,-73.73046875,-29.296875,-30.2734375,-10.25390625,0.0
44.26171875,-22.4609375,-73.2421875,-22.94921875,-29.78515625,-39.0625,0.0
44.265625,-25.87890625,-75.1953125,-28.80859375,-33.203125,-38.57421875,0.0
44.26953125,-17.578125,-72.75390625,-34.1796875,-39.55078125,-5.37109375,0.0
44.2734375,-32.2265625,-74.21875,-33.203125,-33.69140625,-84.9609375,0.0
44.27734375,-35.15625,-78.125,-27.34375,-32.2265625,-98.14453125,0.0
44.28125,-24.4140625,-92.28515625,-19.04296875,-29.78515625,-3.41796875,0.0
44.28515625,-36.1328125,-88.37890625,-22.94921875,-26.85546875,78.125,0.0
44.2890625,-37.59765625,-74.21875,-33.69140625,-26.3671875,65.91796875,0.0
44.29296875,-22.4609375,-65.4296875,-29.78515625,-19.53125,37.109375,0.0
44.296875,-23.4375,-52.734375,-24.90234375,-17.08984375,89.84375,0.0
44.30078125,-40.0390625,-54.19921875,-28.3203125,-31.73828125,136.23046875,0.0
44.3046875,-41.50390625,-54.6875,-34.1796875,-37.59765625,174.8046875,0.0
44.30859375,-37.109375,-57.12890625,-41.9921875,-35.15625,71.2890625,0.0
44.3125,-38.0859375,-76.171875,-37.59765625,-34.1796875,21.97265625,0.0
44.31640625,-35.15625,-91.30859375,-34.1796875,-30.76171875,8.7890625,0.0
44.3203125,-34.66796875,-84.47265625,-35.64453125,-29.296875,20.5078125,0.0
44.32421875,-25.390625,-83.49609375,-30.2734375,-32.71484375,40.52734375,0.0
44.328125,-17.578125,-87.40234375,-23.4375,-35.64453125,37.59765625,0.0
44.33203125,-40.52734375,-92.7734375,-22.94921875,-37.59765625,62.01171875,0.0
44.3359375,-46.875,-92.28515625,-19.53125,-36.1328125,83.984375,0.0
44.33984375,-21.484375,-86.9140625,-14.6484375,-28.80859375,21.484375,0.0
44.34375,-5.859375,-91.30859375,-17.578125,-26.3671875,-26.85546875,0.0
44.34765625,-10.7421875,-97.16796875,-27.34375,-38.0859375,-23.4375,0.0
44.3515625,-28.3203125,-97.65625,-36.62109375,-38.0859375,-53.22265625,0.0
44.35546875,-34.1796875,-96.6796875,-39.0625,-38.0859375,-72.75390625,0.0
44.359375,-26.3671875,-88.37890625,-32.2265625,-41.50390625,-54.19921875,0.0
44.36328125,-22.4609375,-76.66015625,-25.390625,-41.50390625,-53.22265625,0.0
44.3671875,-20.99609375,-70.3125,-26.3671875,-41.9921875,-103.515625,0.0
44.37109375,-19.04296875,-76.66015625,-32.71484375,-41.50390625,-37.109375,0.0
44.375,-25.390625,-91.30859375,-36.1328125,-34.66796875,74.21875,0.0
44.37890625,-27.83203125,-88.37890625,-27.34375,-25.87890625,-28.80859375,0.0
44.3828125,-27.34375,-84.9609375,-30.2734375,-28.80859375,-8.7890625,0.0
44.38671875,-19.04296875,-82.51953125,-40.52734375,-32.71484375,20.99609375,0.0
44.390625,-12.6953125,-84.9609375,-40.0390625,-34.1796875,3.41796875,0.0
44.39453125,-33.203125,-90.33203125,-38.0859375,-32.71484375,70.80078125,0.0
44.3984375,-31.73828125,-85.9375,-27.83203125,-24.90234375,39.55078125,0.0
44.40234375,-15.13671875,-78.61328125,-20.5078125,-25.390625,-40.0390625,0.0
44.40625,-18.06640625,-77.1484375,-29.296875,-31.25,-44.43359375,0.0
44.41015625,-33.203125,-77.1484375,-38.0859375,-28.3203125,-82.51953125,0.0
44.4140625,-36.62109375,-80.56640625,-35.15625,-32.2265625,-58.59375,0.0
44.41796875,-30.2734375,-76.171875,-31.25,-31.25,-14.16015625,0.0
44.421875,-35.64453125,-72.265625,-35.64453125,-33.69140625,-9.765625,0.0
44.42578125,-30.2734375,-72.265625,-39.55078125,-43.9453125,-26.85546875,0.0
44.4296875,-20.99609375,-68.359375,-39.55078125,-44.921875,55.6640625,0.0
44.43359375,-25.390625,-69.82421875,-42.48046875,-36.1328125,79.1015625,0.0
44.4375,-29.296875,-73.73046875,-35.64453125,-35.64453125,88.37890625,0.0
44.44140625,-14.6484375,-70.3125,-25.390625,-43.9453125,84.47265625,0.0
44.4453125,-4.39453125,-69.3359375,-26.85546875,-40.0390625,-66.89453125,0.0
44.44921875,-9.765625,-72.75390625,-35.64453125,-30.76171875,-211.9140625,0.0
44.453125,-39.55078125,-76.66015625,-41.50390625,-34.1796875,-222.16796875,0.0
44.45703125,-52.24609375,-70.80078125,-36.62109375,-34.66796875,-128.90625,0.0
44.4609375,-28.80859375,-53.7109375,-27.34375,-32.71484375,-99.12109375,0.0
44.46484375,-18.5546875,-48.828125,-28.80859375,-30.2734375,-160.64453125,0.0
44.46875,-27.83203125,-50.29296875,-41.015625,-28.3203125,-112.3046875,0.0
44.47265625,-31.73828125,-46.38671875,-39.0625,-34.66796875,-122.0703125,0.0
44.4765625,-32.71484375,-53.7109375,-30.76171875,-28.3203125,-160.64453125,0.0
44.48046875,-32.2265625,-57.6171875,-25.390625,-21.484375,-81.54296875,0.0
44.484375,-23.4375,-43.9453125,-21.97265625,-39.0625,0.0,0.0
44.48828125,-19.04296875,-32.71484375,-21.484375,-42.96875,144.04296875,0.0
44.4921875,-37.59765625,-43.45703125,-28.3203125,-40.52734375,165.0390625,0.0
44.49609375,-39.55078125,-49.31640625,-29.78515625,-37.109375,176.7578125,0.0
44.5,-27.83203125,-46.875,-29.78515625,-32.71484375,107.91015625,0.0
44.50390625,-21.97265625,-43.45703125,-28.80859375,-41.015625,-16.6015625,0.0
44.5078125,-22.94921875,-36.62109375,-27.83203125,-53.22265625,-48.33984375,0.0
44.51171875,-24.4140625,-39.55078125,-37.59765625,-43.9453125,-51.7578125,0.0
44.515625,-36.62109375,-48.33984375,-39.55078125,-29.78515625,-62.01171875,0.0
44.51953125,-35.64453125,-42.96875,-32.71484375,-41.015625,1.953125,0.0
44.5234375,-31.25,-31.73828125,-32.71484375,-46.38671875,95.21484375,0.0
44.52734375,-25.87890625,-30.76171875,-37.109375,-34.66796875,62.98828125,0.0
44.53125,-11.71875,-40.0390625,-41.015625,-31.73828125,84.9609375,0.0
44.53515625,-19.53125,-44.921875,-42.48046875,-41.015625,153.3203125,0.0
44.5390625,-25.87890625,-36.1328125,-42.48046875,-46.38671875,87.890625,0.0
44.54296875,-30.2734375,-24.4140625,-35.15625,-41.9921875,95.21484375,0.0
44.546875,-32.71484375,-26.85546875,-28.80859375,-41.9921875,112.79296875,0.0
44.55078125,-31.25,-30.2734375,-31.25,-41.015625,31.25,0.0
44.5546875,-29.78515625,-30.76171875,-31.25,-28.3203125,-13.671875,0.0
44.55859375,-21.484375,-37.59765625,-24.90234375,-25.390625,-63.4765625,0.0
44.5625,-18.5546875,-38.0859375,-23.4375,-28.80859375,-4.8828125,0.0
44.56640625,-18.06640625,-28.80859375,-31.25,-40.0390625,62.98828125,0.0
44.5703125,-19.53125,-27.34375,-38.0859375,-49.8046875,1.953125,0.0
44.57421875,-46.38671875,-29.78515625,-37.109375,-42.48046875,-48.33984375,0.0
44.578125,-55.17578125,-30.2734375,-32.71484375,-34.66796875,-48.828125,0.0
44.58203125,-38.0859375,-20.5078125,-25.390625,-36.62109375,-78.61328125,0.0
44.5859375,-37.59765625,-11.71875,-22.94921875,-41.9921875,-6.34765625,0.0
44.58984375,-51.7578125,-23.92578125,-33.203125,-47.36328125,76.66015625,0.0
44.59375,-48.828125,-31.25,-37.59765625,-36.1328125,3.90625,0.0
44.59765625,-42.48046875,-21.484375,-31.25,-30.2734375,-38.57421875,0.0
44.6015625,-36.62109375,-12.6953125,-18.5546875,-41.015625,28.80859375,0.0
44.60546875,-32.2265625,-11.23046875,-19.04296875,-44.43359375,41.9921875,0.0
44.609375,-26.3671875,-18.5546875,-28.80859375,-43.45703125,-69.82421875,0.0
44.61328125,-20.99609375,-25.87890625,-30.76171875,-31.73828125,-165.52734375,0.0
44.6171875,-32.2265625,-26.3671875,-27.83203125,-22.94921875,-91.30859375,0.0
44.62109375,-31.73828125,-22.94921875,-22.94921875,-29.296875,-7.32421875,0.0
44.625,-20.99609375,-11.71875,-29.296875,-38.0859375,-14.6484375,0.0
44.62890625,-33.203125,0.9765625,-33.203125,-35.15625,11.71875,0.0
44.6328125,-48.33984375,-16.6015625,-32.71484375,-35.15625,-9.27734375,0.0
44.63671875,-41.9921875,-31.73828125,-27.34375,-27.83203125,-11.23046875,0.0
44.640625,-32.2265625,-30.2734375,-25.390625,-20.99609375,3.90625,0.0
44.64453125,-34.66796875,-25.87890625,-26.85546875,-32.2265625,2.44140625,0.0
44.6484375,-31.73828125,-24.4140625,-25.87890625,-42.48046875,-49.31640625,0.0
44.65234375,-35.64453125,-33.203125,-29.296875,-42.96875,-82.51953125,0.0
44.65625,-45.41015625,-41.9921875,-33.203125,-42.48046875,16.11328125,0.0
44.66015625,-30.2734375,-39.55078125,-30.2734375,-37.109375,-47.36328125,0.0
44.6640625,-22.4609375,-34.66796875,-29.296875,-33.203125,-112.3046875,0.0
44.66796875,-31.25,-31.25,-33.203125,-40.52734375,25.390625,0.0
44.671875,-37.109375,-36.62109375,-35.64453125,-51.7578125,-10.25390625,0.0
44.67578125,-37.59765625,-38.0859375,-30.76171875,-43.45703125,-60.546875,0.0
44.6796875,-33.203125,-32.2265625,-24.90234375,-34.66796875,80.56640625,0.0
44.68359375,-40.52734375,-27.34375,-25.87890625,-38.57421875,72.265625,0.0
44.6875,-36.1328125,-24.4140625,-32.2265625,-37.109375,-36.1328125,0.0
44.69140625,-28.80859375,-26.85546875,-33.69140625,-32.71484375,-81.54296875,0.0
44.6953125,-29.296875,-27.83203125,-30.2734375,-25.390625,-120.60546875,0.0
44.69921875,-24.4140625,-29.78515625,-24.90234375,-16.11328125,-58.59375,0.0
44.703125,-18.5546875,-37.59765625,-28.80859375,-24.90234375,-34.1796875,0.0
44.70703125,-10.7421875,-38.0859375,-33.203125,-31.73828125,-80.56640625,0.0
44.7109375,-12.6953125,-38.0859375,-38.57421875,-29.78515625,-74.21875,0.0
44.71484375,-18.5546875,-34.66796875,-41.9921875,-25.390625,21.484375,0.0
44.71875,-19.04296875,-35.15625,-32.71484375,-19.04296875,73.73046875,0.0
44.72265625,-14.6484375,-42.96875,-25.87890625,-20.5078125,83.0078125,0.0
44.7265625,-3.41796875,-30.2734375,-29.78515625,-21.97265625,39.0625,0.0
44.73046875,-9.765625,-25.87890625,-33.69140625,-19.04296875,-18.5546875,0.0
44.734375,-29.296875,-36.1328125,-31.25,-21.97265625,-25.87890625,0.0
44.73828125,-36.1328125,-45.41015625,-27.34375,-30.2734375,-45.41015625,0.0
44.7421875,-17.08984375,-35.64453125,-21.97265625,-27.83203125,-27.34375,0.0
44.74609375,-1.953125,-21.97265625,-30.76171875,-32.71484375,54.19921875,0.0
44.75,-4.39453125,-37.109375,-48.828125,-47.36328125,51.7578125,0.0
44.75390625,-19.53125,-46.38671875,-44.43359375,-35.15625,-10.7421875,0.0
44.7578125,-31.25,-41.015625,-34.66796875,-25.87890625,18.06640625,0.0
44.76171875,-28.3203125,-37.59765625,-29.78515625,-30.2734375,51.26953125,0.0
44.765625,-24.4140625,-41.50390625,-29.296875,-33.69140625,59.5703125,0.0
44.76953125,-20.5078125,-41.015625,-32.2265625,-26.85546875,117.67578125,0.0
44.7734375,-28.3203125,-33.203125,-31.25,-24.4140625,124.0234375,0.0
44.77734375,-30.76171875,-31.25,-31.25,-31.25,137.20703125,0.0
44.78125,-18.5546875,-28.80859375,-31.73828125,-31.25,131.8359375,0.0
44.78515625,-19.04296875,-23.92578125,-29.78515625,-34.1796875,81.0546875,0.0
44.7890625,-27.83203125,-24.90234375,-34.66796875,-32.71484375,60.546875,0.0
44.79296875,-34.66796875,-28.3203125,-45.41015625,-34.66796875,62.5,0.0
44.796875,-36.1328125,-28.80859375,-44.921875,-41.50390625,-3.90625,0.0
44.80078125,-30.2734375,-20.99609375,-36.62109375,-41.015625,-34.1796875,0.0
44.8046875,-27.83203125,-9.27734375,-34.1796875,-37.109375,23.92578125,0.0
44.80859375,-37.109375,-12.6953125,-41.015625,-39.55078125,-22.94921875,0.0
44.8125,-41.9921875,-21.97265625,-45.8984375,-43.9453125,-51.26953125,0.0
44.81640625,-30.76171875,-19.04296875,-41.015625,-36.1328125,18.5546875,0.0
44.8203125,-27.34375,-11.23046875,-33.69140625,-27.83203125,55.17578125,0.0
44.82421875,-31.25,-3.90625,-33.69140625,-34.1796875,-11.23046875,0.0
44.828125,-23.92578125,-0.48828125,-39.0625,-47.36328125,-58.10546875,0.0
44.83203125,-31.73828125,-2.9296875,-43.45703125,-48.33984375,-70.80078125,0.0
44.8359375,-37.59765625,-1.953125,-38.57421875,-38.0859375,-61.03515625,0.0
44.83984375,-30.76171875,-1.953125,-33.203125,-30.2734375,-17.578125,0.0
44.84375,-25.390625,2.44140625,-36.62109375,-23.92578125,9.765625,0.0
44.84765625,-22.94921875,9.765625,-39.0625,-32.2265625,-35.15625,0.0
44.8515625,-23.4375,6.34765625,-37.59765625,-38.57421875,-24.90234375,0.0
44.85546875,-23.4375,2.9296875,-37.59765625,-36.62109375,-28.3203125,0.0
44.859375,-26.3671875,2.44140625,-38.57421875,-38.0859375,-71.77734375,0.0
44.86328125,-26.3671875,3.90625,-40.52734375,-36.62109375,48.828125,0.0
44.8671875,-25.87890625,7.8125,-43.9453125,-35.15625,74.21875,0.0
44.87109375,-24.90234375,-1.46484375,-39.55078125,-32.2265625,-13.671875,0.0
44.875,-22.94921875,-7.8125,-36.62109375,-30.2734375,26.85546875,0.0
44.87890625,-20.5078125,0.9765625,-37.109375,-30.76171875,1.46484375,0.0
44.8828125,-12.6953125,6.8359375,-34.66796875,-29.296875,-83.49609375,0.0
44.88671875,-15.625,0.9765625,-41.015625,-44.921875,-85.44921875,0.0
44.890625,-26.85546875,-9.765625,-49.31640625,-51.7578125,3.41796875,0.0
44.89453125,-37.59765625,-12.6953125,-41.9921875,-43.9453125,2.9296875,0.0
44.8984375,-25.87890625,-8.7890625,-33.203125,-36.1328125,-83.984375,0.0
44.90234375,-15.625,-0.9765625,-29.78515625,-28.80859375,-25.87890625,0.0
44.90625,-14.16015625,9.27734375,-29.296875,-31.25,120.1171875,0.0
44.91015625,-11.71875,10.7421875,-36.62109375,-31.73828125,125.48828125,0.0
44.9140625,-16.11328125,6.34765625,-33.203125,-29.78515625,5.859375,0.0
44.91796875,-19.04296875,10.25390625,-20.01953125,-28.80859375,-62.5,0.0
44.921875,-16.11328125,12.20703125,-18.5546875,-28.3203125,-47.36328125,0.0
44.92578125,-12.20703125,12.20703125,-26.85546875,-33.203125,15.625,0.0
44.9296875,-16.6015625,14.6484375,-31.25,-24.90234375,-27.34375,0.0
44.93359375,-23.92578125,14.16015625,-31.73828125,-18.06640625,-12.20703125,0.0
44.9375,-26.3671875,5.37109375,-29.296875,-28.80859375,25.87890625,0.0
44.94140625,-15.13671875,11.71875,-25.390625,-36.62109375,-31.73828125,0.0
44.9453125,-15.625,31.73828125,-27.34375,-40.52734375,-29.78515625,0.0
44.94921875,-22.94921875,47.36328125,-29.78515625,-36.62109375,62.5,0.0
44.953125,-31.25,58.10546875,-30.2734375,-28.3203125,42.48046875,0.0
44.95703125,-33.69140625,73.2421875,-28.80859375,-33.69140625,17.578125,0.0
44.9609375,-19.53125,90.33203125,-23.92578125,-27.83203125,59.08203125,0.0
44.96484375,-8.30078125,98.14453125,-24.90234375,-22.4609375,68.84765625,0.0
44.96875,-13.671875,99.12109375,-32.71484375,-35.15625,42.96875,0.0
44.97265625,-28.80859375,97.65625,-34.66796875,-36.62109375,66.40625,0.0
44.9765625,-23.4375,94.7265625,-29.296875,-25.87890625,51.7578125,0.0
44.98046875,-15.625,95.703125,-30.2734375,-17.08984375,3.41796875,0.0
44.984375,-14.6484375,96.6796875,-37.59765625,-25.87890625,-15.625,0.0
44.98828125,-6.8359375,98.14453125,-34.66796875,-35.15625,-14.16015625,0.0
44.9921875,-19.04296875,95.21484375,-36.1328125,-31.73828125,-11.23046875,0.0
44.99609375,-22.4609375,87.890625,-35.15625,-28.3203125,-10.25390625,0.0
45.0,-15.13671875,87.890625,-26.3671875,-28.3203125,-22.4609375,0.0
45.00390625,-29.78515625,88.37890625,-24.4140625,-29.78515625,-28.3203125,0.0
45.0078125,-35.64453125,78.125,-25.390625,-34.1796875,-20.99609375,0.0
45.01171875,-32.71484375,75.68359375,-26.85546875,-28.80859375,-10.7421875,0.0
45.015625,-28.3203125,75.68359375,-28.80859375,-26.3671875,2.44140625,0.0
45.01953125,-20.5078125,67.87109375,-25.87890625,-37.59765625,-19.53125,0.0
45.0234375,-9.765625,66.89453125,-22.94921875,-31.73828125,-56.15234375,0.0
45.02734375,-14.16015625,65.4296875,-24.90234375,-26.85546875,-62.98828125,0.0
45.03125,-23.92578125,52.24609375,-33.203125,-33.203125,-16.6015625,0.0
45.03515625,-14.6484375,52.734375,-33.69140625,-34.66796875,8.7890625,0.0
45.0390625,-27.34375,53.22265625,-27.83203125,-30.76171875,-0.48828125,0.0
45.04296875,-38.0859375,51.7578125,-27.83203125,-33.203125,61.03515625,0.0
45.046875,-36.62109375,55.6640625,-39.0625,-41.9921875,15.625,0.0
45.05078125,-24.90234375,50.78125,-40.0390625,-42.48046875,28.3203125,0.0
45.0546875,-30.2734375,45.41015625,-35.15625,-36.62109375,19.04296875,0.0
45.05859375,-41.50390625,46.38671875,-38.0859375,-37.109375,-152.83203125,0.0
45.0625,-36.62109375,47.8515625,-35.15625,-37.109375,-65.4296875,0.0
45.06640625,-24.90234375,44.43359375,-31.73828125,-31.73828125,44.921875,0.0
45.0703125,-27.34375,40.52734375,-33.69140625,-31.25,0.48828125,0.0
45.07421875,-45.41015625,43.9453125,-36.62109375,-43.9453125,-20.99609375,0.0
45.078125,-42.48046875,36.62109375,-35.64453125,-42.48046875,-27.34375,0.0
45.08203125,-28.80859375,32.2265625,-30.2734375,-37.109375,44.43359375,0.0
45.0859375,-30.2734375,38.0859375,-29.78515625,-41.015625,59.08203125,0.0
45.08984375,-33.203125,30.76171875,-35.64453125,-41.015625,21.484375,0.0
45.09375,-27.83203125,23.92578125,-40.52734375,-43.45703125,42.48046875,0.0
45.09765625,-28.3203125,24.4140625,-41.015625,-41.50390625,45.8984375,0.0
45.1015625,-27.83203125,22.4609375,-35.64453125,-38.0859375,-38.0859375,0.0
45.10546875,-30.2734375,19.04296875,-33.203125,-43.9453125,-85.9375,0.0
45.109375,-34.66796875,15.625,-38.57421875,-44.43359375,4.8828125,0.0
45.11328125,-36.62109375,7.8125,-46.875,-38.0859375,-33.203125,0.0
45.1171875,-44.43359375,8.7890625,-43.45703125,-35.64453125,-91.796875,0.0
45.12109375,-45.8984375,13.671875,-39.55078125,-46.875,-80.078125,0.0
45.125,-39.0625,14.16015625,-40.0390625,-51.26953125,-68.84765625,0.0
45.12890625,-29.296875,21.97265625,-35.64453125,-48.828125,-73.2421875,0.0
45.1328125,-37.109375,20.01953125,-38.57421875,-43.9453125,-55.17578125,0.0
45.13671875,-41.9921875,8.7890625,-36.62109375,-31.73828125,-82.51953125,0.0
45.140625,-29.296875,2.9296875,-36.1328125,-25.87890625,-211.42578125,0.0
45.14453125,-23.92578125,13.18359375,-35.64453125,-20.5078125,-187.5,0.0
45.1484375,-23.4375,12.6953125,-35.15625,-22.4609375,-140.625,0.0
45.15234375,-37.109375,5.859375,-41.015625,-34.66796875,-201.66015625,0.0
45.15625,-49.31640625,9.765625,-40.52734375,-36.62109375,-151.3671875,0.0
45.16015625,-41.50390625,11.71875,-37.109375,-38.0859375,-100.09765625,0.0
45.1640625,-26.3671875,19.04296875,-29.78515625,-34.66796875,-122.0703125,0.0
45.16796875,-23.92578125,20.01953125,-32.2265625,-34.1796875,-166.9921875,0.0
45.171875,-36.1328125,4.39453125,-43.9453125,-41.9921875,-173.828125,0.0
45.17578125,-41.50390625,-8.30078125,-39.55078125,-40.52734375,-181.15234375,0.0
45.1796875,-33.69140625,-4.39453125,-31.73828125,-37.109375,-230.46875,0.0
45.18359375,-21.97265625,3.41796875,-26.3671875,-35.15625,-126.953125,0.0
45.1875,-23.92578125,0.48828125,-29.78515625,-37.59765625,40.52734375,0.0
45.19140625,-22.4609375,-4.8828125,-34.1796875,-34.66796875,67.3828125,0.0
45.1953125,-32.71484375,-0.9765625,-37.59765625,-22.4609375,-6.34765625,0.0
45.19921875,-32.71484375,4.8828125,-41.015625,-25.390625,-99.609375,0.0
45.203125,-26.85546875,7.8125,-33.69140625,-34.1796875,-32.2265625,0.0
45.20703125,-31.25,9.765625,-31.73828125,-29.296875,65.91796875,0.0
45.2109375,-32.71484375,10.25390625,-32.2265625,-31.73828125,64.453125,0.0
45.21484375,-29.78515625,5.859375,-39.55078125,-23.4375,101.5625,0.0
45.21875,-28.3203125,-6.34765625,-42.96875,-21.484375,86.42578125,0.0
45.22265625,-26.85546875,1.46484375,-33.69140625,-28.3203125,48.828125,0.0
45.2265625,-21.97265625,10.25390625,-30.2734375,-26.3671875,50.29296875,0.0
45.23046875,-26.3671875,1.953125,-29.78515625,-31.25,146.484375,0.0
45.234375,-35.64453125,-8.30078125,-37.109375,-39.0625,160.64453125,0.0
45.23828125,-37.109375,-10.25390625,-36.1328125,-43.45703125,122.0703125,0.0
45.2421875,-40.0390625,-5.37109375,-32.71484375,-49.8046875,97.65625,0.0
45.24609375,-34.1796875,-4.39453125,-37.109375,-51.26953125,30.2734375,0.0
45.25,-33.69140625,-4.8828125,-35.64453125,-42.48046875,88.8671875,0.0
45.25390625,-28.3203125,2.9296875,-27.34375,-21.97265625,161.1328125,0.0
45.2578125,-26.3671875,2.9296875,-27.34375,-24.4140625,150.390625,0.0
45.26171875,-35.15625,1.953125,-31.73828125,-44.43359375,154.296875,0.0
45.265625,-30.2734375,5.37109375,-36.1328125,-43.9453125,121.09375,0.0
45.26953125,-29.78515625,-3.41796875,-34.66796875,-38.0859375,56.15234375,0.0
45.2734375,-33.203125,-14.6484375,-36.1328125,-35.64453125,84.47265625,0.0
45.27734375,-39.55078125,-19.53125,-38.0859375,-35.64453125,53.7109375,0.0
45.28125,-29.296875,-13.671875,-31.73828125,-40.0390625,12.6953125,0.0
45.28515625,-15.13671875,-4.39453125,-27.34375,-42.96875,27.34375,0.0
45.2890625,-19.53125,0.9765625,-28.80859375,-41.015625,57.6171875,0.0
45.29296875,-29.78515625,1.46484375,-33.69140625,-35.15625,50.78125,0.0
45.296875,-34.66796875,-1.46484375,-30.76171875,-30.76171875,83.0078125,0.0
45.30078125,-26.3671875,-3.90625,-25.87890625,-27.83203125,168.45703125,0.0
45.3046875,-12.20703125,0.0,-25.87890625,-21.484375,103.515625,0.0
45.30859375,-12.20703125,-3.41796875,-30.2734375,-26.3671875,57.6171875,0.0
45.3125,-32.2265625,-15.625,-30.76171875,-35.15625,-34.1796875,0.0
45.31640625,-34.1796875,-11.71875,-24.90234375,-36.1328125,-91.30859375,0.0
45.3203125,-30.76171875,-7.32421875,-28.80859375,-35.64453125,-41.50390625,0.0
45.32421875,-25.87890625,-3.41796875,-29.78515625,-32.2265625,-15.625,0.0
45.328125,-12.20703125,7.8125,-29.78515625,-29.78515625,-39.0625,0.0
45.33203125,-7.8125,5.859375,-33.203125,-27.34375,-101.5625,0.0
45.3359375,-20.01953125,-4.39453125,-40.0390625,-22.94921875,-138.671875,0.0
45.33984375,-24.4140625,-8.30078125,-42.96875,-25.390625,-20.5078125,0.0
45.34375,-14.6484375,-16.11328125,-30.76171875,-20.01953125,0.9765625,0.0
45.34765625,-23.92578125,-13.671875,-21.484375,-11.71875,4.8828125,0.0
45.3515625,-43.45703125,-10.7421875,-29.296875,-18.5546875,17.578125,0.0
45.35546875,-35.64453125,-15.13671875,-36.1328125,-37.109375,-22.4609375,0.0
45.359375,-14.6484375,-24.4140625,-43.45703125,-36.1328125,-1.953125,0.0
45.36328125,-4.39453125,-21.97265625,-39.55078125,-20.99609375,48.33984375,0.0
45.3671875,-24.90234375,-14.6484375,-26.3671875,-35.64453125,41.015625,0.0
45.37109375,-50.78125,-17.08984375,-24.90234375,-48.828125,45.8984375,0.0
45.375,-49.31640625,-21.484375,-24.90234375,-41.9921875,99.609375,0.0
45.37890625,-37.109375,-21.97265625,-20.99609375,-37.109375,88.37890625,0.0
45.3828125,-35.64453125,-18.06640625,-22.4609375,-38.0859375,107.91015625,0.0
45.38671875,-38.0859375,-13.671875,-32.2265625,-41.015625,-20.99609375,0.0
45.390625,-29.296875,-10.7421875,-30.76171875,-41.50390625,-69.3359375,0.0
45.39453125,-26.3671875,-7.32421875,-19.04296875,-29.78515625,96.19140625,0.0
45.3984375,-27.34375,1.953125,-19.53125,-16.11328125,30.76171875,0.0
45.40234375,-23.92578125,6.34765625,-23.4375,-18.5546875,-34.1796875,0.0
45.40625,-20.5078125,4.8828125,-19.53125,-20.5078125,15.13671875,0.0
45.41015625,-21.97265625,-4.39453125,-21.97265625,-23.4375,24.90234375,0.0
45.4140625,-20.01953125,-14.16015625,-27.34375,-29.78515625,-41.015625,0.0
45.41796875,-15.625,-10.25390625,-23.4375,-25.390625,-110.3515625,0.0
45.421875,-22.4609375,-8.30078125,-21.484375,-23.4375,-105.46875,0.0
45.42578125,-26.3671875,-4.39453125,-26.85546875,-30.76171875,-56.640625,0.0
45.4296875,-23.92578125,3.41796875,-26.85546875,-35.15625,28.80859375,0.0
45.43359375,-27.34375,-5.37109375,-24.4140625,-26.3671875,-4.8828125,0.0
45.4375,-34.66796875,-8.7890625,-23.4375,-23.4375,2.9296875,0.0
45.44140625,-28.3203125,-6.34765625,-21.484375,-35.15625,28.3203125,0.0
45.4453125,-23.4375,-6.8359375,-25.390625,-40.0390625,-59.08203125,0.0
45.44921875,-18.06640625,-7.32421875,-32.2265625,-36.1328125,-67.87109375,0.0
45.453125,-22.94921875,-19.04296875,-32.71484375,-35.15625,6.8359375,0.0
45.45703125,-25.390625,-16.11328125,-25.87890625,-33.203125,68.359375,0.0
45.4609375,-33.203125,-9.27734375,-21.97265625,-38.0859375,39.0625,0.0
45.46484375,-31.25,-12.20703125,-26.85546875,-40.0390625,20.99609375,0.0
45.46875,-27.83203125,-15.625,-32.2265625,-32.2265625,0.0,0.0
45.47265625,-35.64453125,-17.08984375,-27.83203125,-27.83203125,53.22265625,0.0
45.4765625,-42.48046875,-27.83203125,-23.92578125,-26.3671875,61.5234375,0.0
45.48046875,-37.109375,-20.99609375,-21.484375,-27.83203125,0.0,0.0
45.484375,-36.1328125,-9.765625,-28.3203125,-38.57421875,17.578125,0.0
45.48828125,-33.69140625,-9.765625,-27.34375,-40.52734375,-20.01953125,0.0
45.4921875,-31.25,-3.90625,-20.01953125,-31.25,-56.640625,0.0
45.49609375,-39.55078125,-3.90625,-26.85546875,-33.203125,1.953125,0.0
45.5,-39.0625,-12.6953125,-23.92578125,-27.34375,25.87890625,0.0
45.50390625,-21.484375,-13.671875,-19.53125,-13.671875,-20.5078125,0.0
45.5078125,-15.13671875,-11.23046875,-28.80859375,-21.97265625,79.58984375,0.0
45.51171875,-33.203125,-15.13671875,-35.15625,-25.87890625,104.00390625,0.0
45.515625,-29.78515625,-12.6953125,-31.73828125,-24.90234375,-36.1328125,0.0
45.51953125,-24.4140625,-7.32421875,-26.3671875,-21.484375,3.90625,0.0
45.5234375,-29.296875,-9.27734375,-26.85546875,-31.73828125,41.9921875,0.0
45.52734375,-29.78515625,-7.32421875,-33.69140625,-36.1328125,-58.59375,0.0
45.53125,-32.2265625,-4.8828125,-38.57421875,-30.76171875,-73.2421875,0.0
45.53515625,-33.69140625,-10.25390625,-41.015625,-33.203125,13.18359375,0.0
45.5390625,-36.1328125,-4.8828125,-34.66796875,-28.80859375,35.15625,0.0
45.54296875,-20.5078125,-3.41796875,-30.2734375,-20.99609375,-7.32421875,0.0
45.546875,-1.953125,-3.41796875,-27.83203125,-21.484375,5.859375,0.0
45.55078125,-25.87890625,3.41796875,-23.92578125,-23.92578125,69.82421875,0.0
45.5546875,-43.45703125,-4.39453125,-30.76171875,-33.203125,74.70703125,0.0
45.55859375,-24.4140625,-12.20703125,-29.296875,-34.1796875,-22.4609375,0.0
45.5625,-26.85546875,-6.8359375,-27.34375,-37.109375,-33.203125,0.0
45.56640625,-28.80859375,-2.9296875,-29.78515625,-43.45703125,3.90625,0.0
45.5703125,-20.99609375,-0.48828125,-29.78515625,-40.0390625,-14.16015625,0.0
45.57421875,-10.25390625,2.9296875,-32.71484375,-35.64453125,5.37109375,0.0
45.578125,-13.18359375,4.39453125,-30.76171875,-28.3203125,62.5,0.0
45.58203125,-23.4375,9.765625,-29.296875,-26.85546875,16.11328125,0.0
45.5859375,-9.27734375,23.92578125,-28.80859375,-27.83203125,-24.90234375,0.0
45.58984375,-5.37109375,19.04296875,-30.76171875,-28.3203125,2.44140625,0.0
45.59375,-24.4140625,2.44140625,-30.2734375,-29.78515625,-24.4140625,0.0
45.59765625,-28.80859375,1.46484375,-28.3203125,-23.92578125,-93.26171875,0.0
45.6015625,-19.04296875,5.37109375,-27.83203125,-22.4609375,-88.8671875,0.0
45.60546875,-9.27734375,2.9296875,-21.97265625,-28.3203125,-31.25,0.0
45.609375,-13.18359375,0.48828125,-25.390625,-30.76171875,3.41796875,0.0
45.61328125,-35.64453125,-8.30078125,-29.78515625,-21.97265625,-39.0625,0.0
45.6171875,-14.6484375,-13.671875,-25.390625,-22.94921875,-86.42578125,0.0
45.62109375,-0.48828125,-3.90625,-19.53125,-29.296875,12.6953125,0.0
45.625,-18.06640625,-1.46484375,-16.11328125,-24.90234375,49.8046875,0.0
45.62890625,0.48828125,0.48828125,-16.6015625,-28.3203125,31.25,0.0
45.6328125,-28.80859375,-3.41796875,-20.5078125,-31.73828125,31.25,0.0
45.63671875,-54.19921875,-14.16015625,-25.390625,-30.76171875,1.953125,0.0
45.640625,-29.78515625,-13.18359375,-23.92578125,-32.2265625,-34.1796875,0.0
45.64453125,-14.16015625,0.0,-14.6484375,-30.2734375,10.7421875,0.0
45.6484375,-9.765625,2.9296875,-15.13671875,-25.87890625,45.41015625,0.0
45.65234375,-15.625,-2.9296875,-24.4140625,-26.85546875,-5.37109375,0.0
45.65625,-21.484375,-8.30078125,-22.94921875,-26.3671875,35.15625,0.0
45.66015625,-13.671875,-5.37109375,-17.08984375,-20.5078125,73.73046875,0.0
45.6640625,-7.8125,-4.8828125,-22.94921875,-25.390625,32.2265625,0.0
45.66796875,-7.8125,-7.8125,-33.203125,-29.296875,-32.2265625,0.0
45.671875,-17.578125,-8.30078125,-33.203125,-22.94921875,-93.75,0.0
45.67578125,-25.390625,-3.41796875,-26.3671875,-13.671875,-87.890625,0.0
45.6796875,-10.7421875,0.9765625,-19.04296875,-16.11328125,-61.03515625,0.0
45.68359375,-7.8125,-4.8828125,-19.53125,-21.97265625,-99.609375,0.0
45.6875,-16.6015625,-12.20703125,-24.4140625,-20.01953125,-116.69921875,0.0
45.69140625,-20.5078125,-12.20703125,-31.25,-23.92578125,-125.9765625,0.0
45.6953125,-33.69140625,-19.04296875,-32.71484375,-31.25,-137.6953125,0.0
45.69921875,-29.78515625,-16.11328125,-27.34375,-25.87890625,-60.05859375,0.0
45.703125,-13.671875,0.9765625,-23.4375,-19.53125,-2.9296875,0.0
45.70703125,-14.16015625,5.859375,-25.87890625,-24.4140625,-15.13671875,0.0
45.7109375,-32.2265625,-0.48828125,-34.66796875,-28.3203125,-46.38671875,0.0
45.71484375,-41.50390625,-9.765625,-34.1796875,-26.85546875,-89.84375,0.0
45.71875,-32.71484375,-18.06640625,-32.71484375,-31.73828125,-70.3125,0.0
45.72265625,-26.3671875,-16.11328125,-33.69140625,-30.76171875,-110.3515625,0.0
45.7265625,-22.94921875,-5.37109375,-32.71484375,-30.2734375,-132.8125,0.0
45.73046875,-34.66796875,-5.859375,-37.59765625,-33.203125,-122.55859375,0.0
45.734375,-35.15625,-17.08984375,-36.1328125,-37.109375,-102.05078125,0.0
45.73828125,-34.66796875,-18.5546875,-30.2734375,-38.0859375,-149.4140625,0.0
45.7421875,-38.57421875,-21.484375,-27.34375,-33.69140625,-142.578125,0.0
45.74609375,-24.4140625,-24.4140625,-23.4375,-34.66796875,15.13671875,0.0
45.75,-25.390625,-22.4609375,-28.3203125,-32.71484375,77.63671875,0.0
45.75390625,-36.62109375,-26.3671875,-33.69140625,-20.99609375,39.0625,0.0
45.7578125,-31.73828125,-28.80859375,-25.87890625,-23.92578125,57.12890625,0.0
45.76171875,-20.01953125,-34.1796875,-26.3671875,-32.71484375,25.87890625,0.0
45.765625,-7.32421875,-37.109375,-32.71484375,-25.87890625,-5.37109375,0.0
45.76953125,-7.32421875,-28.80859375,-32.2265625,-19.53125,-3.41796875,0.0
45.7734375,-22.4609375,-20.01953125,-29.296875,-17.08984375,-1.46484375,0.0
45.77734375,-24.90234375,-21.484375,-33.69140625,-19.53125,-60.546875,0.0
45.78125,-12.20703125,-22.94921875,-30.76171875,-16.11328125,-20.01953125,0.0
45.78515625,-5.859375,-20.99609375,-31.25,-23.92578125,71.77734375,0.0
45.7890625,-14.6484375,-24.90234375,-37.59765625,-37.109375,23.4375,0.0
45.79296875,-16.6015625,-30.2734375,-39.0625,-33.69140625,55.6640625,0.0
45.796875,-23.92578125,-29.296875,-41.50390625,-27.34375,115.72265625,0.0
45.80078125,-23.92578125,-22.4609375,-33.203125,-29.78515625,159.1796875,0.0
45.8046875,-3.90625,-19.04296875,-21.484375,-26.85546875,129.8828125,0.0
45.80859375,-13.18359375,-19.53125,-27.83203125,-28.80859375,71.77734375,0.0
45.8125,-40.52734375,-17.578125,-34.1796875,-31.25,48.828125,0.0
45.81640625,-38.0859375,-27.83203125,-31.73828125,-24.90234375,-64.94140625,0.0
45.8203125,-23.4375,-33.203125,-21.484375,-17.08984375,-105.95703125,0.0
45.82421875,-14.6484375,-23.4375,-15.625,-14.16015625,-3.90625,0.0
45.828125,-17.08984375,-24.90234375,-23.4375,-29.78515625,41.9921875,0.0
45.83203125,-36.62109375,-25.390625,-31.25,-41.50390625,38.0859375,0.0
45.8359375,-44.43359375,-28.3203125,-31.25,-37.59765625,-20.99609375,0.0
45.83984375,-29.296875,-29.78515625,-29.78515625,-27.34375,-23.4375,0.0
45.84375,-15.625,-21.484375,-26.3671875,-21.484375,25.87890625,0.0
45.84765625,-19.53125,-21.484375,-27.34375,-26.3671875,68.84765625,0.0
45.8515625,-34.66796875,-25.87890625,-32.2265625,-29.296875,72.75390625,0.0
45.85546875,-30.76171875,-34.66796875,-28.3203125,-25.87890625,91.796875,0.0
45.859375,-10.7421875,-41.9921875,-19.53125,-27.34375,91.796875,0.0
45.86328125,-12.6953125,-38.57421875,-22.4609375,-39.55078125,33.69140625,0.0
45.8671875,-29.78515625,-40.52734375,-28.3203125,-41.015625,25.390625,0.0
45.87109375,-28.80859375,-42.48046875,-28.80859375,-30.2734375,27.83203125,0.0
45.875,-35.15625,-49.8046875,-35.15625,-34.66796875,10.25390625,0.0
45.87890625,-33.69140625,-50.78125,-29.296875,-33.203125,-55.17578125,0.0
45.8828125,-20.5078125,-38.0859375,-26.3671875,-23.92578125,-65.4296875,0.0
45.88671875,-11.71875,-27.34375,-27.83203125,-24.90234375,-68.359375,0.0
45.890625,-19.04296875,-33.69140625,-36.1328125,-32.71484375,-104.4921875,0.0
45.89453125,-27.83203125,-41.015625,-32.2265625,-30.76171875,24.90234375,0.0
45.8984375,-27.83203125,-38.57421875,-24.4140625,-24.4140625,110.83984375,0.0
45.90234375,-25.390625,-35.64453125,-23.4375,-24.90234375,26.85546875,0.0
45.90625,-21.484375,-26.85546875,-20.01953125,-20.99609375,17.578125,0.0
45.91015625,-18.06640625,-26.85546875,-29.78515625,-23.92578125,83.0078125,0.0
45.9140625,-20.01953125,-30.76171875,-34.66796875,-26.85546875,71.77734375,0.0
45.91796875,-30.2734375,-33.69140625,-35.15625,-25.87890625,11.71875,0.0
45.921875,-32.2265625,-36.62109375,-36.62109375,-33.203125,36.62109375,0.0
45.92578125,-24.90234375,-24.4140625,-36.62109375,-28.80859375,115.234375,0.0
45.9296875,-6.8359375,-18.5546875,-37.59765625,-19.53125,84.47265625,0.0
45.93359375,-9.27734375,-24.4140625,-37.59765625,-19.53125,26.85546875,0.0
45.9375,-31.73828125,-20.01953125,-29.78515625,-24.90234375,57.6171875,0.0
45.94140625,-31.73828125,-14.16015625,-26.3671875,-31.73828125,62.98828125,0.0
45.9453125,-16.11328125,-17.578125,-27.34375,-33.203125,-15.13671875,0.0
45.94921875,-17.578125,-19.04296875,-27.34375,-29.296875,-31.25,0.0
45.953125,-31.25,-22.4609375,-33.203125,-32.71484375,38.0859375,0.0
45.95703125,-36.1328125,-23.4375,-35.15625,-43.9453125,2.9296875,0.0
45.9609375,-28.3203125,-17.578125,-29.296875,-44.921875,-48.828125,0.0
45.96484375,-23.4375,-20.99609375,-32.2265625,-43.45703125,-14.16015625,0.0
45.96875,-34.1796875,-32.2265625,-43.45703125,-45.41015625,25.87890625,0.0
45.97265625,-36.1328125,-28.3203125,-42.96875,-41.015625,55.17578125,0.0
45.9765625,-41.50390625,-29.78515625,-40.0390625,-37.109375,40.0390625,0.0
45.98046875,-38.0859375,-34.1796875,-35.15625,-32.2265625,10.25390625,0.0
45.984375,-22.4609375,-29.296875,-28.3203125,-33.203125,-13.18359375,0.0
45.98828125,-25.87890625,-24.4140625,-31.25,-41.50390625,-49.31640625,0.0
45.9921875,-32.2265625,-26.3671875,-38.0859375,-41.015625,-86.42578125,0.0
45.99609375,-44.43359375,-29.78515625,-38.57421875,-40.0390625,-85.44921875,0.0
46.0,-45.41015625,-26.3671875,-41.015625,-41.9921875,-72.265625,0.0
46.00390625,-26.3671875,-17.08984375,-34.66796875,-35.15625,-19.04296875,0.0
46.0078125,-14.16015625,-7.32421875,-30.2734375,-34.66796875,-41.015625,0.0
46.01171875,-14.6484375,-8.30078125,-33.69140625,-38.57421875,-38.0859375,0.0
46.015625,-32.2265625,-15.13671875,-32.71484375,-33.69140625,20.99609375,0.0
46.01953125,-32.71484375,-12.6953125,-31.25,-28.80859375,40.0390625,0.0
46.0234375,-26.3671875,-7.8125,-30.2734375,-26.85546875,-5.37109375,0.0
46.02734375,-25.390625,-6.34765625,-30.2734375,-28.80859375,40.0390625,0.0
46.03125,-30.2734375,-9.27734375,-37.109375,-33.203125,39.0625,0.0
46.03515625,-32.2265625,-10.7421875,-31.73828125,-30.76171875,-40.0390625,0.0
46.0390625,-9.765625,-13.671875,-23.92578125,-32.2265625,29.78515625,0.0
46.04296875,-4.8828125,-17.578125,-26.3671875,-31.25,-3.90625,0.0
46.046875,-10.7421875,-13.18359375,-26.3671875,-29.296875,-88.37890625,0.0
46.05078125,-10.7421875,-16.11328125,-29.78515625,-28.80859375,-135.7421875,0.0
46.0546875,-25.390625,-19.04296875,-34.1796875,-25.87890625,-139.6484375,0.0
46.05859375,-22.94921875,-18.06640625,-30.76171875,-31.25,-61.5234375,0.0
46.0625,-20.99609375,-23.4375,-31.73828125,-33.69140625,3.90625,0.0
46.06640625,-20.5078125,-17.08984375,-33.203125,-33.69140625,-35.15625,0.0
46.0703125,-33.69140625,-18.5546875,-35.15625,-41.50390625,-122.55859375,0.0
46.07421875,-45.8984375,-17.578125,-32.2265625,-35.15625,-145.5078125,0.0
46.078125,-35.64453125,-19.04296875,-33.69140625,-32.71484375,-191.89453125,0.0
46.08203125,-10.7421875,-15.625,-29.78515625,-32.71484375,-159.1796875,0.0
46.0859375,-1.46484375,-13.671875,-28.3203125,-27.83203125,-100.5859375,0.0
46.08984375,-25.87890625,-17.08984375,-34.1796875,-27.83203125,-74.70703125,0.0
46.09375,-41.9921875,-14.6484375,-37.109375,-27.34375,5.37109375,0.0
46.09765625,-32.2265625,-16.6015625,-34.66796875,-22.94921875,2.44140625,0.0
46.1015625,-15.625,-12.6953125,-30.76171875,-21.484375,-34.66796875,0.0
46.10546875,-23.92578125,-4.8828125,-29.296875,-24.4140625,13.671875,0.0
46.109375,-37.109375,-20.99609375,-35.64453125,-37.109375,104.98046875,0.0
46.11328125,-36.1328125,-30.2734375,-46.38671875,-38.0859375,106.4453125,0.0
46.1171875,-26.85546875,-19.53125,-38.57421875,-25.87890625,112.3046875,0.0
46.12109375,-23.4375,-14.6484375,-30.2734375,-27.34375,104.4921875,0.0
46.125,-7.8125,-10.25390625,-27.83203125,-21.97265625,108.88671875,0.0
46.12890625,5.37109375,-6.8359375,-30.2734375,-14.16015625,49.31640625,0.0
46.1328125,-15.13671875,-16.6015625,-34.1796875,-26.85546875,-23.4375,0.0
46.13671875,-39.55078125,-29.296875,-30.76171875,-29.296875,-33.69140625,0.0
46.140625,-28.3203125,-27.34375,-28.3203125,-23.4375,-61.03515625,0.0
46.14453125,-9.27734375,-26.85546875,-33.69140625,-25.87890625,-63.96484375,0.0
46.1484375,-24.90234375,-24.4140625,-37.109375,-35.64453125,-95.21484375,0.0
46.15234375,-37.59765625,-27.34375,-38.0859375,-37.59765625,-30.76171875,0.0
46.15625,-36.1328125,-33.203125,-36.1328125,-32.71484375,25.87890625,0.0
46.16015625,-25.87890625,-25.390625,-26.85546875,-29.78515625,28.80859375,0.0
46.1640625,-18.5546875,-27.83203125,-25.390625,-33.203125,42.48046875,0.0
46.16796875,-16.11328125,-32.71484375,-28.80859375,-39.0625,31.25,0.0
46.171875,-13.671875,-31.25,-31.25,-28.80859375,19.04296875,0.0
46.17578125,-18.06640625,-31.25,-34.1796875,-14.16015625,101.07421875,0.0
46.1796875,-16.6015625,-27.34375,-35.15625,-18.5546875,72.265625,0.0
46.18359375,-15.625,-17.578125,-32.2265625,-25.87890625,-49.8046875,0.0
46.1875,-20.01953125,-12.6953125,-37.109375,-33.69140625,33.203125,0.0
46.19140625,-10.7421875,-17.578125,-40.52734375,-30.2734375,123.046875,0.0
46.1953125,-10.25390625,-25.87890625,-34.66796875,-33.203125,86.42578125,0.0
46.19921875,-17.578125,-22.94921875,-32.2265625,-43.9453125,48.828125,0.0
46.203125,-16.6015625,-21.97265625,-31.73828125,-39.55078125,-58.10546875,0.0
46.20703125,-14.16015625,-20.01953125,-28.3203125,-28.3203125,-64.453125,0.0
46.2109375,-20.01953125,-17.08984375,-32.71484375,-27.83203125,3.90625,0.0
46.21484375,-30.2734375,-21.97265625,-33.69140625,-28.3203125,-40.52734375,0.0
46.21875,-30.2734375,-19.04296875,-31.73828125,-24.90234375,-22.4609375,0.0
46.22265625,-29.296875,-11.71875,-29.296875,-28.3203125,59.5703125,0.0
46.2265625,-28.3203125,-2.44140625,-30.76171875,-30.2734375,119.140625,0.0
46.23046875,-27.34375,-6.8359375,-37.59765625,-29.78515625,35.64453125,0.0
46.234375,-34.1796875,-24.90234375,-33.203125,-24.90234375,-13.671875,0.0
46.23828125,-35.64453125,-10.7421875,-25.390625,-21.484375,5.859375,0.0
46.2421875,-27.83203125,13.18359375,-26.85546875,-28.3203125,28.80859375,0.0
46.24609375,-21.97265625,11.71875,-39.55078125,-38.0859375,41.015625,0.0
46.25,-24.4140625,-6.34765625,-56.640625,-41.50390625,-46.875,0.0
46.25390625,-27.83203125,-13.671875,-52.734375,-30.76171875,-34.66796875,0.0
46.2578125,-35.64453125,-12.20703125,-35.64453125,-23.92578125,66.40625,0.0
46.26171875,-28.3203125,-9.27734375,-29.296875,-29.78515625,122.0703125,0.0
46.265625,-31.73828125,-8.7890625,-33.203125,-34.1796875,140.13671875,0.0
46.26953125,-34.1796875,-12.6953125,-34.66796875,-37.109375,89.84375,0.0
46.2734375,-39.0625,-16.6015625,-34.66796875,-37.109375,87.890625,0.0
46.27734375,-43.45703125,-18.06640625,-33.69140625,-32.2265625,43.9453125,0.0
46.28125,-26.85546875,-19.53125,-33.69140625,-24.90234375,-30.2734375,0.0
46.28515625,-25.390625,-17.08984375,-29.296875,-24.90234375,125.0,0.0
46.2890625,-40.52734375,-10.7421875,-27.83203125,-26.85546875,195.80078125,0.0
46.29296875,-45.8984375,-20.5078125,-41.015625,-26.3671875,63.96484375,0.0
46.296875,-40.52734375,-28.80859375,-41.015625,-20.01953125,-25.390625,0.0
46.30078125,-26.3671875,-22.94921875,-27.34375,-20.99609375,-31.25,0.0
46.3046875,-12.6953125,-25.87890625,-25.87890625,-28.80859375,-3.41796875,0.0
46.30859375,-8.7890625,-31.25,-34.1796875,-28.80859375,29.78515625,0.0
46.3125,-7.32421875,-26.3671875,-35.15625,-20.01953125,72.265625,0.0
46.31640625,-20.5078125,-24.90234375,-26.85546875,-16.11328125,7.8125,0.0
46.3203125,-36.1328125,-24.4140625,-25.87890625,-23.92578125,-97.16796875,0.0
46.32421875,-29.78515625,-20.01953125,-24.4140625,-23.92578125,-33.69140625,0.0
46.328125,-31.73828125,-23.92578125,-26.85546875,-23.4375,-14.6484375,0.0
46.33203125,-39.0625,-26.85546875,-29.78515625,-34.1796875,-70.3125,0.0
46.3359375,-45.8984375,-23.92578125,-28.80859375,-37.109375,-121.09375,0.0
46.33984375,-40.0390625,-25.390625,-28.3203125,-32.2265625,-123.53515625,0.0
46.34375,-28.80859375,-23.4375,-28.80859375,-31.25,-90.8203125,0.0
46.34765625,-27.34375,-19.53125,-31.25,-29.78515625,-54.19921875,0.0
46.3515625,-34.66796875,-25.390625,-32.2265625,-29.78515625,-46.38671875,0.0
46.35546875,-45.41015625,-29.78515625,-33.69140625,-27.34375,-58.59375,0.0
46.359375,-40.52734375,-29.296875,-29.78515625,-25.87890625,-68.359375,0.0
46.36328125,-37.59765625,-32.2265625,-29.296875,-33.69140625,-53.22265625,0.0
46.3671875,-41.9921875,-29.296875,-31.73828125,-31.25,-74.21875,0.0
46.37109375,-42.96875,-28.80859375,-34.1796875,-27.83203125,-17.08984375,0.0
46.375,-50.29296875,-38.0859375,-36.62109375,-28.3203125,33.69140625,0.0
46.37890625,-44.921875,-33.69140625,-34.1796875,-24.90234375,24.4140625,0.0
46.3828125,-34.66796875,-21.97265625,-30.2734375,-29.296875,29.296875,0.0
46.38671875,-35.15625,-15.625,-30.2734375,-38.0859375,-29.78515625,0.0
46.390625,-22.94921875,-14.6484375,-37.109375,-43.45703125,-7.32421875,0.0
46.39453125,-30.76171875,-21.97265625,-34.1796875,-32.71484375,-26.3671875,0.0
46.3984375,-38.0859375,-19.53125,-29.296875,-25.390625,-15.625,0.0
46.40234375,-24.4140625,-7.8125,-24.4140625,-21.97265625,76.171875,0.0
46.40625,-25.390625,-5.37109375,-20.01953125,-19.53125,20.99609375,0.0
46.41015625,-33.203125,-17.578125,-29.78515625,-24.4140625,-53.7109375,0.0
46.4140625,-39.0625,-22.4609375,-30.76171875,-24.4140625,-45.8984375,0.0
46.41796875,-27.83203125,-14.6484375,-26.3671875,-18.5546875,-38.0859375,0.0
46.421875,-15.13671875,-8.7890625,-25.390625,-18.06640625,-49.8046875,0.0
46.42578125,-10.7421875,-2.44140625,-24.4140625,-24.4140625,-26.85546875,0.0
46.4296875,-20.5078125,7.32421875,-29.296875,-28.80859375,-41.9921875,0.0
46.43359375,-33.69140625,2.44140625,-34.1796875,-27.34375,-119.62890625,0.0
46.4375,-21.484375,-19.04296875,-28.80859375,-21.97265625,-82.03125,0.0
46.44140625,-15.13671875,-17.08984375,-20.01953125,-20.01953125,-50.29296875,0.0
46.4453125,-15.13671875,-3.90625,-21.97265625,-20.5078125,-90.8203125,0.0
46.44921875,-11.23046875,-2.44140625,-25.390625,-17.578125,-126.953125,0.0
46.453125,-18.5546875,-6.34765625,-26.85546875,-13.18359375,-86.42578125,0.0
46.45703125,-24.4140625,-12.20703125,-27.34375,-12.20703125,-36.1328125,0.0
46.4609375,-23.4375,-19.04296875,-25.390625,-22.94921875,12.6953125,0.0
46.46484375,-20.5078125,-15.625,-23.4375,-34.66796875,75.1953125,0.0
46.46875,-28.80859375,-12.6953125,-28.3203125,-33.69140625,93.26171875,0.0
46.47265625,-34.66796875,-19.53125,-37.109375,-37.59765625,-6.8359375,0.0
46.4765625,-32.2265625,-18.5546875,-36.1328125,-30.2734375,-162.109375,0.0
46.48046875,-22.4609375,-10.7421875,-26.3671875,-23.4375,-149.4140625,0.0
46.484375,-7.32421875,-4.39453125,-24.90234375,-29.78515625,-11.71875,0.0
46.48828125,-24.4140625,1.46484375,-25.87890625,-27.83203125,41.50390625,0.0
46.4921875,-48.33984375,-0.9765625,-31.25,-22.94921875,82.51953125,0.0
46.49609375,-45.41015625,-11.71875,-36.62109375,-29.296875,38.0859375,0.0
46.5,-30.76171875,-10.7421875,-28.3203125,-28.3203125,17.08984375,0.0
46.50390625,-22.94921875,-3.41796875,-27.83203125,-25.87890625,63.4765625,0.0
46.5078125,-29.296875,-3.41796875,-34.1796875,-22.94921875,107.421875,0.0
46.51171875,-30.76171875,-3.41796875,-34.1796875,-22.94921875,132.32421875,0.0
46.515625,-38.57421875,-8.30078125,-35.15625,-30.76171875,108.3984375,0.0
46.51953125,-44.921875,-17.08984375,-34.1796875,-32.2265625,82.51953125,0.0
46.5234375,-27.34375,-16.11328125,-29.78515625,-26.3671875,0.9765625,0.0
46.52734375,-19.53125,-11.23046875,-32.2265625,-24.90234375,-11.23046875,0.0
46.53125,-24.90234375,-11.23046875,-35.64453125,-31.25,90.33203125,0.0
46.53515625,-21.484375,-10.7421875,-30.2734375,-29.78515625,14.16015625,0.0
46.5390625,-22.4609375,-15.13671875,-30.76171875,-29.78515625,-60.546875,0.0
46.54296875,-17.578125,-13.671875,-29.296875,-40.0390625,18.06640625,0.0
46.546875,-7.8125,-6.8359375,-29.78515625,-46.875,52.734375,0.0
46.55078125,-11.23046875,-9.765625,-35.64453125,-46.875,10.25390625,0.0
46.5546875,-13.18359375,-10.25390625,-38.0859375,-46.38671875,-7.32421875,0.0
46.55859375,-16.11328125,-12.6953125,-39.0625,-44.43359375,-8.7890625,0.0
46.5625,-22.94921875,-21.484375,-36.62109375,-44.43359375,-38.0859375,0.0
46.56640625,-12.6953125,-16.6015625,-27.83203125,-40.0390625,-14.16015625,0.0
46.5703125,-18.5546875,-11.23046875,-26.85546875,-35.64453125,20.5078125,0.0
46.57421875,-26.85546875,-9.27734375,-28.80859375,-30.2734375,1.46484375,0.0
46.578125,-26.85546875,-13.18359375,-26.3671875,-27.34375,-11.71875,0.0
46.58203125,-18.5546875,-14.6484375,-22.4609375,-23.92578125,4.8828125,0.0
46.5859375,1.46484375,-5.859375,-18.5546875,-14.6484375,80.56640625,0.0
46.58984375,1.953125,-0.9765625,-27.34375,-13.671875,124.51171875,0.0
46.59375,-23.92578125,-13.671875,-39.0625,-25.390625,82.51953125,0.0
46.59765625,-40.0390625,-26.3671875,-36.62109375,-24.90234375,-22.4609375,0.0
46.6015625,-24.4140625,-16.6015625,-27.83203125,-11.23046875,-8.7890625,0.0
46.60546875,-4.8828125,-3.90625,-26.3671875,-8.30078125,3.41796875,0.0
46.609375,-9.765625,-3.41796875,-34.1796875,-20.01953125,-20.5078125,0.0
46.61328125,-30.2734375,-0.9765625,-34.66796875,-20.5078125,-11.71875,0.0
46.6171875,-24.4140625,7.8125,-28.80859375,-10.25390625,-61.03515625,0.0
46.62109375,-23.92578125,7.8125,-28.80859375,-8.7890625,-55.17578125,0.0
46.625,-26.3671875,-5.859375,-31.73828125,-14.16015625,12.6953125,0.0
46.62890625,-11.71875,-12.6953125,-32.71484375,-10.25390625,34.1796875,0.0
46.6328125,-9.765625,-9.27734375,-36.62109375,-2.44140625,-17.08984375,0.0
46.63671875,-16.6015625,-10.25390625,-35.64453125,-17.578125,1.46484375,0.0
46.640625,-15.625,-20.99609375,-33.69140625,-27.34375,-50.29296875,0.0
46.64453125,-12.20703125,-14.16015625,-32.2265625,-33.69140625,-114.2578125,0.0
46.6484375,-31.73828125,-7.8125,-34.66796875,-43.9453125,-21.97265625,0.0
46.65234375,-52.734375,-20.99609375,-41.9921875,-47.8515625,-11.71875,0.0
46.65625,-64.453125,-27.83203125,-44.921875,-57.12890625,-45.41015625,0.0
46.66015625,-47.36328125,-29.78515625,-28.80859375,-59.5703125,-18.06640625,0.0
46.6640625,-36.62109375,-25.390625,-18.5546875,-53.7109375,37.109375,0.0
46.66796875,-58.59375,-23.4375,-31.25,-59.5703125,29.78515625,0.0
46.671875,-60.546875,-29.78515625,-42.48046875,-67.87109375,40.0390625,0.0
46.67578125,-56.640625,-20.01953125,-40.0390625,-59.08203125,-19.04296875,0.0
46.6796875,-73.73046875,-20.01953125,-31.73828125,-51.7578125,-102.05078125,0.0
46.68359375,-61.03515625,-18.06640625,-27.34375,-43.9453125,-92.7734375,0.0
46.6875,-44.921875,-15.13671875,-32.71484375,-36.62109375,-32.71484375,0.0
46.69140625,-41.015625,-20.5078125,-35.64453125,-35.64453125,-21.484375,0.0
46.6953125,-52.24609375,-17.578125,-32.2265625,-28.80859375,84.9609375,0.0
46.69921875,-45.41015625,-13.671875,-31.73828125,-18.5546875,144.04296875,0.0
46.703125,-21.97265625,-16.11328125,-38.0859375,-17.578125,33.69140625,0.0
46.70703125,-12.6953125,-22.94921875,-38.0859375,-22.4609375,21.484375,0.0
46.7109375,-26.85546875,-32.71484375,-33.203125,-23.4375,-18.06640625,0.0
46.71484375,-30.76171875,-23.4375,-37.59765625,-19.53125,25.87890625,0.0
46.71875,-23.92578125,-13.18359375,-36.62109375,-12.20703125,117.67578125,0.0
46.72265625,-14.16015625,-9.27734375,-32.2265625,-19.53125,104.98046875,0.0
46.7265625,-2.44140625,-6.34765625,-35.15625,-23.4375,91.30859375,0.0
46.73046875,-15.13671875,-11.23046875,-40.0390625,-20.99609375,37.59765625,0.0
46.734375,-33.69140625,-18.5546875,-39.0625,-19.04296875,-66.89453125,0.0
46.73828125,-24.4140625,-21.97265625,-32.2265625,-12.20703125,-127.9296875,0.0
46.7421875,-4.8828125,-12.6953125,-26.3671875,-1.46484375,-106.93359375,0.0
46.74609375,3.90625,-3.90625,-25.87890625,-5.37109375,-11.71875,0.0
46.75,-3.90625,-16.6015625,-28.80859375,-9.765625,31.25,0.0
46.75390625,-13.18359375,-22.94921875,-31.25,-4.39453125,-21.484375,0.0
46.7578125,-18.06640625,-12.20703125,-26.85546875,-0.48828125,-147.94921875,0.0
46.76171875,-14.16015625,-9.765625,-28.3203125,-12.20703125,-154.78515625,0.0
46.765625,-20.5078125,-9.765625,-37.59765625,-25.87890625,-90.33203125,0.0
46.76953125,-10.25390625,-6.34765625,-34.1796875,-16.6015625,-89.35546875,0.0
46.7734375,-3.90625,-9.27734375,-29.78515625,-11.71875,10.25390625,0.0
46.77734375,-6.34765625,-11.71875,-29.78515625,-5.859375,-29.78515625,0.0
46.78125,3.41796875,-9.765625,-25.87890625,-2.44140625,-76.66015625,0.0
46.78515625,12.6953125,-4.8828125,-25.390625,-13.18359375,107.91015625,0.0
46.7890625,10.25390625,-7.32421875,-32.71484375,-24.4140625,130.37109375,0.0
46.79296875,-12.20703125,-13.18359375,-33.203125,-24.90234375,-18.06640625,0.0
46.796875,-10.7421875,-7.8125,-31.25,-20.5078125,-23.92578125,0.0
46.80078125,-2.9296875,-1.953125,-21.97265625,-12.20703125,89.84375,0.0
46.8046875,-1.46484375,2.9296875,-16.11328125,-6.8359375,72.265625,0.0
46.80859375,-5.37109375,11.23046875,-30.2734375,-21.484375,28.80859375,0.0
46.8125,-16.6015625,7.32421875,-41.015625,-30.76171875,17.08984375,0.0
46.81640625,-21.97265625,2.9296875,-33.69140625,-22.94921875,-56.640625,0.0
46.8203125,-12.6953125,1.953125,-27.34375,-24.90234375,-8.7890625,0.0
46.82421875,-5.859375,-3.41796875,-29.78515625,-26.3671875,-11.71875,0.0
46.828125,-18.5546875,-11.23046875,-36.62109375,-28.80859375,-90.8203125,0.0
46.83203125,-24.4140625,-14.16015625,-41.015625,-34.1796875,-43.45703125,0.0
46.8359375,-16.6015625,-4.8828125,-39.0625,-36.62109375,46.38671875,0.0
46.83984375,-7.8125,13.671875,-27.34375,-24.90234375,93.75,0.0
46.84375,-1.953125,17.578125,-25.87890625,-18.06640625,41.50390625,0.0
46.84765625,-14.16015625,5.37109375,-31.25,-20.99609375,-33.203125,0.0
46.8515625,-27.83203125,0.48828125,-34.1796875,-23.92578125,10.7421875,0.0
46.85546875,-26.85546875,2.9296875,-35.64453125,-21.484375,7.8125,0.0
46.859375,-7.32421875,11.71875,-32.71484375,-17.578125,-20.5078125,0.0
46.86328125,-10.25390625,9.27734375,-30.76171875,-18.06640625,-24.90234375,0.0
46.8671875,-20.01953125,0.0,-26.3671875,-9.27734375,24.90234375,0.0
46.87109375,-10.25390625,1.46484375,-34.1796875,-8.7890625,-5.859375,0.0
46.875,-23.92578125,0.0,-37.59765625,-26.85546875,-141.6015625,0.0
46.87890625,-24.4140625,7.32421875,-28.80859375,-32.71484375,-150.390625,0.0
46.8828125,-9.27734375,21.97265625,-22.94921875,-32.71484375,-74.70703125,0.0
46.88671875,-12.6953125,22.4609375,-25.87890625,-31.73828125,-91.796875,0.0
46.890625,-25.87890625,17.578125,-36.1328125,-38.0859375,-95.21484375,0.0
46.89453125,-20.01953125,15.13671875,-32.2265625,-35.15625,-20.99609375,0.0
46.8984375,-21.484375,11.23046875,-23.4375,-22.94921875,-66.40625,0.0
46.90234375,-27.34375,15.625,-27.83203125,-24.90234375,-142.578125,0.0
46.90625,-15.13671875,24.4140625,-29.296875,-27.83203125,-113.76953125,0.0
46.91015625,-20.01953125,26.85546875,-27.34375,-31.25,-156.73828125,0.0
46.9140625,-23.4375,12.20703125,-29.78515625,-39.55078125,-198.2421875,0.0
46.91796875,-8.7890625,8.30078125,-28.3203125,-33.203125,-79.58984375,0.0
46.921875,-5.859375,20.5078125,-29.296875,-28.80859375,-55.6640625,0.0
46.92578125,-20.99609375,31.73828125,-30.76171875,-36.62109375,-92.28515625,0.0
46.9296875,-30.2734375,28.80859375,-29.78515625,-34.66796875,-89.84375,0.0
46.93359375,-29.78515625,22.4609375,-32.71484375,-31.25,-117.67578125,0.0
46.9375,-35.15625,24.4140625,-32.2265625,-31.73828125,-66.89453125,0.0
46.94140625,-29.78515625,28.3203125,-28.80859375,-24.90234375,-31.73828125,0.0
46.9453125,-18.5546875,30.2734375,-24.4140625,-19.53125,-33.203125,0.0
46.94921875,-17.578125,29.78515625,-26.85546875,-26.3671875,63.4765625,0.0
46.953125,-17.578125,30.76171875,-32.2265625,-26.3671875,128.90625,0.0
46.95703125,-16.11328125,38.57421875,-34.1796875,-15.625,125.0,0.0
46.9609375,-12.6953125,39.55078125,-31.73828125,-18.5546875,78.125,0.0
46.96484375,-11.71875,45.41015625,-25.390625,-22.4609375,126.953125,0.0
46.96875,-8.7890625,53.22265625,-23.92578125,-19.04296875,217.28515625,0.0
46.97265625,-15.13671875,54.6875,-25.87890625,-12.20703125,187.5,0.0
46.9765625,-26.3671875,59.5703125,-29.296875,-13.671875,120.60546875,0.0
46.98046875,-27.34375,66.89453125,-26.85546875,-19.53125,90.33203125,0.0
46.984375,-26.3671875,68.84765625,-25.87890625,-19.04296875,77.63671875,0.0
46.98828125,-31.25,78.125,-25.87890625,-23.92578125,99.12109375,0.0
46.9921875,-32.71484375,93.26171875,-26.3671875,-25.390625,78.61328125,0.0
46.99609375,-36.1328125,94.7265625,-28.80859375,-27.83203125,16.6015625,0.0
47.0,-29.296875,94.7265625,-24.4140625,-29.296875,57.12890625,0.0
47.00390625,-13.671875,112.79296875,-20.99609375,-25.87890625,66.89453125,0.0
47.0078125,-34.1796875,132.8125,-23.92578125,-30.76171875,75.68359375,0.0
47.01171875,-41.9921875,146.484375,-28.3203125,-36.1328125,26.85546875,0.0
47.015625,-31.73828125,153.80859375,-23.92578125,-28.80859375,56.640625,0.0
47.01953125,-40.52734375,166.9921875,-17.578125,-26.85546875,68.359375,0.0
47.0234375,-32.2265625,189.453125,-15.625,-27.34375,45.41015625,0.0
47.02734375,-16.11328125,214.84375,-20.99609375,-28.3203125,93.75,0.0
47.03125,-17.08984375,235.3515625,-30.76171875,-17.578125,71.77734375,0.0
47.03515625,-25.390625,251.46484375,-14.6484375,-7.8125,-14.16015625,0.0
47.0390625,-38.57421875,269.53125,-2.9296875,-23.92578125,-44.43359375,0.0
47.04296875,-23.92578125,297.36328125,-6.8359375,-32.2265625,38.57421875,0.0
47.046875,-28.80859375,319.3359375,-13.18359375,-32.71484375,18.06640625,0.0
47.05078125,-40.0390625,334.47265625,-19.53125,-33.69140625,-75.68359375,0.0
47.0546875,-39.0625,354.00390625,-21.97265625,-32.2265625,16.11328125,0.0
47.05859375,-26.85546875,376.46484375,-16.6015625,-27.34375,44.921875,0.0
47.0625,-10.25390625,403.3203125,-19.04296875,-31.73828125,-52.24609375,0.0
47.06640625,-12.20703125,431.15234375,-20.5078125,-36.1328125,30.2734375,0.0
47.0703125,-13.18359375,453.61328125,-20.99609375,-31.25,27.83203125,0.0
47.07421875,-20.99609375,477.05078125,-26.3671875,-25.87890625,3.90625,0.0
47.078125,-32.71484375,488.76953125,-28.3203125,-30.2734375,33.203125,0.0
47.08203125,-18.06640625,505.37109375,-23.4375,-31.25,5.859375,0.0
47.0859375,-18.5546875,529.78515625,-20.01953125,-27.83203125,3.41796875,0.0
47.08984375,-27.83203125,532.2265625,-28.80859375,-34.1796875,8.30078125,0.0
47.09375,-33.203125,522.4609375,-33.69140625,-35.15625,-19.04296875,0.0
47.09765625,-34.1796875,532.2265625,-27.83203125,-26.85546875,-21.97265625,0.0
47.1015625,-20.5078125,558.10546875,-29.296875,-22.4609375,102.5390625,0.0
47.10546875,-10.7421875,569.82421875,-29.78515625,-26.85546875,107.91015625,0.0
47.109375,-17.578125,571.77734375,-29.78515625,-36.1328125,-12.6953125,0.0
47.11328125,-28.3203125,578.125,-33.69140625,-29.78515625,-83.984375,0.0
47.1171875,-27.83203125,579.58984375,-28.3203125,-19.53125,-58.10546875,0.0
47.12109375,-20.5078125,590.33203125,-22.94921875,-18.06640625,73.73046875,0.0
47.125,-13.18359375,601.5625,-25.390625,-16.11328125,105.46875,0.0
47.12890625,-8.30078125,605.95703125,-29.78515625,-17.08984375,-47.36328125,0.0
47.1328125,-12.20703125,608.88671875,-30.76171875,-18.5546875,-80.078125,0.0
47.13671875,-9.765625,603.02734375,-31.73828125,-25.390625,-53.22265625,0.0
47.140625,-5.37109375,595.21484375,-30.2734375,-28.3203125,-34.66796875,0.0
47.14453125,-3.41796875,592.7734375,-31.73828125,-30.2734375,21.97265625,0.0
47.1484375,-7.8125,591.30859375,-38.0859375,-33.203125,69.3359375,0.0
47.15234375,-28.3203125,584.9609375,-34.1796875,-28.3203125,96.19140625,0.0
47.15625,-29.78515625,575.1953125,-32.2265625,-33.203125,75.1953125,0.0
47.16015625,-15.625,579.1015625,-30.2734375,-35.15625,66.40625,0.0
47.1640625,-6.34765625,587.890625,-25.87890625,-32.2265625,68.359375,0.0
47.16796875,-3.90625,582.51953125,-28.80859375,-34.1796875,46.875,0.0
47.171875,-0.9765625,580.56640625,-29.296875,-36.1328125,62.5,0.0
47.17578125,-16.6015625,574.70703125,-28.80859375,-35.64453125,126.46484375,0.0
47.1796875,-29.78515625,562.01171875,-29.296875,-34.1796875,71.2890625,0.0
47.18359375,-10.7421875,554.6875,-29.78515625,-39.0625,-35.15625,0.0
47.1875,-8.7890625,555.6640625,-33.69140625,-37.109375,16.6015625,0.0
47.19140625,-28.80859375,555.6640625,-37.59765625,-31.73828125,78.61328125,0.0
47.1953125,-24.4140625,543.9453125,-33.69140625,-27.34375,45.41015625,0.0
47.19921875,-17.08984375,533.69140625,-21.484375,-16.6015625,25.87890625,0.0
47.203125,-28.3203125,522.4609375,-24.90234375,-12.6953125,48.828125,0.0
47.20703125,-26.85546875,519.04296875,-25.87890625,-21.97265625,41.50390625,0.0
47.2109375,-23.92578125,519.53125,-30.76171875,-26.3671875,6.34765625,0.0
47.21484375,-26.85546875,505.859375,-36.1328125,-24.4140625,-69.82421875,0.0
47.21875,-22.4609375,488.76953125,-28.80859375,-18.5546875,-73.2421875,0.0
47.22265625,-14.16015625,472.65625,-20.99609375,-32.71484375,-56.640625,0.0
47.2265625,-19.53125,463.37890625,-19.04296875,-43.45703125,-83.984375,0.0
47.23046875,-33.69140625,455.56640625,-26.85546875,-39.55078125,-21.97265625,0.0
47.234375,-36.62109375,437.5,-34.1796875,-31.73828125,9.765625,0.0
47.23828125,-36.1328125,429.19921875,-31.73828125,-28.3203125,-70.3125,0.0
47.2421875,-22.4609375,431.640625,-21.97265625,-29.296875,-82.51953125,0.0
47.24609375,-20.99609375,421.38671875,-23.92578125,-31.25,-52.734375,0.0
47.25,-22.4609375,412.109375,-28.3203125,-28.3203125,-81.54296875,0.0
47.25390625,-19.53125,399.90234375,-24.4140625,-23.4375,-111.81640625,0.0
47.2578125,-30.2734375,382.32421875,-21.97265625,-26.3671875,-99.12109375,0.0
47.26171875,-32.2265625,377.44140625,-21.484375,-29.78515625,-38.0859375,0.0
47.265625,-21.97265625,372.0703125,-24.4140625,-29.296875,-72.265625,0.0
47.26953125,-26.3671875,364.2578125,-32.2265625,-21.97265625,-96.19140625,0.0
47.2734375,-36.62109375,354.98046875,-30.2734375,-21.484375,-6.8359375,0.0
47.27734375,-33.203125,339.35546875,-26.85546875,-18.06640625,31.73828125,0.0
47.28125,-28.80859375,324.21875,-28.3203125,-16.11328125,37.59765625,0.0
47.28515625,-21.484375,324.21875,-25.87890625,-22.94921875,60.546875,0.0
47.2890625,-17.08984375,312.98828125,-29.296875,-19.04296875,-20.99609375,0.0
47.29296875,-20.99609375,298.33984375,-36.1328125,-17.08984375,-54.6875,0.0
47.296875,-16.11328125,292.48046875,-32.71484375,-15.625,-27.83203125,0.0
47.30078125,-5.37109375,286.62109375,-23.4375,-16.6015625,48.828125,0.0
47.3046875,5.37109375,274.4140625,-20.01953125,-18.5546875,71.2890625,0.0
47.30859375,9.765625,261.23046875,-27.34375,-25.390625,56.640625,0.0
47.3125,-5.859375,243.1640625,-33.203125,-34.1796875,81.0546875,0.0
47.31640625,-10.7421875,226.07421875,-28.80859375,-32.71484375,44.43359375,0.0
47.3203125,-3.41796875,223.14453125,-19.04296875,-26.85546875,0.9765625,0.0
47.32421875,3.90625,215.33203125,-24.90234375,-29.78515625,0.9765625,0.0
47.328125,-2.9296875,192.3828125,-30.76171875,-41.015625,39.55078125,0.0
47.33203125,-12.6953125,172.8515625,-25.87890625,-40.52734375,83.49609375,0.0
47.3359375,-18.5546875,153.80859375,-26.85546875,-33.69140625,26.85546875,0.0
47.33984375,-29.296875,143.5546875,-26.3671875,-33.203125,23.92578125,0.0
47.34375,-22.4609375,131.8359375,-20.01953125,-31.25,64.453125,0.0
47.34765625,-22.4609375,113.28125,-23.4375,-30.2734375,30.76171875,0.0
47.3515625,-35.64453125,101.07421875,-32.2265625,-45.8984375,-40.52734375,0.0
47.35546875,-31.25,94.7265625,-31.73828125,-43.45703125,-10.7421875,0.0
47.359375,-23.4375,85.9375,-28.3203125,-28.80859375,42.96875,0.0
47.36328125,-35.15625,82.03125,-22.4609375,-33.203125,41.50390625,0.0
47.3671875,-40.52734375,83.49609375,-21.97265625,-32.2265625,-44.43359375,0.0
47.37109375,-48.828125,69.82421875,-28.80859375,-36.1328125,-75.68359375,0.0
47.375,-50.78125,47.36328125,-34.1796875,-35.64453125,-20.5078125,0.0
47.37890625,-44.921875,38.0859375,-32.71484375,-31.25,-2.9296875,0.0
47.3828125,-34.66796875,31.25,-28.80859375,-38.57421875,-5.37109375,0.0
47.38671875,-38.57421875,20.5078125,-27.83203125,-45.8984375,-45.41015625,0.0
47.390625,-55.6640625,11.23046875,-33.69140625,-49.31640625,-65.4296875,0.0
47.39453125,-53.7109375,7.32421875,-31.73828125,-42.48046875,-29.78515625,0.0
47.3984375,-51.7578125,9.27734375,-29.296875,-35.15625,41.9921875,0.0
47.40234375,-54.6875,10.7421875,-26.3671875,-30.2734375,30.2734375,0.0
47.40625,-51.7578125,8.30078125,-23.4375,-33.203125,-49.8046875,0.0
47.41015625,-42.96875,5.37109375,-25.87890625,-42.48046875,-80.56640625,0.0
47.4140625,-52.734375,0.9765625,-24.90234375,-47.8515625,-91.796875,0.0
47.41796875,-63.96484375,-8.7890625,-28.80859375,-50.78125,-49.31640625,0.0
47.421875,-62.98828125,-8.7890625,-36.62109375,-42.48046875,-3.41796875,0.0
47.42578125,-56.15234375,1.46484375,-34.1796875,-40.0390625,-136.23046875,0.0
47.4296875,-56.15234375,-0.9765625,-33.203125,-51.26953125,-177.24609375,0.0
47.43359375,-67.87109375,-6.8359375,-36.1328125,-53.22265625,-68.359375,0.0
47.4375,-62.01171875,-11.71875,-30.76171875,-38.0859375,-82.51953125,0.0
47.44140625,-32.2265625,-13.18359375,-17.08984375,-17.578125,-88.8671875,0.0
47.4453125,-24.4140625,-5.37109375,-19.53125,-24.90234375,-101.5625,0.0
47.44921875,-58.10546875,0.9765625,-33.69140625,-43.9453125,-84.47265625,0.0
47.453125,-61.03515625,2.9296875,-34.66796875,-32.71484375,9.27734375,0.0
47.45703125,-32.71484375,8.30078125,-33.69140625,-22.4609375,134.27734375,0.0
47.4609375,-21.484375,7.32421875,-32.71484375,-24.4140625,96.6796875,0.0
47.46484375,-25.390625,6.34765625,-29.78515625,-37.59765625,4.8828125,0.0
47.46875,-30.2734375,16.11328125,-29.78515625,-46.38671875,-18.5546875,0.0
47.47265625,-32.71484375,17.08984375,-30.2734375,-36.62109375,52.24609375,0.0
47.4765625,-31.73828125,15.625,-30.2734375,-28.80859375,52.24609375,0.0
47.48046875,-31.25,26.3671875,-26.85546875,-21.484375,-6.34765625,0.0
47.484375,-19.04296875,42.96875,-23.92578125,-24.4140625,55.6640625,0.0
47.48828125,-17.08984375,48.33984375,-25.390625,-28.3203125,154.78515625,0.0
47.4921875,-26.3671875,44.921875,-27.34375,-25.87890625,14.16015625,0.0
47.49609375,-41.50390625,54.19921875,-22.94921875,-25.390625,-53.22265625,0.0
47.5,-43.9453125,66.40625,-21.97265625,-28.3203125,30.2734375,0.0
47.50390625,-25.390625,75.68359375,-23.92578125,-35.64453125,85.9375,0.0
47.5078125,-15.625,88.37890625,-21.97265625,-38.57421875,83.49609375,0.0
47.51171875,-29.296875,88.8671875,-24.4140625,-37.59765625,57.6171875,0.0
47.515625,-39.55078125,82.51953125,-25.390625,-33.203125,74.70703125,0.0
47.51953125,-36.62109375,94.23828125,-16.6015625,-23.92578125,50.29296875,0.0
47.5234375,-24.90234375,104.00390625,-14.16015625,-22.94921875,41.9921875,0.0
47.52734375,-15.625,103.515625,-17.578125,-21.97265625,10.7421875,0.0
47.53125,-18.06640625,114.74609375,-19.53125,-20.01953125,-54.19921875,0.0
47.53515625,-20.5078125,137.20703125,-21.484375,-10.7421875,-39.55078125,0.0
47.5390625,-30.2734375,146.97265625,-18.5546875,-0.48828125,-6.34765625,0.0
47.54296875,-22.94921875,151.3671875,-15.13671875,-2.44140625,-14.16015625,0.0
47.546875,-12.6953125,156.25,-22.4609375,-14.16015625,-8.30078125,0.0
47.55078125,-20.5078125,165.0390625,-29.296875,-23.92578125,3.41796875,0.0
47.5546875,-29.296875,176.26953125,-26.85546875,-24.4140625,-51.7578125,0.0
47.55859375,-20.99609375,176.7578125,-24.4140625,-12.20703125,-34.66796875,0.0
47.5625,-6.8359375,182.6171875,-19.04296875,-10.25390625,-41.50390625,0.0
47.56640625,-23.4375,192.3828125,-23.4375,-29.78515625,-57.12890625,0.0
47.5703125,-39.55078125,196.77734375,-37.59765625,-35.15625,-36.62109375,0.0
47.57421875,-41.9921875,205.56640625,-36.62109375,-28.80859375,17.578125,0.0
47.578125,-46.38671875,204.1015625,-35.15625,-31.25,51.7578125,0.0
47.58203125,-39.0625,209.47265625,-27.83203125,-30.76171875,48.828125,0.0
47.5859375,-23.4375,229.4921875,-20.5078125,-25.87890625,28.80859375,0.0
47.58984375,-29.296875,231.93359375,-25.87890625,-26.85546875,-54.19921875,0.0
47.59375,-41.015625,223.14453125,-28.3203125,-27.83203125,-16.11328125,0.0
47.59765625,-42.96875,223.6328125,-26.85546875,-34.1796875,68.359375,0.0
47.6015625,-34.1796875,242.1875,-22.94921875,-32.71484375,34.1796875,0.0
47.60546875,-27.83203125,255.859375,-19.53125,-26.85546875,4.8828125,0.0
47.609375,-33.69140625,249.51171875,-21.97265625,-32.2265625,-20.01953125,0.0
47.61328125,-43.45703125,249.51171875,-25.390625,-32.71484375,-18.5546875,0.0
47.6171875,-41.015625,263.18359375,-20.99609375,-35.15625,6.34765625,0.0
47.62109375,-33.203125,270.01953125,-19.53125,-37.59765625,56.15234375,0.0
47.625,-25.390625,276.3671875,-28.80859375,-35.64453125,65.91796875,0.0
47.62890625,-26.85546875,281.73828125,-30.2734375,-39.55078125,-18.06640625,0.0
47.6328125,-36.62109375,287.109375,-25.87890625,-44.921875,-9.765625,0.0
47.63671875,-35.15625,298.33984375,-26.3671875,-38.57421875,-18.06640625,0.0
47.640625,-33.69140625,298.33984375,-26.3671875,-31.25,-60.546875,0.0
47.64453125,-24.90234375,304.19921875,-24.4140625,-33.69140625,7.8125,0.0
47.6484375,-19.04296875,315.91796875,-28.80859375,-39.0625,26.85546875,0.0
47.65234375,-40.52734375,317.3828125,-32.71484375,-34.66796875,41.9921875,0.0
47.65625,-48.828125,309.5703125,-32.71484375,-33.203125,53.7109375,0.0
47.66015625,-28.80859375,310.05859375,-29.296875,-35.64453125,28.80859375,0.0
47.6640625,-32.71484375,313.96484375,-28.80859375,-39.0625,34.1796875,0.0
47.66796875,-34.1796875,318.359375,-30.2734375,-35.15625,11.23046875,0.0
47.671875,-31.25,321.2890625,-29.78515625,-32.71484375,-21.484375,0.0
47.67578125,-33.69140625,318.359375,-21.97265625,-37.59765625,69.82421875,0.0
47.6796875,-38.0859375,313.4765625,-16.11328125,-36.62109375,145.01953125,0.0
47.68359375,-25.87890625,312.01171875,-19.53125,-28.80859375,143.06640625,0.0
47.6875,-12.6953125,316.40625,-25.390625,-30.76171875,115.234375,0.0
47.69140625,-35.15625,315.4296875,-33.203125,-38.0859375,6.34765625,0.0
47.6953125,-37.59765625,321.2890625,-32.71484375,-35.15625,-87.890625,0.0
47.69921875,-22.94921875,330.078125,-22.4609375,-32.2265625,-38.57421875,0.0
47.703125,-14.6484375,332.51953125,-15.625,-31.25,-43.45703125,0.0
47.70703125,-13.671875,341.796875,-17.08984375,-30.76171875,-18.5546875,0.0
47.7109375,-18.06640625,348.6328125,-19.53125,-25.390625,52.24609375,0.0
47.71484375,-18.06640625,347.65625,-14.16015625,-18.5546875,27.83203125,0.0
47.71875,-21.484375,348.14453125,-14.16015625,-16.6015625,25.390625,0.0
47.72265625,-25.87890625,351.5625,-21.97265625,-11.23046875,-40.52734375,0.0
47.7265625,-19.04296875,358.3984375,-23.4375,-10.25390625,-103.02734375,0.0
47.73046875,-19.04296875,356.93359375,-29.296875,-14.16015625,-87.40234375,0.0
47.734375,-30.76171875,352.05078125,-32.2265625,-18.06640625,11.23046875,0.0
47.73828125,-37.59765625,345.21484375,-26.85546875,-20.01953125,51.7578125,0.0
47.7421875,-26.3671875,349.609375,-28.3203125,-17.578125,7.32421875,0.0
47.74609375,-8.30078125,356.4453125,-30.2734375,-18.5546875,-28.3203125,0.0
47.75,-14.16015625,346.6796875,-34.66796875,-27.34375,-94.7265625,0.0
47.75390625,-21.97265625,340.33203125,-38.57421875,-35.15625,-57.12890625,0.0
47.7578125,-8.30078125,337.890625,-30.2734375,-29.296875,-20.01953125,0.0
47.76171875,-9.27734375,344.7265625,-20.5078125,-24.90234375,-63.96484375,0.0
47.765625,-9.765625,361.328125,-19.53125,-30.76171875,-38.0859375,0.0
47.76953125,-10.7421875,362.3046875,-29.296875,-22.94921875,62.98828125,0.0
47.7734375,-11.71875,351.5625,-33.203125,-3.41796875,41.50390625,0.0
47.77734375,-21.484375,354.98046875,-34.66796875,-14.6484375,-24.90234375,0.0
47.78125,-39.55078125,366.2109375,-37.109375,-42.96875,54.19921875,0.0
47.78515625,-57.12890625,369.62890625,-37.109375,-59.5703125,67.87109375,0.0
47.7890625,-61.5234375,368.1640625,-39.55078125,-71.77734375,-34.66796875,0.0
47.79296875,-63.4765625,359.86328125,-41.9921875,-72.265625,-58.59375,0.0
47.796875,-69.3359375,361.81640625,-39.0625,-65.4296875,-34.1796875,0.0
47.80078125,-60.546875,376.46484375,-37.59765625,-65.91796875,31.73828125,0.0
47.8046875,-57.12890625,383.30078125,-35.64453125,-68.84765625,76.66015625,0.0
47.80859375,-61.03515625,378.41796875,-32.71484375,-75.1953125,37.109375,0.0
47.8125,-55.17578125,372.55859375,-36.62109375,-76.66015625,-47.8515625,0.0
47.81640625,-61.03515625,375.0,-33.203125,-68.84765625,-90.33203125,0.0
47.8203125,-55.17578125,385.7421875,-24.90234375,-58.10546875,-173.33984375,0.0
47.82421875,-36.62109375,396.484375,-23.4375,-46.875,-197.75390625,0.0
47.828125,-33.69140625,396.484375,-31.73828125,-48.33984375,-104.00390625,0.0
47.83203125,-43.45703125,397.94921875,-34.66796875,-48.33984375,-85.44921875,0.0
47.8359375,-39.55078125,404.78515625,-27.83203125,-36.62109375,-53.7109375,0.0
47.83984375,-35.64453125,398.4375,-22.94921875,-34.66796875,0.0,0.0
47.84375,-42.96875,395.5078125,-28.3203125,-34.66796875,29.296875,0.0
47.84765625,-40.52734375,412.59765625,-26.3671875,-37.109375,47.36328125,0.0
47.8515625,-42.96875,415.52734375,-28.3203125,-42.48046875,66.89453125,0.0
47.85546875,-53.22265625,403.3203125,-37.109375,-46.38671875,21.97265625,0.0
47.859375,-44.43359375,402.34375,-29.296875,-39.55078125,-29.78515625,0.0
47.86328125,-28.80859375,414.55078125,-22.94921875,-38.57421875,1.46484375,0.0
47.8671875,-37.59765625,418.9453125,-24.4140625,-38.57421875,-17.08984375,0.0
47.87109375,-45.8984375,411.1328125,-30.76171875,-30.76171875,-62.01171875,0.0
47.875,-35.64453125,407.2265625,-38.0859375,-22.94921875,-75.68359375,0.0
47.87890625,-36.1328125,407.2265625,-26.3671875,-21.97265625,-52.24609375,0.0
47.8828125,-42.96875,412.59765625,-11.71875,-21.484375,7.32421875,0.0
47.88671875,-36.1328125,409.66796875,-20.5078125,-21.97265625,-25.87890625,0.0
47.890625,-21.484375,397.94921875,-26.85546875,-21.484375,-85.44921875,0.0
47.89453125,-39.0625,384.765625,-23.4375,-17.08984375,-47.36328125,0.0
47.8984375,-56.15234375,378.90625,-25.390625,-13.671875,4.39453125,0.0
47.90234375,-40.52734375,391.6015625,-26.3671875,-11.71875,102.5390625,0.0
47.90625,-27.83203125,407.2265625,-27.34375,-15.625,154.296875,0.0
47.91015625,-27.83203125,413.0859375,-29.296875,-20.99609375,130.37109375,0.0
47.9140625,-25.87890625,407.71484375,-30.2734375,-25.390625,53.7109375,0.0
47.91796875,-26.85546875,397.4609375,-22.94921875,-24.4140625,-52.24609375,0.0
47.921875,-24.4140625,390.625,-20.01953125,-23.4375,-47.8515625,0.0
47.92578125,-25.390625,395.5078125,-20.01953125,-22.4609375,-8.30078125,0.0
47.9296875,-31.73828125,393.5546875,-23.92578125,-28.3203125,-4.8828125,0.0
47.93359375,-38.0859375,383.30078125,-35.15625,-32.2265625,-9.27734375,0.0
47.9375,-36.62109375,376.953125,-38.0859375,-27.34375,-23.92578125,0.0
47.94140625,-23.4375,376.46484375,-27.34375,-18.06640625,21.97265625,0.0
47.9453125,-22.4609375,379.39453125,-24.90234375,-19.53125,20.5078125,0.0
47.94921875,-32.2265625,377.44140625,-30.2734375,-29.78515625,19.04296875,0.0
47.953125,-34.1796875,368.1640625,-32.71484375,-28.3203125,18.06640625,0.0
47.95703125,-38.57421875,368.1640625,-34.1796875,-22.4609375,-29.296875,0.0
47.9609375,-34.1796875,374.0234375,-28.80859375,-20.5078125,52.24609375,0.0
47.96484375,-20.01953125,377.9296875,-29.296875,-24.90234375,57.12890625,0.0
47.96875,-17.578125,374.51171875,-32.2265625,-22.4609375,3.41796875,0.0
47.97265625,-25.87890625,364.74609375,-27.83203125,-20.01953125,-28.80859375,0.0
47.9765625,-31.73828125,364.2578125,-26.85546875,-24.90234375,-73.73046875,0.0
47.98046875,-29.296875,363.76953125,-21.97265625,-24.4140625,-31.25,0.0
47.984375,-16.11328125,358.88671875,-22.94921875,-22.94921875,48.33984375,0.0
47.98828125,-12.6953125,353.515625,-24.4140625,-22.4609375,46.875,0.0
47.9921875,-25.390625,338.37890625,-27.83203125,-23.4375,-7.32421875,0.0
47.99609375,-31.73828125,329.1015625,-33.69140625,-25.87890625,14.16015625,0.0
48.0,-27.34375,334.47265625,-26.3671875,-25.390625,29.78515625,0.0
48.00390625,-21.484375,337.890625,-20.99609375,-22.94921875,12.20703125,0.0
48.0078125,-24.90234375,336.9140625,-24.90234375,-26.85546875,12.20703125,0.0
48.01171875,-28.80859375,333.0078125,-22.94921875,-24.4140625,-25.390625,0.0
48.015625,-24.4140625,328.61328125,-21.97265625,-27.83203125,-98.6328125,0.0
48.01953125,-25.390625,331.0546875,-24.4140625,-33.203125,-97.16796875,0.0
48.0234375,-28.3203125,337.40234375,-20.99609375,-40.52734375,-44.43359375,0.0
48.02734375,-33.69140625,331.54296875,-22.94921875,-52.24609375,-0.48828125,0.0
48.03125,-36.62109375,320.80078125,-32.2265625,-47.8515625,-15.13671875,0.0
48.03515625,-39.55078125,320.3125,-35.15625,-39.55078125,-28.80859375,0.0
48.0390625,-31.73828125,323.2421875,-24.90234375,-40.52734375,11.23046875,0.0
48.04296875,-26.3671875,321.2890625,-19.53125,-45.41015625,68.359375,0.0
48.046875,-34.1796875,320.3125,-26.85546875,-50.29296875,55.6640625,0.0
48.05078125,-33.69140625,324.70703125,-32.2265625,-50.78125,14.6484375,0.0
48.0546875,-29.296875,310.05859375,-35.64453125,-44.43359375,28.80859375,0.0
48.05859375,-29.78515625,289.0625,-28.3203125,-29.296875,75.1953125,0.0
48.0625,-41.015625,285.15625,-16.11328125,-29.296875,45.8984375,0.0
48.06640625,-48.828125,282.71484375,-18.5546875,-44.43359375,9.765625,0.0
48.0703125,-55.17578125,278.80859375,-23.92578125,-48.33984375,-23.4375,0.0
48.07421875,-54.19921875,281.25,-24.4140625,-37.109375,-19.04296875,0.0
48.078125,-48.33984375,275.87890625,-24.90234375,-31.25,-7.8125,0.0
48.08203125,-44.921875,271.484375,-19.53125,-37.109375,43.9453125,0.0
48.0859375,-34.1796875,267.08984375,-20.5078125,-42.48046875,102.05078125,0.0
48.08984375,-31.73828125,254.8828125,-24.90234375,-38.0859375,76.66015625,0.0
48.09375,-39.0625,241.69921875,-25.87890625,-26.3671875,-25.390625,0.0
48.09765625,-31.25,231.93359375,-22.4609375,-14.6484375,-66.89453125,0.0
48.1015625,-31.25,229.4921875,-20.99609375,-12.6953125,-34.1796875,0.0
48.10546875,-28.80859375,227.05078125,-23.92578125,-22.4609375,-41.015625,0.0
48.109375,-20.99609375,223.6328125,-24.4140625,-29.296875,-42.96875,0.0
48.11328125,-22.94921875,219.23828125,-24.90234375,-26.3671875,-25.87890625,0.0
48.1171875,-29.296875,221.19140625,-20.99609375,-19.04296875,-40.52734375,0.0
48.12109375,-28.3203125,217.7734375,-20.01953125,-18.06640625,-55.17578125,0.0
48.125,-14.6484375,208.0078125,-20.99609375,-19.04296875,-74.70703125,0.0
48.12890625,-6.8359375,210.9375,-18.5546875,-19.04296875,-132.32421875,0.0
48.1328125,-24.90234375,207.51953125,-16.11328125,-22.4609375,-131.8359375,0.0
48.13671875,-31.25,195.3125,-17.578125,-21.484375,-102.5390625,0.0
48.140625,-20.99609375,189.94140625,-18.5546875,-29.78515625,-135.25390625,0.0
48.14453125,-17.578125,198.73046875,-20.99609375,-30.2734375,-118.65234375,0.0
48.1484375,-17.578125,207.03125,-24.90234375,-21.484375,-64.453125,0.0
48.15234375,-20.01953125,205.56640625,-30.2734375,-19.04296875,-79.58984375,0.0
48.15625,-29.296875,196.77734375,-31.25,-20.01953125,-134.27734375,0.0
48.16015625,-27.34375,196.2890625,-21.97265625,-20.99609375,-166.015625,0.0
48.1640625,-12.20703125,214.84375,-14.16015625,-15.13671875,20.5078125,0.0
48.16796875,-6.8359375,213.8671875,-20.01953125,-15.625,109.86328125,0.0
48.171875,-17.578125,193.359375,-30.2734375,-24.4140625,77.1484375,0.0
48.17578125,-22.4609375,185.05859375,-24.4140625,-26.85546875,81.0546875,0.0
48.1796875,-14.6484375,183.59375,-14.16015625,-20.01953125,138.18359375,0.0
48.18359375,-19.04296875,183.59375,-15.625,-24.90234375,129.8828125,0.0
48.1875,-25.87890625,181.15234375,-20.5078125,-36.62109375,64.453125,0.0
48.19140625,-31.73828125,176.7578125,-27.34375,-41.50390625,162.109375,0.0
48.1953125,-36.1328125,175.78125,-27.83203125,-40.0390625,168.9453125,0.0
48.19921875,-30.76171875,175.78125,-22.94921875,-38.57421875,65.4296875,0.0
48.203125,-20.5078125,175.78125,-20.99609375,-38.57421875,86.9140625,0.0
48.20703125,-18.5546875,170.41015625,-21.97265625,-44.43359375,62.5,0.0
48.2109375,-21.97265625,172.8515625,-24.4140625,-33.69140625,2.9296875,0.0
48.21484375,-6.8359375,176.26953125,-28.80859375,-30.76171875,52.24609375,0.0
48.21875,-23.4375,171.38671875,-31.73828125,-38.57421875,94.7265625,0.0
48.22265625,-36.1328125,175.78125,-29.78515625,-33.69140625,57.6171875,0.0
48.2265625,-16.6015625,178.7109375,-31.73828125,-32.2265625,20.99609375,0.0
48.23046875,-12.6953125,173.33984375,-34.66796875,-35.64453125,17.578125,0.0
48.234375,-24.4140625,164.55078125,-34.66796875,-31.25,-23.4375,0.0
48.23828125,-20.01953125,162.59765625,-31.25,-29.296875,-41.9921875,0.0
48.2421875,-21.484375,171.38671875,-30.2734375,-30.2734375,-89.84375,0.0
48.24609375,-28.80859375,184.5703125,-33.69140625,-25.390625,-88.37890625,0.0
48.25,-25.87890625,183.59375,-36.62109375,-20.5078125,14.6484375,0.0
48.25390625,-23.92578125,173.828125,-31.73828125,-11.71875,83.984375,0.0
48.2578125,-18.5546875,175.78125,-22.94921875,-2.9296875,74.21875,0.0
48.26171875,-30.76171875,189.453125,-21.97265625,-16.11328125,81.0546875,0.0
48.265625,-34.1796875,188.96484375,-28.3203125,-37.109375,47.8515625,0.0
48.26953125,-14.16015625,184.08203125,-33.69140625,-34.66796875,-57.6171875,0.0
48.2734375,-2.9296875,198.73046875,-31.25,-8.30078125,-65.4296875,0.0
48.27734375,-7.32421875,209.47265625,-27.83203125,-1.953125,2.9296875,0.0
48.28125,-9.27734375,209.9609375,-27.34375,-8.30078125,-7.8125,0.0
48.28515625,10.25390625,214.84375,-24.4140625,-8.7890625,-134.765625,0.0
48.2890625,16.6015625,217.7734375,-21.484375,-10.25390625,-124.0234375,0.0
48.29296875,-14.16015625,208.49609375,-29.296875,-16.11328125,-51.7578125,0.0
48.296875,-13.18359375,206.0546875,-27.34375,-10.7421875,-13.671875,0.0
48.30078125,2.9296875,214.84375,-15.625,0.9765625,3.90625,0.0
