timestam,TP9,AF7,AF8,TP10,AUX,Marker
224.00390625,-1.46484375,-33.203125,-4.8828125,-9.27734375,0.9765625,0.0
224.0078125,-2.44140625,-42.48046875,11.23046875,-7.32421875,-22.94921875,0.0
224.01171875,14.6484375,-44.921875,-41.015625,11.71875,2.9296875,0.0
224.015625,19.53125,-56.15234375,-55.6640625,2.9296875,25.87890625,0.0
224.01953125,6.8359375,-57.12890625,-47.8515625,2.44140625,-8.7890625,0.0
224.0234375,9.765625,-48.828125,-54.6875,14.6484375,-9.27734375,0.0
224.02734375,21.484375,-29.78515625,-62.01171875,9.765625,-27.34375,0.0
224.03125,25.390625,-19.53125,-50.29296875,10.7421875,-78.61328125,0.0
224.03515625,7.32421875,-25.390625,-51.7578125,3.90625,-28.3203125,0.0
224.0390625,11.71875,-29.78515625,-51.26953125,19.53125,-19.53125,0.0
224.04296875,20.99609375,-36.1328125,-46.875,20.5078125,-41.015625,0.0
224.046875,0.0,-42.48046875,-32.2265625,2.9296875,-72.75390625,0.0
224.05078125,-11.71875,-51.7578125,11.23046875,3.41796875,-112.3046875,0.0
224.0546875,0.0,-47.36328125,-20.01953125,13.18359375,-118.1640625,0.0
224.05859375,-2.9296875,-47.36328125,-50.78125,7.32421875,-116.69921875,0.0
224.0625,0.48828125,-47.36328125,-32.71484375,5.859375,-37.59765625,0.0
224.06640625,9.27734375,-48.33984375,-25.87890625,16.6015625,-45.8984375,0.0
224.0703125,3.41796875,-42.96875,-32.2265625,17.08984375,-74.21875,0.0
224.07421875,3.90625,-31.73828125,-40.52734375,19.04296875,-53.22265625,0.0
224.078125,27.34375,-45.8984375,-30.76171875,22.94921875,-65.91796875,0.0
224.08203125,24.90234375,-54.19921875,-24.90234375,16.6015625,-6.34765625,0.0
224.0859375,-10.7421875,-46.875,-38.57421875,1.953125,-3.41796875,0.0
224.08984375,-6.8359375,-41.50390625,-41.015625,-1.953125,-100.09765625,0.0
224.09375,-6.34765625,-33.69140625,-14.16015625,-3.90625,-64.94140625,0.0
224.09765625,-3.41796875,-37.109375,-7.8125,-11.23046875,-42.48046875,0.0
224.1015625,17.578125,-40.52734375,-43.45703125,-20.01953125,-68.359375,0.0
224.10546875,19.04296875,-34.66796875,-47.36328125,0.9765625,-54.19921875,0.0
224.109375,12.6953125,-33.69140625,-39.0625,21.484375,-51.26953125,0.0
224.11328125,-5.859375,-36.62109375,-35.15625,29.296875,-48.828125,0.0
224.1171875,1.953125,-29.296875,-38.0859375,16.11328125,13.18359375,0.0
224.12109375,3.90625,-26.3671875,-38.0859375,-3.90625,32.71484375,0.0
224.125,-8.7890625,-41.015625,-28.80859375,-9.765625,-23.4375,0.0
224.12890625,28.3203125,-45.8984375,-31.25,-4.8828125,-20.99609375,0.0
224.1328125,24.90234375,-35.15625,-29.296875,-3.41796875,-93.26171875,0.0
224.13671875,-15.625,-27.83203125,-25.390625,-17.578125,-65.4296875,0.0
224.140625,-10.25390625,-38.0859375,9.765625,-20.99609375,33.69140625,0.0
224.14453125,-2.9296875,-36.1328125,-22.94921875,-17.578125,-34.66796875,0.0
224.1484375,7.8125,-21.484375,-55.6640625,-30.2734375,-34.1796875,0.0
224.15234375,11.71875,-22.94921875,-38.0859375,-34.66796875,-53.22265625,0.0
224.15625,-1.953125,-32.2265625,-48.828125,-32.71484375,-71.77734375,0.0
224.16015625,0.9765625,-30.2734375,-58.59375,-35.15625,15.625,0.0
224.1640625,11.23046875,-34.1796875,-49.8046875,-30.2734375,3.41796875,0.0
224.16796875,17.578125,-43.9453125,-23.4375,-25.390625,-12.6953125,0.0
224.171875,20.01953125,-34.66796875,8.7890625,-26.85546875,-24.4140625,0.0
224.17578125,-0.48828125,-33.203125,-29.78515625,-18.06640625,-34.1796875,0.0
224.1796875,-21.484375,-29.296875,-52.734375,-21.97265625,-10.25390625,0.0
224.18359375,-31.73828125,-30.76171875,-33.203125,-43.9453125,28.80859375,0.0
224.1875,-23.92578125,-33.203125,-35.15625,-44.43359375,-28.80859375,0.0
224.19140625,-11.71875,-26.85546875,-51.7578125,-25.87890625,-114.2578125,0.0
224.1953125,6.8359375,-33.203125,-45.8984375,-19.04296875,-27.34375,0.0
224.19921875,-0.9765625,-39.0625,-46.875,-27.83203125,35.15625,0.0
224.203125,-19.53125,-42.48046875,-54.19921875,-30.76171875,1.46484375,0.0
224.20703125,-24.90234375,-51.7578125,-45.8984375,-32.71484375,-39.0625,0.0
224.2109375,15.625,-51.26953125,-37.109375,-25.390625,-68.84765625,0.0
224.21484375,10.7421875,-39.0625,-35.15625,-12.20703125,-80.078125,0.0
224.21875,-77.63671875,-36.1328125,-35.64453125,-39.0625,-47.36328125,0.0
224.22265625,-65.4296875,-22.94921875,-34.66796875,-24.4140625,21.484375,0.0
224.2265625,-49.31640625,-7.8125,-32.71484375,-18.06640625,8.7890625,0.0
224.23046875,-36.1328125,-19.53125,-6.34765625,-28.80859375,-93.26171875,0.0
224.234375,3.41796875,-31.25,-15.625,-4.39453125,-60.05859375,0.0
224.23828125,-6.34765625,-41.015625,-40.0390625,-14.6484375,8.7890625,0.0
224.2421875,-57.12890625,-42.96875,-33.203125,-27.83203125,64.94140625,0.0
224.24609375,-49.31640625,-39.55078125,-35.64453125,-22.94921875,65.4296875,0.0
224.25,-35.64453125,-44.921875,-37.109375,-11.23046875,-58.10546875,0.0
224.25390625,-33.69140625,-42.48046875,-35.64453125,-11.23046875,-62.98828125,0.0
224.2578125,-0.48828125,-43.9453125,-22.4609375,-7.32421875,0.48828125,0.0
224.26171875,-14.16015625,-42.96875,-7.8125,6.34765625,0.0,0.0
224.265625,-64.453125,-29.296875,-32.71484375,-24.4140625,0.9765625,0.0
224.26953125,-41.015625,-28.80859375,-43.45703125,-17.08984375,-101.5625,0.0
224.2734375,-0.9765625,-35.15625,-3.41796875,12.6953125,-140.625,0.0
224.27734375,-20.01953125,-28.80859375,-1.953125,-3.41796875,-137.6953125,0.0
224.28125,-20.5078125,-26.3671875,-36.1328125,-15.625,-121.58203125,0.0
224.28515625,6.34765625,-25.390625,-39.0625,1.953125,-102.5390625,0.0
224.2890625,-3.90625,-29.78515625,-7.32421875,-9.27734375,-68.84765625,0.0
224.29296875,-22.4609375,-53.22265625,-7.32421875,-26.85546875,-35.15625,0.0
224.296875,-39.0625,-53.7109375,-37.109375,-13.671875,-20.01953125,0.0
224.30078125,-27.83203125,-39.55078125,-31.73828125,-8.7890625,2.9296875,0.0
224.3046875,-13.671875,-25.390625,-26.85546875,-16.11328125,-18.06640625,0.0
224.30859375,-29.78515625,-6.8359375,-43.9453125,-13.18359375,-54.6875,0.0
224.3125,-32.71484375,-16.11328125,-49.31640625,-6.8359375,-45.41015625,0.0
224.31640625,-21.97265625,-24.4140625,-39.0625,-10.7421875,-72.265625,0.0
224.3203125,-4.39453125,-24.90234375,-23.92578125,-3.90625,-97.16796875,0.0
224.32421875,6.34765625,-21.484375,-24.90234375,1.953125,-91.796875,0.0
224.328125,-5.37109375,-23.4375,-41.9921875,-4.39453125,-96.6796875,0.0
224.33203125,1.953125,-26.3671875,-28.3203125,-11.71875,0.48828125,0.0
224.3359375,3.41796875,-29.78515625,23.4375,-11.23046875,-3.41796875,0.0
224.33984375,-6.8359375,-31.73828125,6.34765625,2.9296875,-70.80078125,0.0
224.34375,13.671875,-27.34375,-30.76171875,16.11328125,37.109375,0.0
224.34765625,18.5546875,-28.3203125,-27.34375,7.32421875,43.9453125,0.0
224.3515625,23.4375,-39.55078125,-23.4375,14.16015625,-29.78515625,0.0
224.35546875,42.48046875,-35.64453125,-27.34375,29.296875,22.4609375,0.0
224.359375,19.53125,-23.92578125,-28.80859375,21.97265625,0.0,0.0
224.36328125,2.9296875,-35.64453125,-19.53125,12.20703125,10.25390625,0.0
224.3671875,6.34765625,-30.2734375,-20.5078125,3.90625,11.23046875,0.0
224.37109375,12.6953125,-12.6953125,-30.2734375,0.0,-31.25,0.0
224.375,17.08984375,-20.5078125,-34.1796875,15.13671875,5.37109375,0.0
224.37890625,12.20703125,-31.73828125,-6.34765625,17.578125,2.9296875,0.0
224.3828125,-13.671875,-33.203125,13.18359375,-2.9296875,-30.2734375,0.0
224.38671875,-22.94921875,-32.71484375,-24.90234375,-2.9296875,48.828125,0.0
224.390625,9.27734375,-28.3203125,-39.0625,2.44140625,40.0390625,0.0
224.39453125,15.13671875,-24.4140625,-32.2265625,-1.46484375,-16.6015625,0.0
224.3984375,-1.953125,-33.69140625,-40.0390625,-17.08984375,30.76171875,0.0
224.40234375,-3.90625,-34.1796875,-36.1328125,-16.11328125,-17.08984375,0.0
224.40625,-1.953125,-33.203125,-30.2734375,-8.7890625,-161.62109375,0.0
224.41015625,3.90625,-44.921875,-41.015625,-21.484375,-206.54296875,0.0
224.4140625,-27.83203125,-39.55078125,-34.1796875,-3.41796875,-155.2734375,0.0
224.41796875,-43.9453125,-26.3671875,-34.1796875,7.8125,-132.8125,0.0
224.421875,-33.203125,-30.76171875,-33.203125,-18.06640625,-124.51171875,0.0
224.42578125,-29.296875,-35.15625,-5.859375,-25.87890625,-72.265625,0.0
224.4296875,-23.4375,-32.2265625,-27.83203125,-32.2265625,-21.484375,0.0
224.43359375,-25.87890625,-32.71484375,-46.38671875,-37.59765625,-89.35546875,0.0
224.4375,-18.06640625,-26.3671875,-33.203125,-39.0625,-166.50390625,0.0
224.44140625,-31.25,-21.484375,-29.296875,-46.38671875,-207.51953125,0.0
224.4453125,-55.6640625,-32.71484375,-31.25,-49.31640625,-186.03515625,0.0
224.44921875,-2.9296875,-38.0859375,-49.8046875,-52.24609375,-37.109375,0.0
224.453125,13.671875,-35.64453125,-16.6015625,-53.7109375,-19.53125,0.0
224.45703125,-55.6640625,-41.9921875,20.01953125,-37.109375,-50.78125,0.0
224.4609375,-64.94140625,-28.80859375,-25.87890625,-38.57421875,17.08984375,0.0
224.46484375,-34.1796875,-20.99609375,-47.8515625,-39.55078125,16.11328125,0.0
224.46875,-18.5546875,-25.87890625,-14.6484375,-30.2734375,-32.2265625,0.0
224.47265625,-11.71875,-32.2265625,-2.44140625,-23.4375,-66.89453125,0.0
224.4765625,-22.94921875,-31.73828125,-39.55078125,-28.3203125,28.3203125,0.0
224.48046875,-22.4609375,-36.62109375,-43.9453125,-62.5,41.015625,0.0
224.484375,6.8359375,-29.78515625,-31.25,-59.5703125,-30.76171875,0.0
224.48828125,20.99609375,-19.53125,-21.484375,-13.671875,3.41796875,0.0
224.4921875,-17.578125,-27.34375,-23.92578125,-34.66796875,45.8984375,0.0
224.49609375,-47.8515625,-29.296875,-28.80859375,-73.2421875,-41.9921875,0.0
224.5,-44.921875,-28.80859375,-26.3671875,-82.51953125,-72.265625,0.0
224.50390625,-78.61328125,-45.41015625,-32.71484375,-91.796875,-1.953125,0.0
224.5078125,-87.40234375,-43.9453125,-48.828125,-98.14453125,57.6171875,0.0
224.51171875,-103.515625,-33.203125,-40.52734375,-104.4921875,-25.390625,0.0
224.515625,-137.20703125,-34.66796875,38.0859375,-107.91015625,-20.99609375,0.0
224.51953125,-107.91015625,-42.48046875,17.08984375,-105.95703125,77.1484375,0.0
224.5234375,-90.8203125,-47.36328125,-54.19921875,-124.0234375,56.15234375,0.0
224.52734375,-139.6484375,-43.9453125,-54.6875,-120.60546875,19.04296875,0.0
224.53125,-130.859375,-43.45703125,-62.01171875,-110.3515625,0.9765625,0.0
224.53515625,-79.58984375,-40.0390625,-64.453125,-97.16796875,-282.2265625,0.0
224.5390625,-85.44921875,-32.2265625,-54.19921875,-83.984375,-261.71875,0.0
224.54296875,-98.6328125,-36.1328125,-28.80859375,-69.3359375,-183.10546875,0.0
224.546875,-92.7734375,-50.78125,-16.6015625,-66.40625,-201.66015625,0.0
224.55078125,-91.30859375,-46.875,-39.55078125,-90.33203125,-145.99609375,0.0
224.5546875,-61.03515625,-39.55078125,-50.29296875,-75.68359375,11.23046875,0.0
224.55859375,-84.47265625,-57.12890625,-14.16015625,-70.80078125,43.45703125,0.0
224.5625,-84.9609375,-58.10546875,18.5546875,-90.8203125,-60.05859375,0.0
224.56640625,-60.546875,-46.875,-36.1328125,-82.51953125,-52.734375,0.0
224.5703125,-86.42578125,-45.41015625,-59.5703125,-73.73046875,-41.9921875,0.0
224.57421875,-68.84765625,-49.31640625,-45.41015625,-82.03125,-65.91796875,0.0
224.578125,-67.87109375,-41.9921875,-42.48046875,-79.1015625,-21.484375,0.0
224.58203125,-62.98828125,-41.9921875,-50.78125,-76.171875,-7.32421875,0.0
224.5859375,-64.94140625,-55.17578125,-51.26953125,-79.58984375,6.34765625,0.0
224.58984375,-38.0859375,-43.9453125,-43.45703125,-66.40625,-111.81640625,0.0
224.59375,-33.203125,-40.0390625,-41.9921875,-32.71484375,-74.21875,0.0
224.59765625,-68.84765625,-41.9921875,-43.9453125,-44.43359375,-13.18359375,0.0
224.6015625,-61.03515625,-37.59765625,-33.203125,-60.05859375,-8.30078125,0.0
224.60546875,-38.0859375,-49.8046875,19.04296875,-71.77734375,-22.4609375,0.0
224.609375,-60.546875,-57.6171875,-6.8359375,-77.63671875,-17.578125,0.0
224.61328125,-71.2890625,-53.22265625,-53.7109375,-68.84765625,18.5546875,0.0
224.6171875,-55.6640625,-36.62109375,-55.6640625,-60.05859375,17.08984375,0.0
224.62109375,-46.38671875,-30.2734375,-38.57421875,-54.6875,64.94140625,0.0
224.625,-38.0859375,-39.55078125,-36.1328125,-49.8046875,66.40625,0.0
224.62890625,-40.0390625,-40.52734375,-44.43359375,-37.109375,-9.27734375,0.0
224.6328125,-42.96875,-42.96875,-39.0625,-23.92578125,-111.81640625,0.0
224.63671875,-31.25,-40.52734375,-32.71484375,-31.73828125,-94.7265625,0.0
224.640625,-8.30078125,-34.1796875,-46.875,-47.8515625,40.0390625,0.0
224.64453125,-11.71875,-35.64453125,-55.6640625,-53.7109375,34.66796875,0.0
224.6484375,-28.80859375,-33.203125,-45.8984375,-64.453125,-41.50390625,0.0
224.65234375,-20.5078125,-28.80859375,-44.921875,-46.875,-69.82421875,0.0
224.65625,-11.71875,-30.76171875,-51.26953125,-36.1328125,-74.70703125,0.0
224.66015625,-25.390625,-32.2265625,-51.26953125,-51.7578125,-61.5234375,0.0
224.6640625,-20.01953125,-33.203125,-3.41796875,-51.26953125,-83.984375,0.0
224.66796875,-7.8125,-33.69140625,-1.953125,-50.78125,-115.72265625,0.0
224.671875,-16.6015625,-36.1328125,-45.41015625,-45.41015625,-121.09375,0.0
224.67578125,-32.71484375,-45.41015625,-36.1328125,-26.3671875,-96.6796875,0.0
224.6796875,-39.55078125,-59.5703125,-12.6953125,-26.85546875,12.20703125,0.0
224.68359375,-32.2265625,-45.8984375,-29.296875,-22.94921875,82.03125,0.0
224.6875,-31.25,-27.34375,-43.9453125,-4.39453125,37.59765625,0.0
224.69140625,-28.3203125,-23.4375,-38.57421875,-24.4140625,-4.39453125,0.0
224.6953125,-5.859375,-28.80859375,-35.64453125,-20.01953125,-57.12890625,0.0
224.69921875,-5.859375,-35.64453125,-31.73828125,-7.8125,-19.53125,0.0
224.703125,-24.4140625,-28.80859375,-41.9921875,-26.3671875,20.5078125,0.0
224.70703125,-22.4609375,-31.25,-45.41015625,-35.64453125,20.5078125,0.0
224.7109375,-18.06640625,-36.1328125,-22.4609375,-27.83203125,-32.2265625,0.0
224.71484375,-22.4609375,-34.66796875,-35.15625,-26.3671875,-71.77734375,0.0
224.71875,-3.90625,-43.45703125,-48.828125,-26.3671875,-16.11328125,0.0
224.72265625,0.0,-35.64453125,-41.9921875,-14.6484375,-7.32421875,0.0
224.7265625,-13.671875,-21.484375,-35.64453125,-18.5546875,-64.94140625,0.0
224.73046875,-12.20703125,-26.85546875,-36.1328125,-16.11328125,-48.33984375,0.0
224.734375,-11.71875,-35.64453125,-40.52734375,-0.48828125,-17.08984375,0.0
224.73828125,-2.9296875,-35.15625,-15.13671875,6.8359375,-37.59765625,0.0
224.7421875,-10.7421875,-35.64453125,0.9765625,-0.9765625,-60.546875,0.0
224.74609375,-30.2734375,-40.52734375,-33.203125,-7.32421875,-38.57421875,0.0
224.75,-36.62109375,-41.015625,-41.9921875,-2.9296875,13.18359375,0.0
224.75390625,-18.06640625,-38.57421875,-0.48828125,-15.625,15.625,0.0
224.7578125,3.41796875,-33.69140625,11.71875,0.0,20.01953125,0.0
224.76171875,-4.39453125,-28.80859375,-32.71484375,1.46484375,29.78515625,0.0
224.765625,-24.90234375,-32.2265625,-44.43359375,-21.484375,27.83203125,0.0
224.76953125,1.46484375,-45.41015625,-35.64453125,-20.99609375,-36.1328125,0.0
224.7734375,23.4375,-47.36328125,-34.66796875,1.953125,-22.4609375,0.0
224.77734375,-25.390625,-34.66796875,-44.921875,4.39453125,-30.2734375,0.0
224.78125,-39.55078125,-31.73828125,-50.78125,-11.23046875,-82.51953125,0.0
224.78515625,-24.4140625,-30.76171875,-31.25,-10.7421875,-73.2421875,0.0
224.7890625,-8.30078125,-25.87890625,-20.01953125,1.46484375,-81.54296875,0.0
224.79296875,6.8359375,-24.4140625,-29.296875,17.578125,-119.62890625,0.0
224.796875,-1.46484375,-33.69140625,-27.34375,-2.9296875,-66.89453125,0.0
224.80078125,-12.20703125,-36.1328125,26.85546875,0.48828125,-15.13671875,0.0
224.8046875,-23.4375,-31.73828125,7.32421875,0.48828125,-75.1953125,0.0
224.80859375,-11.23046875,-30.76171875,-32.2265625,-15.13671875,-29.78515625,0.0
224.8125,3.90625,-25.390625,-30.2734375,-2.9296875,-38.57421875,0.0
224.81640625,-13.671875,-33.203125,-34.66796875,-7.8125,-6.34765625,0.0
224.8203125,-18.06640625,-46.875,-36.62109375,-49.31640625,57.6171875,0.0
224.82421875,-33.203125,-38.57421875,-36.1328125,-76.171875,-25.87890625,0.0
224.828125,-43.45703125,-37.59765625,-52.734375,-18.5546875,-44.43359375,0.0
224.83203125,-38.0859375,-43.45703125,-55.17578125,-20.99609375,-63.96484375,0.0
224.8359375,-24.90234375,-41.50390625,-36.1328125,-149.4140625,-115.234375,0.0
224.83984375,-21.484375,-39.0625,-25.87890625,-42.48046875,-84.9609375,0.0
224.84375,-49.8046875,-43.45703125,-25.390625,40.52734375,-25.390625,0.0
224.84765625,-47.36328125,-45.8984375,-61.5234375,-50.78125,-32.71484375,0.0
224.8515625,-36.62109375,-26.3671875,-45.8984375,-102.05078125,-64.453125,0.0
224.85546875,-25.87890625,-31.25,-16.6015625,-59.5703125,-41.9921875,0.0
224.859375,-28.3203125,-41.015625,-16.6015625,-46.38671875,0.48828125,0.0
224.86328125,-46.875,-41.50390625,-20.99609375,-52.24609375,0.0,0.0
224.8671875,-43.45703125,-50.29296875,-17.08984375,-20.5078125,-44.921875,0.0
224.87109375,-20.5078125,-37.59765625,-30.2734375,-78.125,-71.77734375,0.0
224.875,-14.16015625,-23.4375,-42.96875,-82.51953125,-60.05859375,0.0
224.87890625,-22.4609375,-30.76171875,-27.34375,1.953125,-35.64453125,0.0
224.8828125,-25.390625,-33.69140625,-26.3671875,-15.625,1.46484375,0.0
224.88671875,-33.69140625,-32.2265625,-28.3203125,-14.16015625,-24.4140625,0.0
224.890625,-37.109375,-40.0390625,-5.859375,13.671875,-87.40234375,0.0
224.89453125,-17.578125,-35.64453125,-34.1796875,11.71875,-81.54296875,0.0
224.8984375,-2.9296875,-27.83203125,-41.50390625,-9.765625,-12.6953125,0.0
224.90234375,-7.8125,-29.296875,-18.06640625,-41.015625,-32.2265625,0.0
224.90625,-34.1796875,-28.80859375,-15.625,17.08984375,-84.9609375,0.0
224.91015625,-5.859375,-32.71484375,-19.53125,31.73828125,-20.01953125,0.0
224.9140625,22.94921875,-28.80859375,-17.578125,26.3671875,-62.5,0.0
224.91796875,-8.30078125,-26.3671875,-17.08984375,45.8984375,-163.0859375,0.0
224.921875,-4.8828125,-27.34375,-11.23046875,55.6640625,-91.796875,0.0
224.92578125,4.39453125,-18.5546875,-10.7421875,51.26953125,-82.03125,0.0
224.9296875,26.85546875,-14.6484375,-17.578125,32.2265625,-128.90625,0.0
224.93359375,25.87890625,-24.4140625,-17.08984375,21.484375,-77.1484375,0.0
224.9375,-1.46484375,-30.2734375,-12.6953125,20.01953125,-66.40625,0.0
224.94140625,-6.8359375,-29.78515625,-12.20703125,25.87890625,-94.23828125,0.0
224.9453125,12.20703125,-30.2734375,-16.6015625,15.625,-148.92578125,0.0
224.94921875,10.7421875,-28.3203125,-13.671875,9.765625,-178.7109375,0.0
224.953125,-10.7421875,-27.34375,-12.20703125,25.87890625,-128.90625,0.0
224.95703125,6.8359375,-27.83203125,-20.99609375,31.25,25.390625,0.0
224.9609375,25.87890625,-30.76171875,-20.99609375,26.85546875,108.88671875,0.0
224.96484375,-9.27734375,-28.3203125,-19.04296875,15.625,73.2421875,0.0
224.96875,-24.90234375,-34.1796875,-23.4375,19.53125,31.73828125,0.0
224.97265625,-21.484375,-45.41015625,-20.99609375,28.3203125,-89.35546875,0.0
224.9765625,-4.39453125,-37.109375,-18.5546875,30.2734375,-115.72265625,0.0
224.98046875,-21.97265625,-27.83203125,-19.04296875,21.97265625,-54.19921875,0.0
224.984375,-41.015625,-36.62109375,-30.76171875,0.48828125,-9.765625,0.0
224.98828125,-21.484375,-38.0859375,-40.0390625,-3.90625,-18.5546875,0.0
224.9921875,-2.44140625,-31.25,-36.1328125,15.625,-23.4375,0.0
224.99609375,-5.37109375,-22.94921875,-40.52734375,17.578125,18.06640625,0.0
225.0,-26.3671875,-23.92578125,-43.45703125,-3.90625,22.4609375,0.0
225.00390625,-23.4375,-29.78515625,-45.8984375,-5.37109375,13.671875,0.0
225.0078125,-43.9453125,-42.96875,-46.875,-16.11328125,19.04296875,0.0
225.01171875,-66.89453125,-45.41015625,-37.59765625,-28.80859375,28.3203125,0.0
225.015625,-38.0859375,-38.0859375,-42.96875,-3.41796875,-30.2734375,0.0
225.01953125,-19.04296875,-36.1328125,-47.8515625,4.8828125,17.08984375,0.0
225.0234375,-38.0859375,-36.1328125,-36.62109375,-17.578125,35.64453125,0.0
225.02734375,-49.8046875,-41.9921875,-29.78515625,-24.4140625,-64.94140625,0.0
225.03125,-27.34375,-36.62109375,-34.1796875,-22.94921875,17.578125,0.0
225.03515625,-4.39453125,-32.2265625,-36.1328125,-26.85546875,5.37109375,0.0
225.0390625,-45.8984375,-40.52734375,-26.85546875,-37.59765625,-44.43359375,0.0
225.04296875,-57.6171875,-33.203125,-32.2265625,-38.0859375,40.0390625,0.0
225.046875,-34.1796875,-22.94921875,-40.0390625,-34.1796875,42.48046875,0.0
225.05078125,-29.78515625,-31.25,-32.2265625,-37.109375,-4.39453125,0.0
225.0546875,-29.296875,-30.76171875,-30.76171875,-25.87890625,-26.3671875,0.0
225.05859375,-36.1328125,-28.80859375,-32.71484375,-42.48046875,23.92578125,0.0
225.0625,-37.59765625,-34.66796875,-36.62109375,-49.31640625,47.8515625,0.0
225.06640625,-34.1796875,-31.25,-34.66796875,-35.64453125,55.17578125,0.0
225.0703125,-44.43359375,-28.80859375,-24.4140625,-61.5234375,-20.99609375,0.0
225.07421875,-49.31640625,-31.25,-33.69140625,-62.01171875,-104.98046875,0.0
225.078125,-47.36328125,-33.203125,-38.57421875,-46.875,-71.77734375,0.0
225.08203125,-42.48046875,-30.76171875,-40.52734375,-60.05859375,-64.94140625,0.0
225.0859375,-32.2265625,-29.78515625,-31.25,-63.96484375,-59.5703125,0.0
225.08984375,-39.0625,-35.15625,-26.85546875,-47.8515625,-92.28515625,0.0
225.09375,-30.2734375,-26.3671875,-30.76171875,-43.45703125,-135.25390625,0.0
225.09765625,-7.8125,-17.578125,-30.76171875,-38.0859375,-112.3046875,0.0
225.1015625,3.41796875,-18.06640625,-35.64453125,-27.83203125,-69.82421875,0.0
225.10546875,0.48828125,-24.90234375,-38.0859375,-22.94921875,-52.734375,0.0
225.109375,-19.04296875,-28.3203125,-33.69140625,-23.4375,-52.734375,0.0
225.11328125,-13.18359375,-29.78515625,-16.11328125,-31.25,-64.94140625,0.0
225.1171875,21.484375,-28.3203125,-1.953125,-30.2734375,-95.21484375,0.0
225.12109375,24.4140625,-22.4609375,-27.34375,-28.3203125,-50.78125,0.0
225.125,-4.8828125,-32.2265625,-41.50390625,-44.921875,-123.53515625,0.0
225.12890625,-27.34375,-38.0859375,-22.94921875,-55.17578125,-171.38671875,0.0
225.1328125,-38.0859375,-30.2734375,-19.04296875,-41.50390625,-50.29296875,0.0
225.13671875,-29.78515625,-24.4140625,-37.59765625,-46.38671875,-84.47265625,0.0
225.140625,-2.44140625,-26.3671875,-40.52734375,-43.45703125,-35.64453125,0.0
225.14453125,-7.8125,-34.66796875,-39.0625,-36.62109375,30.76171875,0.0
225.1484375,-38.57421875,-37.109375,-35.15625,-38.0859375,-4.39453125,0.0
225.15234375,-29.78515625,-31.73828125,-30.76171875,-20.01953125,-30.2734375,0.0
225.15625,-14.16015625,-40.0390625,-32.71484375,-17.08984375,18.5546875,0.0
225.16015625,-11.23046875,-41.015625,-39.0625,-27.34375,31.73828125,0.0
225.1640625,-19.04296875,-27.34375,-35.15625,-36.1328125,-23.4375,0.0
225.16796875,-13.18359375,-28.3203125,-35.64453125,-33.69140625,-62.5,0.0
225.171875,-16.6015625,-37.109375,-40.52734375,-40.52734375,-40.0390625,0.0
225.17578125,-37.59765625,-41.9921875,-6.34765625,-55.6640625,37.59765625,0.0
225.1796875,-46.38671875,-38.0859375,-13.671875,-51.7578125,-1.46484375,0.0
225.18359375,-42.96875,-29.296875,-39.0625,-37.109375,-43.45703125,0.0
225.1875,-58.59375,-29.78515625,-37.109375,-48.828125,-60.05859375,0.0
225.19140625,-64.453125,-34.66796875,-41.015625,-55.6640625,-90.33203125,0.0
225.1953125,-32.2265625,-29.296875,-41.015625,-31.73828125,-23.92578125,0.0
225.19921875,-30.76171875,-29.78515625,-42.48046875,-30.76171875,35.15625,0.0
225.203125,-25.390625,-30.2734375,-34.1796875,-44.43359375,85.44921875,0.0
225.20703125,-27.34375,-35.15625,-28.80859375,-50.78125,75.68359375,0.0
225.2109375,-36.1328125,-29.296875,-38.0859375,-36.1328125,-11.23046875,0.0
225.21484375,-30.76171875,-16.6015625,-38.0859375,-31.73828125,13.671875,0.0
225.21875,-40.0390625,-19.04296875,-10.7421875,-35.64453125,78.61328125,0.0
225.22265625,-45.41015625,-24.90234375,-0.9765625,-35.64453125,59.5703125,0.0
225.2265625,-44.43359375,-27.83203125,-28.80859375,-42.96875,-43.9453125,0.0
225.23046875,-30.76171875,-30.2734375,-34.1796875,-51.7578125,-95.21484375,0.0
225.234375,-29.78515625,-30.76171875,-27.34375,-60.546875,-125.48828125,0.0
225.23828125,-30.2734375,-33.203125,-37.59765625,-55.17578125,-179.19921875,0.0
225.2421875,-54.19921875,-30.76171875,-41.9921875,-48.828125,-179.19921875,0.0
225.24609375,-53.7109375,-28.3203125,-38.0859375,-44.921875,-97.16796875,0.0
225.25,-25.390625,-38.0859375,-38.57421875,-31.73828125,-95.21484375,0.0
225.25390625,-8.7890625,-35.64453125,-31.73828125,-27.34375,-33.203125,0.0
225.2578125,-3.41796875,-17.578125,-32.2265625,-28.80859375,19.53125,0.0
225.26171875,-28.3203125,-27.83203125,-32.2265625,-32.71484375,0.0,0.0
225.265625,-49.31640625,-35.15625,-8.30078125,-36.1328125,-25.390625,0.0
225.26953125,-39.55078125,-38.57421875,-24.90234375,-38.57421875,-50.29296875,0.0
225.2734375,-28.80859375,-37.59765625,-47.8515625,-37.59765625,25.390625,0.0
225.27734375,-17.578125,-30.2734375,-40.0390625,-52.734375,42.48046875,0.0
225.28125,-32.2265625,-30.2734375,-40.0390625,-62.01171875,16.6015625,0.0
225.28515625,-47.36328125,-34.1796875,-44.921875,-50.78125,14.16015625,0.0
225.2890625,-38.0859375,-39.0625,-48.33984375,-44.43359375,23.92578125,0.0
225.29296875,-21.97265625,-43.9453125,-30.76171875,-25.390625,-61.5234375,0.0
225.296875,-27.83203125,-49.8046875,-15.625,-12.6953125,-106.93359375,0.0
225.30078125,-19.04296875,-40.0390625,-29.78515625,-19.04296875,-26.3671875,0.0
225.3046875,11.23046875,-32.71484375,-32.71484375,-29.296875,49.31640625,0.0
225.30859375,-16.6015625,-30.2734375,-24.4140625,-29.78515625,16.11328125,0.0
225.3125,-46.38671875,-30.76171875,-27.34375,-38.57421875,-69.3359375,0.0
225.31640625,-30.2734375,-35.15625,-31.73828125,-34.1796875,-77.1484375,0.0
225.3203125,-26.85546875,-33.69140625,-26.85546875,-23.4375,-56.640625,0.0
225.32421875,-39.55078125,-33.69140625,3.90625,-20.01953125,-79.58984375,0.0
225.328125,-24.4140625,-35.15625,-7.32421875,-14.6484375,-76.66015625,0.0
225.33203125,-15.625,-32.2265625,-37.59765625,-29.296875,-26.85546875,0.0
225.3359375,-30.76171875,-25.87890625,-32.71484375,-36.1328125,-53.7109375,0.0
225.33984375,-40.52734375,-28.80859375,-22.4609375,-32.2265625,-38.0859375,0.0
225.34375,-33.203125,-32.2265625,-30.76171875,-24.90234375,41.9921875,0.0
225.34765625,-39.0625,-29.296875,-40.0390625,-24.90234375,-31.25,0.0
225.3515625,-52.24609375,-31.73828125,-30.76171875,-32.2265625,-79.58984375,0.0
225.35546875,-43.9453125,-39.55078125,-8.30078125,-26.3671875,-56.640625,0.0
225.359375,-29.78515625,-33.203125,-26.85546875,-28.3203125,-68.359375,0.0
225.36328125,-32.71484375,-30.2734375,-51.7578125,-41.50390625,-35.15625,0.0
225.3671875,-50.29296875,-32.2265625,-47.36328125,-33.203125,-63.96484375,0.0
225.37109375,-41.9921875,-26.85546875,-39.55078125,-21.484375,-55.6640625,0.0
225.375,-37.109375,-31.25,-36.62109375,-20.99609375,56.15234375,0.0
225.37890625,-46.875,-27.83203125,-36.1328125,-38.0859375,66.40625,0.0
225.3828125,-46.38671875,-33.69140625,-41.015625,-49.31640625,-11.23046875,0.0
225.38671875,-41.015625,-44.43359375,-48.33984375,-35.64453125,-48.33984375,0.0
225.390625,-34.1796875,-37.109375,-41.9921875,-23.92578125,-29.296875,0.0
225.39453125,-27.83203125,-32.71484375,-45.8984375,-20.01953125,-28.80859375,0.0
225.3984375,-35.15625,-31.25,-38.0859375,-37.59765625,-73.73046875,0.0
225.40234375,-35.64453125,-32.71484375,-14.6484375,-46.875,-20.99609375,0.0
225.40625,-21.97265625,-34.1796875,-27.34375,-35.64453125,44.921875,0.0
225.41015625,-18.5546875,-28.3203125,-37.59765625,-31.73828125,14.16015625,0.0
225.4140625,-21.484375,-19.04296875,-27.34375,-34.1796875,-3.41796875,0.0
225.41796875,0.0,-10.7421875,-26.3671875,-26.85546875,-6.34765625,0.0
225.421875,1.953125,-17.08984375,-28.3203125,-14.16015625,42.96875,0.0
225.42578125,-34.66796875,-38.57421875,-29.296875,-26.3671875,27.83203125,0.0
225.4296875,-43.9453125,-47.8515625,-26.3671875,-36.1328125,30.2734375,0.0
225.43359375,-44.921875,-40.0390625,-28.80859375,-20.99609375,0.9765625,0.0
225.4375,-34.1796875,-38.57421875,-35.64453125,-22.4609375,12.20703125,0.0
225.44140625,-43.45703125,-34.66796875,-37.109375,-40.0390625,54.19921875,0.0
225.4453125,-59.5703125,-27.83203125,-30.76171875,-28.3203125,-34.66796875,0.0
225.44921875,-49.8046875,-28.80859375,-22.94921875,-10.7421875,-47.8515625,0.0
225.453125,-33.203125,-27.34375,-24.90234375,-26.3671875,-48.33984375,0.0
225.45703125,-43.45703125,-29.296875,-24.4140625,-25.390625,-23.92578125,0.0
225.4609375,-61.5234375,-32.71484375,3.41796875,-27.83203125,19.53125,0.0
225.46484375,-60.05859375,-37.59765625,-6.8359375,-32.2265625,11.23046875,0.0
225.46875,-51.7578125,-41.015625,-31.73828125,-30.76171875,31.73828125,0.0
225.47265625,-53.7109375,-46.875,-26.3671875,-30.76171875,-8.7890625,0.0
225.4765625,-55.17578125,-38.0859375,-23.4375,-23.4375,-137.6953125,0.0
225.48046875,-41.50390625,-31.73828125,-29.78515625,-38.57421875,-197.265625,0.0
225.484375,-32.2265625,-35.64453125,-38.57421875,-49.8046875,-124.0234375,0.0
225.48828125,-52.734375,-30.2734375,-36.1328125,-43.9453125,-79.58984375,0.0
225.4921875,-50.78125,-24.4140625,-32.71484375,-39.0625,-128.90625,0.0
225.49609375,-41.015625,-27.34375,-41.50390625,-33.203125,-59.5703125,0.0
225.5,-43.9453125,-32.2265625,-41.50390625,-30.2734375,-8.7890625,0.0
225.50390625,-47.8515625,-27.83203125,-19.53125,-40.52734375,-85.44921875,0.0
225.5078125,-43.9453125,-30.2734375,-5.859375,-44.43359375,-93.75,0.0
225.51171875,-34.1796875,-34.66796875,-24.4140625,-30.2734375,-71.77734375,0.0
225.515625,-14.6484375,-27.83203125,-30.76171875,-31.73828125,-28.80859375,0.0
225.51953125,-14.16015625,-25.87890625,-26.3671875,-44.921875,37.59765625,0.0
225.5234375,-37.109375,-25.87890625,-30.76171875,-46.875,-14.6484375,0.0
225.52734375,-41.50390625,-31.25,-33.203125,-33.69140625,-46.875,0.0
225.53125,-32.2265625,-34.1796875,-34.1796875,-36.1328125,-65.91796875,0.0
225.53515625,-28.80859375,-35.15625,-40.0390625,-50.78125,-59.5703125,0.0
225.5390625,-38.57421875,-31.73828125,-41.015625,-52.734375,57.12890625,0.0
225.54296875,-44.43359375,-30.76171875,-35.15625,-51.26953125,34.1796875,0.0
225.546875,-37.109375,-34.66796875,-37.59765625,-55.6640625,-8.7890625,0.0
225.55078125,-34.66796875,-31.73828125,-30.76171875,-58.10546875,-20.01953125,0.0
225.5546875,-41.015625,-31.25,-30.2734375,-61.03515625,-136.71875,0.0
225.55859375,-41.50390625,-30.76171875,-34.66796875,-64.453125,-151.85546875,0.0
225.5625,-38.0859375,-29.78515625,-31.73828125,-55.6640625,-71.2890625,0.0
225.56640625,-41.50390625,-37.109375,-30.2734375,-49.8046875,-1.953125,0.0
225.5703125,-41.50390625,-41.9921875,-33.69140625,-52.734375,-22.4609375,0.0
225.57421875,-41.9921875,-40.0390625,-38.57421875,-52.734375,-103.02734375,0.0
225.578125,-41.9921875,-31.73828125,-40.52734375,-46.875,-16.6015625,0.0
225.58203125,-39.0625,-25.390625,-35.64453125,-47.36328125,53.7109375,0.0
225.5859375,-31.73828125,-22.94921875,-29.78515625,-46.38671875,22.94921875,0.0
225.58984375,-22.94921875,-24.4140625,-38.57421875,-33.203125,13.671875,0.0
225.59375,-16.6015625,-32.2265625,-27.34375,-29.78515625,-36.1328125,0.0
225.59765625,-7.32421875,-28.80859375,-9.27734375,-42.96875,-24.4140625,0.0
225.6015625,-17.578125,-23.92578125,-26.3671875,-32.71484375,72.265625,0.0
225.60546875,-38.0859375,-30.2734375,-35.64453125,-28.80859375,85.44921875,0.0
225.609375,-39.0625,-25.390625,-36.62109375,-37.59765625,9.765625,0.0
225.61328125,-8.30078125,-18.5546875,-35.64453125,-20.99609375,-49.31640625,0.0
225.6171875,3.90625,-27.34375,-29.78515625,14.16015625,-48.33984375,0.0
225.62109375,-20.01953125,-38.0859375,-20.99609375,-1.46484375,-12.6953125,0.0
225.625,-26.85546875,-47.36328125,-14.6484375,-38.0859375,-53.22265625,0.0
225.62890625,-16.11328125,-42.48046875,-22.94921875,-41.015625,-99.609375,0.0
225.6328125,-27.83203125,-31.73828125,-17.08984375,-34.66796875,-113.76953125,0.0
225.63671875,-44.921875,-32.2265625,-11.71875,-41.015625,-42.96875,0.0
225.640625,-40.0390625,-45.41015625,-10.7421875,-31.25,-42.96875,0.0
225.64453125,-43.45703125,-52.24609375,-9.27734375,-24.90234375,-47.8515625,0.0
225.6484375,-36.62109375,-48.828125,-8.30078125,-34.1796875,32.71484375,0.0
225.65234375,-32.71484375,-54.6875,-5.859375,-38.57421875,37.59765625,0.0
225.65625,-23.92578125,-54.19921875,-14.6484375,-38.0859375,2.9296875,0.0
225.66015625,-11.71875,-47.8515625,-21.97265625,-37.109375,18.06640625,0.0
225.6640625,-14.16015625,-47.8515625,-20.5078125,-28.80859375,23.92578125,0.0
225.66796875,-13.18359375,-42.96875,-10.25390625,-20.5078125,-71.77734375,0.0
225.671875,-6.34765625,-40.0390625,0.48828125,-20.99609375,-48.828125,0.0
225.67578125,-15.625,-41.50390625,-18.06640625,-20.5078125,-27.34375,0.0
225.6796875,-17.578125,-41.015625,-24.4140625,-15.625,-43.45703125,0.0
225.68359375,-29.296875,-50.29296875,-14.6484375,-25.87890625,2.9296875,0.0
225.6875,-28.3203125,-53.7109375,-13.18359375,-24.90234375,-93.26171875,0.0
225.69140625,-28.80859375,-39.55078125,-16.11328125,-28.3203125,-151.3671875,0.0
225.6953125,-25.87890625,-35.64453125,-18.5546875,-29.296875,-121.58203125,0.0
225.69921875,-32.2265625,-33.69140625,-21.97265625,-25.87890625,-129.39453125,0.0
225.703125,-32.71484375,-33.203125,-20.99609375,-25.390625,-53.7109375,0.0
225.70703125,-29.296875,-32.71484375,-21.484375,-21.97265625,-4.39453125,0.0
225.7109375,-30.2734375,-26.3671875,-20.01953125,-21.484375,-53.22265625,0.0
225.71484375,-11.71875,-32.71484375,-20.01953125,-15.13671875,12.20703125,0.0
225.71875,-8.30078125,-39.0625,-22.4609375,-16.11328125,88.37890625,0.0
225.72265625,-14.16015625,-32.2265625,-25.390625,-17.578125,-6.34765625,0.0
225.7265625,-13.18359375,-33.203125,-36.1328125,-2.44140625,-8.30078125,0.0
225.73046875,-27.83203125,-44.43359375,-19.04296875,1.46484375,2.44140625,0.0
225.734375,-33.69140625,-51.26953125,-6.8359375,-22.94921875,-79.1015625,0.0
225.73828125,-31.73828125,-36.1328125,-13.18359375,-28.3203125,-14.16015625,0.0
225.7421875,-26.3671875,-42.96875,-15.625,-31.25,1.953125,0.0
225.74609375,-12.6953125,-39.55078125,-23.92578125,-35.64453125,-26.85546875,0.0
225.75,-20.99609375,-18.5546875,-27.34375,-29.296875,7.32421875,0.0
225.75390625,-40.0390625,-22.94921875,-22.4609375,-13.18359375,73.73046875,0.0
225.7578125,-40.52734375,-24.90234375,-12.6953125,-10.25390625,34.66796875,0.0
225.76171875,-26.3671875,-30.76171875,-8.7890625,-32.2265625,-86.9140625,0.0
225.765625,-10.25390625,-33.69140625,-16.6015625,-32.2265625,-81.54296875,0.0
225.76953125,-20.99609375,-30.2734375,-25.390625,-21.97265625,-54.6875,0.0
225.7734375,-25.87890625,-31.25,-17.578125,-17.578125,32.71484375,0.0
225.77734375,-25.87890625,-38.57421875,-20.5078125,-19.53125,109.375,0.0
225.78125,-31.25,-41.015625,-38.0859375,-25.390625,124.0234375,0.0
225.78515625,-26.85546875,-27.83203125,-35.15625,-16.6015625,79.1015625,0.0
225.7890625,-28.80859375,-30.2734375,-11.23046875,-13.18359375,-35.15625,0.0
225.79296875,-34.1796875,-39.0625,-10.25390625,-23.4375,-151.85546875,0.0
225.796875,-15.625,-28.3203125,-33.69140625,-17.08984375,-124.0234375,0.0
225.80078125,8.30078125,-27.83203125,-41.015625,-21.484375,-43.45703125,0.0
225.8046875,-22.94921875,-33.69140625,-34.66796875,-29.296875,-73.2421875,0.0
225.80859375,-40.52734375,-22.94921875,-24.90234375,-23.4375,-96.19140625,0.0
225.8125,-35.64453125,-21.484375,-29.296875,-29.78515625,-2.44140625,0.0
225.81640625,-40.0390625,-28.3203125,-31.25,-30.2734375,-4.8828125,0.0
225.8203125,-35.15625,-31.73828125,-22.94921875,-16.6015625,-6.34765625,0.0
225.82421875,-25.87890625,-30.76171875,-26.3671875,-16.11328125,31.73828125,0.0
225.828125,-18.5546875,-24.90234375,-38.0859375,-15.625,8.30078125,0.0
225.83203125,-12.6953125,-19.53125,-44.921875,-8.7890625,-45.41015625,0.0
225.8359375,-12.20703125,-29.296875,-21.484375,-17.08984375,-109.86328125,0.0
225.83984375,-23.92578125,-37.109375,-15.13671875,-20.01953125,-104.4921875,0.0
225.84375,-20.01953125,-37.59765625,-30.2734375,-10.7421875,-40.0390625,0.0
225.84765625,-12.20703125,-30.76171875,-38.57421875,-6.8359375,-42.96875,0.0
225.8515625,-31.73828125,-22.94921875,-43.45703125,-28.80859375,-130.859375,0.0
225.85546875,-32.2265625,-19.53125,-45.41015625,-35.64453125,-73.2421875,0.0
225.859375,-6.34765625,-11.23046875,-46.38671875,-24.4140625,-11.71875,0.0
225.86328125,7.8125,-9.765625,-53.7109375,-32.71484375,-53.7109375,0.0
225.8671875,7.32421875,-21.484375,-63.96484375,-28.3203125,-70.80078125,0.0
225.87109375,10.7421875,-18.5546875,-64.94140625,-5.859375,-55.6640625,0.0
225.875,26.3671875,-10.25390625,-64.453125,5.859375,-58.10546875,0.0
225.87890625,34.1796875,-15.625,-49.31640625,13.671875,-1.46484375,0.0
225.8828125,30.2734375,-22.4609375,-39.55078125,18.06640625,53.7109375,0.0
225.88671875,19.53125,-19.04296875,-53.7109375,17.578125,27.83203125,0.0
225.890625,16.6015625,-13.671875,-50.29296875,18.06640625,-19.53125,0.0
225.89453125,26.3671875,-12.6953125,-33.69140625,30.76171875,-64.453125,0.0
225.8984375,32.71484375,-20.99609375,-39.55078125,32.2265625,-61.5234375,0.0
225.90234375,21.484375,-24.90234375,-43.45703125,23.4375,41.9921875,0.0
225.90625,15.625,-22.94921875,-43.9453125,17.578125,-30.2734375,0.0
225.91015625,11.71875,-16.11328125,-47.36328125,2.44140625,-170.41015625,0.0
225.9140625,9.27734375,-7.8125,-40.52734375,-4.8828125,-131.34765625,0.0
225.91796875,-1.953125,-16.6015625,-42.96875,3.41796875,-76.171875,0.0
225.921875,-10.7421875,-24.4140625,-51.7578125,-8.7890625,-36.62109375,0.0
225.92578125,4.8828125,-20.01953125,-44.921875,-21.484375,-48.828125,0.0
225.9296875,-21.484375,-20.5078125,-45.41015625,-11.71875,-43.9453125,0.0
225.93359375,-25.87890625,-22.94921875,-46.875,-2.9296875,-41.9921875,0.0
225.9375,-8.7890625,-18.5546875,-40.52734375,-7.32421875,4.39453125,0.0
225.94140625,-20.01953125,-21.484375,-40.52734375,-9.27734375,113.76953125,0.0
225.9453125,-18.5546875,-32.2265625,-43.9453125,-8.7890625,93.26171875,0.0
225.94921875,-13.671875,-27.34375,-45.8984375,-10.7421875,4.8828125,0.0
225.953125,-4.8828125,-18.5546875,-27.83203125,-10.7421875,-27.34375,0.0
225.95703125,-12.6953125,-26.3671875,-5.859375,-8.30078125,-30.2734375,0.0
225.9609375,-20.5078125,-26.85546875,-22.94921875,-16.6015625,-32.2265625,0.0
225.96484375,-11.71875,-24.90234375,-33.203125,-17.08984375,-16.11328125,0.0
225.96875,-19.04296875,-22.94921875,-14.16015625,-14.16015625,-43.45703125,0.0
225.97265625,-26.85546875,-20.01953125,-11.71875,-22.4609375,-96.19140625,0.0
225.9765625,-12.6953125,-20.5078125,-37.59765625,-15.625,-22.94921875,0.0
225.98046875,-5.859375,-22.4609375,-40.0390625,-15.13671875,8.30078125,0.0
225.984375,-13.18359375,-23.92578125,-32.71484375,-16.6015625,-11.71875,0.0
225.98828125,-11.71875,-31.73828125,-37.59765625,-15.625,-12.6953125,0.0
225.9921875,-30.2734375,-25.87890625,-38.57421875,-18.5546875,-46.875,0.0
225.99609375,-32.2265625,-18.06640625,-31.25,-11.71875,-63.4765625,0.0
226.0,-25.390625,-15.13671875,-33.203125,-10.25390625,-48.33984375,0.0
226.00390625,-33.203125,-16.11328125,-36.1328125,-28.3203125,-53.22265625,0.0
226.0078125,-33.69140625,-18.5546875,-40.52734375,-29.296875,-49.31640625,0.0
226.01171875,-22.94921875,-19.53125,-34.66796875,-23.92578125,-47.36328125,0.0
226.015625,-20.5078125,-27.83203125,-1.953125,-26.3671875,-114.2578125,0.0
226.01953125,-12.20703125,-32.2265625,-12.6953125,-19.04296875,-131.34765625,0.0
226.0234375,-13.671875,-22.94921875,-39.0625,-23.4375,-61.5234375,0.0
226.02734375,-21.97265625,-20.99609375,-32.2265625,-32.2265625,-19.53125,0.0
226.03125,-21.97265625,-30.2734375,-32.71484375,-29.296875,-49.8046875,0.0
226.03515625,-26.85546875,-27.83203125,-41.015625,-25.390625,-50.29296875,0.0
226.0390625,-13.18359375,-17.08984375,-44.921875,-22.4609375,-39.55078125,0.0
226.04296875,-11.71875,-19.04296875,-33.69140625,-28.80859375,-6.34765625,0.0
226.046875,-26.85546875,-25.87890625,-19.04296875,-29.296875,36.62109375,0.0
226.05078125,-29.296875,-29.78515625,-34.66796875,-14.6484375,-9.27734375,0.0
226.0546875,-30.2734375,-34.66796875,-41.015625,-26.85546875,-49.31640625,0.0
226.05859375,-32.2265625,-31.73828125,-27.83203125,-35.64453125,-98.14453125,0.0
226.0625,-36.1328125,-30.2734375,-32.2265625,-35.64453125,-127.44140625,0.0
226.06640625,-30.2734375,-25.87890625,-41.9921875,-36.1328125,-108.3984375,0.0
226.0703125,-27.83203125,-27.34375,-39.55078125,-33.203125,-83.984375,0.0
226.07421875,-33.69140625,-36.1328125,-20.5078125,-29.296875,-118.65234375,0.0
226.078125,-31.25,-37.59765625,-19.04296875,-27.83203125,-113.28125,0.0
226.08203125,-29.296875,-27.34375,-37.59765625,-37.109375,-67.3828125,0.0
226.0859375,-39.55078125,-24.90234375,-36.62109375,-44.921875,13.671875,0.0
226.08984375,-47.8515625,-30.76171875,-41.9921875,-35.64453125,48.33984375,0.0
226.09375,-42.48046875,-31.73828125,-45.41015625,-32.71484375,23.92578125,0.0
226.09765625,-35.15625,-33.203125,-41.9921875,-35.64453125,5.37109375,0.0
226.1015625,-36.62109375,-37.59765625,-41.015625,-37.59765625,-5.37109375,0.0
226.10546875,-45.41015625,-44.43359375,-17.08984375,-36.62109375,12.6953125,0.0
226.109375,-37.109375,-47.36328125,-23.92578125,-38.0859375,-6.34765625,0.0
226.11328125,-26.3671875,-42.48046875,-41.015625,-36.62109375,-9.27734375,0.0
226.1171875,-34.66796875,-27.83203125,-31.73828125,-29.296875,-7.8125,0.0
226.12109375,-37.59765625,-23.4375,-23.4375,-28.80859375,-19.53125,0.0
226.125,-35.15625,-27.83203125,-32.2265625,-41.9921875,9.765625,0.0
226.12890625,-54.19921875,-36.1328125,-40.52734375,-48.828125,-47.36328125,0.0
226.1328125,-52.24609375,-31.25,-27.34375,-43.9453125,-89.35546875,0.0
226.13671875,-36.1328125,-27.34375,-12.20703125,-36.62109375,-175.29296875,0.0
226.140625,-36.1328125,-28.80859375,-25.87890625,-33.69140625,-225.5859375,0.0
226.14453125,-46.38671875,-32.2265625,-33.203125,-39.0625,-168.9453125,0.0
226.1484375,-54.19921875,-34.1796875,-21.484375,-32.71484375,-137.6953125,0.0
226.15234375,-41.9921875,-36.1328125,-21.484375,-32.2265625,-44.921875,0.0
226.15625,-35.15625,-39.55078125,-32.2265625,-40.52734375,-3.41796875,0.0
226.16015625,-44.43359375,-34.1796875,-29.78515625,-33.69140625,0.9765625,0.0
226.1640625,-58.10546875,-32.71484375,-27.34375,-33.203125,25.390625,0.0
226.16796875,-62.01171875,-28.3203125,-30.76171875,-43.45703125,22.94921875,0.0
226.171875,-53.22265625,-27.34375,-41.9921875,-38.57421875,4.39453125,0.0
226.17578125,-40.52734375,-26.85546875,-42.48046875,-33.69140625,-55.17578125,0.0
226.1796875,-32.2265625,-18.5546875,-24.90234375,-42.96875,-112.3046875,0.0
226.18359375,-36.62109375,-28.3203125,-25.87890625,-48.33984375,-89.84375,0.0
226.1875,-27.34375,-26.85546875,-28.3203125,-42.48046875,-25.87890625,0.0
226.19140625,-11.71875,-14.6484375,-17.578125,-30.2734375,60.05859375,0.0
226.1953125,-18.06640625,-24.90234375,-19.53125,-16.6015625,-21.97265625,0.0
226.19921875,-28.3203125,-32.71484375,-32.2265625,-30.76171875,-89.35546875,0.0
226.203125,-34.66796875,-27.34375,-45.8984375,-51.26953125,87.40234375,0.0
226.20703125,-29.78515625,-19.04296875,-34.66796875,-39.55078125,71.2890625,0.0
226.2109375,-38.0859375,-28.3203125,-4.8828125,-21.97265625,-54.19921875,0.0
226.21484375,-58.10546875,-37.59765625,-17.08984375,-16.11328125,-101.5625,0.0
226.21875,-58.59375,-31.73828125,-29.78515625,-17.08984375,-91.796875,0.0
226.22265625,-53.7109375,-30.2734375,-30.2734375,-15.625,-20.5078125,0.0
226.2265625,-50.78125,-32.71484375,-25.87890625,-20.5078125,-65.4296875,0.0
226.23046875,-54.19921875,-26.3671875,-19.04296875,-35.15625,-67.87109375,0.0
226.234375,-44.921875,-15.13671875,-27.83203125,-27.83203125,6.8359375,0.0
226.23828125,-22.94921875,-18.5546875,-20.99609375,-19.04296875,-17.578125,0.0
226.2421875,-17.578125,-23.92578125,-11.71875,-28.80859375,-32.71484375,0.0
226.24609375,-39.0625,-24.4140625,-26.85546875,-41.50390625,-41.9921875,0.0
226.25,-28.80859375,-27.34375,-25.390625,-30.76171875,-117.67578125,0.0
226.25390625,-8.30078125,-25.87890625,-13.18359375,-26.3671875,-153.80859375,0.0
226.2578125,-27.34375,-36.62109375,-19.53125,-26.3671875,-73.2421875,0.0
226.26171875,-32.71484375,-47.36328125,-23.4375,-26.85546875,5.37109375,0.0
226.265625,-28.80859375,-34.66796875,-23.92578125,-33.203125,-11.71875,0.0
226.26953125,-38.57421875,-26.3671875,-17.578125,-31.73828125,-45.8984375,0.0
226.2734375,-41.015625,-26.85546875,-19.04296875,-24.90234375,-65.4296875,0.0
226.27734375,-32.2265625,-28.80859375,-30.76171875,-21.97265625,9.27734375,0.0
226.28125,-33.203125,-30.76171875,-32.71484375,-22.94921875,95.703125,0.0
226.28515625,-40.52734375,-26.85546875,-32.71484375,-30.2734375,-27.83203125,0.0
226.2890625,-46.38671875,-35.15625,-36.62109375,-34.1796875,-145.99609375,0.0
226.29296875,-46.875,-39.0625,-30.2734375,-17.08984375,-179.19921875,0.0
226.296875,-34.1796875,-27.83203125,-20.99609375,-2.44140625,-193.359375,0.0
226.30078125,-34.66796875,-31.25,-13.18359375,-0.9765625,-194.82421875,0.0
226.3046875,-30.2734375,-30.76171875,-20.5078125,-18.5546875,-106.93359375,0.0
226.30859375,-21.484375,-41.015625,-26.3671875,-20.5078125,-67.3828125,0.0
226.3125,-16.11328125,-41.015625,-25.390625,-5.37109375,-114.2578125,0.0
226.31640625,-26.3671875,-26.85546875,-31.73828125,-9.765625,-74.21875,0.0
226.3203125,-32.71484375,-30.2734375,-31.73828125,-20.01953125,104.4921875,0.0
226.32421875,-27.34375,-41.015625,-33.203125,-24.4140625,145.5078125,0.0
226.328125,-22.94921875,-39.0625,-29.78515625,-14.6484375,63.96484375,0.0
226.33203125,-25.87890625,-30.76171875,-30.2734375,-14.16015625,-0.48828125,0.0
226.3359375,-25.390625,-32.71484375,-36.1328125,-3.41796875,-70.80078125,0.0
226.33984375,-21.97265625,-25.390625,-32.2265625,9.765625,-39.0625,0.0
226.34375,-25.390625,-22.94921875,-10.25390625,-3.90625,11.71875,0.0
226.34765625,-5.859375,-28.3203125,1.953125,-2.44140625,56.15234375,0.0
226.3515625,-5.859375,-31.73828125,-26.85546875,-0.9765625,-37.59765625,0.0
226.35546875,-21.97265625,-33.69140625,-36.62109375,-11.71875,-96.19140625,0.0
226.359375,-35.15625,-37.59765625,-31.25,-11.23046875,50.29296875,0.0
226.36328125,-48.33984375,-41.015625,-29.78515625,-11.23046875,81.54296875,0.0
226.3671875,-45.41015625,-33.203125,-31.73828125,-18.06640625,-12.6953125,0.0
226.37109375,-42.48046875,-35.15625,-32.2265625,-14.6484375,-102.5390625,0.0
226.375,-40.52734375,-44.921875,-27.83203125,-10.7421875,-107.91015625,0.0
226.37890625,-34.1796875,-30.2734375,-30.76171875,-17.578125,-75.68359375,0.0
226.3828125,-28.80859375,-22.94921875,-36.1328125,-8.7890625,-64.94140625,0.0
226.38671875,-48.828125,-38.0859375,-30.2734375,-3.41796875,-102.05078125,0.0
226.390625,-63.4765625,-48.828125,-20.5078125,-9.27734375,-198.2421875,0.0
226.39453125,-49.8046875,-46.875,-38.57421875,-9.765625,-187.98828125,0.0
226.3984375,-18.06640625,-53.7109375,-53.22265625,-13.18359375,-74.21875,0.0
226.40234375,-1.953125,-67.87109375,-41.50390625,-8.30078125,-35.15625,0.0
226.40625,-43.45703125,-51.7578125,-27.83203125,2.44140625,-58.10546875,0.0
226.41015625,-55.6640625,-22.4609375,-27.34375,-23.4375,-15.13671875,0.0
226.4140625,-25.390625,-12.20703125,-35.64453125,-31.25,13.18359375,0.0
226.41796875,-41.9921875,-20.01953125,-22.94921875,-10.25390625,6.8359375,0.0
226.421875,-56.15234375,-32.2265625,-3.90625,-4.8828125,69.82421875,0.0
226.42578125,-41.9921875,-34.1796875,-21.97265625,-16.6015625,49.8046875,0.0
226.4296875,-57.12890625,-34.1796875,-31.25,-24.4140625,-8.30078125,0.0
226.43359375,-55.17578125,-43.9453125,-23.4375,-20.99609375,-50.29296875,0.0
226.4375,-31.25,-41.9921875,-31.73828125,-6.34765625,-147.4609375,0.0
226.44140625,-2.9296875,-26.85546875,-49.8046875,20.5078125,-184.5703125,0.0
226.4453125,-15.625,-22.94921875,-40.0390625,-3.90625,-147.94921875,0.0
226.44921875,-65.91796875,-28.80859375,-22.94921875,-40.52734375,14.16015625,0.0
226.453125,-80.078125,-33.69140625,-7.32421875,-41.50390625,122.55859375,0.0
226.45703125,-61.03515625,-42.48046875,-0.48828125,-23.4375,87.890625,0.0
226.4609375,-80.078125,-42.96875,-2.44140625,-16.6015625,63.4765625,0.0
226.46484375,-110.3515625,-43.9453125,2.44140625,-74.70703125,21.97265625,0.0
226.46875,-108.3984375,-53.22265625,0.48828125,-98.14453125,40.0390625,0.0
226.47265625,-116.69921875,-61.03515625,-1.46484375,-46.38671875,88.8671875,0.0
226.4765625,-104.98046875,-59.5703125,3.90625,-39.55078125,33.69140625,0.0
226.48046875,-108.3984375,-53.7109375,20.99609375,-103.515625,-17.08984375,0.0
226.484375,-98.6328125,-53.7109375,-0.9765625,-94.23828125,-27.34375,0.0
226.48828125,-87.40234375,-50.29296875,-16.6015625,-45.8984375,7.8125,0.0
226.4921875,-86.42578125,-44.43359375,-5.37109375,-17.578125,3.90625,0.0
226.49609375,-76.171875,-47.8515625,-8.7890625,-59.08203125,-40.0390625,0.0
226.5,-61.03515625,-56.15234375,-10.7421875,-57.12890625,32.2265625,0.0
226.50390625,-55.6640625,-44.43359375,-26.3671875,-42.96875,60.05859375,0.0
226.5078125,-62.01171875,-35.64453125,-22.4609375,-68.359375,48.33984375,0.0
226.51171875,-59.08203125,-43.9453125,13.18359375,-41.50390625,47.8515625,0.0
226.515625,-53.22265625,-41.50390625,-2.44140625,-38.0859375,68.84765625,0.0
226.51953125,-62.5,-41.50390625,-21.484375,-40.52734375,76.66015625,0.0
226.5234375,-55.6640625,-43.9453125,-10.25390625,-22.94921875,12.6953125,0.0
226.52734375,-38.57421875,-39.0625,-19.04296875,-5.859375,3.90625,0.0
226.53125,-52.24609375,-41.9921875,-43.45703125,-20.99609375,40.52734375,0.0
226.53515625,-47.8515625,-44.921875,-48.828125,-41.015625,11.23046875,0.0
226.5390625,-41.9921875,-39.55078125,-25.87890625,-16.11328125,-4.39453125,0.0
226.54296875,-49.31640625,-42.48046875,-8.30078125,2.44140625,-16.11328125,0.0
226.546875,-48.33984375,-57.12890625,-16.11328125,-2.44140625,10.7421875,0.0
226.55078125,-45.8984375,-58.10546875,-22.4609375,-12.6953125,-21.484375,0.0
226.5546875,-48.828125,-38.0859375,-21.484375,-4.39453125,-71.77734375,0.0
226.55859375,-37.109375,-28.80859375,-17.08984375,12.20703125,-13.18359375,0.0
226.5625,-28.80859375,-30.76171875,-32.2265625,-11.71875,-32.2265625,0.0
226.56640625,-36.62109375,-27.34375,-33.69140625,-32.71484375,-77.1484375,0.0
226.5703125,-48.33984375,-41.015625,3.41796875,-18.5546875,-61.03515625,0.0
226.57421875,-41.50390625,-44.43359375,-6.8359375,-8.7890625,-21.484375,0.0
226.578125,-35.64453125,-25.87890625,-28.80859375,-5.859375,-13.671875,0.0
226.58203125,-35.15625,-17.08984375,-28.80859375,-9.765625,-34.66796875,0.0
226.5859375,-33.69140625,-18.06640625,-32.2265625,-17.578125,-96.19140625,0.0
226.58984375,-36.62109375,-24.90234375,-29.296875,-15.13671875,-79.58984375,0.0
226.59375,-27.34375,-23.4375,-25.87890625,-12.20703125,-105.95703125,0.0
226.59765625,-18.06640625,-26.3671875,-26.3671875,-4.39453125,-165.0390625,0.0
226.6015625,-25.390625,-41.015625,-34.66796875,12.20703125,-191.40625,0.0
226.60546875,-35.15625,-39.0625,-39.55078125,0.0,-220.21484375,0.0
226.609375,-23.4375,-32.71484375,-20.01953125,-12.6953125,-202.1484375,0.0
226.61328125,-17.578125,-32.71484375,-8.7890625,-3.90625,-194.3359375,0.0
226.6171875,-18.06640625,-33.203125,-5.37109375,-4.39453125,-171.875,0.0
226.62109375,-14.6484375,-37.59765625,-17.578125,-6.34765625,-159.66796875,0.0
226.625,-35.15625,-46.38671875,-27.34375,-3.41796875,-129.39453125,0.0
226.62890625,-33.69140625,-43.9453125,-31.73828125,-9.27734375,-99.12109375,0.0
226.6328125,-26.3671875,-30.76171875,-41.015625,-24.4140625,-115.72265625,0.0
226.63671875,-39.55078125,-29.296875,-31.25,-15.13671875,-157.71484375,0.0
226.640625,-29.296875,-34.1796875,-19.04296875,-4.8828125,-153.80859375,0.0
226.64453125,-28.80859375,-33.69140625,-30.76171875,-20.5078125,-159.66796875,0.0
226.6484375,-34.1796875,-29.296875,-30.2734375,-28.80859375,-80.56640625,0.0
226.65234375,-19.53125,-23.92578125,-18.5546875,-16.6015625,-45.8984375,0.0
226.65625,0.48828125,-25.390625,-25.87890625,-19.04296875,-74.21875,0.0
226.66015625,-7.32421875,-28.3203125,-32.2265625,-27.34375,-102.05078125,0.0
226.6640625,-49.8046875,-35.64453125,-32.2265625,-29.78515625,-70.3125,0.0
226.66796875,-42.48046875,-42.48046875,-29.78515625,-21.97265625,22.4609375,0.0
226.671875,-21.97265625,-42.96875,-28.3203125,-22.4609375,137.6953125,0.0
226.67578125,-41.50390625,-42.96875,-1.953125,-26.3671875,103.515625,0.0
226.6796875,-46.875,-33.69140625,-9.765625,-22.4609375,34.66796875,0.0
226.68359375,-34.1796875,-31.25,-44.921875,-27.34375,-4.39453125,0.0
226.6875,-37.109375,-37.59765625,-43.45703125,-23.92578125,-60.05859375,0.0
226.69140625,-27.34375,-36.62109375,-29.296875,-44.43359375,-10.25390625,0.0
226.6953125,-20.01953125,-39.0625,-20.01953125,-54.6875,-28.3203125,0.0
226.69921875,-49.31640625,-39.0625,-21.484375,-27.83203125,-48.828125,0.0
226.703125,-56.640625,-37.59765625,-25.390625,-29.78515625,-38.57421875,0.0
226.70703125,-51.7578125,-41.50390625,-27.34375,-37.59765625,-49.8046875,0.0
226.7109375,-33.203125,-34.66796875,-33.69140625,-41.015625,-12.6953125,0.0
226.71484375,-37.59765625,-26.85546875,-31.73828125,-36.62109375,90.8203125,0.0
226.71875,-53.22265625,-37.109375,-31.25,-29.296875,103.515625,0.0
226.72265625,-46.38671875,-51.26953125,-42.48046875,-40.52734375,104.4921875,0.0
226.7265625,-34.66796875,-40.52734375,-50.78125,-27.83203125,69.3359375,0.0
226.73046875,-35.15625,-36.62109375,-39.55078125,-14.16015625,-62.5,0.0
226.734375,-36.62109375,-45.41015625,-23.4375,-27.34375,-49.31640625,0.0
226.73828125,-31.73828125,-33.203125,-22.94921875,-26.85546875,75.1953125,0.0
226.7421875,-37.59765625,-24.4140625,-31.73828125,-29.296875,81.0546875,0.0
226.74609375,-29.78515625,-34.1796875,-26.3671875,-29.78515625,8.7890625,0.0
226.75,-4.39453125,-40.0390625,-20.99609375,-3.41796875,5.37109375,0.0
226.75390625,2.9296875,-39.0625,-23.92578125,-6.34765625,-17.08984375,0.0
226.7578125,-21.97265625,-33.69140625,-37.59765625,-40.52734375,-18.5546875,0.0
226.76171875,-39.0625,-23.92578125,-33.203125,-35.15625,98.6328125,0.0
226.765625,-27.83203125,-17.08984375,-5.37109375,-31.25,104.4921875,0.0
226.76953125,-20.01953125,-12.20703125,-17.578125,-39.55078125,14.16015625,0.0
226.7734375,-32.71484375,-20.5078125,-32.2265625,-30.2734375,-75.68359375,0.0
226.77734375,-34.66796875,-25.87890625,-37.109375,-14.6484375,-113.76953125,0.0
226.78125,-33.203125,-21.97265625,-48.33984375,-33.69140625,-51.26953125,0.0
226.78515625,-31.73828125,-28.3203125,-41.9921875,-47.8515625,-116.2109375,0.0
226.7890625,-26.3671875,-34.1796875,-26.85546875,-28.80859375,-123.53515625,0.0
226.79296875,-38.0859375,-28.80859375,-19.53125,-35.64453125,-46.875,0.0
226.796875,-31.73828125,-38.57421875,-21.97265625,-38.57421875,38.57421875,0.0
226.80078125,-34.1796875,-38.0859375,-37.59765625,-36.62109375,83.984375,0.0
226.8046875,-50.78125,-32.71484375,-50.78125,-43.45703125,91.796875,0.0
226.80859375,-36.1328125,-32.71484375,-14.6484375,-40.0390625,128.41796875,0.0
226.8125,-21.97265625,-35.64453125,17.08984375,-32.71484375,78.125,0.0
226.81640625,-22.4609375,-41.50390625,-22.4609375,-26.85546875,48.828125,0.0
226.8203125,-3.41796875,-35.64453125,-32.71484375,-27.34375,18.5546875,0.0
226.82421875,8.30078125,-30.2734375,-29.78515625,-31.73828125,71.77734375,0.0
226.828125,-22.4609375,-28.3203125,-41.9921875,-31.73828125,95.21484375,0.0
226.83203125,-35.15625,-27.34375,-46.875,-43.45703125,-41.9921875,0.0
226.8359375,-26.85546875,-31.73828125,-43.9453125,-48.828125,-71.77734375,0.0
226.83984375,-35.15625,-32.2265625,-16.11328125,-35.64453125,-68.84765625,0.0
226.84375,-51.26953125,-28.80859375,-17.08984375,-42.48046875,-59.5703125,0.0
226.84765625,-37.109375,-26.85546875,-33.203125,-58.59375,34.66796875,0.0
226.8515625,-39.55078125,-30.2734375,-27.34375,-53.7109375,37.59765625,0.0
226.85546875,-38.57421875,-31.25,-18.06640625,-40.0390625,-32.2265625,0.0
226.859375,-20.01953125,-41.9921875,-35.64453125,-38.57421875,-50.78125,0.0
226.86328125,-35.15625,-49.31640625,-52.734375,-56.15234375,-31.73828125,0.0
226.8671875,-34.1796875,-35.64453125,-47.8515625,-53.22265625,-49.31640625,0.0
226.87109375,-15.625,-31.73828125,-30.76171875,-26.3671875,-114.74609375,0.0
226.875,-23.4375,-40.0390625,-29.296875,-40.52734375,-84.9609375,0.0
226.87890625,-37.109375,-39.0625,-43.9453125,-53.7109375,23.92578125,0.0
226.8828125,-43.9453125,-27.83203125,-34.1796875,-51.7578125,91.30859375,0.0
226.88671875,-41.50390625,-24.4140625,-9.27734375,-53.22265625,42.96875,0.0
226.890625,-38.0859375,-39.55078125,-27.83203125,-50.29296875,20.01953125,0.0
226.89453125,-31.25,-46.38671875,-53.22265625,-49.31640625,-14.6484375,0.0
226.8984375,-26.85546875,-41.015625,-23.92578125,-42.48046875,-53.7109375,0.0
226.90234375,-35.64453125,-33.203125,48.828125,-45.41015625,-27.83203125,0.0
226.90625,-34.1796875,-20.5078125,-5.859375,-47.36328125,-44.921875,0.0
226.91015625,-33.69140625,-22.94921875,-58.59375,-45.8984375,-75.1953125,0.0
226.9140625,-31.73828125,-22.94921875,-43.9453125,-45.41015625,-58.59375,0.0
226.91796875,-6.8359375,-15.625,-38.57421875,-29.78515625,-22.4609375,0.0
226.921875,-10.25390625,-22.94921875,-36.1328125,-23.4375,1.953125,0.0
226.92578125,-43.45703125,-32.2265625,-35.15625,-41.50390625,-11.23046875,0.0
226.9296875,-38.57421875,-26.85546875,-36.1328125,-41.015625,-78.61328125,0.0
226.93359375,-21.97265625,-21.97265625,-38.57421875,-24.90234375,-68.359375,0.0
226.9375,-30.76171875,-21.97265625,-41.015625,-35.15625,25.87890625,0.0
226.94140625,-18.5546875,-26.3671875,-48.828125,-49.8046875,-14.6484375,0.0
226.9453125,-22.94921875,-36.1328125,-42.48046875,-44.921875,-94.23828125,0.0
226.94921875,-41.015625,-30.76171875,-35.15625,-39.55078125,-90.8203125,0.0
226.953125,-30.76171875,-25.87890625,-41.50390625,-40.0390625,-162.109375,0.0
226.95703125,-35.15625,-43.45703125,-42.96875,-52.734375,-145.01953125,0.0
226.9609375,-40.0390625,-43.45703125,5.37109375,-44.43359375,-78.125,0.0
226.96484375,-47.8515625,-33.69140625,-3.90625,-35.64453125,-85.9375,0.0
226.96875,-43.9453125,-28.80859375,-47.36328125,-51.7578125,-9.765625,0.0
226.97265625,-34.1796875,-29.78515625,-37.59765625,-65.4296875,-8.30078125,0.0
226.9765625,-37.109375,-30.76171875,-30.76171875,-59.08203125,-65.91796875,0.0
226.98046875,-27.83203125,-30.2734375,-41.50390625,-60.05859375,-47.36328125,0.0
226.984375,-11.71875,-29.296875,-45.41015625,-56.15234375,-44.43359375,0.0
226.98828125,0.0,-27.83203125,-41.015625,-45.8984375,-64.453125,0.0
226.9921875,-11.71875,-27.83203125,-40.0390625,-47.36328125,-54.6875,0.0
226.99609375,-22.94921875,-31.25,-43.45703125,-46.38671875,-77.1484375,0.0
227.0,-29.296875,-32.2265625,-50.29296875,-40.0390625,-33.203125,0.0
227.00390625,-28.3203125,-36.1328125,-46.875,-51.26953125,104.4921875,0.0
227.0078125,-56.15234375,-40.0390625,-20.99609375,-59.5703125,5.37109375,0.0
227.01171875,-61.5234375,-31.25,-31.25,-58.10546875,-45.8984375,0.0
227.015625,-44.921875,-29.78515625,-42.96875,-60.05859375,-31.25,0.0
227.01953125,-45.8984375,-30.76171875,-36.62109375,-63.4765625,-225.5859375,0.0
227.0234375,-45.41015625,-30.76171875,-36.1328125,-57.12890625,-242.67578125,0.0
227.02734375,-41.015625,-36.1328125,-34.66796875,-42.48046875,-146.484375,0.0
227.03125,-41.50390625,-39.0625,-38.0859375,-52.24609375,-172.8515625,0.0
227.03515625,-45.41015625,-41.015625,-41.015625,-64.453125,-201.66015625,0.0
227.0390625,-30.76171875,-41.50390625,-38.0859375,-45.8984375,-127.44140625,0.0
227.04296875,-38.57421875,-39.55078125,-43.9453125,-44.921875,-26.3671875,0.0
227.046875,-61.5234375,-39.0625,-39.55078125,-60.546875,-68.84765625,0.0
227.05078125,-57.6171875,-37.59765625,-4.39453125,-53.7109375,-156.25,0.0
227.0546875,-52.24609375,-33.203125,-23.4375,-41.015625,-159.1796875,0.0
227.05859375,-54.6875,-26.85546875,-40.0390625,-32.71484375,0.48828125,0.0
227.0625,-32.2265625,-29.296875,-23.4375,-40.52734375,-6.8359375,0.0
227.06640625,-35.15625,-30.2734375,-29.78515625,-45.41015625,-149.90234375,0.0
227.0703125,-48.33984375,-26.85546875,-42.96875,-45.41015625,-26.85546875,0.0
227.07421875,-49.8046875,-41.9921875,-35.15625,-37.109375,111.81640625,0.0
227.078125,-44.43359375,-33.69140625,-24.90234375,-39.55078125,68.84765625,0.0
227.08203125,-36.1328125,-23.4375,-31.25,-45.41015625,-64.94140625,0.0
227.0859375,-1.46484375,-26.3671875,-37.59765625,-54.6875,-113.28125,0.0
227.08984375,-19.53125,-27.34375,-37.109375,-44.921875,-89.35546875,0.0
227.09375,-66.89453125,-31.73828125,-15.625,-40.52734375,-74.21875,0.0
227.09765625,-39.55078125,-37.109375,-3.41796875,-46.875,-80.56640625,0.0
227.1015625,-36.1328125,-41.015625,-30.76171875,-20.01953125,-38.0859375,0.0
227.10546875,-63.96484375,-36.62109375,-42.48046875,-38.0859375,57.12890625,0.0
227.109375,-46.875,-31.25,-44.921875,-68.359375,36.62109375,0.0
227.11328125,-14.6484375,-30.76171875,-40.52734375,-48.33984375,-25.87890625,0.0
227.1171875,-22.4609375,-34.66796875,-41.9921875,-37.109375,34.1796875,0.0
227.12109375,3.41796875,-36.62109375,-34.66796875,-55.17578125,79.1015625,0.0
227.125,-37.59765625,-29.296875,-2.44140625,-48.33984375,43.45703125,0.0
227.12890625,-74.21875,-26.85546875,-24.4140625,-33.203125,3.90625,0.0
227.1328125,-55.6640625,-31.25,-51.26953125,-35.15625,-53.22265625,0.0
227.13671875,-61.5234375,-32.2265625,-29.296875,-41.50390625,-82.51953125,0.0
227.140625,-52.24609375,-37.59765625,37.109375,-27.83203125,-61.5234375,0.0
227.14453125,-47.36328125,-39.0625,-3.41796875,-32.2265625,44.921875,0.0
227.1484375,-60.05859375,-34.66796875,-50.29296875,-52.734375,88.8671875,0.0
227.15234375,-4.8828125,-28.80859375,-31.73828125,-39.55078125,51.26953125,0.0
227.15625,-3.90625,-29.296875,-39.0625,-31.25,20.5078125,0.0
227.16015625,-56.15234375,-36.1328125,-42.48046875,-41.50390625,45.8984375,0.0
227.1640625,-38.57421875,-44.43359375,-48.828125,-45.8984375,-16.11328125,0.0
227.16796875,-52.734375,-45.41015625,-34.66796875,-49.31640625,-98.6328125,0.0
227.171875,-52.24609375,-31.25,-7.8125,-62.5,-122.0703125,0.0
227.17578125,-19.04296875,-26.85546875,-32.2265625,-40.0390625,-101.5625,0.0
227.1796875,-25.87890625,-30.2734375,-41.015625,-6.34765625,-48.828125,0.0
227.18359375,-51.26953125,-31.25,-36.62109375,-49.31640625,-49.8046875,0.0
227.1875,-77.63671875,-38.57421875,-32.71484375,-80.078125,-39.55078125,0.0
227.19140625,-75.68359375,-44.43359375,-35.64453125,-67.87109375,8.30078125,0.0
227.1953125,-75.1953125,-41.015625,-37.109375,-57.12890625,-5.37109375,0.0
227.19921875,-63.4765625,-35.64453125,-30.76171875,-33.69140625,-33.203125,0.0
227.203125,-46.38671875,-35.15625,-35.15625,-49.31640625,-45.41015625,0.0
227.20703125,-62.01171875,-35.15625,-44.43359375,-82.03125,-14.16015625,0.0
227.2109375,-83.984375,-33.203125,-42.96875,-65.4296875,38.57421875,0.0
227.21484375,-78.61328125,-35.64453125,-35.64453125,-47.36328125,-56.640625,0.0
227.21875,-56.640625,-35.15625,-34.66796875,-47.8515625,-30.76171875,0.0
227.22265625,-44.43359375,-31.25,-51.26953125,-52.24609375,56.15234375,0.0
227.2265625,-62.98828125,-34.1796875,-41.9921875,-43.45703125,-40.52734375,0.0
227.23046875,-83.49609375,-39.0625,18.06640625,-34.66796875,-168.9453125,0.0
227.234375,-78.125,-36.62109375,5.859375,-35.15625,-154.78515625,0.0
227.23828125,-72.75390625,-38.0859375,-26.85546875,-35.15625,35.15625,0.0
227.2421875,-67.3828125,-43.45703125,-21.97265625,-36.1328125,82.03125,0.0
227.24609375,-59.5703125,-37.109375,-18.5546875,-40.52734375,-9.765625,0.0
227.25,-52.24609375,-32.2265625,-30.2734375,-46.875,-62.01171875,0.0
227.25390625,-61.5234375,-28.3203125,-41.50390625,-30.76171875,-2.44140625,0.0
227.2578125,-61.5234375,-25.87890625,-33.69140625,-30.76171875,-61.03515625,0.0
227.26171875,-65.91796875,-33.203125,-20.5078125,-50.29296875,-53.22265625,0.0
227.265625,-90.8203125,-33.69140625,-33.203125,-43.45703125,0.48828125,0.0
227.26953125,-86.9140625,-33.69140625,-40.0390625,-45.8984375,-75.1953125,0.0
227.2734375,-69.3359375,-36.1328125,-31.73828125,-52.24609375,-59.5703125,0.0
227.27734375,-77.1484375,-35.15625,-30.76171875,-44.921875,-51.26953125,0.0
227.28125,-79.58984375,-33.203125,-31.25,-39.0625,-96.6796875,0.0
227.28515625,-76.171875,-33.203125,-28.80859375,-33.69140625,-79.1015625,0.0
227.2890625,-88.8671875,-35.15625,-19.04296875,-20.99609375,-52.734375,0.0
227.29296875,-75.1953125,-32.2265625,-10.25390625,-21.484375,-32.71484375,0.0
227.296875,-71.2890625,-33.69140625,-22.94921875,-29.78515625,-11.23046875,0.0
227.30078125,-88.8671875,-36.62109375,-26.3671875,-28.80859375,-79.58984375,0.0
227.3046875,-92.7734375,-36.1328125,-18.5546875,-38.0859375,-77.1484375,0.0
227.30859375,-84.9609375,-35.64453125,-17.08984375,-30.76171875,-4.39453125,0.0
227.3125,-83.984375,-30.76171875,-20.01953125,-15.13671875,28.80859375,0.0
227.31640625,-71.77734375,-36.62109375,-31.73828125,-24.4140625,26.3671875,0.0
227.3203125,-62.01171875,-40.0390625,-35.15625,-31.25,-35.15625,0.0
227.32421875,-83.49609375,-37.59765625,-26.3671875,-31.73828125,-46.38671875,0.0
227.328125,-68.84765625,-35.15625,-25.390625,-20.01953125,17.578125,0.0
227.33203125,-52.734375,-31.73828125,-26.85546875,-24.90234375,-22.4609375,0.0
227.3359375,-69.82421875,-35.64453125,-1.953125,-26.85546875,-60.05859375,0.0
227.33984375,-75.1953125,-33.69140625,-7.32421875,-19.53125,72.265625,0.0
227.34375,-59.08203125,-32.71484375,-30.76171875,-36.62109375,96.6796875,0.0
227.34765625,-47.36328125,-32.2265625,-25.390625,-42.48046875,38.57421875,0.0
227.3515625,-38.0859375,-29.78515625,-17.578125,-33.69140625,64.453125,0.0
227.35546875,-29.296875,-34.1796875,-19.53125,-24.90234375,26.3671875,0.0
227.359375,-33.203125,-34.1796875,-25.390625,-16.11328125,4.8828125,0.0
227.36328125,-59.08203125,-31.73828125,-20.01953125,-25.390625,-0.48828125,0.0
227.3671875,-69.82421875,-32.2265625,-17.08984375,-34.1796875,39.0625,0.0
227.37109375,-53.7109375,-38.0859375,-27.83203125,-19.53125,69.82421875,0.0
227.375,-46.38671875,-44.921875,-35.15625,-20.99609375,-32.71484375,0.0
227.37890625,-48.33984375,-38.57421875,-19.04296875,-28.3203125,-113.76953125,0.0
227.3828125,-46.38671875,-33.69140625,-5.37109375,-23.92578125,-39.0625,0.0
227.38671875,-58.10546875,-40.0390625,-25.390625,-17.578125,-19.04296875,0.0
227.390625,-63.4765625,-40.52734375,-31.73828125,-10.25390625,-78.61328125,0.0
227.39453125,-65.91796875,-36.1328125,-10.25390625,-3.90625,-29.78515625,0.0
227.3984375,-53.7109375,-36.1328125,-15.13671875,-10.25390625,38.0859375,0.0
227.40234375,-36.1328125,-36.1328125,-31.25,-23.4375,36.62109375,0.0
227.40625,-37.59765625,-37.109375,-29.78515625,-29.296875,4.8828125,0.0
227.41015625,-26.3671875,-38.57421875,-26.85546875,-17.578125,-98.14453125,0.0
227.4140625,-23.4375,-37.59765625,-29.296875,-11.71875,-88.8671875,0.0
227.41796875,-40.52734375,-33.203125,-27.83203125,-17.08984375,-20.5078125,0.0
227.421875,-50.29296875,-35.15625,-20.5078125,-19.53125,-2.9296875,0.0
227.42578125,-64.453125,-42.96875,-0.9765625,-18.5546875,35.64453125,0.0
227.4296875,-66.89453125,-41.015625,-11.71875,-10.7421875,27.34375,0.0
227.43359375,-53.22265625,-38.0859375,-28.80859375,-5.37109375,28.80859375,0.0
227.4375,-57.6171875,-44.43359375,-27.34375,-8.30078125,-57.12890625,0.0
227.44140625,-105.46875,-41.50390625,-25.390625,-8.30078125,-83.0078125,0.0
227.4453125,-120.1171875,-37.109375,-29.296875,-17.08984375,-53.7109375,0.0
227.44921875,-93.26171875,-34.66796875,-33.69140625,-21.484375,-28.80859375,0.0
227.453125,-86.9140625,-28.80859375,-23.92578125,-5.37109375,40.52734375,0.0
227.45703125,-107.421875,-24.4140625,-14.16015625,-1.953125,36.62109375,0.0
227.4609375,-125.0,-20.99609375,-17.578125,-15.13671875,-47.8515625,0.0
227.46484375,-110.3515625,-23.92578125,-25.87890625,-12.6953125,-103.515625,0.0
227.46875,-105.95703125,-31.73828125,-14.6484375,-10.25390625,-63.4765625,0.0
227.47265625,-121.09375,-31.73828125,-6.8359375,-20.01953125,-52.24609375,0.0
227.4765625,-109.375,-29.296875,-19.53125,-10.25390625,-80.56640625,0.0
227.48046875,-93.26171875,-31.73828125,-18.06640625,-4.8828125,-8.7890625,0.0
227.484375,-83.0078125,-31.73828125,-19.53125,-6.34765625,51.7578125,0.0
227.48828125,-67.87109375,-30.2734375,-20.99609375,7.8125,-0.48828125,0.0
227.4921875,-71.2890625,-36.1328125,-25.390625,4.8828125,-30.2734375,0.0
227.49609375,-64.453125,-32.71484375,-24.4140625,3.41796875,9.27734375,0.0
227.5,-55.17578125,-25.390625,-29.296875,5.859375,-21.97265625,0.0
227.50390625,-58.10546875,-32.71484375,-32.71484375,-3.41796875,-41.015625,0.0
227.5078125,-63.4765625,-38.0859375,-33.69140625,0.9765625,-107.421875,0.0
227.51171875,-68.84765625,-30.2734375,-25.87890625,5.37109375,-147.4609375,0.0
227.515625,-75.1953125,-29.78515625,11.71875,7.32421875,-39.55078125,0.0
227.51953125,-72.75390625,-29.78515625,2.9296875,12.6953125,1.953125,0.0
227.5234375,-81.54296875,-28.3203125,-20.99609375,8.30078125,-52.734375,0.0
227.52734375,-80.56640625,-32.71484375,-21.484375,3.90625,-60.546875,0.0
227.53125,-72.265625,-31.73828125,-19.04296875,22.4609375,-81.0546875,0.0
227.53515625,-77.63671875,-30.2734375,-16.6015625,21.484375,-93.26171875,0.0
227.5390625,-82.51953125,-31.25,-16.11328125,20.99609375,-107.91015625,0.0
227.54296875,-76.171875,-31.73828125,-16.6015625,15.13671875,-96.19140625,0.0
227.546875,-64.453125,-34.66796875,-20.01953125,4.39453125,-61.5234375,0.0
227.55078125,-71.2890625,-30.76171875,-26.3671875,7.8125,-60.546875,0.0
227.5546875,-81.0546875,-24.90234375,-30.76171875,-0.48828125,-94.23828125,0.0
227.55859375,-104.4921875,-28.80859375,-11.71875,-4.39453125,-111.81640625,0.0
227.5625,-104.98046875,-35.64453125,14.16015625,4.39453125,-55.17578125,0.0
227.56640625,-87.40234375,-35.64453125,-18.5546875,-7.32421875,-1.46484375,0.0
227.5703125,-93.26171875,-38.0859375,-39.55078125,-10.7421875,-66.40625,0.0
227.57421875,-85.9375,-37.109375,-32.71484375,1.46484375,-80.56640625,0.0
227.578125,-82.03125,-30.76171875,-31.25,-1.953125,29.78515625,0.0
227.58203125,-110.3515625,-29.78515625,-29.296875,-1.953125,87.40234375,0.0
227.5859375,-121.58203125,-36.1328125,-26.85546875,-7.32421875,36.62109375,0.0
227.58984375,-90.33203125,-41.50390625,-28.3203125,-12.6953125,-21.484375,0.0
227.59375,-83.49609375,-42.48046875,-27.83203125,-15.13671875,-48.828125,0.0
227.59765625,-126.46484375,-39.55078125,-26.85546875,-14.16015625,25.390625,0.0
227.6015625,-131.8359375,-32.2265625,-35.15625,-16.11328125,62.01171875,0.0
227.60546875,-110.83984375,-31.25,-16.11328125,-2.9296875,-24.4140625,0.0
227.609375,-119.62890625,-32.71484375,-12.6953125,2.44140625,-75.68359375,0.0
227.61328125,-98.6328125,-38.57421875,-34.66796875,-13.18359375,-113.28125,0.0
227.6171875,-89.84375,-37.109375,-26.3671875,1.953125,-112.79296875,0.0
227.62109375,-121.58203125,-29.296875,-10.25390625,-6.34765625,-30.2734375,0.0
227.625,-101.5625,-26.3671875,-27.83203125,-21.484375,8.30078125,0.0
227.62890625,-106.93359375,-30.76171875,-38.0859375,-13.671875,52.734375,0.0
227.6328125,-137.6953125,-28.3203125,-38.0859375,-14.16015625,67.87109375,0.0
227.63671875,-114.2578125,-22.94921875,-36.62109375,-1.953125,-10.25390625,0.0
227.640625,-114.74609375,-30.2734375,-33.203125,-11.23046875,10.25390625,0.0
227.64453125,-132.8125,-31.25,-41.50390625,-29.78515625,94.23828125,0.0
227.6484375,-135.25390625,-27.83203125,-31.73828125,-13.18359375,71.77734375,0.0
227.65234375,-148.4375,-31.73828125,3.90625,-5.859375,-55.6640625,0.0
227.65625,-153.3203125,-29.78515625,-21.484375,-9.765625,-140.13671875,0.0
227.66015625,-146.484375,-29.78515625,-43.9453125,-11.23046875,-75.68359375,0.0
227.6640625,-151.85546875,-33.203125,-33.69140625,-11.71875,-77.1484375,0.0
227.66796875,-159.66796875,-37.109375,-36.1328125,-12.20703125,-127.44140625,0.0
227.671875,-167.96875,-31.25,-41.9921875,-21.484375,-104.00390625,0.0
227.67578125,-176.26953125,-34.1796875,-34.1796875,-19.53125,-86.9140625,0.0
227.6796875,-166.9921875,-38.57421875,-9.765625,4.39453125,-97.16796875,0.0
227.68359375,-149.90234375,-35.64453125,-22.94921875,-7.32421875,-97.16796875,0.0
227.6875,-153.80859375,-35.15625,-37.59765625,-19.04296875,-162.59765625,0.0
227.69140625,-130.37109375,-35.15625,-34.66796875,-11.23046875,-173.33984375,0.0
227.6953125,-166.015625,-34.1796875,-35.15625,-32.2265625,-79.58984375,0.0
227.69921875,-202.1484375,-26.3671875,-39.0625,-52.734375,-55.17578125,0.0
227.703125,-203.125,-22.4609375,-47.36328125,-43.9453125,16.6015625,0.0
227.70703125,-175.29296875,-26.85546875,-41.015625,-24.4140625,80.078125,0.0
227.7109375,-177.734375,-23.4375,-17.08984375,-13.18359375,20.99609375,0.0
227.71484375,-166.015625,-11.23046875,-34.66796875,-6.34765625,95.21484375,0.0
227.71875,-62.01171875,-20.99609375,-53.7109375,19.04296875,93.75,0.0
227.72265625,-121.58203125,-27.34375,-43.9453125,52.734375,-41.50390625,0.0
227.7265625,-208.49609375,-22.94921875,-38.0859375,40.0390625,-37.109375,0.0
227.73046875,-164.55078125,-25.390625,-39.0625,24.4140625,-26.85546875,0.0
227.734375,-101.07421875,-23.4375,-43.9453125,48.828125,-49.31640625,0.0
227.73828125,-95.21484375,-14.6484375,-38.57421875,58.10546875,-128.41796875,0.0
227.7421875,-76.171875,-12.20703125,-23.4375,91.796875,-126.46484375,0.0
227.74609375,-20.5078125,-9.765625,-34.1796875,94.7265625,11.23046875,0.0
227.75,-30.2734375,-12.6953125,-44.921875,72.75390625,47.8515625,0.0
227.75390625,-36.62109375,-13.18359375,-40.52734375,78.61328125,-40.52734375,0.0
227.7578125,-29.296875,-6.8359375,-42.96875,89.84375,-59.08203125,0.0
227.76171875,-5.859375,-4.39453125,-46.875,108.3984375,37.109375,0.0
227.765625,-38.0859375,-9.27734375,-42.48046875,110.83984375,65.4296875,0.0
227.76953125,35.64453125,0.48828125,-37.59765625,104.00390625,84.47265625,0.0
227.7734375,19.04296875,2.9296875,-42.96875,87.890625,126.46484375,0.0
227.77734375,-69.82421875,-2.9296875,-52.24609375,82.51953125,68.359375,0.0
227.78125,-48.828125,-0.9765625,-49.31640625,103.515625,74.21875,0.0
227.78515625,3.41796875,0.48828125,-47.36328125,83.0078125,63.96484375,0.0
227.7890625,-20.5078125,-0.48828125,-50.78125,77.63671875,-9.27734375,0.0
227.79296875,-19.53125,-2.44140625,-48.828125,87.890625,-80.078125,0.0
227.796875,-12.6953125,-11.23046875,-39.55078125,96.19140625,-67.3828125,0.0
227.80078125,-0.48828125,-2.9296875,-19.53125,102.05078125,-74.21875,0.0
227.8046875,-13.18359375,8.30078125,-26.3671875,106.4453125,-56.15234375,0.0
227.80859375,26.3671875,-6.8359375,-33.203125,133.7890625,44.43359375,0.0
227.8125,35.64453125,-6.34765625,-22.4609375,151.85546875,-54.19921875,0.0
227.81640625,-3.41796875,-0.48828125,-26.3671875,58.59375,-95.703125,0.0
227.8203125,-36.62109375,-7.32421875,-28.3203125,41.9921875,-13.671875,0.0
227.82421875,-41.9921875,-5.37109375,-25.87890625,81.0546875,28.80859375,0.0
227.828125,-40.0390625,-10.7421875,-23.92578125,62.01171875,14.6484375,0.0
227.83203125,-14.16015625,-13.18359375,-21.484375,83.0078125,-42.48046875,0.0
227.8359375,5.37109375,-4.39453125,-20.5078125,98.6328125,-58.10546875,0.0
227.83984375,-22.4609375,6.8359375,-20.99609375,52.734375,-67.3828125,0.0
227.84375,-15.625,-2.9296875,-11.71875,43.45703125,-32.2265625,0.0
227.84765625,34.1796875,-15.625,-3.41796875,59.5703125,-42.48046875,0.0
227.8515625,-0.9765625,-13.671875,-7.8125,70.80078125,-89.84375,0.0
227.85546875,17.08984375,-10.25390625,-10.7421875,99.12109375,-89.35546875,0.0
227.859375,34.1796875,-12.20703125,-12.6953125,91.30859375,-88.8671875,0.0
227.86328125,-24.90234375,-10.7421875,-14.6484375,58.10546875,-36.62109375,0.0
227.8671875,29.78515625,-4.39453125,-18.06640625,38.57421875,-1.953125,0.0
227.87109375,56.640625,-7.8125,-17.08984375,40.0390625,-11.71875,0.0
227.875,-40.0390625,-10.7421875,-12.6953125,49.31640625,-76.66015625,0.0
227.87890625,-51.26953125,-7.32421875,-16.11328125,36.62109375,-95.703125,0.0
227.8828125,-1.953125,0.9765625,-18.5546875,28.3203125,-149.90234375,0.0
227.88671875,5.859375,-1.46484375,-18.06640625,46.38671875,-153.80859375,0.0
227.890625,-18.5546875,-13.18359375,-0.9765625,31.73828125,-52.734375,0.0
227.89453125,8.7890625,-11.71875,-9.27734375,16.11328125,-4.39453125,0.0
227.8984375,10.25390625,-8.7890625,-21.484375,45.41015625,81.0546875,0.0
227.90234375,-44.43359375,-4.8828125,-18.06640625,32.2265625,96.6796875,0.0
227.90625,-47.36328125,-7.8125,-18.06640625,40.52734375,46.875,0.0
227.91015625,-6.34765625,-17.08984375,-13.18359375,126.953125,-6.34765625,0.0
227.9140625,59.08203125,-8.7890625,-21.484375,60.546875,-49.31640625,0.0
227.91796875,15.625,-6.8359375,-21.484375,15.13671875,-60.546875,0.0
227.921875,-39.0625,-14.6484375,-11.71875,36.1328125,9.27734375,0.0
227.92578125,11.71875,-16.11328125,-9.765625,51.26953125,-2.44140625,0.0
227.9296875,24.90234375,-18.5546875,-6.34765625,77.1484375,-145.99609375,0.0
227.93359375,-25.390625,-20.99609375,-4.39453125,71.77734375,-133.30078125,0.0
227.9375,-5.859375,-18.06640625,-0.9765625,118.65234375,-36.1328125,0.0
227.94140625,25.87890625,-10.25390625,-6.34765625,83.984375,18.06640625,0.0
227.9453125,13.18359375,-8.7890625,-7.32421875,43.45703125,-27.34375,0.0
227.94921875,31.73828125,-0.9765625,0.0,83.49609375,-90.8203125,0.0
227.953125,45.41015625,-5.859375,0.9765625,104.98046875,-44.43359375,0.0
227.95703125,32.71484375,-15.13671875,4.8828125,115.72265625,-16.11328125,0.0
227.9609375,53.7109375,-12.6953125,11.23046875,144.04296875,-27.34375,0.0
227.96484375,30.76171875,-9.27734375,11.23046875,107.421875,-13.671875,0.0
227.96875,-2.44140625,-11.71875,12.6953125,87.890625,-23.92578125,0.0
227.97265625,37.59765625,-3.41796875,6.8359375,118.1640625,-86.42578125,0.0
227.9765625,61.5234375,-2.9296875,9.765625,116.2109375,-92.28515625,0.0
227.98046875,32.71484375,-13.18359375,49.31640625,113.28125,-72.75390625,0.0
227.984375,60.05859375,-15.625,29.78515625,131.34765625,-71.2890625,0.0
227.98828125,119.62890625,-13.18359375,-4.8828125,156.73828125,-21.484375,0.0
227.9921875,22.94921875,-18.5546875,2.44140625,122.55859375,18.06640625,0.0
227.99609375,-12.6953125,-24.4140625,9.27734375,109.86328125,4.39453125,0.0
228.0,29.78515625,-22.94921875,7.32421875,114.74609375,-7.8125,0.0
228.00390625,25.390625,-21.484375,-3.41796875,79.1015625,-46.38671875,0.0
228.0078125,25.390625,-19.53125,4.39453125,91.30859375,-139.6484375,0.0
228.01171875,50.29296875,-24.4140625,36.1328125,100.09765625,-187.98828125,0.0
228.015625,64.453125,-21.484375,12.20703125,78.125,-129.39453125,0.0
228.01953125,51.7578125,-16.11328125,-9.27734375,95.21484375,-125.0,0.0
228.0234375,76.171875,-22.94921875,-0.9765625,121.09375,-204.1015625,0.0
228.02734375,23.92578125,-27.34375,-1.953125,85.44921875,-208.984375,0.0
228.03125,-5.859375,-30.2734375,-1.46484375,78.125,-66.40625,0.0
228.03515625,36.1328125,-30.76171875,-5.37109375,83.0078125,-28.3203125,0.0
228.0390625,33.69140625,-24.4140625,18.06640625,78.125,-79.1015625,0.0
228.04296875,31.73828125,-23.92578125,24.90234375,56.15234375,-19.53125,0.0
228.046875,44.921875,-22.4609375,-3.90625,41.50390625,70.80078125,0.0
228.05078125,75.68359375,-22.4609375,-3.90625,76.66015625,77.1484375,0.0
228.0546875,73.2421875,-23.92578125,1.46484375,99.12109375,-2.44140625,0.0
228.05859375,34.1796875,-23.92578125,-0.48828125,56.15234375,11.71875,0.0
228.0625,25.390625,-21.97265625,-10.7421875,32.71484375,76.66015625,0.0
228.06640625,13.18359375,-21.97265625,-11.71875,40.52734375,111.328125,0.0
228.0703125,25.390625,-21.484375,8.30078125,47.36328125,26.85546875,0.0
228.07421875,82.03125,-18.5546875,-0.9765625,62.01171875,-100.09765625,0.0
228.078125,80.078125,-17.08984375,-19.53125,46.38671875,-71.77734375,0.0
228.08203125,33.203125,-18.06640625,-8.7890625,33.203125,-10.7421875,0.0
228.0859375,26.85546875,-20.99609375,18.5546875,29.296875,-31.25,0.0
228.08984375,38.0859375,-21.484375,0.48828125,41.9921875,-48.33984375,0.0
228.09375,77.63671875,-19.04296875,-19.04296875,65.4296875,-10.25390625,0.0
228.09765625,73.2421875,-18.5546875,-20.01953125,46.38671875,-29.78515625,0.0
228.1015625,23.4375,-22.4609375,-22.94921875,22.94921875,-8.30078125,0.0
228.10546875,16.11328125,-27.34375,-22.94921875,47.36328125,67.87109375,0.0
228.109375,27.83203125,-24.90234375,-25.390625,47.8515625,66.89453125,0.0
228.11328125,22.4609375,-25.87890625,-15.13671875,16.6015625,-29.78515625,0.0
228.1171875,-12.20703125,-28.3203125,-7.8125,39.55078125,-29.296875,0.0
228.12109375,-9.765625,-26.85546875,-20.01953125,37.109375,-20.99609375,0.0
228.125,-4.8828125,-22.94921875,-32.71484375,-16.11328125,-94.7265625,0.0
228.12890625,-8.30078125,-21.484375,-4.39453125,-27.34375,-101.5625,0.0
228.1328125,6.34765625,-28.3203125,29.78515625,-0.48828125,-67.3828125,0.0
228.13671875,31.73828125,-30.2734375,-10.25390625,18.06640625,6.34765625,0.0
228.140625,31.73828125,-31.73828125,-30.2734375,27.34375,3.90625,0.0
228.14453125,3.41796875,-29.78515625,-20.5078125,8.30078125,-28.3203125,0.0
228.1484375,-29.78515625,-25.390625,-28.80859375,-21.97265625,-68.84765625,0.0
228.15234375,-40.0390625,-25.87890625,-30.2734375,-28.80859375,-128.41796875,0.0
228.15625,-17.08984375,-23.92578125,-25.390625,-9.27734375,-77.1484375,0.0
228.16015625,14.6484375,-20.5078125,-28.80859375,-7.8125,-44.43359375,0.0
228.1640625,5.859375,-20.99609375,-22.94921875,-11.71875,-51.26953125,0.0
228.16796875,-6.34765625,-25.87890625,-17.578125,4.39453125,-48.33984375,0.0
228.171875,-10.7421875,-30.2734375,-19.53125,20.01953125,-37.59765625,0.0
228.17578125,5.859375,-34.66796875,-13.18359375,-5.37109375,-35.15625,0.0
228.1796875,53.7109375,-33.203125,-13.18359375,-8.7890625,6.8359375,0.0
228.18359375,9.27734375,-33.203125,-17.08984375,16.6015625,51.7578125,0.0
228.1875,-24.4140625,-35.15625,-14.6484375,-13.18359375,63.4765625,0.0
228.19140625,-12.20703125,-33.203125,-17.578125,-28.80859375,3.41796875,0.0
228.1953125,2.9296875,-34.1796875,-17.08984375,-25.390625,-67.3828125,0.0
228.19921875,0.9765625,-32.71484375,-16.11328125,-20.01953125,-79.58984375,0.0
228.203125,-25.87890625,-32.2265625,-20.5078125,-37.59765625,-112.3046875,0.0
228.20703125,-23.92578125,-33.69140625,-21.484375,-51.26953125,-69.3359375,0.0
228.2109375,-36.1328125,-36.1328125,-20.99609375,-38.0859375,-10.25390625,0.0
228.21484375,-25.390625,-33.203125,-20.99609375,-23.92578125,-86.42578125,0.0
228.21875,-21.484375,-32.71484375,-6.34765625,-43.9453125,-7.8125,0.0
228.22265625,-26.85546875,-40.0390625,-0.48828125,-40.0390625,86.9140625,0.0
228.2265625,9.765625,-42.48046875,-12.20703125,-20.01953125,73.73046875,0.0
228.23046875,-6.8359375,-40.0390625,-12.6953125,-50.29296875,-0.9765625,0.0
228.234375,-69.82421875,-41.50390625,-11.23046875,-57.6171875,-45.41015625,0.0
228.23828125,-59.08203125,-39.55078125,-18.5546875,-59.08203125,54.19921875,0.0
228.2421875,-54.19921875,-35.64453125,-22.4609375,-64.94140625,72.75390625,0.0
228.24609375,-46.38671875,-41.015625,-22.94921875,-78.125,-33.203125,0.0
228.25,-31.73828125,-45.41015625,-25.390625,-76.171875,-129.8828125,0.0
228.25390625,-24.4140625,-41.50390625,-26.3671875,-52.24609375,-68.359375,0.0
228.2578125,-33.69140625,-37.59765625,-23.4375,-67.87109375,-9.765625,0.0
228.26171875,-39.0625,-39.0625,-24.4140625,-57.6171875,-55.6640625,0.0
228.265625,-67.3828125,-42.96875,-20.01953125,-42.48046875,-93.26171875,0.0
228.26953125,-70.80078125,-38.57421875,-23.92578125,-70.80078125,-96.6796875,0.0
228.2734375,-45.8984375,-40.52734375,-29.296875,-64.94140625,-72.265625,0.0
228.27734375,-29.296875,-42.48046875,-24.90234375,-69.3359375,-81.0546875,0.0
228.28125,-56.640625,-38.57421875,-22.4609375,-75.68359375,-62.5,0.0
228.28515625,-67.87109375,-40.52734375,-22.94921875,-53.22265625,-29.296875,0.0
228.2890625,-36.1328125,-39.55078125,-26.85546875,-45.8984375,-63.4765625,0.0
228.29296875,-36.62109375,-32.71484375,-21.97265625,-58.59375,12.6953125,0.0
228.296875,-33.69140625,-30.76171875,-6.8359375,-56.640625,-36.62109375,0.0
228.30078125,-20.01953125,-35.15625,-22.94921875,-54.19921875,-179.6875,0.0
228.3046875,-59.08203125,-35.64453125,-39.55078125,-64.94140625,-163.0859375,0.0
228.30859375,-65.4296875,-30.76171875,-21.484375,-53.7109375,-196.77734375,0.0
228.3125,-34.1796875,-23.4375,-4.8828125,-30.76171875,-304.6875,0.0
228.31640625,-30.2734375,-23.4375,-27.83203125,-40.0390625,-234.86328125,0.0
228.3203125,-40.0390625,-32.71484375,-34.1796875,-52.734375,-97.16796875,0.0
228.32421875,-28.80859375,-33.203125,-31.73828125,-52.734375,-19.04296875,0.0
228.328125,-38.57421875,-31.73828125,-34.66796875,-55.6640625,-119.140625,0.0
228.33203125,-38.0859375,-34.1796875,-32.2265625,-55.17578125,-214.84375,0.0
228.3359375,-24.4140625,-32.71484375,-33.69140625,-40.0390625,-184.5703125,0.0
228.33984375,-34.1796875,-34.1796875,-43.9453125,-33.69140625,-173.828125,0.0
228.34375,-39.55078125,-34.66796875,-32.71484375,-47.36328125,-149.90234375,0.0
228.34765625,-41.9921875,-33.203125,-26.3671875,-44.921875,-102.05078125,0.0
228.3515625,-37.109375,-33.69140625,-28.3203125,-35.64453125,-118.65234375,0.0
228.35546875,-16.6015625,-30.76171875,-2.9296875,-37.109375,-82.03125,0.0
228.359375,-30.2734375,-30.2734375,-12.6953125,-50.29296875,-45.41015625,0.0
228.36328125,-45.41015625,-33.203125,-34.66796875,-63.4765625,3.90625,0.0
228.3671875,-24.4140625,-32.71484375,-31.73828125,-55.6640625,108.88671875,0.0
228.37109375,-19.53125,-31.73828125,-29.78515625,-33.203125,92.28515625,0.0
228.375,-25.390625,-33.69140625,-26.3671875,-21.97265625,81.54296875,0.0
228.37890625,-33.69140625,-33.203125,-30.76171875,-34.1796875,90.8203125,0.0
228.3828125,-56.15234375,-37.109375,-32.71484375,-48.33984375,21.97265625,0.0
228.38671875,-62.98828125,-45.8984375,-27.34375,-51.7578125,6.34765625,0.0
228.390625,-49.31640625,-40.0390625,-32.71484375,-57.6171875,85.9375,0.0
228.39453125,-23.4375,-31.25,-35.15625,-62.5,28.3203125,0.0
228.3984375,-33.69140625,-30.2734375,-27.83203125,-50.78125,-8.30078125,0.0
228.40234375,-49.8046875,-29.296875,-26.85546875,-34.1796875,72.265625,0.0
228.40625,-59.08203125,-28.80859375,-32.2265625,-54.19921875,75.1953125,0.0
228.41015625,-52.24609375,-28.80859375,-26.85546875,-58.59375,-30.2734375,0.0
228.4140625,-45.41015625,-28.3203125,-23.92578125,-44.43359375,-77.63671875,0.0
228.41796875,-50.29296875,-31.73828125,-27.83203125,-55.6640625,-59.5703125,0.0
228.421875,-62.01171875,-36.62109375,-31.25,-68.359375,7.32421875,0.0
228.42578125,-77.1484375,-38.0859375,-32.71484375,-62.98828125,74.21875,0.0
228.4296875,-66.89453125,-42.48046875,-37.59765625,-59.08203125,9.765625,0.0
228.43359375,-37.59765625,-43.9453125,-38.57421875,-74.70703125,-31.73828125,0.0
228.4375,-50.29296875,-37.109375,-38.0859375,-84.9609375,-27.83203125,0.0
228.44140625,-77.1484375,-33.69140625,-43.9453125,-77.1484375,7.32421875,0.0
228.4453125,-74.21875,-42.48046875,-46.875,-71.77734375,32.71484375,0.0
228.44921875,-87.40234375,-44.921875,-40.0390625,-75.68359375,28.80859375,0.0
228.453125,-74.70703125,-36.1328125,-39.0625,-84.47265625,51.26953125,0.0
228.45703125,-45.8984375,-35.15625,-47.36328125,-84.9609375,-37.109375,0.0
228.4609375,-45.8984375,-35.64453125,-87.890625,-76.171875,-53.7109375,0.0
228.46484375,-63.4765625,-29.78515625,-77.63671875,-84.47265625,-34.1796875,0.0
228.46875,-64.453125,-26.85546875,-43.45703125,-89.35546875,-71.2890625,0.0
228.47265625,-44.43359375,-28.3203125,-47.8515625,-79.1015625,-71.77734375,0.0
228.4765625,-30.2734375,-28.3203125,-46.38671875,-78.125,15.13671875,0.0
228.48046875,-45.41015625,-29.296875,-35.64453125,-84.47265625,65.4296875,0.0
228.484375,-67.3828125,-28.80859375,-38.0859375,-81.54296875,13.18359375,0.0
228.48828125,-52.24609375,-27.34375,-28.3203125,-77.63671875,26.85546875,0.0
228.4921875,-38.0859375,-27.34375,-19.53125,-86.42578125,12.6953125,0.0
228.49609375,-20.99609375,-26.85546875,-27.83203125,-85.9375,-81.54296875,0.0
228.5,-29.296875,-28.3203125,-33.203125,-97.65625,-62.01171875,0.0
228.50390625,-49.31640625,-32.2265625,-29.78515625,-112.79296875,4.39453125,0.0
228.5078125,-40.0390625,-29.296875,-19.04296875,-108.88671875,-3.90625,0.0
228.51171875,-15.625,-27.83203125,-32.2265625,-104.00390625,15.625,0.0
228.515625,-20.01953125,-29.296875,-37.59765625,-83.984375,39.0625,0.0
228.51953125,-57.6171875,-30.2734375,-28.80859375,-83.984375,-23.92578125,0.0
228.5234375,-92.7734375,-33.69140625,-34.1796875,-100.5859375,-72.265625,0.0
228.52734375,-74.21875,-33.203125,-33.69140625,-105.95703125,-122.0703125,0.0
228.53125,-52.734375,-26.85546875,-31.25,-101.5625,-111.328125,0.0
228.53515625,-53.7109375,-30.2734375,-34.66796875,-108.88671875,-27.83203125,0.0
228.5390625,-63.4765625,-35.64453125,-37.59765625,-109.375,11.23046875,0.0
228.54296875,-71.77734375,-30.76171875,-40.0390625,-95.21484375,-1.953125,0.0
228.546875,-93.26171875,-31.25,-37.59765625,-113.28125,-1.46484375,0.0
228.55078125,-71.2890625,-33.69140625,-16.6015625,-127.9296875,22.94921875,0.0
228.5546875,-20.5078125,-35.64453125,-25.87890625,-113.28125,74.70703125,0.0
228.55859375,-75.68359375,-33.69140625,-41.015625,-110.83984375,78.125,0.0
228.5625,-90.8203125,-31.73828125,-36.62109375,-121.09375,-5.37109375,0.0
228.56640625,-86.9140625,-37.59765625,-34.1796875,-125.0,-30.76171875,0.0
228.5703125,-73.73046875,-38.0859375,-33.203125,-108.3984375,-24.90234375,0.0
228.57421875,-40.0390625,-35.15625,-35.64453125,-84.47265625,-12.6953125,0.0
228.578125,-40.0390625,-32.2265625,-35.64453125,-87.890625,-64.94140625,0.0
228.58203125,-69.82421875,-33.203125,-28.3203125,-103.02734375,-83.0078125,0.0
228.5859375,-84.47265625,-33.203125,-35.64453125,-104.98046875,-51.7578125,0.0
228.58984375,-61.5234375,-27.83203125,-38.0859375,-91.796875,-36.62109375,0.0
228.59375,-18.5546875,-30.2734375,-28.80859375,-82.03125,-27.34375,0.0
228.59765625,-41.50390625,-33.203125,-24.4140625,-89.84375,-209.47265625,0.0
228.6015625,-76.66015625,-28.80859375,-33.69140625,-99.609375,-273.4375,0.0
228.60546875,-78.61328125,-26.85546875,-37.59765625,-94.23828125,-140.13671875,0.0
228.609375,-56.15234375,-30.2734375,-40.0390625,-79.58984375,-71.77734375,0.0
228.61328125,-17.08984375,-28.3203125,-35.15625,-66.40625,-52.734375,0.0
228.6171875,-25.390625,-25.87890625,-33.203125,-74.70703125,-25.87890625,0.0
228.62109375,-56.15234375,-32.71484375,-34.66796875,-96.19140625,-29.296875,0.0
228.625,-63.4765625,-34.66796875,-20.5078125,-102.05078125,-43.45703125,0.0
228.62890625,-52.24609375,-27.83203125,-26.85546875,-85.9375,-8.30078125,0.0
228.6328125,-38.57421875,-25.87890625,-34.66796875,-70.80078125,-48.33984375,0.0
228.63671875,-40.52734375,-25.87890625,-31.73828125,-73.73046875,-66.40625,0.0
228.640625,-58.59375,-27.83203125,-17.578125,-76.66015625,0.9765625,0.0
228.64453125,-54.6875,-27.83203125,-29.296875,-87.890625,0.0,0.0
228.6484375,-30.76171875,-22.4609375,-41.015625,-76.171875,2.9296875,0.0
228.65234375,-41.9921875,-21.484375,-38.57421875,-76.171875,-16.11328125,0.0
228.65625,-45.41015625,-29.78515625,-43.45703125,-86.42578125,-52.24609375,0.0
228.66015625,-36.1328125,-32.2265625,-38.57421875,-76.171875,-2.44140625,0.0
228.6640625,-53.7109375,-28.80859375,-30.2734375,-67.87109375,46.38671875,0.0
228.66796875,-58.10546875,-30.76171875,-34.1796875,-87.40234375,6.34765625,0.0
228.671875,-62.01171875,-32.2265625,-36.62109375,-101.07421875,10.7421875,0.0
228.67578125,-62.5,-27.83203125,-32.2265625,-92.7734375,-8.30078125,0.0
228.6796875,-64.94140625,-26.85546875,-29.296875,-100.5859375,-55.17578125,0.0
228.68359375,-77.63671875,-25.390625,-40.0390625,-101.5625,41.9921875,0.0
228.6875,-62.98828125,-28.3203125,-47.8515625,-101.5625,43.9453125,0.0
228.69140625,-35.64453125,-25.390625,-31.73828125,-93.26171875,-53.7109375,0.0
228.6953125,-43.9453125,-22.94921875,-28.3203125,-78.61328125,5.859375,0.0
228.69921875,-45.41015625,-32.2265625,-38.57421875,-85.44921875,59.5703125,0.0
228.703125,-47.8515625,-35.15625,-39.0625,-92.7734375,16.11328125,0.0
228.70703125,-68.84765625,-35.64453125,-34.1796875,-92.28515625,50.78125,0.0
228.7109375,-32.71484375,-32.2265625,-38.0859375,-93.75,27.34375,0.0
228.71484375,0.0,-23.92578125,-38.57421875,-79.1015625,-38.0859375,0.0
228.71875,-29.296875,-27.83203125,-30.76171875,-70.80078125,40.52734375,0.0
228.72265625,-50.29296875,-33.69140625,-28.80859375,-73.73046875,31.25,0.0
228.7265625,-44.43359375,-30.2734375,-29.78515625,-77.1484375,-42.48046875,0.0
228.73046875,-40.52734375,-30.2734375,-21.97265625,-84.9609375,-110.83984375,0.0
228.734375,-27.34375,-34.66796875,-23.92578125,-81.0546875,-96.19140625,0.0
228.73828125,-28.80859375,-39.55078125,-33.203125,-83.984375,-5.859375,0.0
228.7421875,-44.921875,-41.50390625,-33.69140625,-88.37890625,5.37109375,0.0
228.74609375,-55.17578125,-42.48046875,-28.80859375,-80.56640625,-36.1328125,0.0
228.75,-45.41015625,-39.55078125,-30.76171875,-65.4296875,-84.9609375,0.0
228.75390625,-24.90234375,-36.1328125,-32.2265625,-67.87109375,-128.41796875,0.0
228.7578125,-44.921875,-36.1328125,-37.109375,-80.078125,-55.6640625,0.0
228.76171875,-81.0546875,-39.0625,-40.0390625,-78.125,-33.203125,0.0
228.765625,-63.4765625,-45.8984375,-42.96875,-87.40234375,-33.69140625,0.0
228.76953125,-48.33984375,-50.78125,-53.22265625,-83.49609375,-29.78515625,0.0
228.7734375,-59.08203125,-46.875,-42.48046875,-67.87109375,-102.5390625,0.0
228.77734375,-50.78125,-44.43359375,-36.62109375,-69.3359375,-66.40625,0.0
228.78125,-64.453125,-44.921875,-44.921875,-80.56640625,-25.390625,0.0
228.78515625,-81.0546875,-40.0390625,-38.57421875,-82.51953125,10.25390625,0.0
228.7890625,-59.08203125,-39.55078125,-36.1328125,-85.44921875,-73.73046875,0.0
228.79296875,-40.52734375,-37.109375,-39.0625,-91.30859375,-179.19921875,0.0
228.796875,-24.90234375,-29.296875,-33.69140625,-91.30859375,-107.91015625,0.0
228.80078125,-48.828125,-31.73828125,-31.25,-94.7265625,-63.96484375,0.0
228.8046875,-77.63671875,-32.2265625,-36.1328125,-106.4453125,44.921875,0.0
228.80859375,-70.3125,-34.1796875,-37.59765625,-104.00390625,83.49609375,0.0
228.8125,-20.5078125,-34.66796875,-35.64453125,-86.9140625,49.31640625,0.0
228.81640625,-30.2734375,-31.73828125,-33.69140625,-83.984375,-1.46484375,0.0
228.8203125,-68.84765625,-28.80859375,-30.2734375,-76.66015625,-160.64453125,0.0
228.82421875,-61.5234375,-22.4609375,-33.69140625,-77.63671875,-207.51953125,0.0
228.828125,-64.453125,-23.4375,-30.76171875,-77.63671875,-118.65234375,0.0
228.83203125,-61.03515625,-23.92578125,-25.87890625,-74.21875,-67.3828125,0.0
228.8359375,-46.38671875,-33.203125,-27.83203125,-73.2421875,-58.59375,0.0
228.83984375,-49.8046875,-40.52734375,-30.2734375,-60.05859375,30.76171875,0.0
228.84375,-61.03515625,-35.64453125,-31.73828125,-70.3125,75.68359375,0.0
228.84765625,-74.70703125,-33.69140625,-26.85546875,-72.265625,45.8984375,0.0
228.8515625,-54.19921875,-35.64453125,-24.4140625,-61.5234375,34.66796875,0.0
228.85546875,-38.0859375,-34.66796875,-32.2265625,-64.94140625,-41.015625,0.0
228.859375,-57.6171875,-33.203125,-32.2265625,-61.5234375,-71.2890625,0.0
228.86328125,-62.5,-33.69140625,-32.2265625,-47.36328125,-100.5859375,0.0
228.8671875,-49.31640625,-35.15625,-32.2265625,-47.36328125,-195.3125,0.0
228.87109375,-40.52734375,-33.69140625,-30.76171875,-59.5703125,-119.140625,0.0
228.875,-37.59765625,-33.69140625,-39.0625,-69.82421875,2.9296875,0.0
228.87890625,-44.43359375,-39.55078125,-30.2734375,-74.70703125,42.48046875,0.0
228.8828125,-65.91796875,-40.52734375,-14.16015625,-73.73046875,-28.3203125,0.0
228.88671875,-68.84765625,-39.0625,-25.87890625,-72.75390625,-96.6796875,0.0
228.890625,-49.8046875,-39.55078125,-23.4375,-66.89453125,-33.203125,0.0
228.89453125,-15.13671875,-34.66796875,-16.6015625,-70.3125,-65.91796875,0.0
228.8984375,-21.97265625,-34.1796875,-25.390625,-78.125,-39.55078125,0.0
228.90234375,-65.4296875,-41.015625,-34.66796875,-59.5703125,7.32421875,0.0
228.90625,-73.73046875,-43.45703125,-34.66796875,-41.9921875,-59.08203125,0.0
228.91015625,-44.43359375,-38.0859375,-27.83203125,-52.24609375,-98.6328125,0.0
228.9140625,-25.390625,-34.1796875,-22.94921875,-62.5,-58.59375,0.0
228.91796875,-31.73828125,-31.73828125,-34.1796875,-65.91796875,-22.4609375,0.0
228.921875,-58.59375,-30.76171875,-46.38671875,-70.3125,-16.6015625,0.0
228.92578125,-69.82421875,-35.15625,-28.3203125,-72.265625,0.48828125,0.0
228.9296875,-44.43359375,-34.66796875,-18.5546875,-62.5,17.08984375,0.0
228.93359375,-29.296875,-34.66796875,-18.06640625,-52.24609375,32.71484375,0.0
228.9375,-30.76171875,-33.69140625,-20.99609375,-50.29296875,106.4453125,0.0
228.94140625,-44.921875,-32.2265625,-21.97265625,-56.640625,78.61328125,0.0
228.9453125,-64.453125,-39.55078125,-19.04296875,-72.265625,30.2734375,0.0
228.94921875,-63.96484375,-42.48046875,-28.80859375,-74.70703125,2.9296875,0.0
228.953125,-48.828125,-35.15625,-30.76171875,-62.01171875,-71.77734375,0.0
228.95703125,-41.015625,-36.1328125,-20.5078125,-62.98828125,-53.22265625,0.0
228.9609375,-54.6875,-40.0390625,-30.76171875,-78.61328125,-51.26953125,0.0
228.96484375,-77.1484375,-38.57421875,-46.38671875,-81.0546875,-25.390625,0.0
228.96875,-69.3359375,-39.0625,-36.1328125,-74.21875,112.3046875,0.0
228.97265625,-35.64453125,-29.78515625,-23.4375,-66.89453125,80.078125,0.0
228.9765625,-28.80859375,-20.99609375,-19.04296875,-64.94140625,-5.859375,0.0
228.98046875,-46.875,-26.3671875,-28.80859375,-76.66015625,2.44140625,0.0
228.984375,-77.1484375,-33.203125,-33.69140625,-81.0546875,16.6015625,0.0
228.98828125,-98.6328125,-38.0859375,-32.71484375,-87.890625,-16.6015625,0.0
228.9921875,-79.58984375,-40.0390625,-38.57421875,-96.19140625,-57.12890625,0.0
228.99609375,-50.78125,-38.0859375,-26.85546875,-83.0078125,-62.98828125,0.0
229.0,-39.55078125,-36.62109375,-14.6484375,-78.61328125,34.1796875,0.0
229.00390625,-81.0546875,-41.015625,-20.99609375,-81.0546875,34.1796875,0.0
229.0078125,-113.76953125,-40.0390625,-25.87890625,-77.1484375,-44.921875,0.0
229.01171875,-71.77734375,-41.50390625,-26.3671875,-75.1953125,-7.32421875,0.0
229.015625,-43.45703125,-42.96875,-29.296875,-58.59375,-53.7109375,0.0
229.01953125,-64.94140625,-42.48046875,-29.296875,-49.31640625,-46.875,0.0
229.0234375,-77.1484375,-50.78125,-35.15625,-66.89453125,11.71875,0.0
229.02734375,-80.56640625,-48.33984375,-38.57421875,-66.89453125,-47.36328125,0.0
229.03125,-60.546875,-35.15625,-25.390625,-59.08203125,-61.5234375,0.0
229.03515625,-27.83203125,-27.34375,-17.578125,-61.03515625,-10.25390625,0.0
229.0390625,-38.57421875,-22.4609375,-18.06640625,-56.15234375,-6.8359375,0.0
229.04296875,-61.5234375,-29.78515625,-14.6484375,-52.24609375,-32.71484375,0.0
229.046875,-70.3125,-38.0859375,-15.625,-57.12890625,-18.06640625,0.0
229.05078125,-45.41015625,-30.76171875,-22.94921875,-57.6171875,-43.45703125,0.0
229.0546875,-6.8359375,-24.4140625,-29.296875,-51.26953125,-67.3828125,0.0
229.05859375,0.9765625,-30.76171875,-29.296875,-60.05859375,-17.08984375,0.0
229.0625,-41.015625,-34.1796875,-7.32421875,-64.94140625,-16.11328125,0.0
229.06640625,-58.10546875,-36.62109375,-21.97265625,-67.87109375,-91.30859375,0.0
229.0703125,-34.66796875,-31.73828125,-38.0859375,-62.5,-96.19140625,0.0
229.07421875,-16.11328125,-19.04296875,-31.73828125,-38.57421875,-105.95703125,0.0
229.078125,-22.4609375,-27.34375,-34.1796875,-29.296875,-71.77734375,0.0
229.08203125,-59.5703125,-40.52734375,-40.52734375,-31.73828125,3.90625,0.0
229.0859375,-68.359375,-35.15625,-32.71484375,-40.52734375,39.55078125,0.0
229.08984375,-36.1328125,-33.203125,-29.296875,-50.78125,53.7109375,0.0
229.09375,-17.578125,-30.2734375,-30.2734375,-46.875,28.3203125,0.0
229.09765625,-19.04296875,-26.3671875,-27.83203125,-47.36328125,8.30078125,0.0
229.1015625,-25.87890625,-27.83203125,-19.04296875,-48.828125,95.21484375,0.0
229.10546875,-38.57421875,-29.78515625,-19.04296875,-41.50390625,117.1875,0.0
229.109375,-40.52734375,-37.109375,-41.015625,-38.0859375,-54.19921875,0.0
229.11328125,-31.73828125,-40.0390625,-33.69140625,-34.1796875,-117.67578125,0.0
229.1171875,-29.296875,-32.2265625,-23.92578125,-37.109375,-64.94140625,0.0
229.12109375,-44.43359375,-35.15625,-31.73828125,-41.9921875,47.8515625,0.0
229.125,-56.15234375,-40.52734375,-36.1328125,-38.57421875,88.8671875,0.0
229.12890625,-53.7109375,-42.48046875,-32.71484375,-35.15625,-64.453125,0.0
229.1328125,-16.6015625,-43.9453125,-21.97265625,-39.55078125,-104.00390625,0.0
229.13671875,-13.671875,-43.45703125,-10.25390625,-47.8515625,17.08984375,0.0
229.140625,-42.96875,-40.52734375,-19.53125,-41.50390625,7.8125,0.0
229.14453125,-54.19921875,-32.2265625,-28.80859375,-46.875,-83.49609375,0.0
229.1484375,-49.8046875,-26.85546875,-33.203125,-57.12890625,-89.84375,0.0
229.15234375,-37.109375,-22.94921875,-32.71484375,-50.78125,-63.4765625,0.0
229.15625,-30.2734375,-24.90234375,-31.25,-47.8515625,-85.44921875,0.0
229.16015625,-42.48046875,-27.34375,-29.296875,-52.24609375,-30.76171875,0.0
229.1640625,-47.8515625,-20.99609375,-29.78515625,-54.19921875,-21.97265625,0.0
229.16796875,-37.59765625,-26.3671875,-39.0625,-50.78125,-73.2421875,0.0
229.171875,-12.6953125,-29.78515625,-39.0625,-39.0625,-30.76171875,0.0
229.17578125,-6.34765625,-20.01953125,-35.64453125,-29.296875,-19.04296875,0.0
229.1796875,-50.78125,-20.01953125,-34.66796875,-55.6640625,-80.56640625,0.0
229.18359375,-71.2890625,-28.3203125,-38.57421875,-62.98828125,-87.40234375,0.0
229.1875,-58.10546875,-31.73828125,-39.0625,-34.1796875,-95.703125,0.0
229.19140625,-25.390625,-27.83203125,-36.1328125,-13.18359375,-120.60546875,0.0
229.1953125,-3.90625,-23.4375,-31.25,-6.8359375,-65.4296875,0.0
229.19921875,0.48828125,-23.92578125,-37.109375,0.0,-30.76171875,0.0
229.203125,-12.6953125,-29.78515625,-47.36328125,-10.7421875,-39.55078125,0.0
229.20703125,-44.921875,-35.64453125,-41.9921875,-27.83203125,20.99609375,0.0
229.2109375,-13.18359375,-35.15625,-18.5546875,-23.4375,50.78125,0.0
229.21484375,16.11328125,-28.3203125,-28.80859375,-9.27734375,-5.37109375,0.0
229.21875,-14.16015625,-31.25,-38.0859375,-4.39453125,-12.6953125,0.0
229.22265625,-36.62109375,-30.76171875,-41.50390625,-21.484375,-27.83203125,0.0
229.2265625,-28.3203125,-26.3671875,-47.36328125,-31.73828125,-28.3203125,0.0
229.23046875,-1.953125,-25.87890625,-42.96875,-34.66796875,-19.53125,0.0
229.234375,7.32421875,-26.3671875,-43.9453125,-35.64453125,-27.83203125,0.0
229.23828125,1.46484375,-27.83203125,-41.9921875,-27.34375,-47.8515625,0.0
229.2421875,-23.92578125,-28.80859375,-34.66796875,-29.296875,-100.5859375,0.0
229.24609375,-23.4375,-27.83203125,-40.0390625,-38.57421875,-187.5,0.0
229.25,-10.25390625,-28.3203125,-46.38671875,-33.203125,-120.1171875,0.0
229.25390625,-16.11328125,-28.80859375,-37.59765625,-25.87890625,-69.3359375,0.0
229.2578125,-16.6015625,-28.80859375,-35.15625,-26.3671875,-115.72265625,0.0
229.26171875,-23.92578125,-31.73828125,-41.50390625,-36.1328125,-60.05859375,0.0
229.265625,-62.98828125,-33.69140625,-40.0390625,-43.9453125,70.80078125,0.0
229.26953125,-51.26953125,-32.2265625,-36.62109375,-40.0390625,59.08203125,0.0
229.2734375,7.8125,-25.390625,-32.71484375,-21.97265625,25.87890625,0.0
229.27734375,9.765625,-26.3671875,-39.0625,-20.01953125,44.43359375,0.0
229.28125,-31.25,-27.83203125,-44.921875,-30.2734375,-11.71875,0.0
229.28515625,-53.7109375,-25.390625,-33.69140625,-29.296875,-30.2734375,0.0
229.2890625,-33.69140625,-25.390625,-25.87890625,-32.71484375,-81.54296875,0.0
229.29296875,0.48828125,-30.76171875,-35.64453125,-34.1796875,-135.25390625,0.0
229.296875,-15.625,-37.59765625,-34.66796875,-30.2734375,-100.09765625,0.0
229.30078125,-48.33984375,-36.62109375,13.18359375,-31.73828125,-75.68359375,0.0
229.3046875,-63.96484375,-36.1328125,1.46484375,-38.57421875,-54.6875,0.0
229.30859375,-47.8515625,-33.69140625,-34.66796875,-29.78515625,-94.23828125,0.0
229.3125,-9.27734375,-29.78515625,-33.69140625,-20.5078125,-109.375,0.0
229.31640625,13.671875,-23.4375,-35.64453125,-23.92578125,-102.5390625,0.0
229.3203125,-12.20703125,-30.2734375,-41.50390625,-28.80859375,-121.58203125,0.0
229.32421875,-31.25,-41.015625,-41.015625,-46.875,-21.484375,0.0
229.328125,-31.73828125,-38.0859375,-31.25,-50.78125,26.85546875,0.0
229.33203125,-23.92578125,-34.1796875,-25.87890625,-28.3203125,-43.45703125,0.0
229.3359375,-20.5078125,-34.66796875,-30.76171875,-25.390625,-56.640625,0.0
229.33984375,-40.0390625,-37.109375,-33.69140625,-33.69140625,59.5703125,0.0
229.34375,-52.24609375,-35.15625,-27.83203125,-38.0859375,70.80078125,0.0
229.34765625,-50.78125,-34.1796875,-15.13671875,-40.0390625,-21.484375,0.0
229.3515625,-43.9453125,-42.96875,-21.484375,-24.4140625,1.953125,0.0
229.35546875,-28.80859375,-38.0859375,-28.3203125,-20.5078125,-27.83203125,0.0
229.359375,-33.69140625,-30.2734375,-28.3203125,-41.50390625,-22.4609375,0.0
229.36328125,-61.03515625,-35.15625,-34.66796875,-48.33984375,-0.48828125,0.0
229.3671875,-64.94140625,-34.1796875,-41.50390625,-43.9453125,-54.19921875,0.0
229.37109375,-40.0390625,-31.73828125,-41.015625,-48.33984375,-117.1875,0.0
229.375,-47.36328125,-33.203125,-36.1328125,-50.78125,-96.6796875,0.0
229.37890625,-53.7109375,-34.1796875,-33.203125,-44.43359375,-34.66796875,0.0
229.3828125,-56.640625,-37.109375,-31.73828125,-50.29296875,-4.8828125,0.0
229.38671875,-84.47265625,-39.0625,-26.3671875,-54.6875,-7.32421875,0.0
229.390625,-79.1015625,-40.52734375,-4.8828125,-56.640625,-91.796875,0.0
229.39453125,-52.24609375,-37.59765625,-19.04296875,-62.98828125,-82.03125,0.0
229.3984375,-52.24609375,-36.1328125,-45.41015625,-54.6875,-33.203125,0.0
229.40234375,-80.56640625,-37.59765625,-36.1328125,-54.6875,-12.20703125,0.0
229.40625,-79.1015625,-36.62109375,-27.34375,-59.5703125,-27.34375,0.0
229.41015625,-52.734375,-36.1328125,-32.2265625,-49.8046875,-30.76171875,0.0
229.4140625,-25.87890625,-34.1796875,-35.64453125,-49.31640625,-87.40234375,0.0
229.41796875,-6.8359375,-34.66796875,-34.1796875,-51.7578125,-42.48046875,0.0
229.421875,-70.80078125,-43.45703125,-21.484375,-59.5703125,63.96484375,0.0
229.42578125,-106.4453125,-44.921875,-28.3203125,-74.21875,8.30078125,0.0
229.4296875,-55.6640625,-34.1796875,-44.43359375,-72.265625,-67.87109375,0.0
229.43359375,-27.83203125,-27.34375,-42.48046875,-59.08203125,-38.57421875,0.0
229.4375,-40.0390625,-32.71484375,-30.2734375,-56.640625,-62.5,0.0
229.44140625,-60.546875,-40.52734375,-39.55078125,-69.82421875,31.25,0.0
229.4453125,-80.078125,-40.0390625,-41.9921875,-53.7109375,116.69921875,0.0
229.44921875,-63.96484375,-30.2734375,-36.62109375,-34.1796875,57.6171875,0.0
229.453125,-29.296875,-19.53125,-29.78515625,-64.453125,0.48828125,0.0
229.45703125,-24.4140625,-18.06640625,-28.80859375,-65.91796875,-9.27734375,0.0
229.4609375,-37.109375,-26.85546875,-34.66796875,-53.22265625,25.87890625,0.0
229.46484375,-46.875,-33.203125,-27.83203125,-47.8515625,43.45703125,0.0
229.46875,-68.359375,-31.73828125,-31.73828125,-56.640625,-8.7890625,0.0
229.47265625,-54.19921875,-22.4609375,-38.0859375,-59.08203125,-96.19140625,0.0
229.4765625,-36.1328125,-20.99609375,-36.62109375,-47.36328125,-32.2265625,0.0
229.48046875,-50.29296875,-27.83203125,-20.5078125,-45.8984375,3.90625,0.0
229.484375,-67.3828125,-28.3203125,-18.5546875,-51.7578125,-29.296875,0.0
229.48828125,-63.96484375,-34.66796875,-31.25,-54.19921875,10.25390625,0.0
229.4921875,-39.55078125,-36.1328125,-28.3203125,-47.36328125,-11.23046875,0.0
229.49609375,-36.62109375,-32.71484375,-28.3203125,-64.453125,-36.62109375,0.0
229.5,-66.40625,-32.2265625,-32.71484375,-70.80078125,11.23046875,0.0
229.50390625,-80.078125,-31.25,-36.62109375,-62.01171875,-179.6875,0.0
229.5078125,-67.87109375,-34.66796875,-31.25,-63.4765625,-356.93359375,0.0
229.51171875,-39.55078125,-34.66796875,-15.625,-63.96484375,-271.97265625,0.0
229.515625,-31.73828125,-33.203125,-29.296875,-57.6171875,-187.5,0.0
229.51953125,-54.19921875,-31.73828125,-46.38671875,-48.33984375,-145.5078125,0.0
229.5234375,-56.15234375,-32.2265625,-33.69140625,-37.59765625,-103.02734375,0.0
229.52734375,-64.453125,-38.57421875,-12.20703125,-30.2734375,7.8125,0.0
229.53125,-58.59375,-38.0859375,-22.4609375,-43.45703125,99.609375,0.0
229.53515625,-19.04296875,-26.85546875,-30.76171875,-41.9921875,81.54296875,0.0
229.5390625,-43.45703125,-28.80859375,-28.80859375,-20.99609375,37.109375,0.0
229.54296875,-84.9609375,-40.52734375,-28.3203125,-53.7109375,5.859375,0.0
229.546875,-84.9609375,-36.62109375,-34.1796875,-83.984375,-4.8828125,0.0
229.55078125,-69.3359375,-33.203125,-43.9453125,-67.87109375,-74.21875,0.0
229.5546875,-54.19921875,-35.15625,-32.2265625,-60.05859375,-58.10546875,0.0
229.55859375,-72.75390625,-41.015625,-20.5078125,-65.91796875,-34.66796875,0.0
229.5625,-86.9140625,-39.0625,-20.99609375,-60.05859375,2.44140625,0.0
229.56640625,-89.35546875,-38.0859375,-20.99609375,-62.5,51.7578125,0.0
229.5703125,-75.68359375,-44.43359375,-14.16015625,-63.4765625,-30.2734375,0.0
229.57421875,-49.8046875,-39.55078125,-15.625,-49.31640625,-62.98828125,0.0
229.578125,-48.828125,-35.64453125,-22.94921875,-47.36328125,31.73828125,0.0
229.58203125,-76.171875,-41.015625,-23.92578125,-59.5703125,77.1484375,0.0
229.5859375,-91.796875,-41.50390625,-23.92578125,-62.01171875,-3.41796875,0.0
229.58984375,-66.40625,-38.57421875,-26.85546875,-48.828125,-91.796875,0.0
229.59375,-30.2734375,-38.0859375,-26.85546875,-41.50390625,-49.8046875,0.0
229.59765625,-30.76171875,-41.9921875,-33.203125,-44.43359375,3.41796875,0.0
229.6015625,-50.29296875,-43.9453125,-34.66796875,-41.015625,-6.8359375,0.0
229.60546875,-60.05859375,-43.45703125,-34.1796875,-38.0859375,-11.71875,0.0
229.609375,-59.08203125,-42.48046875,-40.0390625,-40.52734375,-26.3671875,0.0
229.61328125,-41.9921875,-38.57421875,-30.76171875,-32.2265625,-13.671875,0.0
229.6171875,-31.73828125,-47.8515625,-30.2734375,-20.99609375,-27.83203125,0.0
229.62109375,-47.36328125,-54.19921875,-33.69140625,-27.34375,-25.87890625,0.0
229.625,-77.63671875,-37.59765625,-34.66796875,-60.546875,32.71484375,0.0
229.62890625,-68.84765625,-24.90234375,-25.390625,-68.359375,5.37109375,0.0
229.6328125,-34.1796875,-19.53125,-9.765625,-46.875,-20.01953125,0.0
229.63671875,-15.625,-18.06640625,-24.4140625,-40.52734375,-22.4609375,0.0
229.640625,-28.3203125,-23.4375,-37.59765625,-24.4140625,-36.1328125,0.0
229.64453125,-66.40625,-33.203125,-43.45703125,-26.3671875,-48.33984375,0.0
229.6484375,-68.359375,-38.0859375,-38.57421875,-38.57421875,-74.70703125,0.0
229.65234375,-20.5078125,-39.0625,-28.80859375,-33.203125,-35.64453125,0.0
229.65625,-22.94921875,-32.2265625,-25.87890625,-28.3203125,-13.18359375,0.0
229.66015625,-47.8515625,-25.87890625,-27.34375,-37.109375,-15.625,0.0
229.6640625,-60.546875,-27.83203125,-27.83203125,-42.48046875,-45.41015625,0.0
229.66796875,-62.01171875,-27.83203125,-28.3203125,-32.71484375,-88.8671875,0.0
229.671875,-34.1796875,-26.85546875,-31.25,-26.85546875,-33.69140625,0.0
229.67578125,-13.671875,-32.71484375,-17.578125,-27.83203125,41.50390625,0.0
229.6796875,-20.5078125,-34.1796875,-25.87890625,-38.57421875,28.3203125,0.0
229.68359375,-60.546875,-31.25,-41.9921875,-43.45703125,24.90234375,0.0
229.6875,-78.125,-26.3671875,-40.0390625,-38.57421875,0.9765625,0.0
229.69140625,-45.41015625,-19.53125,-41.50390625,-35.64453125,-89.35546875,0.0
229.6953125,-17.08984375,-29.296875,-43.45703125,-36.62109375,-80.56640625,0.0
229.69921875,-22.94921875,-40.0390625,-44.921875,-29.296875,-16.6015625,0.0
229.703125,-54.6875,-40.52734375,-42.48046875,-28.80859375,4.8828125,0.0
229.70703125,-52.734375,-32.71484375,-40.0390625,-27.34375,0.0,0.0
229.7109375,-20.99609375,-23.92578125,-34.1796875,-20.5078125,-36.1328125,0.0
229.71484375,-9.765625,-21.484375,-30.76171875,-28.80859375,-88.37890625,0.0
229.71875,-32.2265625,-25.87890625,-29.78515625,-33.203125,-51.26953125,0.0
229.72265625,-65.4296875,-28.80859375,-26.3671875,-34.1796875,-53.7109375,0.0
229.7265625,-66.40625,-19.04296875,-35.64453125,-41.50390625,-69.82421875,0.0
229.73046875,-43.9453125,-21.484375,-35.64453125,-37.59765625,-62.01171875,0.0
229.734375,-18.5546875,-23.92578125,-28.80859375,-35.64453125,-85.9375,0.0
229.73828125,-22.94921875,-25.390625,-32.71484375,-43.45703125,-79.1015625,0.0
229.7421875,-59.08203125,-26.85546875,-36.1328125,-30.2734375,-84.47265625,0.0
229.74609375,-57.12890625,-24.4140625,-32.2265625,-28.80859375,-130.37109375,0.0
229.75,-9.765625,-32.2265625,-28.80859375,-24.4140625,-108.3984375,0.0
229.75390625,-6.8359375,-33.69140625,-35.15625,-22.4609375,-44.921875,0.0
229.7578125,-10.7421875,-18.5546875,-37.59765625,-22.94921875,-74.21875,0.0
229.76171875,-37.59765625,-13.671875,-40.52734375,-20.99609375,-20.99609375,0.0
229.765625,-70.80078125,-26.85546875,-47.8515625,-20.99609375,-78.125,0.0
229.76953125,-39.0625,-38.0859375,-43.9453125,-7.32421875,-148.92578125,0.0
229.7734375,-10.25390625,-32.2265625,-31.73828125,-10.25390625,-24.4140625,0.0
229.77734375,2.9296875,-16.6015625,-21.484375,-1.46484375,-60.05859375,0.0
229.78125,-24.4140625,-8.30078125,-23.92578125,-6.8359375,-113.76953125,0.0
229.78515625,-76.66015625,-19.53125,-32.2265625,-38.57421875,-99.12109375,0.0
229.7890625,-70.80078125,-27.34375,-30.2734375,-34.66796875,-17.08984375,0.0
229.79296875,-19.04296875,-33.203125,-17.578125,-4.8828125,77.63671875,0.0
229.796875,-6.8359375,-41.9921875,-10.25390625,19.04296875,76.171875,0.0
229.80078125,-50.78125,-38.57421875,-34.66796875,-21.97265625,-24.90234375,0.0
229.8046875,-53.7109375,-20.99609375,-54.6875,-37.59765625,-108.88671875,0.0
229.80859375,-22.94921875,0.0,-41.9921875,-5.859375,-82.51953125,0.0
229.8125,-13.671875,-14.6484375,-20.01953125,-19.04296875,-18.06640625,0.0
229.81640625,-45.8984375,-37.109375,-28.80859375,-49.8046875,28.80859375,0.0
229.8203125,-56.640625,-36.1328125,-34.66796875,-41.015625,24.90234375,0.0
229.82421875,-62.5,-27.83203125,-31.25,-28.3203125,-69.82421875,0.0
229.828125,-62.5,-27.83203125,-35.15625,-46.38671875,-114.74609375,0.0
229.83203125,-23.92578125,-29.78515625,-43.45703125,-42.48046875,39.0625,0.0
229.8359375,14.16015625,-23.4375,-37.59765625,-12.20703125,23.92578125,0.0
229.83984375,-20.01953125,-22.94921875,-19.04296875,-13.671875,-41.015625,0.0
229.84375,-62.5,-35.15625,-22.4609375,-38.57421875,-138.18359375,0.0
229.84765625,-54.19921875,-47.36328125,-27.34375,-37.59765625,-112.3046875,0.0
229.8515625,-30.76171875,-39.0625,-24.4140625,-23.4375,-14.16015625,0.0
229.85546875,-7.32421875,-34.1796875,-0.48828125,-17.578125,4.39453125,0.0
229.859375,-22.4609375,-35.15625,17.578125,-14.16015625,20.01953125,0.0
229.86328125,-62.5,-33.69140625,-4.8828125,-28.80859375,23.4375,0.0
229.8671875,-87.890625,-42.96875,-25.87890625,-58.59375,20.99609375,0.0
229.87109375,-54.6875,-50.78125,-31.73828125,-69.3359375,-77.63671875,0.0
229.875,-22.94921875,-44.921875,-27.83203125,-50.78125,-36.62109375,0.0
229.87890625,-39.55078125,-36.1328125,-15.625,-35.64453125,93.75,0.0
229.8828125,-60.546875,-39.0625,-21.484375,-59.08203125,88.37890625,0.0
229.88671875,-55.17578125,-35.64453125,-28.3203125,-60.05859375,37.59765625,0.0
229.890625,-21.97265625,-34.1796875,-19.04296875,-43.9453125,-44.921875,0.0
229.89453125,-8.7890625,-41.50390625,-18.5546875,-38.57421875,-28.3203125,0.0
229.8984375,-21.484375,-39.55078125,-14.16015625,-39.55078125,2.9296875,0.0
229.90234375,-28.3203125,-51.7578125,-10.25390625,-29.78515625,-69.3359375,0.0
229.90625,-18.5546875,-37.59765625,-19.53125,-11.23046875,-89.35546875,0.0
229.91015625,-24.90234375,-20.01953125,-18.5546875,-26.85546875,-107.91015625,0.0
229.9140625,-20.5078125,-30.2734375,-16.6015625,-52.734375,-171.38671875,0.0
229.91796875,-8.30078125,-30.2734375,-33.203125,-41.015625,-138.18359375,0.0
229.921875,-50.29296875,-34.66796875,-40.0390625,-38.57421875,-73.73046875,0.0
229.92578125,-64.94140625,-41.9921875,-19.53125,-53.22265625,12.20703125,0.0
229.9296875,-20.5078125,-30.2734375,-13.18359375,-31.73828125,-2.9296875,0.0
229.93359375,26.3671875,-28.80859375,-24.90234375,-24.90234375,-2.9296875,0.0
229.9375,9.27734375,-33.203125,-30.76171875,-36.62109375,-14.16015625,0.0
229.94140625,-34.66796875,-37.59765625,-45.41015625,-40.52734375,-13.671875,0.0
229.9453125,-54.6875,-30.2734375,-48.828125,-39.55078125,-40.0390625,0.0
229.94921875,-63.96484375,-21.484375,-19.53125,-41.9921875,-32.2265625,0.0
229.953125,-48.33984375,-32.2265625,-16.6015625,-36.1328125,27.34375,0.0
229.95703125,-47.8515625,-34.66796875,-14.6484375,-38.57421875,41.015625,0.0
229.9609375,-56.640625,-37.109375,-15.13671875,-31.73828125,74.21875,0.0
229.96484375,-61.03515625,-46.875,-37.109375,-11.23046875,54.19921875,0.0
229.96875,-49.8046875,-38.57421875,-26.3671875,-32.2265625,-47.8515625,0.0
229.97265625,-21.484375,-36.62109375,-4.8828125,-41.015625,28.80859375,0.0
229.9765625,-21.97265625,-44.43359375,2.44140625,-25.390625,58.59375,0.0
229.98046875,-35.64453125,-50.29296875,-8.7890625,-27.83203125,52.24609375,0.0
229.984375,-56.640625,-60.546875,-31.73828125,-29.78515625,38.0859375,0.0
229.98828125,-49.8046875,-49.31640625,-43.9453125,-15.13671875,-3.90625,0.0
229.9921875,0.0,-27.83203125,-22.4609375,-13.18359375,-127.44140625,0.0
229.99609375,28.80859375,-34.66796875,-18.06640625,-20.5078125,-87.890625,0.0
230.0,7.8125,-43.45703125,-34.1796875,-23.4375,22.94921875,0.0
230.00390625,-27.34375,-1.953125,-35.64453125,-30.2734375,61.03515625,0.0
230.0078125,-33.69140625,2.9296875,-43.9453125,-4.8828125,34.66796875,0.0
230.01171875,10.25390625,-31.25,-56.640625,23.92578125,-27.83203125,0.0
230.015625,38.57421875,-38.57421875,-44.43359375,-21.484375,4.8828125,0.0
230.01953125,-8.30078125,-36.62109375,-22.4609375,-54.19921875,20.01953125,0.0
230.0234375,-20.01953125,5.37109375,-8.7890625,-10.7421875,13.18359375,0.0
230.02734375,0.48828125,3.90625,-18.06640625,-6.34765625,-20.01953125,0.0
230.03125,-20.99609375,-41.50390625,-31.73828125,-48.33984375,-52.24609375,0.0
230.03515625,-7.8125,-32.71484375,-27.34375,-58.10546875,-38.57421875,0.0
230.0390625,-1.46484375,-28.80859375,-27.83203125,-50.78125,-12.20703125,0.0
230.04296875,-41.015625,-46.875,-34.1796875,-53.22265625,-15.625,0.0
230.046875,-55.17578125,-53.22265625,-28.3203125,-52.24609375,-56.15234375,0.0
230.05078125,-23.92578125,-44.921875,-26.85546875,-51.26953125,-78.125,0.0
230.0546875,9.27734375,-34.66796875,-30.76171875,-34.1796875,-37.109375,0.0
230.05859375,8.30078125,-25.87890625,-33.203125,-26.3671875,43.9453125,0.0
230.0625,-34.1796875,-29.296875,-42.96875,-45.41015625,56.15234375,0.0
230.06640625,-47.36328125,-29.78515625,-41.9921875,-58.59375,-25.87890625,0.0
230.0703125,-48.33984375,-33.69140625,-40.0390625,-61.5234375,-81.54296875,0.0
230.07421875,-49.8046875,-36.62109375,-43.45703125,-64.94140625,-35.64453125,0.0
230.078125,-44.921875,-35.15625,-38.57421875,-62.5,-103.02734375,0.0
230.08203125,-59.5703125,-41.015625,-28.3203125,-57.12890625,-128.41796875,0.0
230.0859375,-61.03515625,-32.2265625,-20.5078125,-58.10546875,-45.41015625,0.0
230.08984375,-68.359375,-25.390625,-29.78515625,-70.3125,-71.2890625,0.0
230.09375,-37.109375,-22.4609375,-35.15625,-79.1015625,-77.63671875,0.0
230.09765625,-11.71875,-18.06640625,-29.296875,-68.359375,-132.8125,0.0
230.1015625,-75.68359375,-24.4140625,-35.15625,-73.73046875,-161.1328125,0.0
230.10546875,-105.46875,-20.5078125,-42.48046875,-85.9375,-101.5625,0.0
230.109375,-75.68359375,-17.08984375,-39.0625,-93.75,-36.62109375,0.0
230.11328125,-68.84765625,-20.99609375,-34.66796875,-92.28515625,-16.11328125,0.0
230.1171875,-90.33203125,-19.53125,-34.1796875,-83.984375,-25.390625,0.0
230.12109375,-90.8203125,-19.04296875,-33.69140625,-84.9609375,-89.35546875,0.0
230.125,-96.19140625,-12.6953125,-44.921875,-95.703125,-110.83984375,0.0
230.12890625,-87.890625,-2.9296875,-36.62109375,-83.49609375,-58.10546875,0.0
230.1328125,-78.125,-1.953125,-26.3671875,-83.49609375,-48.33984375,0.0
230.13671875,-88.37890625,-1.46484375,-30.2734375,-115.234375,-26.3671875,0.0
230.140625,-101.5625,6.8359375,-26.3671875,-131.8359375,-5.859375,0.0
230.14453125,-133.30078125,-3.41796875,-30.2734375,-139.6484375,-25.87890625,0.0
230.1484375,-167.96875,-23.4375,-20.5078125,-138.671875,-13.18359375,0.0
230.15234375,-145.01953125,-29.296875,7.8125,-132.8125,-75.1953125,0.0
230.15625,-124.51171875,-12.20703125,13.671875,-147.94921875,-170.8984375,0.0
230.16015625,-182.12890625,-10.25390625,7.8125,-197.75390625,-135.7421875,0.0
230.1640625,-244.140625,-56.640625,46.38671875,-215.8203125,-72.75390625,0.0
230.16796875,-263.671875,-69.3359375,85.9375,-216.30859375,-116.2109375,0.0
230.171875,-276.3671875,-52.24609375,59.5703125,-258.30078125,-124.51171875,0.0
230.17578125,-291.50390625,-70.3125,46.38671875,-284.1796875,-100.09765625,0.0
230.1796875,-312.5,-77.63671875,103.02734375,-277.83203125,-116.2109375,0.0
230.18359375,-382.32421875,-87.40234375,123.046875,-337.890625,-19.53125,0.0
230.1875,-414.0625,-113.28125,63.4765625,-364.2578125,75.68359375,0.0
230.19140625,-359.375,-111.81640625,79.58984375,-322.265625,86.9140625,0.0
230.1953125,-354.4921875,-88.37890625,125.9765625,-319.82421875,78.125,0.0
230.19921875,-388.18359375,-102.05078125,136.71875,-329.1015625,104.00390625,0.0
230.203125,-401.3671875,-116.69921875,141.6015625,-316.40625,68.359375,0.0
230.20703125,-380.859375,-121.58203125,140.13671875,-299.31640625,-10.7421875,0.0
230.2109375,-331.0546875,-131.8359375,127.9296875,-288.57421875,-64.94140625,0.0
230.21484375,-294.43359375,-136.71875,104.98046875,-268.06640625,-55.17578125,0.0
230.21875,-295.41015625,-141.11328125,94.23828125,-253.41796875,-0.48828125,0.0
