timestam,TP9,AF7,AF8,TP10,AUX,Marker
118.00390625,-32.71484375,-32.2265625,-57.6171875,-23.4375,18.06640625,0.0
118.0078125,-4.39453125,-31.25,-10.25390625,-17.578125,-14.6484375,0.0
118.01171875,-6.34765625,-29.78515625,7.8125,-12.6953125,-45.8984375,0.0
118.015625,-42.48046875,-28.80859375,-45.41015625,-26.3671875,-9.765625,0.0
118.01953125,-41.50390625,-22.4609375,-46.38671875,-29.78515625,35.15625,0.0
118.0234375,-16.11328125,-20.99609375,-18.06640625,-25.87890625,134.27734375,0.0
118.02734375,-0.9765625,-24.90234375,-27.83203125,-20.99609375,110.3515625,0.0
118.03125,-16.11328125,-26.3671875,-49.31640625,-25.390625,66.89453125,0.0
118.03515625,-38.0859375,-29.78515625,-44.43359375,-41.015625,38.0859375,0.0
118.0390625,-50.29296875,-35.15625,-43.45703125,-49.31640625,7.32421875,0.0
118.04296875,-37.59765625,-34.1796875,-45.41015625,-41.9921875,29.78515625,0.0
118.046875,-7.8125,-31.25,-44.43359375,-35.64453125,85.44921875,0.0
118.05078125,15.13671875,-34.66796875,-34.66796875,-15.625,92.28515625,0.0
118.0546875,-13.18359375,-34.66796875,-33.69140625,-15.13671875,47.36328125,0.0
118.05859375,-69.3359375,-38.0859375,-39.55078125,-39.0625,6.34765625,0.0
118.0625,-41.9921875,-34.1796875,-50.29296875,-31.73828125,0.9765625,0.0
118.06640625,0.9765625,-30.2734375,-13.671875,-11.71875,41.015625,0.0
118.0703125,-5.37109375,-39.0625,58.59375,-17.08984375,5.37109375,0.0
118.07421875,-37.59765625,-35.15625,6.8359375,-42.48046875,-53.22265625,0.0
118.078125,-58.10546875,-31.25,-58.59375,-32.2265625,-58.10546875,0.0
118.08203125,-44.921875,-36.62109375,-9.27734375,-31.25,-73.73046875,0.0
118.0859375,-25.87890625,-35.15625,-0.48828125,-52.734375,-63.4765625,0.0
118.08984375,-18.06640625,-33.203125,-50.78125,-45.41015625,-65.91796875,0.0
118.09375,-27.34375,-26.3671875,-43.9453125,-27.83203125,-78.125,0.0
118.09765625,-49.8046875,-25.87890625,-40.52734375,-22.94921875,-36.1328125,0.0
118.1015625,-32.2265625,-32.2265625,-44.921875,-20.99609375,-52.24609375,0.0
118.10546875,-9.765625,-31.73828125,-41.9921875,-20.01953125,-34.1796875,0.0
118.109375,-14.6484375,-32.2265625,-52.24609375,-32.2265625,8.30078125,0.0
118.11328125,-32.71484375,-34.66796875,1.953125,-41.9921875,-48.828125,0.0
118.1171875,-50.78125,-35.64453125,23.92578125,-33.203125,-67.87109375,0.0
118.12109375,-44.921875,-37.109375,-41.50390625,-46.875,-21.484375,0.0
118.125,-26.3671875,-32.71484375,-43.9453125,-46.875,-9.27734375,0.0
118.12890625,-0.9765625,-31.25,-33.69140625,-17.578125,13.671875,0.0
118.1328125,-7.32421875,-34.66796875,-39.0625,-27.83203125,-12.6953125,0.0
118.13671875,-53.7109375,-35.64453125,-47.36328125,-41.015625,11.23046875,0.0
118.140625,-66.40625,-34.1796875,-41.015625,-25.87890625,-44.921875,0.0
118.14453125,-38.57421875,-37.109375,-33.69140625,-22.94921875,-77.1484375,0.0
118.1484375,-26.85546875,-38.57421875,-35.64453125,-25.87890625,-91.796875,0.0
118.15234375,-24.90234375,-38.57421875,-41.9921875,-28.3203125,-148.92578125,0.0
118.15625,-34.1796875,-43.45703125,-18.06640625,-40.0390625,-42.96875,0.0
118.16015625,-49.31640625,-46.38671875,20.01953125,-38.57421875,-41.015625,0.0
118.1640625,-27.83203125,-40.0390625,-16.11328125,-35.64453125,-58.59375,0.0
118.16796875,2.9296875,-29.78515625,-47.36328125,-39.55078125,-120.1171875,0.0
118.171875,-22.4609375,-34.1796875,2.44140625,-27.83203125,-192.87109375,0.0
118.17578125,-63.96484375,-37.59765625,39.0625,-18.5546875,-139.6484375,0.0
118.1796875,-69.82421875,-33.69140625,-25.87890625,-27.34375,-98.6328125,0.0
118.18359375,-42.48046875,-31.73828125,-47.8515625,-35.64453125,-157.2265625,0.0
118.1875,-14.6484375,-27.34375,-37.109375,-31.73828125,-141.6015625,0.0
118.19140625,-28.3203125,-30.2734375,-40.0390625,-24.4140625,-6.8359375,0.0
118.1953125,-37.59765625,-39.0625,-43.9453125,-28.80859375,-4.39453125,0.0
118.19921875,-42.48046875,-43.45703125,-52.24609375,-19.53125,-2.44140625,0.0
118.203125,-33.203125,-41.50390625,-4.39453125,-10.7421875,33.203125,0.0
118.20703125,-14.6484375,-35.15625,9.27734375,-23.4375,17.08984375,0.0
118.2109375,-5.859375,-29.296875,-46.38671875,-23.92578125,-52.24609375,0.0
118.21484375,-32.2265625,-31.73828125,-50.78125,-41.50390625,-70.80078125,0.0
118.21875,-68.359375,-37.59765625,-47.36328125,-49.31640625,-75.68359375,0.0
118.22265625,-31.73828125,-35.15625,-40.0390625,-37.59765625,-62.01171875,0.0
118.2265625,3.90625,-35.64453125,-41.50390625,-33.203125,-26.3671875,0.0
118.23046875,-18.5546875,-40.0390625,-31.25,-41.9921875,22.4609375,0.0
118.234375,-49.8046875,-38.57421875,-9.765625,-44.921875,7.32421875,0.0
118.23828125,-59.5703125,-40.52734375,-33.203125,-45.41015625,-21.484375,0.0
118.2421875,-42.96875,-38.57421875,-50.78125,-40.52734375,-22.4609375,0.0
118.24609375,-20.99609375,-34.1796875,-24.90234375,-41.50390625,-6.34765625,0.0
118.25,-14.6484375,-38.57421875,17.08984375,-43.45703125,-30.76171875,0.0
118.25390625,-25.87890625,-40.52734375,-21.484375,-41.50390625,-14.6484375,0.0
118.2578125,-62.5,-41.9921875,-52.24609375,-44.921875,39.0625,0.0
118.26171875,-66.89453125,-38.57421875,-24.4140625,-43.9453125,-16.6015625,0.0
118.265625,-22.94921875,-35.64453125,-21.484375,-35.64453125,-14.6484375,0.0
118.26953125,-5.859375,-40.0390625,-42.48046875,-29.78515625,117.67578125,0.0
118.2734375,-26.3671875,-40.52734375,-51.26953125,-13.671875,88.8671875,0.0
118.27734375,-64.453125,-38.57421875,6.34765625,-20.99609375,-80.56640625,0.0
118.28125,-56.640625,-38.0859375,26.85546875,-38.57421875,-61.03515625,0.0
118.28515625,-24.90234375,-39.0625,-37.59765625,-38.57421875,66.40625,0.0
118.2890625,-17.578125,-35.64453125,-55.17578125,-38.0859375,86.42578125,0.0
118.29296875,-36.1328125,-40.52734375,17.08984375,-38.57421875,-29.296875,0.0
118.296875,-55.6640625,-46.875,36.62109375,-52.24609375,-111.328125,0.0
118.30078125,-48.828125,-33.203125,-49.31640625,-50.78125,-121.09375,0.0
118.3046875,-32.2265625,-31.25,-58.59375,-28.80859375,-97.65625,0.0
118.30859375,-11.23046875,-30.2734375,-52.24609375,-28.3203125,-68.84765625,0.0
118.3125,-15.625,-25.87890625,-49.31640625,-39.55078125,-44.43359375,0.0
118.31640625,-55.17578125,-31.25,-50.78125,-45.8984375,33.69140625,0.0
118.3203125,-48.828125,-33.203125,-44.43359375,-41.015625,38.0859375,0.0
118.32421875,-25.390625,-31.25,-42.48046875,-38.57421875,-18.06640625,0.0
118.328125,-22.4609375,-31.25,-39.0625,-27.34375,61.5234375,0.0
118.33203125,-19.04296875,-34.1796875,-39.55078125,-8.7890625,98.6328125,0.0
118.3359375,-35.15625,-30.76171875,-27.34375,-17.08984375,68.359375,0.0
118.33984375,-44.921875,-31.25,61.5234375,-26.3671875,82.51953125,0.0
118.34375,-26.85546875,-36.62109375,32.2265625,-29.296875,-36.62109375,0.0
118.34765625,-12.6953125,-30.76171875,-50.29296875,-14.6484375,-88.8671875,0.0
118.3515625,-27.83203125,-31.73828125,-46.38671875,-25.390625,-94.23828125,0.0
118.35546875,-43.45703125,-36.1328125,-51.7578125,-47.36328125,-103.515625,0.0
118.359375,-45.8984375,-36.1328125,-51.7578125,-28.80859375,7.8125,0.0
118.36328125,-42.96875,-34.66796875,-59.08203125,-22.94921875,21.484375,0.0
118.3671875,-25.87890625,-31.73828125,-8.7890625,-23.4375,-34.1796875,0.0
118.37109375,-15.13671875,-27.83203125,5.859375,-14.16015625,-17.578125,0.0
118.375,-38.57421875,-24.4140625,-52.734375,-31.73828125,-20.99609375,0.0
118.37890625,-49.31640625,-27.83203125,-50.29296875,-38.0859375,33.203125,0.0
118.3828125,-20.5078125,-28.3203125,-21.97265625,-24.4140625,47.8515625,0.0
118.38671875,-4.8828125,-24.4140625,-24.4140625,-20.5078125,-153.80859375,0.0
118.390625,-21.484375,-24.4140625,-44.921875,-19.53125,-149.4140625,0.0
118.39453125,-41.015625,-30.2734375,-48.33984375,-24.90234375,-45.41015625,0.0
118.3984375,-57.12890625,-35.15625,6.34765625,-41.015625,-66.40625,0.0
118.40234375,-59.5703125,-33.203125,12.20703125,-42.96875,-12.20703125,0.0
118.40625,-28.80859375,-25.390625,-45.8984375,-30.2734375,-3.41796875,0.0
118.41015625,-11.71875,-25.390625,-41.9921875,-24.4140625,-24.90234375,0.0
118.4140625,-27.34375,-31.73828125,-41.50390625,-28.80859375,-64.453125,0.0
118.41796875,-54.6875,-35.15625,-48.33984375,-41.50390625,-113.76953125,0.0
118.421875,-45.8984375,-36.62109375,-47.36328125,-48.33984375,-54.19921875,0.0
118.42578125,-18.5546875,-34.1796875,-37.59765625,-33.69140625,36.1328125,0.0
118.4296875,-20.01953125,-27.83203125,-32.2265625,-18.5546875,-8.7890625,0.0
118.43359375,-36.1328125,-22.94921875,-32.71484375,-30.2734375,-43.45703125,0.0
118.4375,-52.24609375,-28.3203125,-45.41015625,-47.8515625,-44.921875,0.0
118.44140625,-53.7109375,-31.73828125,-17.578125,-38.57421875,-56.640625,0.0
118.4453125,-31.25,-32.2265625,55.6640625,-39.0625,-32.71484375,0.0
118.44921875,-20.01953125,-28.80859375,9.765625,-37.59765625,-73.73046875,0.0
118.453125,-39.55078125,-30.76171875,-54.19921875,-21.97265625,-59.5703125,0.0
118.45703125,-51.26953125,-35.15625,-10.25390625,-26.85546875,-13.18359375,0.0
118.4609375,-47.8515625,-21.484375,-2.44140625,-47.8515625,-41.015625,0.0
118.46484375,-28.80859375,-15.13671875,-43.9453125,-37.109375,-26.85546875,0.0
118.46875,-6.34765625,-22.4609375,-43.9453125,-15.625,-20.5078125,0.0
118.47265625,-1.46484375,-23.4375,-41.015625,-13.18359375,40.0390625,0.0
118.4765625,-23.92578125,-24.4140625,-39.0625,-19.53125,-6.8359375,0.0
118.48046875,-53.7109375,-33.69140625,-37.109375,-35.64453125,-109.86328125,0.0
118.484375,-29.78515625,-39.0625,-47.36328125,-31.73828125,-37.109375,0.0
118.48828125,10.25390625,-32.71484375,17.578125,-9.765625,-24.4140625,0.0
118.4921875,-2.9296875,-34.1796875,36.1328125,-15.625,-50.29296875,0.0
118.49609375,-44.921875,-39.0625,-32.71484375,-19.04296875,-5.37109375,0.0
118.5,-37.59765625,-32.2265625,-28.80859375,-7.32421875,33.69140625,0.0
118.50390625,-3.90625,-29.78515625,-11.23046875,-15.13671875,43.45703125,0.0
118.5078125,9.27734375,-29.78515625,-22.4609375,-23.4375,88.37890625,0.0
118.51171875,3.41796875,-28.3203125,-39.0625,-9.27734375,36.62109375,0.0
118.515625,-20.01953125,-29.78515625,-36.62109375,-18.5546875,-21.97265625,0.0
118.51953125,-41.9921875,-29.78515625,-30.2734375,-21.97265625,-27.83203125,0.0
118.5234375,-36.1328125,-32.2265625,-33.69140625,-14.16015625,20.5078125,0.0
118.52734375,-15.13671875,-33.203125,-44.43359375,-8.30078125,21.484375,0.0
118.53125,-13.671875,-30.2734375,-17.08984375,-9.27734375,80.078125,0.0
118.53515625,-36.1328125,-27.34375,3.41796875,-16.6015625,76.171875,0.0
118.5390625,-52.24609375,-33.203125,-31.25,-27.34375,-39.55078125,0.0
118.54296875,-28.3203125,-34.66796875,-49.31640625,-39.55078125,-104.4921875,0.0
118.546875,-5.37109375,-28.3203125,-6.8359375,-26.85546875,-71.2890625,0.0
118.55078125,0.0,-24.4140625,41.015625,-20.01953125,-19.53125,0.0
118.5546875,-24.4140625,-25.390625,-14.16015625,-20.99609375,-39.0625,0.0
118.55859375,-38.57421875,-32.2265625,-47.8515625,-33.69140625,-34.66796875,0.0
118.5625,-33.69140625,-33.203125,-23.92578125,-34.66796875,-12.6953125,0.0
118.56640625,-7.8125,-31.73828125,-19.04296875,-14.16015625,-23.4375,0.0
118.5703125,-4.39453125,-33.203125,-39.55078125,-15.13671875,25.390625,0.0
118.57421875,-42.96875,-35.64453125,-53.7109375,-23.92578125,43.45703125,0.0
118.578125,-62.01171875,-37.59765625,8.7890625,-22.4609375,10.25390625,0.0
118.58203125,-50.29296875,-31.25,29.296875,-32.2265625,-4.8828125,0.0
118.5859375,-25.390625,-27.83203125,-43.45703125,-20.5078125,24.4140625,0.0
118.58984375,-10.25390625,-31.73828125,-45.41015625,-12.20703125,48.828125,0.0
118.59375,-26.3671875,-35.64453125,-38.0859375,-21.484375,38.57421875,0.0
118.59765625,-43.45703125,-37.59765625,-42.96875,-31.73828125,-16.6015625,0.0
118.6015625,-43.9453125,-32.71484375,-44.43359375,-34.66796875,-16.6015625,0.0
118.60546875,-24.90234375,-32.2265625,-40.0390625,-23.4375,-15.625,0.0
118.609375,2.9296875,-26.3671875,-35.64453125,-10.25390625,-42.48046875,0.0
118.61328125,-9.765625,-21.97265625,-40.0390625,-22.94921875,-62.01171875,0.0
118.6171875,-40.0390625,-29.78515625,-49.31640625,-33.203125,-177.24609375,0.0
118.62109375,-46.38671875,-33.69140625,-27.34375,-18.5546875,-191.89453125,0.0
118.625,-25.87890625,-31.25,-18.5546875,-15.13671875,-143.5546875,0.0
118.62890625,-6.34765625,-27.34375,-34.66796875,-19.53125,-133.7890625,0.0
118.6328125,-20.5078125,-28.3203125,-42.48046875,-25.87890625,-109.375,0.0
118.63671875,-49.31640625,-33.69140625,-13.671875,-41.9921875,-116.69921875,0.0
118.640625,-62.5,-37.59765625,92.7734375,-45.41015625,-84.9609375,0.0
118.64453125,-44.921875,-34.1796875,52.24609375,-34.66796875,-50.29296875,0.0
118.6484375,-13.671875,-33.203125,-47.8515625,-30.76171875,-22.4609375,0.0
118.65234375,-25.390625,-34.1796875,-42.48046875,-26.3671875,8.30078125,0.0
118.65625,-59.08203125,-31.25,-42.96875,-40.52734375,19.53125,0.0
118.66015625,-48.33984375,-30.2734375,-41.015625,-53.22265625,35.15625,0.0
118.6640625,-27.34375,-35.64453125,-59.08203125,-42.48046875,-50.78125,0.0
118.66796875,-5.37109375,-35.15625,26.85546875,-21.97265625,-61.5234375,0.0
118.671875,-16.11328125,-32.2265625,85.9375,-22.4609375,-28.80859375,0.0
118.67578125,-41.50390625,-33.203125,-24.4140625,-28.3203125,-50.78125,0.0
118.6796875,-39.0625,-33.69140625,-52.24609375,-29.78515625,-29.296875,0.0
118.68359375,-23.4375,-33.69140625,-43.9453125,-36.1328125,-55.6640625,0.0
118.6875,7.8125,-28.80859375,-51.7578125,-28.80859375,-97.65625,0.0
118.69140625,22.94921875,-27.83203125,-57.6171875,-20.99609375,-19.04296875,0.0
118.6953125,-24.4140625,-33.203125,-49.8046875,-26.85546875,3.90625,0.0
118.69921875,-77.63671875,-41.50390625,-46.38671875,-42.48046875,-64.453125,0.0
118.703125,-63.4765625,-40.52734375,-46.38671875,-32.71484375,-84.9609375,0.0
118.70703125,-22.94921875,-32.2265625,-46.875,-8.7890625,-186.03515625,0.0
118.7109375,-21.484375,-30.2734375,-30.76171875,-8.30078125,-183.59375,0.0
118.71484375,-52.24609375,-29.296875,9.27734375,-34.1796875,-164.55078125,0.0
118.71875,-53.7109375,-26.85546875,-25.390625,-34.1796875,-207.03125,0.0
118.72265625,-35.15625,-24.90234375,-66.89453125,-10.7421875,-237.79296875,0.0
118.7265625,-7.8125,-24.90234375,-26.3671875,-6.34765625,-183.10546875,0.0
118.73046875,-4.8828125,-25.87890625,-12.6953125,-12.20703125,-155.2734375,0.0
118.734375,-42.48046875,-33.203125,-51.7578125,-29.78515625,-228.515625,0.0
118.73828125,-58.10546875,-36.62109375,-59.5703125,-32.2265625,-210.44921875,0.0
118.7421875,-47.8515625,-36.62109375,-8.30078125,-20.99609375,-71.77734375,0.0
118.74609375,-15.625,-35.15625,2.44140625,-24.4140625,-33.203125,0.0
118.75,12.20703125,-23.92578125,-47.36328125,-15.13671875,1.953125,0.0
118.75390625,-28.3203125,-28.80859375,-48.828125,-15.625,153.3203125,0.0
118.7578125,-57.6171875,-31.73828125,-30.2734375,-20.5078125,145.5078125,0.0
118.76171875,-28.80859375,-24.4140625,-27.34375,-26.85546875,30.76171875,0.0
118.765625,-6.8359375,-26.3671875,-42.96875,-30.76171875,-8.30078125,0.0
118.76953125,-25.87890625,-30.2734375,-46.38671875,-22.94921875,-6.34765625,0.0
118.7734375,-33.69140625,-35.15625,-12.20703125,-23.92578125,44.921875,0.0
118.77734375,-38.0859375,-36.62109375,-13.671875,-26.85546875,77.63671875,0.0
118.78125,-40.0390625,-30.2734375,-52.734375,-27.83203125,-13.18359375,0.0
118.78515625,-21.484375,-29.78515625,-40.52734375,-28.3203125,41.9921875,0.0
118.7890625,-11.23046875,-30.2734375,-13.671875,-20.99609375,98.6328125,0.0
118.79296875,-27.34375,-31.73828125,-38.57421875,-21.484375,51.7578125,0.0
118.796875,-48.828125,-32.2265625,-55.6640625,-30.2734375,47.36328125,0.0
118.80078125,-49.8046875,-32.71484375,-44.921875,-33.203125,31.25,0.0
118.8046875,-33.203125,-30.76171875,-42.96875,-16.6015625,2.9296875,0.0
118.80859375,-6.34765625,-30.76171875,-43.45703125,-18.5546875,-17.08984375,0.0
118.8125,-36.1328125,-35.15625,-59.5703125,-38.0859375,-41.50390625,0.0
118.81640625,-62.98828125,-37.59765625,-18.06640625,-35.15625,-78.61328125,0.0
118.8203125,-53.7109375,-38.0859375,39.55078125,-34.1796875,-75.68359375,0.0
118.82421875,-36.62109375,-33.69140625,-16.6015625,-32.2265625,-95.703125,0.0
118.828125,-13.18359375,-28.3203125,-59.08203125,-21.97265625,-79.58984375,0.0
118.83203125,-21.484375,-25.87890625,-4.39453125,-16.6015625,-53.7109375,0.0
118.8359375,-37.59765625,-30.76171875,23.4375,-13.18359375,-85.9375,0.0
118.83984375,-41.9921875,-30.2734375,-39.55078125,-12.20703125,-19.04296875,0.0
118.84375,-36.1328125,-26.85546875,-49.8046875,-18.5546875,-46.875,0.0
118.84765625,-19.04296875,-29.296875,-34.1796875,-20.01953125,-73.2421875,0.0
118.8515625,-22.4609375,-31.25,-38.0859375,-25.87890625,-49.8046875,0.0
118.85546875,-33.203125,-34.1796875,-51.7578125,-38.57421875,-90.33203125,0.0
118.859375,-42.48046875,-35.15625,-49.31640625,-40.0390625,-59.08203125,0.0
118.86328125,-30.76171875,-32.71484375,-7.32421875,-28.3203125,-47.36328125,0.0
118.8671875,-8.7890625,-30.2734375,-7.8125,-24.90234375,65.91796875,0.0
118.87109375,-20.5078125,-31.25,-46.38671875,-23.92578125,24.90234375,0.0
118.875,-45.41015625,-32.2265625,-40.52734375,-21.484375,-79.58984375,0.0
118.87890625,-58.10546875,-32.71484375,-45.8984375,-29.78515625,-76.66015625,0.0
118.8828125,-37.109375,-33.203125,-49.8046875,-32.71484375,25.87890625,0.0
118.88671875,-1.953125,-24.90234375,-49.31640625,-24.90234375,75.68359375,0.0
118.890625,0.9765625,-23.92578125,-38.57421875,-24.90234375,18.06640625,0.0
118.89453125,-40.0390625,-33.69140625,-30.76171875,-26.85546875,82.51953125,0.0
118.8984375,-66.40625,-34.1796875,-40.52734375,-40.0390625,83.49609375,0.0
118.90234375,-45.8984375,-30.2734375,-43.45703125,-41.9921875,8.30078125,0.0
118.90625,-16.11328125,-27.34375,-22.94921875,-24.90234375,33.69140625,0.0
118.91015625,-3.41796875,-31.25,9.27734375,-15.625,57.12890625,0.0
118.9140625,-25.87890625,-34.1796875,-24.90234375,-31.25,86.42578125,0.0
118.91796875,-44.921875,-37.109375,-56.640625,-41.9921875,51.7578125,0.0
118.921875,-23.4375,-35.15625,-6.34765625,-30.2734375,26.3671875,0.0
118.92578125,-5.37109375,-31.73828125,10.25390625,-20.5078125,70.3125,0.0
118.9296875,-0.9765625,-31.73828125,-44.921875,-21.97265625,-6.8359375,0.0
118.93359375,-13.671875,-27.34375,-48.33984375,-25.87890625,-58.10546875,0.0
118.9375,-29.78515625,-25.87890625,-41.9921875,-40.0390625,-40.52734375,0.0
118.94140625,-36.1328125,-33.203125,-45.41015625,-50.29296875,21.97265625,0.0
118.9453125,-18.5546875,-33.203125,-42.96875,-36.62109375,-11.71875,0.0
118.94921875,-0.48828125,-29.296875,-48.33984375,-22.94921875,-124.0234375,0.0
118.953125,-34.66796875,-35.15625,-9.765625,-29.78515625,-45.41015625,0.0
118.95703125,-55.6640625,-41.50390625,16.6015625,-42.48046875,-35.15625,0.0
118.9609375,-31.73828125,-35.15625,-31.73828125,-44.921875,-165.0390625,0.0
118.96484375,-10.7421875,-31.73828125,-40.52734375,-28.80859375,-123.53515625,0.0
118.96875,-9.27734375,-31.73828125,-35.15625,-27.83203125,-71.77734375,0.0
118.97265625,-19.04296875,-36.62109375,-43.45703125,-47.8515625,-92.7734375,0.0
118.9765625,-48.828125,-40.52734375,-43.9453125,-41.9921875,-47.36328125,0.0
118.98046875,-54.6875,-34.66796875,-40.0390625,-29.296875,-38.0859375,0.0
118.984375,-27.83203125,-30.2734375,-39.0625,-29.296875,-103.515625,0.0
118.98828125,-14.16015625,-30.2734375,-38.57421875,-28.80859375,-71.2890625,0.0
118.9921875,-19.53125,-26.3671875,-45.41015625,-25.390625,-60.05859375,0.0
118.99609375,-36.62109375,-26.3671875,-29.296875,-41.9921875,-63.4765625,0.0
119.0,-43.45703125,-40.52734375,24.90234375,-44.921875,-22.94921875,0.0
119.00390625,-41.015625,-41.9921875,-4.8828125,-26.3671875,-3.90625,0.0
119.0078125,-29.78515625,-31.73828125,-55.17578125,-28.3203125,73.2421875,0.0
119.01171875,-36.62109375,-28.80859375,-26.3671875,-39.0625,77.63671875,0.0
119.015625,-60.05859375,-33.69140625,-15.13671875,-44.921875,1.953125,0.0
119.01953125,-68.359375,-38.57421875,-48.33984375,-53.7109375,-23.4375,0.0
119.0234375,-47.8515625,-36.1328125,-48.828125,-41.015625,4.8828125,0.0
119.02734375,-20.99609375,-31.73828125,-33.203125,-36.62109375,33.69140625,0.0
119.03125,-21.484375,-28.80859375,-30.2734375,-40.52734375,27.34375,0.0
119.03515625,-36.62109375,-29.296875,-31.73828125,-37.59765625,33.69140625,0.0
119.0390625,-56.640625,-29.78515625,-44.43359375,-34.66796875,68.84765625,0.0
119.04296875,-47.36328125,-32.2265625,3.41796875,-39.0625,40.0390625,0.0
119.046875,-12.20703125,-36.1328125,24.4140625,-35.15625,-11.23046875,0.0
119.05078125,-15.13671875,-37.109375,-40.0390625,-24.90234375,-8.7890625,0.0
119.0546875,-37.59765625,-37.109375,-45.41015625,-28.3203125,8.30078125,0.0
119.05859375,-43.9453125,-35.15625,-28.3203125,-35.64453125,5.859375,0.0
119.0625,-39.55078125,-27.83203125,-31.73828125,-31.25,-36.1328125,0.0
119.06640625,-27.83203125,-31.25,-46.38671875,-22.94921875,-1.953125,0.0
119.0703125,-17.578125,-36.62109375,-41.015625,-30.2734375,-25.87890625,0.0
119.07421875,-35.15625,-35.15625,-41.015625,-53.22265625,-87.890625,0.0
119.078125,-43.9453125,-33.69140625,-43.9453125,-36.1328125,-33.69140625,0.0
119.08203125,-32.71484375,-34.66796875,-42.48046875,-2.9296875,-5.37109375,0.0
119.0859375,-24.90234375,-35.15625,-20.01953125,-34.66796875,-40.52734375,0.0
119.08984375,-33.69140625,-34.66796875,30.76171875,-74.21875,-4.39453125,0.0
119.09375,-82.51953125,-42.48046875,-5.859375,-82.51953125,101.07421875,0.0
119.09765625,-106.4453125,-42.48046875,-47.8515625,-98.6328125,77.63671875,0.0
119.1015625,-107.91015625,-41.50390625,-37.59765625,-100.09765625,70.80078125,0.0
119.10546875,-100.5859375,-38.0859375,-38.57421875,-94.7265625,69.82421875,0.0
119.109375,-81.0546875,-39.0625,-47.8515625,-94.7265625,27.34375,0.0
119.11328125,-104.00390625,-45.8984375,-61.03515625,-100.5859375,-11.71875,0.0
119.1171875,-124.0234375,-48.828125,-18.5546875,-93.26171875,-89.35546875,0.0
119.12109375,-107.91015625,-48.33984375,13.671875,-74.70703125,-112.79296875,0.0
119.125,-81.54296875,-39.0625,-42.48046875,-75.1953125,-108.3984375,0.0
119.12890625,-63.4765625,-36.62109375,-60.05859375,-76.171875,-61.03515625,0.0
119.1328125,-58.10546875,-37.109375,-36.1328125,-62.5,-1.953125,0.0
119.13671875,-81.54296875,-40.0390625,-36.1328125,-71.2890625,-0.48828125,0.0
119.140625,-97.65625,-40.0390625,-54.19921875,-91.796875,-94.7265625,0.0
119.14453125,-74.21875,-34.66796875,-48.828125,-69.82421875,-79.1015625,0.0
119.1484375,-58.59375,-32.2265625,-8.7890625,-56.15234375,-16.11328125,0.0
119.15234375,-62.01171875,-32.71484375,-17.08984375,-63.4765625,-27.83203125,0.0
119.15625,-78.125,-34.66796875,-47.36328125,-50.78125,-149.4140625,0.0
119.16015625,-80.56640625,-31.25,-42.48046875,-49.8046875,-206.0546875,0.0
119.1640625,-57.12890625,-26.3671875,-44.921875,-62.5,-95.21484375,0.0
119.16796875,-29.296875,-21.97265625,-38.57421875,-48.828125,18.06640625,0.0
119.171875,-36.1328125,-28.3203125,-48.33984375,-54.19921875,-3.90625,0.0
119.17578125,-58.59375,-36.1328125,-34.66796875,-65.91796875,-87.890625,0.0
119.1796875,-61.03515625,-30.76171875,-9.27734375,-64.453125,-74.21875,0.0
119.18359375,-41.015625,-29.78515625,-39.0625,-60.546875,-70.3125,0.0
119.1875,-24.90234375,-31.73828125,-57.6171875,-48.33984375,-50.78125,0.0
119.19140625,-41.9921875,-30.2734375,-17.578125,-45.41015625,-4.39453125,0.0
119.1953125,-65.4296875,-30.2734375,34.1796875,-48.33984375,3.90625,0.0
119.19921875,-62.5,-33.69140625,-7.8125,-32.71484375,13.18359375,0.0
119.203125,-44.921875,-31.25,-51.7578125,-43.45703125,-69.82421875,0.0
119.20703125,-35.64453125,-27.34375,-15.13671875,-44.43359375,-58.10546875,0.0
119.2109375,-33.69140625,-29.78515625,-2.44140625,-41.9921875,-55.6640625,0.0
119.21484375,-58.10546875,-33.69140625,-54.19921875,-44.43359375,-165.52734375,0.0
119.21875,-72.265625,-32.71484375,-53.7109375,-44.921875,-215.8203125,0.0
119.22265625,-44.921875,-32.71484375,-44.43359375,-48.828125,-289.55078125,0.0
119.2265625,-17.578125,-32.71484375,-39.55078125,-26.3671875,-221.6796875,0.0
119.23046875,-19.04296875,-31.73828125,-37.109375,-19.53125,-119.62890625,0.0
119.234375,-39.55078125,-36.1328125,-57.6171875,-26.85546875,-66.40625,0.0
119.23828125,-69.3359375,-43.45703125,3.41796875,-40.52734375,-1.46484375,0.0
119.2421875,-49.8046875,-39.55078125,45.8984375,-47.8515625,20.99609375,0.0
119.24609375,-25.87890625,-40.52734375,-37.59765625,-29.78515625,-58.59375,0.0
119.25,-35.64453125,-41.9921875,-53.7109375,-32.71484375,-76.171875,0.0
119.25390625,-51.26953125,-39.55078125,-37.109375,-37.109375,-37.59765625,0.0
119.2578125,-65.91796875,-40.0390625,-40.0390625,-34.66796875,-94.7265625,0.0
119.26171875,-47.8515625,-32.2265625,-41.50390625,-51.7578125,-84.9609375,0.0
119.265625,-16.11328125,-23.92578125,-39.0625,-47.8515625,-5.859375,0.0
119.26953125,-16.6015625,-23.92578125,-34.66796875,-33.203125,96.6796875,0.0
119.2734375,-39.55078125,-27.34375,-40.52734375,-40.52734375,74.21875,0.0
119.27734375,-51.26953125,-22.94921875,-55.6640625,-49.8046875,-44.43359375,0.0
119.28125,-43.9453125,-27.34375,-32.2265625,-48.33984375,-76.171875,0.0
119.28515625,-25.87890625,-31.73828125,35.15625,-46.38671875,-48.33984375,0.0
119.2890625,-17.08984375,-26.85546875,6.8359375,-34.1796875,44.921875,0.0
119.29296875,-32.71484375,-29.296875,-57.12890625,-30.76171875,20.5078125,0.0
119.296875,-63.96484375,-31.25,-27.34375,-39.55078125,-75.68359375,0.0
119.30078125,-65.91796875,-30.76171875,-10.7421875,-28.80859375,-30.76171875,0.0
119.3046875,-38.57421875,-27.83203125,-46.875,-28.3203125,54.19921875,0.0
119.30859375,-23.4375,-28.3203125,-53.22265625,-35.64453125,72.265625,0.0
119.3125,-25.87890625,-32.2265625,-50.29296875,-30.2734375,9.27734375,0.0
119.31640625,-42.48046875,-36.1328125,-47.36328125,-30.2734375,-72.75390625,0.0
119.3203125,-50.29296875,-40.52734375,-45.41015625,-31.25,-184.5703125,0.0
119.32421875,-23.92578125,-32.2265625,-50.78125,-26.3671875,-119.62890625,0.0
119.328125,-4.8828125,-32.71484375,-0.48828125,-19.53125,-11.71875,0.0
119.33203125,-25.87890625,-37.59765625,12.20703125,-11.71875,-9.765625,0.0
119.3359375,-40.52734375,-31.25,-46.38671875,-14.6484375,-11.71875,0.0
119.33984375,-36.1328125,-30.2734375,-44.921875,-19.53125,-45.41015625,0.0
119.34375,-19.04296875,-30.76171875,-20.5078125,-6.8359375,-53.22265625,0.0
119.34765625,9.27734375,-23.92578125,-24.90234375,11.23046875,-20.99609375,0.0
119.3515625,3.41796875,-22.94921875,-43.45703125,3.41796875,33.203125,0.0
119.35546875,-27.83203125,-30.2734375,-43.9453125,-24.4140625,-18.5546875,0.0
119.359375,-37.109375,-29.296875,-37.109375,-17.578125,-64.94140625,0.0
119.36328125,-9.27734375,-28.80859375,-34.66796875,-9.765625,-34.1796875,0.0
119.3671875,2.44140625,-31.73828125,-46.875,-6.34765625,-37.109375,0.0
119.37109375,-2.9296875,-28.3203125,-20.5078125,-7.32421875,-30.76171875,0.0
119.375,-17.08984375,-25.87890625,43.45703125,-29.296875,-6.34765625,0.0
119.37890625,-46.38671875,-30.76171875,-4.8828125,-34.1796875,-19.04296875,0.0
119.3828125,-35.64453125,-30.76171875,-51.26953125,-26.3671875,13.671875,0.0
119.38671875,11.71875,-22.94921875,-31.25,-25.390625,79.58984375,0.0
119.390625,7.32421875,-23.4375,-36.1328125,-23.4375,67.87109375,0.0
119.39453125,-30.76171875,-29.296875,-45.8984375,-20.5078125,-6.8359375,0.0
119.3984375,-40.0390625,-32.2265625,-52.24609375,-27.83203125,-52.734375,0.0
119.40234375,-38.0859375,-34.66796875,-17.08984375,-25.87890625,-20.01953125,0.0
119.40625,-13.18359375,-32.71484375,3.90625,1.953125,-27.34375,0.0
119.41015625,-8.7890625,-28.3203125,-34.66796875,2.9296875,-39.0625,0.0
119.4140625,-34.1796875,-30.76171875,-49.31640625,-21.484375,-72.75390625,0.0
119.41796875,-45.8984375,-36.62109375,-21.97265625,-18.5546875,-58.59375,0.0
119.421875,-40.52734375,-37.109375,-10.25390625,-16.11328125,-22.4609375,0.0
119.42578125,-20.99609375,-32.2265625,-43.9453125,-21.97265625,-65.4296875,0.0
119.4296875,-4.39453125,-28.3203125,-42.48046875,-28.80859375,-80.078125,0.0
119.43359375,-24.4140625,-23.92578125,-44.921875,-30.2734375,-55.17578125,0.0
119.4375,-51.26953125,-23.4375,-43.45703125,-24.4140625,-83.49609375,0.0
119.44140625,-46.875,-26.3671875,-43.9453125,-28.80859375,-146.484375,0.0
119.4453125,-8.30078125,-25.87890625,-32.71484375,-22.4609375,-174.31640625,0.0
119.44921875,5.37109375,-26.85546875,-8.30078125,-11.71875,-96.6796875,0.0
119.453125,-10.25390625,-30.2734375,-32.2265625,-19.53125,-96.6796875,0.0
119.45703125,-30.2734375,-34.66796875,-58.59375,-39.55078125,-151.3671875,0.0
119.4609375,-46.38671875,-32.71484375,-30.2734375,-53.22265625,-203.125,0.0
119.46484375,-14.6484375,-24.90234375,2.44140625,-47.36328125,-184.5703125,0.0
119.46875,12.20703125,-21.97265625,-30.2734375,-28.80859375,-48.828125,0.0
119.47265625,-6.34765625,-24.90234375,-51.7578125,-24.4140625,20.99609375,0.0
119.4765625,-31.25,-25.87890625,-26.85546875,-43.9453125,18.06640625,0.0
119.48046875,-40.0390625,-26.3671875,-13.671875,-42.96875,33.69140625,0.0
119.484375,-30.2734375,-26.3671875,-40.52734375,-24.90234375,36.62109375,0.0
119.48828125,-19.04296875,-29.296875,-53.22265625,-23.92578125,-23.92578125,0.0
119.4921875,-41.50390625,-38.0859375,-6.34765625,-29.296875,-54.6875,0.0
119.49609375,-72.75390625,-41.9921875,7.8125,-26.85546875,-24.4140625,0.0
119.5,-72.75390625,-39.0625,-41.015625,-34.66796875,-54.19921875,0.0
119.50390625,-40.0390625,-27.34375,-55.17578125,-39.0625,-37.59765625,0.0
119.5078125,-21.484375,-22.4609375,-0.48828125,-21.97265625,-114.74609375,0.0
119.51171875,-36.1328125,-27.34375,36.1328125,-23.4375,-171.875,0.0
119.515625,-52.24609375,-28.3203125,-36.1328125,-25.390625,-94.23828125,0.0
119.51953125,-64.453125,-29.78515625,-52.734375,-28.3203125,-0.48828125,0.0
119.5234375,-51.26953125,-32.71484375,-33.69140625,-31.73828125,7.8125,0.0
119.52734375,-21.97265625,-27.83203125,-36.62109375,-25.390625,39.0625,0.0
119.53125,-24.90234375,-25.87890625,-47.8515625,-29.296875,110.3515625,0.0
119.53515625,-53.22265625,-30.2734375,-45.41015625,-28.80859375,45.41015625,0.0
119.5390625,-62.98828125,-35.15625,-41.9921875,-27.83203125,-140.625,0.0
119.54296875,-41.50390625,-37.109375,-49.8046875,-35.15625,-186.03515625,0.0
119.546875,-26.3671875,-32.71484375,-54.19921875,-34.66796875,-87.890625,0.0
119.55078125,-39.55078125,-29.78515625,-43.45703125,-28.3203125,-8.7890625,0.0
119.5546875,-55.6640625,-33.203125,-35.64453125,-26.3671875,-46.38671875,0.0
119.55859375,-68.84765625,-33.203125,-42.96875,-40.52734375,-65.4296875,0.0
119.5625,-51.7578125,-30.76171875,-45.8984375,-37.109375,-27.34375,0.0
119.56640625,-18.06640625,-28.80859375,-28.80859375,-27.34375,-54.19921875,0.0
119.5703125,1.46484375,-25.87890625,-25.390625,-27.83203125,-68.359375,0.0
119.57421875,-22.94921875,-26.85546875,-38.0859375,-31.25,-105.46875,0.0
119.578125,-51.26953125,-25.87890625,-46.875,-37.109375,-115.72265625,0.0
119.58203125,-38.0859375,-29.296875,-5.859375,-41.015625,-100.5859375,0.0
119.5859375,-20.99609375,-33.203125,99.609375,-37.59765625,-43.45703125,0.0
119.58984375,-15.13671875,-28.80859375,50.78125,-31.25,97.16796875,0.0
119.59375,-45.8984375,-27.34375,-43.9453125,-37.109375,75.68359375,0.0
119.59765625,-64.453125,-28.80859375,-41.9921875,-40.0390625,-50.29296875,0.0
119.6015625,-48.33984375,-27.34375,-41.015625,-22.94921875,-10.7421875,0.0
119.60546875,-37.109375,-31.25,-44.43359375,-20.01953125,42.48046875,0.0
119.609375,-25.87890625,-36.62109375,-59.08203125,-43.45703125,66.40625,0.0
119.61328125,-27.34375,-39.0625,-3.90625,-39.0625,-8.7890625,0.0
119.6171875,-51.26953125,-39.55078125,28.3203125,-36.1328125,-32.2265625,0.0
119.62109375,-61.5234375,-39.55078125,-33.69140625,-36.62109375,43.9453125,0.0
119.625,-37.59765625,-39.0625,-44.921875,-29.78515625,35.15625,0.0
119.62890625,-25.390625,-41.50390625,-42.48046875,-29.296875,-39.55078125,0.0
119.6328125,-41.9921875,-42.96875,-46.38671875,-34.66796875,-73.73046875,0.0
119.63671875,-58.10546875,-40.0390625,-46.875,-44.921875,-48.828125,0.0
119.640625,-67.87109375,-38.0859375,-40.52734375,-35.64453125,-54.6875,0.0
119.64453125,-51.7578125,-35.15625,-40.52734375,-31.73828125,7.32421875,0.0
119.6484375,-19.53125,-33.203125,-47.8515625,-49.31640625,25.390625,0.0
119.65234375,-33.203125,-33.203125,-55.6640625,-45.41015625,-43.9453125,0.0
119.65625,-73.2421875,-34.1796875,-31.73828125,-38.0859375,-57.6171875,0.0
119.66015625,-70.80078125,-37.59765625,9.765625,-48.828125,-162.59765625,0.0
119.6640625,-40.0390625,-34.66796875,-26.3671875,-37.59765625,-83.0078125,0.0
119.66796875,-17.578125,-29.78515625,-54.6875,-25.87890625,111.81640625,0.0
119.671875,-19.04296875,-32.2265625,-19.04296875,-33.203125,39.0625,0.0
119.67578125,-44.43359375,-33.69140625,0.9765625,-43.45703125,-90.33203125,0.0
119.6796875,-56.15234375,-34.1796875,-38.57421875,-52.734375,-109.86328125,0.0
119.68359375,-33.69140625,-31.73828125,-51.7578125,-48.828125,-101.07421875,0.0
119.6875,-7.8125,-28.80859375,-41.9921875,-30.2734375,-96.19140625,0.0
119.69140625,-8.7890625,-29.78515625,-37.59765625,-24.90234375,-66.89453125,0.0
119.6953125,-39.0625,-25.390625,-35.64453125,-29.78515625,-23.4375,0.0
119.69921875,-59.5703125,-25.390625,-47.36328125,-43.45703125,47.8515625,0.0
119.703125,-37.109375,-30.76171875,-1.953125,-44.921875,113.28125,0.0
119.70703125,-15.625,-30.76171875,14.16015625,-19.04296875,81.54296875,0.0
119.7109375,-11.71875,-21.97265625,-37.59765625,-27.34375,67.87109375,0.0
119.71484375,-18.5546875,-12.20703125,-39.0625,-33.203125,85.44921875,0.0
119.71875,-49.31640625,-17.578125,-36.1328125,-27.34375,73.2421875,0.0
119.72265625,-43.9453125,-25.390625,-34.66796875,-23.4375,49.31640625,0.0
119.7265625,-13.671875,-24.4140625,-43.45703125,-17.08984375,38.57421875,0.0
119.73046875,-10.25390625,-23.4375,-38.0859375,-27.83203125,-132.8125,0.0
119.734375,-31.25,-24.90234375,-14.6484375,-24.4140625,-193.359375,0.0
119.73828125,-61.5234375,-28.3203125,-26.3671875,-23.4375,-170.41015625,0.0
119.7421875,-52.24609375,-23.92578125,-44.43359375,-30.76171875,-197.75390625,0.0
119.74609375,-10.7421875,-24.90234375,-17.08984375,-22.4609375,-186.03515625,0.0
119.75,-24.4140625,-32.2265625,37.109375,-19.53125,-234.86328125,0.0
119.75390625,-51.7578125,-32.71484375,-12.6953125,-35.64453125,-146.484375,0.0
119.7578125,-34.66796875,-36.1328125,-61.03515625,-26.85546875,-37.109375,0.0
119.76171875,5.859375,-26.85546875,-16.11328125,0.9765625,-89.35546875,0.0
119.765625,-15.625,-20.99609375,-12.6953125,-40.0390625,-94.23828125,0.0
119.76953125,-74.21875,-29.78515625,-57.6171875,-95.703125,50.29296875,0.0
119.7734375,-93.26171875,-34.66796875,-62.98828125,-88.8671875,56.640625,0.0
119.77734375,-107.421875,-34.1796875,-53.7109375,-100.09765625,-24.90234375,0.0
119.78125,-119.140625,-24.4140625,-50.29296875,-125.9765625,9.765625,0.0
119.78515625,-104.00390625,-22.4609375,-57.12890625,-123.53515625,15.625,0.0
119.7890625,-122.0703125,-28.3203125,-69.3359375,-132.8125,9.27734375,0.0
119.79296875,-162.59765625,-28.80859375,-25.87890625,-147.94921875,-32.71484375,0.0
119.796875,-155.76171875,-28.3203125,14.6484375,-135.25390625,63.4765625,0.0
119.80078125,-138.671875,-30.76171875,-45.8984375,-128.90625,116.2109375,0.0
119.8046875,-112.3046875,-24.90234375,-61.03515625,-110.83984375,83.0078125,0.0
119.80859375,-87.40234375,-24.4140625,-41.9921875,-94.23828125,77.63671875,0.0
119.8125,-101.07421875,-30.2734375,-46.875,-99.609375,35.64453125,0.0
119.81640625,-116.2109375,-29.78515625,-54.6875,-96.6796875,-12.6953125,0.0
119.8203125,-106.93359375,-27.83203125,-49.8046875,-87.890625,-73.2421875,0.0
119.82421875,-84.47265625,-27.34375,-44.43359375,-68.84765625,-48.828125,0.0
119.828125,-61.03515625,-26.85546875,-42.48046875,-62.01171875,42.96875,0.0
119.83203125,-59.5703125,-31.25,-49.31640625,-68.84765625,74.21875,0.0
119.8359375,-81.54296875,-33.203125,-30.76171875,-73.73046875,83.0078125,0.0
119.83984375,-93.75,-39.0625,8.30078125,-78.61328125,69.82421875,0.0
119.84375,-71.2890625,-39.55078125,-22.94921875,-71.2890625,8.7890625,0.0
119.84765625,-40.52734375,-27.83203125,-56.15234375,-48.828125,-27.83203125,0.0
119.8515625,-36.1328125,-26.3671875,-28.80859375,-35.64453125,-42.96875,0.0
119.85546875,-65.91796875,-30.2734375,-20.99609375,-50.29296875,-60.546875,0.0
119.859375,-77.63671875,-28.80859375,-50.29296875,-66.40625,4.39453125,0.0
119.86328125,-56.15234375,-28.80859375,-56.640625,-55.6640625,50.29296875,0.0
119.8671875,-29.78515625,-30.2734375,-24.90234375,-41.9921875,-43.45703125,0.0
119.87109375,-31.25,-31.73828125,-13.671875,-37.109375,-28.3203125,0.0
119.875,-53.22265625,-30.76171875,-46.38671875,-39.55078125,20.5078125,0.0
119.87890625,-69.3359375,-27.34375,-50.29296875,-58.10546875,-19.04296875,0.0
119.8828125,-53.22265625,-24.90234375,-34.66796875,-59.5703125,-15.625,0.0
119.88671875,-25.87890625,-22.94921875,-37.59765625,-48.33984375,-81.0546875,0.0
119.890625,-23.92578125,-23.92578125,-53.7109375,-39.55078125,-75.1953125,0.0
119.89453125,-43.9453125,-29.296875,-57.12890625,-40.52734375,-57.12890625,0.0
119.8984375,-66.40625,-29.78515625,-20.5078125,-48.828125,-73.73046875,0.0
119.90234375,-54.6875,-27.34375,-12.20703125,-54.6875,-68.359375,0.0
119.90625,-24.90234375,-24.4140625,-50.29296875,-50.29296875,-25.390625,0.0
119.91015625,-19.04296875,-25.87890625,-53.22265625,-47.8515625,-17.578125,0.0
119.9140625,-40.0390625,-28.3203125,-54.19921875,-47.36328125,-67.87109375,0.0
119.91796875,-53.22265625,-30.2734375,-48.33984375,-49.8046875,-71.2890625,0.0
119.921875,-32.2265625,-26.85546875,-50.78125,-42.48046875,-25.87890625,0.0
119.92578125,-7.32421875,-21.484375,-50.78125,-49.31640625,43.45703125,0.0
119.9296875,-12.6953125,-23.4375,-48.828125,-50.29296875,9.27734375,0.0
119.93359375,-28.80859375,-28.3203125,-48.33984375,-38.0859375,-43.9453125,0.0
119.9375,-43.9453125,-29.78515625,-52.24609375,-47.36328125,-50.78125,0.0
119.94140625,-40.52734375,-31.73828125,-32.2265625,-48.33984375,-105.46875,0.0
119.9453125,-5.859375,-33.69140625,22.94921875,-33.203125,-197.75390625,0.0
119.94921875,-4.39453125,-32.71484375,-11.71875,-33.203125,-284.66796875,0.0
119.953125,-39.55078125,-33.69140625,-63.96484375,-36.62109375,-219.7265625,0.0
119.95703125,-59.5703125,-35.64453125,-16.6015625,-39.55078125,-47.36328125,0.0
119.9609375,-51.26953125,-32.71484375,13.18359375,-56.15234375,-37.59765625,0.0
119.96484375,-11.23046875,-29.78515625,-40.52734375,-56.15234375,-23.92578125,0.0
119.96875,-4.39453125,-30.2734375,-54.19921875,-47.8515625,6.8359375,0.0
119.97265625,-42.48046875,-29.78515625,-49.8046875,-43.45703125,-41.9921875,0.0
119.9765625,-66.40625,-28.80859375,-47.36328125,-41.50390625,-25.390625,0.0
119.98046875,-58.59375,-28.80859375,-44.921875,-50.78125,-22.4609375,0.0
119.984375,-29.296875,-27.34375,-55.17578125,-40.0390625,-101.5625,0.0
119.98828125,4.39453125,-20.99609375,-13.18359375,-6.34765625,-111.328125,0.0
119.9921875,0.9765625,-23.4375,5.37109375,-10.25390625,-146.97265625,0.0
119.99609375,-51.26953125,-34.1796875,-38.57421875,-40.52734375,-132.8125,0.0
120.0,-57.12890625,-37.59765625,-39.55078125,-41.015625,-46.38671875,0.0
120.00390625,0.9765625,-31.73828125,-28.3203125,-12.20703125,19.04296875,0.0
120.0078125,28.3203125,-33.69140625,-28.3203125,5.859375,52.24609375,0.0
120.01171875,26.85546875,-35.64453125,-33.69140625,16.6015625,40.0390625,0.0
120.015625,13.18359375,-35.64453125,-19.53125,22.4609375,-16.11328125,0.0
120.01953125,7.32421875,-38.0859375,-4.8828125,25.87890625,-56.15234375,0.0
120.0234375,33.203125,-36.62109375,-17.578125,38.0859375,-25.390625,0.0
120.02734375,58.59375,-34.1796875,-28.3203125,47.36328125,-8.30078125,0.0
120.03125,53.22265625,-31.25,-8.30078125,53.7109375,-19.53125,0.0
120.03515625,30.2734375,-34.66796875,19.53125,43.9453125,-73.73046875,0.0
120.0390625,12.20703125,-35.15625,-9.765625,19.04296875,-55.6640625,0.0
120.04296875,20.01953125,-35.15625,-36.62109375,20.01953125,36.1328125,0.0
120.046875,39.55078125,-35.64453125,-3.41796875,20.5078125,18.06640625,0.0
120.05078125,37.109375,-31.25,10.25390625,15.625,13.18359375,0.0
120.0546875,14.16015625,-30.2734375,-30.2734375,7.32421875,17.08984375,0.0
120.05859375,-0.48828125,-34.66796875,-33.203125,13.18359375,-145.99609375,0.0
120.0625,11.23046875,-39.55078125,-4.8828125,11.71875,-210.44921875,0.0
120.06640625,30.2734375,-32.71484375,-7.32421875,1.46484375,-144.04296875,0.0
120.0703125,23.4375,-24.4140625,-26.85546875,15.625,-118.65234375,0.0
120.07421875,-16.11328125,-29.78515625,-43.45703125,18.5546875,-97.16796875,0.0
120.078125,-41.015625,-34.66796875,25.390625,5.37109375,-82.51953125,0.0
120.08203125,-20.01953125,-30.2734375,65.4296875,10.25390625,-117.67578125,0.0
120.0859375,15.13671875,-22.94921875,-27.34375,16.11328125,-69.3359375,0.0
120.08984375,9.765625,-26.3671875,-43.9453125,4.8828125,-30.76171875,0.0
120.09375,-23.92578125,-32.2265625,-41.015625,-10.7421875,-57.6171875,0.0
120.09765625,-28.3203125,-28.3203125,-48.828125,-26.3671875,-86.9140625,0.0
120.1015625,-3.90625,-28.3203125,-49.31640625,-23.4375,-171.875,0.0
120.10546875,13.18359375,-32.71484375,-40.52734375,-15.13671875,-163.57421875,0.0
120.109375,12.6953125,-26.3671875,-34.1796875,-11.23046875,-1.46484375,0.0
120.11328125,-9.765625,-29.296875,-39.55078125,-16.6015625,-15.625,0.0
120.1171875,-40.52734375,-33.203125,-42.96875,-27.34375,-95.703125,0.0
120.12109375,-45.8984375,-36.1328125,-35.64453125,-23.4375,31.25,0.0
120.125,-17.08984375,-38.57421875,0.48828125,-15.13671875,77.1484375,0.0
120.12890625,6.8359375,-31.73828125,-8.7890625,-6.34765625,23.4375,0.0
120.1328125,-6.8359375,-27.34375,-44.921875,-12.6953125,44.921875,0.0
120.13671875,-34.66796875,-30.2734375,-32.2265625,-33.203125,43.9453125,0.0
120.140625,-26.85546875,-33.203125,-27.34375,-26.3671875,6.8359375,0.0
120.14453125,3.41796875,-33.203125,-42.96875,-14.16015625,-52.24609375,0.0
120.1484375,10.7421875,-33.203125,-47.36328125,-12.20703125,-59.5703125,0.0
120.15234375,-9.27734375,-34.1796875,-14.6484375,-13.671875,37.59765625,0.0
120.15625,-36.62109375,-36.1328125,-6.8359375,-24.4140625,99.609375,0.0
120.16015625,-41.015625,-32.2265625,-29.78515625,-21.97265625,52.734375,0.0
120.1640625,-22.94921875,-24.4140625,-41.50390625,-13.18359375,79.58984375,0.0
120.16796875,-13.18359375,-27.83203125,7.8125,-22.4609375,25.390625,0.0
120.171875,-22.4609375,-33.69140625,34.1796875,-28.80859375,-40.0390625,0.0
120.17578125,-45.8984375,-34.66796875,-40.0390625,-33.203125,-44.921875,0.0
120.1796875,-56.640625,-35.64453125,-50.78125,-47.36328125,-144.53125,0.0
120.18359375,-37.59765625,-32.2265625,-32.2265625,-39.55078125,-228.515625,0.0
120.1875,-9.765625,-23.92578125,-35.64453125,-22.4609375,-107.421875,0.0
120.19140625,-16.6015625,-30.2734375,-44.921875,-19.04296875,15.625,0.0
120.1953125,-57.6171875,-39.0625,-43.45703125,-35.15625,65.91796875,0.0
120.19921875,-62.5,-34.66796875,-41.50390625,-39.55078125,51.7578125,0.0
120.203125,-37.109375,-29.296875,-39.55078125,-22.94921875,16.6015625,0.0
120.20703125,-29.78515625,-28.80859375,-48.33984375,-22.4609375,25.87890625,0.0
120.2109375,-25.87890625,-31.25,-22.4609375,-24.4140625,-64.94140625,0.0
120.21484375,-25.390625,-32.2265625,51.26953125,-30.76171875,-68.359375,0.0
120.21875,-49.31640625,-34.66796875,2.9296875,-43.45703125,-34.1796875,0.0
120.22265625,-58.59375,-37.109375,-59.08203125,-32.71484375,-52.24609375,0.0
120.2265625,-27.34375,-30.2734375,-23.4375,-17.08984375,14.16015625,0.0
120.23046875,-11.23046875,-29.78515625,-14.6484375,-17.08984375,7.32421875,0.0
120.234375,-28.3203125,-33.69140625,-41.015625,-28.3203125,-21.484375,0.0
120.23828125,-55.6640625,-31.25,-51.7578125,-33.69140625,10.25390625,0.0
120.2421875,-51.7578125,-27.83203125,2.9296875,-33.69140625,-52.24609375,0.0
120.24609375,-27.83203125,-25.390625,22.4609375,-29.296875,-65.91796875,0.0
120.25,-26.3671875,-24.4140625,-39.0625,-20.5078125,51.26953125,0.0
120.25390625,-39.55078125,-29.78515625,-47.36328125,-33.69140625,2.44140625,0.0
120.2578125,-48.828125,-34.1796875,-17.08984375,-38.57421875,-13.18359375,0.0
120.26171875,-36.1328125,-32.71484375,-14.16015625,-33.69140625,3.90625,0.0
120.265625,-13.18359375,-31.73828125,-45.41015625,-35.15625,-81.0546875,0.0
120.26953125,-18.5546875,-33.203125,-47.8515625,-31.25,-57.6171875,0.0
120.2734375,-31.73828125,-34.1796875,-13.18359375,-29.78515625,26.3671875,0.0
120.27734375,-34.1796875,-34.66796875,-13.18359375,-39.55078125,-20.99609375,0.0
120.28125,-39.0625,-35.15625,-48.828125,-42.48046875,-64.453125,0.0
120.28515625,-27.34375,-34.1796875,-38.57421875,-28.3203125,-17.578125,0.0
120.2890625,-6.8359375,-36.62109375,-7.32421875,-31.25,-24.90234375,0.0
120.29296875,-28.3203125,-32.71484375,-23.92578125,-37.59765625,-79.58984375,0.0
120.296875,-69.3359375,-32.2265625,-41.015625,-30.76171875,-114.2578125,0.0
120.30078125,-53.22265625,-39.0625,-27.83203125,-18.5546875,-116.2109375,0.0
120.3046875,-8.30078125,-32.2265625,-30.76171875,-9.27734375,-60.546875,0.0
120.30859375,-16.11328125,-25.87890625,-41.015625,-24.90234375,10.7421875,0.0
120.3125,-65.91796875,-28.3203125,-52.24609375,-54.6875,18.06640625,0.0
120.31640625,-96.19140625,-28.80859375,-27.83203125,-65.4296875,-48.33984375,0.0
120.3203125,-96.6796875,-30.2734375,16.11328125,-68.84765625,-84.9609375,0.0
120.32421875,-86.42578125,-28.80859375,-23.92578125,-73.2421875,-50.78125,0.0
120.328125,-69.82421875,-28.80859375,-61.5234375,-74.21875,-42.48046875,0.0
120.33203125,-77.63671875,-30.76171875,-10.7421875,-77.63671875,-0.48828125,0.0
120.3359375,-100.5859375,-30.2734375,11.71875,-71.2890625,34.66796875,0.0
120.33984375,-93.75,-28.80859375,-51.7578125,-73.2421875,22.94921875,0.0
120.34375,-62.98828125,-25.390625,-62.98828125,-67.3828125,30.76171875,0.0
120.34765625,-37.59765625,-24.4140625,-24.90234375,-55.6640625,32.2265625,0.0
120.3515625,-47.8515625,-25.87890625,-29.78515625,-69.3359375,41.015625,0.0
120.35546875,-75.1953125,-27.34375,-62.98828125,-69.3359375,75.68359375,0.0
120.359375,-87.40234375,-34.66796875,-70.80078125,-61.03515625,86.9140625,0.0
120.36328125,-70.80078125,-34.1796875,-1.953125,-68.84765625,47.36328125,0.0
120.3671875,-39.0625,-20.99609375,22.94921875,-59.5703125,10.25390625,0.0
120.37109375,-39.0625,-20.01953125,-56.15234375,-49.31640625,89.84375,0.0
120.375,-62.98828125,-27.34375,-55.6640625,-63.4765625,121.58203125,0.0
120.37890625,-76.171875,-30.2734375,-49.8046875,-65.4296875,-21.97265625,0.0
120.3828125,-55.6640625,-26.85546875,-55.6640625,-46.875,-132.32421875,0.0
120.38671875,-30.76171875,-21.97265625,-62.5,-38.0859375,-97.16796875,0.0
120.390625,-45.41015625,-27.34375,-45.41015625,-47.36328125,20.01953125,0.0
120.39453125,-72.265625,-31.25,-17.08984375,-45.8984375,7.32421875,0.0
120.3984375,-81.54296875,-31.25,-34.66796875,-49.31640625,-93.75,0.0
120.40234375,-64.453125,-26.85546875,-56.640625,-52.24609375,-138.18359375,0.0
120.40625,-37.109375,-22.94921875,-27.83203125,-46.875,-107.91015625,0.0
120.41015625,-25.87890625,-24.4140625,40.0390625,-37.109375,-92.7734375,0.0
120.4140625,-35.15625,-26.85546875,-10.7421875,-43.9453125,-141.6015625,0.0
120.41796875,-50.78125,-28.3203125,-66.40625,-42.48046875,-152.83203125,0.0
120.421875,-46.875,-29.296875,-17.578125,-41.9921875,-79.58984375,0.0
120.42578125,-17.08984375,-21.484375,2.9296875,-40.52734375,-49.31640625,0.0
120.4296875,-12.20703125,-16.11328125,-45.8984375,-38.0859375,-66.40625,0.0
120.43359375,-38.0859375,-24.90234375,-54.19921875,-43.9453125,-41.9921875,0.0
120.4375,-67.3828125,-32.71484375,-47.8515625,-50.78125,-27.34375,0.0
120.44140625,-65.4296875,-31.73828125,-47.36328125,-52.24609375,-13.671875,0.0
120.4453125,-32.71484375,-29.296875,-49.31640625,-43.9453125,-19.04296875,0.0
120.44921875,-23.4375,-23.92578125,-55.17578125,-40.0390625,-77.1484375,0.0
120.453125,-34.1796875,-28.80859375,-7.8125,-37.109375,-100.5859375,0.0
120.45703125,-56.15234375,-41.015625,20.01953125,-50.78125,-138.671875,0.0
120.4609375,-62.5,-38.0859375,-37.109375,-56.15234375,-128.41796875,0.0
120.46484375,-34.1796875,-33.203125,-50.29296875,-41.50390625,-86.9140625,0.0
120.46875,-10.25390625,-27.34375,-41.50390625,-41.50390625,-92.28515625,0.0
120.47265625,-25.390625,-25.87890625,-45.8984375,-46.38671875,-64.453125,0.0
120.4765625,-66.89453125,-34.1796875,-50.29296875,-47.36328125,-114.74609375,0.0
120.48046875,-65.4296875,-34.66796875,-47.36328125,-43.9453125,-179.6875,0.0
120.484375,-29.78515625,-30.76171875,-43.45703125,-28.80859375,-196.2890625,0.0
120.48828125,-11.71875,-30.2734375,-41.50390625,-19.04296875,-142.08984375,0.0
120.4921875,-24.90234375,-27.34375,-45.8984375,-29.78515625,-33.203125,0.0
120.49609375,-56.640625,-32.2265625,-34.1796875,-40.0390625,-5.859375,0.0
120.5,-49.31640625,-29.296875,3.41796875,-32.71484375,-27.83203125,0.0
120.50390625,-21.97265625,-24.4140625,-16.11328125,-29.78515625,-20.5078125,0.0
120.5078125,-6.34765625,-32.2265625,-44.921875,-24.4140625,-50.29296875,0.0
120.51171875,-17.08984375,-31.73828125,-33.203125,-21.97265625,-58.10546875,0.0
120.515625,-43.9453125,-36.62109375,-38.0859375,-37.59765625,-44.43359375,0.0
120.51953125,-51.7578125,-42.48046875,-43.9453125,-42.48046875,54.6875,0.0
120.5234375,-31.73828125,-32.2265625,-48.828125,-41.50390625,24.90234375,0.0
120.52734375,-2.9296875,-24.90234375,-20.99609375,-37.109375,-36.62109375,0.0
120.53125,-2.44140625,-30.2734375,-1.953125,-29.78515625,-1.46484375,0.0
120.53515625,-34.66796875,-30.76171875,-34.1796875,-35.64453125,-18.5546875,0.0
120.5390625,-56.640625,-28.3203125,-47.8515625,-39.0625,-81.0546875,0.0
120.54296875,-35.64453125,-32.71484375,-9.27734375,-36.1328125,-140.13671875,0.0
120.546875,-18.5546875,-37.59765625,10.25390625,-35.15625,-91.796875,0.0
120.55078125,-25.87890625,-38.0859375,-40.52734375,-42.96875,-21.97265625,0.0
120.5546875,-53.7109375,-38.57421875,-47.36328125,-47.8515625,-32.2265625,0.0
120.55859375,-71.2890625,-38.57421875,-34.66796875,-40.52734375,-69.3359375,0.0
120.5625,-40.0390625,-30.76171875,-39.55078125,-33.203125,-60.546875,0.0
120.56640625,-21.484375,-32.2265625,-53.22265625,-28.3203125,33.69140625,0.0
120.5703125,-20.5078125,-33.69140625,-40.52734375,-23.92578125,41.9921875,0.0
120.57421875,-38.0859375,-32.2265625,-24.4140625,-35.15625,-6.8359375,0.0
120.578125,-61.5234375,-32.71484375,-37.59765625,-51.7578125,-40.0390625,0.0
120.58203125,-37.109375,-28.3203125,-53.7109375,-42.96875,-51.7578125,0.0
120.5859375,-12.20703125,-28.3203125,-34.1796875,-37.59765625,-27.34375,0.0
120.58984375,-7.32421875,-30.2734375,30.2734375,-31.25,-28.3203125,0.0
120.59375,-27.83203125,-32.71484375,-4.8828125,-26.85546875,1.46484375,0.0
120.59765625,-55.6640625,-32.71484375,-52.734375,-36.62109375,19.04296875,0.0
120.6015625,-43.9453125,-31.25,-41.9921875,-39.55078125,0.9765625,0.0
120.60546875,-33.69140625,-30.76171875,-42.96875,-42.48046875,51.7578125,0.0
120.609375,-30.2734375,-25.87890625,-45.41015625,-41.9921875,51.26953125,0.0
120.61328125,-25.390625,-21.97265625,-55.6640625,-30.2734375,-35.15625,0.0
120.6171875,-54.19921875,-24.4140625,-1.953125,-34.1796875,-75.1953125,0.0
120.62109375,-55.17578125,-30.76171875,38.0859375,-42.96875,-55.17578125,0.0
120.625,-18.06640625,-29.78515625,-27.34375,-33.203125,-20.5078125,0.0
120.62890625,-11.23046875,-26.85546875,-42.48046875,-17.578125,64.94140625,0.0
120.6328125,-18.06640625,-25.87890625,-12.6953125,-23.4375,30.2734375,0.0
120.63671875,-45.41015625,-25.87890625,-23.4375,-41.50390625,-65.4296875,0.0
120.640625,-52.734375,-28.3203125,-50.78125,-48.33984375,-26.85546875,0.0
120.64453125,-17.08984375,-30.2734375,-52.734375,-35.64453125,7.8125,0.0
120.6484375,0.9765625,-31.25,-19.04296875,-29.78515625,-32.2265625,0.0
120.65234375,-16.11328125,-36.1328125,-19.04296875,-37.59765625,-34.66796875,0.0
120.65625,-41.50390625,-38.0859375,-50.29296875,-36.1328125,-83.0078125,0.0
120.66015625,-48.828125,-40.0390625,-45.8984375,-40.52734375,-61.03515625,0.0
120.6640625,-25.87890625,-38.0859375,-45.41015625,-35.15625,-51.26953125,0.0
120.66796875,18.06640625,-27.83203125,-45.41015625,-8.30078125,-95.703125,0.0
120.671875,22.94921875,-31.25,-44.921875,10.25390625,-78.125,0.0
120.67578125,-38.0859375,-39.55078125,-30.2734375,-9.765625,-69.82421875,0.0
120.6796875,-84.47265625,-39.0625,-3.90625,-60.05859375,-37.109375,0.0
120.68359375,-75.1953125,-35.64453125,-26.3671875,-76.66015625,-98.14453125,0.0
120.6875,-61.03515625,-33.69140625,-57.12890625,-70.80078125,-128.41796875,0.0
120.69140625,-70.3125,-39.55078125,-18.5546875,-83.49609375,-96.6796875,0.0
120.6953125,-105.46875,-43.45703125,17.08984375,-95.703125,-114.2578125,0.0
120.69921875,-123.53515625,-41.50390625,-31.73828125,-96.19140625,-94.7265625,0.0
120.703125,-95.703125,-37.59765625,-59.5703125,-89.84375,-37.109375,0.0
120.70703125,-71.77734375,-38.0859375,-18.5546875,-82.03125,-49.8046875,0.0
120.7109375,-68.359375,-40.0390625,5.859375,-75.1953125,-34.66796875,0.0
120.71484375,-92.28515625,-35.64453125,-46.38671875,-90.8203125,-48.33984375,0.0
120.71875,-105.95703125,-38.57421875,-57.6171875,-95.703125,-111.81640625,0.0
120.72265625,-69.3359375,-38.0859375,-45.8984375,-73.73046875,-41.9921875,0.0
120.7265625,-36.1328125,-35.15625,-48.33984375,-66.89453125,66.40625,0.0
120.73046875,-40.0390625,-32.71484375,-47.8515625,-61.5234375,83.49609375,0.0
120.734375,-67.3828125,-31.73828125,-62.01171875,-52.734375,49.31640625,0.0
120.73828125,-83.49609375,-38.57421875,-6.34765625,-53.7109375,25.390625,0.0
120.7421875,-47.8515625,-33.69140625,40.52734375,-55.17578125,77.63671875,0.0
120.74609375,-25.390625,-30.2734375,-35.15625,-57.6171875,92.28515625,0.0
120.75,-32.2265625,-29.296875,-58.59375,-50.78125,35.64453125,0.0
120.75390625,-52.24609375,-29.296875,-46.875,-47.8515625,-104.4921875,0.0
120.7578125,-76.171875,-32.2265625,-50.78125,-60.546875,-142.578125,0.0
120.76171875,-53.7109375,-33.69140625,-55.6640625,-61.5234375,-106.4453125,0.0
120.765625,-10.25390625,-28.3203125,-50.78125,-50.29296875,-85.9375,0.0
120.76953125,-5.37109375,-22.4609375,-46.38671875,-34.1796875,-15.625,0.0
120.7734375,-35.15625,-26.3671875,-48.33984375,-43.45703125,23.92578125,0.0
120.77734375,-57.6171875,-25.87890625,-52.734375,-54.6875,39.55078125,0.0
120.78125,-49.31640625,-28.80859375,-41.9921875,-49.8046875,27.83203125,0.0
120.78515625,-24.4140625,-32.2265625,19.53125,-38.0859375,-14.6484375,0.0
120.7890625,-6.8359375,-36.62109375,8.30078125,-30.2734375,-4.8828125,0.0
120.79296875,-22.4609375,-41.015625,-59.08203125,-42.96875,-20.01953125,0.0
120.796875,-44.43359375,-30.76171875,-19.53125,-41.50390625,-33.69140625,0.0
120.80078125,-49.31640625,-25.390625,3.90625,-41.015625,-39.0625,0.0
120.8046875,-30.76171875,-25.390625,-43.45703125,-31.25,0.0,0.0
120.80859375,-7.8125,-28.3203125,-51.26953125,-28.3203125,-1.46484375,0.0
120.8125,-7.32421875,-27.34375,-46.38671875,-34.1796875,-61.03515625,0.0
120.81640625,-40.0390625,-30.2734375,-50.29296875,-44.921875,-124.0234375,0.0
120.8203125,-49.8046875,-31.25,-47.8515625,-51.26953125,-160.15625,0.0
120.82421875,-20.99609375,-35.15625,-53.22265625,-36.1328125,-106.4453125,0.0
120.828125,3.90625,-37.59765625,-20.5078125,-25.390625,-62.01171875,0.0
120.83203125,-5.859375,-33.69140625,1.46484375,-23.4375,-69.3359375,0.0
120.8359375,-38.57421875,-42.48046875,-47.8515625,-36.1328125,-85.9375,0.0
120.83984375,-39.55078125,-39.0625,-56.640625,-45.41015625,-187.01171875,0.0
120.84375,-1.46484375,-24.90234375,-32.2265625,-28.3203125,-146.484375,0.0
120.84765625,23.4375,-27.34375,-41.50390625,-20.5078125,-30.2734375,0.0
120.8515625,-15.625,-36.1328125,-65.4296875,-41.50390625,-28.80859375,0.0
120.85546875,-37.109375,-7.32421875,-54.6875,-44.43359375,-14.16015625,0.0
120.859375,-41.9921875,-12.6953125,-42.96875,-33.69140625,-7.8125,0.0
120.86328125,-42.96875,-41.50390625,-42.96875,-23.4375,2.9296875,0.0
120.8671875,-6.34765625,-21.97265625,-47.36328125,-7.32421875,28.3203125,0.0
120.87109375,-7.32421875,-8.7890625,-33.203125,-20.5078125,14.6484375,0.0
120.875,-57.6171875,-10.7421875,7.8125,-41.50390625,-49.31640625,0.0
120.87890625,-69.3359375,-15.625,-30.2734375,-44.921875,1.46484375,0.0
120.8828125,-42.96875,-17.08984375,-65.91796875,-47.36328125,101.07421875,0.0
120.88671875,-18.5546875,-17.08984375,-41.50390625,-42.48046875,85.44921875,0.0
120.890625,-12.20703125,-7.32421875,-35.64453125,-28.80859375,13.18359375,0.0
120.89453125,-34.1796875,5.859375,-51.26953125,-37.109375,9.765625,0.0
120.8984375,-46.875,16.6015625,-55.6640625,-41.015625,-50.78125,0.0
120.90234375,-40.52734375,17.578125,-24.90234375,-40.0390625,-135.25390625,0.0
120.90625,-18.5546875,26.85546875,-8.30078125,-42.48046875,-91.796875,0.0
120.91015625,0.9765625,40.0390625,-36.62109375,-37.109375,-89.84375,0.0
120.9140625,-17.578125,30.76171875,-52.734375,-42.48046875,-83.49609375,0.0
120.91796875,-55.17578125,41.50390625,-17.08984375,-52.24609375,-66.89453125,0.0
120.921875,-42.96875,61.03515625,2.44140625,-47.8515625,-129.39453125,0.0
120.92578125,4.8828125,77.63671875,-35.15625,-28.3203125,-114.74609375,0.0
120.9296875,13.18359375,95.703125,-39.55078125,-20.99609375,32.2265625,0.0
120.93359375,-7.32421875,107.421875,-37.109375,-22.4609375,10.25390625,0.0
120.9375,-10.7421875,104.4921875,-38.0859375,-32.2265625,-110.3515625,0.0
120.94140625,-20.01953125,110.3515625,-44.921875,-28.80859375,-12.6953125,0.0
120.9453125,-18.5546875,123.046875,-38.0859375,-25.87890625,51.7578125,0.0
120.94921875,-4.8828125,137.6953125,-25.390625,-28.80859375,-14.16015625,0.0
120.953125,-27.34375,151.3671875,-37.59765625,-21.97265625,-21.484375,0.0
120.95703125,-49.31640625,161.1328125,-53.22265625,-31.25,-71.2890625,0.0
120.9609375,-36.1328125,178.7109375,-34.1796875,-29.296875,-100.09765625,0.0
120.96484375,-12.6953125,198.2421875,45.41015625,-16.6015625,-2.44140625,0.0
120.96875,0.48828125,201.171875,19.53125,-21.97265625,22.94921875,0.0
120.97265625,-11.71875,196.77734375,-48.33984375,-30.2734375,39.0625,0.0
120.9765625,-35.15625,207.51953125,-41.015625,-37.59765625,96.19140625,0.0
120.98046875,-40.52734375,208.49609375,-44.921875,-49.8046875,67.3828125,0.0
120.984375,-12.20703125,193.359375,-48.828125,-27.34375,-42.48046875,0.0
120.98828125,2.44140625,196.2890625,-52.24609375,-5.37109375,-58.59375,0.0
120.9921875,3.90625,193.84765625,-12.20703125,-17.08984375,11.71875,0.0
120.99609375,-24.4140625,173.33984375,1.46484375,-24.4140625,47.8515625,0.0
121.0,-31.25,155.76171875,-42.96875,-35.15625,8.30078125,0.0
121.00390625,17.08984375,134.765625,-56.15234375,-27.83203125,-91.30859375,0.0
121.0078125,3.41796875,126.953125,-2.9296875,-23.4375,-135.25390625,0.0
121.01171875,-25.87890625,116.69921875,36.62109375,-27.34375,-68.359375,0.0
121.015625,-43.45703125,98.14453125,-32.71484375,-20.01953125,-94.7265625,0.0
121.01953125,-60.546875,88.37890625,-52.734375,-23.4375,-95.703125,0.0
121.0234375,-45.41015625,83.49609375,-38.0859375,-23.4375,-43.9453125,0.0
121.02734375,-19.53125,76.171875,-40.0390625,-28.3203125,-20.99609375,0.0
121.03125,-4.39453125,62.98828125,-46.38671875,-28.3203125,1.953125,0.0
121.03515625,-30.76171875,50.78125,-41.9921875,-36.1328125,9.27734375,0.0
121.0390625,-57.6171875,39.55078125,-40.0390625,-45.8984375,-37.59765625,0.0
121.04296875,-32.71484375,29.296875,-38.57421875,-25.87890625,-69.3359375,0.0
121.046875,8.7890625,27.83203125,-37.109375,-31.25,14.16015625,0.0
121.05078125,-7.8125,22.94921875,-30.2734375,-19.53125,77.63671875,0.0
121.0546875,-32.2265625,12.6953125,-28.3203125,-14.6484375,-36.62109375,0.0
121.05859375,-28.3203125,3.41796875,-33.69140625,-37.109375,-114.2578125,0.0
121.0625,-37.109375,-0.48828125,-48.33984375,-41.50390625,-7.8125,0.0
121.06640625,-23.4375,-6.34765625,-30.76171875,-41.015625,41.015625,0.0
121.0703125,-19.04296875,-21.484375,56.640625,-34.66796875,-45.8984375,0.0
121.07421875,13.18359375,-29.296875,20.99609375,-33.203125,-65.91796875,0.0
121.078125,-42.48046875,-33.203125,-55.17578125,-28.3203125,-35.64453125,0.0
121.08203125,-93.26171875,-42.96875,-31.25,-31.25,-46.38671875,0.0
121.0859375,-16.11328125,-43.9453125,-20.99609375,-14.6484375,-49.31640625,0.0
121.08984375,11.23046875,-39.55078125,-46.38671875,-6.8359375,-46.38671875,0.0
121.09375,-21.97265625,-47.8515625,-53.22265625,-32.2265625,-88.8671875,0.0
121.09765625,-36.1328125,-55.6640625,-51.7578125,-48.33984375,-151.85546875,0.0
121.1015625,-44.921875,-59.5703125,-48.828125,-46.875,-157.71484375,0.0
121.10546875,-32.71484375,-59.5703125,-48.33984375,-25.390625,-188.4765625,0.0
121.109375,-2.44140625,-54.6875,-68.359375,-32.71484375,-188.4765625,0.0
121.11328125,-18.06640625,-54.19921875,12.6953125,-39.55078125,-116.2109375,0.0
121.1171875,-30.76171875,-56.640625,62.98828125,-34.66796875,-63.4765625,0.0
121.12109375,-29.78515625,-62.98828125,-37.109375,-27.34375,-41.50390625,0.0
121.125,-14.6484375,-64.453125,-63.96484375,-20.01953125,-25.390625,0.0
121.12890625,11.23046875,-58.59375,-51.7578125,-13.18359375,27.34375,0.0
121.1328125,-25.390625,-61.03515625,-53.22265625,-15.625,155.2734375,0.0
121.13671875,-72.265625,-72.75390625,-57.6171875,-31.25,113.76953125,0.0
121.140625,-51.7578125,-73.73046875,-51.7578125,-32.71484375,3.41796875,0.0
121.14453125,-1.953125,-69.3359375,-48.828125,-24.4140625,33.203125,0.0
121.1484375,-6.8359375,-69.82421875,-47.36328125,-27.34375,38.57421875,0.0
121.15234375,-39.0625,-72.265625,-55.6640625,-24.4140625,-26.85546875,0.0
121.15625,-60.546875,-76.171875,-34.1796875,-32.2265625,-118.1640625,0.0
121.16015625,-63.96484375,-82.03125,13.18359375,-46.875,-143.5546875,0.0
121.1640625,-31.25,-81.54296875,-15.13671875,-25.87890625,-83.49609375,0.0
121.16796875,-16.11328125,-73.2421875,-53.7109375,-10.25390625,0.0,0.0
121.171875,-32.2265625,-71.77734375,-26.3671875,-28.3203125,-7.8125,0.0
121.17578125,-47.36328125,-78.61328125,0.9765625,-42.96875,-10.7421875,0.0
121.1796875,-56.640625,-75.68359375,-43.9453125,-42.96875,-53.22265625,0.0
121.18359375,-36.62109375,-68.84765625,-59.5703125,-38.57421875,-85.9375,0.0
121.1875,-1.953125,-68.359375,-52.24609375,-33.69140625,-12.20703125,0.0
121.19140625,-13.671875,-69.3359375,-54.6875,-31.73828125,11.23046875,0.0
121.1953125,-35.64453125,-67.87109375,-53.22265625,-33.203125,17.08984375,0.0
121.19921875,-22.4609375,-63.96484375,-60.546875,-41.9921875,-53.22265625,0.0
121.203125,-3.90625,-63.96484375,-15.625,-43.45703125,-89.84375,0.0
121.20703125,-16.11328125,-64.94140625,6.8359375,-30.76171875,-20.01953125,0.0
121.2109375,-33.203125,-70.80078125,-45.8984375,-20.01953125,20.99609375,0.0
121.21484375,-46.38671875,-70.3125,-53.7109375,-34.1796875,23.92578125,0.0
121.21875,-39.0625,-61.03515625,-43.45703125,-25.87890625,-89.35546875,0.0
121.22265625,-14.16015625,-60.546875,-33.69140625,-5.37109375,-133.30078125,0.0
121.2265625,-23.92578125,-62.01171875,-34.66796875,-30.2734375,-118.65234375,0.0
121.23046875,-41.015625,-65.4296875,-32.2265625,-53.22265625,-104.00390625,0.0
121.234375,-62.5,-71.77734375,-13.671875,-60.546875,1.953125,0.0
121.23828125,-75.68359375,-73.73046875,-19.04296875,-62.5,24.4140625,0.0
121.2421875,-49.8046875,-73.2421875,-34.66796875,-55.17578125,8.30078125,0.0
121.24609375,-22.94921875,-69.3359375,-19.53125,-53.7109375,18.06640625,0.0
121.25,-17.08984375,-74.21875,29.78515625,-35.15625,40.0390625,0.0
121.25390625,-54.19921875,-72.265625,1.46484375,-40.0390625,85.9375,0.0
121.2578125,-69.82421875,-64.453125,-37.109375,-59.08203125,16.6015625,0.0
121.26171875,-45.41015625,-66.40625,-19.53125,-45.8984375,-50.78125,0.0
121.265625,-5.859375,-64.453125,-16.11328125,-33.203125,-40.52734375,0.0
121.26953125,1.46484375,-63.4765625,-33.203125,-34.1796875,-80.56640625,0.0
121.2734375,-46.875,-63.96484375,-40.0390625,-42.48046875,-104.4921875,0.0
121.27734375,-65.4296875,-65.91796875,-20.5078125,-50.78125,-76.66015625,0.0
121.28125,-57.12890625,-61.5234375,-22.4609375,-47.36328125,-77.63671875,0.0
121.28515625,-32.71484375,-57.12890625,-42.48046875,-41.015625,-123.53515625,0.0
121.2890625,-28.80859375,-61.03515625,-48.828125,-32.2265625,-1.953125,0.0
121.29296875,-47.8515625,-61.5234375,4.8828125,-32.71484375,45.8984375,0.0
121.296875,-52.734375,-58.59375,45.8984375,-31.73828125,-98.14453125,0.0
121.30078125,-61.5234375,-59.5703125,-21.97265625,-31.25,-119.140625,0.0
121.3046875,-34.1796875,-59.5703125,-42.96875,-35.15625,-73.73046875,0.0
121.30859375,-20.01953125,-59.5703125,-38.57421875,-31.25,0.0,0.0
121.3125,-60.05859375,-59.08203125,-41.50390625,-41.015625,-14.16015625,0.0
121.31640625,-74.70703125,-54.6875,-42.96875,-53.22265625,-136.71875,0.0
121.3203125,-57.12890625,-59.5703125,-43.9453125,-52.24609375,-116.2109375,0.0
121.32421875,-42.48046875,-63.96484375,-35.64453125,-22.4609375,-61.03515625,0.0
121.328125,-41.015625,-61.03515625,-34.1796875,-14.16015625,-83.984375,0.0
121.33203125,-43.9453125,-58.59375,-45.8984375,-44.921875,-47.36328125,0.0
121.3359375,-63.4765625,-57.6171875,-27.34375,-52.734375,-7.32421875,0.0
121.33984375,-77.63671875,-55.17578125,1.953125,-46.38671875,84.47265625,0.0
121.34375,-54.19921875,-51.26953125,-29.78515625,-48.828125,40.0390625,0.0
121.34765625,-20.99609375,-49.31640625,-57.12890625,-49.31640625,-7.32421875,0.0
121.3515625,-25.87890625,-52.734375,-34.1796875,-45.41015625,-3.41796875,0.0
121.35546875,-45.41015625,-50.29296875,1.953125,-50.78125,-57.6171875,0.0
121.359375,-49.8046875,-46.38671875,-21.97265625,-35.64453125,-79.58984375,0.0
121.36328125,-35.64453125,-47.8515625,-49.31640625,-29.78515625,5.37109375,0.0
121.3671875,-35.64453125,-47.8515625,-24.4140625,-37.59765625,-4.39453125,0.0
121.37109375,-44.921875,-47.36328125,-24.4140625,-26.3671875,5.37109375,0.0
121.375,-57.12890625,-51.26953125,-50.29296875,-45.8984375,14.6484375,0.0
121.37890625,-51.7578125,-53.22265625,-47.36328125,-58.59375,5.37109375,0.0
121.3828125,-28.3203125,-44.43359375,-33.203125,-50.78125,35.15625,0.0
121.38671875,-33.203125,-48.33984375,-26.3671875,-38.57421875,61.03515625,0.0
121.390625,-34.66796875,-51.7578125,-39.55078125,-22.94921875,23.92578125,0.0
121.39453125,-51.26953125,-45.41015625,-51.26953125,-44.43359375,-33.69140625,0.0
121.3984375,-68.84765625,-44.921875,-6.8359375,-54.19921875,-8.30078125,0.0
121.40234375,-39.0625,-50.29296875,3.41796875,-46.875,-11.23046875,0.0
121.40625,-13.671875,-46.38671875,-43.45703125,-36.62109375,-1.953125,0.0
121.41015625,-24.90234375,-42.96875,-37.59765625,-16.6015625,-60.546875,0.0
121.4140625,-34.1796875,-50.29296875,-29.78515625,-1.953125,-70.80078125,0.0
121.41796875,-38.57421875,-49.8046875,-35.15625,-13.671875,6.8359375,0.0
121.421875,-47.8515625,-38.0859375,-49.31640625,-54.19921875,-33.203125,0.0
121.42578125,-11.23046875,-36.1328125,-52.734375,-50.29296875,-77.63671875,0.0
121.4296875,5.37109375,-38.0859375,-47.36328125,-19.53125,4.8828125,0.0
121.43359375,-8.7890625,-35.15625,-41.9921875,-10.25390625,66.89453125,0.0
121.4375,-18.06640625,-32.71484375,-55.17578125,-11.71875,4.39453125,0.0
121.44140625,-22.94921875,-34.1796875,-29.78515625,-9.27734375,-80.56640625,0.0
121.4453125,-14.16015625,-37.59765625,25.390625,0.9765625,-72.75390625,0.0
121.44921875,8.30078125,-34.1796875,-15.13671875,17.578125,-76.66015625,0.0
121.453125,0.0,-34.66796875,-51.26953125,8.30078125,-94.23828125,0.0
121.45703125,-21.484375,-42.48046875,-38.57421875,-18.06640625,-175.29296875,0.0
121.4609375,-17.08984375,-41.015625,-35.15625,-5.859375,-128.41796875,0.0
121.46484375,-11.71875,-38.0859375,-44.921875,-4.39453125,33.69140625,0.0
121.46875,-5.859375,-35.15625,-53.22265625,-11.23046875,65.91796875,0.0
121.47265625,-6.8359375,-36.62109375,-21.97265625,-18.06640625,-17.08984375,0.0
121.4765625,-9.765625,-39.0625,-5.859375,-20.99609375,-80.56640625,0.0
121.48046875,-16.11328125,-36.1328125,-39.55078125,-21.97265625,-95.703125,0.0
121.484375,-9.765625,-38.57421875,-46.38671875,-12.6953125,0.48828125,0.0
121.48828125,-7.8125,-40.0390625,-2.44140625,-4.39453125,23.4375,0.0
121.4921875,-25.87890625,-35.64453125,5.859375,-17.578125,5.859375,0.0
121.49609375,-40.0390625,-37.59765625,-47.8515625,-25.87890625,-10.7421875,0.0
121.5,-35.64453125,-38.0859375,-45.8984375,-34.66796875,-99.12109375,0.0
121.50390625,-20.01953125,-32.71484375,-25.87890625,-28.80859375,-50.78125,0.0
121.5078125,-8.30078125,-33.69140625,-34.1796875,-23.92578125,43.9453125,0.0
121.51171875,-14.6484375,-32.2265625,-46.875,-16.6015625,12.6953125,0.0
121.515625,-38.57421875,-32.71484375,-36.62109375,-14.16015625,-36.62109375,0.0
121.51953125,-43.9453125,-39.0625,-31.25,-25.390625,-34.66796875,0.0
121.5234375,-9.27734375,-37.59765625,-41.015625,-30.2734375,-66.40625,0.0
121.52734375,21.484375,-35.15625,-45.41015625,-29.78515625,-50.29296875,0.0
121.53125,-17.578125,-41.015625,-40.0390625,-30.2734375,5.859375,0.0
121.53515625,-52.734375,-45.8984375,-18.06640625,-30.76171875,14.16015625,0.0
121.5390625,-45.41015625,-41.015625,-34.1796875,-40.52734375,-9.765625,0.0
121.54296875,-25.87890625,-35.15625,-48.33984375,-42.96875,-81.0546875,0.0
121.546875,0.9765625,-28.80859375,-17.578125,-26.85546875,-85.44921875,0.0
121.55078125,-8.30078125,-29.78515625,-5.859375,-23.4375,-51.7578125,0.0
121.5546875,-35.64453125,-34.66796875,-32.2265625,-30.76171875,14.16015625,0.0
121.55859375,-53.22265625,-37.109375,-43.9453125,-35.15625,57.6171875,0.0
121.5625,-36.62109375,-41.015625,-13.18359375,-33.203125,-12.6953125,0.0
121.56640625,2.9296875,-35.15625,-1.46484375,-16.6015625,9.27734375,0.0
121.5703125,0.48828125,-27.83203125,-28.80859375,-16.11328125,104.98046875,0.0
121.57421875,-34.66796875,-37.109375,-44.43359375,-31.25,45.8984375,0.0
121.578125,-55.6640625,-42.96875,0.48828125,-30.76171875,-81.0546875,0.0
121.58203125,-50.78125,-38.57421875,19.04296875,-33.203125,-87.40234375,0.0
121.5859375,-35.64453125,-32.71484375,-37.59765625,-27.34375,-19.04296875,0.0
121.58984375,-14.16015625,-34.66796875,-42.48046875,-20.01953125,26.3671875,0.0
121.59375,-24.4140625,-39.0625,-37.109375,-28.3203125,-29.78515625,0.0
121.59765625,-56.15234375,-37.59765625,-41.9921875,-44.43359375,-109.86328125,0.0
121.6015625,-49.8046875,-34.1796875,-51.7578125,-45.41015625,-37.59765625,0.0
121.60546875,-11.23046875,-34.1796875,-47.8515625,-26.3671875,44.921875,0.0
121.609375,10.25390625,-34.1796875,-40.52734375,-3.41796875,-3.41796875,0.0
121.61328125,-9.27734375,-34.1796875,-40.0390625,-13.18359375,-47.8515625,0.0
121.6171875,-15.13671875,-33.69140625,-46.38671875,-24.4140625,-11.23046875,0.0
121.62109375,2.9296875,-32.71484375,-36.62109375,-17.08984375,56.15234375,0.0
121.625,2.9296875,-35.64453125,28.80859375,-11.71875,-9.27734375,0.0
121.62890625,4.39453125,-28.3203125,19.53125,-7.8125,-80.078125,0.0
121.6328125,-23.4375,-29.296875,-44.43359375,-19.53125,-17.578125,0.0
121.63671875,-47.8515625,-36.62109375,-23.92578125,-23.4375,-76.66015625,0.0
121.640625,-36.1328125,-31.25,-10.25390625,-13.671875,-103.515625,0.0
121.64453125,-15.625,-28.80859375,-36.1328125,-8.30078125,29.78515625,0.0
121.6484375,-2.44140625,-28.80859375,-40.0390625,-17.08984375,21.484375,0.0
121.65234375,-15.625,-26.85546875,-26.85546875,-37.59765625,-42.48046875,0.0
121.65625,-30.2734375,-24.90234375,-25.390625,-51.7578125,-46.38671875,0.0
121.66015625,-35.15625,-24.90234375,-38.57421875,-46.38671875,-60.05859375,0.0
121.6640625,-26.85546875,-22.94921875,-49.31640625,-32.2265625,-29.78515625,0.0
121.66796875,0.9765625,-21.97265625,-2.9296875,-20.99609375,8.30078125,0.0
121.671875,0.48828125,-29.296875,39.55078125,-20.99609375,5.859375,0.0
121.67578125,-31.25,-36.62109375,-20.5078125,-36.62109375,25.87890625,0.0
121.6796875,-38.57421875,-36.62109375,-41.015625,-33.203125,32.2265625,0.0
121.68359375,-16.6015625,-33.69140625,-33.69140625,-22.94921875,-3.41796875,0.0
121.6875,11.71875,-26.3671875,-40.0390625,-22.94921875,-23.92578125,0.0
121.69140625,2.44140625,-26.3671875,-44.43359375,-21.97265625,-3.41796875,0.0
121.6953125,-24.90234375,-30.76171875,-40.0390625,-19.53125,45.8984375,0.0
121.69921875,-29.78515625,-28.80859375,-34.66796875,-27.83203125,0.9765625,0.0
121.703125,-20.01953125,-28.80859375,-35.15625,-34.1796875,-65.4296875,0.0
121.70703125,-13.18359375,-30.2734375,-39.55078125,-15.13671875,-12.6953125,0.0
121.7109375,-15.625,-29.296875,-25.390625,-5.37109375,-20.5078125,0.0
121.71484375,-26.85546875,-35.15625,1.953125,-26.85546875,-69.3359375,0.0
121.71875,-59.5703125,-42.96875,-28.80859375,-39.55078125,-130.37109375,0.0
121.72265625,-58.59375,-39.55078125,-54.6875,-36.62109375,-158.203125,0.0
121.7265625,-28.3203125,-35.64453125,-26.3671875,-24.90234375,-144.04296875,0.0
121.73046875,-24.4140625,-36.1328125,-2.9296875,-24.4140625,-110.83984375,0.0
121.734375,-48.828125,-38.57421875,-33.69140625,-35.64453125,-60.546875,0.0
121.73828125,-44.921875,-39.0625,-53.7109375,-52.24609375,-35.64453125,0.0
121.7421875,-23.92578125,-32.71484375,-21.97265625,-52.734375,-38.0859375,0.0
121.74609375,-15.625,-32.71484375,-2.9296875,-36.62109375,35.15625,0.0
121.75,-13.18359375,-33.203125,-31.25,-24.90234375,120.60546875,0.0
121.75390625,-43.9453125,-34.1796875,-36.62109375,-30.76171875,120.60546875,0.0
121.7578125,-72.75390625,-39.55078125,-27.34375,-37.109375,26.85546875,0.0
121.76171875,-62.01171875,-43.9453125,-26.85546875,-27.83203125,-63.4765625,0.0
121.765625,-18.5546875,-41.50390625,-41.015625,-36.62109375,-38.57421875,0.0
121.76953125,-18.06640625,-41.9921875,-41.015625,-44.43359375,-35.64453125,0.0
121.7734375,-59.08203125,-41.015625,-13.18359375,-38.0859375,-85.44921875,0.0
121.77734375,-66.40625,-41.50390625,-12.20703125,-41.50390625,-39.0625,0.0
121.78125,-54.6875,-42.96875,-35.64453125,-43.45703125,16.11328125,0.0
121.78515625,-43.9453125,-40.0390625,-36.1328125,-36.1328125,66.89453125,0.0
121.7890625,-30.2734375,-41.50390625,-25.87890625,-22.4609375,20.5078125,0.0
121.79296875,-34.66796875,-43.45703125,-27.34375,-30.76171875,-59.5703125,0.0
121.796875,-60.05859375,-45.8984375,-41.015625,-50.29296875,-11.23046875,0.0
121.80078125,-59.08203125,-48.33984375,-34.1796875,-40.52734375,8.7890625,0.0
121.8046875,-32.2265625,-47.36328125,-22.94921875,-28.3203125,-37.109375,0.0
121.80859375,-25.390625,-41.50390625,-28.3203125,-29.78515625,-57.12890625,0.0
121.8125,-54.19921875,-41.9921875,-36.62109375,-30.2734375,-79.58984375,0.0
121.81640625,-78.125,-50.29296875,-23.4375,-45.41015625,-73.2421875,0.0
121.8203125,-62.98828125,-49.8046875,14.16015625,-64.453125,-83.0078125,0.0
121.82421875,-30.76171875,-43.9453125,-7.8125,-51.26953125,-40.52734375,0.0
121.828125,-14.6484375,-39.55078125,-37.59765625,-37.59765625,16.6015625,0.0
121.83203125,-38.57421875,-37.59765625,-9.765625,-41.015625,-1.953125,0.0
121.8359375,-61.03515625,-37.59765625,-1.46484375,-46.875,18.5546875,0.0
121.83984375,-60.546875,-39.55078125,-35.64453125,-48.33984375,-51.26953125,0.0
121.84375,-37.59765625,-38.57421875,-39.55078125,-37.109375,-75.68359375,0.0
121.84765625,-20.99609375,-40.0390625,-16.11328125,-20.5078125,-32.71484375,0.0
121.8515625,-35.15625,-41.015625,-10.7421875,-23.4375,16.6015625,0.0
121.85546875,-55.17578125,-41.9921875,-32.71484375,-47.36328125,-22.4609375,0.0
121.859375,-61.5234375,-40.52734375,-46.875,-42.48046875,-14.16015625,0.0
121.86328125,-36.62109375,-35.64453125,14.16015625,-35.15625,-8.30078125,0.0
121.8671875,-12.20703125,-40.0390625,39.0625,-37.59765625,-91.30859375,0.0
121.87109375,-11.23046875,-40.52734375,-25.87890625,-33.69140625,-62.98828125,0.0
121.875,-24.90234375,-28.80859375,-33.203125,-32.2265625,-29.78515625,0.0
121.87890625,-36.62109375,-27.34375,-32.2265625,-28.80859375,-62.98828125,0.0
121.8828125,-21.97265625,-38.0859375,-37.109375,-21.484375,-57.6171875,0.0
121.88671875,-4.8828125,-40.0390625,-42.48046875,-31.25,-50.29296875,0.0
121.890625,-16.11328125,-40.0390625,-39.55078125,-43.9453125,-78.125,0.0
121.89453125,-34.66796875,-42.96875,-34.66796875,-48.33984375,-94.23828125,0.0
121.8984375,-44.43359375,-46.875,-37.109375,-50.78125,-83.0078125,0.0
121.90234375,-30.2734375,-46.38671875,-40.0390625,-41.50390625,-98.14453125,0.0
121.90625,-9.27734375,-44.43359375,-27.34375,-32.2265625,-96.19140625,0.0
121.91015625,-13.671875,-47.36328125,13.671875,-25.87890625,-43.45703125,0.0
121.9140625,-28.80859375,-46.38671875,-7.32421875,-29.78515625,12.20703125,0.0
121.91796875,-36.62109375,-40.0390625,-44.43359375,-38.57421875,-48.828125,0.0
121.921875,-41.50390625,-45.8984375,-19.04296875,-32.71484375,-90.8203125,0.0
121.92578125,-17.08984375,-50.78125,-6.34765625,-28.3203125,-13.18359375,0.0
121.9296875,8.7890625,-40.52734375,-24.4140625,-25.87890625,18.06640625,0.0
121.93359375,-26.3671875,-43.45703125,-28.3203125,-36.62109375,-61.5234375,0.0
121.9375,-60.05859375,-44.921875,-27.83203125,-46.875,-119.62890625,0.0
121.94140625,-48.828125,-40.52734375,-24.90234375,-36.62109375,-131.8359375,0.0
121.9453125,-15.625,-41.50390625,-21.97265625,-21.97265625,-59.5703125,0.0
121.94921875,-7.8125,-39.55078125,-35.64453125,-20.99609375,-1.46484375,0.0
121.953125,-37.109375,-45.8984375,3.90625,-25.87890625,-36.1328125,0.0
121.95703125,-55.6640625,-49.8046875,42.96875,-37.59765625,-43.45703125,0.0
121.9609375,-41.015625,-47.36328125,-13.18359375,-39.55078125,-17.08984375,0.0
121.96484375,-11.71875,-45.41015625,-33.203125,-27.83203125,-35.15625,0.0
121.96875,-6.34765625,-40.0390625,-27.83203125,-27.83203125,-84.47265625,0.0
121.97265625,-25.87890625,-44.921875,-31.25,-35.15625,-50.78125,0.0
121.9765625,-27.34375,-44.43359375,-31.73828125,-44.43359375,-45.8984375,0.0
121.98046875,-20.5078125,-36.1328125,-26.85546875,-38.57421875,-96.6796875,0.0
121.984375,-16.6015625,-37.109375,-20.01953125,-29.296875,-100.5859375,0.0
121.98828125,-18.5546875,-36.62109375,-21.97265625,-23.4375,-75.1953125,0.0
121.9921875,-33.69140625,-32.2265625,-31.73828125,-24.90234375,-12.20703125,0.0
121.99609375,-32.71484375,-32.71484375,-11.23046875,-31.25,57.6171875,0.0
122.0,-33.69140625,-41.015625,45.8984375,-31.73828125,-28.3203125,0.0
122.00390625,-6.8359375,-38.0859375,12.6953125,-29.78515625,-103.02734375,0.0
122.0078125,11.23046875,-33.69140625,-36.62109375,-27.83203125,-12.6953125,0.0
122.01171875,-27.34375,-41.50390625,-11.71875,-34.1796875,1.953125,0.0
122.015625,-53.7109375,-44.43359375,13.18359375,-39.55078125,-90.8203125,0.0
122.01953125,-52.24609375,-43.9453125,-19.53125,-38.0859375,-95.21484375,0.0
122.0234375,-26.85546875,-40.52734375,-34.66796875,-29.78515625,-26.85546875,0.0
122.02734375,-8.30078125,-36.1328125,-27.83203125,-29.78515625,-5.37109375,0.0
122.03125,-12.6953125,-37.109375,-30.76171875,-27.83203125,38.57421875,0.0
122.03515625,-32.71484375,-41.50390625,-31.73828125,-36.1328125,77.1484375,0.0
122.0390625,-53.22265625,-40.52734375,-41.9921875,-38.0859375,4.39453125,0.0
122.04296875,-21.97265625,-40.52734375,-6.8359375,-36.1328125,-16.6015625,0.0
122.046875,-8.30078125,-40.0390625,20.01953125,-38.0859375,55.6640625,0.0
122.05078125,-40.0390625,-40.0390625,-21.484375,-31.25,61.5234375,0.0
122.0546875,-37.109375,-43.45703125,-34.66796875,-32.71484375,-0.48828125,0.0
122.05859375,-39.55078125,-41.50390625,-32.2265625,-37.109375,-19.04296875,0.0
122.0625,-58.59375,-44.43359375,-29.78515625,-33.69140625,-51.26953125,0.0
122.06640625,-32.2265625,-42.48046875,-34.66796875,-33.203125,30.76171875,0.0
122.0703125,-24.90234375,-36.62109375,-30.2734375,-35.15625,49.8046875,0.0
122.07421875,-40.52734375,-37.59765625,-9.27734375,-28.3203125,-89.35546875,0.0
122.078125,-47.8515625,-40.0390625,-19.53125,-23.92578125,-64.94140625,0.0
122.08203125,-24.90234375,-41.015625,-33.69140625,-28.3203125,-61.03515625,0.0
122.0859375,-13.671875,-36.62109375,-19.53125,-23.92578125,-158.203125,0.0
122.08984375,-27.83203125,-38.57421875,15.625,-30.2734375,-133.7890625,0.0
122.09375,-41.50390625,-42.48046875,-0.48828125,-26.85546875,-65.4296875,0.0
122.09765625,-62.01171875,-41.50390625,-29.296875,-8.7890625,2.44140625,0.0
122.1015625,-50.29296875,-40.52734375,-26.85546875,-26.85546875,-29.78515625,0.0
122.10546875,-34.66796875,-36.62109375,-21.484375,-29.296875,-57.6171875,0.0
122.109375,-22.94921875,-33.203125,-19.53125,-19.53125,-42.48046875,0.0
122.11328125,-33.203125,-39.55078125,-31.73828125,-32.71484375,-30.76171875,0.0
122.1171875,-63.4765625,-49.8046875,-9.27734375,-51.26953125,-46.875,0.0
122.12109375,-50.29296875,-49.31640625,20.01953125,-45.8984375,-13.671875,0.0
122.125,-6.34765625,-37.59765625,-18.06640625,-22.94921875,57.12890625,0.0
122.12890625,16.11328125,-31.25,-33.203125,-21.484375,62.01171875,0.0
122.1328125,-26.3671875,-39.55078125,-23.4375,-32.71484375,9.27734375,0.0
122.13671875,-50.78125,-47.36328125,-22.4609375,-27.34375,-89.84375,0.0
122.140625,-24.4140625,-45.41015625,-28.80859375,-24.90234375,-27.34375,0.0
122.14453125,21.484375,-41.015625,-41.50390625,-19.53125,75.68359375,0.0
122.1484375,52.734375,-37.59765625,4.8828125,-16.11328125,9.27734375,0.0
122.15234375,-9.27734375,-41.50390625,17.08984375,-23.92578125,-58.10546875,0.0
122.15625,-56.640625,-40.52734375,-28.3203125,-35.64453125,-80.56640625,0.0
122.16015625,-17.578125,-40.0390625,-26.3671875,-36.62109375,9.765625,0.0
122.1640625,12.20703125,-38.57421875,-26.85546875,-24.4140625,68.359375,0.0
122.16796875,15.625,-35.64453125,-30.76171875,-13.18359375,12.6953125,0.0
122.171875,2.9296875,-34.1796875,-33.203125,-7.8125,0.48828125,0.0
122.17578125,5.37109375,-37.109375,-26.3671875,-19.04296875,-43.9453125,0.0
122.1796875,4.8828125,-41.9921875,2.9296875,-32.2265625,-32.71484375,0.0
122.18359375,4.39453125,-39.0625,-6.8359375,-26.3671875,-26.85546875,0.0
122.1875,17.08984375,-35.64453125,-33.69140625,-16.6015625,-28.80859375,0.0
122.19140625,11.23046875,-38.0859375,-11.23046875,-22.94921875,-54.19921875,0.0
122.1953125,2.44140625,-48.33984375,9.27734375,-34.66796875,-154.78515625,0.0
122.19921875,5.859375,-44.43359375,-28.80859375,-32.2265625,-178.7109375,0.0
122.203125,38.57421875,-35.15625,-46.875,-23.92578125,-125.0,0.0
122.20703125,50.29296875,-33.69140625,5.37109375,-14.16015625,-112.79296875,0.0
122.2109375,19.53125,-37.59765625,24.90234375,-24.4140625,-58.10546875,0.0
122.21484375,20.5078125,-37.59765625,-35.64453125,-34.1796875,-36.1328125,0.0
122.21875,37.59765625,-36.62109375,-41.015625,-24.90234375,-69.3359375,0.0
122.22265625,46.875,-36.1328125,-24.4140625,-26.3671875,-2.44140625,0.0
122.2265625,55.17578125,-33.203125,-25.87890625,-28.80859375,22.94921875,0.0
122.23046875,61.5234375,-36.1328125,-24.4140625,-27.83203125,-53.22265625,0.0
122.234375,36.62109375,-32.2265625,-38.0859375,-34.1796875,-32.71484375,0.0
122.23828125,13.18359375,-39.55078125,-2.44140625,-41.9921875,-66.40625,0.0
122.2421875,46.38671875,-42.48046875,34.1796875,-32.2265625,-64.94140625,0.0
122.24609375,108.88671875,-33.203125,-17.578125,-22.94921875,29.296875,0.0
122.25,97.65625,-34.66796875,-40.52734375,-30.76171875,53.7109375,0.0
122.25390625,50.78125,-41.50390625,-41.015625,-27.34375,39.0625,0.0
122.2578125,55.6640625,-51.26953125,-34.1796875,-10.25390625,-11.71875,0.0
122.26171875,90.8203125,-47.36328125,-29.296875,-4.8828125,2.9296875,0.0
122.265625,117.1875,-40.52734375,-41.50390625,-15.625,-8.7890625,0.0
122.26953125,116.2109375,-38.57421875,-35.64453125,-1.953125,-65.91796875,0.0
122.2734375,128.90625,-34.1796875,-24.90234375,20.01953125,-22.4609375,0.0
122.27734375,126.46484375,-36.1328125,-36.62109375,7.32421875,-58.10546875,0.0
122.28125,162.59765625,-35.64453125,-24.4140625,20.01953125,-136.71875,0.0
122.28515625,221.6796875,-27.34375,-0.9765625,51.26953125,-80.56640625,0.0
122.2890625,222.65625,-23.4375,-22.94921875,55.17578125,-73.2421875,0.0
122.29296875,196.2890625,-25.87890625,-42.96875,39.55078125,-76.66015625,0.0
122.296875,175.29296875,-32.2265625,-19.53125,26.3671875,-61.5234375,0.0
122.30078125,204.58984375,-32.71484375,30.76171875,37.59765625,-93.26171875,0.0
122.3046875,250.48828125,-28.3203125,-0.9765625,42.48046875,-61.03515625,0.0
122.30859375,253.41796875,-23.92578125,-34.1796875,55.17578125,-29.296875,0.0
122.3125,240.234375,-25.390625,-30.2734375,75.68359375,-20.01953125,0.0
122.31640625,204.1015625,-31.25,-34.1796875,40.52734375,-76.171875,0.0
122.3203125,222.65625,-29.296875,-38.0859375,15.13671875,-106.93359375,0.0
122.32421875,237.79296875,-33.203125,-56.15234375,39.55078125,-87.890625,0.0
122.328125,245.60546875,-32.2265625,-19.53125,34.66796875,16.11328125,0.0
122.33203125,250.48828125,-21.484375,17.578125,22.4609375,12.6953125,0.0
122.3359375,219.7265625,-30.76171875,-20.5078125,21.484375,-45.41015625,0.0
122.33984375,257.8125,-36.1328125,-35.15625,27.34375,-46.875,0.0
122.34375,313.4765625,-25.390625,-30.2734375,19.04296875,1.953125,0.0
122.34765625,286.1328125,-26.85546875,-30.76171875,17.578125,-39.55078125,0.0
122.3515625,276.3671875,-30.76171875,-30.76171875,23.4375,-47.36328125,0.0
122.35546875,297.8515625,-24.4140625,-30.2734375,5.37109375,29.296875,0.0
122.359375,307.6171875,-20.01953125,-29.296875,12.20703125,-74.70703125,0.0
122.36328125,305.6640625,-25.390625,-36.1328125,7.32421875,-118.1640625,0.0
122.3671875,338.37890625,-33.203125,-39.0625,12.6953125,-90.33203125,0.0
122.37109375,347.65625,-34.1796875,-15.625,8.7890625,-47.36328125,0.0
122.375,291.50390625,-33.203125,17.578125,-10.7421875,28.3203125,0.0
122.37890625,272.4609375,-31.73828125,-13.671875,-14.6484375,40.52734375,0.0
122.3828125,289.0625,-34.1796875,-41.50390625,-5.859375,12.20703125,0.0
122.38671875,323.73046875,-32.2265625,-26.85546875,15.625,-9.27734375,0.0
122.390625,320.80078125,-30.76171875,-29.78515625,25.87890625,11.23046875,0.0
122.39453125,257.32421875,-41.015625,-34.66796875,8.7890625,-3.90625,0.0
122.3984375,244.62890625,-42.48046875,-33.203125,-2.9296875,-58.10546875,0.0
122.40234375,263.18359375,-41.9921875,-16.6015625,-13.671875,-112.79296875,0.0
122.40625,294.43359375,-36.1328125,-8.30078125,-20.99609375,-89.35546875,0.0
122.41015625,316.40625,-33.69140625,-23.4375,-20.99609375,-4.39453125,0.0
122.4140625,289.55078125,-38.0859375,-30.2734375,-24.4140625,39.55078125,0.0
122.41796875,282.2265625,-38.0859375,13.671875,1.46484375,-24.90234375,0.0
122.421875,333.984375,-44.921875,62.5,0.48828125,-138.18359375,0.0
122.42578125,337.40234375,-42.48046875,-1.953125,-24.90234375,-90.8203125,0.0
122.4296875,308.59375,-41.015625,-38.57421875,-12.6953125,-33.69140625,0.0
122.43359375,317.87109375,-40.52734375,-25.87890625,-20.01953125,-115.72265625,0.0
122.4375,288.0859375,-43.9453125,-26.3671875,-29.296875,-80.078125,0.0
122.44140625,285.64453125,-46.38671875,-33.69140625,-21.97265625,-29.78515625,0.0
122.4453125,312.01171875,-46.38671875,-36.1328125,-6.8359375,-62.01171875,0.0
122.44921875,307.12890625,-48.33984375,-16.6015625,3.41796875,-68.359375,0.0
122.453125,300.29296875,-42.48046875,-18.06640625,-3.41796875,-106.4453125,0.0
122.45703125,268.5546875,-41.50390625,-38.0859375,-4.8828125,-110.83984375,0.0
122.4609375,263.671875,-46.38671875,-25.390625,-4.8828125,-98.6328125,0.0
122.46484375,301.26953125,-48.828125,55.17578125,3.90625,-90.33203125,0.0
122.46875,321.77734375,-39.55078125,31.73828125,-11.23046875,-72.265625,0.0
122.47265625,284.66796875,-43.45703125,-32.2265625,-26.3671875,-61.03515625,0.0
122.4765625,233.88671875,-51.26953125,-34.66796875,-28.3203125,-102.5390625,0.0
122.48046875,270.5078125,-46.38671875,-33.203125,-13.18359375,-41.50390625,0.0
122.484375,331.54296875,-41.50390625,-13.18359375,-1.953125,66.40625,0.0
122.48828125,321.77734375,-39.55078125,-18.5546875,2.44140625,33.69140625,0.0
122.4921875,297.8515625,-45.41015625,0.48828125,-2.44140625,3.41796875,0.0
122.49609375,278.80859375,-48.828125,6.8359375,-21.97265625,84.9609375,0.0
122.5,281.25,-42.96875,-23.4375,-22.4609375,98.14453125,0.0
122.50390625,327.63671875,-31.73828125,-31.73828125,-22.4609375,51.26953125,0.0
122.5078125,334.9609375,-37.109375,18.5546875,-33.203125,-30.76171875,0.0
122.51171875,288.0859375,-46.38671875,54.19921875,-31.73828125,-62.5,0.0
122.515625,250.9765625,-54.6875,-10.7421875,-26.85546875,-39.0625,0.0
122.51953125,262.20703125,-57.12890625,-31.73828125,-35.15625,32.71484375,0.0
122.5234375,304.6875,-44.43359375,-10.25390625,-22.94921875,-5.859375,0.0
122.52734375,305.17578125,-45.8984375,-17.08984375,-7.8125,-63.4765625,0.0
122.53125,290.0390625,-47.36328125,-22.4609375,2.44140625,-48.33984375,0.0
122.53515625,268.5546875,-48.828125,-26.3671875,14.16015625,-35.15625,0.0
122.5390625,284.1796875,-50.78125,-44.921875,9.27734375,-62.5,0.0
122.54296875,290.52734375,-45.41015625,-26.3671875,-5.37109375,15.625,0.0
122.546875,294.921875,-39.55078125,-12.6953125,-5.37109375,56.15234375,0.0
122.55078125,305.6640625,-34.66796875,-11.23046875,-3.41796875,-9.27734375,0.0
122.5546875,242.1875,-46.38671875,-18.06640625,-5.859375,-20.5078125,0.0
122.55859375,216.30859375,-59.5703125,-30.76171875,-2.44140625,8.7890625,0.0
122.5625,248.53515625,-49.8046875,-34.1796875,-4.8828125,-5.37109375,0.0
122.56640625,284.1796875,-41.9921875,-15.13671875,-7.8125,-79.1015625,0.0
122.5703125,295.41015625,-42.96875,82.03125,-16.11328125,-178.22265625,0.0
122.57421875,272.94921875,-44.43359375,56.640625,-22.4609375,-126.46484375,0.0
122.578125,233.88671875,-45.41015625,-43.9453125,-18.06640625,-10.7421875,0.0
122.58203125,246.58203125,-39.0625,-8.7890625,-17.578125,-7.32421875,0.0
122.5859375,282.71484375,-37.109375,19.04296875,-13.671875,0.9765625,0.0
122.58984375,279.78515625,-41.015625,-37.109375,-14.16015625,40.0390625,0.0
122.59375,216.796875,-41.9921875,-43.9453125,-21.484375,-4.39453125,0.0
122.59765625,203.125,-42.96875,-27.34375,-19.53125,-29.78515625,0.0
122.6015625,237.79296875,-38.57421875,-34.66796875,-15.13671875,29.296875,0.0
122.60546875,231.93359375,-37.109375,-41.9921875,-9.27734375,31.73828125,0.0
122.609375,228.02734375,-40.52734375,-49.8046875,-5.37109375,-56.640625,0.0
122.61328125,219.7265625,-40.52734375,22.94921875,-15.625,-45.41015625,0.0
122.6171875,176.26953125,-41.50390625,74.70703125,-24.90234375,-57.6171875,0.0
122.62109375,184.08203125,-42.48046875,-8.30078125,-20.99609375,-20.5078125,0.0
122.625,233.88671875,-37.109375,-38.57421875,2.44140625,5.859375,0.0
122.62890625,229.4921875,-32.2265625,-26.3671875,9.27734375,-28.80859375,0.0
122.6328125,213.8671875,-38.0859375,-24.90234375,-10.7421875,-62.5,0.0
122.63671875,208.49609375,-42.48046875,-38.0859375,-4.39453125,-27.34375,0.0
122.640625,204.1015625,-36.62109375,-50.29296875,-3.90625,-4.8828125,0.0
122.64453125,214.84375,-36.1328125,-48.33984375,-18.06640625,-49.8046875,0.0
122.6484375,219.7265625,-36.1328125,-28.3203125,-13.18359375,25.87890625,0.0
122.65234375,198.2421875,-30.76171875,-26.3671875,-5.37109375,16.11328125,0.0
122.65625,174.31640625,-33.69140625,-15.625,-19.53125,-20.99609375,0.0
122.66015625,165.0390625,-39.0625,44.43359375,-51.7578125,-20.99609375,0.0
122.6640625,191.89453125,-35.15625,19.53125,-43.9453125,-98.6328125,0.0
122.66796875,217.7734375,-27.34375,-38.0859375,-31.25,-89.84375,0.0
122.671875,182.12890625,-30.76171875,2.44140625,-31.73828125,17.578125,0.0
122.67578125,129.8828125,-45.41015625,40.52734375,-33.203125,-43.9453125,0.0
122.6796875,116.69921875,-48.33984375,-22.4609375,-27.83203125,-85.9375,0.0
122.68359375,152.83203125,-41.9921875,-38.57421875,-21.484375,-18.06640625,0.0
122.6875,202.1484375,-34.1796875,-23.92578125,-26.85546875,37.59765625,0.0
122.69140625,182.12890625,-32.2265625,-28.80859375,-31.73828125,39.55078125,0.0
122.6953125,144.04296875,-34.1796875,-31.73828125,-18.06640625,20.01953125,0.0
122.69921875,128.41796875,-38.57421875,-44.43359375,-14.6484375,-20.01953125,0.0
122.703125,161.62109375,-39.0625,20.99609375,-12.6953125,-3.41796875,0.0
122.70703125,202.1484375,-33.69140625,51.7578125,-9.765625,-10.25390625,0.0
122.7109375,161.62109375,-36.62109375,-27.34375,-15.13671875,-21.484375,0.0
122.71484375,132.32421875,-40.52734375,-44.921875,-16.11328125,2.9296875,0.0
122.71875,131.8359375,-40.52734375,-33.203125,-14.6484375,-20.5078125,0.0
122.72265625,141.11328125,-41.50390625,-36.1328125,-8.30078125,-2.44140625,0.0
122.7265625,159.1796875,-38.57421875,-40.0390625,3.41796875,3.90625,0.0
122.73046875,171.38671875,-34.1796875,-31.73828125,0.9765625,30.2734375,0.0
122.734375,141.6015625,-38.0859375,-15.625,-16.11328125,-19.04296875,0.0
122.73828125,88.8671875,-41.015625,-20.01953125,-35.15625,-172.36328125,0.0
122.7421875,125.0,-31.25,-36.1328125,-30.76171875,-206.0546875,0.0
122.74609375,146.484375,-32.71484375,-25.87890625,-14.6484375,-92.7734375,0.0
122.75,151.3671875,-38.57421875,14.6484375,-21.484375,-22.4609375,0.0
122.75390625,131.8359375,-39.0625,-4.8828125,-27.83203125,-56.15234375,0.0
122.7578125,87.40234375,-43.9453125,-40.0390625,-31.25,-10.25390625,0.0
122.76171875,106.4453125,-39.55078125,-28.80859375,-27.83203125,23.4375,0.0
122.765625,143.5546875,-35.64453125,-29.78515625,-13.671875,30.2734375,0.0
122.76953125,116.2109375,-39.0625,-34.66796875,-8.7890625,33.69140625,0.0
122.7734375,99.609375,-40.52734375,-29.78515625,-19.53125,90.33203125,0.0
122.77734375,95.703125,-36.1328125,-4.8828125,-29.296875,106.93359375,0.0
122.78125,89.84375,-29.296875,-0.48828125,-30.76171875,24.90234375,0.0
122.78515625,124.0234375,-27.83203125,-28.3203125,-33.203125,-18.06640625,0.0
122.7890625,120.60546875,-35.15625,-37.109375,-20.01953125,-30.76171875,0.0
122.79296875,95.703125,-38.57421875,2.44140625,-6.34765625,-67.87109375,0.0
122.796875,74.70703125,-42.48046875,35.15625,-30.2734375,-92.7734375,0.0
122.80078125,76.66015625,-38.57421875,-23.4375,-45.8984375,-29.296875,0.0
122.8046875,115.234375,-36.1328125,-47.36328125,-21.97265625,6.8359375,0.0
122.80859375,148.4375,-32.2265625,-41.015625,-21.97265625,-1.46484375,0.0
122.8125,103.515625,-27.83203125,-45.8984375,-37.109375,-3.90625,0.0
122.81640625,57.12890625,-36.1328125,-42.48046875,-16.11328125,0.0,0.0
122.8203125,75.68359375,-38.57421875,-31.25,9.27734375,37.109375,0.0
122.82421875,106.93359375,-33.69140625,-34.66796875,-7.8125,8.30078125,0.0
122.828125,111.81640625,-32.71484375,-51.26953125,-27.83203125,-31.73828125,0.0
122.83203125,86.9140625,-32.71484375,-41.9921875,-40.0390625,-84.47265625,0.0
122.8359375,60.546875,-38.0859375,-14.6484375,-39.55078125,-150.87890625,0.0
122.83984375,27.83203125,-50.78125,16.11328125,-32.71484375,-72.265625,0.0
122.84375,63.4765625,-43.45703125,-3.41796875,-20.5078125,-59.08203125,0.0
122.84765625,124.0234375,-35.64453125,-35.64453125,-13.18359375,-82.03125,0.0
122.8515625,116.69921875,-38.57421875,-13.18359375,-19.53125,-139.6484375,0.0
122.85546875,82.51953125,-43.45703125,8.30078125,-15.13671875,-153.3203125,0.0
122.859375,56.15234375,-41.015625,-16.11328125,-27.83203125,-82.51953125,0.0
122.86328125,67.3828125,-35.15625,-35.64453125,-28.3203125,4.8828125,0.0
122.8671875,126.953125,-21.97265625,5.859375,-12.6953125,51.26953125,0.0
122.87109375,111.81640625,-20.99609375,17.578125,-7.8125,65.91796875,0.0
122.875,47.8515625,-33.69140625,-41.50390625,-27.34375,19.53125,0.0
122.87890625,55.6640625,-28.3203125,-44.43359375,-39.0625,-82.03125,0.0
122.8828125,72.75390625,-22.94921875,-34.1796875,-24.90234375,-71.77734375,0.0
122.88671875,82.51953125,-32.2265625,-39.55078125,-18.06640625,-8.30078125,0.0
122.890625,79.1015625,-35.15625,-41.015625,-20.99609375,-11.71875,0.0
122.89453125,52.24609375,-29.296875,-36.62109375,-39.0625,-4.8828125,0.0
122.8984375,51.26953125,-35.15625,4.8828125,-46.875,-37.109375,0.0
122.90234375,56.15234375,-43.9453125,10.25390625,-35.64453125,-1.953125,0.0
122.90625,99.12109375,-35.64453125,-57.6171875,-16.6015625,3.41796875,0.0
122.91015625,95.21484375,-29.78515625,-46.38671875,-27.34375,-69.3359375,0.0
122.9140625,25.390625,-41.015625,-22.94921875,-45.41015625,-32.71484375,0.0
122.91796875,18.5546875,-53.7109375,-35.64453125,-44.921875,-8.30078125,0.0
122.921875,47.8515625,-46.38671875,-44.921875,-33.69140625,-33.69140625,0.0
122.92578125,84.9609375,-31.73828125,-35.15625,-16.11328125,-31.25,0.0
122.9296875,75.1953125,-30.2734375,-35.64453125,-27.83203125,-15.625,0.0
122.93359375,61.5234375,-33.69140625,-31.25,-29.78515625,29.78515625,0.0
122.9375,50.29296875,-34.1796875,-23.92578125,-27.34375,44.43359375,0.0
122.94140625,58.10546875,-28.3203125,-20.5078125,-41.015625,-16.6015625,0.0
122.9453125,93.75,-24.4140625,4.39453125,-35.64453125,-30.2734375,0.0
122.94921875,88.37890625,-27.34375,-17.578125,-24.4140625,2.44140625,0.0
122.953125,68.84765625,-24.90234375,-57.12890625,-22.4609375,-42.48046875,0.0
122.95703125,37.109375,-29.296875,-17.578125,-17.08984375,-65.91796875,0.0
122.9609375,19.53125,-47.8515625,10.7421875,-22.4609375,-93.75,0.0
122.96484375,41.50390625,-53.22265625,-49.8046875,-16.11328125,-112.3046875,0.0
122.96875,36.62109375,-44.921875,-65.4296875,-31.25,-45.41015625,0.0
122.97265625,13.18359375,-54.6875,4.39453125,-69.3359375,-77.63671875,0.0
122.9765625,-34.1796875,-70.80078125,26.3671875,-90.33203125,-89.35546875,0.0
122.98046875,-78.125,-66.89453125,-43.9453125,-120.1171875,-26.85546875,0.0
122.984375,-47.8515625,-53.7109375,-60.05859375,-124.0234375,31.25,0.0
122.98828125,-25.390625,-45.8984375,-3.41796875,-123.046875,36.62109375,0.0
122.9921875,-85.9375,-57.6171875,24.90234375,-131.34765625,-50.29296875,0.0
122.99609375,-171.38671875,-73.73046875,-4.8828125,-170.8984375,-107.91015625,0.0
123.0,-177.734375,-77.63671875,-5.859375,-213.37890625,-133.30078125,0.0
123.00390625,-159.1796875,-73.73046875,-15.13671875,-215.33203125,-177.734375,0.0
123.0078125,-137.20703125,-71.2890625,-24.4140625,-206.54296875,-145.99609375,0.0
123.01171875,-138.18359375,-78.125,-36.1328125,-229.98046875,-36.62109375,0.0
123.015625,-191.89453125,-84.47265625,-13.671875,-247.0703125,-35.64453125,0.0
123.01953125,-225.5859375,-87.40234375,27.83203125,-260.25390625,-107.91015625,0.0
123.0234375,-215.8203125,-84.9609375,-3.90625,-288.57421875,-122.55859375,0.0
123.02734375,-205.56640625,-80.56640625,-45.41015625,-281.25,-34.66796875,0.0
123.03125,-207.51953125,-84.47265625,-81.54296875,-294.921875,59.5703125,0.0
123.03515625,-254.8828125,-99.609375,15.625,-314.94140625,-97.16796875,0.0
123.0390625,-273.92578125,-93.26171875,47.36328125,-308.10546875,-145.99609375,0.0
123.04296875,-253.90625,-73.2421875,-53.7109375,-288.57421875,-9.765625,0.0
123.046875,-230.46875,-62.01171875,-20.99609375,-308.59375,-29.78515625,0.0
123.05078125,-211.9140625,-43.9453125,26.3671875,-318.359375,-86.9140625,0.0
123.0546875,-268.5546875,-70.3125,-35.15625,-285.64453125,-78.61328125,0.0
123.05859375,-295.8984375,-85.44921875,-62.01171875,-294.921875,-97.65625,0.0
123.0625,-229.4921875,-53.22265625,-12.6953125,-308.59375,-147.94921875,0.0
123.06640625,-205.56640625,-47.8515625,-10.7421875,-266.11328125,-109.375,0.0
123.0703125,-209.47265625,-56.15234375,-47.8515625,-230.46875,7.32421875,0.0
123.07421875,-172.36328125,-77.63671875,-59.08203125,-227.5390625,4.8828125,0.0
123.078125,-198.2421875,-114.2578125,-21.97265625,-246.09375,-52.24609375,0.0
123.08203125,-209.9609375,-75.1953125,12.20703125,-248.53515625,-2.9296875,0.0
123.0859375,-153.3203125,-32.2265625,-38.57421875,-193.84765625,20.99609375,0.0
123.08984375,-118.1640625,-41.50390625,-73.73046875,-171.38671875,-26.85546875,0.0
123.09375,-121.09375,-33.69140625,-66.40625,-167.96875,-45.8984375,0.0
123.09765625,-163.0859375,-54.6875,-39.55078125,-163.57421875,-53.22265625,0.0
123.1015625,-149.90234375,-68.84765625,-58.10546875,-171.38671875,-0.48828125,0.0
123.10546875,-76.171875,-43.9453125,-77.1484375,-153.3203125,62.01171875,0.0
123.109375,-78.125,-31.25,-54.19921875,-138.671875,37.59765625,0.0
123.11328125,-126.46484375,-49.31640625,-42.96875,-130.37109375,-83.0078125,0.0
123.1171875,-127.44140625,-61.5234375,-99.609375,-117.67578125,-48.828125,0.0
123.12109375,-84.9609375,-47.36328125,-104.00390625,-112.3046875,67.3828125,0.0
123.125,-27.83203125,-44.921875,38.0859375,-102.5390625,1.46484375,0.0
123.12890625,-4.39453125,-62.01171875,27.34375,-67.87109375,-49.31640625,0.0
123.1328125,-20.01953125,-61.5234375,-102.5390625,-68.359375,-50.78125,0.0
123.13671875,-31.73828125,-57.6171875,-61.03515625,-86.42578125,-104.98046875,0.0
123.140625,-30.2734375,-45.41015625,-13.671875,-62.01171875,-104.98046875,0.0
123.14453125,-9.27734375,-27.83203125,-63.4765625,-44.43359375,-70.80078125,0.0
123.1484375,23.4375,-28.80859375,-79.1015625,-39.55078125,-84.47265625,0.0
123.15234375,16.6015625,-32.71484375,-79.1015625,-23.92578125,-148.4375,0.0
123.15625,-8.7890625,-39.0625,-74.21875,-7.8125,-143.06640625,0.0
123.16015625,-12.6953125,-42.96875,-59.5703125,-14.6484375,-88.8671875,0.0
123.1640625,24.4140625,-35.15625,-74.70703125,-3.90625,-49.31640625,0.0
123.16796875,50.29296875,-30.2734375,-45.8984375,14.16015625,-24.4140625,0.0
123.171875,42.48046875,-34.1796875,-10.25390625,6.34765625,-59.08203125,0.0
123.17578125,49.31640625,-41.9921875,-84.9609375,-4.8828125,-91.30859375,0.0
123.1796875,7.8125,-48.33984375,-93.75,-21.97265625,-69.82421875,0.0
123.18359375,24.4140625,-30.2734375,-48.33984375,-14.6484375,-87.40234375,0.0
123.1875,53.22265625,-51.7578125,-99.12109375,25.87890625,-72.75390625,0.0
123.19140625,42.96875,-93.26171875,-112.3046875,28.3203125,25.390625,0.0
123.1953125,45.8984375,-43.45703125,-51.26953125,-3.41796875,9.27734375,0.0
123.19921875,20.99609375,1.46484375,-60.546875,-6.8359375,-125.48828125,0.0
123.203125,14.6484375,-12.6953125,-69.3359375,-9.27734375,-57.12890625,0.0
123.20703125,49.8046875,-16.6015625,-69.82421875,2.44140625,-17.578125,0.0
123.2109375,35.15625,-13.18359375,-55.6640625,12.6953125,-82.03125,0.0
123.21484375,20.99609375,-26.85546875,-41.015625,0.0,-115.72265625,0.0
123.21875,29.296875,-39.55078125,-75.68359375,19.53125,-90.8203125,0.0
123.22265625,55.17578125,-32.71484375,-75.1953125,36.62109375,-93.26171875,0.0
123.2265625,70.80078125,-22.4609375,-64.94140625,26.85546875,-91.796875,0.0
123.23046875,44.43359375,-15.625,-74.21875,3.90625,-20.5078125,0.0
123.234375,-2.44140625,-16.11328125,-47.8515625,-18.06640625,-19.04296875,0.0
123.23828125,-19.04296875,-41.9921875,-57.6171875,-17.578125,-73.73046875,0.0
123.2421875,30.2734375,-48.828125,-60.05859375,1.953125,-110.83984375,0.0
123.24609375,73.73046875,-30.2734375,-30.76171875,10.25390625,-36.1328125,0.0
123.25,52.734375,-29.296875,-43.45703125,15.13671875,33.69140625,0.0
123.25390625,7.32421875,-37.59765625,-64.453125,31.25,-29.296875,0.0
123.2578125,-15.13671875,-36.62109375,-43.9453125,19.53125,-91.796875,0.0
123.26171875,12.6953125,-15.625,-25.87890625,-3.90625,-63.4765625,0.0
123.265625,45.41015625,-8.30078125,-49.31640625,17.578125,-3.41796875,0.0
123.26953125,57.6171875,-16.6015625,-68.359375,14.16015625,46.875,0.0
123.2734375,14.16015625,-26.85546875,-23.92578125,-0.48828125,113.28125,0.0
123.27734375,-16.11328125,-40.52734375,-29.296875,8.30078125,101.5625,0.0
123.28125,10.25390625,-41.9921875,-89.35546875,16.6015625,-78.125,0.0
123.28515625,43.9453125,-50.29296875,-86.9140625,24.90234375,-135.25390625,0.0
123.2890625,61.5234375,-44.921875,-59.5703125,22.94921875,0.48828125,0.0
123.29296875,19.53125,-11.23046875,-40.0390625,10.7421875,0.48828125,0.0
123.296875,-8.7890625,-17.08984375,-43.9453125,-5.859375,-0.9765625,0.0
123.30078125,4.8828125,-41.50390625,-44.921875,-16.6015625,20.99609375,0.0
123.3046875,42.48046875,-89.35546875,-140.13671875,3.90625,-1.46484375,0.0
123.30859375,61.03515625,-80.56640625,-142.578125,23.4375,-55.6640625,0.0
123.3125,20.01953125,0.9765625,-21.97265625,-2.9296875,-52.24609375,0.0
123.31640625,-18.06640625,4.39453125,19.53125,-17.08984375,-6.8359375,0.0
123.3203125,-5.37109375,-14.16015625,10.7421875,-16.11328125,45.41015625,0.0
123.32421875,23.4375,-18.5546875,-49.8046875,8.30078125,92.7734375,0.0
123.328125,8.7890625,-19.53125,-65.4296875,9.765625,172.36328125,0.0
123.33203125,-4.8828125,-31.25,-12.6953125,8.7890625,156.73828125,0.0
123.3359375,-29.78515625,-87.890625,-5.859375,13.18359375,33.69140625,0.0
123.33984375,5.37109375,-53.7109375,-51.7578125,10.25390625,12.6953125,0.0
123.34375,61.03515625,13.18359375,-53.7109375,35.64453125,18.06640625,0.0
123.34765625,31.73828125,-6.34765625,-31.25,33.203125,-18.06640625,0.0
123.3515625,-19.53125,-51.7578125,-7.8125,-0.48828125,-13.671875,0.0
123.35546875,-55.6640625,-65.91796875,6.34765625,-25.87890625,-62.01171875,0.0
123.359375,-28.80859375,-41.9921875,-13.18359375,-32.2265625,-57.12890625,0.0
123.36328125,3.90625,-26.85546875,11.71875,-17.578125,-71.2890625,0.0
123.3671875,-8.7890625,-51.7578125,19.53125,-1.46484375,-133.7890625,0.0
123.37109375,-29.78515625,-96.19140625,-30.76171875,-15.13671875,-120.60546875,0.0
123.375,-51.26953125,-80.56640625,-11.71875,-36.1328125,-90.8203125,0.0
123.37890625,-65.91796875,-52.734375,35.15625,-64.453125,-34.1796875,0.0
123.3828125,-69.82421875,-50.29296875,75.1953125,-80.56640625,41.50390625,0.0
123.38671875,-44.921875,-38.57421875,68.359375,-50.78125,50.78125,0.0
123.390625,-48.828125,-74.21875,6.34765625,-34.1796875,29.78515625,0.0
123.39453125,-81.54296875,-120.60546875,-48.33984375,-40.0390625,-30.2734375,0.0
123.3984375,-100.5859375,-66.89453125,23.92578125,-63.4765625,-116.2109375,0.0
123.40234375,-64.94140625,-30.2734375,40.0390625,-59.08203125,-165.52734375,0.0
123.40625,-24.90234375,-35.15625,41.015625,-29.78515625,-119.62890625,0.0
123.41015625,-121.58203125,-104.00390625,100.5859375,-72.75390625,-96.6796875,0.0
123.4140625,-189.453125,-177.24609375,22.94921875,-109.86328125,-89.35546875,0.0
123.41796875,-194.82421875,-183.59375,-106.93359375,-138.18359375,-84.47265625,0.0
123.421875,-171.38671875,-176.7578125,-129.8828125,-153.80859375,-66.40625,0.0
123.42578125,-143.06640625,-134.765625,-71.2890625,-120.60546875,-25.390625,0.0
123.4296875,-143.5546875,-107.421875,-93.26171875,-109.86328125,-14.16015625,0.0
123.43359375,-151.3671875,-125.0,-136.23046875,-111.328125,-14.6484375,0.0
123.4375,-145.5078125,-133.7890625,-116.2109375,-111.81640625,-16.6015625,0.0
123.44140625,-115.234375,-113.76953125,-104.4921875,-91.796875,9.765625,0.0
123.4453125,-67.3828125,-137.20703125,-74.70703125,-76.171875,-28.80859375,0.0
123.44921875,-57.12890625,-141.6015625,-73.73046875,-54.19921875,-24.4140625,0.0
123.453125,-98.14453125,-102.05078125,-49.31640625,-62.5,-9.27734375,0.0
123.45703125,-94.23828125,-83.0078125,-28.3203125,-76.171875,-88.37890625,0.0
123.4609375,-99.12109375,-67.87109375,-76.171875,-45.8984375,-51.26953125,0.0
123.46484375,-43.45703125,-63.4765625,-76.66015625,-24.90234375,-16.6015625,0.0
123.46875,-10.7421875,-61.03515625,-52.24609375,-31.25,-66.40625,0.0
123.47265625,-61.5234375,-57.12890625,-51.26953125,-23.4375,-71.77734375,0.0
123.4765625,-68.84765625,-62.98828125,-64.453125,-19.04296875,-46.875,0.0
123.48046875,-61.5234375,-65.91796875,-36.62109375,-13.18359375,-60.05859375,0.0
123.484375,-32.71484375,-57.6171875,-32.71484375,-28.3203125,-75.1953125,0.0
123.48828125,36.1328125,-32.2265625,-25.390625,2.44140625,-4.39453125,0.0
123.4921875,6.8359375,-41.50390625,-41.50390625,23.92578125,18.5546875,0.0
123.49609375,-45.8984375,-65.4296875,-77.1484375,30.2734375,-37.109375,0.0
123.5,-13.18359375,-45.8984375,-21.484375,8.7890625,-43.9453125,0.0
123.50390625,6.34765625,-14.6484375,-20.99609375,-3.90625,-53.22265625,0.0
123.5078125,-4.39453125,-24.90234375,-47.8515625,16.6015625,-58.59375,0.0
123.51171875,-49.8046875,-73.73046875,-39.55078125,-1.953125,-57.6171875,0.0
123.515625,-30.2734375,-74.70703125,-10.7421875,14.16015625,-40.0390625,0.0
123.51953125,-28.3203125,-23.92578125,5.859375,48.33984375,18.06640625,0.0
123.5234375,-51.26953125,-0.9765625,-14.16015625,8.30078125,48.33984375,0.0
123.52734375,-11.71875,-4.39453125,-19.53125,12.6953125,-20.99609375,0.0
123.53125,7.8125,-5.859375,-55.6640625,40.52734375,26.85546875,0.0
123.53515625,-33.203125,-42.48046875,-67.3828125,37.109375,56.640625,0.0
123.5390625,-46.38671875,-65.4296875,-22.94921875,32.71484375,-33.203125,0.0
123.54296875,-22.4609375,-43.9453125,-23.4375,20.99609375,-26.3671875,0.0
123.546875,-12.6953125,-30.2734375,-24.4140625,27.34375,-39.0625,0.0
123.55078125,-15.625,-35.64453125,-28.3203125,19.04296875,-139.16015625,0.0
123.5546875,-34.1796875,-29.78515625,-44.43359375,8.30078125,-121.09375,0.0
123.55859375,-64.94140625,-25.390625,-45.41015625,24.90234375,-134.765625,0.0
123.5625,-44.43359375,-76.66015625,-63.96484375,45.8984375,-165.52734375,0.0
123.56640625,6.8359375,-51.26953125,-70.3125,57.12890625,-148.4375,0.0
123.5703125,-8.30078125,17.578125,-50.29296875,43.45703125,-114.2578125,0.0
123.57421875,-16.11328125,-13.671875,-53.22265625,30.2734375,-63.4765625,0.0
123.578125,-33.69140625,-22.94921875,-5.37109375,29.78515625,-62.98828125,0.0
123.58203125,-10.25390625,0.48828125,16.6015625,62.98828125,-65.91796875,0.0
123.5859375,20.99609375,-31.73828125,-16.6015625,62.01171875,-37.59765625,0.0
123.58984375,-31.25,-49.8046875,-43.45703125,37.109375,-7.32421875,0.0
123.59375,-66.40625,-22.4609375,-58.10546875,35.15625,-29.78515625,0.0
123.59765625,-65.91796875,-19.53125,-49.31640625,6.8359375,-41.9921875,0.0
123.6015625,-46.875,-36.1328125,-36.1328125,9.765625,9.765625,0.0
123.60546875,-31.73828125,-55.6640625,-36.1328125,11.23046875,20.01953125,0.0
123.609375,-40.52734375,-35.15625,-52.24609375,-3.41796875,-47.36328125,0.0
123.61328125,-62.98828125,-36.62109375,-88.37890625,-30.76171875,7.32421875,0.0
123.6171875,-63.96484375,-61.03515625,-107.91015625,-14.16015625,13.18359375,0.0
123.62109375,-53.22265625,-58.59375,-62.98828125,0.48828125,-33.203125,0.0
123.625,-31.25,-57.12890625,-34.66796875,-17.578125,6.8359375,0.0
123.62890625,-42.48046875,-54.6875,-42.96875,-6.8359375,4.39453125,0.0
123.6328125,-63.4765625,-46.38671875,-49.8046875,19.53125,-27.83203125,0.0
123.63671875,-33.203125,-53.22265625,-44.43359375,21.484375,-55.6640625,0.0
123.640625,-28.3203125,-43.9453125,-25.87890625,-10.7421875,-39.55078125,0.0
123.64453125,-24.90234375,-26.3671875,-55.6640625,-31.25,-49.31640625,0.0
123.6484375,-22.4609375,-22.94921875,-88.37890625,-14.16015625,-54.19921875,0.0
123.65234375,-66.89453125,-30.2734375,-59.5703125,-8.30078125,-54.19921875,0.0
123.65625,-72.265625,-63.96484375,-18.5546875,-13.18359375,-15.625,0.0
123.66015625,-79.58984375,-62.5,-6.8359375,-5.37109375,-66.40625,0.0
123.6640625,-111.328125,-48.828125,-17.578125,-36.1328125,-55.17578125,0.0
123.66796875,-114.2578125,-42.96875,-35.15625,-45.8984375,-4.39453125,0.0
123.671875,-100.09765625,-41.9921875,-58.10546875,-20.99609375,-65.4296875,0.0
123.67578125,-95.21484375,-53.22265625,-55.6640625,-27.83203125,4.39453125,0.0
123.6796875,-100.09765625,-31.73828125,-49.31640625,-12.20703125,46.875,0.0
123.68359375,-71.77734375,-7.32421875,-42.48046875,-1.46484375,-4.8828125,0.0
123.6875,-44.921875,-17.08984375,-75.68359375,14.16015625,-34.1796875,0.0
123.69140625,-8.7890625,-47.8515625,-96.6796875,37.109375,-38.0859375,0.0
123.6953125,-16.6015625,-31.25,-13.671875,-1.953125,-0.48828125,0.0
123.69921875,-64.94140625,4.8828125,13.18359375,-8.7890625,-13.18359375,0.0
123.703125,-64.453125,-6.34765625,-37.59765625,9.765625,48.33984375,0.0
123.70703125,-51.26953125,-12.6953125,-62.5,23.92578125,38.57421875,0.0
123.7109375,-29.78515625,-18.06640625,-56.15234375,29.78515625,16.6015625,0.0
123.71484375,-20.5078125,-24.4140625,-55.6640625,19.53125,-4.39453125,0.0
123.71875,-24.4140625,-21.484375,-65.4296875,14.16015625,22.4609375,0.0
123.72265625,-51.7578125,-14.16015625,-60.546875,23.4375,7.32421875,0.0
123.7265625,-64.453125,-9.765625,-36.62109375,44.43359375,-31.73828125,0.0
123.73046875,-30.2734375,-19.04296875,-30.76171875,45.8984375,-15.13671875,0.0
123.734375,-43.45703125,-40.0390625,-50.78125,16.11328125,-13.671875,0.0
123.73828125,-97.65625,-47.36328125,-66.40625,15.13671875,3.41796875,0.0
123.7421875,-93.75,-14.16015625,-67.3828125,24.4140625,-18.06640625,0.0
123.74609375,-46.38671875,16.6015625,-56.640625,31.25,44.43359375,0.0
123.75,-40.0390625,11.23046875,-36.62109375,26.85546875,58.10546875,0.0
123.75390625,-71.2890625,-8.7890625,-14.6484375,11.23046875,-41.015625,0.0
123.7578125,-62.98828125,-18.06640625,-33.203125,8.7890625,-32.2265625,0.0
123.76171875,-29.296875,-12.20703125,-61.03515625,20.99609375,35.15625,0.0
123.765625,1.953125,-10.25390625,-48.33984375,46.875,54.19921875,0.0
123.76953125,8.30078125,-9.765625,-53.7109375,62.5,-45.8984375,0.0
123.7734375,-31.73828125,1.953125,-44.921875,31.73828125,-140.625,0.0
123.77734375,-24.90234375,-28.3203125,-46.875,30.2734375,-124.51171875,0.0
123.78125,-28.80859375,-42.48046875,-41.50390625,42.48046875,-86.42578125,0.0
123.78515625,-62.5,-4.8828125,57.6171875,23.92578125,-83.49609375,0.0
123.7890625,-30.2734375,13.671875,38.0859375,44.921875,-50.78125,0.0
123.79296875,-26.85546875,16.11328125,-34.66796875,41.50390625,-66.89453125,0.0
123.796875,-42.96875,-2.44140625,-22.94921875,11.71875,-34.1796875,0.0
123.80078125,-32.71484375,-11.71875,-20.01953125,3.90625,20.5078125,0.0
123.8046875,-24.90234375,-1.953125,-42.48046875,32.71484375,-4.8828125,0.0
123.80859375,21.484375,-3.41796875,-59.5703125,54.19921875,-43.45703125,0.0
123.8125,12.20703125,-15.13671875,-46.38671875,42.96875,-4.8828125,0.0
123.81640625,-59.5703125,-7.8125,-7.8125,35.64453125,37.109375,0.0
123.8203125,-67.87109375,-2.44140625,-18.06640625,30.2734375,-58.10546875,0.0
123.82421875,-20.5078125,-5.859375,-56.15234375,47.36328125,-10.25390625,0.0
123.828125,-18.5546875,-4.39453125,-45.8984375,47.8515625,91.796875,0.0
123.83203125,-37.59765625,-1.953125,-28.3203125,23.4375,-6.34765625,0.0
123.8359375,-40.52734375,-1.953125,-48.828125,18.06640625,-113.76953125,0.0
123.83984375,-46.38671875,-8.30078125,-79.1015625,39.0625,-61.03515625,0.0
123.84375,-40.52734375,-21.97265625,-42.48046875,53.22265625,16.6015625,0.0
123.84765625,-21.484375,-16.6015625,3.41796875,33.203125,31.73828125,0.0
123.8515625,-32.2265625,-12.6953125,-28.3203125,20.99609375,70.3125,0.0
123.85546875,-68.359375,-20.5078125,-51.7578125,24.90234375,52.734375,0.0
123.859375,-57.12890625,-56.15234375,-39.0625,37.109375,34.1796875,0.0
123.86328125,-37.59765625,-57.6171875,-56.15234375,28.3203125,60.05859375,0.0
123.8671875,-46.875,2.9296875,-63.96484375,-2.9296875,29.296875,0.0
123.87109375,-81.0546875,11.71875,-30.2734375,-29.296875,31.73828125,0.0
123.875,-105.95703125,-11.23046875,-15.13671875,-13.671875,57.6171875,0.0
123.87890625,-107.421875,-24.4140625,-42.48046875,-2.9296875,59.08203125,0.0
123.8828125,-97.16796875,-14.6484375,-37.109375,-30.76171875,48.33984375,0.0
123.88671875,-84.47265625,-10.7421875,-18.06640625,-20.5078125,41.015625,0.0
123.890625,-100.5859375,-20.99609375,-57.12890625,-22.94921875,104.4921875,0.0
123.89453125,-152.34375,-32.2265625,-33.69140625,-86.9140625,80.078125,0.0
123.8984375,-223.14453125,-29.78515625,12.20703125,-130.859375,-18.06640625,0.0
123.90234375,-216.30859375,-15.13671875,17.578125,-115.234375,-13.671875,0.0
123.90625,-195.3125,2.9296875,23.4375,-100.5859375,-54.19921875,0.0
123.91015625,-233.3984375,-21.97265625,2.44140625,-130.859375,-62.5,0.0
123.9140625,-243.1640625,-30.2734375,-45.8984375,-130.859375,-13.18359375,0.0
123.91796875,-214.84375,3.41796875,-21.484375,-135.7421875,-35.64453125,0.0
123.921875,-264.16015625,3.41796875,47.8515625,-170.41015625,-16.6015625,0.0
123.92578125,-282.71484375,3.90625,41.9921875,-186.03515625,-13.18359375,0.0
123.9296875,-235.3515625,4.39453125,26.3671875,-153.3203125,-71.77734375,0.0
123.93359375,-242.1875,4.39453125,25.87890625,-141.6015625,-95.703125,0.0
123.9375,-314.453125,3.41796875,28.3203125,-184.5703125,-108.3984375,0.0
123.94140625,-298.828125,-16.11328125,20.5078125,-157.71484375,-96.19140625,0.0
123.9453125,-220.703125,-26.85546875,1.953125,-138.18359375,-37.109375,0.0
123.94921875,-207.51953125,-23.92578125,-3.90625,-151.3671875,-29.296875,0.0
123.953125,-238.76953125,-21.97265625,14.6484375,-149.4140625,-46.38671875,0.0
123.95703125,-263.671875,-8.30078125,2.44140625,-130.859375,-63.4765625,0.0
123.9609375,-226.07421875,12.6953125,17.08984375,-91.796875,-37.59765625,0.0
123.96484375,-188.96484375,6.8359375,84.47265625,-66.40625,-84.47265625,0.0
123.96875,-145.5078125,-7.8125,67.87109375,-58.59375,-116.2109375,0.0
123.97265625,-159.66796875,-12.20703125,3.90625,-60.546875,-116.2109375,0.0
123.9765625,-174.8046875,-14.6484375,-8.7890625,-45.41015625,-83.0078125,0.0
123.98046875,-146.97265625,-24.4140625,-8.30078125,-23.92578125,-125.48828125,0.0
123.984375,-99.609375,-7.32421875,-13.18359375,14.16015625,-126.953125,0.0
123.98828125,-75.68359375,10.25390625,-6.8359375,59.5703125,-32.71484375,0.0
123.9921875,-108.3984375,-12.20703125,-20.99609375,43.9453125,-65.91796875,0.0
123.99609375,-112.3046875,-16.6015625,-22.94921875,6.8359375,-84.9609375,0.0
124.0,-100.09765625,-27.83203125,-9.27734375,13.18359375,-29.296875,0.0
124.00390625,-81.0546875,-54.6875,-18.5546875,56.15234375,-19.04296875,0.0
124.0078125,-68.359375,-35.15625,-38.0859375,84.47265625,-44.921875,0.0
124.01171875,-76.66015625,-20.5078125,-58.59375,67.3828125,-13.18359375,0.0
124.015625,-64.453125,-22.4609375,-54.6875,41.9921875,29.78515625,0.0
124.01953125,-59.08203125,-10.7421875,-68.359375,45.41015625,-13.671875,0.0
124.0234375,-78.125,-11.71875,-37.59765625,73.2421875,-73.2421875,0.0
124.02734375,-41.015625,-22.94921875,4.39453125,102.05078125,-33.69140625,0.0
124.03125,-35.64453125,-24.4140625,-34.66796875,86.9140625,-29.78515625,0.0
124.03515625,-77.63671875,-27.34375,-39.0625,87.890625,-1.46484375,0.0
124.0390625,-81.54296875,-44.43359375,-35.64453125,83.0078125,12.6953125,0.0
124.04296875,-23.92578125,-43.9453125,-37.109375,70.80078125,-50.78125,0.0
124.046875,-12.20703125,-42.96875,-54.6875,108.88671875,-36.62109375,0.0
124.05078125,-88.37890625,-42.48046875,-80.078125,113.28125,-39.0625,0.0
124.0546875,-107.91015625,-35.64453125,-77.1484375,58.59375,-50.29296875,0.0
124.05859375,-100.5859375,-41.9921875,-62.01171875,45.41015625,-50.29296875,0.0
124.0625,-92.28515625,-34.1796875,-65.91796875,64.453125,-45.8984375,0.0
124.06640625,-77.1484375,-33.203125,-66.40625,84.47265625,-17.08984375,0.0
124.0703125,-72.265625,-36.1328125,-33.203125,96.19140625,-55.17578125,0.0
124.07421875,-89.84375,-14.6484375,-49.8046875,82.03125,-161.62109375,0.0
124.078125,-87.40234375,-26.3671875,-76.171875,60.546875,-80.56640625,0.0
124.08203125,-58.59375,-56.15234375,-33.203125,66.40625,8.30078125,0.0
124.0859375,-88.37890625,-75.68359375,-36.62109375,93.26171875,-7.32421875,0.0
124.08984375,-74.21875,-62.5,-91.796875,95.21484375,-15.625,0.0
124.09375,-77.63671875,-31.25,-66.40625,65.4296875,-21.484375,0.0
124.09765625,-139.6484375,-31.25,-53.7109375,46.875,-67.3828125,0.0
124.1015625,-106.4453125,-41.9921875,-70.80078125,42.96875,-91.796875,0.0
124.10546875,-93.26171875,-49.8046875,-77.63671875,61.5234375,-62.5,0.0
124.109375,-129.39453125,-50.29296875,-91.796875,80.078125,-20.01953125,0.0
124.11328125,-118.1640625,-46.38671875,-55.6640625,71.77734375,-26.85546875,0.0
124.1171875,-97.65625,-56.15234375,-41.50390625,58.59375,-63.4765625,0.0
124.12109375,-115.72265625,-57.12890625,-76.171875,51.7578125,-59.08203125,0.0
124.125,-125.48828125,-35.15625,-48.828125,31.25,-39.55078125,0.0
124.12890625,-115.72265625,-36.1328125,-47.36328125,73.73046875,-46.38671875,0.0
124.1328125,-112.79296875,-52.734375,-83.0078125,83.0078125,-81.0546875,0.0
124.13671875,-123.046875,-61.5234375,-92.28515625,22.4609375,-20.99609375,0.0
124.140625,-108.3984375,-60.05859375,-70.3125,32.71484375,-19.04296875,0.0
124.14453125,-121.09375,-53.22265625,-63.4765625,37.59765625,26.3671875,0.0
124.1484375,-147.94921875,-39.0625,-69.82421875,21.97265625,81.0546875,0.0
124.15234375,-151.3671875,-37.59765625,-73.2421875,40.52734375,-1.46484375,0.0
124.15625,-96.19140625,-44.43359375,-69.82421875,34.66796875,-50.78125,0.0
124.16015625,-97.16796875,-39.0625,-36.1328125,28.80859375,-5.859375,0.0
124.1640625,-154.296875,-68.84765625,-39.0625,44.921875,-14.16015625,0.0
124.16796875,-124.51171875,-76.171875,-75.68359375,51.26953125,-62.01171875,0.0
124.171875,-128.41796875,-45.8984375,-53.7109375,54.19921875,-117.67578125,0.0
124.17578125,-159.1796875,-41.015625,-39.0625,33.69140625,-141.11328125,0.0
124.1796875,-144.04296875,-27.34375,-53.22265625,16.11328125,-68.84765625,0.0
124.18359375,-114.2578125,-30.2734375,-45.41015625,43.9453125,-11.71875,0.0
124.1875,-109.375,-46.38671875,-63.96484375,71.2890625,20.01953125,0.0
124.19140625,-141.11328125,-45.41015625,-51.7578125,65.4296875,60.05859375,0.0
124.1953125,-178.7109375,-39.0625,-25.390625,16.6015625,41.9921875,0.0
124.19921875,-203.61328125,-28.3203125,-22.94921875,11.71875,-38.0859375,0.0
124.203125,-157.2265625,-35.15625,-44.921875,36.1328125,-81.54296875,0.0
124.20703125,-102.5390625,-45.8984375,-49.31640625,34.1796875,4.8828125,0.0
124.2109375,-151.85546875,-38.57421875,-54.6875,37.109375,63.96484375,0.0
124.21484375,-216.796875,-36.62109375,-78.125,33.69140625,6.8359375,0.0
124.21875,-217.28515625,-35.64453125,-64.94140625,26.85546875,-36.1328125,0.0
124.22265625,-153.80859375,-27.34375,-25.390625,33.69140625,-22.94921875,0.0
124.2265625,-136.23046875,-18.06640625,-15.13671875,45.8984375,-30.76171875,0.0
