timestam,TP9,AF7,AF8,TP10,AUX,Marker
4.00390625,65.91796875,-29.78515625,-54.6875,37.59765625,-136.23046875,0.0
4.0078125,43.45703125,-34.1796875,-47.8515625,46.38671875,-94.7265625,0.0
4.01171875,88.8671875,-36.1328125,-2.9296875,62.5,-19.53125,0.0
4.015625,146.97265625,-46.38671875,-7.32421875,98.6328125,-19.53125,0.0
4.01953125,151.85546875,-65.4296875,-47.36328125,82.51953125,-11.23046875,0.0
4.0234375,73.2421875,-55.6640625,-33.69140625,63.4765625,36.62109375,0.0
4.02734375,46.38671875,-29.296875,-15.13671875,62.98828125,-20.99609375,0.0
4.03125,83.984375,-19.53125,-27.34375,54.6875,-2.9296875,0.0
4.03515625,115.72265625,-28.3203125,-33.69140625,64.453125,133.30078125,0.0
4.0390625,133.30078125,-19.04296875,-26.3671875,78.125,55.17578125,0.0
4.04296875,105.95703125,-18.5546875,-31.25,59.08203125,-90.33203125,0.0
4.046875,40.0390625,-36.1328125,-32.2265625,62.01171875,-27.83203125,0.0
4.05078125,65.91796875,-40.52734375,-41.50390625,69.82421875,38.0859375,0.0
4.0546875,105.46875,-45.41015625,-21.484375,49.8046875,31.73828125,0.0
4.05859375,79.1015625,-46.875,-1.953125,54.19921875,20.99609375,0.0
4.0625,56.15234375,-47.36328125,-29.296875,69.82421875,-38.0859375,0.0
4.06640625,47.36328125,-53.7109375,-47.36328125,39.55078125,-52.24609375,0.0
4.0703125,37.109375,-46.875,-19.53125,8.30078125,11.71875,0.0
4.07421875,71.77734375,-32.2265625,-1.46484375,41.015625,26.3671875,0.0
4.078125,85.44921875,-29.296875,-31.25,51.7578125,-68.359375,0.0
4.08203125,63.4765625,-37.59765625,-34.66796875,28.80859375,-109.86328125,0.0
4.0859375,26.3671875,-52.734375,-28.3203125,25.87890625,-73.2421875,0.0
4.08984375,17.578125,-52.24609375,-30.2734375,20.01953125,-49.8046875,0.0
4.09375,40.0390625,-44.921875,-34.1796875,35.15625,8.7890625,0.0
4.09765625,76.66015625,-40.0390625,-33.203125,37.59765625,56.15234375,0.0
4.1015625,68.359375,-32.71484375,-34.66796875,11.71875,-69.3359375,0.0
4.10546875,1.953125,-44.921875,-32.71484375,11.71875,-168.9453125,0.0
4.109375,-21.97265625,-59.08203125,-39.55078125,13.18359375,-33.69140625,0.0
4.11328125,33.69140625,-67.3828125,-32.71484375,5.37109375,102.05078125,0.0
4.1171875,74.70703125,-59.5703125,3.41796875,22.4609375,97.16796875,0.0
4.12109375,20.5078125,-33.203125,-12.20703125,9.765625,41.015625,0.0
4.125,-22.4609375,-35.64453125,-54.6875,-31.73828125,-25.390625,0.0
4.12890625,-10.25390625,-45.8984375,-39.55078125,-7.32421875,31.25,0.0
4.1328125,21.97265625,-41.9921875,-22.4609375,17.578125,137.6953125,0.0
4.13671875,39.55078125,-41.50390625,-41.50390625,-7.8125,73.73046875,0.0
4.140625,23.92578125,-40.52734375,-46.38671875,-6.8359375,-29.78515625,0.0
4.14453125,-12.20703125,-36.62109375,-53.22265625,-14.16015625,-83.0078125,0.0
4.1484375,4.39453125,-36.62109375,-50.29296875,-7.32421875,-54.6875,0.0
4.15234375,64.94140625,-37.109375,-52.734375,2.9296875,-0.48828125,0.0
4.15625,28.3203125,-43.45703125,-54.6875,-19.04296875,41.50390625,0.0
4.16015625,-8.7890625,-52.24609375,-46.38671875,-28.3203125,-10.7421875,0.0
4.1640625,-30.76171875,-62.5,-40.0390625,-20.01953125,-85.44921875,0.0
4.16796875,-54.19921875,-51.7578125,-34.1796875,-21.97265625,-139.6484375,0.0
4.171875,-7.8125,-42.48046875,-40.0390625,-58.10546875,-137.20703125,0.0
4.17578125,6.8359375,-63.96484375,-34.66796875,-64.453125,-66.40625,0.0
4.1796875,-17.08984375,-55.6640625,-36.1328125,-22.4609375,-52.24609375,0.0
4.18359375,-34.1796875,-43.9453125,-46.38671875,2.9296875,-59.08203125,0.0
4.1875,-29.296875,-45.41015625,-46.38671875,-1.953125,-35.64453125,0.0
4.19140625,-5.859375,-30.76171875,-25.87890625,-2.9296875,-2.44140625,0.0
4.1953125,13.18359375,-20.99609375,-16.11328125,21.484375,-46.875,0.0
4.19921875,26.3671875,-31.73828125,-27.34375,7.32421875,-79.1015625,0.0
4.203125,-19.53125,-35.15625,-33.203125,-22.4609375,-90.33203125,0.0
4.20703125,-56.640625,-29.296875,-4.8828125,-63.96484375,-112.3046875,0.0
4.2109375,-6.8359375,-38.57421875,-6.8359375,-28.80859375,6.8359375,0.0
4.21484375,28.3203125,-37.59765625,-33.203125,21.484375,64.94140625,0.0
4.21875,12.20703125,-28.80859375,-19.53125,-0.9765625,-17.578125,0.0
4.22265625,-2.44140625,-36.62109375,-27.34375,-23.4375,-77.1484375,0.0
4.2265625,-44.43359375,-32.71484375,-48.828125,-43.9453125,-127.44140625,0.0
4.23046875,-59.5703125,-34.66796875,-49.31640625,-32.2265625,-88.37890625,0.0
4.234375,12.20703125,-32.71484375,-40.52734375,-20.5078125,20.01953125,0.0
4.23828125,27.34375,-29.78515625,-28.3203125,-7.8125,18.5546875,0.0
4.2421875,-39.55078125,-45.41015625,-24.4140625,-19.53125,-107.91015625,0.0
4.24609375,-40.52734375,-56.15234375,-39.55078125,-36.62109375,-149.4140625,0.0
4.25,-27.83203125,-51.7578125,-20.5078125,-20.99609375,-30.76171875,0.0
4.25390625,-11.23046875,-39.55078125,8.7890625,-27.83203125,56.15234375,0.0
4.2578125,48.828125,-35.64453125,-20.99609375,-32.2265625,29.78515625,0.0
4.26171875,-8.7890625,-36.1328125,-38.0859375,-14.6484375,0.9765625,0.0
4.265625,-77.1484375,-31.73828125,-27.34375,-23.92578125,-17.578125,0.0
4.26953125,-47.8515625,-42.96875,-24.4140625,-19.04296875,15.625,0.0
4.2734375,-29.78515625,-45.41015625,-35.64453125,-32.2265625,20.01953125,0.0
4.27734375,-23.92578125,-40.0390625,-44.43359375,-47.36328125,-24.4140625,0.0
4.28125,-38.57421875,-45.8984375,-38.0859375,-41.50390625,-88.37890625,0.0
4.28515625,-65.4296875,-51.26953125,-44.921875,-53.22265625,-59.08203125,0.0
4.2890625,-56.640625,-47.8515625,-55.6640625,-71.77734375,15.625,0.0
4.29296875,-27.83203125,-47.8515625,-49.8046875,-72.75390625,-18.5546875,0.0
4.296875,-5.859375,-57.6171875,-22.4609375,-43.45703125,-95.21484375,0.0
4.30078125,-27.34375,-57.6171875,-23.92578125,-49.8046875,-128.41796875,0.0
4.3046875,-21.484375,-59.08203125,-58.59375,-58.10546875,-96.19140625,0.0
4.30859375,-40.0390625,-47.8515625,-48.828125,-46.875,-42.48046875,0.0
4.3125,-40.0390625,-21.484375,-36.62109375,-54.19921875,29.78515625,0.0
4.31640625,1.46484375,-19.53125,-32.2265625,-10.25390625,48.33984375,0.0
4.3203125,-34.66796875,-28.3203125,-21.97265625,7.32421875,-25.87890625,0.0
4.32421875,-77.1484375,-41.015625,-23.4375,-42.48046875,-52.734375,0.0
4.328125,-91.30859375,-73.73046875,-19.04296875,-64.453125,-73.2421875,0.0
4.33203125,-50.29296875,-82.03125,-7.32421875,-63.4765625,-46.38671875,0.0
4.3359375,-48.33984375,-69.82421875,0.0,-50.78125,-27.83203125,0.0
4.33984375,-60.546875,-68.359375,32.71484375,-58.10546875,-80.078125,0.0
4.34375,-102.05078125,-72.265625,53.22265625,-52.24609375,-88.8671875,0.0
4.34765625,-160.15625,-82.51953125,27.34375,-53.7109375,26.85546875,0.0
4.3515625,-147.4609375,-85.9375,22.94921875,-60.05859375,3.41796875,0.0
4.35546875,-109.375,-95.703125,51.7578125,-39.55078125,-26.85546875,0.0
4.359375,-95.703125,-104.00390625,63.4765625,-33.69140625,-68.359375,0.0
4.36328125,-106.93359375,-87.40234375,53.7109375,-37.109375,-126.46484375,0.0
4.3671875,-125.48828125,-82.51953125,45.8984375,-38.0859375,-110.83984375,0.0
4.37109375,-71.77734375,-106.4453125,52.24609375,-19.53125,-16.6015625,0.0
4.375,-32.2265625,-122.55859375,37.59765625,-27.34375,-32.71484375,0.0
4.37890625,-125.0,-131.34765625,6.34765625,-48.828125,-70.80078125,0.0
4.3828125,-153.80859375,-133.7890625,-4.39453125,-32.71484375,-57.6171875,0.0
4.38671875,-107.421875,-104.00390625,7.32421875,-42.48046875,-64.94140625,0.0
4.390625,-111.81640625,-77.1484375,7.8125,-57.6171875,-17.08984375,0.0
4.39453125,-93.26171875,-76.171875,-8.7890625,-41.9921875,36.62109375,0.0
4.3984375,-109.375,-80.56640625,-1.953125,-11.71875,48.33984375,0.0
4.40234375,-106.4453125,-80.078125,-1.953125,-28.3203125,-39.0625,0.0
4.40625,-66.89453125,-72.75390625,-14.6484375,-63.96484375,-45.8984375,0.0
4.41015625,-71.77734375,-72.75390625,-19.53125,-43.45703125,59.08203125,0.0
4.4140625,-56.15234375,-75.68359375,8.30078125,-24.4140625,21.97265625,0.0
4.41796875,-21.484375,-76.171875,15.625,-26.85546875,-21.97265625,0.0
4.421875,-52.24609375,-83.0078125,-11.23046875,-35.64453125,-40.52734375,0.0
4.42578125,-99.609375,-75.68359375,-28.3203125,-46.38671875,-84.47265625,0.0
4.4296875,-72.75390625,-65.91796875,1.953125,-35.15625,-8.30078125,0.0
4.43359375,-24.4140625,-67.87109375,12.6953125,-4.39453125,20.99609375,0.0
4.4375,-8.7890625,-57.12890625,-24.4140625,1.46484375,-24.4140625,0.0
4.44140625,-13.671875,-47.8515625,-17.578125,-1.953125,-57.12890625,0.0
4.4453125,-35.15625,-50.29296875,-19.53125,-2.44140625,-98.14453125,0.0
4.44921875,-67.87109375,-48.33984375,-14.16015625,-0.9765625,24.90234375,0.0
4.453125,-38.0859375,-41.9921875,-12.6953125,-7.8125,83.984375,0.0
4.45703125,-1.46484375,-24.4140625,-18.06640625,-9.27734375,23.4375,0.0
4.4609375,-24.4140625,-27.83203125,3.41796875,17.578125,33.69140625,0.0
4.46484375,-30.76171875,-36.62109375,11.71875,17.08984375,23.92578125,0.0
4.46875,-25.87890625,-24.90234375,-15.13671875,6.34765625,15.13671875,0.0
4.47265625,-19.04296875,-44.43359375,-22.94921875,21.484375,62.01171875,0.0
4.4765625,-10.7421875,-61.5234375,-23.4375,28.80859375,36.1328125,0.0
4.48046875,-6.8359375,-40.0390625,-24.4140625,28.80859375,-41.015625,0.0
4.484375,-31.73828125,-19.53125,-28.80859375,17.578125,-58.10546875,0.0
4.48828125,-67.87109375,-19.04296875,-36.1328125,-13.18359375,-41.015625,0.0
4.4921875,-40.52734375,-31.73828125,-10.7421875,-5.859375,15.13671875,0.0
4.49609375,-18.5546875,-46.38671875,-5.859375,20.99609375,-35.15625,0.0
4.5,-11.71875,-63.96484375,-43.9453125,18.06640625,-155.76171875,0.0
4.50390625,-40.0390625,-46.38671875,-40.0390625,10.7421875,-114.74609375,0.0
4.5078125,-67.87109375,-51.26953125,-19.04296875,12.20703125,30.76171875,0.0
4.51171875,-28.80859375,-72.75390625,-25.390625,26.85546875,55.17578125,0.0
4.515625,-4.8828125,-33.69140625,-42.48046875,31.25,7.8125,0.0
4.51953125,-36.1328125,-19.53125,-14.16015625,7.32421875,-11.71875,0.0
4.5234375,-54.6875,-22.4609375,0.9765625,-17.578125,-106.4453125,0.0
4.52734375,-51.26953125,-26.3671875,-24.4140625,-7.8125,-98.14453125,0.0
4.53125,-45.8984375,-30.76171875,-45.41015625,-7.8125,-25.87890625,0.0
4.53515625,-21.97265625,-24.90234375,-16.6015625,-29.78515625,-43.45703125,0.0
4.5390625,-24.90234375,-33.203125,22.4609375,-2.9296875,-104.98046875,0.0
4.54296875,-44.921875,-42.96875,-25.390625,-2.9296875,-151.85546875,0.0
4.546875,-64.94140625,-45.8984375,-51.26953125,-20.01953125,-116.2109375,0.0
4.55078125,-49.8046875,-39.0625,-17.578125,-25.87890625,38.57421875,0.0
4.5546875,-10.7421875,-42.48046875,-5.859375,-18.06640625,21.97265625,0.0
4.55859375,-18.5546875,-50.29296875,-42.48046875,-9.765625,-133.7890625,0.0
4.5625,-35.15625,-41.015625,-47.36328125,-6.34765625,-104.98046875,0.0
4.56640625,-16.6015625,-27.83203125,-40.52734375,-24.90234375,-74.21875,0.0
4.5703125,-2.44140625,-15.13671875,-41.50390625,-40.0390625,-8.7890625,0.0
4.57421875,-8.7890625,-17.08984375,-49.31640625,-36.62109375,87.40234375,0.0
4.578125,-11.71875,-32.2265625,-61.03515625,-36.1328125,25.390625,0.0
4.58203125,-24.90234375,-48.828125,20.5078125,-32.71484375,-61.5234375,0.0
4.5859375,-46.38671875,-45.41015625,31.73828125,-40.0390625,-91.796875,0.0
4.58984375,-35.64453125,-32.71484375,-48.828125,-35.15625,-91.30859375,0.0
4.59375,-27.34375,-41.50390625,-36.1328125,-38.0859375,21.484375,0.0
4.59765625,20.01953125,-36.1328125,-30.2734375,0.0,-11.71875,0.0
4.6015625,21.97265625,-14.6484375,-42.48046875,24.90234375,-85.44921875,0.0
4.60546875,-74.21875,-13.671875,-55.6640625,-54.19921875,-4.8828125,0.0
4.609375,-66.40625,-12.20703125,-67.87109375,-97.16796875,22.94921875,0.0
4.61328125,-6.8359375,0.9765625,-68.84765625,-54.19921875,31.73828125,0.0
4.6171875,-20.01953125,8.7890625,-74.70703125,-57.6171875,-8.30078125,0.0
4.62109375,-66.40625,-1.46484375,-92.28515625,-75.68359375,-90.8203125,0.0
4.625,-75.68359375,-5.37109375,-77.63671875,-83.984375,-111.328125,0.0
4.62890625,-50.78125,9.27734375,-51.26953125,-89.84375,-73.73046875,0.0
4.6328125,-33.69140625,20.01953125,-87.40234375,-81.54296875,20.99609375,0.0
4.63671875,-21.97265625,17.08984375,-123.53515625,-74.21875,-9.27734375,0.0
4.640625,-15.625,29.296875,-82.03125,-65.4296875,-96.19140625,0.0
4.64453125,-21.97265625,45.8984375,-63.4765625,-61.5234375,-102.05078125,0.0
4.6484375,-42.48046875,39.0625,-104.00390625,-83.984375,-25.390625,0.0
4.65234375,-7.8125,40.0390625,-110.83984375,-87.40234375,38.57421875,0.0
4.65625,2.9296875,38.0859375,-107.91015625,-68.359375,-46.875,0.0
4.66015625,-34.66796875,28.80859375,-98.14453125,-56.640625,-118.65234375,0.0
4.6640625,-50.78125,19.53125,-97.16796875,-46.38671875,-140.625,0.0
4.66796875,-40.0390625,14.6484375,-104.00390625,-43.9453125,-54.19921875,0.0
4.671875,-25.390625,9.765625,-48.33984375,-46.875,14.6484375,0.0
4.67578125,3.90625,24.90234375,-45.41015625,-51.26953125,5.859375,0.0
4.6796875,-17.578125,29.296875,-102.05078125,-52.24609375,17.578125,0.0
4.68359375,-62.01171875,16.11328125,-79.58984375,-62.98828125,-27.34375,0.0
4.6875,-57.12890625,-3.90625,-49.8046875,-65.91796875,48.828125,0.0
4.69140625,-1.46484375,-16.6015625,-74.21875,-43.9453125,141.11328125,0.0
4.6953125,9.765625,-7.32421875,-76.171875,-28.80859375,38.57421875,0.0
4.69921875,-32.2265625,4.8828125,-43.9453125,-14.16015625,-8.30078125,0.0
4.703125,-38.57421875,-15.13671875,-54.6875,-35.15625,0.48828125,0.0
4.70703125,-41.9921875,-29.296875,-65.4296875,-37.109375,10.25390625,0.0
4.7109375,-29.78515625,-2.9296875,-66.89453125,-19.53125,-6.34765625,0.0
4.71484375,-4.39453125,-0.9765625,-39.0625,-12.20703125,-81.54296875,0.0
4.71875,-2.9296875,-8.7890625,-20.01953125,7.32421875,-118.65234375,0.0
4.72265625,3.41796875,1.953125,-60.05859375,10.25390625,-122.0703125,0.0
4.7265625,-16.11328125,1.953125,-66.89453125,-9.765625,-108.88671875,0.0
4.73046875,-8.7890625,-14.6484375,-23.4375,-3.90625,23.4375,0.0
4.734375,34.66796875,-27.83203125,11.71875,16.11328125,83.984375,0.0
4.73828125,31.25,-28.80859375,-32.71484375,10.25390625,33.69140625,0.0
4.7421875,2.44140625,-30.2734375,-53.7109375,8.7890625,14.16015625,0.0
4.74609375,-12.20703125,-23.4375,-35.15625,12.20703125,-15.625,0.0
4.75,6.34765625,-12.20703125,-36.1328125,9.27734375,-8.7890625,0.0
4.75390625,46.38671875,-12.20703125,-42.96875,5.37109375,28.80859375,0.0
4.7578125,67.3828125,-4.8828125,-36.62109375,23.92578125,71.77734375,0.0
4.76171875,43.9453125,18.06640625,15.13671875,26.3671875,39.55078125,0.0
4.765625,3.41796875,4.8828125,10.7421875,13.18359375,-94.23828125,0.0
4.76953125,-3.41796875,-25.87890625,-51.7578125,-0.48828125,-17.08984375,0.0
4.7734375,11.23046875,-20.5078125,-53.22265625,-10.7421875,84.47265625,0.0
4.77734375,24.4140625,-12.6953125,-38.57421875,-8.7890625,-86.42578125,0.0
4.78125,4.8828125,-21.97265625,-35.64453125,-8.30078125,-208.49609375,0.0
4.78515625,-28.3203125,-34.66796875,-38.57421875,3.41796875,-197.75390625,0.0
4.7890625,-16.11328125,-26.3671875,-41.50390625,-4.8828125,-85.44921875,0.0
4.79296875,9.27734375,-17.578125,-31.25,-9.27734375,-71.2890625,0.0
4.796875,5.37109375,-23.4375,-22.4609375,6.34765625,-31.73828125,0.0
4.80078125,-3.90625,-41.50390625,-46.38671875,-19.53125,13.18359375,0.0
4.8046875,-37.109375,-49.8046875,-33.203125,-37.109375,-102.05078125,0.0
4.80859375,-35.64453125,-40.0390625,20.5078125,-46.875,-112.3046875,0.0
4.8125,-5.859375,-29.296875,-12.6953125,-43.9453125,-46.38671875,0.0
4.81640625,8.30078125,-34.66796875,-41.9921875,-12.6953125,-60.05859375,0.0
4.8203125,-17.08984375,-49.8046875,-30.76171875,-22.4609375,-108.88671875,0.0
4.82421875,-49.8046875,-52.24609375,-41.9921875,-62.5,-84.9609375,0.0
4.828125,-44.921875,-46.875,-47.8515625,-54.6875,-15.625,0.0
4.83203125,-49.31640625,-30.2734375,-44.921875,-18.06640625,69.82421875,0.0
4.8359375,-19.04296875,-27.83203125,-34.66796875,-12.20703125,54.19921875,0.0
4.83984375,-15.13671875,-33.69140625,-37.59765625,-33.203125,-67.87109375,0.0
4.84375,-53.22265625,-35.15625,-44.921875,-62.01171875,-99.12109375,0.0
4.84765625,-56.640625,-46.38671875,-41.015625,-71.77734375,-1.46484375,0.0
4.8515625,-12.20703125,-23.4375,7.32421875,-41.50390625,47.36328125,0.0
4.85546875,7.32421875,-11.23046875,20.01953125,-31.25,-34.1796875,0.0
4.859375,-23.4375,-39.0625,-38.0859375,-47.36328125,-81.54296875,0.0
4.86328125,-36.1328125,-46.38671875,-41.9921875,-49.8046875,-62.01171875,0.0
4.8671875,-58.59375,-44.43359375,-30.76171875,-67.3828125,-22.4609375,0.0
4.87109375,-48.33984375,-44.43359375,-48.828125,-65.91796875,-44.921875,0.0
4.875,-16.6015625,-45.8984375,-55.6640625,-43.45703125,-37.59765625,0.0
4.87890625,-43.9453125,-40.52734375,-39.55078125,-40.52734375,-70.3125,0.0
4.8828125,-96.19140625,-46.875,-26.85546875,-29.296875,-167.48046875,0.0
4.88671875,-104.4921875,-41.9921875,-33.69140625,-44.921875,-41.9921875,0.0
4.890625,-66.40625,-27.83203125,-35.64453125,-44.921875,125.48828125,0.0
4.89453125,-37.109375,-16.11328125,-26.85546875,-7.32421875,146.484375,0.0
4.8984375,-34.1796875,-16.11328125,-34.1796875,-34.66796875,67.87109375,0.0
4.90234375,-50.78125,-22.4609375,-33.203125,-44.921875,-57.6171875,0.0
4.90625,-55.6640625,-32.71484375,-33.203125,-26.85546875,-115.234375,0.0
4.91015625,-24.4140625,-20.01953125,11.23046875,-11.23046875,-0.48828125,0.0
4.9140625,17.578125,-5.859375,61.5234375,0.9765625,-47.8515625,0.0
4.91796875,11.23046875,-17.578125,4.39453125,-16.11328125,-109.86328125,0.0
4.921875,-13.18359375,-17.08984375,-22.4609375,-10.7421875,-43.45703125,0.0
4.92578125,-28.3203125,-35.15625,18.5546875,-3.90625,-27.34375,0.0
4.9296875,-54.19921875,-33.203125,20.99609375,-5.37109375,-3.41796875,0.0
4.93359375,-35.64453125,-21.97265625,-4.8828125,3.41796875,-7.32421875,0.0
4.9375,-26.85546875,-30.2734375,0.9765625,-14.16015625,-12.20703125,0.0
4.94140625,-47.36328125,-42.48046875,12.6953125,-11.23046875,-109.86328125,0.0
4.9453125,-74.21875,-55.17578125,12.6953125,-9.27734375,-154.78515625,0.0
4.94921875,-60.05859375,-62.98828125,17.08984375,-20.01953125,-101.5625,0.0
4.953125,-35.64453125,-74.70703125,33.69140625,-26.85546875,-14.16015625,0.0
4.95703125,-41.50390625,-83.49609375,71.2890625,-20.01953125,-49.8046875,0.0
4.9609375,-50.78125,-78.61328125,68.84765625,-21.484375,-135.25390625,0.0
4.96484375,-76.171875,-74.21875,31.73828125,-44.43359375,-182.12890625,0.0
4.96875,-39.0625,-77.1484375,39.0625,-40.52734375,-120.1171875,0.0
4.97265625,6.34765625,-73.73046875,56.15234375,-24.90234375,54.19921875,0.0
4.9765625,-53.7109375,-77.63671875,35.15625,-22.94921875,13.671875,0.0
4.98046875,-114.2578125,-95.703125,16.11328125,-46.38671875,-109.375,0.0
4.984375,-110.3515625,-84.9609375,9.765625,-50.29296875,-103.02734375,0.0
4.98828125,-85.9375,-62.01171875,5.37109375,-46.875,-34.1796875,0.0
4.9921875,-57.6171875,-52.734375,6.34765625,-44.921875,40.0390625,0.0
4.99609375,-9.27734375,-54.19921875,0.0,-21.97265625,45.41015625,0.0
5.0,17.578125,-62.5,30.76171875,-12.20703125,-30.76171875,0.0
5.00390625,-32.2265625,-62.98828125,47.8515625,-11.23046875,-65.4296875,0.0
5.0078125,-53.22265625,-49.31640625,10.7421875,-19.53125,21.484375,0.0
5.01171875,-32.71484375,-32.2265625,-1.953125,-27.34375,43.45703125,0.0
5.015625,-19.53125,-32.71484375,48.828125,-33.69140625,-1.953125,0.0
5.01953125,-25.87890625,-40.52734375,75.68359375,-21.484375,-35.64453125,0.0
5.0234375,-51.26953125,-40.52734375,14.16015625,-18.5546875,-53.22265625,0.0
5.02734375,-61.5234375,-47.8515625,-3.90625,-35.64453125,52.734375,0.0
5.03125,-60.546875,-52.734375,-9.765625,-49.8046875,22.4609375,0.0
5.03515625,-55.6640625,-61.03515625,-12.6953125,-37.59765625,-59.5703125,0.0
5.0390625,-60.546875,-60.05859375,-14.6484375,-30.2734375,-26.85546875,0.0
5.04296875,-28.80859375,-42.48046875,-26.85546875,-44.43359375,-58.10546875,0.0
5.046875,-49.8046875,-47.8515625,1.953125,-50.29296875,-40.52734375,0.0
5.05078125,-53.7109375,-49.31640625,-2.9296875,-32.71484375,35.64453125,0.0
5.0546875,-32.2265625,-44.43359375,-29.78515625,-15.13671875,-30.2734375,0.0
5.05859375,-57.12890625,-43.9453125,-21.97265625,-34.66796875,-126.953125,0.0
5.0625,-50.78125,-28.3203125,-28.80859375,-50.29296875,-85.44921875,0.0
5.06640625,-74.21875,-41.015625,-29.78515625,-20.99609375,12.6953125,0.0
5.0703125,-81.54296875,-48.828125,-34.66796875,-22.4609375,-0.9765625,0.0
5.07421875,-40.52734375,-26.3671875,-12.6953125,-48.828125,-50.29296875,0.0
5.078125,-4.8828125,-15.13671875,2.9296875,-31.73828125,-57.12890625,0.0
5.08203125,-40.52734375,-17.578125,-22.4609375,-47.36328125,-5.859375,0.0
5.0859375,-64.453125,-19.53125,-42.48046875,-65.91796875,-10.25390625,0.0
5.08984375,-59.08203125,-19.53125,-17.08984375,-47.36328125,-72.75390625,0.0
5.09375,-31.25,-22.94921875,24.90234375,-33.203125,-9.27734375,0.0
5.09765625,-5.859375,-29.78515625,-25.87890625,-37.59765625,-6.8359375,0.0
5.1015625,-64.453125,-31.25,-59.08203125,-39.0625,-54.19921875,0.0
5.10546875,-102.05078125,-39.55078125,-50.29296875,-63.96484375,-56.640625,0.0
5.109375,-74.21875,-57.12890625,-40.52734375,-75.1953125,-80.078125,0.0
5.11328125,-4.39453125,-48.33984375,-44.921875,-63.96484375,30.2734375,0.0
5.1171875,-2.44140625,-19.53125,-53.22265625,-52.24609375,103.515625,0.0
5.12109375,-104.98046875,-16.11328125,-44.43359375,-68.84765625,-49.8046875,0.0
5.125,-121.58203125,-44.43359375,-48.828125,-75.68359375,-174.31640625,0.0
5.12890625,-44.921875,-36.62109375,-55.17578125,-52.24609375,-83.984375,0.0
5.1328125,-6.34765625,-13.18359375,-48.33984375,-30.76171875,-38.57421875,0.0
5.13671875,-28.3203125,-17.08984375,-33.203125,-48.828125,-121.09375,0.0
5.140625,-60.05859375,-20.01953125,-21.97265625,-62.01171875,-183.10546875,0.0
5.14453125,-83.49609375,-29.296875,-52.24609375,-57.12890625,-82.51953125,0.0
5.1484375,-73.2421875,-37.109375,-51.7578125,-63.4765625,56.15234375,0.0
5.15234375,-54.19921875,-28.3203125,-46.38671875,-65.4296875,67.87109375,0.0
5.15625,-70.80078125,-35.15625,-67.3828125,-58.10546875,10.25390625,0.0
5.16015625,11.23046875,-37.109375,-64.94140625,-40.0390625,-87.40234375,0.0
5.1640625,-9.765625,-35.15625,-52.734375,-46.38671875,-140.13671875,0.0
5.16796875,-106.93359375,-51.26953125,-62.01171875,-60.05859375,-94.7265625,0.0
5.171875,-41.50390625,-48.828125,-69.82421875,-38.0859375,52.24609375,0.0
5.17578125,-5.37109375,-15.625,-66.40625,-41.50390625,45.8984375,0.0
5.1796875,-32.2265625,-13.671875,-42.48046875,-51.26953125,-154.296875,0.0
5.18359375,-63.96484375,-34.66796875,-36.62109375,-47.36328125,-212.890625,0.0
5.1875,-57.6171875,-32.2265625,-65.91796875,-47.8515625,-73.2421875,0.0
5.19140625,-19.53125,-26.3671875,-60.546875,-29.78515625,134.27734375,0.0
5.1953125,28.80859375,-23.4375,-42.48046875,-24.90234375,95.21484375,0.0
5.19921875,-9.27734375,-37.109375,-38.0859375,-20.5078125,-39.55078125,0.0
5.203125,-36.62109375,-45.41015625,-52.24609375,-5.859375,-49.31640625,0.0
5.20703125,-6.34765625,-18.5546875,-62.01171875,3.90625,-25.87890625,0.0
5.2109375,-25.87890625,-11.71875,-35.64453125,-7.8125,0.0,0.0
5.21484375,-33.203125,-26.85546875,-23.92578125,-14.16015625,0.0,0.0
5.21875,22.94921875,-24.4140625,-31.25,-4.39453125,-44.43359375,0.0
5.22265625,-14.6484375,-34.66796875,-23.4375,-6.34765625,-85.44921875,0.0
5.2265625,-84.47265625,-49.8046875,-34.1796875,-22.94921875,-55.6640625,0.0
5.23046875,-19.53125,-38.57421875,-36.1328125,-7.8125,-103.02734375,0.0
5.234375,40.52734375,-29.296875,-24.90234375,-0.48828125,-132.32421875,0.0
5.23828125,1.46484375,-34.1796875,-36.62109375,-19.53125,-127.44140625,0.0
5.2421875,-50.78125,-22.4609375,0.9765625,-25.390625,-103.515625,0.0
5.24609375,-67.3828125,-14.6484375,-3.41796875,-27.34375,-56.640625,0.0
5.25,-29.78515625,-19.53125,-50.29296875,-34.1796875,21.97265625,0.0
5.25390625,-9.27734375,-27.34375,-37.59765625,-30.2734375,92.28515625,0.0
5.2578125,-23.92578125,-32.2265625,-33.203125,-24.90234375,160.15625,0.0
5.26171875,-21.97265625,-34.66796875,-56.640625,-37.109375,90.8203125,0.0
5.265625,-33.203125,-35.64453125,-67.87109375,-27.83203125,56.15234375,0.0
5.26953125,-28.3203125,-29.296875,-50.78125,-41.9921875,147.94921875,0.0
5.2734375,-21.97265625,-34.66796875,-35.15625,-56.15234375,97.65625,0.0
5.27734375,-41.50390625,-35.64453125,-37.109375,-50.29296875,-6.8359375,0.0
5.28125,-66.89453125,-43.9453125,-47.8515625,-63.4765625,-1.953125,0.0
5.28515625,-67.3828125,-60.05859375,-37.59765625,-65.4296875,-68.359375,0.0
5.2890625,-69.3359375,-58.10546875,-21.97265625,-58.10546875,-24.4140625,0.0
5.29296875,-35.15625,-45.8984375,-16.11328125,-31.73828125,97.65625,0.0
5.296875,6.8359375,-33.69140625,-25.87890625,-23.4375,-7.8125,0.0
5.30078125,-22.94921875,-27.34375,-33.203125,-40.52734375,-125.9765625,0.0
5.3046875,-79.1015625,-41.50390625,-25.87890625,-51.26953125,-71.77734375,0.0
5.30859375,-49.8046875,-45.8984375,-34.1796875,-44.43359375,-0.48828125,0.0
5.3125,-18.5546875,-41.9921875,-33.69140625,-34.66796875,43.45703125,0.0
5.31640625,-34.66796875,-22.4609375,-29.296875,-21.97265625,2.44140625,0.0
5.3203125,-35.64453125,-10.25390625,-36.62109375,-18.5546875,-98.6328125,0.0
5.32421875,-48.33984375,-60.546875,-44.43359375,-37.109375,-115.234375,0.0
5.328125,-33.69140625,-55.6640625,-45.41015625,-36.1328125,-22.4609375,0.0
5.33203125,-18.5546875,-7.8125,-19.53125,-27.34375,8.30078125,0.0
5.3359375,-12.20703125,-5.37109375,-14.6484375,-21.484375,-26.85546875,0.0
5.33984375,-25.87890625,-4.8828125,-35.64453125,-41.9921875,-73.2421875,0.0
5.34375,-45.8984375,-0.9765625,-43.45703125,-44.43359375,-93.75,0.0
5.34765625,-24.90234375,-9.765625,-47.36328125,-37.59765625,-96.6796875,0.0
5.3515625,0.48828125,-16.6015625,-43.45703125,-36.62109375,-71.2890625,0.0
5.35546875,-4.39453125,-29.78515625,-43.45703125,-32.2265625,5.859375,0.0
5.359375,1.953125,-47.36328125,-19.04296875,-28.3203125,-22.94921875,0.0
5.36328125,1.46484375,-26.85546875,-17.08984375,-36.1328125,-140.625,0.0
5.3671875,-51.7578125,-20.99609375,-56.15234375,-50.29296875,-87.40234375,0.0
5.37109375,-58.10546875,-38.57421875,-64.94140625,-38.0859375,44.43359375,0.0
5.375,-44.921875,-34.1796875,-12.20703125,-30.2734375,43.45703125,0.0
5.37890625,-55.17578125,-20.5078125,30.76171875,-32.2265625,-72.265625,0.0
5.3828125,-65.4296875,-24.4140625,-27.34375,-29.78515625,-138.18359375,0.0
5.38671875,-65.4296875,-30.76171875,-54.6875,-34.66796875,3.41796875,0.0
5.390625,-58.10546875,-35.64453125,-37.109375,-25.87890625,81.0546875,0.0
5.39453125,-25.87890625,-31.73828125,-32.2265625,-20.01953125,81.54296875,0.0
5.3984375,-12.6953125,-21.97265625,-47.8515625,-23.4375,34.1796875,0.0
5.40234375,-33.69140625,-21.97265625,-49.31640625,-36.1328125,-69.3359375,0.0
5.40625,-64.453125,-26.85546875,-49.8046875,-53.7109375,-39.55078125,0.0
5.41015625,-50.29296875,-28.3203125,-50.29296875,-49.31640625,126.953125,0.0
5.4140625,-33.69140625,-36.62109375,-45.41015625,-42.96875,138.18359375,0.0
5.41796875,-33.203125,-39.55078125,-50.78125,-28.3203125,36.1328125,0.0
5.421875,-50.29296875,-23.92578125,6.8359375,-25.87890625,-60.05859375,0.0
5.42578125,-88.8671875,-14.6484375,8.7890625,-40.52734375,-92.28515625,0.0
5.4296875,-81.0546875,-17.08984375,-64.94140625,-53.7109375,-0.9765625,0.0
5.43359375,-41.50390625,-16.6015625,-59.5703125,-43.9453125,-8.7890625,0.0
5.4375,-42.96875,-10.25390625,-63.96484375,-34.1796875,-18.06640625,0.0
5.44140625,-64.453125,-9.765625,-59.5703125,-42.96875,-39.55078125,0.0
5.4453125,-82.03125,-26.85546875,-41.015625,-52.24609375,-50.29296875,0.0
5.44921875,-52.24609375,-30.76171875,-32.71484375,-53.7109375,6.34765625,0.0
5.453125,-31.25,-20.01953125,-27.83203125,-52.24609375,-55.6640625,0.0
5.45703125,-68.84765625,-33.69140625,-32.2265625,-52.24609375,-60.546875,0.0
5.4609375,-96.19140625,-38.57421875,-42.96875,-53.22265625,-98.6328125,0.0
5.46484375,-112.79296875,-24.90234375,-38.57421875,-65.91796875,-150.87890625,0.0
5.46875,-79.1015625,-26.85546875,-9.765625,-56.640625,-85.9375,0.0
5.47265625,-22.4609375,-43.45703125,-28.80859375,-46.38671875,-26.85546875,0.0
5.4765625,-15.625,-37.59765625,-52.24609375,-35.64453125,-112.3046875,0.0
5.48046875,-38.0859375,-7.8125,-40.52734375,-46.38671875,-190.4296875,0.0
5.484375,-73.73046875,-2.44140625,-48.828125,-74.70703125,-84.9609375,0.0
5.48828125,-64.94140625,-19.53125,-58.10546875,-64.453125,35.64453125,0.0
5.4921875,-37.109375,-23.92578125,-49.31640625,-50.78125,86.42578125,0.0
5.49609375,-41.9921875,-24.90234375,-41.9921875,-62.5,66.40625,0.0
5.5,-47.36328125,-27.83203125,-50.78125,-71.2890625,-44.43359375,0.0
5.50390625,-46.875,-28.3203125,-57.12890625,-58.59375,-90.33203125,0.0
5.5078125,-76.66015625,-30.2734375,-59.08203125,-47.8515625,43.9453125,0.0
5.51171875,-69.82421875,-27.83203125,-38.0859375,-55.17578125,110.83984375,0.0
5.515625,-42.96875,-33.203125,-26.85546875,-57.12890625,58.59375,0.0
5.51953125,-33.69140625,-37.59765625,-50.78125,-57.6171875,-14.16015625,0.0
5.5234375,-50.78125,-50.29296875,-45.8984375,-51.7578125,-67.87109375,0.0
5.52734375,-64.453125,-62.01171875,-45.41015625,-52.734375,-47.8515625,0.0
5.53125,-57.12890625,-43.9453125,-64.453125,-64.94140625,-61.5234375,0.0
5.53515625,-52.24609375,-34.1796875,-62.01171875,-69.82421875,-55.17578125,0.0
5.5390625,-59.5703125,-46.875,-53.22265625,-80.56640625,-71.2890625,0.0
5.54296875,-62.98828125,-53.22265625,-57.12890625,-95.703125,-105.95703125,0.0
5.546875,-72.75390625,-52.734375,-54.6875,-90.33203125,-20.01953125,0.0
5.55078125,-33.203125,-38.0859375,-49.8046875,-57.12890625,39.0625,0.0
5.5546875,-4.39453125,-31.25,-37.109375,-42.96875,63.4765625,0.0
5.55859375,-49.8046875,-33.203125,-27.34375,-41.9921875,39.55078125,0.0
5.5625,-56.640625,-30.2734375,-41.50390625,-48.33984375,2.9296875,0.0
5.56640625,-58.59375,-31.25,-41.015625,-53.7109375,-31.25,0.0
5.5703125,-32.2265625,-26.85546875,-29.78515625,-36.1328125,-0.48828125,0.0
5.57421875,38.57421875,-20.01953125,-32.71484375,5.859375,45.41015625,0.0
5.578125,48.828125,-23.4375,-27.83203125,25.87890625,-28.3203125,0.0
5.58203125,-33.69140625,-35.15625,-31.25,-16.6015625,-110.83984375,0.0
5.5859375,-41.9921875,-38.57421875,-1.953125,-19.04296875,-104.98046875,0.0
5.58984375,26.3671875,-36.1328125,29.296875,26.3671875,-34.1796875,0.0
5.59375,23.4375,-44.921875,-0.48828125,14.16015625,43.45703125,0.0
5.59765625,-24.90234375,-58.59375,2.9296875,0.0,94.23828125,0.0
5.6015625,-23.92578125,-60.05859375,14.6484375,-0.48828125,59.5703125,0.0
5.60546875,-28.80859375,-58.59375,13.671875,-5.859375,-32.71484375,0.0
5.609375,-6.8359375,-58.59375,20.99609375,18.5546875,-66.40625,0.0
5.61328125,40.52734375,-51.7578125,35.15625,28.80859375,-46.875,0.0
5.6171875,20.01953125,-49.8046875,43.45703125,0.48828125,-81.0546875,0.0
5.62109375,-21.484375,-68.359375,35.64453125,4.39453125,-107.421875,0.0
5.625,-43.45703125,-77.1484375,33.203125,24.4140625,-52.24609375,0.0
5.62890625,-41.015625,-76.171875,30.2734375,13.671875,-70.3125,0.0
5.6328125,-3.90625,-69.3359375,13.671875,17.578125,-97.65625,0.0
5.63671875,-12.20703125,-52.24609375,12.20703125,30.76171875,-97.16796875,0.0
5.640625,-44.921875,-53.22265625,19.53125,5.37109375,-79.1015625,0.0
5.64453125,-59.5703125,-63.96484375,7.8125,-18.06640625,-78.125,0.0
5.6484375,-41.015625,-56.640625,11.71875,0.9765625,-35.64453125,0.0
5.65234375,6.8359375,-48.33984375,27.34375,0.48828125,104.98046875,0.0
5.65625,20.01953125,-54.19921875,35.15625,15.625,85.9375,0.0
5.66015625,-19.04296875,-53.22265625,44.921875,32.71484375,-45.8984375,0.0
5.6640625,-85.44921875,-37.59765625,11.71875,-12.6953125,-65.4296875,0.0
5.66796875,-80.078125,-33.203125,-6.8359375,-18.06640625,13.18359375,0.0
5.671875,-23.4375,-27.34375,-4.8828125,-0.9765625,-44.43359375,0.0
5.67578125,-15.625,-36.1328125,31.73828125,-8.30078125,-46.38671875,0.0
5.6796875,-25.390625,-47.36328125,43.45703125,-17.578125,-36.62109375,0.0
5.68359375,-42.48046875,-40.52734375,-17.578125,-32.71484375,-138.18359375,0.0
5.6875,-76.171875,-41.50390625,-19.04296875,-34.1796875,-205.56640625,0.0
5.69140625,-7.32421875,-44.921875,1.953125,-14.6484375,-163.57421875,0.0
5.6953125,34.1796875,-44.43359375,-7.32421875,12.20703125,-59.08203125,0.0
5.69921875,-47.36328125,-52.24609375,-15.625,-2.9296875,-138.671875,0.0
5.703125,-61.5234375,-21.97265625,-2.9296875,-21.97265625,-263.671875,0.0
5.70703125,-55.6640625,-14.6484375,12.20703125,-28.80859375,-230.46875,0.0
5.7109375,-15.625,-40.0390625,1.953125,-26.3671875,-205.078125,0.0
5.71484375,28.80859375,-45.8984375,-13.18359375,-8.30078125,-139.16015625,0.0
5.71875,-32.71484375,-31.73828125,-5.859375,-4.39453125,-68.359375,0.0
5.72265625,-47.8515625,-19.53125,-6.34765625,-14.6484375,-115.72265625,0.0
5.7265625,-33.69140625,-14.6484375,-13.18359375,-28.3203125,-91.796875,0.0
5.73046875,-46.38671875,-18.06640625,-22.4609375,-50.29296875,48.828125,0.0
5.734375,-17.08984375,-41.9921875,-27.83203125,-22.94921875,51.26953125,0.0
5.73828125,-3.90625,-41.015625,-35.15625,-0.48828125,-4.8828125,0.0
5.7421875,-62.01171875,-29.78515625,-34.66796875,-33.69140625,-60.546875,0.0
5.74609375,-82.51953125,-30.76171875,-21.484375,-60.05859375,-41.9921875,0.0
5.75,-34.1796875,-35.15625,19.53125,-43.45703125,46.875,0.0
5.75390625,-16.11328125,-30.2734375,61.03515625,-23.4375,45.41015625,0.0
5.7578125,-24.90234375,-24.90234375,6.8359375,-20.01953125,39.55078125,0.0
5.76171875,-49.31640625,-35.64453125,-32.71484375,-24.4140625,-31.25,0.0
5.765625,-42.48046875,-18.06640625,-1.953125,-29.296875,-162.59765625,0.0
5.76953125,-32.2265625,-22.4609375,5.37109375,-14.16015625,-134.27734375,0.0
5.7734375,-35.64453125,-53.22265625,-29.296875,-21.97265625,-77.1484375,0.0
5.77734375,8.30078125,-41.9921875,-53.22265625,-28.3203125,-140.625,0.0
5.78125,10.25390625,-26.85546875,-65.91796875,-14.6484375,-210.9375,0.0
5.78515625,-53.22265625,-22.94921875,-39.55078125,-31.25,-194.82421875,0.0
5.7890625,-41.9921875,-20.01953125,-13.18359375,-47.8515625,-105.46875,0.0
5.79296875,-4.39453125,-14.16015625,-30.2734375,-25.390625,-136.23046875,0.0
5.796875,-17.578125,-6.8359375,-4.8828125,-14.6484375,-209.9609375,0.0
5.80078125,-43.9453125,-30.76171875,0.48828125,-39.55078125,-130.37109375,0.0
5.8046875,-50.29296875,-42.48046875,-55.6640625,-28.80859375,-16.11328125,0.0
5.80859375,-40.52734375,-27.34375,-56.640625,-16.6015625,85.9375,0.0
5.8125,9.27734375,-16.11328125,-36.1328125,-42.48046875,178.22265625,0.0
5.81640625,0.9765625,-18.06640625,-43.45703125,-42.96875,120.60546875,0.0
5.8203125,-72.75390625,-30.76171875,-43.9453125,-40.0390625,-47.8515625,0.0
5.82421875,-79.58984375,-31.25,-25.87890625,-52.24609375,-117.1875,0.0
5.828125,-69.82421875,-18.06640625,-17.08984375,-48.828125,-53.7109375,0.0
5.83203125,-34.1796875,-17.08984375,-25.390625,-39.55078125,20.99609375,0.0
5.8359375,1.46484375,-38.57421875,-52.734375,-36.1328125,24.90234375,0.0
5.83984375,0.48828125,-26.3671875,-34.1796875,-24.4140625,-49.31640625,0.0
5.84375,-35.15625,-16.11328125,-7.8125,-36.1328125,-43.9453125,0.0
5.84765625,-87.890625,-27.83203125,-40.52734375,-58.59375,-38.57421875,0.0
5.8515625,-66.89453125,-29.78515625,-51.26953125,-42.96875,-43.9453125,0.0
5.85546875,-9.27734375,-39.0625,-23.4375,-17.08984375,-1.46484375,0.0
5.859375,-22.4609375,-39.55078125,-21.97265625,-19.53125,12.6953125,0.0
5.86328125,-62.5,-27.83203125,-41.50390625,-33.69140625,-0.48828125,0.0
5.8671875,-61.5234375,-20.5078125,-34.66796875,-57.12890625,69.82421875,0.0
5.87109375,-41.015625,-19.04296875,-31.73828125,-65.4296875,127.9296875,0.0
5.875,-11.23046875,-18.06640625,-41.015625,-41.9921875,82.51953125,0.0
5.87890625,-5.859375,-30.76171875,-43.9453125,-36.1328125,-59.08203125,0.0
5.8828125,-67.87109375,-33.203125,-27.34375,-42.48046875,-106.4453125,0.0
5.88671875,-97.16796875,-32.2265625,-11.23046875,-56.15234375,-26.85546875,0.0
5.890625,-68.84765625,-36.1328125,-22.94921875,-48.828125,33.203125,0.0
5.89453125,-5.859375,-17.08984375,-35.15625,-0.48828125,82.03125,0.0
5.8984375,20.5078125,-11.71875,-45.8984375,-1.46484375,12.20703125,0.0
5.90234375,-50.78125,-28.80859375,-53.7109375,-63.4765625,-93.26171875,0.0
5.90625,-96.6796875,-24.4140625,-54.19921875,-93.75,-11.71875,0.0
5.91015625,-90.33203125,-19.53125,-71.77734375,-101.07421875,101.07421875,0.0
5.9140625,-66.40625,-14.6484375,-64.453125,-81.0546875,85.9375,0.0
5.91796875,-38.57421875,3.41796875,-64.94140625,-65.4296875,17.08984375,0.0
5.921875,-81.54296875,4.39453125,-98.6328125,-88.37890625,-65.91796875,0.0
5.92578125,-135.25390625,12.20703125,-112.79296875,-118.65234375,-50.29296875,0.0
5.9296875,-109.86328125,4.8828125,-114.74609375,-110.83984375,42.48046875,0.0
5.93359375,-60.546875,-0.48828125,-115.234375,-87.40234375,99.609375,0.0
5.9375,-62.01171875,20.5078125,-117.67578125,-96.19140625,61.03515625,0.0
5.94140625,-69.82421875,31.25,-117.1875,-100.09765625,-60.05859375,0.0
5.9453125,-75.68359375,31.73828125,-93.75,-95.21484375,-133.7890625,0.0
5.94921875,-50.29296875,16.11328125,-83.984375,-99.609375,-9.765625,0.0
5.953125,-19.04296875,4.8828125,-114.74609375,-92.28515625,0.48828125,0.0
5.95703125,-55.17578125,5.859375,-114.74609375,-86.9140625,-96.19140625,0.0
5.9609375,-86.9140625,0.0,-77.1484375,-83.0078125,-87.890625,0.0
5.96484375,-98.14453125,-25.87890625,-74.21875,-75.68359375,-30.76171875,0.0
5.96875,-88.37890625,-22.94921875,-103.02734375,-75.68359375,82.03125,0.0
5.97265625,-33.69140625,-8.30078125,-96.19140625,-59.08203125,126.953125,0.0
5.9765625,-23.92578125,0.9765625,-99.609375,-61.03515625,120.60546875,0.0
5.98046875,-78.125,-1.46484375,-90.33203125,-70.80078125,26.85546875,0.0
5.984375,-74.21875,-18.06640625,-78.61328125,-64.94140625,-1.953125,0.0
5.98828125,-80.56640625,-18.5546875,-70.80078125,-52.734375,-56.640625,0.0
5.9921875,-57.12890625,-19.53125,-44.43359375,-40.0390625,-145.5078125,0.0
5.99609375,-30.2734375,-12.6953125,-56.640625,-40.0390625,-191.40625,0.0
6.0,-44.43359375,-12.20703125,-82.51953125,-37.59765625,-217.7734375,0.0
6.00390625,-49.31640625,-23.92578125,-88.8671875,-47.36328125,-179.19921875,0.0
6.0078125,-52.734375,-30.76171875,-91.30859375,-56.15234375,-178.7109375,0.0
6.01171875,-10.25390625,-25.87890625,-78.61328125,-41.50390625,-186.5234375,0.0
6.015625,8.7890625,-15.13671875,-70.80078125,-22.4609375,-175.78125,0.0
6.01953125,-34.66796875,-20.01953125,-55.17578125,-43.45703125,-170.41015625,0.0
6.0234375,-51.7578125,-23.4375,-57.12890625,-62.01171875,-202.63671875,0.0
6.02734375,-69.82421875,-17.578125,-70.3125,-49.8046875,-175.29296875,0.0
6.03125,-70.80078125,-20.5078125,-64.453125,-57.12890625,-89.84375,0.0
6.03515625,-35.64453125,-24.4140625,-40.52734375,-62.5,6.34765625,0.0
6.0390625,-40.52734375,-25.87890625,-25.390625,-59.5703125,-95.703125,0.0
6.04296875,-50.78125,-40.0390625,-63.96484375,-67.3828125,-220.703125,0.0
6.046875,-46.38671875,-42.48046875,-69.82421875,-81.0546875,-112.79296875,0.0
6.05078125,-46.875,-23.92578125,-42.96875,-79.58984375,-37.59765625,0.0
6.0546875,-35.15625,-21.484375,-40.0390625,-54.6875,-95.703125,0.0
6.05859375,-31.25,-17.578125,-52.734375,-54.6875,-105.46875,0.0
6.0625,-57.12890625,-12.20703125,-52.24609375,-68.84765625,20.01953125,0.0
6.06640625,-81.0546875,-20.5078125,-56.640625,-61.5234375,78.61328125,0.0
6.0703125,-63.96484375,-30.2734375,-56.15234375,-47.8515625,71.77734375,0.0
6.07421875,-37.109375,-32.71484375,-53.7109375,-52.734375,69.82421875,0.0
6.078125,-65.4296875,-26.85546875,-57.6171875,-56.640625,59.08203125,0.0
6.08203125,-119.140625,-29.296875,-18.06640625,-74.70703125,10.7421875,0.0
6.0859375,-138.18359375,-35.15625,-12.6953125,-108.3984375,-35.15625,0.0
6.08984375,-125.0,-24.90234375,-64.453125,-105.95703125,84.9609375,0.0
6.09375,-87.40234375,-24.4140625,-74.21875,-96.6796875,135.25390625,0.0
6.09765625,-96.6796875,-29.296875,-62.01171875,-118.1640625,56.640625,0.0
6.1015625,-125.0,-1.953125,-52.24609375,-133.30078125,39.0625,0.0
6.10546875,-163.0859375,8.7890625,-59.5703125,-160.64453125,21.484375,0.0
6.109375,-164.0625,-5.859375,-42.96875,-148.4375,87.890625,0.0
6.11328125,-124.0234375,-2.44140625,-30.2734375,-143.5546875,163.0859375,0.0
6.1171875,-149.90234375,15.625,-45.41015625,-178.22265625,135.25390625,0.0
6.12109375,-194.82421875,17.578125,-57.6171875,-187.5,16.11328125,0.0
6.125,-199.70703125,25.390625,-42.96875,-193.84765625,-7.8125,0.0
6.12890625,-188.4765625,34.66796875,1.46484375,-187.5,6.8359375,0.0
6.1328125,-151.85546875,35.64453125,-22.4609375,-182.6171875,-13.18359375,0.0
6.13671875,-124.0234375,29.296875,-63.4765625,-191.89453125,-2.9296875,0.0
6.140625,-133.7890625,27.83203125,-41.9921875,-177.734375,-34.1796875,0.0
6.14453125,-160.64453125,47.8515625,-42.96875,-162.59765625,-2.9296875,0.0
6.1484375,-186.03515625,51.7578125,-66.89453125,-172.8515625,12.20703125,0.0
6.15234375,-157.71484375,46.875,-72.265625,-170.8984375,50.29296875,0.0
6.15625,-122.0703125,55.6640625,-78.61328125,-145.5078125,136.23046875,0.0
6.16015625,-145.01953125,59.5703125,-85.9375,-160.15625,40.52734375,0.0
6.1640625,-184.5703125,52.734375,-98.6328125,-193.359375,-120.60546875,0.0
6.16796875,-177.24609375,54.19921875,-114.74609375,-181.640625,-34.66796875,0.0
6.171875,-139.6484375,57.12890625,-111.81640625,-166.015625,55.6640625,0.0
6.17578125,-100.09765625,47.8515625,-94.7265625,-145.5078125,-62.01171875,0.0
6.1796875,-96.6796875,52.24609375,-104.4921875,-139.16015625,-151.3671875,0.0
6.18359375,-124.0234375,66.89453125,-119.62890625,-134.27734375,-112.3046875,0.0
6.1875,-119.140625,38.0859375,-58.59375,-125.9765625,-15.625,0.0
6.19140625,-84.47265625,31.73828125,-39.0625,-107.91015625,100.5859375,0.0
6.1953125,-80.078125,73.73046875,-93.26171875,-103.515625,82.51953125,0.0
6.19921875,-87.40234375,83.0078125,-109.86328125,-99.609375,-72.75390625,0.0
6.203125,-71.77734375,62.98828125,-120.1171875,-99.12109375,-145.99609375,0.0
6.20703125,-88.37890625,52.24609375,-120.1171875,-97.65625,-100.5859375,0.0
6.2109375,-74.21875,54.6875,-123.046875,-80.56640625,-42.48046875,0.0
6.21484375,-32.71484375,60.546875,-88.8671875,-62.5,50.29296875,0.0
6.21875,-28.3203125,67.3828125,-54.6875,-42.48046875,40.0390625,0.0
6.22265625,-51.7578125,52.734375,-99.609375,-27.34375,-152.83203125,0.0
6.2265625,-24.90234375,42.48046875,-120.1171875,-10.25390625,-102.5390625,0.0
6.23046875,1.953125,33.203125,-91.30859375,-6.8359375,31.73828125,0.0
6.234375,42.48046875,20.99609375,-86.42578125,6.34765625,-8.30078125,0.0
6.23828125,51.7578125,17.08984375,-96.6796875,25.390625,-24.4140625,0.0
6.2421875,-9.765625,19.53125,-101.5625,30.76171875,-23.4375,0.0
6.24609375,-17.578125,28.80859375,-64.94140625,13.18359375,58.59375,0.0
6.25,-3.90625,19.04296875,-58.10546875,11.23046875,117.1875,0.0
6.25390625,10.25390625,9.765625,-96.6796875,31.73828125,59.5703125,0.0
6.2578125,41.015625,27.34375,-96.19140625,45.8984375,-15.13671875,0.0
6.26171875,38.0859375,-13.18359375,-60.546875,44.43359375,-146.97265625,0.0
6.265625,4.8828125,-53.7109375,-49.31640625,67.87109375,-168.9453125,0.0
6.26953125,7.8125,-28.80859375,-88.8671875,65.91796875,-13.18359375,0.0
6.2734375,46.38671875,-74.21875,-82.03125,41.015625,28.3203125,0.0
6.27734375,53.22265625,-45.8984375,-72.75390625,62.5,-35.64453125,0.0
6.28125,-1.953125,25.87890625,-85.44921875,70.3125,-44.43359375,0.0
6.28515625,-9.765625,11.23046875,-78.61328125,69.82421875,-64.94140625,0.0
6.2890625,6.8359375,-23.92578125,-60.546875,72.75390625,-28.3203125,0.0
6.29296875,19.04296875,-41.50390625,-68.359375,76.66015625,38.0859375,0.0
6.296875,35.64453125,-17.08984375,-64.94140625,80.078125,-11.23046875,0.0
6.30078125,21.97265625,-35.15625,-56.15234375,91.30859375,-53.7109375,0.0
6.3046875,10.25390625,-78.61328125,-24.90234375,87.890625,-35.64453125,0.0
6.30859375,30.2734375,-77.63671875,36.62109375,87.890625,-61.5234375,0.0
6.3125,41.50390625,-38.0859375,-16.6015625,93.26171875,-108.3984375,0.0
6.31640625,20.01953125,-13.671875,-66.40625,83.49609375,-135.7421875,0.0
6.3203125,2.9296875,-52.24609375,-43.9453125,83.984375,-154.296875,0.0
6.32421875,27.34375,-68.84765625,-41.015625,79.58984375,-95.703125,0.0
6.328125,47.36328125,-53.7109375,-41.015625,80.078125,-7.8125,0.0
6.33203125,45.8984375,-48.33984375,-47.8515625,84.47265625,79.1015625,0.0
6.3359375,50.78125,-50.29296875,-30.2734375,99.609375,67.87109375,0.0
6.33984375,39.0625,-47.36328125,-29.296875,84.47265625,-111.81640625,0.0
6.34375,24.90234375,-28.3203125,-53.22265625,48.828125,-94.7265625,0.0
6.34765625,34.66796875,-44.921875,-49.8046875,59.08203125,82.51953125,0.0
6.3515625,59.5703125,-49.31640625,-52.734375,78.61328125,160.64453125,0.0
6.35546875,56.15234375,-18.5546875,-54.19921875,76.66015625,39.55078125,0.0
6.359375,27.83203125,-25.390625,-40.52734375,81.0546875,-70.80078125,0.0
6.36328125,9.765625,-54.6875,-50.29296875,71.2890625,-38.57421875,0.0
6.3671875,31.25,-66.40625,-33.203125,66.40625,-21.484375,0.0
6.37109375,54.19921875,-62.01171875,-21.97265625,58.10546875,-37.109375,0.0
6.375,47.36328125,-53.7109375,-58.59375,42.48046875,25.390625,0.0
6.37890625,37.109375,-97.16796875,-53.22265625,45.41015625,71.2890625,0.0
6.3828125,22.4609375,-102.05078125,-32.2265625,66.89453125,-11.23046875,0.0
6.38671875,19.04296875,-42.96875,-31.73828125,58.59375,-27.34375,0.0
6.390625,26.85546875,-23.4375,-37.109375,44.921875,123.046875,0.0
6.39453125,29.78515625,-35.15625,-46.875,52.734375,151.3671875,0.0
6.3984375,40.0390625,-34.1796875,-60.546875,46.38671875,19.53125,0.0
6.40234375,28.80859375,-37.59765625,-54.6875,35.64453125,-126.46484375,0.0
6.40625,5.37109375,-60.546875,-43.9453125,31.25,-147.94921875,0.0
6.41015625,11.23046875,-59.5703125,-22.94921875,43.45703125,-42.48046875,0.0
6.4140625,41.9921875,-60.05859375,-5.859375,41.9921875,9.27734375,0.0
6.41796875,45.41015625,-63.96484375,-30.76171875,32.71484375,-68.359375,0.0
6.421875,16.6015625,-53.7109375,-48.828125,37.59765625,-101.5625,0.0
6.42578125,18.06640625,-55.6640625,-41.015625,36.62109375,-116.69921875,0.0
6.4296875,14.6484375,-68.359375,-29.78515625,31.73828125,-75.1953125,0.0
6.43359375,19.04296875,-69.82421875,-41.50390625,29.78515625,28.3203125,0.0
6.4375,36.1328125,-63.96484375,-52.734375,25.390625,-16.6015625,0.0
6.44140625,6.34765625,-61.03515625,-37.109375,11.23046875,-110.83984375,0.0
6.4453125,2.44140625,-51.26953125,-34.1796875,22.4609375,-132.32421875,0.0
6.44921875,22.94921875,-53.7109375,-50.78125,19.04296875,-13.18359375,0.0
6.453125,24.90234375,-48.828125,-46.38671875,2.9296875,107.91015625,0.0
6.45703125,17.08984375,-40.0390625,-44.43359375,7.8125,20.99609375,0.0
6.4609375,-2.9296875,-39.0625,-54.6875,3.41796875,-60.546875,0.0
6.46484375,-26.85546875,-41.9921875,-49.8046875,-3.41796875,-40.0390625,0.0
6.46875,-9.27734375,-49.8046875,-34.1796875,13.18359375,20.99609375,0.0
6.47265625,20.01953125,-51.7578125,-26.85546875,12.6953125,77.1484375,0.0
6.4765625,45.8984375,-44.43359375,-25.87890625,1.953125,4.39453125,0.0
6.48046875,34.66796875,-41.015625,-24.4140625,9.765625,-166.015625,0.0
6.484375,1.953125,-43.9453125,-22.94921875,4.8828125,-152.34375,0.0
6.48828125,4.39453125,-54.19921875,-25.87890625,-4.39453125,-104.98046875,0.0
6.4921875,28.3203125,-67.3828125,-33.203125,10.25390625,-89.84375,0.0
6.49609375,32.2265625,-48.33984375,-27.83203125,6.34765625,-101.07421875,0.0
6.5,6.34765625,-41.015625,-46.38671875,-13.671875,-126.953125,0.0
6.50390625,-20.99609375,-51.26953125,-64.94140625,-11.23046875,-120.1171875,0.0
6.5078125,1.953125,-56.15234375,-55.17578125,-28.80859375,16.6015625,0.0
6.51171875,18.5546875,-47.36328125,-65.4296875,-15.13671875,97.16796875,0.0
6.515625,-5.37109375,-36.1328125,-45.41015625,-1.953125,-16.6015625,0.0
6.51953125,-15.13671875,-47.36328125,-13.671875,-10.25390625,-90.8203125,0.0
6.5234375,-44.921875,-47.36328125,-17.578125,-19.04296875,0.0,0.0
6.52734375,-58.10546875,-39.55078125,-24.4140625,-21.484375,-22.94921875,0.0
6.53125,-7.8125,-40.0390625,-27.83203125,-1.46484375,-102.5390625,0.0
6.53515625,24.90234375,-38.0859375,-26.85546875,7.8125,-60.05859375,0.0
6.5390625,-1.46484375,-42.96875,-25.87890625,2.44140625,-131.8359375,0.0
6.54296875,-28.3203125,-54.6875,-37.109375,-17.08984375,-172.8515625,0.0
6.546875,-13.18359375,-41.015625,-44.921875,-21.484375,-7.32421875,0.0
6.55078125,10.7421875,-30.76171875,-34.66796875,-9.27734375,63.4765625,0.0
6.5546875,8.30078125,-45.8984375,-36.62109375,-18.5546875,19.53125,0.0
6.55859375,-15.13671875,-48.828125,-46.38671875,-26.3671875,-75.68359375,0.0
6.5625,-58.59375,-28.80859375,-38.0859375,-28.3203125,-32.71484375,0.0
6.56640625,-50.29296875,-44.921875,-28.3203125,-34.1796875,11.71875,0.0
6.5703125,-19.53125,-43.45703125,-34.1796875,-40.0390625,-4.39453125,0.0
6.57421875,-4.8828125,-18.5546875,-24.4140625,-38.57421875,-14.6484375,0.0
6.578125,-8.30078125,-31.73828125,-20.01953125,-20.99609375,-52.734375,0.0
6.58203125,-47.36328125,-46.875,-36.62109375,-21.97265625,-76.171875,0.0
6.5859375,-59.08203125,-46.875,-43.9453125,-53.7109375,-79.58984375,0.0
6.58984375,-42.96875,-62.98828125,-39.0625,-64.453125,-64.453125,0.0
6.59375,-23.4375,-61.03515625,-22.4609375,-38.57421875,-52.24609375,0.0
6.59765625,-28.3203125,-44.921875,-21.97265625,-26.3671875,-117.1875,0.0
6.6015625,-44.921875,-60.05859375,-24.4140625,-38.0859375,-66.40625,0.0
6.60546875,-52.24609375,-51.7578125,-24.4140625,-45.41015625,9.765625,0.0
6.609375,-40.0390625,-29.78515625,-33.203125,-43.45703125,-6.34765625,0.0
6.61328125,-25.390625,-29.78515625,-42.96875,-36.1328125,41.50390625,0.0
6.6171875,-24.4140625,-37.59765625,-44.921875,-43.9453125,3.90625,0.0
6.62109375,-40.52734375,-48.828125,-42.96875,-47.36328125,-236.328125,0.0
6.625,-51.26953125,-58.10546875,-35.64453125,-41.015625,-239.2578125,0.0
6.62890625,-35.64453125,-48.828125,-32.2265625,-33.69140625,-32.71484375,0.0
6.6328125,-14.6484375,-51.7578125,-28.3203125,-37.109375,56.640625,0.0
6.63671875,-19.04296875,-54.6875,-24.90234375,-38.0859375,6.34765625,0.0
6.640625,-53.22265625,-22.94921875,-32.2265625,-42.48046875,-127.44140625,0.0
6.64453125,-59.5703125,-35.15625,-31.25,-61.5234375,-62.01171875,0.0
6.6484375,-39.55078125,-39.55078125,-27.83203125,-55.17578125,72.265625,0.0
6.65234375,-1.46484375,-14.6484375,-29.296875,-21.484375,78.125,0.0
6.65625,-2.44140625,-15.625,-28.80859375,-15.13671875,29.78515625,0.0
6.66015625,-27.34375,-23.4375,-33.69140625,-40.52734375,-1.46484375,0.0
6.6640625,-39.0625,-37.59765625,-30.2734375,-40.0390625,-51.26953125,0.0
6.66796875,-54.6875,-39.55078125,-14.6484375,-31.73828125,-61.03515625,0.0
6.671875,-23.4375,-26.85546875,-14.6484375,-36.62109375,12.6953125,0.0
6.67578125,1.46484375,-28.80859375,-24.4140625,-29.296875,38.57421875,0.0
6.6796875,-20.5078125,-38.57421875,-23.92578125,-28.80859375,-38.0859375,0.0
6.68359375,-62.5,-41.50390625,-14.16015625,-28.80859375,-39.55078125,0.0
6.6875,-59.5703125,-45.8984375,-12.20703125,-36.1328125,-63.96484375,0.0
6.69140625,-26.3671875,-39.55078125,-16.6015625,-24.4140625,-19.53125,0.0
6.6953125,-6.8359375,-37.59765625,-41.9921875,-11.23046875,22.4609375,0.0
6.69921875,-20.5078125,-23.92578125,-42.48046875,-14.6484375,-99.609375,0.0
6.703125,-65.91796875,0.9765625,-24.90234375,-31.25,-134.27734375,0.0
6.70703125,-83.49609375,0.9765625,-31.25,-65.4296875,-48.33984375,0.0
6.7109375,-61.5234375,-4.8828125,-19.04296875,-84.47265625,6.8359375,0.0
6.71484375,-49.8046875,-7.32421875,-18.06640625,-80.56640625,47.8515625,0.0
6.71875,-63.96484375,-0.48828125,-34.1796875,-64.94140625,33.69140625,0.0
6.72265625,-107.421875,6.34765625,-41.50390625,-89.84375,-33.203125,0.0
6.7265625,-138.671875,17.08984375,-32.71484375,-129.39453125,-68.359375,0.0
6.73046875,-137.6953125,12.20703125,-25.390625,-153.80859375,-2.9296875,0.0
6.734375,-129.8828125,11.23046875,-24.90234375,-163.0859375,164.55078125,0.0
6.73828125,-147.4609375,36.62109375,-12.6953125,-143.06640625,94.23828125,0.0
6.7421875,-193.359375,34.66796875,-0.48828125,-184.08203125,-0.9765625,0.0
6.74609375,-225.5859375,6.8359375,-13.671875,-227.5390625,58.10546875,0.0
6.75,-211.42578125,-7.32421875,-23.4375,-209.9609375,55.17578125,0.0
6.75390625,-192.3828125,2.44140625,-8.7890625,-211.42578125,-12.20703125,0.0
6.7578125,-213.8671875,-12.6953125,-11.71875,-232.91015625,12.6953125,0.0
6.76171875,-229.00390625,-3.90625,-26.85546875,-240.72265625,-44.921875,0.0
6.765625,-230.95703125,34.1796875,-24.90234375,-242.1875,-25.390625,0.0
6.76953125,-221.6796875,32.2265625,-17.08984375,-225.09765625,42.96875,0.0
6.7734375,-196.2890625,14.16015625,-15.13671875,-196.2890625,-51.7578125,0.0
6.77734375,-183.59375,-6.8359375,-8.30078125,-184.5703125,-106.4453125,0.0
6.78125,-217.7734375,-32.2265625,-22.4609375,-195.3125,-102.5390625,0.0
6.78515625,-218.75,-41.50390625,-5.859375,-198.2421875,-77.63671875,0.0
6.7890625,-167.48046875,-22.4609375,27.34375,-183.59375,-30.2734375,0.0
6.79296875,-135.7421875,-27.83203125,-12.6953125,-144.53125,-78.125,0.0
6.796875,-113.28125,-32.71484375,-31.73828125,-115.234375,-128.41796875,0.0
6.80078125,-125.9765625,-17.578125,-11.23046875,-119.140625,-108.88671875,0.0
6.8046875,-152.34375,-16.6015625,-14.6484375,-117.1875,-48.828125,0.0
6.80859375,-122.0703125,-17.578125,-48.828125,-103.02734375,5.37109375,0.0
6.8125,-65.91796875,-21.97265625,-47.36328125,-78.61328125,-15.625,0.0
6.81640625,-44.921875,-27.34375,-31.25,-58.10546875,-53.7109375,0.0
6.8203125,-56.640625,-47.8515625,-32.2265625,-56.15234375,-97.16796875,0.0
6.82421875,-51.7578125,-65.4296875,-33.203125,-55.17578125,-92.28515625,0.0
6.828125,-25.390625,-54.6875,-28.80859375,-30.2734375,0.48828125,0.0
6.83203125,-9.765625,-44.43359375,-38.0859375,-3.41796875,40.0390625,0.0
6.8359375,-9.27734375,-39.0625,-35.15625,-17.08984375,1.953125,0.0
6.83984375,-24.90234375,-43.45703125,-36.62109375,-34.66796875,-49.31640625,0.0
6.84375,-22.94921875,-57.12890625,-47.36328125,-26.85546875,-63.4765625,0.0
6.84765625,-21.97265625,-56.640625,-40.0390625,-12.6953125,-52.24609375,0.0
6.8515625,-22.4609375,-65.4296875,-50.78125,2.44140625,13.671875,0.0
6.85546875,3.41796875,-94.7265625,-62.98828125,3.90625,40.52734375,0.0
6.859375,2.44140625,-86.9140625,-53.7109375,-0.48828125,-58.10546875,0.0
6.86328125,-20.99609375,-60.546875,-49.31640625,-16.6015625,-123.53515625,0.0
6.8671875,-24.90234375,-50.29296875,-64.453125,-18.06640625,-61.03515625,0.0
6.87109375,-2.44140625,-35.64453125,-67.87109375,6.34765625,-54.19921875,0.0
6.875,27.34375,-35.15625,-40.52734375,27.83203125,-67.87109375,0.0
6.87890625,17.578125,-50.78125,-28.3203125,26.3671875,-20.01953125,0.0
6.8828125,-22.94921875,-75.1953125,-29.78515625,7.32421875,12.6953125,0.0
6.88671875,-19.04296875,-77.1484375,-42.96875,18.06640625,-40.0390625,0.0
6.890625,8.30078125,-61.03515625,-16.11328125,29.78515625,5.37109375,0.0
6.89453125,36.1328125,-57.12890625,-4.39453125,20.01953125,55.17578125,0.0
6.8984375,32.71484375,-59.08203125,-35.64453125,23.4375,-55.6640625,0.0
6.90234375,0.9765625,-83.984375,-25.87890625,24.4140625,-68.84765625,0.0
6.90625,-11.23046875,-74.70703125,-27.34375,12.6953125,-17.08984375,0.0
6.91015625,7.8125,-55.6640625,-38.0859375,10.7421875,40.52734375,0.0
6.9140625,28.80859375,-55.6640625,-39.0625,17.08984375,122.0703125,0.0
6.91796875,25.390625,-37.59765625,-46.875,16.6015625,55.6640625,0.0
6.921875,2.9296875,-40.0390625,1.46484375,15.625,-23.4375,0.0
6.92578125,4.8828125,-49.31640625,11.23046875,6.8359375,-14.16015625,0.0
6.9296875,42.96875,-42.96875,-43.45703125,17.578125,-43.9453125,0.0
6.93359375,56.640625,-43.9453125,-33.203125,31.25,-80.56640625,0.0
6.9375,33.203125,-54.6875,-22.4609375,29.296875,-59.5703125,0.0
6.94140625,4.39453125,-60.05859375,-27.34375,25.87890625,-20.5078125,0.0
6.9453125,-8.7890625,-62.5,-41.50390625,14.16015625,2.9296875,0.0
6.94921875,-6.8359375,-47.8515625,-41.50390625,26.85546875,52.734375,0.0
6.953125,7.8125,-41.50390625,-39.0625,42.48046875,22.4609375,0.0
6.95703125,9.765625,-41.50390625,-40.0390625,28.80859375,-52.734375,0.0
6.9609375,9.27734375,-40.0390625,-38.0859375,17.578125,-79.1015625,0.0
6.96484375,-4.8828125,-43.9453125,-33.203125,12.6953125,-106.93359375,0.0
6.96875,3.41796875,-39.55078125,-30.76171875,10.25390625,-146.484375,0.0
6.97265625,36.1328125,-52.734375,-35.15625,5.859375,-75.1953125,0.0
6.9765625,31.25,-58.59375,-31.73828125,7.32421875,16.6015625,0.0
6.98046875,9.27734375,-52.24609375,-25.390625,10.7421875,-68.84765625,0.0
6.984375,-3.90625,-41.9921875,-29.296875,-8.7890625,-114.74609375,0.0
6.98828125,23.4375,-23.92578125,-40.0390625,-8.7890625,-60.05859375,0.0
6.9921875,72.75390625,-25.390625,-39.55078125,19.53125,26.85546875,0.0
6.99609375,36.1328125,-33.69140625,-38.57421875,15.625,6.34765625,0.0
7.0,-38.0859375,-36.62109375,-37.59765625,-12.6953125,-46.875,0.0
7.00390625,-42.48046875,-44.43359375,-30.2734375,-16.6015625,-191.40625,0.0
7.0078125,-28.3203125,-48.33984375,-31.73828125,1.46484375,-253.90625,0.0
7.01171875,-7.32421875,-50.29296875,-47.8515625,11.23046875,-158.203125,0.0
7.015625,12.6953125,-56.15234375,-47.36328125,18.06640625,-149.4140625,0.0
7.01953125,11.23046875,-57.12890625,-34.1796875,13.671875,-118.1640625,0.0
7.0234375,-16.11328125,-56.640625,-20.01953125,1.46484375,-50.78125,0.0
7.02734375,-38.57421875,-52.734375,-6.34765625,11.71875,-27.34375,0.0
7.03125,-14.6484375,-35.15625,-23.4375,28.3203125,68.84765625,0.0
7.03515625,3.41796875,-26.3671875,-33.203125,17.578125,75.68359375,0.0
7.0390625,-11.23046875,-47.36328125,-26.3671875,-10.25390625,-12.20703125,0.0
7.04296875,-37.59765625,-51.7578125,-39.0625,-15.625,-38.0859375,0.0
7.046875,-32.2265625,-51.7578125,-46.38671875,-11.71875,42.48046875,0.0
7.05078125,14.6484375,-44.43359375,-37.59765625,-11.23046875,127.9296875,0.0
7.0546875,27.34375,-24.4140625,-17.578125,-14.6484375,52.734375,0.0
7.05859375,-18.06640625,-42.96875,0.9765625,-19.53125,-68.84765625,0.0
7.0625,-45.8984375,-53.22265625,-30.76171875,-42.48046875,-143.5546875,0.0
7.06640625,-56.15234375,-52.24609375,-47.8515625,-65.91796875,-7.8125,0.0
7.0703125,-42.96875,-57.6171875,-40.0390625,-55.6640625,136.23046875,0.0
7.07421875,-32.71484375,-63.96484375,-45.8984375,-46.38671875,37.109375,0.0
7.078125,-45.8984375,-59.08203125,-56.640625,-47.36328125,-69.82421875,0.0
7.08203125,-62.98828125,-61.03515625,-48.33984375,-44.921875,-101.07421875,0.0
7.0859375,-67.87109375,-68.84765625,-17.578125,-28.3203125,-137.6953125,0.0
7.08984375,-37.59765625,-51.26953125,-9.765625,-17.578125,-74.70703125,0.0
7.09375,0.9765625,-40.0390625,-26.3671875,-11.71875,43.45703125,0.0
7.09765625,-8.30078125,-48.828125,-32.71484375,-16.11328125,-7.32421875,0.0
7.1015625,-50.78125,-59.5703125,-35.15625,-15.625,-94.7265625,0.0
7.10546875,-48.33984375,-51.26953125,-38.0859375,-12.6953125,-97.65625,0.0
7.109375,-7.32421875,-39.0625,-38.57421875,-19.04296875,-54.19921875,0.0
7.11328125,-4.39453125,-34.1796875,-28.80859375,-7.8125,52.24609375,0.0
7.1171875,-24.90234375,-38.0859375,-29.296875,-4.39453125,28.80859375,0.0
7.12109375,-33.203125,-43.9453125,-29.296875,-16.11328125,33.69140625,0.0
7.125,-42.48046875,-53.22265625,-31.73828125,-37.109375,87.890625,0.0
7.12890625,-52.734375,-57.6171875,-26.3671875,-49.31640625,22.4609375,0.0
7.1328125,-19.04296875,-52.24609375,-12.6953125,-32.2265625,5.37109375,0.0
7.13671875,-5.859375,-54.19921875,-34.66796875,-17.08984375,-50.29296875,0.0
7.140625,-21.97265625,-42.48046875,-39.0625,-8.7890625,-113.76953125,0.0
7.14453125,-29.78515625,-24.4140625,-24.90234375,-41.9921875,-108.88671875,0.0
7.1484375,-50.78125,-34.66796875,-57.6171875,-58.10546875,-61.03515625,0.0
7.15234375,-41.50390625,-54.6875,-69.3359375,-45.41015625,-88.37890625,0.0
7.15625,-48.33984375,-56.15234375,-37.109375,-65.4296875,-104.98046875,0.0
7.16015625,-70.3125,-40.52734375,-4.39453125,-65.4296875,-80.078125,0.0
7.1640625,-68.84765625,-44.921875,21.484375,-59.5703125,-143.5546875,0.0
7.16796875,-52.734375,-43.45703125,-11.23046875,-55.17578125,-125.0,0.0
7.171875,-34.1796875,-44.921875,-27.83203125,-31.73828125,10.7421875,0.0
7.17578125,-28.3203125,-54.6875,-10.25390625,-38.57421875,-1.953125,0.0
7.1796875,-35.15625,-52.734375,-17.08984375,-38.0859375,-64.453125,0.0
7.18359375,-58.10546875,-54.19921875,-48.828125,-23.92578125,-81.0546875,0.0
7.1875,-47.8515625,-53.7109375,-42.96875,-32.2265625,6.8359375,0.0
7.19140625,-27.34375,-54.6875,-21.484375,-28.80859375,3.41796875,0.0
7.1953125,-40.52734375,-31.25,-28.3203125,-20.99609375,-75.68359375,0.0
7.19921875,-62.98828125,-13.671875,-40.52734375,-28.80859375,-106.93359375,0.0
7.203125,-91.30859375,-30.2734375,-41.015625,-32.2265625,-96.6796875,0.0
7.20703125,-84.9609375,-39.0625,-40.52734375,-44.43359375,-82.03125,0.0
7.2109375,-42.96875,-37.59765625,-51.7578125,-47.36328125,-70.80078125,0.0
7.21484375,-20.01953125,-46.875,-52.24609375,-35.64453125,-128.41796875,0.0
7.21875,-41.015625,-46.38671875,-34.1796875,-27.83203125,-245.1171875,0.0
7.22265625,-68.84765625,-45.8984375,-12.20703125,-42.96875,-236.328125,0.0
7.2265625,-61.5234375,-49.31640625,-38.57421875,-40.0390625,-162.109375,0.0
7.23046875,-18.5546875,-42.48046875,-55.6640625,-18.06640625,-59.08203125,0.0
7.234375,2.9296875,-23.92578125,-46.875,-18.06640625,0.0,0.0
7.23828125,-3.90625,-34.66796875,-47.36328125,-43.45703125,-88.37890625,0.0
7.2421875,-45.8984375,-41.015625,-23.4375,-63.4765625,-127.44140625,0.0
7.24609375,-89.84375,-37.59765625,-20.01953125,-61.03515625,-15.625,0.0
7.25,-67.3828125,-43.9453125,-37.59765625,-51.7578125,48.33984375,0.0
7.25390625,-41.9921875,-37.109375,-29.296875,-21.484375,74.70703125,0.0
7.2578125,-37.59765625,-28.3203125,-20.5078125,-16.6015625,5.37109375,0.0
7.26171875,-68.84765625,-20.5078125,-37.109375,-48.828125,-62.01171875,0.0
7.265625,-90.33203125,-30.76171875,-5.37109375,-49.8046875,8.7890625,0.0
7.26953125,-61.5234375,-37.109375,7.32421875,-25.390625,97.65625,0.0
7.2734375,-27.83203125,-23.4375,-32.2265625,-8.30078125,155.2734375,0.0
7.27734375,-36.62109375,-30.2734375,-34.1796875,-28.80859375,98.14453125,0.0
7.28125,-65.91796875,-38.57421875,-44.921875,-50.78125,31.25,0.0
7.28515625,-90.33203125,-26.85546875,-51.7578125,-37.59765625,82.03125,0.0
7.2890625,-76.171875,-26.85546875,-41.015625,-31.25,36.1328125,0.0
7.29296875,-19.53125,-45.8984375,-38.0859375,-31.73828125,33.203125,0.0
7.296875,-7.32421875,-57.6171875,-38.57421875,-13.671875,9.27734375,0.0
7.30078125,-57.6171875,-33.69140625,-36.62109375,-21.484375,-102.05078125,0.0
7.3046875,-77.1484375,-6.8359375,-41.015625,-49.31640625,-14.6484375,0.0
7.30859375,-37.59765625,-9.27734375,-28.80859375,-35.64453125,46.875,0.0
7.3125,-1.46484375,-11.23046875,-25.87890625,-23.4375,-13.18359375,0.0
7.31640625,-19.53125,-15.625,-33.69140625,-32.71484375,-5.859375,0.0
7.3203125,-33.69140625,-23.4375,-33.203125,-35.64453125,-45.8984375,0.0
7.32421875,-38.57421875,-31.73828125,-36.1328125,-33.69140625,-108.3984375,0.0
7.328125,-41.50390625,-39.0625,-40.0390625,-31.73828125,-16.11328125,0.0
7.33203125,-35.64453125,-42.48046875,-44.43359375,-25.390625,45.41015625,0.0
7.3359375,-19.04296875,-36.1328125,-40.52734375,-17.08984375,29.296875,0.0
7.33984375,-25.87890625,-36.1328125,-29.296875,-26.3671875,-41.015625,0.0
7.34375,-59.5703125,-48.828125,-19.04296875,-56.15234375,-49.31640625,0.0
7.34765625,-62.5,-61.5234375,-28.3203125,-54.19921875,-21.97265625,0.0
7.3515625,-20.01953125,-56.640625,-40.0390625,-30.76171875,-111.328125,0.0
7.35546875,-16.11328125,-38.0859375,-36.62109375,-19.04296875,-163.57421875,0.0
7.359375,-53.22265625,-40.0390625,-39.55078125,-23.92578125,-212.40234375,0.0
7.36328125,-63.96484375,-39.55078125,-55.17578125,-36.1328125,-211.9140625,0.0
7.3671875,-53.22265625,-24.4140625,-42.96875,-32.71484375,-191.89453125,0.0
7.37109375,-38.0859375,-17.578125,-33.69140625,-30.76171875,-190.91796875,0.0
7.375,-18.06640625,-29.296875,-34.66796875,-34.66796875,-113.76953125,0.0
7.37890625,-7.8125,-38.57421875,-43.45703125,-23.92578125,-119.62890625,0.0
7.3828125,-35.64453125,-28.80859375,-57.6171875,-22.94921875,-81.54296875,0.0
7.38671875,-60.05859375,-36.1328125,-38.57421875,-31.73828125,46.875,0.0
7.390625,-32.71484375,-53.7109375,-34.66796875,-31.25,100.5859375,0.0
7.39453125,-24.90234375,-54.19921875,-57.12890625,-34.66796875,172.36328125,0.0
7.3984375,-45.8984375,-27.83203125,-40.52734375,-32.2265625,131.34765625,0.0
7.40234375,-57.6171875,-11.71875,-26.85546875,-47.36328125,54.19921875,0.0
7.40625,-65.91796875,-23.92578125,-33.69140625,-60.05859375,64.94140625,0.0
7.41015625,-50.78125,-31.25,-41.50390625,-45.8984375,31.73828125,0.0
7.4140625,-11.71875,-30.76171875,-38.57421875,-36.62109375,60.05859375,0.0
7.41796875,-11.71875,-34.66796875,-26.3671875,-37.59765625,17.578125,0.0
7.421875,-48.33984375,-41.9921875,-35.64453125,-32.2265625,-41.9921875,0.0
7.42578125,-62.01171875,-47.8515625,-51.7578125,-21.97265625,-9.765625,0.0
7.4296875,-42.96875,-44.921875,-32.2265625,-28.3203125,41.50390625,0.0
7.43359375,-16.11328125,-29.296875,-12.20703125,-26.3671875,16.11328125,0.0
7.4375,-3.41796875,-34.1796875,-43.45703125,-11.71875,-113.76953125,0.0
7.44140625,-21.97265625,-46.38671875,-50.78125,-7.32421875,-153.80859375,0.0
7.4453125,-48.33984375,-41.015625,-28.3203125,-32.2265625,-80.078125,0.0
7.44921875,-58.59375,-40.52734375,-24.4140625,-47.36328125,-54.6875,0.0
7.453125,-25.390625,-44.43359375,-38.57421875,-41.015625,-90.33203125,0.0
7.45703125,-1.46484375,-50.78125,-41.9921875,-32.71484375,-104.00390625,0.0
7.4609375,-46.38671875,-50.78125,-26.3671875,-41.015625,-126.46484375,0.0
7.46484375,-71.2890625,-29.296875,-29.78515625,-44.43359375,-87.40234375,0.0
7.46875,-42.96875,-22.94921875,-47.8515625,-37.109375,-37.59765625,0.0
7.47265625,-11.71875,-31.73828125,-41.9921875,-34.66796875,-69.82421875,0.0
7.4765625,-25.390625,-31.25,-36.1328125,-29.78515625,-123.046875,0.0
7.48046875,-61.5234375,-36.1328125,-40.52734375,-26.3671875,-165.0390625,0.0
7.484375,-78.61328125,-50.78125,-47.8515625,-36.62109375,-44.921875,0.0
7.48828125,-60.05859375,-51.7578125,-42.48046875,-33.69140625,36.62109375,0.0
7.4921875,-18.5546875,-31.73828125,-30.76171875,-17.578125,-29.78515625,0.0
7.49609375,-6.8359375,-22.94921875,-32.71484375,-17.08984375,-35.15625,0.0
7.5,-31.73828125,-26.85546875,-43.9453125,-27.34375,-0.9765625,0.0
7.50390625,-67.87109375,-35.64453125,-43.9453125,-48.33984375,0.0,0.0
7.5078125,-49.31640625,-43.45703125,-47.36328125,-50.78125,23.92578125,0.0
7.51171875,11.23046875,-41.015625,-49.31640625,-13.671875,68.359375,0.0
7.515625,-21.484375,-46.38671875,-37.109375,-12.6953125,37.109375,0.0
7.51953125,-57.12890625,-48.828125,-35.64453125,-41.50390625,4.39453125,0.0
7.5234375,-62.01171875,-43.9453125,-40.52734375,-34.1796875,-26.85546875,0.0
7.52734375,-43.45703125,-32.71484375,-35.15625,-17.08984375,-7.8125,0.0
7.53125,-21.97265625,-32.71484375,-34.1796875,-20.01953125,63.4765625,0.0
7.53515625,-19.53125,-26.3671875,-38.57421875,-27.34375,86.42578125,0.0
7.5390625,-24.4140625,-17.578125,-42.96875,-42.48046875,-0.48828125,0.0
7.54296875,-34.1796875,-23.4375,-56.15234375,-54.19921875,-70.3125,0.0
7.546875,-24.4140625,-14.6484375,-57.12890625,-58.10546875,-45.41015625,0.0
7.55078125,-18.5546875,3.90625,-57.12890625,-48.828125,-20.5078125,0.0
7.5546875,5.859375,6.34765625,-63.96484375,-38.0859375,14.6484375,0.0
7.55859375,8.7890625,6.8359375,-65.4296875,-40.52734375,-65.4296875,0.0
7.5625,-19.04296875,12.20703125,-68.84765625,-49.8046875,-186.03515625,0.0
7.56640625,-17.08984375,16.6015625,-74.70703125,-49.8046875,-194.82421875,0.0
7.5703125,2.44140625,9.765625,-72.265625,-41.50390625,-138.671875,0.0
7.57421875,15.13671875,0.9765625,-72.75390625,-34.1796875,-159.1796875,0.0
7.578125,10.25390625,18.06640625,-76.66015625,-30.2734375,-260.25390625,0.0
7.58203125,2.9296875,19.53125,-62.01171875,-28.3203125,-235.83984375,0.0
7.5859375,-27.34375,1.953125,-56.640625,-30.76171875,-135.25390625,0.0
7.58984375,-17.08984375,3.90625,-69.3359375,-27.83203125,-141.6015625,0.0
7.59375,32.71484375,10.7421875,-65.4296875,-11.71875,-146.484375,0.0
7.59765625,-5.37109375,13.18359375,-67.3828125,-11.71875,-118.1640625,0.0
7.6015625,-45.41015625,7.8125,-76.66015625,-27.34375,-147.4609375,0.0
7.60546875,-36.62109375,-8.30078125,-77.63671875,-21.97265625,-153.80859375,0.0
7.609375,5.37109375,-3.41796875,-68.359375,-27.34375,-99.12109375,0.0
7.61328125,21.484375,12.20703125,-66.40625,-34.66796875,-49.8046875,0.0
7.6171875,2.9296875,0.48828125,-54.19921875,-18.5546875,-86.9140625,0.0
7.62109375,-9.27734375,-9.27734375,-40.52734375,-14.6484375,-117.67578125,0.0
7.625,-27.34375,9.765625,-47.36328125,-21.484375,-9.765625,0.0
7.62890625,-21.97265625,2.9296875,-38.0859375,-15.625,54.19921875,0.0
7.6328125,6.34765625,-4.39453125,-41.50390625,-2.9296875,47.36328125,0.0
7.63671875,39.55078125,4.8828125,-54.19921875,-24.4140625,33.69140625,0.0
7.640625,-1.46484375,-12.6953125,-60.05859375,-40.0390625,0.9765625,0.0
7.64453125,-71.77734375,-17.578125,-61.03515625,-54.6875,97.16796875,0.0
7.6484375,-45.41015625,-9.27734375,-59.08203125,-71.2890625,194.82421875,0.0
7.65234375,-1.46484375,-18.5546875,-59.5703125,-44.921875,160.64453125,0.0
7.65625,6.8359375,-22.4609375,-60.546875,-18.06640625,100.5859375,0.0
7.66015625,-28.80859375,-23.4375,-62.5,-32.2265625,29.296875,0.0
7.6640625,-54.6875,-24.4140625,-58.59375,-46.875,-0.9765625,0.0
7.66796875,-41.9921875,-16.6015625,-50.78125,-25.87890625,59.5703125,0.0
7.671875,-2.44140625,-20.01953125,-41.50390625,-9.27734375,78.125,0.0
7.67578125,6.34765625,-21.97265625,-40.0390625,-24.90234375,90.8203125,0.0
7.6796875,-11.71875,-21.97265625,-41.015625,-37.109375,81.0546875,0.0
7.68359375,-47.36328125,-27.34375,-35.64453125,-38.0859375,-0.9765625,0.0
7.6875,-20.01953125,-22.94921875,-33.69140625,-34.66796875,31.73828125,0.0
7.69140625,9.27734375,-21.97265625,-45.8984375,-32.2265625,91.796875,0.0
7.6953125,-32.71484375,-25.390625,-44.43359375,-28.3203125,68.359375,0.0
7.69921875,-38.57421875,-23.4375,-32.71484375,-14.6484375,-46.875,0.0
7.703125,-54.19921875,-27.34375,-32.2265625,-21.484375,-130.859375,0.0
7.70703125,-56.15234375,-40.52734375,-34.66796875,-34.66796875,-25.390625,0.0
7.7109375,-31.73828125,-39.0625,-42.48046875,-34.1796875,42.48046875,0.0
7.71484375,-17.578125,-26.85546875,-33.203125,-17.08984375,113.76953125,0.0
7.71875,-27.34375,-33.203125,-22.94921875,-13.671875,89.35546875,0.0
7.72265625,-54.19921875,-45.8984375,-46.38671875,-33.203125,42.96875,0.0
7.7265625,-56.15234375,-41.015625,-49.8046875,-39.55078125,123.53515625,0.0
7.73046875,-11.23046875,-21.97265625,-37.109375,-21.97265625,87.890625,0.0
7.734375,31.25,-15.13671875,-40.52734375,6.8359375,106.93359375,0.0
7.73828125,5.37109375,-16.11328125,-32.2265625,-0.48828125,63.4765625,0.0
7.7421875,-63.96484375,-24.4140625,-29.296875,-56.15234375,-60.546875,0.0
7.74609375,-90.33203125,-41.9921875,16.11328125,-86.42578125,-30.76171875,0.0
7.75,-63.4765625,-58.59375,30.2734375,-72.265625,85.44921875,0.0
7.75390625,-41.9921875,-69.82421875,-9.27734375,-64.94140625,47.8515625,0.0
7.7578125,-78.125,-73.2421875,-12.20703125,-83.49609375,-96.19140625,0.0
7.76171875,-124.51171875,-77.1484375,35.64453125,-88.37890625,-158.203125,0.0
7.765625,-145.01953125,-80.56640625,50.78125,-85.44921875,-136.23046875,0.0
7.76953125,-132.8125,-88.37890625,-0.9765625,-86.42578125,-43.9453125,0.0
7.7734375,-92.7734375,-85.9375,-7.32421875,-89.35546875,44.921875,0.0
7.77734375,-90.33203125,-90.33203125,-3.41796875,-77.63671875,12.20703125,0.0
7.78125,-111.81640625,-93.26171875,-3.41796875,-73.2421875,-130.37109375,0.0
7.78515625,-116.2109375,-80.078125,-6.34765625,-70.80078125,-117.1875,0.0
7.7890625,-93.75,-84.47265625,-7.32421875,-63.4765625,22.94921875,0.0
7.79296875,-53.22265625,-96.19140625,-9.27734375,-50.29296875,-22.4609375,0.0
7.796875,-45.41015625,-82.51953125,-7.8125,-43.9453125,-111.328125,0.0
7.80078125,-80.56640625,-62.01171875,-20.01953125,-63.96484375,-114.74609375,0.0
7.8046875,-97.16796875,-46.38671875,-11.71875,-72.75390625,-97.65625,0.0
7.80859375,-71.2890625,-50.29296875,32.71484375,-60.546875,-77.1484375,0.0
7.8125,-36.62109375,-52.734375,12.20703125,-49.8046875,-12.6953125,0.0
7.81640625,-31.25,-45.41015625,-26.3671875,-60.546875,-73.73046875,0.0
7.8203125,-55.6640625,-47.8515625,-20.99609375,-54.19921875,-108.88671875,0.0
7.82421875,-81.0546875,-52.24609375,-26.85546875,-45.41015625,-155.76171875,0.0
7.828125,-78.125,-47.8515625,-41.9921875,-39.55078125,-150.390625,0.0
7.83203125,-24.90234375,-41.50390625,-30.76171875,-12.6953125,-6.34765625,0.0
7.8359375,-11.71875,-39.55078125,7.32421875,-17.08984375,10.7421875,0.0
7.83984375,-29.296875,-48.33984375,7.32421875,-38.57421875,-30.2734375,0.0
7.84375,-51.26953125,-60.05859375,-25.87890625,-38.0859375,-34.66796875,0.0
7.84765625,-53.7109375,-46.875,-23.92578125,-34.66796875,-35.64453125,0.0
7.8515625,-19.04296875,-33.69140625,-16.11328125,-32.71484375,-3.41796875,0.0
7.85546875,10.25390625,-25.390625,-21.97265625,-28.80859375,-24.90234375,0.0
7.859375,-10.7421875,-17.578125,-17.578125,-21.97265625,-26.85546875,0.0
7.86328125,-57.6171875,-21.97265625,-17.578125,-38.0859375,-17.578125,0.0
7.8671875,-58.10546875,-18.5546875,18.06640625,-50.29296875,-5.37109375,0.0
7.87109375,-36.62109375,-21.97265625,26.85546875,-50.29296875,60.05859375,0.0
7.875,-44.43359375,-19.53125,-32.2265625,-61.03515625,24.4140625,0.0
7.87890625,-61.5234375,-3.41796875,-34.1796875,-69.82421875,-58.10546875,0.0
7.8828125,-89.35546875,-4.8828125,-27.83203125,-85.44921875,-84.9609375,0.0
7.88671875,-116.69921875,-8.30078125,-31.73828125,-111.81640625,-26.85546875,0.0
7.890625,-112.79296875,9.27734375,-26.3671875,-130.859375,58.10546875,0.0
7.89453125,-109.86328125,10.7421875,-19.04296875,-151.85546875,67.87109375,0.0
7.8984375,-135.25390625,-13.18359375,-17.08984375,-183.10546875,11.23046875,0.0
7.90234375,-186.03515625,-9.27734375,-26.3671875,-205.56640625,-48.33984375,0.0
7.90625,-188.4765625,21.97265625,-36.62109375,-190.4296875,-20.5078125,0.0
7.91015625,-169.43359375,32.2265625,-10.7421875,-181.640625,2.44140625,0.0
7.9140625,-191.40625,19.04296875,40.0390625,-208.49609375,-49.8046875,0.0
7.91796875,-209.47265625,-3.41796875,12.20703125,-223.6328125,-131.34765625,0.0
7.921875,-227.05078125,-5.37109375,-31.73828125,-217.7734375,-112.79296875,0.0
7.92578125,-243.1640625,8.30078125,-20.01953125,-218.26171875,-34.1796875,0.0
7.9296875,-216.796875,15.625,-15.625,-214.84375,9.765625,0.0
7.93359375,-168.45703125,7.8125,-21.484375,-193.84765625,111.81640625,0.0
7.9375,-156.25,-12.6953125,-12.6953125,-176.7578125,74.21875,0.0
7.94140625,-182.6171875,-1.46484375,-13.18359375,-171.38671875,-164.55078125,0.0
7.9453125,-184.5703125,16.6015625,-13.671875,-160.64453125,-107.91015625,0.0
7.94921875,-137.20703125,10.25390625,-12.6953125,-139.6484375,77.63671875,0.0
7.953125,-97.65625,-3.41796875,-14.6484375,-132.32421875,32.71484375,0.0
7.95703125,-91.796875,-10.7421875,31.25,-126.953125,-6.8359375,0.0
7.9609375,-106.93359375,-20.99609375,28.3203125,-121.09375,-66.89453125,0.0
7.96484375,-125.0,-18.5546875,-29.296875,-116.69921875,-118.1640625,0.0
7.96875,-107.421875,-20.99609375,-31.25,-90.33203125,-74.70703125,0.0
7.97265625,-58.10546875,-28.3203125,-20.99609375,-53.22265625,-67.87109375,0.0
7.9765625,-29.78515625,-22.94921875,-20.5078125,-28.80859375,-61.5234375,0.0
7.98046875,-44.43359375,-32.2265625,-34.1796875,-20.99609375,-36.62109375,0.0
7.984375,-57.12890625,-45.41015625,-45.41015625,-23.4375,-104.98046875,0.0
7.98828125,-37.59765625,-48.33984375,-38.0859375,-41.015625,-94.7265625,0.0
7.9921875,-24.90234375,-55.6640625,-40.0390625,-36.1328125,-22.94921875,0.0
7.99609375,-8.30078125,-48.828125,-48.828125,-0.9765625,-7.32421875,0.0
8.0,-19.04296875,-55.17578125,-14.16015625,4.8828125,-41.50390625,0.0
8.00390625,-43.45703125,-62.01171875,11.71875,-19.53125,-36.1328125,0.0
8.0078125,-29.78515625,-46.38671875,-29.296875,-6.34765625,2.9296875,0.0
8.01171875,2.9296875,-36.1328125,-50.29296875,15.13671875,1.953125,0.0
8.015625,20.99609375,-47.36328125,-8.30078125,12.20703125,-46.875,0.0
8.01953125,6.8359375,-66.40625,-8.30078125,17.578125,-112.79296875,0.0
8.0234375,-9.27734375,-56.640625,-52.24609375,18.5546875,-98.6328125,0.0
8.02734375,-9.765625,-48.33984375,-48.33984375,18.06640625,-103.515625,0.0
8.03125,15.13671875,-52.24609375,-34.1796875,34.1796875,-105.46875,0.0
8.03515625,44.43359375,-54.6875,-32.71484375,46.38671875,-42.48046875,0.0
8.0390625,30.76171875,-44.43359375,-46.875,51.26953125,-57.6171875,0.0
8.04296875,6.8359375,-29.296875,-48.828125,34.1796875,-125.48828125,0.0
8.046875,10.25390625,-29.78515625,7.32421875,16.11328125,-126.46484375,0.0
8.05078125,47.8515625,-34.66796875,13.671875,30.2734375,12.20703125,0.0
8.0546875,59.5703125,-38.0859375,-40.0390625,44.43359375,33.203125,0.0
8.05859375,23.4375,-50.29296875,-37.59765625,56.15234375,-33.203125,0.0
8.0625,2.44140625,-50.78125,-33.203125,57.12890625,-3.41796875,0.0
8.06640625,11.23046875,-39.55078125,-37.109375,31.73828125,-35.15625,0.0
8.0703125,29.78515625,-37.109375,-44.43359375,33.203125,-27.83203125,0.0
8.07421875,49.31640625,-48.33984375,-28.3203125,33.203125,13.671875,0.0
8.078125,51.7578125,-56.640625,-10.25390625,27.34375,62.5,0.0
8.08203125,16.11328125,-55.6640625,-35.64453125,40.52734375,104.98046875,0.0
8.0859375,6.34765625,-60.05859375,-50.29296875,44.921875,20.99609375,0.0
8.08984375,32.2265625,-62.01171875,-39.55078125,39.0625,15.625,0.0
8.09375,45.41015625,-46.38671875,-28.80859375,29.78515625,112.3046875,0.0
8.09765625,35.15625,-30.76171875,-46.875,36.1328125,75.1953125,0.0
8.1015625,6.34765625,-38.0859375,-47.36328125,24.90234375,-74.21875,0.0
8.10546875,-7.8125,-51.7578125,-33.69140625,16.11328125,-67.3828125,0.0
8.109375,26.85546875,-47.8515625,-36.62109375,28.80859375,13.671875,0.0
8.11328125,38.0859375,-34.66796875,-51.7578125,23.4375,73.2421875,0.0
8.1171875,17.578125,-35.15625,-50.78125,25.390625,18.5546875,0.0
8.12109375,20.5078125,-32.71484375,-56.640625,22.4609375,-123.53515625,0.0
8.125,0.0,-34.1796875,-60.05859375,4.39453125,-145.01953125,0.0
8.12890625,0.48828125,-44.43359375,-43.9453125,-0.48828125,-50.29296875,0.0
8.1328125,27.83203125,-51.26953125,-47.8515625,9.27734375,-47.36328125,0.0
8.13671875,26.85546875,-69.3359375,-10.25390625,33.203125,-102.5390625,0.0
8.140625,21.484375,-59.5703125,19.53125,43.9453125,-122.55859375,0.0
8.14453125,-15.625,-29.78515625,-28.80859375,15.13671875,-85.44921875,0.0
8.1484375,-13.671875,-30.76171875,-43.45703125,19.04296875,51.26953125,0.0
8.15234375,32.71484375,-40.0390625,-33.203125,23.4375,54.6875,0.0
8.15625,27.83203125,-34.1796875,-43.45703125,5.37109375,-62.01171875,0.0
8.16015625,-13.18359375,-27.34375,-60.546875,-7.32421875,-9.765625,0.0
8.1640625,-33.69140625,-33.69140625,-58.10546875,-16.6015625,49.31640625,0.0
8.16796875,-26.3671875,-36.62109375,-50.78125,-0.9765625,31.73828125,0.0
8.171875,-2.9296875,-45.8984375,-44.43359375,9.27734375,76.66015625,0.0
8.17578125,24.4140625,-44.921875,-44.43359375,11.23046875,58.10546875,0.0
8.1796875,9.27734375,-42.96875,-25.390625,11.71875,0.9765625,0.0
8.18359375,-11.23046875,-52.734375,-5.859375,7.32421875,-11.71875,0.0
8.1875,-13.18359375,-41.9921875,-36.1328125,3.41796875,24.90234375,0.0
8.19140625,9.27734375,-33.69140625,-55.17578125,18.06640625,40.0390625,0.0
8.1953125,25.87890625,-31.73828125,-25.390625,24.90234375,-63.4765625,0.0
8.19921875,3.41796875,-35.15625,-9.765625,19.04296875,-131.8359375,0.0
8.203125,-10.25390625,-33.69140625,-30.2734375,4.8828125,-163.0859375,0.0
8.20703125,-2.9296875,-38.0859375,-33.203125,11.71875,-128.90625,0.0
8.2109375,20.01953125,-44.43359375,-5.37109375,24.90234375,-65.4296875,0.0
8.21484375,11.71875,-26.85546875,-2.9296875,0.48828125,-61.5234375,0.0
8.21875,-16.6015625,-19.04296875,-49.8046875,-29.296875,-41.015625,0.0
8.22265625,-22.4609375,-18.5546875,-51.7578125,-31.73828125,-85.9375,0.0
8.2265625,-61.03515625,-22.94921875,-39.0625,-36.1328125,-79.1015625,0.0
8.23046875,-61.03515625,-12.6953125,-41.015625,-30.76171875,20.99609375,0.0
8.234375,-29.78515625,-7.32421875,-41.50390625,-27.83203125,70.3125,0.0
8.23828125,-55.17578125,-18.06640625,-44.921875,-46.875,-44.43359375,0.0
8.2421875,-89.84375,-21.97265625,-23.4375,-64.94140625,-129.39453125,0.0
8.24609375,-99.12109375,-20.5078125,-20.01953125,-92.28515625,-64.453125,0.0
8.25,-106.4453125,-16.11328125,-35.64453125,-101.5625,-35.64453125,0.0
8.25390625,-126.46484375,-3.90625,-19.04296875,-104.4921875,-36.1328125,0.0
8.2578125,-144.53125,5.37109375,3.90625,-136.23046875,-50.29296875,0.0
8.26171875,-192.87109375,1.46484375,-5.37109375,-178.7109375,-109.86328125,0.0
8.265625,-239.74609375,-5.37109375,-22.4609375,-215.33203125,-94.7265625,0.0
8.26953125,-224.609375,5.37109375,-15.13671875,-229.4921875,-48.33984375,0.0
8.2734375,-192.3828125,20.5078125,-27.34375,-229.00390625,-5.37109375,0.0
8.27734375,-198.73046875,5.37109375,-46.38671875,-219.7265625,-51.7578125,0.0
8.28125,-212.40234375,-8.7890625,-20.5078125,-215.8203125,-87.890625,0.0
8.28515625,-248.53515625,7.32421875,15.13671875,-249.51171875,7.8125,0.0
8.2890625,-259.765625,22.4609375,23.4375,-273.92578125,121.09375,0.0
8.29296875,-228.515625,13.671875,-6.8359375,-263.18359375,156.25,0.0
8.296875,-225.5859375,6.34765625,-40.0390625,-250.48828125,40.52734375,0.0
8.30078125,-245.1171875,5.37109375,7.32421875,-235.83984375,-104.4921875,0.0
8.3046875,-256.34765625,-7.32421875,37.109375,-232.91015625,-136.23046875,0.0
8.30859375,-245.60546875,-23.92578125,-23.92578125,-234.86328125,-4.39453125,0.0
8.3125,-202.63671875,-15.13671875,-27.34375,-212.890625,56.640625,0.0
8.31640625,-188.4765625,2.9296875,-20.99609375,-203.125,-62.5,0.0
8.3203125,-206.54296875,-7.32421875,-31.73828125,-206.0546875,-128.41796875,0.0
8.32421875,-222.65625,-21.484375,-39.55078125,-196.77734375,-79.58984375,0.0
8.328125,-209.9609375,-20.5078125,-50.78125,-192.3828125,-7.8125,0.0
8.33203125,-169.43359375,-12.6953125,5.859375,-174.8046875,-23.92578125,0.0
8.3359375,-142.578125,-18.06640625,21.484375,-142.08984375,-27.83203125,0.0
8.33984375,-144.04296875,-25.87890625,-37.59765625,-134.27734375,-41.015625,0.0
8.34375,-146.97265625,-15.13671875,-47.8515625,-133.30078125,-94.7265625,0.0
8.34765625,-131.8359375,-22.4609375,-62.01171875,-120.1171875,82.03125,0.0
8.3515625,-92.7734375,-33.203125,-64.94140625,-91.796875,125.48828125,0.0
8.35546875,-59.5703125,-27.83203125,-65.4296875,-62.98828125,58.10546875,0.0
8.359375,-54.6875,-22.4609375,-43.45703125,-49.8046875,55.17578125,0.0
8.36328125,-80.56640625,-26.3671875,-31.25,-57.12890625,6.34765625,0.0
8.3671875,-93.26171875,-35.15625,-63.96484375,-84.9609375,21.484375,0.0
8.37109375,-56.640625,-39.0625,-77.1484375,-81.0546875,-21.97265625,0.0
8.375,-26.3671875,-58.59375,-48.33984375,-45.8984375,-13.18359375,0.0
8.37890625,-20.5078125,-64.453125,-17.08984375,-6.8359375,-54.19921875,0.0
8.3828125,-47.8515625,-67.3828125,-53.7109375,-13.18359375,-84.9609375,0.0
8.38671875,-60.05859375,-69.82421875,-90.8203125,-57.12890625,-50.78125,0.0
8.390625,-8.7890625,-60.05859375,-51.7578125,-26.85546875,-7.32421875,0.0
8.39453125,23.92578125,-41.9921875,-30.2734375,11.71875,76.171875,0.0
8.3984375,-13.671875,-44.921875,-56.15234375,-8.7890625,73.2421875,0.0
8.40234375,-46.875,-53.7109375,-58.59375,-22.94921875,-0.48828125,0.0
8.40625,-49.31640625,-56.15234375,-60.05859375,-34.66796875,37.59765625,0.0
8.41015625,3.41796875,-67.3828125,-56.15234375,-8.7890625,64.453125,0.0
8.4140625,61.03515625,-53.22265625,-45.41015625,20.99609375,7.8125,0.0
8.41796875,17.08984375,-32.71484375,-60.546875,3.41796875,-80.56640625,0.0
8.421875,-16.11328125,-38.57421875,-23.4375,3.90625,-156.25,0.0
8.42578125,-1.953125,-45.8984375,10.7421875,3.90625,-161.1328125,0.0
8.4296875,10.7421875,-56.15234375,-54.19921875,-6.8359375,-68.359375,0.0
8.43359375,55.17578125,-61.03515625,-68.84765625,18.5546875,-24.4140625,0.0
8.4375,40.52734375,-62.01171875,-53.7109375,33.69140625,-38.57421875,0.0
8.44140625,-5.37109375,-59.5703125,-56.640625,-5.37109375,-95.21484375,0.0
8.4453125,-13.671875,-64.453125,-62.01171875,-22.94921875,-110.3515625,0.0
8.44921875,11.23046875,-69.82421875,-50.29296875,12.20703125,18.5546875,0.0
8.453125,67.3828125,-59.08203125,-39.55078125,45.41015625,43.9453125,0.0
8.45703125,61.5234375,-58.59375,-43.45703125,26.3671875,-42.96875,0.0
8.4609375,18.06640625,-58.10546875,-61.5234375,10.25390625,-62.5,0.0
8.46484375,4.8828125,-56.15234375,-47.36328125,20.5078125,1.953125,0.0
8.46875,39.55078125,-65.4296875,30.2734375,28.80859375,64.453125,0.0
8.47265625,62.98828125,-61.03515625,9.765625,28.3203125,70.3125,0.0
8.4765625,54.19921875,-54.6875,-48.828125,27.34375,6.34765625,0.0
8.48046875,35.15625,-51.26953125,-41.50390625,24.90234375,-110.83984375,0.0
8.484375,-0.48828125,-46.875,-38.57421875,20.01953125,-35.64453125,0.0
8.48828125,11.23046875,-41.9921875,-44.43359375,32.71484375,49.31640625,0.0
8.4921875,50.29296875,-42.48046875,-51.26953125,44.43359375,48.828125,0.0
8.49609375,44.921875,-53.22265625,-32.71484375,45.41015625,-40.52734375,0.0
8.5,26.3671875,-72.75390625,-17.578125,45.8984375,-104.00390625,0.0
8.50390625,10.7421875,-69.82421875,-36.62109375,29.78515625,-59.5703125,0.0
8.5078125,12.20703125,-39.55078125,-50.78125,27.34375,-45.8984375,0.0
8.51171875,55.6640625,-27.83203125,-23.92578125,33.203125,-15.625,0.0
8.515625,71.2890625,-36.1328125,-14.16015625,44.43359375,-21.97265625,0.0
8.51953125,25.87890625,-42.48046875,-45.41015625,43.9453125,-92.28515625,0.0
8.5234375,-3.41796875,-58.10546875,-36.62109375,20.99609375,-316.40625,0.0
8.52734375,31.73828125,-60.05859375,-18.5546875,37.59765625,-313.4765625,0.0
8.53125,80.078125,-54.19921875,-39.55078125,54.19921875,-2.44140625,0.0
8.53515625,58.10546875,-65.91796875,-47.8515625,42.96875,-16.6015625,0.0
8.5390625,13.671875,-56.15234375,-34.66796875,34.66796875,-73.73046875,0.0
8.54296875,11.71875,-43.45703125,-39.0625,18.06640625,-3.90625,0.0
8.546875,-10.7421875,-39.55078125,-42.48046875,4.39453125,27.34375,0.0
8.55078125,-12.6953125,-35.64453125,-34.66796875,10.25390625,70.3125,0.0
8.5546875,28.3203125,-41.9921875,-35.15625,22.4609375,-15.625,0.0
8.55859375,14.6484375,-48.828125,-40.52734375,34.1796875,-85.44921875,0.0
8.5625,-21.97265625,-46.38671875,-36.1328125,27.34375,-74.21875,0.0
8.56640625,-16.11328125,-46.875,-33.203125,15.13671875,-12.6953125,0.0
8.5703125,31.25,-41.50390625,-38.0859375,22.4609375,117.1875,0.0
8.57421875,66.89453125,-42.48046875,-30.76171875,41.50390625,107.91015625,0.0
8.578125,56.640625,-57.6171875,-27.34375,47.8515625,-8.7890625,0.0
8.58203125,24.90234375,-51.26953125,-43.45703125,34.66796875,-70.3125,0.0
8.5859375,7.8125,-51.7578125,-32.71484375,39.0625,-15.13671875,0.0
8.58984375,32.2265625,-53.7109375,-10.25390625,49.31640625,75.68359375,0.0
8.59375,56.640625,-29.296875,-6.34765625,60.546875,-0.48828125,0.0
8.59765625,41.015625,-23.4375,-18.5546875,44.921875,-34.66796875,0.0
8.6015625,12.20703125,-44.43359375,-27.34375,13.671875,-32.71484375,0.0
8.60546875,2.9296875,-35.15625,-25.390625,9.27734375,-48.33984375,0.0
8.609375,-2.9296875,-23.4375,-24.4140625,15.13671875,-27.34375,0.0
8.61328125,11.23046875,-42.48046875,-22.94921875,15.13671875,12.6953125,0.0
8.6171875,4.39453125,-41.50390625,-27.34375,0.9765625,-55.17578125,0.0
8.62109375,-19.04296875,-41.015625,-39.55078125,-12.20703125,-138.18359375,0.0
8.625,-23.92578125,-38.57421875,-37.59765625,-27.83203125,-117.1875,0.0
8.62890625,-28.3203125,-34.1796875,-20.99609375,-48.33984375,-79.1015625,0.0
8.6328125,-31.25,-47.8515625,-2.9296875,-43.9453125,2.44140625,0.0
8.63671875,-25.390625,-25.390625,-14.16015625,-31.73828125,-8.7890625,0.0
8.640625,-72.265625,-16.6015625,-28.3203125,-72.75390625,-47.36328125,0.0
8.64453125,-132.32421875,-30.2734375,-25.87890625,-117.67578125,-111.81640625,0.0
8.6484375,-116.2109375,-22.4609375,-19.04296875,-102.05078125,-83.984375,0.0
8.65234375,-82.51953125,-2.44140625,-5.37109375,-85.9375,-90.8203125,0.0
8.65625,-126.953125,5.859375,-2.9296875,-130.859375,-134.765625,0.0
8.66015625,-182.6171875,-21.484375,14.16015625,-170.8984375,-67.3828125,0.0
8.6640625,-199.21875,-31.25,26.3671875,-171.875,6.8359375,0.0
8.66796875,-214.84375,-20.5078125,-6.34765625,-198.73046875,53.7109375,0.0
8.671875,-182.6171875,2.44140625,-18.5546875,-207.51953125,-81.0546875,0.0
8.67578125,-180.6640625,22.94921875,19.04296875,-208.984375,-155.2734375,0.0
8.6796875,-208.49609375,17.578125,20.5078125,-238.28125,-165.52734375,0.0
8.68359375,-210.9375,11.23046875,-19.53125,-225.09765625,-166.9921875,0.0
8.6875,-225.5859375,-3.41796875,-29.78515625,-210.44921875,-89.84375,0.0
8.69140625,-189.94140625,5.859375,-29.296875,-215.33203125,-63.4765625,0.0
8.6953125,-158.203125,22.4609375,-39.0625,-189.94140625,-54.6875,0.0
8.69921875,-167.96875,27.83203125,-61.03515625,-209.47265625,-148.92578125,0.0
8.703125,-177.24609375,16.6015625,-78.125,-206.54296875,-203.61328125,0.0
8.70703125,-154.78515625,3.90625,-50.78125,-181.640625,-54.19921875,0.0
8.7109375,-98.6328125,31.25,-48.828125,-159.1796875,-38.0859375,0.0
8.71484375,-69.82421875,50.29296875,-87.890625,-114.74609375,-91.796875,0.0
8.71875,-90.33203125,39.55078125,-95.21484375,-103.515625,-145.5078125,0.0
8.72265625,-97.16796875,46.38671875,-108.88671875,-107.91015625,-230.95703125,0.0
8.7265625,-56.640625,44.921875,-115.72265625,-88.37890625,-142.578125,0.0
8.73046875,-18.06640625,44.43359375,-121.58203125,-74.21875,-38.57421875,0.0
8.734375,-3.41796875,60.546875,-128.90625,-66.40625,-40.52734375,0.0
8.73828125,-1.46484375,53.22265625,-135.7421875,-47.36328125,-95.703125,0.0
8.7421875,-18.06640625,46.38671875,-144.53125,-43.45703125,-176.7578125,0.0
8.74609375,-8.7890625,39.0625,-150.390625,-50.29296875,-145.99609375,0.0
8.75,35.64453125,17.08984375,-140.13671875,-24.90234375,-136.71875,0.0
8.75390625,54.19921875,22.4609375,-107.421875,-11.23046875,-95.21484375,0.0
8.7578125,48.33984375,38.57421875,-115.72265625,-12.6953125,-40.0390625,0.0
8.76171875,40.0390625,42.48046875,-147.4609375,-5.859375,-107.421875,0.0
8.765625,51.7578125,19.53125,-119.140625,8.7890625,-163.0859375,0.0
8.76953125,88.37890625,0.0,-104.00390625,40.52734375,-64.453125,0.0
8.7734375,117.67578125,29.78515625,-125.9765625,53.7109375,-5.37109375,0.0
8.77734375,112.3046875,31.73828125,-112.3046875,50.78125,-77.63671875,0.0
8.78125,66.89453125,13.671875,-104.98046875,60.546875,-137.6953125,0.0
8.78515625,55.17578125,-5.859375,-98.6328125,80.56640625,-103.515625,0.0
8.7890625,100.09765625,-4.39453125,-98.6328125,79.1015625,1.953125,0.0
8.79296875,125.48828125,29.296875,-97.16796875,80.078125,118.1640625,0.0
8.796875,112.3046875,34.1796875,-57.12890625,88.8671875,157.71484375,0.0
8.80078125,80.078125,21.97265625,-48.33984375,79.58984375,185.05859375,0.0
8.8046875,62.01171875,17.578125,-77.63671875,77.1484375,209.9609375,0.0
8.80859375,84.47265625,11.71875,-74.21875,70.3125,187.01171875,0.0
8.8125,111.81640625,0.0,-69.82421875,60.05859375,168.45703125,0.0
8.81640625,104.00390625,-14.6484375,-67.3828125,64.453125,119.62890625,0.0
8.8203125,80.078125,-18.06640625,-66.89453125,64.453125,47.36328125,0.0
8.82421875,54.6875,-6.34765625,-62.5,61.03515625,-23.92578125,0.0
8.828125,64.453125,-29.296875,-57.12890625,60.05859375,37.109375,0.0
8.83203125,96.6796875,-58.10546875,-50.78125,54.19921875,130.37109375,0.0
8.8359375,102.5390625,-15.13671875,-50.78125,59.08203125,120.1171875,0.0
8.83984375,68.84765625,-0.9765625,-30.76171875,58.10546875,5.37109375,0.0
8.84375,37.109375,-18.5546875,-15.13671875,38.0859375,-28.80859375,0.0
8.84765625,41.9921875,-17.578125,-44.43359375,33.203125,40.52734375,0.0
8.8515625,70.3125,-16.11328125,-54.6875,39.55078125,72.265625,0.0
8.85546875,86.9140625,-21.484375,-42.48046875,44.43359375,34.1796875,0.0
8.859375,39.55078125,-30.2734375,-36.1328125,40.0390625,-12.20703125,0.0
8.86328125,-2.44140625,-38.57421875,-43.45703125,33.203125,0.9765625,0.0
8.8671875,12.20703125,-36.1328125,-47.36328125,37.109375,48.828125,0.0
8.87109375,29.78515625,-42.48046875,-42.48046875,27.83203125,8.7890625,0.0
8.875,50.78125,-61.03515625,-31.25,38.0859375,52.734375,0.0
8.87890625,41.015625,-55.17578125,-30.76171875,48.33984375,54.19921875,0.0
8.8828125,4.8828125,-47.36328125,-37.109375,20.01953125,-28.80859375,0.0
8.88671875,7.8125,-45.8984375,-12.6953125,10.7421875,-27.83203125,0.0
8.890625,34.1796875,-48.33984375,-10.25390625,27.83203125,-40.52734375,0.0
8.89453125,43.9453125,-54.19921875,-34.66796875,28.80859375,-20.99609375,0.0
8.8984375,27.83203125,-40.52734375,-31.73828125,5.37109375,-81.0546875,0.0
8.90234375,-5.859375,-40.52734375,-31.73828125,-1.46484375,-111.81640625,0.0
8.90625,-28.3203125,-50.78125,-39.0625,-2.9296875,-53.22265625,0.0
8.91015625,-4.8828125,-70.80078125,-38.57421875,-7.8125,13.18359375,0.0
8.9140625,41.50390625,-65.91796875,-35.15625,9.27734375,73.2421875,0.0
8.91796875,16.6015625,-40.52734375,-37.59765625,-6.34765625,-5.37109375,0.0
8.921875,-16.11328125,-39.0625,-25.87890625,-6.34765625,-125.0,0.0
8.92578125,-0.48828125,-53.7109375,-33.203125,13.671875,-149.90234375,0.0
8.9296875,25.390625,-55.17578125,-20.01953125,20.01953125,-133.30078125,0.0
8.93359375,51.7578125,-48.828125,17.08984375,25.390625,-49.8046875,0.0
8.9375,44.43359375,-38.0859375,-19.04296875,6.8359375,1.46484375,0.0
8.94140625,-13.671875,-41.50390625,-39.0625,-11.71875,-61.03515625,0.0
8.9453125,-34.66796875,-70.3125,-28.3203125,-11.23046875,-44.43359375,0.0
8.94921875,7.8125,-62.5,-27.83203125,13.18359375,-13.18359375,0.0
8.953125,26.85546875,-53.22265625,-24.90234375,25.87890625,-14.16015625,0.0
8.95703125,18.5546875,-47.8515625,-20.5078125,5.37109375,-21.484375,0.0
8.9609375,-3.41796875,-45.41015625,0.9765625,2.9296875,-9.27734375,0.0
8.96484375,-32.71484375,-53.22265625,-0.48828125,2.44140625,0.0,0.0
8.96875,-14.6484375,-65.91796875,-17.08984375,3.41796875,99.609375,0.0
8.97265625,30.2734375,-73.2421875,-24.4140625,4.39453125,91.30859375,0.0
8.9765625,23.4375,-42.96875,20.5078125,-5.859375,17.578125,0.0
8.98046875,-20.99609375,-33.69140625,32.2265625,-20.5078125,-46.875,0.0
8.984375,-47.36328125,-53.22265625,-30.76171875,-34.1796875,-54.19921875,0.0
8.98828125,-37.109375,-59.5703125,-34.1796875,-20.99609375,13.671875,0.0
8.9921875,6.8359375,-52.734375,-12.20703125,-6.8359375,0.9765625,0.0
8.99609375,25.87890625,-45.41015625,-20.5078125,-15.625,-83.49609375,0.0
9.0,-21.97265625,-47.36328125,-38.0859375,-24.90234375,-131.8359375,0.0
9.00390625,-55.17578125,-54.6875,-36.62109375,-36.62109375,-135.7421875,0.0
9.0078125,-43.45703125,-55.6640625,-41.015625,-41.9921875,-141.11328125,0.0
9.01171875,-3.90625,-50.29296875,-29.296875,-10.25390625,-45.8984375,0.0
9.015625,27.34375,-53.22265625,-18.5546875,17.578125,-7.32421875,0.0
9.01953125,-17.08984375,-66.89453125,-21.97265625,7.8125,-58.59375,0.0
9.0234375,-51.26953125,-61.03515625,-22.4609375,0.9765625,-45.8984375,0.0
9.02734375,-43.9453125,-43.45703125,-25.390625,-12.20703125,2.9296875,0.0
9.03125,-8.30078125,-43.45703125,-34.1796875,-22.94921875,-3.90625,0.0
9.03515625,14.16015625,-52.734375,-25.390625,-6.8359375,-46.38671875,0.0
9.0390625,2.44140625,-50.29296875,16.6015625,3.90625,-64.94140625,0.0
9.04296875,-29.78515625,-44.921875,-8.30078125,-11.71875,-52.734375,0.0
9.046875,-40.52734375,-43.45703125,-58.59375,-18.06640625,3.90625,0.0
9.05078125,1.46484375,-37.109375,-39.0625,-0.48828125,100.09765625,0.0
9.0546875,22.4609375,-24.90234375,-27.34375,6.34765625,35.64453125,0.0
9.05859375,9.765625,-19.04296875,-51.7578125,-9.765625,-65.91796875,0.0
9.0625,-2.44140625,-26.3671875,-55.17578125,-17.578125,-35.15625,0.0
9.06640625,34.66796875,-23.92578125,-51.26953125,6.34765625,-19.04296875,0.0
9.0703125,43.45703125,-20.5078125,-40.52734375,21.484375,30.76171875,0.0
9.07421875,57.12890625,-32.71484375,-38.0859375,13.671875,18.5546875,0.0
9.078125,45.8984375,-25.390625,-45.8984375,13.671875,-40.0390625,0.0
9.08203125,-13.18359375,-23.92578125,-27.34375,-10.7421875,-85.44921875,0.0
9.0859375,-15.625,-38.57421875,-20.01953125,-30.76171875,-63.96484375,0.0
9.08984375,5.859375,-37.109375,-43.9453125,-6.8359375,26.3671875,0.0
9.09375,23.4375,-14.16015625,-41.015625,20.01953125,-11.23046875,0.0
9.09765625,27.34375,-0.48828125,-29.78515625,1.953125,-45.41015625,0.0
9.1015625,-23.92578125,-12.20703125,-38.57421875,-13.671875,-100.5859375,0.0
9.10546875,-62.01171875,-22.4609375,-41.50390625,1.953125,-166.50390625,0.0
9.109375,-26.85546875,-23.92578125,-27.34375,1.46484375,-168.9453125,0.0
9.11328125,-7.32421875,-31.73828125,-28.3203125,-6.34765625,-202.1484375,0.0
9.1171875,-8.30078125,-43.45703125,-35.15625,-2.9296875,-247.0703125,0.0
9.12109375,-24.90234375,-45.8984375,-40.0390625,-9.27734375,-201.171875,0.0
9.125,-56.640625,-36.62109375,-28.3203125,-22.94921875,-103.515625,0.0
9.12890625,-34.1796875,-35.15625,4.8828125,-7.8125,-31.73828125,0.0
9.1328125,-0.48828125,-41.9921875,-9.27734375,-1.953125,1.46484375,0.0
9.13671875,-15.13671875,-47.36328125,-33.203125,-27.34375,24.4140625,0.0
9.140625,-61.03515625,-46.875,-19.04296875,-36.1328125,-24.90234375,0.0
9.14453125,-85.44921875,-41.50390625,-16.11328125,-28.3203125,-73.73046875,0.0
9.1484375,-33.203125,-33.203125,-35.15625,-20.01953125,41.50390625,0.0
9.15234375,11.71875,-24.4140625,-36.62109375,-16.11328125,71.2890625,0.0
9.15625,-11.71875,-30.2734375,-33.69140625,-17.578125,-21.484375,0.0
9.16015625,-39.55078125,-37.59765625,-23.92578125,-0.48828125,-16.6015625,0.0
9.1640625,-48.33984375,-33.203125,-29.78515625,-12.6953125,16.6015625,0.0
9.16796875,-53.22265625,-59.5703125,-39.0625,-37.109375,17.08984375,0.0
9.171875,-24.4140625,-62.98828125,-23.4375,-35.15625,51.26953125,0.0
9.17578125,-4.39453125,-24.4140625,-18.5546875,-21.97265625,107.421875,0.0
9.1796875,-51.26953125,-29.78515625,-30.2734375,-9.27734375,-12.20703125,0.0
9.18359375,-66.40625,-49.8046875,-35.64453125,-31.25,-62.98828125,0.0
9.1875,-40.0390625,-38.57421875,-30.2734375,-42.96875,48.828125,0.0
9.19140625,-2.9296875,-27.34375,-17.578125,-33.203125,94.23828125,0.0
9.1953125,-3.41796875,-43.9453125,-20.99609375,-27.34375,9.27734375,0.0
9.19921875,-49.8046875,-52.734375,-37.59765625,-23.92578125,-153.80859375,0.0
9.203125,-65.91796875,-37.109375,-46.38671875,-12.6953125,-117.67578125,0.0
9.20703125,-62.5,-34.66796875,-47.8515625,-26.85546875,-78.125,0.0
9.2109375,-30.2734375,-40.52734375,-50.29296875,-54.19921875,-48.33984375,0.0
9.21484375,-3.41796875,-36.1328125,-33.203125,-43.9453125,-30.2734375,0.0
9.21875,-35.64453125,-42.48046875,-21.484375,-11.71875,-65.91796875,0.0
9.22265625,-62.98828125,-58.59375,-26.3671875,-34.1796875,-72.75390625,0.0
9.2265625,-56.640625,-69.82421875,-38.57421875,-75.68359375,-14.16015625,0.0
9.23046875,-27.34375,-53.22265625,-35.64453125,-61.5234375,-20.99609375,0.0
9.234375,-18.5546875,-17.578125,-21.97265625,-54.6875,-13.18359375,0.0
9.23828125,-48.33984375,-20.5078125,-24.4140625,-66.40625,47.36328125,0.0
9.2421875,-67.87109375,-31.73828125,-40.52734375,-43.9453125,-4.8828125,0.0
9.24609375,-65.4296875,-40.52734375,-23.4375,-43.9453125,-6.8359375,0.0
9.25,-30.2734375,-54.6875,-6.8359375,-47.8515625,41.9921875,0.0
9.25390625,54.6875,-43.9453125,-36.1328125,-6.8359375,10.25390625,0.0
9.2578125,39.55078125,-33.69140625,-43.9453125,-24.90234375,-48.828125,0.0
9.26171875,-62.98828125,-26.85546875,-35.64453125,-62.98828125,-125.9765625,0.0
9.265625,-71.77734375,-24.4140625,-28.80859375,-41.50390625,-92.28515625,0.0
9.26953125,-35.15625,-21.97265625,-39.55078125,-26.3671875,33.203125,0.0
9.2734375,8.30078125,-19.53125,-53.22265625,-31.25,14.16015625,0.0
9.27734375,2.9296875,-27.83203125,-35.15625,-43.45703125,-38.0859375,0.0
9.28125,-41.015625,-31.73828125,-21.97265625,-69.3359375,-57.6171875,0.0
9.28515625,-59.08203125,-41.9921875,-21.97265625,-71.77734375,26.3671875,0.0
9.2890625,-38.0859375,-48.33984375,-22.4609375,-51.7578125,66.40625,0.0
9.29296875,-1.953125,-41.50390625,-23.4375,-37.59765625,-60.05859375,0.0
9.296875,-16.6015625,-43.45703125,-27.34375,-31.25,-126.46484375,0.0
9.30078125,-58.59375,-39.0625,-46.875,-33.203125,-83.49609375,0.0
9.3046875,-69.3359375,-37.59765625,-35.15625,-48.33984375,-63.4765625,0.0
9.30859375,-37.109375,-21.97265625,19.04296875,-63.96484375,-38.0859375,0.0
9.3125,-22.94921875,-14.6484375,2.44140625,-58.10546875,-21.484375,0.0
9.31640625,-7.8125,-27.34375,-36.62109375,-52.24609375,-110.83984375,0.0
9.3203125,-17.578125,-33.69140625,-32.71484375,-31.73828125,-50.78125,0.0
9.32421875,-61.5234375,-57.12890625,-34.66796875,-20.5078125,41.9921875,0.0
9.328125,-68.84765625,-62.98828125,-32.2265625,-44.921875,119.140625,0.0
9.33203125,-58.59375,-54.6875,-38.0859375,-63.4765625,108.88671875,0.0
9.3359375,-44.43359375,-53.7109375,-22.94921875,-49.31640625,-29.78515625,0.0
9.33984375,-67.3828125,-48.33984375,-3.41796875,-26.3671875,-19.04296875,0.0
9.34375,-104.4921875,-65.91796875,-31.73828125,-49.8046875,-18.06640625,0.0
9.34765625,-105.46875,-68.359375,-40.52734375,-87.40234375,49.8046875,0.0
9.3515625,-50.29296875,-50.78125,-17.08984375,-77.1484375,138.671875,0.0
9.35546875,-18.5546875,-49.8046875,-12.6953125,-74.21875,68.84765625,0.0
9.359375,-85.44921875,-53.22265625,-18.06640625,-80.56640625,-26.85546875,0.0
9.36328125,-115.72265625,-71.77734375,-32.2265625,-69.82421875,-27.83203125,0.0
9.3671875,-94.7265625,-81.54296875,10.7421875,-58.59375,36.1328125,0.0
9.37109375,-57.12890625,-67.3828125,24.4140625,-49.31640625,72.75390625,0.0
9.375,-32.2265625,-55.6640625,-38.57421875,-51.7578125,-15.13671875,0.0
9.37890625,-55.17578125,-43.45703125,-42.48046875,-51.26953125,-174.31640625,0.0
9.3828125,-94.23828125,-54.19921875,-35.64453125,-42.96875,-166.015625,0.0
9.38671875,-79.58984375,-58.59375,-40.0390625,-58.59375,-8.7890625,0.0
9.390625,-34.66796875,-30.76171875,-41.9921875,-60.05859375,49.31640625,0.0
9.39453125,1.46484375,-38.0859375,-34.66796875,-29.296875,17.08984375,0.0
9.3984375,-22.94921875,-49.31640625,-40.52734375,-20.99609375,-60.546875,0.0
9.40234375,-71.2890625,-39.0625,-39.55078125,-49.8046875,-125.0,0.0
9.40625,-71.77734375,-41.015625,-31.73828125,-50.78125,-49.8046875,0.0
9.41015625,-38.0859375,-51.7578125,-38.57421875,-19.04296875,-0.9765625,0.0
9.4140625,3.90625,-46.38671875,-40.0390625,-23.4375,9.27734375,0.0
9.41796875,-29.78515625,-32.71484375,-43.9453125,-49.8046875,-83.49609375,0.0
9.421875,-93.26171875,-39.0625,-33.69140625,-49.31640625,-145.01953125,0.0
9.42578125,-98.14453125,-51.26953125,-22.94921875,-47.36328125,-142.578125,0.0
9.4296875,-59.08203125,-57.6171875,-31.73828125,-46.38671875,24.4140625,0.0
9.43359375,-11.71875,-54.19921875,-37.59765625,-23.4375,111.81640625,0.0
9.4375,-13.671875,-37.59765625,-32.71484375,-19.53125,-20.99609375,0.0
9.44140625,-66.40625,-46.38671875,-34.66796875,-35.64453125,-169.921875,0.0
9.4453125,-73.2421875,-60.546875,-30.2734375,-34.66796875,-164.0625,0.0
9.44921875,-42.48046875,-46.875,-28.80859375,-32.2265625,-20.01953125,0.0
9.453125,-5.859375,-41.9921875,-38.0859375,-30.2734375,42.96875,0.0
9.45703125,-11.71875,-38.0859375,-14.16015625,-24.4140625,-28.3203125,0.0
9.4609375,-54.6875,-42.48046875,-12.20703125,-29.78515625,-108.88671875,0.0
9.46484375,-49.31640625,-47.36328125,-42.96875,-31.25,-127.9296875,0.0
9.46875,-21.97265625,-35.64453125,-28.3203125,-20.5078125,-29.78515625,0.0
9.47265625,0.9765625,-43.9453125,-14.6484375,-15.625,50.78125,0.0
9.4765625,-11.23046875,-52.734375,-32.71484375,-8.30078125,28.80859375,0.0
9.48046875,-60.05859375,-37.59765625,-50.78125,-28.80859375,-59.08203125,0.0
9.484375,-57.6171875,-24.4140625,-66.40625,-50.78125,-86.42578125,0.0
9.48828125,-19.53125,-22.94921875,-51.26953125,-30.76171875,67.87109375,0.0
9.4921875,-7.8125,-28.3203125,-21.484375,-34.66796875,148.92578125,0.0
9.49609375,-20.01953125,-38.57421875,-22.4609375,-47.8515625,-40.0390625,0.0
9.5,-21.484375,-44.921875,-26.3671875,-38.0859375,-184.5703125,0.0
9.50390625,-62.5,-47.36328125,-18.06640625,-33.69140625,-127.44140625,0.0
9.5078125,-61.5234375,-47.8515625,-21.484375,-28.80859375,-48.33984375,0.0
9.51171875,-22.94921875,-47.8515625,-39.55078125,-28.3203125,0.48828125,0.0
9.515625,-21.97265625,-40.52734375,-35.15625,-15.625,-53.22265625,0.0
9.51953125,-53.22265625,-38.57421875,-30.76171875,-7.8125,-123.046875,0.0
9.5234375,-70.3125,-35.15625,-41.015625,-29.296875,-56.15234375,0.0
9.52734375,-42.48046875,-20.5078125,-45.41015625,-32.2265625,-127.9296875,0.0
9.53125,-11.23046875,-13.18359375,-46.875,-27.34375,-158.69140625,0.0
9.53515625,-10.7421875,-32.71484375,-35.64453125,-27.83203125,-37.109375,0.0
9.5390625,-39.55078125,-28.80859375,-33.203125,-17.08984375,-59.08203125,0.0
9.54296875,-53.22265625,-20.99609375,-38.57421875,-15.13671875,-222.65625,0.0
9.546875,-40.0390625,-41.015625,-30.76171875,-44.921875,-242.1875,0.0
9.55078125,-19.04296875,-32.2265625,-35.15625,-38.0859375,-158.69140625,0.0
9.5546875,-0.9765625,-18.06640625,-45.8984375,-4.8828125,-175.78125,0.0
9.55859375,-28.3203125,-36.62109375,-41.9921875,-23.92578125,-182.6171875,0.0
9.5625,-64.94140625,-47.36328125,-33.203125,-43.45703125,-176.26953125,0.0
9.56640625,-49.8046875,-51.26953125,-21.97265625,-28.80859375,-146.97265625,0.0
9.5703125,-15.625,-49.31640625,-26.3671875,-11.23046875,-79.1015625,0.0
9.57421875,-1.46484375,-20.99609375,-22.94921875,-6.8359375,-56.640625,0.0
9.578125,-17.578125,-15.13671875,-22.4609375,-15.625,-85.44921875,0.0
9.58203125,-54.6875,-30.2734375,-39.55078125,-38.57421875,-102.5390625,0.0
9.5859375,-56.640625,-33.203125,-37.109375,-36.62109375,-69.3359375,0.0
9.58984375,-13.18359375,-30.76171875,-30.76171875,-22.94921875,-38.0859375,0.0
9.59375,2.44140625,-27.34375,-12.20703125,-27.34375,-69.82421875,0.0
9.59765625,-24.4140625,-22.94921875,-23.4375,-25.87890625,-73.2421875,0.0
9.6015625,-31.25,-21.484375,-47.8515625,-3.90625,-46.38671875,0.0
9.60546875,-43.45703125,-34.66796875,-47.36328125,-6.34765625,-27.34375,0.0
9.609375,-31.73828125,-54.19921875,-41.015625,-28.3203125,-36.1328125,0.0
9.61328125,-16.11328125,-49.8046875,-37.109375,-26.85546875,-33.203125,0.0
9.6171875,-27.83203125,-26.3671875,-39.0625,-22.4609375,-23.4375,0.0
9.62109375,-70.3125,-35.64453125,-41.015625,-33.69140625,-28.3203125,0.0
9.625,-93.26171875,-42.96875,-37.59765625,-45.8984375,75.68359375,0.0
9.62890625,-63.96484375,-30.76171875,-35.15625,-40.52734375,229.00390625,0.0
9.6328125,-9.27734375,-25.87890625,-37.59765625,-19.53125,200.68359375,0.0
9.63671875,-14.6484375,-43.45703125,-37.59765625,-0.48828125,60.05859375,0.0
9.640625,-72.75390625,-51.7578125,-28.80859375,-5.37109375,11.23046875,0.0
9.64453125,-89.35546875,-31.73828125,-38.0859375,-18.5546875,-11.23046875,0.0
9.6484375,-59.08203125,-23.4375,-43.9453125,-21.97265625,-33.69140625,0.0
9.65234375,-11.23046875,-34.66796875,-25.87890625,-1.46484375,-33.203125,0.0
9.65625,-14.16015625,-42.96875,-19.04296875,16.6015625,-71.77734375,0.0
9.66015625,-41.9921875,-26.3671875,-28.80859375,14.16015625,-128.41796875,0.0
9.6640625,-47.8515625,-22.94921875,-37.109375,1.46484375,-155.2734375,0.0
9.66796875,-40.52734375,-46.38671875,-31.25,-11.71875,-24.90234375,0.0
9.671875,-4.8828125,-49.8046875,-20.5078125,-18.5546875,104.00390625,0.0
9.67578125,-2.44140625,-28.80859375,-22.4609375,-12.6953125,92.7734375,0.0
9.6796875,-61.03515625,-32.2265625,-18.06640625,5.37109375,-0.9765625,0.0
9.68359375,-79.58984375,-38.57421875,-6.8359375,-7.8125,-14.6484375,0.0
9.6875,-48.33984375,-33.69140625,-16.11328125,-19.04296875,24.90234375,0.0
9.69140625,-10.25390625,-34.1796875,-26.85546875,-19.04296875,38.57421875,0.0
9.6953125,12.20703125,-35.64453125,-13.671875,-24.90234375,23.92578125,0.0
9.69921875,-17.08984375,-36.62109375,-5.859375,-20.5078125,-20.01953125,0.0
9.703125,-71.2890625,-39.55078125,-29.78515625,-26.3671875,-63.96484375,0.0
9.70703125,-70.3125,-41.50390625,-37.109375,-19.53125,2.44140625,0.0
9.7109375,-23.92578125,-37.109375,-32.71484375,-12.6953125,55.6640625,0.0
9.71484375,-7.8125,-28.80859375,-28.80859375,-11.71875,67.87109375,0.0
9.71875,-34.66796875,-23.4375,-35.15625,-27.83203125,112.79296875,0.0
9.72265625,-67.3828125,-16.6015625,-29.296875,-34.1796875,65.91796875,0.0
9.7265625,-59.5703125,-26.85546875,-28.80859375,-32.2265625,-10.25390625,0.0
9.73046875,-29.296875,-45.8984375,-30.2734375,-43.9453125,61.5234375,0.0
9.734375,-11.23046875,-36.62109375,-19.53125,-28.80859375,78.61328125,0.0
9.73828125,-20.99609375,-29.78515625,-22.94921875,-16.11328125,-39.0625,0.0
9.7421875,-55.6640625,-43.9453125,-39.55078125,-22.4609375,-106.4453125,0.0
9.74609375,-51.26953125,-33.203125,-41.015625,-31.73828125,-188.96484375,0.0
9.75,-16.11328125,-31.25,-29.296875,-28.3203125,-90.8203125,0.0
9.75390625,-3.90625,-28.80859375,-33.69140625,-22.4609375,0.9765625,0.0
9.7578125,-21.97265625,-23.92578125,-35.64453125,-25.87890625,-110.3515625,0.0
9.76171875,-58.59375,-36.62109375,-35.15625,-35.64453125,-88.8671875,0.0
9.765625,-65.91796875,-51.26953125,-42.48046875,-42.48046875,-19.53125,0.0
9.76953125,-24.90234375,-47.36328125,-54.19921875,-35.15625,-1.953125,0.0
9.7734375,9.765625,-23.4375,-45.41015625,-22.4609375,5.859375,0.0
9.77734375,-10.25390625,-14.16015625,-25.390625,-26.85546875,-18.06640625,0.0
9.78125,-51.26953125,-40.0390625,-27.83203125,-52.734375,-68.359375,0.0
9.78515625,-50.29296875,-48.828125,-31.73828125,-41.50390625,-17.578125,0.0
9.7890625,-44.43359375,-25.390625,-24.90234375,-26.85546875,23.92578125,0.0
9.79296875,-28.3203125,-20.99609375,-30.2734375,-47.8515625,10.25390625,0.0
9.796875,-20.5078125,-20.99609375,-37.109375,-37.109375,-83.984375,0.0
9.80078125,-47.8515625,-21.484375,-48.828125,-33.69140625,-174.31640625,0.0
9.8046875,-64.94140625,-39.0625,-51.26953125,-48.828125,-17.08984375,0.0
9.80859375,-41.50390625,-51.26953125,-36.1328125,-27.34375,142.578125,0.0
9.8125,-12.20703125,-36.1328125,-35.64453125,-17.08984375,94.23828125,0.0
9.81640625,-13.671875,-21.97265625,-33.69140625,-24.4140625,-27.34375,0.0
9.8203125,-36.62109375,-35.64453125,-25.390625,-38.0859375,-102.05078125,0.0
9.82421875,-71.2890625,-48.33984375,-20.5078125,-45.41015625,-87.890625,0.0
9.828125,-55.17578125,-41.015625,-24.4140625,-48.828125,58.59375,0.0
9.83203125,-4.8828125,-21.484375,1.953125,-44.921875,-4.8828125,0.0
9.8359375,10.7421875,-15.625,8.30078125,-27.83203125,-107.421875,0.0
9.83984375,-33.203125,-19.04296875,-22.94921875,-25.87890625,-134.765625,0.0
9.84375,-68.84765625,-24.4140625,-27.34375,-35.15625,-157.2265625,0.0
9.84765625,-43.9453125,-32.2265625,-27.83203125,-41.015625,-68.359375,0.0
9.8515625,-1.953125,-19.04296875,-31.25,-29.78515625,-119.62890625,0.0
9.85546875,14.16015625,-17.578125,-33.203125,-17.578125,-139.16015625,0.0
9.859375,-18.5546875,-46.38671875,-40.52734375,-24.90234375,-56.640625,0.0
9.86328125,-55.17578125,-38.57421875,-43.45703125,-44.43359375,-62.01171875,0.0
9.8671875,-41.9921875,-9.27734375,-25.87890625,-42.96875,-80.078125,0.0
9.87109375,-20.5078125,-12.6953125,-22.4609375,-25.87890625,-98.14453125,0.0
9.875,-5.859375,-29.296875,-23.92578125,-28.3203125,-105.46875,0.0
9.87890625,-38.0859375,-35.15625,-13.18359375,-33.203125,-85.9375,0.0
9.8828125,-60.05859375,-32.71484375,-24.90234375,-33.203125,-115.234375,0.0
9.88671875,-52.734375,-52.734375,-37.59765625,-30.2734375,-49.8046875,0.0
9.890625,-35.15625,-48.828125,-30.2734375,-34.1796875,53.22265625,0.0
9.89453125,7.32421875,-25.87890625,-24.4140625,-26.3671875,76.66015625,0.0
9.8984375,-5.859375,-40.0390625,-41.9921875,-22.4609375,59.5703125,0.0
9.90234375,-33.69140625,-38.0859375,-47.36328125,-37.109375,24.90234375,0.0
9.90625,-47.8515625,-16.6015625,-33.69140625,-31.25,52.24609375,0.0
9.91015625,-36.62109375,-3.90625,-24.4140625,-25.87890625,38.57421875,0.0
9.9140625,-14.6484375,-12.6953125,-23.92578125,-41.50390625,47.8515625,0.0
9.91796875,-47.36328125,-45.8984375,-41.015625,-44.921875,96.19140625,0.0
9.921875,-78.125,-52.24609375,-21.484375,-39.0625,35.15625,0.0
9.92578125,-72.265625,-26.85546875,-2.44140625,-41.9921875,34.1796875,0.0
9.9296875,-37.109375,-19.04296875,-29.78515625,-50.29296875,127.44140625,0.0
9.93359375,-23.4375,-25.390625,-30.2734375,-46.875,72.75390625,0.0
9.9375,-40.0390625,-33.203125,-25.390625,-31.73828125,-38.0859375,0.0
9.94140625,-59.08203125,-39.55078125,-32.2265625,-22.94921875,-64.453125,0.0
9.9453125,-60.05859375,-42.96875,-38.57421875,-24.90234375,8.7890625,0.0
9.94921875,-33.69140625,-36.1328125,-30.2734375,-20.99609375,76.66015625,0.0
9.953125,-4.39453125,-26.3671875,-35.15625,-11.23046875,39.0625,0.0
9.95703125,-21.97265625,-32.71484375,-49.31640625,-16.6015625,-50.29296875,0.0
9.9609375,-64.453125,-37.109375,-46.38671875,-33.203125,-56.15234375,0.0
9.96484375,-69.3359375,-36.1328125,-44.43359375,-45.8984375,26.3671875,0.0
9.96875,-15.13671875,-34.66796875,-35.64453125,-50.29296875,-10.7421875,0.0
9.97265625,3.41796875,-25.390625,-34.66796875,-40.52734375,52.24609375,0.0
9.9765625,-30.76171875,-26.85546875,-48.828125,-25.390625,146.484375,0.0
9.98046875,-37.109375,-39.55078125,-41.50390625,-25.87890625,20.99609375,0.0
9.984375,-56.15234375,-40.0390625,-33.69140625,-30.76171875,-36.1328125,0.0
9.98828125,-44.921875,-36.1328125,-37.109375,-39.0625,80.56640625,0.0
9.9921875,-2.44140625,-44.921875,-42.48046875,-37.59765625,58.59375,0.0
9.99609375,-0.48828125,-46.38671875,-35.15625,-30.2734375,-49.31640625,0.0
10.0,-37.59765625,-37.59765625,-34.66796875,-35.15625,-50.29296875,0.0
10.00390625,-58.59375,-27.83203125,-43.45703125,-41.015625,-69.3359375,0.0
10.0078125,-23.4375,-24.90234375,-46.38671875,-38.57421875,-24.90234375,0.0
10.01171875,1.46484375,-24.4140625,-23.4375,-26.85546875,37.109375,0.0
10.015625,-9.765625,-17.08984375,-7.32421875,-15.13671875,7.32421875,0.0
10.01953125,-28.3203125,-20.99609375,-31.25,-20.99609375,-55.6640625,0.0
10.0234375,-73.73046875,-29.78515625,-29.78515625,-35.64453125,-126.46484375,0.0
10.02734375,-59.08203125,-35.15625,-19.53125,-34.66796875,-88.8671875,0.0
10.03125,-5.859375,-29.78515625,-32.71484375,-26.3671875,64.94140625,0.0
10.03515625,-10.7421875,-30.2734375,-47.8515625,-26.3671875,-26.3671875,0.0
10.0390625,-43.45703125,-52.24609375,-43.9453125,-19.53125,-130.859375,0.0
10.04296875,-66.40625,-48.33984375,-44.921875,-25.87890625,-161.62109375,0.0
10.046875,-40.0390625,-24.90234375,-48.828125,-41.015625,-111.328125,0.0
10.05078125,20.5078125,-18.5546875,-50.29296875,-34.1796875,-31.73828125,0.0
10.0546875,5.37109375,-24.90234375,-32.71484375,-38.0859375,-74.70703125,0.0
10.05859375,-38.57421875,-40.52734375,-13.671875,-48.828125,-18.06640625,0.0
10.0625,-45.8984375,-36.1328125,-30.76171875,-51.7578125,-35.64453125,0.0
10.06640625,-26.3671875,-13.18359375,-43.45703125,-49.31640625,-68.84765625,0.0
10.0703125,-0.9765625,-15.625,-46.38671875,-45.41015625,-12.6953125,0.0
10.07421875,5.37109375,-28.3203125,-38.57421875,-48.33984375,-37.59765625,0.0
10.078125,-18.5546875,-46.875,-43.45703125,-41.015625,-106.4453125,0.0
10.08203125,-56.15234375,-50.29296875,-55.6640625,-29.296875,-113.76953125,0.0
10.0859375,-50.29296875,-39.55078125,-50.29296875,-37.109375,-50.29296875,0.0
10.08984375,-28.3203125,-34.66796875,-46.875,-32.2265625,18.06640625,0.0
10.09375,-7.8125,-21.484375,-45.41015625,-6.8359375,20.5078125,0.0
10.09765625,-17.578125,-28.80859375,-35.64453125,-20.5078125,-8.30078125,0.0
10.1015625,-56.15234375,-36.62109375,-34.66796875,-29.296875,-39.55078125,0.0
10.10546875,-81.54296875,-32.2265625,-40.0390625,-28.3203125,-92.7734375,0.0
10.109375,-48.33984375,-27.83203125,-32.71484375,-36.1328125,1.46484375,0.0
10.11328125,10.7421875,-17.578125,-33.203125,-28.80859375,76.171875,0.0
10.1171875,-23.92578125,-52.734375,-45.8984375,-30.2734375,-60.05859375,0.0
10.12109375,-72.75390625,-55.17578125,-44.921875,-36.62109375,-95.21484375,0.0
10.125,-69.3359375,-9.27734375,-40.0390625,-56.15234375,2.9296875,0.0
10.12890625,-58.10546875,-12.6953125,-41.9921875,-62.01171875,102.5390625,0.0
10.1328125,-32.2265625,-31.73828125,-44.921875,-42.96875,66.89453125,0.0
10.13671875,-29.78515625,-35.64453125,-45.8984375,-47.36328125,-83.0078125,0.0
10.140625,-61.5234375,-31.73828125,-46.38671875,-76.171875,-135.25390625,0.0
10.14453125,-73.73046875,-35.64453125,-30.2734375,-63.96484375,-71.2890625,0.0
10.1484375,-45.8984375,-42.48046875,-12.20703125,-37.109375,-14.6484375,0.0
10.15234375,-10.7421875,-40.52734375,-30.76171875,-20.99609375,33.203125,0.0
10.15625,0.0,-33.203125,-43.45703125,-11.23046875,-16.11328125,0.0
10.16015625,-45.8984375,-42.96875,-29.296875,-21.97265625,-72.75390625,0.0
10.1640625,-68.359375,-55.6640625,-18.06640625,-29.296875,-46.875,0.0
10.16796875,-42.96875,-56.15234375,-38.57421875,-20.01953125,22.4609375,0.0
10.171875,-17.08984375,-27.83203125,-39.0625,-21.484375,24.90234375,0.0
10.17578125,-10.25390625,-4.39453125,-18.06640625,-19.53125,-39.55078125,0.0
10.1796875,-34.66796875,-29.296875,-16.6015625,-23.4375,-78.61328125,0.0
10.18359375,-55.6640625,-52.24609375,-25.87890625,-21.97265625,-81.0546875,0.0
10.1875,-49.31640625,-31.73828125,-37.109375,-35.64453125,-51.7578125,0.0
10.19140625,-16.11328125,-4.8828125,-42.48046875,-43.9453125,-32.71484375,0.0
10.1953125,-5.859375,-21.484375,-39.55078125,-35.15625,-83.49609375,0.0
10.19921875,-47.8515625,-42.96875,-52.734375,-32.71484375,-108.88671875,0.0
10.203125,-76.66015625,-27.83203125,-60.546875,-33.203125,-50.29296875,0.0
10.20703125,-50.29296875,-38.0859375,-0.9765625,-45.8984375,-29.78515625,0.0
10.2109375,-15.625,-52.24609375,19.53125,-36.62109375,-17.578125,0.0
10.21484375,-7.32421875,-48.828125,-26.3671875,-27.83203125,-26.3671875,0.0
10.21875,-41.50390625,-45.41015625,-35.64453125,-26.3671875,-89.35546875,0.0
10.22265625,-79.58984375,-42.48046875,-45.41015625,-29.78515625,-58.59375,0.0
10.2265625,-64.453125,-31.25,-46.875,-28.3203125,11.71875,0.0
10.23046875,-4.39453125,-21.484375,-39.55078125,-4.39453125,-22.94921875,0.0
10.234375,26.85546875,-15.13671875,-36.62109375,-9.765625,-43.9453125,0.0
10.23828125,-15.625,-29.296875,-38.0859375,-26.85546875,-36.62109375,0.0
10.2421875,-52.734375,-46.875,-48.828125,-30.76171875,-96.19140625,0.0
10.24609375,-49.8046875,-32.71484375,-63.4765625,-33.203125,-91.30859375,0.0
10.25,-24.4140625,-23.4375,-38.0859375,-31.25,-0.9765625,0.0
10.25390625,4.39453125,-31.25,28.3203125,-23.92578125,-43.9453125,0.0
10.2578125,-5.37109375,-37.109375,7.32421875,-42.96875,-113.28125,0.0
10.26171875,-69.82421875,-27.34375,-42.96875,-49.31640625,-86.42578125,0.0
10.265625,-66.40625,-31.25,-44.43359375,-37.59765625,-32.2265625,0.0
10.26953125,-25.390625,-41.50390625,-39.55078125,-45.8984375,9.765625,0.0
10.2734375,-2.44140625,-38.0859375,-40.52734375,-36.1328125,-8.30078125,0.0
10.27734375,-12.20703125,-27.34375,-40.0390625,-33.203125,-125.48828125,0.0
10.28125,-59.08203125,-27.83203125,-35.15625,-51.7578125,-145.01953125,0.0
10.28515625,-65.91796875,-39.0625,-41.50390625,-49.8046875,-45.41015625,0.0
10.2890625,-19.53125,-33.203125,-43.9453125,-36.1328125,-10.7421875,0.0
10.29296875,12.20703125,-25.87890625,-39.0625,-37.109375,-62.01171875,0.0
10.296875,-5.859375,-38.57421875,-16.11328125,-30.76171875,-81.0546875,0.0
10.30078125,-41.9921875,-45.8984375,-9.27734375,-23.92578125,-65.91796875,0.0
10.3046875,-56.640625,-32.71484375,-34.66796875,-30.2734375,-74.70703125,0.0
10.30859375,-23.92578125,-43.9453125,-37.109375,-37.109375,-29.78515625,0.0
10.3125,6.8359375,-41.015625,-22.94921875,-31.25,-13.671875,0.0
10.31640625,-14.6484375,-24.4140625,-29.296875,-33.69140625,15.625,0.0
10.3203125,-41.9921875,-20.99609375,-52.24609375,-46.38671875,56.15234375,0.0
10.32421875,-18.5546875,-21.484375,-44.921875,-26.3671875,70.80078125,0.0
10.328125,12.20703125,-35.64453125,-18.06640625,0.48828125,119.140625,0.0
10.33203125,-1.46484375,-40.52734375,-10.25390625,-14.16015625,60.05859375,0.0
10.3359375,-36.1328125,-45.41015625,-9.27734375,-42.96875,-67.87109375,0.0
10.33984375,-87.40234375,-55.17578125,-1.953125,-61.5234375,-91.30859375,0.0
10.34375,-131.8359375,-68.84765625,4.8828125,-76.66015625,-48.33984375,0.0
10.34765625,-132.8125,-74.21875,11.23046875,-87.40234375,45.41015625,0.0
10.3515625,-116.2109375,-77.1484375,28.80859375,-93.26171875,116.2109375,0.0
10.35546875,-141.11328125,-77.63671875,63.96484375,-117.1875,35.15625,0.0
10.359375,-195.80078125,-81.54296875,76.66015625,-141.11328125,-52.24609375,0.0
10.36328125,-223.14453125,-89.84375,83.0078125,-154.296875,-2.9296875,0.0
10.3671875,-238.28125,-92.28515625,84.47265625,-176.26953125,47.36328125,0.0
10.37109375,-241.2109375,-91.796875,138.671875,-189.94140625,47.36328125,0.0
10.375,-257.8125,-92.7734375,176.7578125,-202.1484375,-35.15625,0.0
10.37890625,-302.734375,-100.09765625,130.859375,-237.3046875,-91.796875,0.0
10.3828125,-330.078125,-107.91015625,128.90625,-250.48828125,-86.42578125,0.0
10.38671875,-316.40625,-107.91015625,149.90234375,-245.60546875,-98.6328125,0.0
10.390625,-294.921875,-110.3515625,154.296875,-249.0234375,-32.71484375,0.0
10.39453125,-286.1328125,-110.3515625,148.92578125,-243.1640625,72.75390625,0.0
10.3984375,-295.8984375,-118.1640625,151.85546875,-246.58203125,4.39453125,0.0
10.40234375,-347.65625,-133.30078125,146.484375,-249.51171875,-59.5703125,0.0
