timestam,TP9,AF7,AF8,TP10,AUX,Marker
329.00390625,-20.01953125,-28.3203125,-50.78125,-25.390625,-16.11328125,0.0
329.0078125,-3.90625,-21.484375,-58.59375,-23.92578125,-20.99609375,0.0
329.01171875,-42.48046875,-21.97265625,-36.1328125,-51.7578125,-33.69140625,0.0
329.015625,-58.10546875,-25.390625,-39.55078125,-54.6875,5.859375,0.0
329.01953125,-38.57421875,-24.90234375,-35.15625,-42.48046875,61.5234375,0.0
329.0234375,-25.390625,-31.73828125,-36.62109375,-41.015625,66.89453125,0.0
329.02734375,-4.39453125,-31.73828125,-34.66796875,-25.390625,-40.0390625,0.0
329.03125,-12.6953125,-28.80859375,-29.78515625,-19.53125,-94.23828125,0.0
329.03515625,-39.55078125,-37.109375,-51.26953125,-24.90234375,-115.72265625,0.0
329.0390625,-41.9921875,-36.1328125,-47.36328125,-20.5078125,-154.78515625,0.0
329.04296875,-16.6015625,-32.2265625,-27.34375,-19.04296875,-101.5625,0.0
329.046875,0.48828125,-33.69140625,-34.66796875,-17.08984375,-27.34375,0.0
329.05078125,-14.16015625,-35.64453125,-51.7578125,-10.25390625,-71.2890625,0.0
329.0546875,-33.69140625,-37.59765625,-40.0390625,-14.6484375,-121.58203125,0.0
329.05859375,-33.203125,-38.0859375,-28.80859375,-27.83203125,-35.64453125,0.0
329.0625,-17.578125,-29.296875,-29.296875,-17.08984375,-0.48828125,0.0
329.06640625,-1.46484375,-20.5078125,-22.4609375,3.90625,-15.625,0.0
329.0703125,-7.8125,-22.4609375,-18.5546875,-2.9296875,-55.6640625,0.0
329.07421875,-33.69140625,-28.80859375,-21.484375,-25.390625,-127.44140625,0.0
329.078125,-46.38671875,-29.78515625,-25.390625,-28.80859375,-81.0546875,0.0
329.08203125,-29.296875,-28.80859375,-31.25,-24.4140625,22.94921875,0.0
329.0859375,-3.90625,-25.390625,-29.78515625,-17.08984375,-0.48828125,0.0
329.08984375,-11.23046875,-27.34375,-28.80859375,-15.625,-5.859375,0.0
329.09375,-40.52734375,-35.64453125,-20.01953125,-29.296875,11.23046875,0.0
329.09765625,-54.6875,-34.1796875,-16.6015625,-31.25,14.16015625,0.0
329.1015625,-38.0859375,-33.203125,-23.92578125,-27.83203125,44.43359375,0.0
329.10546875,-12.20703125,-32.2265625,-23.4375,-18.5546875,-15.625,0.0
329.109375,-8.7890625,-33.203125,-30.76171875,-19.53125,-116.69921875,0.0
329.11328125,-34.66796875,-37.109375,-35.15625,-22.94921875,-74.21875,0.0
329.1171875,-52.734375,-32.71484375,-33.69140625,-22.94921875,-2.44140625,0.0
329.12109375,-40.0390625,-32.2265625,-34.1796875,-29.296875,-1.46484375,0.0
329.125,-12.6953125,-30.2734375,-36.1328125,-28.3203125,10.25390625,0.0
329.12890625,-10.7421875,-30.76171875,-33.203125,-28.3203125,4.39453125,0.0
329.1328125,-38.0859375,-31.73828125,-33.203125,-36.62109375,-43.45703125,0.0
329.13671875,-54.6875,-29.296875,-32.71484375,-40.0390625,5.37109375,0.0
329.140625,-32.2265625,-31.25,-14.16015625,-36.62109375,-11.71875,0.0
329.14453125,0.48828125,-30.2734375,-10.7421875,-31.25,-55.6640625,0.0
329.1484375,-7.8125,-28.3203125,-28.80859375,-30.2734375,-74.70703125,0.0
329.15234375,-33.203125,-30.76171875,-34.1796875,-38.0859375,-89.35546875,0.0
329.15625,-56.15234375,-35.15625,-33.69140625,-36.62109375,11.23046875,0.0
329.16015625,-55.6640625,-39.55078125,-34.1796875,-34.1796875,61.5234375,0.0
329.1640625,-28.80859375,-35.64453125,-33.69140625,-29.78515625,60.05859375,0.0
329.16796875,-14.16015625,-31.73828125,-32.71484375,-28.3203125,23.4375,0.0
329.171875,-27.34375,-30.76171875,-31.73828125,-31.25,-119.62890625,0.0
329.17578125,-45.41015625,-28.80859375,-35.64453125,-35.15625,-131.34765625,0.0
329.1796875,-41.9921875,-29.296875,-32.71484375,-36.1328125,-49.8046875,0.0
329.18359375,-19.53125,-27.83203125,-31.73828125,-37.109375,-82.51953125,0.0
329.1875,-10.25390625,-25.390625,-30.2734375,-34.66796875,-68.84765625,0.0
329.19140625,-18.5546875,-34.1796875,-24.90234375,-25.390625,-72.265625,0.0
329.1953125,-35.64453125,-36.1328125,-30.2734375,-27.34375,-64.94140625,0.0
329.19921875,-44.921875,-26.85546875,-36.1328125,-41.9921875,-69.82421875,0.0
329.203125,-22.94921875,-22.4609375,-32.71484375,-42.48046875,-27.34375,0.0
329.20703125,-2.44140625,-17.08984375,-32.71484375,-32.71484375,66.40625,0.0
329.2109375,-10.25390625,-16.6015625,-36.62109375,-19.04296875,87.890625,0.0
329.21484375,-37.59765625,-20.5078125,-41.9921875,-32.2265625,101.07421875,0.0
329.21875,-53.7109375,-21.97265625,-48.828125,-49.31640625,92.7734375,0.0
329.22265625,-36.62109375,-29.296875,-47.36328125,-40.52734375,53.22265625,0.0
329.2265625,-11.71875,-31.25,-40.52734375,-31.25,-43.9453125,0.0
329.23046875,-10.25390625,-29.78515625,-39.0625,-28.3203125,-59.08203125,0.0
329.234375,-29.78515625,-39.0625,-41.9921875,-29.78515625,-70.3125,0.0
329.23828125,-47.36328125,-40.0390625,-41.50390625,-32.2265625,-79.1015625,0.0
329.2421875,-33.69140625,-36.62109375,-44.43359375,-27.83203125,-111.81640625,0.0
329.24609375,-13.671875,-34.1796875,-42.96875,-19.53125,-94.7265625,0.0
329.25,-15.625,-27.83203125,-34.66796875,-18.5546875,-31.25,0.0
329.25390625,-39.0625,-32.71484375,-40.0390625,-31.25,-2.9296875,0.0
329.2578125,-59.08203125,-41.9921875,-46.38671875,-36.62109375,29.296875,0.0
329.26171875,-44.921875,-34.66796875,-39.0625,-24.4140625,27.83203125,0.0
329.265625,-14.16015625,-25.87890625,-33.69140625,-20.01953125,-39.0625,0.0
329.26953125,-15.13671875,-27.34375,-34.1796875,-23.92578125,-63.4765625,0.0
329.2734375,-41.50390625,-33.203125,-32.71484375,-31.25,-68.359375,0.0
329.27734375,-52.24609375,-33.69140625,-34.1796875,-36.62109375,-61.5234375,0.0
329.28125,-35.15625,-31.25,-32.2265625,-34.66796875,-63.4765625,0.0
329.28515625,-10.25390625,-32.2265625,-32.71484375,-23.4375,-84.47265625,0.0
329.2890625,-15.625,-32.71484375,-36.62109375,-18.5546875,-93.26171875,0.0
329.29296875,-42.96875,-32.2265625,-33.69140625,-22.94921875,-50.29296875,0.0
329.296875,-55.6640625,-35.64453125,-28.80859375,-24.90234375,5.859375,0.0
329.30078125,-42.96875,-34.66796875,-27.34375,-21.97265625,-14.16015625,0.0
329.3046875,-20.01953125,-25.87890625,-26.3671875,-19.04296875,33.203125,0.0
329.30859375,-10.25390625,-22.94921875,-32.71484375,-20.01953125,-5.37109375,0.0
329.3125,-29.78515625,-25.390625,-41.9921875,-22.94921875,-141.6015625,0.0
329.31640625,-53.7109375,-34.1796875,-38.0859375,-27.83203125,-105.46875,0.0
329.3203125,-40.52734375,-34.66796875,-20.5078125,-31.25,-59.5703125,0.0
329.32421875,-14.16015625,-29.296875,-17.578125,-22.94921875,-79.58984375,0.0
329.328125,-17.08984375,-33.69140625,-27.34375,-20.99609375,-67.87109375,0.0
329.33203125,-37.109375,-34.66796875,-26.85546875,-20.5078125,-86.9140625,0.0
329.3359375,-55.17578125,-31.25,-30.76171875,-32.71484375,-70.3125,0.0
329.33984375,-52.24609375,-33.203125,-37.59765625,-41.9921875,-15.13671875,0.0
329.34375,-25.87890625,-30.2734375,-33.203125,-28.3203125,-46.875,0.0
329.34765625,-7.8125,-23.92578125,-23.92578125,-16.6015625,-93.75,0.0
329.3515625,-20.5078125,-29.296875,-23.92578125,-16.6015625,-88.37890625,0.0
329.35546875,-41.50390625,-35.15625,-28.3203125,-25.390625,-86.9140625,0.0
329.359375,-43.9453125,-35.64453125,-25.390625,-24.4140625,-12.20703125,0.0
329.36328125,-33.69140625,-40.52734375,-18.06640625,-23.92578125,-5.37109375,0.0
329.3671875,-14.16015625,-37.59765625,-15.625,-22.94921875,-23.4375,0.0
329.37109375,-15.625,-28.80859375,-30.2734375,-25.390625,-41.9921875,0.0
329.375,-43.9453125,-37.109375,-41.50390625,-34.1796875,-54.6875,0.0
329.37890625,-51.26953125,-45.41015625,-23.92578125,-35.15625,11.71875,0.0
329.3828125,-28.80859375,-41.50390625,-20.5078125,-32.2265625,-10.7421875,0.0
329.38671875,-8.30078125,-30.2734375,-38.0859375,-23.92578125,-46.875,0.0
329.390625,-17.578125,-30.76171875,-36.62109375,-30.76171875,-109.375,0.0
329.39453125,-45.8984375,-38.0859375,-39.0625,-38.0859375,-112.79296875,0.0
329.3984375,-55.17578125,-38.57421875,-41.9921875,-38.0859375,-59.08203125,0.0
329.40234375,-36.62109375,-32.71484375,-37.109375,-37.109375,-74.21875,0.0
329.40625,-5.37109375,-29.296875,-41.015625,-27.83203125,-83.49609375,0.0
329.41015625,-13.671875,-29.296875,-50.78125,-23.92578125,-83.984375,0.0
329.4140625,-54.19921875,-29.78515625,-39.55078125,-25.390625,-40.52734375,0.0
329.41796875,-59.08203125,-32.2265625,-29.296875,-30.76171875,-11.71875,0.0
329.421875,-31.73828125,-31.25,-43.45703125,-35.64453125,67.87109375,0.0
329.42578125,-4.8828125,-32.71484375,-97.16796875,-19.53125,60.05859375,0.0
329.4296875,-12.6953125,-34.66796875,-84.9609375,-12.6953125,-2.9296875,0.0
329.43359375,-35.64453125,-30.2734375,-35.64453125,-30.2734375,-32.71484375,0.0
329.4375,-46.875,-36.62109375,-36.1328125,-37.109375,1.46484375,0.0
329.44140625,-27.34375,-34.66796875,-32.71484375,-28.3203125,34.66796875,0.0
329.4453125,5.859375,-21.97265625,-26.85546875,-21.484375,19.04296875,0.0
329.44921875,10.25390625,-19.04296875,-31.25,-21.484375,-37.109375,0.0
329.453125,0.48828125,-19.53125,-31.73828125,-34.1796875,-78.125,0.0
329.45703125,-19.04296875,-22.4609375,-31.73828125,-46.38671875,-20.01953125,0.0
329.4609375,-16.11328125,-22.4609375,-34.1796875,-38.0859375,30.2734375,0.0
329.46484375,13.18359375,-19.04296875,-28.3203125,-22.4609375,1.46484375,0.0
329.46875,8.30078125,-23.4375,-21.97265625,-14.16015625,-60.05859375,0.0
329.47265625,-26.3671875,-31.25,-26.3671875,-19.04296875,-41.9921875,0.0
329.4765625,-53.7109375,-34.1796875,-35.64453125,-31.25,-0.48828125,0.0
329.48046875,-51.7578125,-35.64453125,-31.25,-20.5078125,4.39453125,0.0
329.484375,-30.76171875,-39.0625,-19.53125,-12.20703125,36.62109375,0.0
329.48828125,-23.4375,-39.0625,-15.13671875,-25.390625,42.48046875,0.0
329.4921875,-40.0390625,-32.71484375,-28.80859375,-38.0859375,-26.85546875,0.0
329.49609375,-60.05859375,-32.71484375,-32.71484375,-35.64453125,50.29296875,0.0
329.5,-53.22265625,-34.1796875,-20.99609375,-29.78515625,93.26171875,0.0
329.50390625,-21.97265625,-29.78515625,-14.16015625,-26.3671875,29.296875,0.0
329.5078125,-11.71875,-31.25,-18.5546875,-25.390625,-26.3671875,0.0
329.51171875,-30.76171875,-33.69140625,-20.99609375,-30.2734375,-58.10546875,0.0
329.515625,-56.640625,-37.109375,12.6953125,-39.55078125,-30.2734375,0.0
329.51953125,-60.05859375,-42.48046875,4.8828125,-42.96875,-66.40625,0.0
329.5234375,-32.71484375,-37.59765625,-33.203125,-33.203125,-140.625,0.0
329.52734375,-20.5078125,-29.296875,-29.296875,-30.76171875,-166.015625,0.0
329.53125,-33.203125,-29.78515625,-31.25,-30.2734375,-208.0078125,0.0
329.53515625,-51.26953125,-32.2265625,-33.203125,-28.80859375,-170.41015625,0.0
329.5390625,-60.546875,-36.1328125,-32.2265625,-33.203125,-97.16796875,0.0
329.54296875,-40.0390625,-38.57421875,-41.9921875,-28.80859375,-34.1796875,0.0
329.546875,-12.6953125,-31.25,-40.52734375,-18.06640625,38.0859375,0.0
329.55078125,-23.92578125,-28.80859375,-35.64453125,-14.6484375,-43.9453125,0.0
329.5546875,-46.38671875,-33.203125,-35.64453125,-39.0625,-83.49609375,0.0
329.55859375,-50.29296875,-33.203125,-40.52734375,-42.48046875,-46.38671875,0.0
329.5625,-39.55078125,-32.71484375,-41.50390625,-31.73828125,-107.421875,0.0
329.56640625,-20.01953125,-28.80859375,-29.78515625,-34.66796875,-115.234375,0.0
329.5703125,-19.53125,-25.390625,-29.296875,-30.2734375,-22.4609375,0.0
329.57421875,-49.31640625,-31.73828125,-33.203125,-37.109375,-21.484375,0.0
329.578125,-63.4765625,-33.203125,-29.296875,-42.96875,-38.0859375,0.0
329.58203125,-37.109375,-26.3671875,-24.4140625,-36.62109375,-77.63671875,0.0
329.5859375,-14.16015625,-25.87890625,-25.390625,-28.80859375,-41.9921875,0.0
329.58984375,-16.6015625,-33.203125,-27.83203125,-24.4140625,-6.8359375,0.0
329.59375,-39.55078125,-33.203125,-29.78515625,-34.66796875,-31.73828125,0.0
329.59765625,-54.6875,-32.71484375,-32.71484375,-44.43359375,106.4453125,0.0
329.6015625,-41.015625,-35.15625,-30.2734375,-40.52734375,155.76171875,0.0
329.60546875,-13.18359375,-33.69140625,-12.20703125,-28.80859375,60.546875,0.0
329.609375,-15.13671875,-37.109375,-23.4375,-30.2734375,47.8515625,0.0
329.61328125,-44.921875,-40.0390625,-41.50390625,-35.64453125,2.9296875,0.0
329.6171875,-61.5234375,-38.57421875,-46.875,-44.921875,-23.92578125,0.0
329.62109375,-51.26953125,-35.15625,-46.875,-50.29296875,41.50390625,0.0
329.625,-28.3203125,-32.71484375,-35.64453125,-35.64453125,22.94921875,0.0
329.62890625,-22.4609375,-32.2265625,-31.25,-29.78515625,-48.33984375,0.0
329.6328125,-45.8984375,-37.109375,-35.64453125,-35.15625,-44.43359375,0.0
329.63671875,-64.94140625,-35.64453125,-40.0390625,-34.66796875,-28.80859375,0.0
329.640625,-50.29296875,-32.2265625,-36.1328125,-35.64453125,-11.23046875,0.0
329.64453125,-20.01953125,-33.203125,-29.296875,-31.25,-62.98828125,0.0
329.6484375,-0.48828125,-27.83203125,-31.73828125,-27.83203125,-148.92578125,0.0
329.65234375,-20.01953125,-30.2734375,-40.52734375,-35.15625,-70.3125,0.0
329.65625,-54.19921875,-36.1328125,-39.0625,-39.0625,-98.6328125,0.0
329.66015625,-46.38671875,-35.64453125,-32.2265625,-34.1796875,-139.6484375,0.0
329.6640625,-5.37109375,-32.2265625,-28.3203125,-16.6015625,-39.0625,0.0
329.66796875,11.71875,-27.34375,-30.2734375,-7.8125,42.96875,0.0
329.671875,-13.671875,-29.296875,-33.203125,-20.5078125,12.6953125,0.0
329.67578125,-43.45703125,-36.1328125,-32.2265625,-38.0859375,-83.49609375,0.0
329.6796875,-43.45703125,-35.15625,-34.66796875,-39.55078125,-78.125,0.0
329.68359375,-20.01953125,-28.3203125,-37.59765625,-24.90234375,-52.24609375,0.0
329.6875,-0.48828125,-26.85546875,-36.1328125,-20.5078125,14.6484375,0.0
329.69140625,-11.71875,-26.3671875,-31.25,-22.4609375,55.6640625,0.0
329.6953125,-40.0390625,-36.62109375,-35.64453125,-29.78515625,-68.359375,0.0
329.69921875,-36.1328125,-42.48046875,-36.1328125,-27.83203125,-105.46875,0.0
329.703125,-3.90625,-32.71484375,-35.15625,-18.06640625,-48.33984375,0.0
329.70703125,6.34765625,-24.90234375,-28.80859375,-18.5546875,-123.53515625,0.0
329.7109375,-12.6953125,-26.3671875,1.46484375,-15.13671875,-130.37109375,0.0
329.71484375,-35.64453125,-27.83203125,-10.7421875,-23.4375,-91.30859375,0.0
329.71875,-40.0390625,-28.80859375,-39.55078125,-32.71484375,-62.5,0.0
329.72265625,-18.06640625,-24.4140625,-33.69140625,-24.4140625,-40.0390625,0.0
329.7265625,2.9296875,-22.4609375,-23.92578125,-15.625,-27.83203125,0.0
329.73046875,-0.9765625,-29.78515625,-25.87890625,-18.06640625,-9.27734375,0.0
329.734375,-27.34375,-37.109375,-27.83203125,-28.80859375,-41.9921875,0.0
329.73828125,-37.59765625,-37.59765625,-29.78515625,-26.85546875,38.0859375,0.0
329.7421875,-18.06640625,-32.2265625,-33.69140625,-26.85546875,58.59375,0.0
329.74609375,-5.859375,-30.76171875,-31.25,-24.90234375,6.34765625,0.0
329.75,-17.08984375,-33.203125,-40.52734375,-27.34375,-42.48046875,0.0
329.75390625,-38.0859375,-38.57421875,-5.859375,-36.62109375,-14.6484375,0.0
329.7578125,-47.8515625,-37.59765625,17.08984375,-41.9921875,70.80078125,0.0
329.76171875,-33.69140625,-33.69140625,-29.78515625,-36.62109375,62.98828125,0.0
329.765625,-13.18359375,-35.64453125,-35.15625,-31.25,56.15234375,0.0
329.76953125,-14.6484375,-37.109375,-30.2734375,-25.390625,-9.27734375,0.0
329.7734375,-36.62109375,-38.57421875,-33.69140625,-25.390625,-106.93359375,0.0
329.77734375,-52.734375,-38.57421875,-38.0859375,-37.109375,-40.0390625,0.0
329.78125,-35.15625,-30.76171875,-36.62109375,-33.69140625,-18.06640625,0.0
329.78515625,-7.8125,-23.92578125,-27.83203125,-26.85546875,-145.5078125,0.0
329.7890625,-0.48828125,-16.11328125,-28.80859375,-24.4140625,-143.06640625,0.0
329.79296875,-31.73828125,-23.4375,-37.109375,-32.71484375,-67.3828125,0.0
329.796875,-51.26953125,-34.1796875,-43.45703125,-42.48046875,-46.38671875,0.0
329.80078125,-37.59765625,-29.78515625,-35.64453125,-37.109375,32.2265625,0.0
329.8046875,-19.04296875,-24.4140625,-35.64453125,-25.390625,-41.9921875,0.0
329.80859375,-10.7421875,-22.94921875,-41.9921875,-21.484375,-96.6796875,0.0
329.8125,-36.1328125,-32.2265625,-40.52734375,-32.71484375,-30.76171875,0.0
329.81640625,-55.6640625,-41.9921875,-40.52734375,-39.0625,-3.41796875,0.0
329.8203125,-44.43359375,-30.2734375,-37.59765625,-35.64453125,80.56640625,0.0
329.82421875,-16.11328125,-20.01953125,-35.64453125,-20.99609375,61.03515625,0.0
329.828125,2.9296875,-22.4609375,-32.2265625,-18.06640625,12.6953125,0.0
329.83203125,-18.06640625,-28.80859375,-35.15625,-30.2734375,-66.40625,0.0
329.8359375,-50.29296875,-29.78515625,-40.52734375,-36.1328125,-61.03515625,0.0
329.83984375,-54.19921875,-35.64453125,-42.96875,-34.66796875,53.22265625,0.0
329.84375,-31.25,-36.62109375,-32.71484375,-32.71484375,15.13671875,0.0
329.84765625,-9.27734375,-30.2734375,-28.3203125,-31.73828125,-53.7109375,0.0
329.8515625,-29.296875,-30.2734375,-39.0625,-25.87890625,-97.16796875,0.0
329.85546875,-63.96484375,-31.25,-41.015625,-31.25,-109.86328125,0.0
329.859375,-61.5234375,-28.3203125,-49.8046875,-37.109375,-39.55078125,0.0
329.86328125,-38.0859375,-29.296875,-42.96875,-19.04296875,-1.953125,0.0
329.8671875,-12.20703125,-27.83203125,-30.76171875,-8.30078125,-50.29296875,0.0
329.87109375,-24.90234375,-27.83203125,-35.64453125,-25.390625,-87.890625,0.0
329.875,-47.36328125,-29.78515625,-41.9921875,-37.59765625,-89.35546875,0.0
329.87890625,-45.41015625,-29.78515625,-41.50390625,-30.2734375,6.8359375,0.0
329.8828125,-32.2265625,-32.2265625,-31.73828125,-24.90234375,85.9375,0.0
329.88671875,-9.765625,-26.3671875,-30.2734375,-20.01953125,15.625,0.0
329.890625,-10.7421875,-22.4609375,-35.15625,-22.4609375,-156.73828125,0.0
329.89453125,-42.48046875,-26.3671875,-33.69140625,-36.1328125,-143.5546875,0.0
329.8984375,-57.6171875,-26.3671875,-28.80859375,-33.69140625,-33.203125,0.0
329.90234375,-32.2265625,-20.01953125,-34.66796875,-25.390625,-69.3359375,0.0
329.90625,-5.37109375,-16.6015625,-52.24609375,-20.5078125,-60.546875,0.0
329.91015625,-11.71875,-23.4375,-43.45703125,-20.01953125,-25.87890625,0.0
329.9140625,-39.55078125,-25.390625,-27.34375,-29.78515625,-36.62109375,0.0
329.91796875,-52.24609375,-24.4140625,-44.921875,-40.0390625,-13.18359375,0.0
329.921875,-37.109375,-33.203125,-49.8046875,-42.48046875,35.64453125,0.0
329.92578125,-17.578125,-36.1328125,-31.25,-36.1328125,-27.34375,0.0
329.9296875,-21.97265625,-30.2734375,-23.92578125,-33.203125,-120.1171875,0.0
329.93359375,-47.8515625,-28.80859375,-44.43359375,-32.2265625,-96.19140625,0.0
329.9375,-56.640625,-27.34375,-51.7578125,-36.1328125,-37.59765625,0.0
329.94140625,-40.0390625,-23.92578125,-24.90234375,-35.64453125,-6.8359375,0.0
329.9453125,-19.53125,-28.80859375,-26.3671875,-33.69140625,5.859375,0.0
329.94921875,-16.6015625,-31.73828125,-24.4140625,-40.52734375,1.953125,0.0
329.953125,-36.1328125,-33.69140625,-23.4375,-40.0390625,-2.44140625,0.0
329.95703125,-58.59375,-33.203125,-33.69140625,-39.55078125,-35.64453125,0.0
329.9609375,-58.59375,-31.25,-33.69140625,-44.921875,-54.6875,0.0
329.96484375,-26.85546875,-27.83203125,-23.4375,-33.69140625,38.57421875,0.0
329.96875,-15.13671875,-23.92578125,-21.97265625,-29.78515625,53.22265625,0.0
329.97265625,-38.57421875,-27.83203125,-26.3671875,-39.0625,-28.3203125,0.0
329.9765625,-56.15234375,-36.1328125,-23.92578125,-41.50390625,-64.453125,0.0
329.98046875,-46.38671875,-35.15625,-4.39453125,-39.55078125,-97.65625,0.0
329.984375,-19.53125,-29.78515625,-0.48828125,-25.390625,-63.4765625,0.0
329.98828125,-7.8125,-27.83203125,-18.5546875,-12.20703125,-61.5234375,0.0
329.9921875,-29.78515625,-30.2734375,-26.85546875,-25.87890625,-0.9765625,0.0
329.99609375,-52.734375,-32.71484375,-31.73828125,-43.45703125,62.01171875,0.0
330.0,-49.8046875,-28.3203125,-34.1796875,-41.9921875,24.90234375,0.0
330.00390625,-19.04296875,-19.53125,-26.85546875,-28.80859375,31.25,0.0
330.0078125,1.953125,-20.5078125,-29.296875,-21.97265625,65.4296875,0.0
330.01171875,-24.90234375,-27.83203125,-31.25,-29.296875,-21.97265625,0.0
330.015625,-54.19921875,-32.2265625,-28.80859375,-35.15625,-72.265625,0.0
330.01953125,-46.875,-29.296875,-26.85546875,-29.296875,-38.57421875,0.0
330.0234375,-20.99609375,-20.99609375,-29.78515625,-25.390625,-30.2734375,0.0
330.02734375,-10.25390625,-28.3203125,-34.1796875,-27.83203125,-88.8671875,0.0
330.03125,-19.53125,-31.73828125,-32.2265625,-26.85546875,-142.578125,0.0
330.03515625,-40.0390625,-27.34375,-33.69140625,-33.203125,-86.42578125,0.0
330.0390625,-45.8984375,-24.90234375,-45.41015625,-35.64453125,-20.5078125,0.0
330.04296875,-28.3203125,-24.90234375,-51.26953125,-31.73828125,-3.90625,0.0
330.046875,-16.6015625,-23.92578125,-32.2265625,-26.3671875,45.41015625,0.0
330.05078125,-18.5546875,-19.04296875,-25.390625,-22.4609375,12.6953125,0.0
330.0546875,-40.0390625,-21.484375,-33.203125,-41.015625,-64.94140625,0.0
330.05859375,-46.38671875,-29.78515625,-36.1328125,-53.7109375,-67.3828125,0.0
330.0625,-28.3203125,-24.4140625,-33.69140625,-40.52734375,-40.0390625,0.0
330.06640625,-9.27734375,-17.08984375,-29.78515625,-25.87890625,20.99609375,0.0
330.0703125,-13.671875,-22.4609375,-42.48046875,-21.484375,-8.7890625,0.0
330.07421875,-37.109375,-28.3203125,-44.921875,-26.3671875,-40.0390625,0.0
330.078125,-46.875,-28.3203125,-33.69140625,-30.76171875,9.765625,0.0
330.08203125,-31.73828125,-34.66796875,-41.015625,-31.25,14.6484375,0.0
330.0859375,-13.18359375,-37.109375,-42.48046875,-24.90234375,-34.1796875,0.0
330.08984375,-19.04296875,-30.2734375,-31.73828125,-21.484375,-38.0859375,0.0
330.09375,-38.57421875,-31.73828125,-28.3203125,-26.85546875,-32.71484375,0.0
330.09765625,-52.734375,-32.2265625,-30.76171875,-29.78515625,-3.41796875,0.0
330.1015625,-43.9453125,-25.390625,-28.3203125,-24.4140625,2.44140625,0.0
330.10546875,-19.04296875,-24.90234375,-29.296875,-19.53125,-87.40234375,0.0
330.109375,-20.5078125,-32.2265625,-32.71484375,-28.3203125,-100.5859375,0.0
330.11328125,-45.8984375,-38.57421875,-32.71484375,-33.203125,-80.56640625,0.0
330.1171875,-56.640625,-38.0859375,-38.57421875,-38.0859375,-25.87890625,0.0
330.12109375,-37.109375,-33.69140625,-36.1328125,-37.109375,0.48828125,0.0
330.125,-12.20703125,-30.2734375,-29.296875,-36.62109375,-57.6171875,0.0
330.12890625,-8.7890625,-31.25,-27.83203125,-28.3203125,-131.34765625,0.0
330.1328125,-37.59765625,-37.59765625,-30.2734375,-29.296875,-222.65625,0.0
330.13671875,-61.03515625,-37.59765625,-31.73828125,-37.59765625,-251.46484375,0.0
330.140625,-44.921875,-30.76171875,-33.203125,-35.64453125,-224.609375,0.0
330.14453125,-15.625,-27.34375,-25.87890625,-25.87890625,-260.25390625,0.0
330.1484375,-9.27734375,-31.73828125,-25.87890625,-16.11328125,-234.375,0.0
330.15234375,-33.69140625,-32.2265625,-35.15625,-23.4375,-233.3984375,0.0
330.15625,-59.08203125,-33.203125,-33.203125,-35.64453125,-224.609375,0.0
330.16015625,-54.6875,-39.55078125,-30.76171875,-36.62109375,-172.36328125,0.0
330.1640625,-25.390625,-35.15625,-31.73828125,-29.78515625,-120.60546875,0.0
330.16796875,-10.7421875,-29.296875,-30.2734375,-26.3671875,24.4140625,0.0
330.171875,-22.4609375,-28.80859375,-38.0859375,-27.83203125,69.82421875,0.0
330.17578125,-49.31640625,-25.87890625,-56.640625,-36.62109375,23.92578125,0.0
330.1796875,-49.8046875,-28.3203125,-45.41015625,-42.96875,-5.859375,0.0
330.18359375,-21.484375,-27.83203125,-35.15625,-38.0859375,75.68359375,0.0
330.1875,-16.11328125,-22.94921875,-35.15625,-32.2265625,95.703125,0.0
330.19140625,-34.1796875,-26.3671875,-28.80859375,-28.3203125,20.99609375,0.0
330.1953125,-58.10546875,-32.71484375,-28.80859375,-27.34375,126.953125,0.0
330.19921875,-58.10546875,-35.64453125,-37.109375,-36.1328125,188.4765625,0.0
330.203125,-32.2265625,-30.76171875,-43.9453125,-36.1328125,96.6796875,0.0
330.20703125,-12.6953125,-22.94921875,-39.55078125,-21.97265625,65.91796875,0.0
330.2109375,-20.5078125,-25.87890625,-28.80859375,-20.99609375,4.8828125,0.0
330.21484375,-44.921875,-35.64453125,-25.87890625,-28.80859375,-10.7421875,0.0
330.21875,-49.8046875,-28.3203125,-26.3671875,-35.64453125,62.5,0.0
330.22265625,-25.390625,-16.11328125,-31.73828125,-29.78515625,31.25,0.0
330.2265625,-7.8125,-19.53125,-32.2265625,-20.99609375,-8.7890625,0.0
330.23046875,-19.53125,-29.78515625,-22.4609375,-19.53125,-1.46484375,0.0
330.234375,-46.875,-34.66796875,-29.78515625,-31.25,-2.9296875,0.0
330.23828125,-46.38671875,-35.64453125,-33.69140625,-39.0625,16.6015625,0.0
330.2421875,-31.25,-36.62109375,-23.92578125,-30.2734375,59.5703125,0.0
330.24609375,-22.94921875,-30.2734375,-23.4375,-25.390625,62.5,0.0
330.25,-21.484375,-30.2734375,-28.3203125,-37.109375,-4.39453125,0.0
330.25390625,-39.55078125,-31.25,-31.73828125,-43.9453125,1.953125,0.0
330.2578125,-50.29296875,-33.203125,-36.62109375,-50.29296875,-18.06640625,0.0
330.26171875,-29.296875,-36.1328125,-33.203125,-42.96875,-33.203125,0.0
330.265625,4.39453125,-25.87890625,-2.44140625,-31.25,-57.6171875,0.0
330.26953125,10.25390625,-20.5078125,4.39453125,-34.66796875,-93.75,0.0
330.2734375,-13.18359375,-23.92578125,-22.4609375,-34.1796875,-57.12890625,0.0
330.27734375,-30.2734375,-27.34375,-36.1328125,-36.62109375,-15.13671875,0.0
330.28125,-16.6015625,-24.4140625,-34.1796875,-32.71484375,64.453125,0.0
330.28515625,-0.48828125,-24.4140625,-29.296875,-22.4609375,-24.4140625,0.0
330.2890625,-9.765625,-25.87890625,-25.390625,-11.23046875,-160.15625,0.0
330.29296875,-33.69140625,-33.203125,-24.90234375,-19.04296875,-165.52734375,0.0
330.296875,-56.15234375,-38.0859375,-25.87890625,-30.2734375,-193.84765625,0.0
330.30078125,-57.6171875,-33.203125,-27.83203125,-28.80859375,-156.25,0.0
330.3046875,-30.2734375,-36.62109375,-19.53125,-20.01953125,-171.38671875,0.0
330.30859375,-15.625,-33.69140625,-50.78125,-16.6015625,-356.93359375,0.0
330.3125,-38.57421875,-31.73828125,-83.49609375,-26.3671875,-326.66015625,0.0
330.31640625,-60.05859375,-37.59765625,-36.1328125,-31.25,-203.125,0.0
330.3203125,-45.41015625,-34.66796875,-16.11328125,-35.15625,-215.33203125,0.0
330.32421875,-22.94921875,-35.64453125,-23.4375,-30.2734375,-180.6640625,0.0
330.328125,-10.7421875,-38.57421875,-21.97265625,-20.01953125,-135.25390625,0.0
330.33203125,-21.97265625,-37.59765625,-20.5078125,-30.76171875,-172.36328125,0.0
330.3359375,-52.24609375,-36.1328125,-22.94921875,-43.9453125,-110.83984375,0.0
330.33984375,-55.17578125,-37.109375,-23.92578125,-41.50390625,-60.05859375,0.0
330.34375,-24.90234375,-36.1328125,-22.94921875,-33.69140625,-88.37890625,0.0
330.34765625,-13.18359375,-33.203125,-24.4140625,-25.87890625,-119.140625,0.0
330.3515625,-33.69140625,-30.2734375,-30.2734375,-32.2265625,-175.29296875,0.0
330.35546875,-56.640625,-34.1796875,-28.3203125,-47.8515625,-224.609375,0.0
330.359375,-54.19921875,-38.57421875,-20.5078125,-46.875,-100.5859375,0.0
330.36328125,-31.73828125,-32.71484375,-27.83203125,-38.57421875,105.95703125,0.0
330.3671875,-11.71875,-34.1796875,-32.71484375,-34.1796875,110.83984375,0.0
330.37109375,-23.92578125,-38.57421875,-28.80859375,-30.2734375,13.671875,0.0
330.375,-56.15234375,-35.64453125,-28.80859375,-41.50390625,13.671875,0.0
330.37890625,-57.6171875,-33.69140625,-26.3671875,-47.8515625,41.9921875,0.0
330.3828125,-26.85546875,-30.2734375,-25.390625,-38.0859375,41.50390625,0.0
330.38671875,-2.9296875,-31.73828125,-22.4609375,-25.87890625,8.30078125,0.0
330.390625,-11.71875,-31.73828125,-23.92578125,-22.94921875,-72.265625,0.0
330.39453125,-39.55078125,-30.76171875,-26.3671875,-34.66796875,-126.953125,0.0
330.3984375,-50.29296875,-33.69140625,-28.3203125,-50.78125,-42.96875,0.0
330.40234375,-35.64453125,-33.203125,-30.2734375,-42.48046875,-27.83203125,0.0
330.40625,-22.4609375,-35.64453125,-27.83203125,-28.80859375,-26.85546875,0.0
330.41015625,-30.76171875,-31.25,-26.3671875,-31.73828125,68.84765625,0.0
330.4140625,-55.6640625,-35.64453125,-22.4609375,-39.55078125,71.2890625,0.0
330.41796875,-69.3359375,-38.57421875,-25.87890625,-44.921875,33.69140625,0.0
330.421875,-44.43359375,-32.71484375,-31.73828125,-39.55078125,-19.04296875,0.0
330.42578125,-17.578125,-28.3203125,-28.3203125,-35.15625,-54.6875,0.0
330.4296875,-25.87890625,-30.2734375,-29.78515625,-40.52734375,-72.265625,0.0
330.43359375,-46.38671875,-34.1796875,-29.78515625,-48.828125,-95.703125,0.0
330.4375,-58.10546875,-36.1328125,-32.71484375,-50.78125,-2.9296875,0.0
330.44140625,-35.64453125,-32.71484375,-27.34375,-45.41015625,-66.89453125,0.0
330.4453125,-6.8359375,-28.3203125,-3.41796875,-30.76171875,-131.34765625,0.0
330.44921875,-11.23046875,-25.390625,-16.6015625,-24.4140625,-106.4453125,0.0
330.453125,-34.66796875,-35.15625,-33.69140625,-35.15625,-130.37109375,0.0
330.45703125,-50.78125,-41.015625,-34.1796875,-39.0625,-53.22265625,0.0
330.4609375,-36.1328125,-25.87890625,-47.36328125,-34.66796875,88.37890625,0.0
330.46484375,-4.39453125,-19.04296875,-43.45703125,-30.76171875,107.421875,0.0
330.46875,1.953125,-20.5078125,-29.78515625,-25.87890625,19.53125,0.0
330.47265625,-33.203125,-25.390625,-38.57421875,-37.59765625,20.01953125,0.0
330.4765625,-59.5703125,-31.25,-38.57421875,-50.29296875,47.36328125,0.0
330.48046875,-50.78125,-30.2734375,-33.203125,-48.828125,68.359375,0.0
330.484375,-27.34375,-28.80859375,-30.76171875,-33.69140625,102.5390625,0.0
330.48828125,-16.6015625,-25.87890625,-23.4375,-24.90234375,83.49609375,0.0
330.4921875,-32.2265625,-32.2265625,-24.90234375,-38.57421875,83.49609375,0.0
330.49609375,-53.22265625,-44.921875,-29.78515625,-43.9453125,85.44921875,0.0
330.5,-45.8984375,-37.59765625,-41.9921875,-41.9921875,48.33984375,0.0
330.50390625,-15.625,-24.4140625,-11.71875,-36.1328125,53.22265625,0.0
330.5078125,-2.9296875,-29.78515625,5.859375,-28.80859375,-23.4375,0.0
330.51171875,-24.4140625,-33.69140625,-33.69140625,-25.87890625,-129.8828125,0.0
330.515625,-40.52734375,-33.69140625,-36.1328125,-23.92578125,-108.3984375,0.0
330.51953125,-31.73828125,-31.73828125,-32.71484375,-33.203125,5.859375,0.0
330.5234375,-23.4375,-31.73828125,-34.66796875,-41.50390625,-12.6953125,0.0
330.52734375,-17.578125,-30.76171875,-34.1796875,-40.0390625,-2.9296875,0.0
330.53125,-25.87890625,-22.4609375,-37.59765625,-34.66796875,-9.27734375,0.0
330.53515625,-46.38671875,-22.4609375,-38.0859375,-39.0625,-6.34765625,0.0
330.5390625,-47.8515625,-27.34375,-33.203125,-34.66796875,110.3515625,0.0
330.54296875,-6.8359375,-33.203125,-28.80859375,-2.44140625,45.8984375,0.0
330.546875,19.04296875,-26.3671875,-21.97265625,1.953125,-32.71484375,0.0
330.55078125,-14.16015625,-23.4375,-13.671875,-28.80859375,7.8125,0.0
330.5546875,-41.015625,-33.69140625,-24.4140625,-30.76171875,22.4609375,0.0
330.55859375,-26.85546875,-31.73828125,-32.2265625,-19.04296875,-34.1796875,0.0
330.5625,13.671875,-24.4140625,-31.73828125,-6.8359375,-17.08984375,0.0
330.56640625,51.7578125,-17.578125,-31.73828125,23.4375,45.41015625,0.0
330.5703125,45.8984375,-18.06640625,-29.78515625,36.62109375,25.390625,0.0
330.57421875,25.390625,-22.4609375,-30.76171875,28.80859375,-30.2734375,0.0
330.578125,20.99609375,-24.4140625,-35.64453125,27.83203125,6.8359375,0.0
330.58203125,32.2265625,-20.99609375,-31.73828125,34.1796875,25.87890625,0.0
330.5859375,58.59375,-16.11328125,-24.90234375,44.43359375,25.87890625,0.0
330.58984375,55.17578125,-18.06640625,-30.76171875,37.109375,-31.25,0.0
330.59375,23.4375,-22.94921875,-27.83203125,22.94921875,-114.74609375,0.0
330.59765625,5.859375,-28.3203125,-20.5078125,22.4609375,14.6484375,0.0
330.6015625,16.6015625,-26.3671875,-28.3203125,27.83203125,10.25390625,0.0
330.60546875,34.1796875,-26.85546875,-32.71484375,26.85546875,-100.09765625,0.0
330.609375,34.66796875,-28.3203125,-30.2734375,27.34375,-58.10546875,0.0
330.61328125,10.25390625,-24.90234375,-32.2265625,14.16015625,-105.95703125,0.0
330.6171875,-8.30078125,-30.76171875,-33.203125,-5.859375,-164.55078125,0.0
330.62109375,-5.859375,-28.80859375,-31.25,-1.46484375,-129.39453125,0.0
330.625,14.6484375,-20.5078125,-33.203125,6.34765625,-96.6796875,0.0
330.62890625,30.76171875,-19.53125,-31.73828125,10.25390625,-52.734375,0.0
330.6328125,7.32421875,-22.94921875,-32.71484375,0.9765625,-34.1796875,0.0
330.63671875,-28.3203125,-30.76171875,-35.64453125,-0.48828125,-22.94921875,0.0
330.640625,-23.4375,-35.15625,-18.5546875,-3.41796875,-60.05859375,0.0
330.64453125,5.859375,-29.296875,-13.18359375,-1.953125,-124.0234375,0.0
330.6484375,15.625,-21.97265625,-28.80859375,6.34765625,-103.515625,0.0
330.65234375,-8.30078125,-24.4140625,-35.64453125,-1.46484375,-104.4921875,0.0
330.65625,-30.76171875,-28.80859375,-36.1328125,-4.39453125,-56.640625,0.0
330.66015625,-31.73828125,-30.76171875,-36.1328125,-10.7421875,-29.78515625,0.0
330.6640625,-6.8359375,-29.296875,-30.2734375,-11.23046875,-101.07421875,0.0
330.66796875,12.6953125,-26.3671875,-24.90234375,-4.8828125,-64.453125,0.0
330.671875,-7.32421875,-29.78515625,-30.2734375,-3.41796875,-4.8828125,0.0
330.67578125,-33.69140625,-31.25,-32.2265625,-9.27734375,31.25,0.0
330.6796875,-36.1328125,-34.1796875,-27.83203125,-21.97265625,85.44921875,0.0
330.68359375,-13.671875,-30.2734375,-45.41015625,-16.6015625,49.8046875,0.0
330.6875,13.18359375,-25.390625,-56.640625,-7.32421875,-66.89453125,0.0
330.69140625,0.0,-31.25,-31.73828125,-12.6953125,-105.95703125,0.0
330.6953125,-33.203125,-30.2734375,-25.390625,-11.23046875,-23.92578125,0.0
330.69921875,-32.2265625,-24.90234375,-33.203125,-16.6015625,46.38671875,0.0
330.703125,-8.30078125,-22.94921875,-32.71484375,-18.5546875,68.359375,0.0
330.70703125,9.765625,-22.4609375,-25.390625,-7.32421875,54.6875,0.0
330.7109375,-0.9765625,-23.92578125,-24.4140625,-11.71875,17.08984375,0.0
330.71484375,-23.92578125,-28.80859375,-27.83203125,-20.01953125,-30.2734375,0.0
330.71875,-25.87890625,-32.71484375,-30.76171875,-19.53125,-55.6640625,0.0
330.72265625,-7.32421875,-33.203125,-34.1796875,-10.25390625,-9.27734375,0.0
330.7265625,7.32421875,-26.85546875,-29.296875,-5.859375,26.85546875,0.0
330.73046875,-9.765625,-29.296875,-29.78515625,-12.20703125,44.921875,0.0
330.734375,-36.62109375,-38.57421875,-34.1796875,-16.11328125,-26.85546875,0.0
330.73828125,-38.57421875,-31.73828125,-30.76171875,-22.94921875,-132.8125,0.0
330.7421875,-23.4375,-27.34375,-33.69140625,-25.87890625,-62.5,0.0
330.74609375,-9.765625,-33.69140625,-35.64453125,-20.01953125,-7.8125,0.0
330.75,-9.27734375,-32.71484375,-32.2265625,-10.7421875,-13.18359375,0.0
330.75390625,-27.83203125,-29.78515625,-27.83203125,-14.16015625,-7.32421875,0.0
330.7578125,-46.875,-39.0625,-32.2265625,-22.4609375,-63.4765625,0.0
330.76171875,-34.66796875,-40.0390625,-32.71484375,-28.3203125,-66.89453125,0.0
330.765625,-11.71875,-36.1328125,-27.34375,-22.94921875,-20.01953125,0.0
330.76953125,-9.765625,-34.66796875,-25.87890625,-6.8359375,-65.91796875,0.0
330.7734375,-35.64453125,-35.15625,-30.76171875,-23.92578125,-118.1640625,0.0
330.77734375,-48.33984375,-35.15625,-37.59765625,-38.0859375,-115.234375,0.0
330.78125,-28.3203125,-33.203125,-33.203125,-24.4140625,-82.51953125,0.0
330.78515625,-2.44140625,-29.78515625,-29.78515625,-24.90234375,-44.921875,0.0
330.7890625,4.8828125,-32.2265625,-44.921875,-16.11328125,-50.78125,0.0
330.79296875,-13.18359375,-38.0859375,-44.921875,-14.16015625,-22.94921875,0.0
330.796875,-28.3203125,-34.1796875,-26.3671875,-21.484375,53.7109375,0.0
330.80078125,-20.01953125,-32.71484375,-31.25,-15.13671875,66.40625,0.0
330.8046875,-0.9765625,-35.64453125,-33.203125,-10.25390625,40.0390625,0.0
330.80859375,-2.44140625,-39.55078125,-31.25,-7.32421875,-25.390625,0.0
330.8125,-26.3671875,-40.0390625,-32.2265625,-21.484375,-53.7109375,0.0
330.81640625,-46.38671875,-37.59765625,-28.3203125,-37.109375,26.85546875,0.0
330.8203125,-35.15625,-36.1328125,-31.73828125,-41.9921875,62.98828125,0.0
330.82421875,-4.8828125,-42.48046875,-41.015625,-30.76171875,37.59765625,0.0
330.828125,0.0,-44.921875,-29.78515625,-19.53125,-33.69140625,0.0
330.83203125,-17.578125,-33.69140625,-19.53125,-16.6015625,-97.16796875,0.0
330.8359375,-27.83203125,-24.4140625,-20.5078125,-15.625,-53.7109375,0.0
330.83984375,-34.1796875,-30.2734375,-24.4140625,-23.92578125,-16.11328125,0.0
330.84375,-23.92578125,-37.59765625,-29.296875,-30.2734375,-77.1484375,0.0
330.84765625,-15.13671875,-28.80859375,-30.76171875,-30.76171875,-56.640625,0.0
330.8515625,-33.69140625,-23.4375,-29.296875,-18.5546875,-65.91796875,0.0
330.85546875,-55.6640625,-23.4375,-25.390625,-21.97265625,-136.71875,0.0
330.859375,-43.9453125,-23.92578125,-28.3203125,-30.2734375,-74.70703125,0.0
330.86328125,-22.94921875,-22.94921875,-28.80859375,-25.390625,7.32421875,0.0
330.8671875,0.9765625,-20.99609375,-23.92578125,-24.4140625,-16.6015625,0.0
330.87109375,-5.37109375,-24.90234375,-26.3671875,-23.92578125,-83.984375,0.0
330.875,-39.0625,-27.34375,-28.80859375,-28.80859375,-58.10546875,0.0
330.87890625,-48.828125,-28.3203125,-26.85546875,-36.62109375,-18.06640625,0.0
330.8828125,-21.97265625,-29.296875,-22.94921875,-31.25,-19.53125,0.0
330.88671875,2.9296875,-26.3671875,-21.97265625,-20.99609375,-13.18359375,0.0
330.890625,-4.39453125,-25.390625,-25.87890625,-15.625,-71.77734375,0.0
330.89453125,-32.71484375,-31.73828125,-28.80859375,-29.296875,-122.0703125,0.0
330.8984375,-41.9921875,-31.73828125,-28.3203125,-33.69140625,-125.48828125,0.0
330.90234375,-31.73828125,-27.83203125,-29.296875,-27.83203125,-120.60546875,0.0
330.90625,-19.53125,-29.78515625,-26.85546875,-25.390625,-98.6328125,0.0
330.91015625,-15.625,-30.2734375,-23.92578125,-17.08984375,-98.14453125,0.0
330.9140625,-32.71484375,-31.25,-28.3203125,-26.85546875,-17.578125,0.0
330.91796875,-46.875,-35.64453125,-25.390625,-26.85546875,47.8515625,0.0
330.921875,-39.55078125,-34.1796875,-26.85546875,-15.625,45.41015625,0.0
330.92578125,-21.484375,-37.109375,-60.05859375,-19.53125,56.15234375,0.0
330.9296875,-19.53125,-35.15625,-53.22265625,-14.6484375,11.71875,0.0
330.93359375,-41.50390625,-18.5546875,-25.87890625,-16.6015625,-27.83203125,0.0
330.9375,-62.01171875,-19.04296875,-32.71484375,-27.34375,-4.39453125,0.0
330.94140625,-45.41015625,-24.4140625,-29.296875,-27.34375,-20.99609375,0.0
330.9453125,-12.6953125,-25.390625,-27.34375,-23.4375,17.08984375,0.0
330.94921875,-8.30078125,-20.99609375,-25.87890625,-13.18359375,3.90625,0.0
330.953125,-31.25,-26.85546875,-27.83203125,-29.296875,-43.9453125,0.0
330.95703125,-45.41015625,-29.296875,-33.69140625,-44.43359375,-50.29296875,0.0
330.9609375,-32.71484375,-25.87890625,-28.80859375,-32.2265625,-41.50390625,0.0
330.96484375,-17.08984375,-30.2734375,-16.11328125,-26.3671875,-59.5703125,0.0
330.96875,-13.671875,-28.80859375,-29.296875,-20.5078125,-39.0625,0.0
330.97265625,-33.203125,-30.76171875,-37.59765625,-24.4140625,-5.37109375,0.0
330.9765625,-56.640625,-37.109375,-20.99609375,-37.59765625,-12.6953125,0.0
330.98046875,-53.7109375,-36.1328125,-25.390625,-41.9921875,-21.484375,0.0
330.984375,-29.78515625,-30.2734375,-23.4375,-31.25,30.76171875,0.0
330.98828125,-20.99609375,-26.3671875,-21.484375,-21.484375,71.2890625,0.0
330.9921875,-34.1796875,-29.78515625,-28.3203125,-34.66796875,39.0625,0.0
330.99609375,-55.6640625,-29.296875,-30.2734375,-47.36328125,36.62109375,0.0
331.0,-56.640625,-25.390625,-26.3671875,-45.41015625,20.99609375,0.0
331.00390625,-29.296875,-22.4609375,-27.34375,-36.1328125,-24.4140625,0.0
331.0078125,-10.25390625,-21.97265625,-36.1328125,-33.69140625,-74.21875,0.0
331.01171875,-23.4375,-24.4140625,-32.2265625,-32.71484375,-90.8203125,0.0
331.015625,-53.7109375,-31.73828125,18.06640625,-46.875,-62.98828125,0.0
331.01953125,-53.22265625,-35.15625,15.625,-57.6171875,0.9765625,0.0
331.0234375,-18.06640625,-30.76171875,-33.69140625,-41.50390625,51.26953125,0.0
331.02734375,3.90625,-34.1796875,-34.1796875,-34.66796875,28.3203125,0.0
331.03125,-21.484375,-37.109375,-29.78515625,-39.0625,-123.046875,0.0
331.03515625,-50.29296875,-39.0625,-27.83203125,-39.0625,-213.37890625,0.0
331.0390625,-55.17578125,-43.45703125,-35.64453125,-42.48046875,-170.41015625,0.0
331.04296875,-41.015625,-38.57421875,-23.4375,-39.0625,-153.80859375,0.0
331.046875,-28.80859375,-33.203125,-20.99609375,-29.296875,-62.98828125,0.0
331.05078125,-40.0390625,-31.73828125,-38.0859375,-25.390625,-70.3125,0.0
331.0546875,-60.546875,-35.15625,-40.0390625,-34.66796875,-140.13671875,0.0
331.05859375,-58.10546875,-37.109375,-18.5546875,-45.41015625,-68.84765625,0.0
331.0625,-31.73828125,-35.15625,-4.39453125,-31.73828125,-12.6953125,0.0
331.06640625,-16.6015625,-34.1796875,-27.83203125,-28.3203125,-29.78515625,0.0
331.0703125,-13.18359375,-29.296875,-32.71484375,-30.2734375,7.32421875,0.0
331.07421875,-37.109375,-38.0859375,-34.66796875,-23.92578125,5.37109375,0.0
331.078125,-69.82421875,-44.43359375,-33.69140625,-43.45703125,-46.875,0.0
331.08203125,-47.8515625,-39.55078125,-28.80859375,-53.7109375,-8.7890625,0.0
331.0859375,-9.765625,-45.8984375,-28.3203125,-35.64453125,15.625,0.0
331.08984375,-21.484375,-44.921875,-26.85546875,-28.3203125,-77.63671875,0.0
331.09375,-51.7578125,-38.0859375,-26.3671875,-40.0390625,-120.60546875,0.0
331.09765625,-68.359375,-37.59765625,-21.97265625,-39.0625,-79.58984375,0.0
331.1015625,-58.10546875,-44.921875,-21.484375,-40.52734375,7.8125,0.0
331.10546875,-30.76171875,-46.875,-6.34765625,-34.1796875,78.61328125,0.0
331.109375,-22.4609375,-44.43359375,3.90625,-25.87890625,43.45703125,0.0
331.11328125,-53.22265625,-51.7578125,-13.18359375,-35.64453125,23.92578125,0.0
331.1171875,-78.61328125,-57.6171875,-20.01953125,-38.0859375,88.37890625,0.0
331.12109375,-57.6171875,-60.546875,-23.92578125,-30.76171875,0.0,0.0
331.125,-28.80859375,-50.78125,-28.3203125,-23.4375,-74.70703125,0.0
331.12890625,-26.85546875,-42.48046875,-26.3671875,-21.97265625,-62.98828125,0.0
331.1328125,-43.45703125,-40.52734375,-17.578125,-27.34375,-136.71875,0.0
331.13671875,-69.82421875,-47.36328125,-18.06640625,-39.55078125,-129.8828125,0.0
331.140625,-65.91796875,-42.96875,-22.4609375,-43.45703125,-87.890625,0.0
331.14453125,-26.3671875,-39.0625,-24.4140625,-32.71484375,-32.71484375,0.0
331.1484375,-22.4609375,-42.48046875,-10.25390625,-26.85546875,-22.4609375,0.0
331.15234375,-41.9921875,-38.57421875,1.46484375,-34.1796875,-37.109375,0.0
331.15625,-56.640625,-40.52734375,-18.06640625,-32.71484375,-32.2265625,0.0
331.16015625,-44.43359375,-40.52734375,-27.34375,-31.73828125,-96.6796875,0.0
331.1640625,-13.18359375,-41.015625,-23.92578125,-33.203125,-120.1171875,0.0
331.16796875,-5.37109375,-40.52734375,-26.3671875,-34.66796875,-47.8515625,0.0
331.171875,-26.3671875,-39.55078125,-30.76171875,-36.1328125,-40.0390625,0.0
331.17578125,-52.734375,-44.43359375,-33.69140625,-34.1796875,-67.3828125,0.0
331.1796875,-50.78125,-46.38671875,-38.57421875,-41.50390625,-3.41796875,0.0
331.18359375,-23.4375,-39.0625,-36.62109375,-33.203125,22.4609375,0.0
331.1875,-9.765625,-31.25,-34.1796875,-20.5078125,1.953125,0.0
331.19140625,-21.484375,-29.78515625,-26.85546875,-18.06640625,-23.92578125,0.0
331.1953125,-40.52734375,-35.15625,-13.671875,-23.92578125,-68.359375,0.0
331.19921875,-41.50390625,-42.96875,-23.4375,-34.1796875,-62.5,0.0
331.203125,-21.484375,-39.55078125,-32.71484375,-22.94921875,-82.03125,0.0
331.20703125,-6.34765625,-27.34375,-19.04296875,-14.16015625,-73.73046875,0.0
331.2109375,-18.5546875,-27.34375,8.7890625,-15.625,21.97265625,0.0
331.21484375,-45.41015625,-31.73828125,-6.8359375,-25.87890625,49.8046875,0.0
331.21875,-55.6640625,-30.76171875,-32.71484375,-37.109375,27.34375,0.0
331.22265625,-33.69140625,-27.83203125,-30.76171875,-34.66796875,78.125,0.0
331.2265625,-11.23046875,-30.2734375,-31.73828125,-34.66796875,54.6875,0.0
331.23046875,-18.5546875,-33.69140625,-36.62109375,-40.0390625,43.45703125,0.0
331.234375,-40.0390625,-33.69140625,-38.0859375,-41.9921875,22.4609375,0.0
331.23828125,-47.36328125,-31.25,-34.66796875,-47.36328125,-60.05859375,0.0
331.2421875,-36.62109375,-25.87890625,-34.1796875,-46.38671875,-29.78515625,0.0
331.24609375,-16.11328125,-21.97265625,-33.203125,-35.64453125,11.23046875,0.0
331.25,-12.20703125,-20.99609375,-30.76171875,-26.3671875,-93.26171875,0.0
331.25390625,-32.2265625,-28.80859375,-33.203125,-30.2734375,-147.4609375,0.0
331.2578125,-43.9453125,-46.875,-38.0859375,-41.50390625,-42.96875,0.0
331.26171875,-27.34375,-45.41015625,-35.15625,-30.76171875,19.53125,0.0
331.265625,-7.32421875,-32.2265625,-34.1796875,-18.5546875,-18.06640625,0.0
331.26953125,-9.765625,-26.3671875,-35.64453125,-20.5078125,-83.0078125,0.0
331.2734375,-33.69140625,-27.34375,-31.25,-20.99609375,-167.48046875,0.0
331.27734375,-52.24609375,-31.73828125,-29.296875,-33.203125,-96.6796875,0.0
331.28125,-39.55078125,-31.25,-25.87890625,-35.15625,-40.0390625,0.0
331.28515625,-14.6484375,-30.2734375,-9.27734375,-20.01953125,-79.58984375,0.0
331.2890625,-6.8359375,-33.69140625,-16.6015625,-22.4609375,-100.09765625,0.0
331.29296875,-28.3203125,-32.2265625,-35.64453125,-36.62109375,-98.14453125,0.0
331.296875,-57.6171875,-32.2265625,-28.80859375,-52.734375,-56.640625,0.0
331.30078125,-40.52734375,-27.83203125,-15.13671875,-39.55078125,17.08984375,0.0
331.3046875,-5.37109375,-20.5078125,-24.4140625,-25.87890625,39.55078125,0.0
331.30859375,5.859375,-18.06640625,-35.15625,-27.34375,-33.203125,0.0
331.3125,-20.99609375,-28.3203125,-37.59765625,-34.1796875,-44.921875,0.0
331.31640625,-65.4296875,-43.45703125,-34.1796875,-55.6640625,-17.578125,0.0
331.3203125,-58.10546875,-42.48046875,-31.25,-53.7109375,-7.8125,0.0
331.32421875,-22.4609375,-35.64453125,-29.78515625,-28.80859375,-9.765625,0.0
331.328125,-16.6015625,-36.62109375,-25.87890625,-29.78515625,-25.87890625,0.0
331.33203125,-44.43359375,-45.41015625,-29.296875,-44.43359375,-26.85546875,0.0
331.3359375,-61.5234375,-43.45703125,-28.80859375,-43.45703125,12.6953125,0.0
331.33984375,-46.875,-39.55078125,-23.4375,-36.1328125,58.10546875,0.0
331.34375,-35.15625,-44.921875,-25.87890625,-37.109375,66.89453125,0.0
331.34765625,-25.87890625,-38.57421875,-22.4609375,-37.59765625,-80.56640625,0.0
331.3515625,-38.57421875,-35.15625,-21.484375,-38.0859375,-154.296875,0.0
331.35546875,-67.87109375,-43.9453125,-24.4140625,-44.921875,-48.33984375,0.0
331.359375,-65.4296875,-48.828125,-26.3671875,-43.9453125,-4.8828125,0.0
331.36328125,-41.50390625,-47.8515625,-28.3203125,-41.50390625,-18.06640625,0.0
331.3671875,-25.390625,-36.1328125,-22.94921875,-38.57421875,-2.9296875,0.0
331.37109375,-30.76171875,-31.73828125,-22.4609375,-34.1796875,-43.45703125,0.0
331.375,-56.640625,-37.109375,-29.78515625,-40.0390625,-79.1015625,0.0
331.37890625,-63.96484375,-41.9921875,-29.78515625,-50.78125,-26.85546875,0.0
331.3828125,-35.64453125,-39.0625,-28.80859375,-45.8984375,20.5078125,0.0
331.38671875,-10.25390625,-29.78515625,-29.296875,-26.85546875,-26.3671875,0.0
331.390625,-16.6015625,-34.66796875,-20.01953125,-26.85546875,-28.3203125,0.0
331.39453125,-48.828125,-38.0859375,-23.92578125,-48.33984375,20.5078125,0.0
331.3984375,-67.3828125,-32.71484375,-33.203125,-51.26953125,-32.2265625,0.0
331.40234375,-41.015625,-33.203125,-27.34375,-36.62109375,-50.29296875,0.0
331.40625,-20.99609375,-32.71484375,-19.53125,-30.76171875,-95.703125,0.0
331.41015625,-33.203125,-33.203125,-21.484375,-36.1328125,-195.3125,0.0
331.4140625,-51.7578125,-37.59765625,-24.4140625,-42.96875,-196.2890625,0.0
331.41796875,-61.03515625,-38.0859375,-37.59765625,-44.921875,-7.8125,0.0
331.421875,-49.8046875,-38.57421875,-37.109375,-39.55078125,22.94921875,0.0
331.42578125,-24.4140625,-35.64453125,-19.53125,-30.76171875,-36.1328125,0.0
331.4296875,-17.578125,-29.296875,-30.2734375,-33.69140625,2.9296875,0.0
331.43359375,-38.0859375,-33.203125,2.44140625,-34.66796875,-8.7890625,0.0
331.4375,-58.59375,-43.9453125,28.80859375,-40.0390625,-37.109375,0.0
331.44140625,-45.8984375,-40.52734375,-22.94921875,-40.0390625,-58.59375,0.0
331.4453125,-11.23046875,-34.66796875,-41.50390625,-36.62109375,-23.4375,0.0
331.44921875,-9.27734375,-37.109375,-32.71484375,-32.71484375,-7.8125,0.0
331.453125,-37.109375,-36.62109375,-32.71484375,-36.1328125,-117.1875,0.0
331.45703125,-51.26953125,-36.62109375,-35.64453125,-41.50390625,-206.0546875,0.0
331.4609375,-39.0625,-39.0625,-33.69140625,-33.203125,-210.44921875,0.0
331.46484375,-12.20703125,-35.64453125,-28.80859375,-24.4140625,-171.38671875,0.0
331.46875,-1.46484375,-31.25,-28.80859375,-23.92578125,-189.94140625,0.0
331.47265625,-29.78515625,-25.390625,-32.2265625,-30.76171875,-145.01953125,0.0
331.4765625,-60.546875,-27.83203125,-32.2265625,-32.2265625,-35.64453125,0.0
331.48046875,-26.85546875,-34.1796875,-90.33203125,-13.671875,-128.90625,0.0
331.484375,9.765625,-28.80859375,-100.5859375,-6.8359375,-197.75390625,0.0
331.48828125,-11.23046875,-20.5078125,-42.48046875,-29.78515625,-157.71484375,0.0
331.4921875,-70.80078125,-24.90234375,-38.0859375,-76.171875,-149.90234375,0.0
331.49609375,-108.3984375,-29.78515625,-43.9453125,-107.91015625,-61.5234375,0.0
331.5,-118.1640625,-19.53125,-43.9453125,-122.55859375,102.5390625,0.0
331.50390625,-117.1875,-13.18359375,-42.96875,-140.625,188.96484375,0.0
331.5078125,-107.91015625,-14.6484375,-54.19921875,-151.85546875,174.8046875,0.0
331.51171875,-136.23046875,-18.06640625,-60.546875,-167.96875,142.08984375,0.0
331.515625,-174.31640625,-20.99609375,-60.05859375,-177.734375,87.40234375,0.0
331.51953125,-181.15234375,-18.06640625,-49.31640625,-193.359375,97.16796875,0.0
331.5234375,-160.15625,-11.71875,-72.75390625,-187.5,142.08984375,0.0
331.52734375,-142.578125,-17.08984375,-83.0078125,-171.38671875,28.80859375,0.0
331.53125,-151.3671875,-26.85546875,-50.78125,-171.38671875,-43.9453125,0.0
331.53515625,-161.1328125,-29.296875,-54.19921875,-169.921875,-69.3359375,0.0
331.5390625,-149.90234375,-32.71484375,-38.0859375,-153.80859375,-85.44921875,0.0
331.54296875,-127.9296875,-21.97265625,-30.76171875,-136.23046875,-21.97265625,0.0
331.546875,-102.5390625,-19.04296875,-46.875,-126.953125,81.0546875,0.0
331.55078125,-102.05078125,-26.85546875,-47.36328125,-129.8828125,3.41796875,0.0
331.5546875,-124.51171875,-26.3671875,-41.9921875,-126.953125,-43.45703125,0.0
331.55859375,-125.0,-22.4609375,-40.0390625,-120.1171875,-14.16015625,0.0
331.5625,-95.703125,-16.11328125,-36.1328125,-110.83984375,-43.45703125,0.0
331.56640625,-68.84765625,-13.671875,-32.2265625,-90.8203125,-52.24609375,0.0
331.5703125,-74.21875,-20.99609375,-19.04296875,-89.35546875,-86.42578125,0.0
331.57421875,-97.65625,-24.4140625,-27.34375,-99.12109375,0.0,0.0
331.578125,-92.7734375,-23.4375,-41.9921875,-104.00390625,-2.9296875,0.0
331.58203125,-68.84765625,-22.4609375,-39.0625,-86.42578125,-20.01953125,0.0
331.5859375,-53.22265625,-27.83203125,-42.96875,-70.80078125,28.3203125,0.0
331.58984375,-52.734375,-31.25,-38.0859375,-74.21875,0.48828125,0.0
331.59375,-81.54296875,-33.203125,-35.64453125,-78.61328125,-18.5546875,0.0
331.59765625,-97.65625,-42.48046875,-40.0390625,-83.49609375,-30.2734375,0.0
331.6015625,-71.77734375,-43.45703125,-36.62109375,-71.2890625,-24.4140625,0.0
331.60546875,-41.9921875,-34.66796875,-36.1328125,-59.5703125,-29.296875,0.0
331.609375,-35.64453125,-27.34375,-41.015625,-60.05859375,-40.0390625,0.0
331.61328125,-60.546875,-23.92578125,-38.57421875,-60.05859375,-112.79296875,0.0
331.6171875,-85.44921875,-23.4375,-40.0390625,-62.5,-81.54296875,0.0
331.62109375,-64.94140625,-23.92578125,-41.015625,-63.96484375,41.9921875,0.0
331.625,-26.85546875,-22.94921875,-36.1328125,-52.734375,-26.3671875,0.0
331.62890625,-23.4375,-26.3671875,-27.34375,-51.7578125,-94.7265625,0.0
331.6328125,-52.734375,-34.1796875,-21.97265625,-55.6640625,-126.953125,0.0
331.63671875,-71.2890625,-31.73828125,-29.296875,-62.98828125,-108.88671875,0.0
331.640625,-55.6640625,-19.04296875,-32.2265625,-55.6640625,-15.13671875,0.0
331.64453125,-25.87890625,-20.5078125,-27.34375,-41.9921875,94.23828125,0.0
331.6484375,-16.11328125,-24.90234375,-28.3203125,-47.8515625,9.765625,0.0
331.65234375,-35.64453125,-18.06640625,-35.15625,-44.43359375,-91.796875,0.0
331.65625,-56.15234375,-24.90234375,-35.15625,-35.64453125,-111.81640625,0.0
331.66015625,-52.734375,-27.34375,-27.83203125,-35.64453125,-179.6875,0.0
331.6640625,-26.3671875,-20.5078125,-24.4140625,-26.85546875,-159.1796875,0.0
331.66796875,-3.90625,-23.92578125,-25.390625,-15.13671875,-68.359375,0.0
331.671875,-31.25,-36.1328125,-29.296875,-30.76171875,-4.8828125,0.0
331.67578125,-69.3359375,-33.69140625,-25.87890625,-46.38671875,-10.7421875,0.0
331.6796875,-59.08203125,-28.80859375,-29.296875,-41.015625,1.953125,0.0
331.68359375,-33.203125,-29.78515625,-36.62109375,-35.64453125,-7.8125,0.0
331.6875,-25.390625,-23.92578125,-33.69140625,-31.73828125,30.2734375,0.0
331.69140625,-32.71484375,-28.3203125,-32.2265625,-32.71484375,6.34765625,0.0
331.6953125,-54.19921875,-32.2265625,-32.2265625,-39.0625,-53.7109375,0.0
331.69921875,-62.98828125,-27.34375,-32.2265625,-38.57421875,-32.2265625,0.0
331.703125,-34.66796875,-23.92578125,-23.4375,-32.71484375,36.1328125,0.0
331.70703125,-10.25390625,-24.90234375,-20.99609375,-30.2734375,60.546875,0.0
331.7109375,-23.92578125,-25.87890625,-27.83203125,-29.296875,-78.125,0.0
331.71484375,-52.734375,-27.34375,-35.15625,-36.62109375,-109.86328125,0.0
331.71875,-66.89453125,-36.1328125,-37.109375,-45.8984375,-57.6171875,0.0
331.72265625,-44.921875,-37.59765625,-30.76171875,-39.55078125,-42.48046875,0.0
331.7265625,-11.23046875,-26.3671875,-35.64453125,-27.34375,-43.9453125,0.0
331.73046875,-13.671875,-27.34375,-31.25,-24.90234375,-51.7578125,0.0
331.734375,-39.0625,-33.203125,-26.85546875,-34.66796875,-19.53125,0.0
331.73828125,-46.38671875,-33.69140625,-28.3203125,-34.1796875,-18.06640625,0.0
331.7421875,-21.484375,-24.4140625,-29.296875,-21.97265625,-44.921875,0.0
331.74609375,9.27734375,-17.578125,-28.80859375,-14.6484375,-2.9296875,0.0
331.75,-3.41796875,-20.99609375,-23.92578125,-13.18359375,28.3203125,0.0
331.75390625,-36.62109375,-24.90234375,-27.34375,-21.484375,-22.94921875,0.0
331.7578125,-46.875,-28.80859375,-34.1796875,-34.1796875,-27.83203125,0.0
331.76171875,-26.3671875,-25.87890625,-31.73828125,-27.83203125,-32.2265625,0.0
331.765625,2.9296875,-22.4609375,-41.50390625,-15.625,-3.90625,0.0
331.76953125,4.8828125,-22.94921875,-44.921875,-15.13671875,57.6171875,0.0
331.7734375,-26.3671875,-30.76171875,-33.69140625,-28.3203125,35.15625,0.0
331.77734375,-44.43359375,-36.62109375,-32.71484375,-37.109375,48.828125,0.0
331.78125,-29.296875,-31.73828125,-34.66796875,-37.109375,150.390625,0.0
331.78515625,-5.37109375,-21.97265625,-34.66796875,-27.83203125,120.1171875,0.0
331.7890625,-0.48828125,-20.99609375,-34.1796875,-22.94921875,-34.66796875,0.0
331.79296875,-20.01953125,-26.3671875,-31.73828125,-26.85546875,-83.0078125,0.0
331.796875,-31.25,-29.296875,-29.296875,-23.92578125,-61.03515625,0.0
331.80078125,-20.01953125,-26.3671875,-31.25,-26.85546875,-81.0546875,0.0
331.8046875,7.32421875,-24.4140625,-38.0859375,-28.80859375,-71.2890625,0.0
331.80859375,9.765625,-30.76171875,-29.78515625,-21.97265625,-79.58984375,0.0
331.8125,-13.671875,-41.50390625,-15.625,-5.37109375,-14.16015625,0.0
331.81640625,-39.55078125,-45.41015625,-28.80859375,-14.6484375,23.4375,0.0
331.8203125,-62.01171875,-39.55078125,-39.0625,-44.921875,3.90625,0.0
331.82421875,-53.7109375,-33.69140625,-35.64453125,-48.33984375,41.015625,0.0
331.828125,-50.29296875,-30.76171875,-38.57421875,-59.08203125,0.0,0.0
331.83203125,-83.49609375,-31.73828125,-47.8515625,-80.56640625,-129.39453125,0.0
331.8359375,-114.2578125,-37.109375,-49.8046875,-83.0078125,-172.36328125,0.0
331.83984375,-108.88671875,-41.50390625,-45.8984375,-86.9140625,-115.234375,0.0
331.84375,-79.1015625,-35.64453125,-41.50390625,-83.0078125,-12.20703125,0.0
331.84765625,-63.96484375,-29.296875,-40.52734375,-70.80078125,12.20703125,0.0
331.8515625,-78.125,-30.2734375,-37.59765625,-67.87109375,-67.3828125,0.0
331.85546875,-100.09765625,-36.1328125,-71.77734375,-64.94140625,-56.15234375,0.0
331.859375,-95.21484375,-36.1328125,-79.1015625,-63.4765625,44.921875,0.0
331.86328125,-62.01171875,-23.92578125,-38.0859375,-55.6640625,-25.390625,0.0
331.8671875,-44.921875,-30.76171875,-33.69140625,-51.7578125,-119.62890625,0.0
331.87109375,-49.31640625,-35.15625,-38.0859375,-59.08203125,-72.75390625,0.0
331.875,-64.453125,-33.203125,-36.62109375,-65.91796875,-65.4296875,0.0
331.87890625,-74.21875,-35.15625,-37.109375,-70.3125,-19.53125,0.0
331.8828125,-47.36328125,-23.92578125,-29.296875,-63.96484375,13.671875,0.0
331.88671875,-14.6484375,-21.97265625,-27.34375,-44.43359375,-3.41796875,0.0
331.890625,-26.85546875,-27.34375,-34.1796875,-41.9921875,3.90625,0.0
331.89453125,-59.5703125,-28.80859375,-33.203125,-50.78125,-44.921875,0.0
331.8984375,-60.05859375,-25.390625,-51.7578125,-45.41015625,-89.84375,0.0
331.90234375,-40.0390625,-27.83203125,-56.640625,-43.45703125,-83.49609375,0.0
331.90625,-21.484375,-34.1796875,-38.0859375,-42.48046875,-66.40625,0.0
331.91015625,-23.4375,-30.76171875,-28.80859375,-47.36328125,-71.2890625,0.0
331.9140625,-46.875,-34.1796875,-36.62109375,-54.6875,-35.15625,0.0
331.91796875,-58.10546875,-38.0859375,-41.9921875,-52.734375,9.765625,0.0
331.921875,-46.38671875,-32.2265625,-32.2265625,-48.828125,-15.625,0.0
331.92578125,-23.4375,-29.78515625,-28.80859375,-37.109375,80.56640625,0.0
331.9296875,-21.484375,-29.78515625,-27.83203125,-26.3671875,28.80859375,0.0
331.93359375,-43.45703125,-27.34375,-31.25,-33.203125,-40.52734375,0.0
331.9375,-49.31640625,-29.78515625,-31.25,-38.57421875,9.27734375,0.0
331.94140625,-29.78515625,-28.3203125,-25.87890625,-34.66796875,13.18359375,0.0
331.9453125,-12.20703125,-26.85546875,-26.3671875,-36.1328125,-31.73828125,0.0
331.94921875,-11.23046875,-30.2734375,-34.66796875,-29.78515625,-65.4296875,0.0
331.953125,-34.1796875,-36.62109375,-38.0859375,-28.80859375,-53.22265625,0.0
331.95703125,-49.8046875,-34.66796875,-41.015625,-29.296875,-10.7421875,0.0
331.9609375,-36.62109375,-30.76171875,-20.01953125,-25.390625,63.96484375,0.0
331.96484375,-13.671875,-30.2734375,-18.5546875,-27.83203125,91.796875,0.0
331.96875,-8.7890625,-31.25,-37.109375,-26.3671875,-5.859375,0.0
331.97265625,-33.203125,-35.15625,-32.2265625,-31.25,-74.21875,0.0
331.9765625,-51.26953125,-39.0625,-39.0625,-49.31640625,-40.0390625,0.0
331.98046875,-40.0390625,-36.1328125,-35.15625,-44.921875,-37.109375,0.0
331.984375,-11.71875,-35.15625,-32.71484375,-32.71484375,-44.43359375,0.0
331.98828125,-2.9296875,-28.80859375,-25.390625,-29.78515625,-41.50390625,0.0
331.9921875,-39.0625,-25.390625,-21.484375,-27.83203125,-96.19140625,0.0
331.99609375,-61.5234375,-33.69140625,-41.9921875,-41.015625,-88.8671875,0.0
332.0,-34.1796875,-33.203125,-47.8515625,-24.90234375,-14.6484375,0.0
332.00390625,-21.97265625,-29.78515625,-23.4375,-25.87890625,-16.11328125,0.0
332.0078125,-42.96875,-27.83203125,-15.625,-59.5703125,-80.078125,0.0
332.01171875,-64.94140625,-32.71484375,-38.0859375,-72.75390625,-158.203125,0.0
332.015625,-83.49609375,-40.52734375,-40.52734375,-78.61328125,-97.65625,0.0
332.01953125,-82.51953125,-38.57421875,-37.109375,-84.47265625,16.6015625,0.0
332.0234375,-54.6875,-30.2734375,-38.57421875,-74.21875,-47.8515625,0.0
332.02734375,-35.64453125,-27.34375,-43.45703125,-59.08203125,-132.8125,0.0
332.03125,-45.8984375,-34.1796875,-43.9453125,-59.5703125,-95.21484375,0.0
332.03515625,-63.96484375,-41.015625,-25.390625,-57.6171875,-107.91015625,0.0
332.0390625,-63.4765625,-39.0625,-15.13671875,-52.24609375,-35.15625,0.0
332.04296875,-49.31640625,-36.1328125,-32.71484375,-50.29296875,79.58984375,0.0
332.046875,-31.25,-38.57421875,-31.73828125,-44.921875,-79.1015625,0.0
332.05078125,-39.55078125,-43.9453125,-19.53125,-45.41015625,-148.92578125,0.0
332.0546875,-65.4296875,-47.36328125,-30.2734375,-59.5703125,-91.796875,0.0
332.05859375,-70.80078125,-41.50390625,-43.45703125,-58.59375,-39.55078125,0.0
332.0625,-52.24609375,-36.62109375,-39.55078125,-55.6640625,0.9765625,0.0
332.06640625,-25.87890625,-32.2265625,-34.66796875,-50.29296875,6.34765625,0.0
332.0703125,-30.2734375,-26.85546875,-34.66796875,-39.55078125,-78.125,0.0
332.07421875,-51.26953125,-33.69140625,-34.1796875,-38.0859375,-65.91796875,0.0
332.078125,-63.96484375,-38.57421875,-33.69140625,-40.52734375,32.71484375,0.0
332.08203125,-43.45703125,-30.76171875,-30.2734375,-45.41015625,41.50390625,0.0
332.0859375,-3.90625,-27.34375,-23.92578125,-35.64453125,14.16015625,0.0
332.08984375,-8.7890625,-31.73828125,-23.92578125,-25.87890625,-59.08203125,0.0
332.09375,-41.50390625,-33.69140625,-23.4375,-33.69140625,-50.29296875,0.0
332.09765625,-53.22265625,-37.59765625,-22.4609375,-42.96875,20.5078125,0.0
332.1015625,-39.55078125,-37.109375,-28.80859375,-38.0859375,-19.53125,0.0
332.10546875,-19.53125,-34.66796875,-29.296875,-25.87890625,-75.1953125,0.0
332.109375,-20.5078125,-29.78515625,-32.2265625,-25.87890625,-87.890625,0.0
332.11328125,-46.875,-28.3203125,-35.64453125,-31.73828125,-76.171875,0.0
332.1171875,-64.94140625,-33.69140625,-36.62109375,-42.48046875,-64.453125,0.0
332.12109375,-49.8046875,-35.64453125,-33.203125,-39.0625,-43.45703125,0.0
332.125,-15.625,-29.296875,-28.3203125,-23.4375,11.23046875,0.0
332.12890625,-8.30078125,-25.390625,-31.25,-20.01953125,21.484375,0.0
332.1328125,-32.71484375,-32.71484375,-39.0625,-31.25,-13.18359375,0.0
332.13671875,-54.6875,-39.55078125,-39.0625,-41.015625,5.859375,0.0
332.140625,-45.41015625,-36.1328125,-28.3203125,-36.1328125,-41.9921875,0.0
332.14453125,-15.13671875,-27.34375,-28.3203125,-26.85546875,-33.69140625,0.0
332.1484375,-8.30078125,-27.34375,-36.62109375,-22.4609375,37.59765625,0.0
332.15234375,-26.3671875,-27.83203125,-38.0859375,-29.78515625,-63.4765625,0.0
332.15625,-44.921875,-29.296875,-37.109375,-46.38671875,-98.14453125,0.0
332.16015625,-35.64453125,-36.1328125,-34.66796875,-41.9921875,-33.203125,0.0
332.1640625,-9.765625,-35.15625,-37.59765625,-33.69140625,31.73828125,0.0
332.16796875,-2.9296875,-30.2734375,-39.0625,-26.85546875,-26.3671875,0.0
332.171875,-25.87890625,-36.62109375,-38.57421875,-28.3203125,-74.70703125,0.0
332.17578125,-56.15234375,-41.015625,-36.1328125,-39.55078125,-13.18359375,0.0
332.1796875,-53.22265625,-33.69140625,-39.55078125,-39.0625,-5.859375,0.0
332.18359375,-30.2734375,-31.25,-26.3671875,-33.69140625,-41.50390625,0.0
332.1875,-18.5546875,-36.1328125,-18.5546875,-26.3671875,-65.4296875,0.0
332.19140625,-35.15625,-38.0859375,-35.64453125,-23.92578125,-133.7890625,0.0
332.1953125,-57.6171875,-40.52734375,-39.0625,-31.25,-134.765625,0.0
332.19921875,-58.59375,-44.43359375,-30.76171875,-41.50390625,-19.04296875,0.0
332.203125,-32.71484375,-39.55078125,-28.3203125,-40.52734375,-1.953125,0.0
332.20703125,-13.671875,-36.1328125,-35.15625,-32.2265625,2.44140625,0.0
332.2109375,-26.85546875,-40.52734375,-30.76171875,-35.64453125,38.0859375,0.0
332.21484375,-47.36328125,-41.9921875,-29.78515625,-44.921875,11.71875,0.0
332.21875,-43.9453125,-34.66796875,-39.0625,-45.41015625,20.01953125,0.0
332.22265625,-29.78515625,-30.2734375,-38.0859375,-37.59765625,39.0625,0.0
332.2265625,-15.13671875,-23.4375,-32.71484375,-30.2734375,66.40625,0.0
332.23046875,-17.578125,-28.3203125,-28.80859375,-34.1796875,62.5,0.0
332.234375,-44.921875,-34.66796875,-32.71484375,-44.43359375,-81.0546875,0.0
332.23828125,-51.26953125,-24.4140625,-40.0390625,-38.57421875,-130.37109375,0.0
332.2421875,-31.25,-22.4609375,-33.69140625,-33.203125,-35.15625,0.0
332.24609375,-10.7421875,-27.34375,-31.73828125,-40.0390625,12.6953125,0.0
332.25,-18.5546875,-29.78515625,-36.1328125,-34.66796875,-38.0859375,0.0
332.25390625,-47.36328125,-33.69140625,-37.59765625,-37.59765625,-77.63671875,0.0
332.2578125,-59.5703125,-39.55078125,-20.5078125,-49.8046875,24.4140625,0.0
332.26171875,-36.1328125,-33.69140625,-12.20703125,-42.96875,33.69140625,0.0
332.265625,-2.9296875,-23.4375,-24.4140625,-28.80859375,-64.453125,0.0
332.26953125,1.953125,-25.390625,-34.66796875,-19.04296875,-102.05078125,0.0
332.2734375,-8.30078125,-31.73828125,-23.4375,-10.25390625,-135.25390625,0.0
332.27734375,-47.36328125,-40.52734375,-16.11328125,-35.64453125,-191.40625,0.0
332.28125,-59.5703125,-43.45703125,-31.25,-56.640625,-233.88671875,0.0
332.28515625,-20.99609375,-37.59765625,-30.76171875,-31.73828125,-225.09765625,0.0
332.2890625,-10.7421875,-44.921875,-7.32421875,-21.484375,-208.49609375,0.0
332.29296875,-29.296875,-59.5703125,-4.39453125,-19.53125,-161.62109375,0.0
332.296875,-37.109375,-58.59375,-14.16015625,-12.20703125,-118.65234375,0.0
332.30078125,-21.484375,-53.22265625,-9.27734375,-6.8359375,-129.8828125,0.0
332.3046875,5.37109375,-54.6875,-10.25390625,0.48828125,-126.46484375,0.0
332.30859375,14.6484375,-49.8046875,-8.30078125,6.34765625,-147.94921875,0.0
332.3125,-10.25390625,-48.828125,-7.8125,6.34765625,-206.0546875,0.0
332.31640625,-34.66796875,-54.6875,-17.08984375,-8.30078125,-103.02734375,0.0
332.3203125,-22.4609375,-56.15234375,16.11328125,-10.25390625,107.91015625,0.0
332.32421875,-1.953125,-53.22265625,36.1328125,-6.34765625,187.5,0.0
332.328125,-0.48828125,-43.45703125,-7.8125,-5.859375,27.83203125,0.0
332.33203125,-18.5546875,-42.96875,-26.85546875,-12.20703125,-52.24609375,0.0
332.3359375,-41.015625,-46.38671875,-27.83203125,-22.4609375,17.08984375,0.0
332.33984375,-36.1328125,-41.015625,-28.3203125,-19.04296875,79.58984375,0.0
332.34375,-5.37109375,-41.50390625,-25.87890625,-10.25390625,92.28515625,0.0
332.34765625,8.30078125,-37.109375,-28.3203125,-7.8125,42.48046875,0.0
332.3515625,-17.08984375,-35.15625,-32.71484375,-13.671875,-10.7421875,0.0
332.35546875,-39.55078125,-40.52734375,-31.73828125,-24.90234375,22.94921875,0.0
332.359375,-41.9921875,-41.50390625,-28.3203125,-29.296875,66.40625,0.0
332.36328125,-20.99609375,-40.0390625,-24.90234375,-22.94921875,47.8515625,0.0
332.3671875,-0.48828125,-35.64453125,-23.4375,-10.25390625,44.43359375,0.0
332.37109375,-11.71875,-37.109375,-30.2734375,-12.6953125,54.19921875,0.0
332.375,-40.0390625,-41.50390625,-36.62109375,-23.4375,38.0859375,0.0
332.37890625,-50.78125,-45.8984375,-19.04296875,-29.296875,14.6484375,0.0
332.3828125,-34.66796875,-50.78125,-3.41796875,-29.296875,28.80859375,0.0
332.38671875,-15.13671875,-44.921875,-21.484375,-22.94921875,1.46484375,0.0
332.390625,-26.3671875,-40.0390625,-33.203125,-25.390625,-28.80859375,0.0
332.39453125,-50.29296875,-43.45703125,-31.25,-27.83203125,-99.12109375,0.0
332.3984375,-53.22265625,-46.38671875,-27.34375,-29.78515625,-68.359375,0.0
332.40234375,-29.296875,-45.8984375,-28.80859375,-31.73828125,-9.27734375,0.0
332.40625,-2.9296875,-36.1328125,-29.296875,-33.203125,-64.453125,0.0
332.41015625,-13.671875,-35.64453125,-21.97265625,-24.4140625,-33.69140625,0.0
332.4140625,-41.50390625,-45.41015625,-23.92578125,-28.3203125,-2.44140625,0.0
332.41796875,-47.8515625,-42.48046875,-25.390625,-39.55078125,-73.2421875,0.0
332.421875,-26.85546875,-39.55078125,-23.4375,-23.92578125,-67.3828125,0.0
332.42578125,-7.8125,-39.0625,-22.4609375,-23.4375,-71.77734375,0.0
332.4296875,-9.765625,-35.15625,-25.390625,-23.92578125,-110.83984375,0.0
332.43359375,-28.80859375,-39.55078125,-34.66796875,-24.4140625,-60.05859375,0.0
332.4375,-44.43359375,-46.38671875,-34.1796875,-37.59765625,-32.2265625,0.0
332.44140625,-33.203125,-38.57421875,-27.83203125,-36.1328125,23.4375,0.0
332.4453125,-8.30078125,-33.203125,-28.3203125,-26.3671875,113.76953125,0.0
332.44921875,-11.23046875,-38.0859375,-32.2265625,-23.92578125,81.0546875,0.0
332.453125,-39.0625,-36.62109375,-29.78515625,-35.64453125,59.5703125,0.0
332.45703125,-53.7109375,-30.76171875,-29.296875,-32.2265625,-35.15625,0.0
332.4609375,-41.9921875,-33.203125,-30.76171875,-27.83203125,-133.7890625,0.0
332.46484375,-16.11328125,-36.1328125,-26.85546875,-31.25,-90.33203125,0.0
332.46875,-15.13671875,-27.83203125,-32.2265625,-30.2734375,-21.484375,0.0
332.47265625,-43.9453125,-25.390625,-39.55078125,-33.203125,-44.43359375,0.0
332.4765625,-52.734375,-29.296875,-30.2734375,-37.59765625,-109.375,0.0
332.48046875,-41.9921875,-26.3671875,-24.90234375,-35.15625,-72.75390625,0.0
332.484375,-24.90234375,-20.01953125,-33.203125,-29.78515625,1.953125,0.0
332.48828125,-12.20703125,-20.01953125,-27.83203125,-20.99609375,1.46484375,0.0
332.4921875,-36.1328125,-24.4140625,-23.92578125,-24.4140625,-48.33984375,0.0
332.49609375,-59.08203125,-27.34375,-28.3203125,-35.15625,-6.34765625,0.0
332.5,-44.921875,-30.76171875,-21.484375,-26.3671875,51.26953125,0.0
332.50390625,-19.53125,-26.3671875,-20.01953125,-16.11328125,-36.1328125,0.0
332.5078125,-6.8359375,-26.85546875,-25.87890625,-13.18359375,-99.609375,0.0
332.51171875,-22.4609375,-34.66796875,-29.78515625,-18.5546875,-83.49609375,0.0
332.515625,-45.8984375,-34.1796875,21.484375,-34.1796875,-102.5390625,0.0
332.51953125,-47.36328125,-30.76171875,29.78515625,-32.2265625,25.390625,0.0
332.5234375,-20.01953125,-28.80859375,-28.80859375,-23.4375,127.9296875,0.0
332.52734375,-3.41796875,-28.3203125,-30.76171875,-20.99609375,61.03515625,0.0
332.53125,-13.671875,-31.25,-25.390625,-21.97265625,-24.4140625,0.0
332.53515625,-37.109375,-32.2265625,-36.62109375,-23.4375,18.5546875,0.0
332.5390625,-43.45703125,-32.71484375,-36.1328125,-25.390625,78.125,0.0
332.54296875,-17.08984375,-33.203125,-25.390625,-31.73828125,32.2265625,0.0
332.546875,4.39453125,-32.71484375,-24.4140625,-27.83203125,-11.71875,0.0
332.55078125,-14.16015625,-32.71484375,-33.203125,-31.25,-186.03515625,0.0
332.5546875,-45.41015625,-34.66796875,-41.015625,-41.015625,-260.25390625,0.0
332.55859375,-48.33984375,-41.50390625,-39.55078125,-43.9453125,-134.765625,0.0
332.5625,-30.2734375,-38.0859375,-25.87890625,-40.52734375,-123.53515625,0.0
332.56640625,-16.6015625,-27.83203125,-29.296875,-34.1796875,-232.421875,0.0
332.5703125,-24.90234375,-29.296875,-34.66796875,-35.64453125,-253.90625,0.0
332.57421875,-47.36328125,-30.76171875,-37.109375,-37.109375,-117.1875,0.0
332.578125,-56.15234375,-31.73828125,-38.0859375,-36.1328125,-28.3203125,0.0
332.58203125,-28.80859375,-30.76171875,-30.76171875,-27.83203125,21.97265625,0.0
332.5859375,-1.46484375,-25.87890625,-27.83203125,-17.08984375,15.13671875,0.0
332.58984375,-10.25390625,-29.78515625,-45.8984375,-21.484375,-67.87109375,0.0
332.59375,-35.15625,-27.83203125,-43.9453125,-32.71484375,-96.19140625,0.0
332.59765625,-48.33984375,-23.4375,-26.3671875,-25.87890625,-61.5234375,0.0
332.6015625,-24.4140625,-21.97265625,-24.4140625,-21.97265625,-4.8828125,0.0
332.60546875,-6.34765625,-21.484375,-72.75390625,-21.484375,5.37109375,0.0
332.609375,-16.6015625,-29.296875,-78.61328125,-19.04296875,-103.515625,0.0
332.61328125,-28.80859375,-31.25,-30.76171875,-25.87890625,-135.25390625,0.0
332.6171875,-47.8515625,-26.85546875,-27.34375,-30.76171875,-84.47265625,0.0
332.62109375,-38.0859375,-21.97265625,-26.3671875,-31.25,-35.15625,0.0
332.625,-14.6484375,-25.390625,-22.94921875,-22.4609375,3.90625,0.0
332.62890625,-11.71875,-28.80859375,-24.4140625,-27.34375,-28.3203125,0.0
332.6328125,-33.69140625,-36.62109375,-26.3671875,-29.78515625,-11.23046875,0.0
332.63671875,-52.24609375,-39.55078125,-30.76171875,-25.390625,-27.83203125,0.0
332.640625,-41.9921875,-37.109375,-32.71484375,-28.80859375,-26.85546875,0.0
332.64453125,-15.625,-37.59765625,-31.73828125,-20.01953125,22.94921875,0.0
332.6484375,-6.8359375,-32.71484375,-24.4140625,-21.484375,2.44140625,0.0
332.65234375,-27.83203125,-38.0859375,-18.5546875,-31.73828125,-51.26953125,0.0
332.65625,-43.45703125,-41.9921875,-28.3203125,-35.15625,-34.66796875,0.0
332.66015625,-24.90234375,-33.69140625,-32.71484375,-34.1796875,-17.08984375,0.0
332.6640625,15.625,-29.78515625,-28.80859375,-27.34375,-65.4296875,0.0
332.66796875,20.01953125,-31.73828125,-29.78515625,-21.97265625,-96.19140625,0.0
332.671875,-12.20703125,-31.25,-32.2265625,-26.3671875,-76.171875,0.0
332.67578125,-41.50390625,-28.3203125,-30.76171875,-32.2265625,-19.04296875,0.0
332.6796875,-45.8984375,-29.296875,-27.83203125,-34.1796875,47.36328125,0.0
332.68359375,-32.71484375,-33.69140625,-31.25,-33.69140625,77.63671875,0.0
332.6875,-21.97265625,-32.2265625,-36.1328125,-25.87890625,-36.1328125,0.0
332.69140625,-39.55078125,-34.66796875,-33.69140625,-26.85546875,-82.51953125,0.0
332.6953125,-63.4765625,-34.66796875,15.625,-29.296875,-23.92578125,0.0
332.69921875,-54.6875,-37.59765625,15.625,-31.25,-22.4609375,0.0
332.703125,-30.76171875,-43.45703125,-32.2265625,-34.66796875,-124.0234375,0.0
332.70703125,-21.484375,-38.57421875,-23.4375,-28.3203125,-197.265625,0.0
332.7109375,-33.69140625,-35.64453125,-1.953125,-27.83203125,-161.1328125,0.0
332.71484375,-57.12890625,-42.48046875,-25.390625,-33.203125,-169.43359375,0.0
332.71875,-60.05859375,-42.48046875,-45.8984375,-39.0625,-108.3984375,0.0
332.72265625,-36.1328125,-31.25,-40.52734375,-32.71484375,41.50390625,0.0
332.7265625,-17.578125,-25.390625,-38.57421875,-24.90234375,4.8828125,0.0
332.73046875,-26.3671875,-29.296875,-41.50390625,-26.85546875,-70.3125,0.0
332.734375,-52.24609375,-37.59765625,-39.55078125,-31.73828125,-82.03125,0.0
332.73828125,-62.5,-41.015625,-33.69140625,-45.41015625,-108.3984375,0.0
332.7421875,-34.1796875,-41.015625,-33.69140625,-49.31640625,-145.99609375,0.0
332.74609375,-13.18359375,-31.73828125,-33.69140625,-39.55078125,-90.8203125,0.0
332.75,-21.97265625,-28.80859375,-34.66796875,-35.15625,-137.20703125,0.0
332.75390625,-44.43359375,-38.0859375,-28.80859375,-33.69140625,-137.6953125,0.0
332.7578125,-60.05859375,-42.96875,-20.5078125,-39.0625,-7.32421875,0.0
332.76171875,-44.43359375,-37.59765625,-36.62109375,-41.015625,117.67578125,0.0
332.765625,-13.18359375,-27.34375,-40.52734375,-32.2265625,198.73046875,0.0
332.76953125,-9.27734375,-33.69140625,-31.73828125,-24.90234375,130.859375,0.0
332.7734375,-32.2265625,-40.0390625,-31.73828125,-29.78515625,-98.6328125,0.0
332.77734375,-47.36328125,-37.109375,-32.2265625,-29.78515625,-145.5078125,0.0
332.78125,-33.203125,-30.76171875,-34.1796875,-24.90234375,-91.30859375,0.0
332.78515625,-5.859375,-23.92578125,-32.2265625,-21.97265625,-25.87890625,0.0
332.7890625,4.8828125,-23.92578125,-31.25,-22.4609375,85.44921875,0.0
332.79296875,-26.85546875,-35.15625,-40.0390625,-31.25,47.8515625,0.0
332.796875,-58.10546875,-41.9921875,-38.0859375,-44.921875,19.53125,0.0
332.80078125,-49.8046875,-37.109375,-33.69140625,-43.9453125,49.31640625,0.0
332.8046875,-30.2734375,-34.66796875,-38.57421875,-32.71484375,65.91796875,0.0
332.80859375,-24.4140625,-35.64453125,-44.921875,-38.0859375,100.5859375,0.0
332.8125,-51.7578125,-38.57421875,-30.76171875,-42.96875,116.2109375,0.0
332.81640625,-69.82421875,-40.52734375,-23.4375,-43.45703125,0.0,0.0
332.8203125,-54.19921875,-35.64453125,-41.9921875,-41.9921875,-55.6640625,0.0
332.82421875,-27.34375,-30.76171875,-35.64453125,-35.15625,-68.359375,0.0
332.828125,-15.625,-29.296875,-33.69140625,-32.71484375,-54.19921875,0.0
332.83203125,-33.69140625,-34.1796875,-38.57421875,-31.73828125,-18.06640625,0.0
332.8359375,-46.38671875,-38.57421875,-37.109375,-36.62109375,6.8359375,0.0
332.83984375,-42.96875,-35.15625,-41.015625,-42.48046875,20.99609375,0.0
332.84375,-25.87890625,-32.71484375,-28.80859375,-37.109375,90.33203125,0.0
332.84765625,-9.765625,-32.2265625,-28.80859375,-30.2734375,104.4921875,0.0
332.8515625,-28.80859375,-28.3203125,-44.921875,-41.015625,-8.7890625,0.0
332.85546875,-58.10546875,-29.78515625,-35.15625,-51.26953125,-1.953125,0.0
332.859375,-61.5234375,-34.1796875,-31.73828125,-55.6640625,10.25390625,0.0
332.86328125,-37.59765625,-34.1796875,-35.64453125,-50.78125,-6.8359375,0.0
332.8671875,-23.4375,-31.25,-33.69140625,-34.1796875,54.6875,0.0
332.87109375,-34.66796875,-23.92578125,-31.73828125,-39.0625,72.75390625,0.0
332.875,-61.03515625,-27.83203125,-27.34375,-53.7109375,26.3671875,0.0
332.87890625,-60.05859375,-34.1796875,-31.73828125,-54.19921875,-62.5,0.0
332.8828125,-31.73828125,-32.71484375,-37.59765625,-47.36328125,2.9296875,0.0
332.88671875,-13.18359375,-22.94921875,-33.203125,-40.52734375,57.6171875,0.0
332.890625,-21.97265625,-20.5078125,-27.83203125,-36.1328125,0.48828125,0.0
332.89453125,-49.8046875,-26.85546875,-34.66796875,-40.0390625,-10.7421875,0.0
332.8984375,-52.24609375,-23.92578125,-35.64453125,-46.38671875,-138.18359375,0.0
332.90234375,-29.78515625,-27.34375,-45.41015625,-35.64453125,-93.75,0.0
332.90625,-5.37109375,-27.34375,-33.69140625,-26.3671875,33.69140625,0.0
332.91015625,-5.859375,-26.85546875,-18.06640625,-28.3203125,-48.33984375,0.0
332.9140625,-39.0625,-26.3671875,-34.1796875,-32.2265625,-40.52734375,0.0
332.91796875,-47.8515625,-19.53125,-33.69140625,-38.0859375,-16.11328125,0.0
332.921875,-19.53125,-18.5546875,-30.76171875,-28.80859375,-44.43359375,0.0
332.92578125,-4.39453125,-20.01953125,-23.92578125,-17.578125,-47.36328125,0.0
332.9296875,-15.625,-24.4140625,-23.4375,-19.04296875,-73.2421875,0.0
332.93359375,-37.59765625,-27.83203125,-15.625,-28.3203125,-89.35546875,0.0
332.9375,-54.6875,-29.78515625,-4.39453125,-35.15625,-128.90625,0.0
332.94140625,-41.50390625,-29.296875,-16.11328125,-28.80859375,-142.08984375,0.0
332.9453125,-19.04296875,-25.390625,-20.5078125,-13.671875,-69.3359375,0.0
332.94921875,-16.11328125,-25.87890625,-21.97265625,-14.16015625,-119.62890625,0.0
332.953125,-38.57421875,-31.25,-29.78515625,-23.4375,-120.1171875,0.0
332.95703125,-54.19921875,-35.15625,-33.203125,-25.87890625,-26.85546875,0.0
332.9609375,-38.0859375,-35.64453125,-36.1328125,-29.78515625,-17.578125,0.0
332.96484375,-6.8359375,-32.2265625,-34.66796875,-29.296875,65.4296875,0.0
332.96875,-1.46484375,-30.2734375,-37.109375,-18.06640625,24.90234375,0.0
332.97265625,-32.2265625,-37.109375,-38.0859375,-27.34375,-130.859375,0.0
332.9765625,-55.17578125,-34.66796875,-40.52734375,-41.015625,11.23046875,0.0
332.98046875,-47.36328125,-28.3203125,-41.50390625,-39.0625,164.55078125,0.0
332.984375,-24.4140625,-26.85546875,-27.83203125,-33.203125,103.02734375,0.0
332.98828125,-14.6484375,-24.4140625,-30.76171875,-27.83203125,1.46484375,0.0
332.9921875,-30.2734375,-28.80859375,-35.15625,-31.73828125,-45.41015625,0.0
332.99609375,-55.17578125,-38.57421875,-28.80859375,-41.50390625,-69.82421875,0.0
333.0,-51.7578125,-40.0390625,-30.2734375,-46.38671875,-25.390625,0.0
333.00390625,-21.484375,-29.78515625,-30.2734375,-38.0859375,35.15625,0.0
333.0078125,-17.08984375,-24.90234375,-32.2265625,-34.1796875,-5.859375,0.0
333.01171875,-32.2265625,-31.25,-36.62109375,-36.1328125,-58.59375,0.0
333.015625,-44.43359375,-34.1796875,-31.73828125,-41.9921875,47.8515625,0.0
333.01953125,-42.96875,-31.73828125,-30.2734375,-45.41015625,54.19921875,0.0
333.0234375,-20.5078125,-29.296875,-26.85546875,-22.4609375,-52.24609375,0.0
333.02734375,-9.765625,-29.296875,-28.3203125,-10.7421875,-66.89453125,0.0
333.03125,-20.01953125,-35.15625,-34.66796875,-20.99609375,-16.6015625,0.0
333.03515625,-47.8515625,-40.0390625,-33.69140625,-37.109375,34.66796875,0.0
333.0390625,-53.22265625,-34.66796875,-33.69140625,-47.36328125,70.80078125,0.0
333.04296875,-36.62109375,-35.15625,-46.875,-41.9921875,72.265625,0.0
333.046875,-20.01953125,-36.62109375,-44.43359375,-32.71484375,21.484375,0.0
333.05078125,-27.34375,-36.62109375,-29.78515625,-30.76171875,-1.953125,0.0
333.0546875,-54.19921875,-38.57421875,-25.390625,-42.48046875,-88.37890625,0.0
333.05859375,-56.640625,-35.15625,-30.76171875,-44.43359375,-139.6484375,0.0
333.0625,-36.62109375,-32.2265625,-29.296875,-37.109375,-102.05078125,0.0
333.06640625,-16.6015625,-28.80859375,-21.484375,-28.80859375,-82.51953125,0.0
333.0703125,-22.4609375,-33.69140625,-43.9453125,-32.2265625,-150.87890625,0.0
333.07421875,-53.22265625,-41.50390625,-53.22265625,-43.45703125,-160.15625,0.0
333.078125,-57.6171875,-44.43359375,-30.2734375,-37.59765625,-152.34375,0.0
333.08203125,-39.55078125,-38.0859375,-33.69140625,-34.1796875,-89.84375,0.0
333.0859375,-26.85546875,-29.78515625,-44.921875,-30.2734375,26.85546875,0.0
333.08984375,-29.78515625,-32.71484375,-41.015625,-24.90234375,-63.96484375,0.0
333.09375,-56.640625,-35.64453125,-40.52734375,-42.96875,-99.609375,0.0
333.09765625,-67.87109375,-35.64453125,-45.8984375,-50.29296875,-14.16015625,0.0
333.1015625,-45.41015625,-35.15625,-44.43359375,-34.66796875,-4.8828125,0.0
333.10546875,-19.53125,-31.73828125,-35.15625,-31.25,-85.44921875,0.0
333.109375,-20.01953125,-32.2265625,-32.2265625,-29.296875,-117.67578125,0.0
333.11328125,-41.9921875,-33.203125,-26.85546875,-36.1328125,-84.47265625,0.0
333.1171875,-50.29296875,-33.69140625,-27.34375,-43.9453125,-116.2109375,0.0
333.12109375,-30.76171875,-36.1328125,-34.1796875,-30.2734375,-127.44140625,0.0
333.125,-10.7421875,-35.64453125,-24.90234375,-17.578125,-115.72265625,0.0
333.12890625,-12.20703125,-35.15625,-47.8515625,-19.04296875,-132.32421875,0.0
333.1328125,-32.71484375,-36.62109375,-70.3125,-31.73828125,-66.89453125,0.0
333.13671875,-50.78125,-36.62109375,-40.52734375,-35.15625,41.015625,0.0
333.140625,-42.96875,-34.1796875,-32.71484375,-31.25,53.7109375,0.0
333.14453125,-18.06640625,-27.83203125,-37.109375,-31.25,4.39453125,0.0
333.1484375,-10.25390625,-24.90234375,-28.3203125,-31.25,-107.421875,0.0
333.15234375,-32.2265625,-33.203125,-20.99609375,-34.1796875,-224.609375,0.0
333.15625,-51.7578125,-35.64453125,-25.87890625,-35.64453125,-189.453125,0.0
333.16015625,-46.875,-30.76171875,-55.6640625,-35.15625,-104.00390625,0.0
333.1640625,-22.94921875,-33.203125,-48.828125,-26.85546875,-75.1953125,0.0
333.16796875,-7.32421875,-32.2265625,-20.01953125,-23.92578125,-95.703125,0.0
333.171875,-27.34375,-24.90234375,-29.296875,-37.109375,-143.5546875,0.0
333.17578125,-53.7109375,-30.76171875,-61.5234375,-43.45703125,-131.34765625,0.0
333.1796875,-52.734375,-37.59765625,-46.38671875,-43.9453125,-97.16796875,0.0
333.18359375,-26.3671875,-28.3203125,-16.11328125,-37.59765625,-81.54296875,0.0
333.1875,-15.625,-26.85546875,-21.97265625,-29.296875,-115.234375,0.0
333.19140625,-29.296875,-26.3671875,-24.4140625,-22.94921875,-149.90234375,0.0
333.1953125,-57.12890625,-30.76171875,-24.4140625,-32.2265625,-125.48828125,0.0
333.19921875,-62.98828125,-38.0859375,-29.78515625,-42.96875,-132.32421875,0.0
333.203125,-27.83203125,-31.25,-12.20703125,-29.78515625,-169.43359375,0.0
333.20703125,-4.8828125,-25.87890625,-5.859375,-20.5078125,-83.49609375,0.0
333.2109375,-25.390625,-29.78515625,-17.578125,-31.25,49.8046875,0.0
333.21484375,-51.7578125,-36.1328125,-23.4375,-39.0625,26.85546875,0.0
333.21875,-55.6640625,-35.15625,-9.765625,-41.015625,96.19140625,0.0
333.22265625,-35.64453125,-36.62109375,6.8359375,-40.0390625,192.87109375,0.0
333.2265625,-5.859375,-34.66796875,-17.08984375,-39.55078125,97.16796875,0.0
333.23046875,-19.53125,-29.78515625,-26.85546875,-32.2265625,64.453125,0.0
333.234375,-62.5,-36.62109375,-28.3203125,-39.55078125,-2.9296875,0.0
333.23828125,-71.2890625,-39.0625,-30.76171875,-46.875,17.578125,0.0
333.2421875,-44.921875,-32.71484375,-31.25,-41.015625,139.16015625,0.0
333.24609375,-22.94921875,-28.3203125,-31.25,-41.50390625,92.28515625,0.0
333.25,-27.34375,-32.2265625,-33.203125,-44.43359375,-21.97265625,0.0
333.25390625,-52.734375,-38.0859375,-41.015625,-49.8046875,-26.3671875,0.0
333.2578125,-65.91796875,-39.0625,-44.921875,-46.38671875,11.23046875,0.0
333.26171875,-43.9453125,-33.203125,-42.96875,-42.48046875,-18.5546875,0.0
333.265625,-21.97265625,-36.62109375,-60.05859375,-36.1328125,40.52734375,0.0
333.26953125,-23.4375,-43.45703125,-64.94140625,-35.15625,1.46484375,0.0
333.2734375,-44.43359375,-41.015625,-40.0390625,-34.66796875,-40.52734375,0.0
333.27734375,-63.4765625,-40.52734375,-34.66796875,-39.55078125,16.11328125,0.0
333.28125,-44.43359375,-36.62109375,-37.59765625,-42.48046875,28.3203125,0.0
333.28515625,-18.06640625,-31.73828125,-36.1328125,-36.62109375,-24.90234375,0.0
333.2890625,-18.5546875,-26.85546875,-38.0859375,-37.109375,-61.03515625,0.0
333.29296875,-38.57421875,-30.2734375,-36.62109375,-40.0390625,-98.6328125,0.0
333.296875,-60.546875,-35.15625,-36.1328125,-43.45703125,-93.75,0.0
333.30078125,-51.26953125,-38.0859375,-36.62109375,-43.45703125,-10.7421875,0.0
333.3046875,-21.97265625,-40.0390625,-28.80859375,-37.59765625,47.36328125,0.0
333.30859375,-17.578125,-35.15625,-31.73828125,-32.71484375,36.62109375,0.0
333.3125,-37.59765625,-39.55078125,-37.109375,-41.015625,76.66015625,0.0
333.31640625,-52.24609375,-41.50390625,-32.71484375,-45.8984375,76.66015625,0.0
333.3203125,-35.64453125,-36.1328125,-29.78515625,-41.9921875,27.34375,0.0
333.32421875,-16.6015625,-34.66796875,-28.3203125,-34.1796875,19.53125,0.0
333.328125,-12.6953125,-30.2734375,-28.3203125,-25.390625,0.0,0.0
333.33203125,-21.97265625,-25.87890625,-25.87890625,-25.390625,-59.5703125,0.0
333.3359375,-43.9453125,-30.76171875,-26.85546875,-32.71484375,-92.28515625,0.0
333.33984375,-39.55078125,-34.66796875,-29.296875,-29.78515625,-15.13671875,0.0
333.34375,-18.5546875,-35.15625,-27.83203125,-16.6015625,54.19921875,0.0
333.34765625,-10.25390625,-33.203125,-23.92578125,-3.41796875,-0.48828125,0.0
333.3515625,-25.390625,-30.2734375,-22.4609375,-15.13671875,-177.24609375,0.0
333.35546875,-52.734375,-36.62109375,-24.90234375,-41.015625,-191.40625,0.0
333.359375,-53.7109375,-36.62109375,-29.78515625,-39.0625,-101.07421875,0.0
333.36328125,-23.4375,-23.92578125,-28.3203125,-30.76171875,-148.92578125,0.0
333.3671875,0.0,-25.87890625,-28.3203125,-23.92578125,-210.44921875,0.0
333.37109375,-17.08984375,-36.62109375,-54.6875,-16.11328125,-201.171875,0.0
333.375,-37.59765625,-32.71484375,-53.22265625,-32.2265625,-176.26953125,0.0
333.37890625,-35.15625,-26.85546875,-29.296875,-35.15625,-148.92578125,0.0
333.3828125,-21.97265625,-25.87890625,-31.25,-21.484375,-100.5859375,0.0
333.38671875,-5.37109375,-25.390625,-28.3203125,-16.6015625,-50.78125,0.0
333.390625,-16.11328125,-26.3671875,-23.92578125,-17.578125,17.08984375,0.0
333.39453125,-40.52734375,-27.34375,-25.87890625,-29.296875,15.13671875,0.0
333.3984375,-55.6640625,-28.3203125,-20.99609375,-35.64453125,8.7890625,0.0
333.40234375,-30.2734375,-26.85546875,-18.06640625,-22.4609375,-7.8125,0.0
333.40625,0.9765625,-22.4609375,-20.99609375,-13.671875,-48.828125,0.0
333.41015625,-11.71875,-20.99609375,-28.3203125,-29.296875,21.484375,0.0
333.4140625,-36.1328125,-25.390625,-17.578125,-38.0859375,70.3125,0.0
333.41796875,-38.0859375,-26.3671875,-9.765625,-35.64453125,14.6484375,0.0
333.421875,-32.2265625,-24.4140625,-26.85546875,-30.2734375,6.8359375,0.0
333.42578125,-21.97265625,-30.2734375,-29.78515625,-24.90234375,-11.23046875,0.0
333.4296875,-24.90234375,-36.1328125,-23.4375,-32.2265625,-74.21875,0.0
333.43359375,-48.828125,-36.62109375,-28.80859375,-42.48046875,9.27734375,0.0
333.4375,-61.5234375,-33.69140625,-36.1328125,-43.9453125,31.73828125,0.0
333.44140625,-44.43359375,-34.66796875,-34.1796875,-37.59765625,34.66796875,0.0
333.4453125,-14.16015625,-34.1796875,-11.71875,-24.4140625,67.3828125,0.0
333.44921875,-17.578125,-30.76171875,-10.25390625,-28.80859375,65.91796875,0.0
333.453125,-44.43359375,-33.203125,-31.25,-35.64453125,0.0,0.0
333.45703125,-52.24609375,-35.15625,-32.71484375,-36.1328125,-16.6015625,0.0
333.4609375,-42.96875,-35.15625,-40.52734375,-39.0625,87.40234375,0.0
333.46484375,-17.08984375,-31.25,-35.64453125,-34.66796875,30.2734375,0.0
333.46875,-6.8359375,-29.296875,-32.71484375,-25.390625,-9.765625,0.0
333.47265625,-39.55078125,-34.1796875,-40.52734375,-34.1796875,-77.1484375,0.0
333.4765625,-56.640625,-36.62109375,-42.96875,-42.96875,-135.25390625,0.0
333.48046875,-41.50390625,-34.66796875,-43.45703125,-41.9921875,0.48828125,0.0
333.484375,-19.04296875,-34.1796875,-36.1328125,-38.57421875,100.5859375,0.0
333.48828125,-14.16015625,-33.69140625,-58.10546875,-29.296875,73.2421875,0.0
333.4921875,-40.0390625,-39.0625,-70.80078125,-31.25,23.92578125,0.0
333.49609375,-62.01171875,-45.8984375,-42.48046875,-39.55078125,1.46484375,0.0
333.5,-51.26953125,-44.43359375,-27.34375,-42.48046875,7.8125,0.0
333.50390625,-24.90234375,-37.59765625,-42.96875,-33.69140625,20.5078125,0.0
333.5078125,-7.32421875,-33.69140625,-54.19921875,-23.4375,-15.625,0.0
333.51171875,-26.3671875,-36.1328125,-33.69140625,-25.390625,-28.3203125,0.0
333.515625,-55.17578125,-38.57421875,-27.83203125,-34.66796875,13.18359375,0.0
333.51953125,-49.8046875,-37.109375,-25.87890625,-43.45703125,49.31640625,0.0
333.5234375,-19.04296875,-31.73828125,-27.83203125,-43.45703125,-16.6015625,0.0
333.52734375,0.9765625,-32.71484375,-30.2734375,-42.96875,-108.88671875,0.0
333.53125,-10.25390625,-32.2265625,-32.2265625,-41.9921875,-88.8671875,0.0
333.53515625,-29.78515625,-30.2734375,-35.64453125,-41.50390625,-83.0078125,0.0
333.5390625,-29.296875,-27.34375,-37.109375,-52.734375,-55.6640625,0.0
333.54296875,-3.41796875,-21.97265625,-30.76171875,-43.9453125,-16.6015625,0.0
333.546875,10.7421875,-22.94921875,-24.4140625,-17.578125,-28.3203125,0.0
333.55078125,-15.13671875,-32.2265625,-13.671875,-13.671875,-60.546875,0.0
333.5546875,-46.38671875,-39.55078125,-6.8359375,-19.53125,-95.703125,0.0
333.55859375,-61.5234375,-35.64453125,-23.92578125,-30.2734375,-63.96484375,0.0
333.5625,-51.26953125,-33.203125,-32.2265625,-30.2734375,-44.921875,0.0
333.56640625,-25.87890625,-34.66796875,-29.296875,-19.04296875,-90.33203125,0.0
333.5703125,-36.1328125,-34.1796875,-31.25,-25.87890625,-90.33203125,0.0
333.57421875,-62.01171875,-38.0859375,-33.69140625,-32.2265625,-47.36328125,0.0
333.578125,-62.98828125,-40.52734375,-31.25,-33.69140625,28.3203125,0.0
333.58203125,-39.0625,-32.2265625,-28.3203125,-31.73828125,68.359375,0.0
333.5859375,-21.484375,-29.296875,-25.87890625,-17.578125,43.45703125,0.0
333.58984375,-20.01953125,-32.71484375,-37.109375,-23.92578125,-50.29296875,0.0
333.59375,-40.52734375,-35.64453125,-0.48828125,-31.73828125,-124.0234375,0.0
333.59765625,-66.40625,-38.57421875,40.0390625,-29.296875,-154.296875,0.0
333.6015625,-41.9921875,-38.57421875,-13.18359375,-29.296875,-101.5625,0.0
333.60546875,-16.11328125,-35.64453125,-38.0859375,-25.87890625,-53.22265625,0.0
333.609375,-23.4375,-31.73828125,-29.296875,-26.85546875,-48.828125,0.0
333.61328125,-45.41015625,-37.109375,-29.78515625,-30.76171875,-48.33984375,0.0
333.6171875,-56.15234375,-42.48046875,-32.71484375,-31.73828125,-81.54296875,0.0
333.62109375,-38.57421875,-37.59765625,-29.296875,-33.203125,-64.453125,0.0
333.625,-12.20703125,-24.90234375,-23.92578125,-30.2734375,27.34375,0.0
333.62890625,-8.7890625,-21.484375,-25.390625,-21.484375,10.25390625,0.0
333.6328125,-31.25,-30.2734375,-28.80859375,-25.87890625,-73.73046875,0.0
333.63671875,-49.8046875,-33.203125,-37.109375,-37.109375,-70.80078125,0.0
333.640625,-38.57421875,-31.73828125,-26.85546875,-37.109375,-28.3203125,0.0
333.64453125,-5.37109375,-24.4140625,-15.13671875,-23.92578125,-38.57421875,0.0
333.6484375,0.48828125,-20.01953125,-28.80859375,-13.18359375,-49.31640625,0.0
333.65234375,-27.83203125,-26.85546875,-32.2265625,-20.01953125,-108.3984375,0.0
333.65625,-42.96875,-22.4609375,-31.73828125,-25.390625,-84.9609375,0.0
333.66015625,-35.64453125,-21.97265625,-34.1796875,-25.87890625,-2.44140625,0.0
333.6640625,-20.5078125,-30.76171875,-30.76171875,-30.76171875,-32.71484375,0.0
333.66796875,-7.32421875,-28.80859375,-28.80859375,-29.78515625,-42.48046875,0.0
333.671875,-29.78515625,-33.69140625,-33.203125,-28.3203125,42.48046875,0.0
333.67578125,-63.96484375,-37.109375,-31.73828125,-40.0390625,70.80078125,0.0
333.6796875,-62.01171875,-32.2265625,-23.4375,-39.55078125,-41.50390625,0.0
333.68359375,-43.9453125,-34.1796875,-37.109375,-44.43359375,-41.015625,0.0
333.6875,-40.52734375,-29.296875,-53.22265625,-48.828125,-59.5703125,0.0
333.69140625,-56.640625,-16.6015625,-32.71484375,-47.8515625,-91.796875,0.0
333.6953125,-88.37890625,-12.6953125,-19.53125,-59.5703125,-43.45703125,0.0
333.69921875,-83.49609375,-13.671875,-13.18359375,-62.01171875,41.50390625,0.0
333.703125,-51.26953125,-13.18359375,-6.34765625,-55.17578125,42.96875,0.0
333.70703125,-50.78125,-11.23046875,-17.08984375,-64.453125,-23.92578125,0.0
333.7109375,-71.77734375,-1.953125,-20.01953125,-78.61328125,-81.0546875,0.0
333.71484375,-109.86328125,0.48828125,-20.01953125,-104.00390625,-88.37890625,0.0
333.71875,-142.08984375,-8.7890625,-24.4140625,-125.48828125,-32.2265625,0.0
333.72265625,-131.8359375,-7.32421875,-24.90234375,-125.0,-76.171875,0.0
333.7265625,-107.91015625,-1.46484375,-22.4609375,-111.328125,-39.0625,0.0
333.73046875,-120.60546875,1.953125,20.99609375,-113.76953125,-96.6796875,0.0
333.734375,-157.2265625,-5.859375,19.04296875,-138.671875,-154.78515625,0.0
333.73828125,-166.50390625,-7.32421875,-22.94921875,-155.76171875,-61.03515625,0.0
333.7421875,-143.5546875,6.8359375,-24.4140625,-145.5078125,-51.7578125,0.0
333.74609375,-126.46484375,5.859375,-24.4140625,-127.9296875,-71.77734375,0.0
333.75,-130.859375,-1.953125,-22.94921875,-133.7890625,-95.21484375,0.0
333.75390625,-145.99609375,1.46484375,-20.99609375,-144.53125,-75.1953125,0.0
333.7578125,-155.76171875,-1.46484375,-25.87890625,-146.484375,-109.86328125,0.0
333.76171875,-125.0,-3.41796875,-26.85546875,-128.41796875,-135.7421875,0.0
333.765625,-84.47265625,3.90625,-19.53125,-104.4921875,-124.0234375,0.0
333.76953125,-86.42578125,2.44140625,-15.13671875,-98.14453125,-223.14453125,0.0
333.7734375,-98.6328125,-3.90625,-13.671875,-94.7265625,-184.5703125,0.0
333.77734375,-99.609375,-11.23046875,-25.390625,-87.40234375,-100.5859375,0.0
333.78125,-75.1953125,-19.04296875,-33.203125,-72.265625,-102.05078125,0.0
333.78515625,-24.90234375,-23.92578125,-23.4375,-42.48046875,-127.9296875,0.0
333.7890625,-12.20703125,-24.90234375,-28.3203125,-34.1796875,-113.76953125,0.0
333.79296875,-41.50390625,-29.296875,-27.34375,-38.57421875,-91.796875,0.0
333.796875,-45.8984375,-33.69140625,-24.90234375,-28.3203125,-123.046875,0.0
333.80078125,-15.625,-30.2734375,-26.3671875,-14.6484375,3.41796875,0.0
333.8046875,17.578125,-30.2734375,-27.83203125,6.8359375,164.55078125,0.0
333.80859375,30.2734375,-32.2265625,-26.85546875,14.16015625,69.82421875,0.0
333.8125,10.25390625,-36.1328125,-27.34375,3.41796875,-67.3828125,0.0
333.81640625,-10.25390625,-53.7109375,-33.69140625,-0.48828125,-47.36328125,0.0
333.8203125,0.0,-62.5,-14.16015625,2.9296875,21.97265625,0.0
333.82421875,20.5078125,-41.9921875,-20.01953125,8.30078125,92.28515625,0.0
333.828125,29.78515625,-35.15625,-38.0859375,23.4375,76.171875,0.0
333.83203125,20.99609375,-36.62109375,-31.73828125,13.18359375,18.5546875,0.0
333.8359375,-12.6953125,-39.55078125,-39.0625,-4.39453125,92.7734375,0.0
333.83984375,-15.13671875,-48.33984375,-34.66796875,7.8125,29.78515625,0.0
333.84375,19.04296875,-44.921875,-24.90234375,24.4140625,-31.73828125,0.0
333.84765625,22.94921875,-43.45703125,-31.25,23.4375,-8.7890625,0.0
333.8515625,5.37109375,-44.921875,-35.15625,13.671875,-50.29296875,0.0
333.85546875,-16.11328125,-43.9453125,-35.15625,3.41796875,-24.4140625,0.0
333.859375,-14.16015625,-48.828125,-36.1328125,-0.9765625,22.94921875,0.0
333.86328125,11.23046875,-47.36328125,-27.83203125,8.30078125,19.53125,0.0
333.8671875,26.85546875,-41.9921875,-27.34375,15.13671875,-72.75390625,0.0
333.87109375,15.13671875,-44.43359375,-32.71484375,9.27734375,-174.8046875,0.0
333.875,-15.13671875,-50.29296875,-33.203125,1.46484375,-70.80078125,0.0
333.87890625,-26.3671875,-50.29296875,-25.87890625,-5.859375,56.15234375,0.0
333.8828125,-5.859375,-48.33984375,-23.4375,-0.48828125,41.50390625,0.0
333.88671875,14.16015625,-39.55078125,-31.73828125,6.8359375,-0.9765625,0.0
333.890625,-1.953125,-39.0625,-33.69140625,3.41796875,-29.78515625,0.0
333.89453125,-35.15625,-49.31640625,-38.0859375,0.0,-40.52734375,0.0
333.8984375,-33.69140625,-49.8046875,-42.48046875,-6.8359375,48.33984375,0.0
333.90234375,-9.27734375,-49.8046875,-42.48046875,-5.37109375,72.75390625,0.0
333.90625,6.34765625,-51.26953125,-37.59765625,4.8828125,-2.44140625,0.0
333.91015625,0.48828125,-47.36328125,-35.15625,5.37109375,-28.80859375,0.0
333.9140625,-23.92578125,-43.9453125,-41.50390625,-10.25390625,-23.4375,0.0
333.91796875,-25.87890625,-51.7578125,-42.96875,-20.99609375,-13.18359375,0.0
333.921875,-14.6484375,-59.5703125,-38.0859375,-18.06640625,52.734375,0.0
333.92578125,3.90625,-43.45703125,-70.80078125,-7.8125,10.7421875,0.0
333.9296875,6.8359375,-29.296875,-85.44921875,-4.8828125,-35.64453125,0.0
333.93359375,-20.99609375,-32.71484375,-49.8046875,-15.625,-23.4375,0.0
333.9375,-35.64453125,-38.0859375,-34.1796875,-25.390625,-10.7421875,0.0
333.94140625,-24.4140625,-43.45703125,-32.2265625,-25.87890625,30.2734375,0.0
333.9453125,-5.37109375,-42.96875,-34.1796875,-13.671875,-10.25390625,0.0
333.94921875,-0.48828125,-39.55078125,-26.85546875,-8.7890625,-17.08984375,0.0
333.953125,-25.87890625,-40.0390625,-20.01953125,-20.01953125,51.7578125,0.0
333.95703125,-40.52734375,-36.1328125,-23.4375,-23.4375,40.0390625,0.0
333.9609375,-22.94921875,-29.296875,-23.4375,-20.99609375,74.21875,0.0
333.96484375,-5.37109375,-29.78515625,-30.76171875,-17.578125,164.55078125,0.0
333.96875,-1.46484375,-31.25,-15.13671875,-8.30078125,113.28125,0.0
333.97265625,-20.01953125,-31.73828125,-0.48828125,-12.20703125,-17.578125,0.0
333.9765625,-38.57421875,-33.203125,-20.99609375,-24.4140625,-79.1015625,0.0
333.98046875,-30.2734375,-36.1328125,-26.3671875,-22.94921875,-71.2890625,0.0
333.984375,-5.859375,-32.2265625,-44.43359375,-15.13671875,-37.109375,0.0
333.98828125,4.39453125,-27.83203125,-44.921875,-11.71875,5.859375,0.0
333.9921875,-20.01953125,-36.62109375,-30.76171875,-23.92578125,11.71875,0.0
333.99609375,-49.8046875,-39.55078125,-35.15625,-25.390625,1.46484375,0.0
334.0,-45.41015625,-33.203125,-36.1328125,-28.3203125,-46.38671875,0.0
334.00390625,-19.04296875,-32.2265625,-36.1328125,-30.76171875,-33.203125,0.0
334.0078125,-8.30078125,-37.109375,-38.57421875,-19.53125,31.25,0.0
334.01171875,-26.3671875,-36.1328125,-38.0859375,-26.3671875,-7.8125,0.0
334.015625,-43.45703125,-34.1796875,-25.87890625,-34.66796875,-56.640625,0.0
334.01953125,-41.9921875,-36.1328125,-22.4609375,-31.25,-9.27734375,0.0
334.0234375,-14.6484375,-32.71484375,-35.64453125,-23.4375,79.58984375,0.0
334.02734375,5.859375,-29.296875,-39.0625,-16.11328125,80.56640625,0.0
334.03125,-14.16015625,-33.203125,-40.0390625,-20.01953125,-25.87890625,0.0
334.03515625,-38.57421875,-35.64453125,-39.55078125,-26.85546875,-56.15234375,0.0
334.0390625,-32.2265625,-33.203125,-33.203125,-23.4375,-73.2421875,0.0
334.04296875,-20.01953125,-32.71484375,-36.62109375,-15.13671875,-47.36328125,0.0
334.046875,-5.859375,-30.2734375,-34.1796875,-13.18359375,-80.56640625,0.0
334.05078125,-13.18359375,-23.4375,-28.3203125,-17.578125,-104.98046875,0.0
334.0546875,-37.109375,-20.99609375,-21.484375,-25.390625,-76.66015625,0.0
334.05859375,-38.0859375,-23.4375,-63.4765625,-26.85546875,-67.87109375,0.0
334.0625,-14.6484375,-27.34375,-92.28515625,-22.94921875,-66.40625,0.0
334.06640625,1.46484375,-28.3203125,-39.55078125,-24.90234375,-157.2265625,0.0
334.0703125,-12.6953125,-32.71484375,-30.76171875,-21.97265625,-172.36328125,0.0
334.07421875,-38.57421875,-36.1328125,-37.109375,-29.296875,-33.69140625,0.0
334.078125,-43.9453125,-27.34375,-34.66796875,-51.26953125,11.71875,0.0
334.08203125,-28.3203125,-28.80859375,-29.296875,-46.875,22.94921875,0.0
334.0859375,-10.7421875,-33.203125,-27.34375,-32.2265625,65.4296875,0.0
334.08984375,-12.6953125,-23.92578125,-30.76171875,-37.59765625,-72.265625,0.0
334.09375,-39.55078125,-23.92578125,-35.15625,-42.48046875,-171.38671875,0.0
334.09765625,-55.6640625,-34.1796875,-34.1796875,-40.0390625,-138.18359375,0.0
334.1015625,-38.57421875,-30.2734375,-27.83203125,-31.25,-69.3359375,0.0
334.10546875,-11.71875,-24.90234375,-21.97265625,-18.5546875,-65.4296875,0.0
334.109375,-6.8359375,-27.34375,-21.97265625,-15.625,-148.4375,0.0
334.11328125,-29.78515625,-26.3671875,-24.90234375,-25.87890625,-240.72265625,0.0
334.1171875,-51.7578125,-27.83203125,-30.76171875,-36.1328125,-162.59765625,0.0
334.12109375,-46.38671875,-32.2265625,-34.66796875,-37.59765625,-20.01953125,0.0
334.125,-19.53125,-29.78515625,-31.73828125,-27.34375,-34.1796875,0.0
334.12890625,-10.25390625,-20.01953125,-29.296875,-24.90234375,3.41796875,0.0
334.1328125,-41.015625,-28.3203125,-36.62109375,-36.62109375,-31.25,0.0
334.13671875,-57.6171875,-41.015625,-36.1328125,-37.59765625,-91.796875,0.0
334.140625,-31.25,-41.9921875,-25.87890625,-30.2734375,-50.78125,0.0
334.14453125,-10.25390625,-35.15625,-26.85546875,-21.484375,-134.765625,0.0
334.1484375,-13.18359375,-31.73828125,-23.4375,-27.34375,-250.9765625,0.0
334.15234375,-27.83203125,-36.62109375,-11.23046875,-38.57421875,-258.7890625,0.0
334.15625,-48.828125,-35.15625,-27.83203125,-41.50390625,-201.66015625,0.0
334.16015625,-44.921875,-30.2734375,-37.109375,-36.62109375,-108.88671875,0.0
334.1640625,-17.08984375,-34.66796875,-37.109375,-27.34375,-40.52734375,0.0
334.16796875,-10.7421875,-37.109375,-37.109375,-27.83203125,-145.99609375,0.0
334.171875,-31.73828125,-44.921875,-36.62109375,-38.0859375,-115.234375,0.0
334.17578125,-52.24609375,-46.38671875,-38.57421875,-48.33984375,8.7890625,0.0
334.1796875,-48.828125,-34.66796875,-36.1328125,-41.015625,55.6640625,0.0
334.18359375,-21.97265625,-39.0625,-36.1328125,-29.78515625,40.52734375,0.0
334.1875,-20.01953125,-36.62109375,-37.109375,-27.34375,58.59375,0.0
334.19140625,-45.41015625,-33.69140625,-28.80859375,-29.78515625,37.59765625,0.0
334.1953125,-67.87109375,-42.96875,-25.390625,-40.0390625,21.97265625,0.0
334.19921875,-68.84765625,-46.38671875,-44.43359375,-44.43359375,48.828125,0.0
334.203125,-42.48046875,-43.45703125,-40.0390625,-39.55078125,39.0625,0.0
334.20703125,-20.01953125,-32.71484375,-29.78515625,-29.296875,15.13671875,0.0
334.2109375,-26.85546875,-27.83203125,-35.64453125,-34.1796875,-55.17578125,0.0
334.21484375,-53.22265625,-33.69140625,-36.62109375,-42.48046875,-101.07421875,0.0
334.21875,-56.15234375,-37.59765625,-35.64453125,-39.55078125,-101.07421875,0.0
334.22265625,-31.73828125,-31.73828125,-31.73828125,-30.2734375,2.9296875,0.0
334.2265625,-10.25390625,-28.3203125,-27.83203125,-22.4609375,80.078125,0.0
334.23046875,-15.13671875,-34.1796875,-32.71484375,-19.53125,-9.765625,0.0
334.234375,-36.62109375,-39.0625,-41.9921875,-24.90234375,-40.52734375,0.0
334.23828125,-47.36328125,-36.1328125,-36.62109375,-35.15625,-2.44140625,0.0
334.2421875,-32.2265625,-33.69140625,-30.76171875,-31.73828125,-4.39453125,0.0
334.24609375,-12.6953125,-41.50390625,-28.80859375,-24.4140625,2.9296875,0.0
334.25,-19.53125,-44.43359375,-38.0859375,-29.78515625,10.25390625,0.0
334.25390625,-41.50390625,-39.55078125,-8.7890625,-25.390625,9.27734375,0.0
334.2578125,-59.08203125,-38.0859375,33.203125,-22.94921875,-54.6875,0.0
334.26171875,-43.45703125,-40.0390625,-11.23046875,-30.76171875,-51.7578125,0.0
334.265625,-15.13671875,-34.66796875,-38.0859375,-20.5078125,1.46484375,0.0
334.26953125,-15.13671875,-31.73828125,-31.73828125,-20.01953125,43.9453125,0.0
334.2734375,-34.66796875,-41.015625,-37.109375,-32.71484375,97.16796875,0.0
334.27734375,-54.19921875,-45.8984375,-41.015625,-44.43359375,60.05859375,0.0
334.28125,-43.45703125,-39.55078125,-40.0390625,-40.0390625,-23.4375,0.0
334.28515625,-16.6015625,-29.78515625,-40.52734375,-20.99609375,-50.78125,0.0
334.2890625,-13.671875,-22.4609375,-34.1796875,-16.6015625,-39.0625,0.0
334.29296875,-37.109375,-28.80859375,-31.25,-27.34375,-31.73828125,0.0
334.296875,-58.59375,-41.9921875,-43.45703125,-39.55078125,-17.578125,0.0
334.30078125,-47.8515625,-39.0625,-79.58984375,-37.109375,62.01171875,0.0
334.3046875,-16.6015625,-29.296875,-66.89453125,-15.625,63.4765625,0.0
334.30859375,-7.32421875,-27.34375,-22.4609375,-8.30078125,16.6015625,0.0
334.3125,-33.203125,-37.109375,-37.109375,-27.34375,-0.48828125,0.0
334.31640625,-52.24609375,-42.48046875,-49.31640625,-32.71484375,-53.7109375,0.0
334.3203125,-38.0859375,-33.203125,-24.4140625,-24.90234375,-37.59765625,0.0
334.32421875,-6.8359375,-24.90234375,-21.484375,-19.04296875,56.640625,0.0
334.328125,-1.46484375,-26.3671875,-27.83203125,-16.6015625,-46.875,0.0
334.33203125,-24.4140625,-31.73828125,-28.80859375,-18.06640625,-254.8828125,0.0
334.3359375,-48.828125,-36.62109375,-33.69140625,-23.4375,-204.1015625,0.0
334.33984375,-48.33984375,-34.66796875,-36.62109375,-33.203125,-104.98046875,0.0
334.34375,-20.01953125,-33.69140625,-36.1328125,-24.90234375,-24.90234375,0.0
334.34765625,-3.90625,-29.78515625,-39.55078125,-16.11328125,-74.21875,0.0
334.3515625,-22.94921875,-27.83203125,-34.1796875,-21.97265625,-222.65625,0.0
334.35546875,-47.8515625,-33.203125,-30.76171875,-33.203125,-195.3125,0.0
334.359375,-43.45703125,-32.2265625,-27.34375,-31.25,-70.3125,0.0
334.36328125,-16.6015625,-24.4140625,-26.3671875,-16.11328125,-51.26953125,0.0
334.3671875,-6.34765625,-22.94921875,-31.25,-18.5546875,-89.84375,0.0
334.37109375,-24.90234375,-27.83203125,-36.1328125,-31.25,-84.9609375,0.0
334.375,-53.7109375,-31.73828125,-25.390625,-31.25,-53.7109375,0.0
334.37890625,-61.5234375,-32.2265625,-23.4375,-33.203125,-100.5859375,0.0
334.3828125,-35.15625,-32.71484375,-32.2265625,-34.1796875,-134.765625,0.0
334.38671875,-10.7421875,-27.83203125,-20.99609375,-23.92578125,45.8984375,0.0
334.390625,-23.92578125,-26.85546875,-10.25390625,-23.92578125,87.40234375,0.0
334.39453125,-46.875,-32.71484375,-19.53125,-23.92578125,39.55078125,0.0
334.3984375,-52.24609375,-40.52734375,-26.85546875,-26.3671875,81.0546875,0.0
334.40234375,-31.73828125,-38.57421875,-21.484375,-20.99609375,80.56640625,0.0
334.40625,-5.859375,-26.85546875,26.3671875,-11.23046875,101.07421875,0.0
334.41015625,-14.6484375,-30.2734375,8.30078125,-13.671875,79.1015625,0.0
334.4140625,-45.41015625,-39.0625,-34.66796875,-19.04296875,47.8515625,0.0
334.41796875,-56.15234375,-36.62109375,-28.3203125,-22.4609375,125.48828125,0.0
334.421875,-36.62109375,-29.296875,-25.390625,-17.578125,154.296875,0.0
334.42578125,-5.859375,-31.73828125,-23.4375,-18.06640625,55.6640625,0.0
334.4296875,-5.37109375,-32.2265625,-32.71484375,-23.92578125,-39.0625,0.0
334.43359375,-44.921875,-34.1796875,-19.53125,-33.69140625,-63.4765625,0.0
334.4375,-64.94140625,-41.015625,-7.8125,-45.8984375,-32.2265625,0.0
334.44140625,-41.015625,-35.64453125,-37.109375,-41.015625,-31.25,0.0
334.4453125,-13.18359375,-27.83203125,-39.55078125,-31.73828125,-23.4375,0.0
334.44921875,-11.71875,-21.484375,-31.25,-23.92578125,32.71484375,0.0
334.453125,-38.57421875,-28.3203125,-35.15625,-29.296875,27.34375,0.0
334.45703125,-55.6640625,-35.64453125,-40.0390625,-35.15625,-9.765625,0.0
334.4609375,-44.43359375,-35.64453125,-39.0625,-35.15625,32.2265625,0.0
334.46484375,-17.08984375,-34.66796875,-33.203125,-25.390625,60.546875,0.0
334.46875,-4.39453125,-27.83203125,-33.69140625,-13.671875,19.04296875,0.0
334.47265625,-21.484375,-25.87890625,-38.57421875,-31.73828125,-51.7578125,0.0
334.4765625,-34.1796875,-26.85546875,-39.55078125,-40.52734375,-100.09765625,0.0
334.48046875,-22.4609375,-29.296875,-29.296875,-39.0625,-89.35546875,0.0
334.484375,3.90625,-32.71484375,-18.06640625,-40.0390625,-38.57421875,0.0
334.48828125,11.71875,-28.80859375,-31.25,-34.1796875,-65.91796875,0.0
334.4921875,-16.6015625,-28.80859375,-41.9921875,-36.62109375,-63.4765625,0.0
334.49609375,-46.38671875,-33.69140625,-42.96875,-33.69140625,59.5703125,0.0
334.5,-52.734375,-37.109375,-44.43359375,-31.73828125,85.44921875,0.0
334.50390625,-28.80859375,-32.2265625,-40.52734375,-24.4140625,15.13671875,0.0
334.5078125,-16.11328125,-27.83203125,-33.69140625,-6.34765625,-52.734375,0.0
334.51171875,-37.59765625,-30.2734375,-33.69140625,-11.71875,-58.10546875,0.0
334.515625,-60.05859375,-32.71484375,-38.0859375,-26.3671875,11.71875,0.0
334.51953125,-57.6171875,-38.0859375,-41.9921875,-21.484375,60.05859375,0.0
334.5234375,-29.296875,-34.66796875,-20.01953125,-16.11328125,-23.4375,0.0
334.52734375,-12.6953125,-25.390625,-9.765625,-17.578125,-105.95703125,0.0
334.53125,-28.80859375,-30.76171875,-37.109375,-26.3671875,-118.65234375,0.0
334.53515625,-58.10546875,-36.1328125,-49.8046875,-42.48046875,-143.5546875,0.0
334.5390625,-60.546875,-29.78515625,-29.296875,-39.55078125,-60.05859375,0.0
334.54296875,-33.203125,-24.4140625,-16.11328125,-29.78515625,-24.90234375,0.0
334.546875,-17.578125,-26.85546875,-32.71484375,-28.3203125,-91.30859375,0.0
334.55078125,-30.2734375,-27.34375,-30.2734375,-27.34375,-99.609375,0.0
334.5546875,-50.29296875,-29.296875,-27.83203125,-36.62109375,-133.7890625,0.0
334.55859375,-57.12890625,-35.15625,-32.71484375,-44.43359375,-102.5390625,0.0
334.5625,-37.59765625,-33.203125,-30.2734375,-35.15625,57.12890625,0.0
334.56640625,-14.16015625,-37.109375,-29.78515625,-26.85546875,58.10546875,0.0
334.5703125,-26.3671875,-40.52734375,-12.20703125,-31.25,-15.625,0.0
334.57421875,-55.17578125,-42.48046875,-13.671875,-44.43359375,-23.4375,0.0
334.578125,-59.5703125,-42.48046875,-36.62109375,-51.7578125,-51.7578125,0.0
334.58203125,-30.2734375,-34.66796875,-29.296875,-36.62109375,-87.40234375,0.0
334.5859375,-7.8125,-25.390625,-20.5078125,-28.3203125,-118.1640625,0.0
334.58984375,-19.04296875,-26.85546875,-26.85546875,-35.15625,-106.93359375,0.0
334.59375,-41.015625,-36.62109375,-37.109375,-32.71484375,-121.09375,0.0
334.59765625,-57.6171875,-37.59765625,-30.76171875,-40.0390625,-109.375,0.0
334.6015625,-39.55078125,-34.66796875,-19.53125,-39.0625,69.82421875,0.0
334.60546875,-7.32421875,-29.296875,-33.69140625,-21.484375,124.51171875,0.0
334.609375,-0.9765625,-31.73828125,-37.109375,-19.53125,2.9296875,0.0
334.61328125,-29.296875,-38.0859375,-33.203125,-28.80859375,-85.44921875,0.0
334.6171875,-55.17578125,-35.15625,-30.2734375,-34.66796875,-112.3046875,0.0
334.62109375,-36.1328125,-37.59765625,-36.1328125,-30.2734375,-112.79296875,0.0
334.625,-6.34765625,-38.57421875,-38.0859375,-20.99609375,-129.8828125,0.0
334.62890625,-4.39453125,-36.62109375,-30.76171875,-20.99609375,-91.796875,0.0
334.6328125,-31.25,-38.57421875,-34.66796875,-26.85546875,-55.6640625,0.0
334.63671875,-53.7109375,-36.1328125,-35.15625,-30.76171875,-18.06640625,0.0
334.640625,-43.45703125,-32.71484375,-30.76171875,-35.64453125,-8.7890625,0.0
334.64453125,-18.06640625,-31.25,-31.73828125,-24.90234375,64.453125,0.0
334.6484375,-15.625,-32.71484375,-33.203125,-21.484375,20.01953125,0.0
334.65234375,-38.0859375,-29.296875,-34.1796875,-34.66796875,-71.2890625,0.0
334.65625,-55.17578125,-30.76171875,-35.64453125,-40.52734375,-42.96875,0.0
334.66015625,-49.8046875,-36.1328125,-31.25,-39.55078125,11.23046875,0.0
334.6640625,-18.06640625,-25.390625,-29.296875,-25.390625,15.625,0.0
334.66796875,2.44140625,-22.4609375,-28.3203125,-15.625,-94.23828125,0.0
334.671875,-20.99609375,-30.2734375,-33.69140625,-20.99609375,-130.37109375,0.0
334.67578125,-47.36328125,-27.83203125,-32.2265625,-28.80859375,-46.38671875,0.0
334.6796875,-41.9921875,-25.390625,-22.94921875,-33.69140625,-11.71875,0.0
334.68359375,-13.671875,-23.92578125,-28.3203125,-21.97265625,-60.546875,0.0
334.6875,-2.44140625,-27.83203125,-26.85546875,-16.6015625,-71.77734375,0.0
334.69140625,-18.5546875,-34.1796875,-20.99609375,-21.97265625,-79.58984375,0.0
334.6953125,-38.57421875,-31.73828125,-24.90234375,-34.1796875,-110.3515625,0.0
334.69921875,-38.57421875,-32.2265625,-32.71484375,-38.0859375,-40.0390625,0.0
334.703125,-19.04296875,-31.73828125,-15.625,-26.85546875,61.5234375,0.0
334.70703125,-2.9296875,-27.34375,-8.30078125,-27.83203125,64.94140625,0.0
334.7109375,-24.90234375,-31.25,-29.78515625,-28.3203125,26.3671875,0.0
334.71484375,-49.8046875,-37.59765625,-36.1328125,-28.3203125,-26.85546875,0.0
334.71875,-39.55078125,-42.96875,-18.06640625,-47.36328125,-63.96484375,0.0
334.72265625,-19.53125,-36.62109375,-6.8359375,-38.57421875,-54.6875,0.0
334.7265625,-6.8359375,-32.2265625,-21.97265625,-22.4609375,-62.98828125,0.0
334.73046875,-18.5546875,-33.203125,-26.85546875,-25.390625,-82.51953125,0.0
334.734375,-38.57421875,-27.34375,-29.296875,-24.4140625,-73.73046875,0.0
334.73828125,-46.38671875,-27.34375,-32.2265625,-36.1328125,-98.6328125,0.0
334.7421875,-36.1328125,-31.25,-31.73828125,-42.48046875,-79.58984375,0.0
334.74609375,-16.6015625,-29.78515625,-31.73828125,-34.1796875,-18.06640625,0.0
334.75,-21.97265625,-30.2734375,-30.76171875,-32.71484375,23.4375,0.0
334.75390625,-46.38671875,-28.3203125,-27.83203125,-40.0390625,22.94921875,0.0
334.7578125,-55.6640625,-28.80859375,-27.34375,-45.41015625,35.64453125,0.0
334.76171875,-34.1796875,-27.34375,-24.4140625,-39.0625,81.0546875,0.0
334.765625,-12.6953125,-28.3203125,-79.58984375,-27.34375,37.109375,0.0
334.76953125,-11.71875,-33.69140625,-103.02734375,-24.4140625,-48.828125,0.0
334.7734375,-33.69140625,-34.1796875,-44.43359375,-31.73828125,-62.5,0.0
334.77734375,-55.6640625,-38.0859375,-24.4140625,-33.69140625,-33.69140625,0.0
334.78125,-38.57421875,-33.69140625,-21.97265625,-21.484375,-26.85546875,0.0
334.78515625,-12.6953125,-29.296875,-14.6484375,-22.4609375,-82.03125,0.0
334.7890625,-12.6953125,-35.64453125,-15.13671875,-28.80859375,-62.01171875,0.0
334.79296875,-31.25,-35.64453125,-21.484375,-29.296875,-19.53125,0.0
334.796875,-47.36328125,-30.76171875,-23.4375,-33.69140625,-22.4609375,0.0
334.80078125,-38.0859375,-30.2734375,-21.484375,-35.15625,21.97265625,0.0
334.8046875,-13.18359375,-29.78515625,-20.99609375,-29.78515625,18.5546875,0.0
334.80859375,-2.9296875,-30.2734375,-33.69140625,-26.3671875,-81.54296875,0.0
334.8125,-28.3203125,-27.34375,-40.0390625,-28.80859375,-186.5234375,0.0
334.81640625,-51.26953125,-25.87890625,-30.2734375,-36.62109375,-164.0625,0.0
334.8203125,-36.62109375,-22.94921875,-19.04296875,-34.66796875,-46.38671875,0.0
334.82421875,-13.671875,-22.94921875,-52.24609375,-24.90234375,39.55078125,0.0
334.828125,-3.90625,-27.34375,-70.80078125,-26.3671875,-13.671875,0.0
334.83203125,-29.78515625,-36.1328125,-33.203125,-31.73828125,-48.828125,0.0
334.8359375,-60.546875,-39.0625,-30.76171875,-43.9453125,-2.44140625,0.0
334.83984375,-53.22265625,-38.57421875,-28.80859375,-44.921875,41.9921875,0.0
334.84375,-23.4375,-37.109375,-21.97265625,-37.109375,119.140625,0.0
334.84765625,-14.16015625,-30.2734375,-21.484375,-38.0859375,65.91796875,0.0
334.8515625,-33.69140625,-34.66796875,-28.3203125,-37.59765625,-79.58984375,0.0
334.85546875,-52.24609375,-41.9921875,-22.4609375,-45.41015625,-83.49609375,0.0
334.859375,-52.24609375,-37.109375,-20.01953125,-49.31640625,20.99609375,0.0
334.86328125,-28.80859375,-29.296875,-23.92578125,-40.52734375,17.578125,0.0
334.8671875,-9.765625,-26.3671875,-26.3671875,-34.1796875,-24.4140625,0.0
334.87109375,-27.83203125,-30.76171875,-35.15625,-34.1796875,-92.7734375,0.0
334.875,-56.640625,-39.0625,-29.78515625,-38.57421875,-170.8984375,0.0
334.87890625,-56.15234375,-33.203125,-26.85546875,-37.109375,-64.453125,0.0
334.8828125,-26.3671875,-29.296875,-24.4140625,-30.2734375,31.25,0.0
334.88671875,-9.27734375,-28.80859375,-25.390625,-27.34375,41.015625,0.0
334.890625,-25.390625,-29.78515625,-30.76171875,-32.2265625,41.9921875,0.0
334.89453125,-46.875,-35.64453125,-26.85546875,-39.55078125,-26.3671875,0.0
334.8984375,-51.7578125,-38.57421875,-36.1328125,-41.9921875,-59.5703125,0.0
334.90234375,-24.90234375,-38.57421875,-43.9453125,-29.78515625,-38.0859375,0.0
334.90625,10.25390625,-32.2265625,-26.3671875,-13.18359375,-37.109375,0.0
334.91015625,-1.953125,-25.87890625,-21.484375,-15.13671875,-51.26953125,0.0
334.9140625,-38.57421875,-28.80859375,-29.78515625,-21.484375,-81.54296875,0.0
334.91796875,-48.33984375,-34.66796875,-29.78515625,-25.87890625,-121.58203125,0.0
334.921875,-28.80859375,-33.69140625,-17.08984375,-24.4140625,-50.78125,0.0
334.92578125,-6.8359375,-27.83203125,-12.20703125,-18.06640625,-7.8125,0.0
334.9296875,-17.578125,-23.92578125,-17.578125,-32.71484375,-35.64453125,0.0
334.93359375,-41.50390625,-23.4375,-24.4140625,-43.9453125,-77.1484375,0.0
334.9375,-50.78125,-27.83203125,-25.87890625,-40.52734375,-66.89453125,0.0
334.94140625,-37.109375,-34.66796875,-23.4375,-30.76171875,23.92578125,0.0
334.9453125,-8.7890625,-33.69140625,-22.4609375,-24.90234375,113.76953125,0.0
334.94921875,-11.23046875,-32.2265625,-21.484375,-27.34375,81.54296875,0.0
334.953125,-30.2734375,-36.62109375,-22.4609375,-32.71484375,-43.9453125,0.0
334.95703125,-41.9921875,-39.0625,-27.34375,-40.0390625,-78.61328125,0.0
334.9609375,-36.1328125,-33.69140625,-30.2734375,-31.25,38.57421875,0.0
334.96484375,-12.20703125,-27.34375,-21.97265625,-23.4375,3.41796875,0.0
334.96875,-12.20703125,-27.83203125,-20.5078125,-26.3671875,-92.28515625,0.0
334.97265625,-39.0625,-32.71484375,-20.5078125,-27.34375,-70.80078125,0.0
334.9765625,-54.6875,-36.1328125,-22.4609375,-37.109375,-36.1328125,0.0
334.98046875,-46.38671875,-36.1328125,-24.4140625,-39.55078125,-137.6953125,0.0
334.984375,-21.484375,-36.1328125,-25.87890625,-33.69140625,-145.01953125,0.0
334.98828125,-10.7421875,-34.1796875,-12.6953125,-29.296875,-46.875,0.0
334.9921875,-30.76171875,-29.78515625,-12.6953125,-33.69140625,-60.546875,0.0
334.99609375,-51.26953125,-34.1796875,-25.87890625,-41.015625,-88.8671875,0.0
335.0,-40.0390625,-36.62109375,-27.83203125,-36.1328125,-78.125,0.0
335.00390625,-19.53125,-34.1796875,-14.16015625,-24.4140625,-4.39453125,0.0
335.0078125,-18.5546875,-34.66796875,-7.8125,-20.99609375,-18.06640625,0.0
335.01171875,-34.66796875,-38.0859375,-32.2265625,-26.3671875,-97.65625,0.0
335.015625,-57.6171875,-40.0390625,-40.0390625,-35.15625,-85.44921875,0.0
335.01953125,-52.24609375,-37.59765625,-35.64453125,-33.203125,-38.57421875,0.0
335.0234375,-25.87890625,-39.0625,-39.0625,-27.34375,-55.6640625,0.0
335.02734375,-7.32421875,-39.0625,-40.52734375,-21.97265625,-17.578125,0.0
335.03125,-10.25390625,-31.73828125,-31.25,-13.18359375,-11.71875,0.0
335.03515625,-50.29296875,-38.0859375,-37.109375,-28.3203125,-67.3828125,0.0
335.0390625,-71.77734375,-44.921875,-39.0625,-52.24609375,-87.890625,0.0
335.04296875,-32.2265625,-38.0859375,-21.484375,-45.8984375,2.44140625,0.0
335.046875,5.37109375,-38.0859375,-17.08984375,-20.5078125,30.2734375,0.0
335.05078125,-14.16015625,-41.015625,-22.94921875,-24.90234375,-87.40234375,0.0
335.0546875,-48.33984375,-40.0390625,-25.87890625,-38.57421875,-106.93359375,0.0
335.05859375,-48.33984375,-34.1796875,-26.85546875,-33.203125,-20.01953125,0.0
335.0625,-23.4375,-30.76171875,-27.34375,-26.85546875,-29.296875,0.0
335.06640625,-3.41796875,-29.78515625,-26.3671875,-24.90234375,-90.8203125,0.0
335.0703125,-20.5078125,-34.1796875,-32.71484375,-30.2734375,-78.125,0.0
335.07421875,-50.29296875,-38.0859375,-32.2265625,-35.64453125,-23.4375,0.0
335.078125,-56.15234375,-38.0859375,-31.25,-37.109375,44.43359375,0.0
335.08203125,-33.203125,-38.0859375,-34.66796875,-32.71484375,80.56640625,0.0
335.0859375,-9.765625,-32.71484375,-32.2265625,-21.484375,97.16796875,0.0
335.08984375,-14.6484375,-31.25,-32.2265625,-19.04296875,18.5546875,0.0
335.09375,-46.38671875,-33.69140625,-19.04296875,-26.85546875,-59.08203125,0.0
335.09765625,-63.4765625,-41.50390625,-0.48828125,-33.69140625,-42.96875,0.0
335.1015625,-35.64453125,-35.64453125,-17.08984375,-31.73828125,-43.9453125,0.0
335.10546875,-16.11328125,-28.80859375,-29.296875,-25.87890625,-73.2421875,0.0
335.109375,-22.94921875,-35.15625,-25.87890625,-25.390625,-41.015625,0.0
335.11328125,-42.48046875,-30.2734375,-25.390625,-29.296875,-14.6484375,0.0
335.1171875,-54.6875,-26.3671875,-29.78515625,-29.78515625,-19.04296875,0.0
335.12109375,-32.2265625,-24.4140625,-32.71484375,-27.34375,-33.69140625,0.0
335.125,-4.39453125,-17.08984375,-26.3671875,-18.5546875,-20.01953125,0.0
335.12890625,2.9296875,-17.08984375,-20.5078125,-12.20703125,-51.7578125,0.0
335.1328125,-17.08984375,-20.5078125,-24.90234375,-17.578125,-76.66015625,0.0
335.13671875,-41.50390625,-22.4609375,-29.296875,-26.85546875,-65.91796875,0.0
335.140625,-32.2265625,-28.3203125,-44.43359375,-28.3203125,23.92578125,0.0
335.14453125,-8.30078125,-34.1796875,-58.10546875,-22.94921875,55.6640625,0.0
335.1484375,-8.30078125,-33.203125,-31.73828125,-21.97265625,39.55078125,0.0
335.15234375,-27.83203125,-30.76171875,-37.59765625,-20.99609375,35.15625,0.0
335.15625,-50.29296875,-28.80859375,-58.59375,-30.76171875,22.4609375,0.0
335.16015625,-40.52734375,-32.2265625,-32.71484375,-35.64453125,45.8984375,0.0
335.1640625,-9.27734375,-29.296875,-29.78515625,-27.34375,62.98828125,0.0
335.16796875,1.46484375,-25.390625,-32.2265625,-20.99609375,55.6640625,0.0
335.171875,-17.578125,-34.66796875,-29.296875,-27.83203125,14.16015625,0.0
335.17578125,-40.52734375,-36.1328125,-24.4140625,-33.69140625,-12.20703125,0.0
335.1796875,-45.8984375,-30.2734375,-21.484375,-34.1796875,-10.7421875,0.0
335.18359375,-25.390625,-33.203125,-29.78515625,-41.9921875,-58.59375,0.0
335.1875,-13.18359375,-37.59765625,-30.76171875,-38.0859375,-49.8046875,0.0
335.19140625,-29.296875,-36.1328125,-23.92578125,-37.109375,-89.35546875,0.0
335.1953125,-49.8046875,-38.0859375,-26.85546875,-40.0390625,-104.00390625,0.0
335.19921875,-39.55078125,-39.0625,-25.87890625,-33.203125,-16.6015625,0.0
335.203125,-11.23046875,-32.2265625,-19.53125,-21.97265625,1.953125,0.0
