timestam,TP9,AF7,AF8,TP10,AUX,Marker
329.00390625,-36.62109375,-33.69140625,-25.390625,-36.1328125,-113.76953125,0.0
329.0078125,-23.92578125,-31.25,-36.62109375,-37.59765625,-172.36328125,0.0
329.01171875,-9.27734375,-25.390625,-23.92578125,-33.69140625,-211.9140625,0.0
329.015625,-40.0390625,-38.0859375,-19.04296875,-42.96875,-145.5078125,0.0
329.01953125,-60.546875,-41.015625,-22.94921875,-42.48046875,-115.234375,0.0
329.0234375,-45.41015625,-29.78515625,-23.92578125,-39.0625,-169.921875,0.0
329.02734375,-34.66796875,-26.3671875,-22.94921875,-41.015625,-165.52734375,0.0
329.03125,-21.97265625,-22.4609375,-18.5546875,-33.203125,-50.78125,0.0
329.03515625,-16.6015625,-13.18359375,-14.16015625,-27.83203125,83.49609375,0.0
329.0390625,-27.34375,-18.06640625,-19.53125,-31.25,57.12890625,0.0
329.04296875,-37.59765625,-31.25,-28.80859375,-41.9921875,35.15625,0.0
329.046875,-38.0859375,-35.15625,-25.390625,-50.78125,27.34375,0.0
329.05078125,-21.484375,-26.3671875,-17.08984375,-40.0390625,37.59765625,0.0
329.0546875,-18.06640625,-31.73828125,-24.90234375,-37.109375,77.63671875,0.0
329.05859375,-36.62109375,-44.43359375,-39.55078125,-37.59765625,38.57421875,0.0
329.0625,-33.203125,-42.96875,-43.45703125,-35.15625,-7.32421875,0.0
329.06640625,-14.6484375,-34.66796875,-38.57421875,-32.71484375,-97.65625,0.0
329.0703125,-3.41796875,-22.94921875,-28.3203125,-22.4609375,-58.10546875,0.0
329.07421875,-14.6484375,-22.94921875,-22.94921875,-24.4140625,11.23046875,0.0
329.078125,-31.73828125,-26.85546875,-22.4609375,-32.2265625,-27.83203125,0.0
329.08203125,-41.015625,-31.25,-20.01953125,-34.1796875,-22.94921875,0.0
329.0859375,-35.15625,-29.78515625,-23.4375,-32.71484375,2.44140625,0.0
329.08984375,-24.4140625,-25.390625,-22.94921875,-32.71484375,31.25,0.0
329.09375,-21.97265625,-25.390625,-10.25390625,-31.25,68.359375,0.0
329.09765625,-29.296875,-21.484375,-11.23046875,-20.5078125,69.3359375,0.0
329.1015625,-46.38671875,-31.25,-34.66796875,-29.78515625,-14.6484375,0.0
329.10546875,-51.7578125,-43.9453125,-39.55078125,-43.9453125,-73.2421875,0.0
329.109375,-40.0390625,-36.1328125,-36.62109375,-45.41015625,-23.92578125,0.0
329.11328125,-36.62109375,-29.78515625,-43.9453125,-41.015625,26.3671875,0.0
329.1171875,-44.921875,-30.2734375,-36.62109375,-41.50390625,-11.71875,0.0
329.12109375,-51.7578125,-33.203125,-24.90234375,-52.24609375,-59.08203125,0.0
329.125,-41.9921875,-36.62109375,-31.73828125,-59.08203125,-32.2265625,0.0
329.12890625,-22.94921875,-29.296875,-39.0625,-51.7578125,-16.11328125,0.0
329.1328125,-18.5546875,-20.99609375,-33.69140625,-36.1328125,11.23046875,0.0
329.13671875,-29.78515625,-33.203125,-34.66796875,-37.59765625,-0.9765625,0.0
329.140625,-48.33984375,-43.9453125,-33.203125,-42.48046875,42.48046875,0.0
329.14453125,-33.69140625,-30.2734375,-22.94921875,-27.83203125,122.0703125,0.0
329.1484375,-10.7421875,-27.34375,-19.04296875,-24.90234375,61.5234375,0.0
329.15234375,-17.578125,-31.25,-26.85546875,-27.83203125,20.99609375,0.0
329.15625,-36.1328125,-29.78515625,-37.59765625,-28.3203125,8.7890625,0.0
329.16015625,-45.41015625,-35.15625,-40.52734375,-35.64453125,-42.96875,0.0
329.1640625,-34.1796875,-37.109375,-31.25,-38.57421875,-21.97265625,0.0
329.16796875,-10.7421875,-32.71484375,-30.2734375,-38.0859375,-63.96484375,0.0
329.171875,2.44140625,-27.83203125,-33.203125,-22.94921875,-79.58984375,0.0
329.17578125,-6.8359375,-28.3203125,-24.90234375,-7.8125,-2.44140625,0.0
329.1796875,-19.53125,-31.73828125,-27.83203125,-16.11328125,-19.53125,0.0
329.18359375,-16.11328125,-28.80859375,-37.59765625,-27.83203125,-10.7421875,0.0
329.1875,14.6484375,-17.08984375,-39.0625,-21.484375,-48.828125,0.0
329.19140625,36.1328125,-14.16015625,-38.0859375,-5.37109375,-106.93359375,0.0
329.1953125,24.90234375,-21.484375,-31.73828125,-3.41796875,-128.41796875,0.0
329.19921875,4.39453125,-23.4375,-31.73828125,-11.23046875,-106.93359375,0.0
329.203125,7.8125,-14.6484375,-39.55078125,-10.7421875,-11.23046875,0.0
329.20703125,26.3671875,-8.7890625,-42.96875,-7.32421875,-4.39453125,0.0
329.2109375,39.55078125,-6.8359375,-35.64453125,-2.44140625,-50.78125,0.0
329.21484375,37.59765625,-10.25390625,-30.76171875,3.90625,-17.08984375,0.0
329.21875,18.5546875,-13.671875,-37.109375,0.0,-35.15625,0.0
329.22265625,15.13671875,-16.6015625,-36.1328125,-4.39453125,-64.94140625,0.0
329.2265625,22.94921875,-28.80859375,-39.0625,-5.859375,-51.7578125,0.0
329.23046875,29.78515625,-28.80859375,-42.48046875,-7.8125,-84.9609375,0.0
329.234375,28.3203125,-15.13671875,-37.59765625,1.953125,-30.2734375,0.0
329.23828125,5.859375,-21.97265625,-44.43359375,-6.34765625,1.46484375,0.0
329.2421875,-10.25390625,-34.66796875,-43.45703125,-22.94921875,-34.66796875,0.0
329.24609375,-1.46484375,-27.34375,-38.0859375,-23.4375,1.46484375,0.0
329.25,7.8125,-15.13671875,-42.48046875,-16.6015625,22.4609375,0.0
329.25390625,1.953125,-10.25390625,-42.48046875,-11.23046875,10.7421875,0.0
329.2578125,-15.625,-18.06640625,-39.55078125,-14.16015625,12.6953125,0.0
329.26171875,-27.34375,-27.83203125,-43.45703125,-21.484375,-36.62109375,0.0
329.265625,-13.18359375,-25.87890625,-41.015625,-21.97265625,-5.37109375,0.0
329.26953125,-1.953125,-23.4375,-38.0859375,-21.97265625,19.04296875,0.0
329.2734375,-10.25390625,-29.296875,-37.109375,-22.4609375,-25.390625,0.0
329.27734375,-15.625,-31.25,-37.59765625,-21.484375,-33.69140625,0.0
329.28125,-22.94921875,-27.83203125,-39.0625,-26.3671875,18.06640625,0.0
329.28515625,-28.80859375,-33.69140625,-31.73828125,-33.69140625,52.734375,0.0
329.2890625,-23.92578125,-37.109375,-26.85546875,-35.15625,22.4609375,0.0
329.29296875,-11.23046875,-22.4609375,-27.34375,-17.578125,54.19921875,0.0
329.296875,-24.90234375,-21.484375,-18.5546875,-14.16015625,-38.57421875,0.0
329.30078125,-42.96875,-27.83203125,-20.99609375,-24.4140625,-41.9921875,0.0
329.3046875,-31.25,-32.71484375,-27.83203125,-26.3671875,-5.37109375,0.0
329.30859375,-9.27734375,-31.25,-29.296875,-28.3203125,-64.453125,0.0
329.3125,-14.6484375,-30.2734375,-32.2265625,-32.2265625,36.62109375,0.0
329.31640625,-29.296875,-31.73828125,-28.3203125,-31.25,61.03515625,0.0
329.3203125,-33.203125,-29.296875,-26.3671875,-29.296875,-56.640625,0.0
329.32421875,-24.4140625,-21.97265625,-25.390625,-29.296875,-75.1953125,0.0
329.328125,-11.23046875,-15.13671875,-26.85546875,-26.3671875,-70.3125,0.0
329.33203125,-14.16015625,-22.94921875,-25.87890625,-26.85546875,17.08984375,0.0
329.3359375,-27.83203125,-25.390625,-35.64453125,-29.296875,0.9765625,0.0
329.33984375,-40.0390625,-29.296875,-46.38671875,-28.80859375,-92.7734375,0.0
329.34375,-28.3203125,-28.3203125,-38.57421875,-25.87890625,-117.1875,0.0
329.34765625,-12.20703125,-20.99609375,-37.109375,-24.4140625,-104.98046875,0.0
329.3515625,-6.34765625,-22.4609375,-41.50390625,-25.390625,-67.3828125,0.0
329.35546875,-13.18359375,-21.484375,-32.2265625,-16.6015625,-49.31640625,0.0
329.359375,-33.203125,-28.3203125,-29.296875,-17.08984375,-53.7109375,0.0
329.36328125,-30.76171875,-32.71484375,-33.203125,-32.2265625,-58.10546875,0.0
329.3671875,-20.5078125,-26.3671875,-27.83203125,-33.203125,-28.80859375,0.0
329.37109375,-17.578125,-17.08984375,-32.2265625,-28.80859375,52.24609375,0.0
329.375,-26.85546875,-12.6953125,-30.2734375,-32.71484375,55.6640625,0.0
329.37890625,-41.9921875,-28.80859375,-21.484375,-34.66796875,5.37109375,0.0
329.3828125,-38.0859375,-30.76171875,-25.87890625,-28.3203125,7.8125,0.0
329.38671875,-23.4375,-25.87890625,-27.83203125,-31.73828125,-17.08984375,0.0
329.390625,-15.625,-32.71484375,-22.4609375,-41.015625,-71.77734375,0.0
329.39453125,-25.390625,-36.1328125,-22.4609375,-31.73828125,-49.8046875,0.0
329.3984375,-46.38671875,-35.64453125,-34.1796875,-31.25,-20.01953125,0.0
329.40234375,-43.9453125,-29.78515625,-32.71484375,-34.66796875,-49.8046875,0.0
329.40625,-30.2734375,-29.296875,-29.78515625,-30.76171875,-97.65625,0.0
329.41015625,-19.53125,-25.87890625,-30.76171875,-27.34375,-100.09765625,0.0
329.4140625,-20.5078125,-20.99609375,-33.69140625,-25.87890625,-69.82421875,0.0
329.41796875,-35.15625,-27.83203125,-38.57421875,-27.83203125,-174.8046875,0.0
329.421875,-24.4140625,-27.34375,-21.97265625,-26.85546875,-190.4296875,0.0
329.42578125,-12.20703125,-23.92578125,-17.578125,-31.25,-116.69921875,0.0
329.4296875,-17.578125,-19.04296875,-26.85546875,-36.1328125,-82.03125,0.0
329.43359375,-22.4609375,-9.765625,-23.92578125,-31.25,-34.66796875,0.0
329.4375,-41.015625,-27.34375,-27.34375,-38.0859375,2.44140625,0.0
329.44140625,-63.4765625,-45.41015625,-37.109375,-54.6875,-38.0859375,0.0
329.4453125,-49.8046875,-33.203125,-32.71484375,-49.31640625,-105.95703125,0.0
329.44921875,-47.36328125,-25.390625,-29.78515625,-51.26953125,-47.8515625,0.0
329.453125,-45.8984375,-14.6484375,-21.97265625,-45.41015625,4.8828125,0.0
329.45703125,-45.41015625,-5.37109375,-13.671875,-41.50390625,-49.31640625,0.0
329.4609375,-66.89453125,-9.765625,-31.73828125,-62.98828125,-79.1015625,0.0
329.46484375,-58.10546875,-11.23046875,-24.4140625,-62.01171875,-26.3671875,0.0
329.46875,-46.875,-8.30078125,7.8125,-59.08203125,-55.17578125,0.0
329.47265625,-57.6171875,1.46484375,-10.7421875,-63.4765625,-37.109375,0.0
329.4765625,-80.56640625,-0.9765625,-33.203125,-73.73046875,37.59765625,0.0
329.48046875,-112.79296875,1.953125,-27.83203125,-96.6796875,14.6484375,0.0
329.484375,-116.2109375,4.8828125,-27.83203125,-104.4921875,-5.859375,0.0
329.48828125,-106.4453125,0.0,-26.3671875,-104.4921875,-46.38671875,0.0
329.4921875,-125.48828125,-2.44140625,-16.11328125,-125.48828125,8.30078125,0.0
329.49609375,-145.5078125,13.18359375,-1.953125,-138.18359375,41.015625,0.0
329.5,-174.31640625,13.671875,-9.27734375,-153.80859375,-75.1953125,0.0
329.50390625,-177.24609375,-0.48828125,-22.94921875,-171.38671875,-83.49609375,0.0
329.5078125,-159.1796875,6.8359375,-19.53125,-170.8984375,-32.2265625,0.0
329.51171875,-155.2734375,21.97265625,-8.30078125,-168.45703125,-89.35546875,0.0
329.515625,-171.38671875,23.92578125,-18.5546875,-170.8984375,-38.0859375,0.0
329.51953125,-205.56640625,23.92578125,-21.97265625,-182.6171875,-13.671875,0.0
329.5234375,-205.56640625,21.484375,-11.23046875,-188.96484375,-91.30859375,0.0
329.52734375,-189.94140625,18.5546875,-16.6015625,-183.59375,-61.03515625,0.0
329.53125,-189.453125,10.7421875,-20.5078125,-185.546875,-142.578125,0.0
329.53515625,-192.3828125,-5.859375,-18.5546875,-185.546875,-168.9453125,0.0
329.5390625,-194.82421875,-16.6015625,-19.53125,-175.29296875,-158.69140625,0.0
329.54296875,-183.10546875,-23.92578125,-31.25,-161.1328125,-100.09765625,0.0
329.546875,-151.3671875,-24.90234375,-37.59765625,-149.4140625,4.8828125,0.0
329.55078125,-123.53515625,-28.80859375,-40.0390625,-127.9296875,-16.6015625,0.0
329.5546875,-117.67578125,-41.015625,-44.43359375,-104.98046875,-66.40625,0.0
329.55859375,-115.72265625,-56.15234375,-31.73828125,-97.65625,-123.53515625,0.0
329.5625,-95.21484375,-55.17578125,-23.4375,-82.51953125,-169.921875,0.0
329.56640625,-59.5703125,-49.8046875,-35.64453125,-65.4296875,-71.77734375,0.0
329.5703125,-39.0625,-52.734375,-34.1796875,-58.10546875,-3.90625,0.0
329.57421875,-43.45703125,-60.05859375,-31.25,-51.26953125,-31.73828125,0.0
329.578125,-41.50390625,-62.98828125,-38.0859375,-39.0625,-53.22265625,0.0
329.58203125,-45.41015625,-66.89453125,-50.29296875,-33.69140625,-53.22265625,0.0
329.5859375,-40.52734375,-74.21875,-54.19921875,-31.73828125,-57.12890625,0.0
329.58984375,-11.71875,-64.94140625,-48.33984375,-20.01953125,-52.24609375,0.0
329.59375,-9.765625,-63.4765625,-44.921875,-9.765625,-20.01953125,0.0
329.59765625,-12.20703125,-63.96484375,-40.52734375,-0.48828125,56.15234375,0.0
329.6015625,1.953125,-63.96484375,-31.73828125,7.8125,20.5078125,0.0
329.60546875,8.30078125,-73.2421875,-37.59765625,8.30078125,-54.19921875,0.0
329.609375,25.390625,-64.94140625,-45.41015625,15.13671875,-12.20703125,0.0
329.61328125,39.55078125,-61.03515625,-42.96875,22.4609375,-0.48828125,0.0
329.6171875,32.71484375,-72.265625,-43.9453125,20.5078125,-18.06640625,0.0
329.62109375,13.671875,-73.73046875,-42.48046875,16.6015625,-12.6953125,0.0
329.625,19.53125,-65.91796875,-47.36328125,13.671875,0.48828125,0.0
329.62890625,42.96875,-63.96484375,-53.22265625,16.11328125,-101.5625,0.0
329.6328125,33.69140625,-63.4765625,-43.9453125,16.6015625,-108.3984375,0.0
329.63671875,22.4609375,-55.6640625,-34.66796875,16.11328125,-27.34375,0.0
329.640625,18.5546875,-58.59375,-34.66796875,12.6953125,-62.5,0.0
329.64453125,19.04296875,-59.5703125,-37.59765625,6.8359375,-58.59375,0.0
329.6484375,33.69140625,-51.7578125,-41.9921875,10.25390625,6.8359375,0.0
329.65234375,41.015625,-42.48046875,-38.0859375,25.390625,22.4609375,0.0
329.65625,20.99609375,-41.9921875,-34.1796875,29.296875,-25.390625,0.0
329.66015625,5.37109375,-46.38671875,-35.15625,19.53125,-88.8671875,0.0
329.6640625,14.16015625,-46.875,-25.390625,16.11328125,-83.0078125,0.0
329.66796875,25.87890625,-47.36328125,-28.80859375,13.18359375,-35.15625,0.0
329.671875,29.296875,-46.38671875,-39.0625,9.765625,25.390625,0.0
329.67578125,15.625,-51.26953125,-37.109375,9.765625,67.87109375,0.0
329.6796875,-0.48828125,-57.6171875,-40.52734375,6.34765625,-5.859375,0.0
329.68359375,-3.90625,-51.7578125,-29.78515625,6.8359375,-41.015625,0.0
329.6875,4.39453125,-51.26953125,-17.08984375,8.30078125,9.27734375,0.0
329.69140625,9.27734375,-45.41015625,-25.390625,0.48828125,16.11328125,0.0
329.6953125,-10.25390625,-36.62109375,-27.83203125,-7.8125,32.71484375,0.0
329.69921875,-37.109375,-57.12890625,-31.73828125,-17.08984375,35.15625,0.0
329.703125,-32.71484375,-53.7109375,-31.25,-20.99609375,-23.4375,0.0
329.70703125,-7.8125,-23.4375,-4.8828125,-12.6953125,-78.125,0.0
329.7109375,-14.6484375,-23.92578125,-2.44140625,-22.94921875,-38.0859375,0.0
329.71484375,-32.2265625,-25.390625,-12.6953125,-43.45703125,33.203125,0.0
329.71875,-58.10546875,-20.5078125,-3.41796875,-59.08203125,13.671875,0.0
329.72265625,-83.984375,-22.4609375,-2.9296875,-78.61328125,-35.15625,0.0
329.7265625,-77.1484375,-11.71875,-0.48828125,-81.54296875,14.6484375,0.0
329.73046875,-92.7734375,-10.7421875,2.44140625,-97.16796875,19.04296875,0.0
329.734375,-116.69921875,-0.9765625,-4.39453125,-115.234375,-16.6015625,0.0
329.73828125,-138.671875,0.0,-15.13671875,-126.953125,35.15625,0.0
329.7421875,-171.38671875,-5.859375,-20.01953125,-159.66796875,-25.390625,0.0
329.74609375,-181.640625,9.27734375,-18.06640625,-181.640625,-70.80078125,0.0
329.75,-169.43359375,26.85546875,-5.37109375,-183.10546875,-41.50390625,0.0
329.75390625,-190.4296875,19.04296875,12.20703125,-195.3125,-69.3359375,0.0
329.7578125,-227.05078125,2.44140625,13.18359375,-208.0078125,-84.47265625,0.0
329.76171875,-223.6328125,5.859375,6.34765625,-201.66015625,-57.6171875,0.0
329.765625,-204.1015625,6.34765625,-0.48828125,-199.70703125,-39.0625,0.0
329.76953125,-191.89453125,-3.90625,-5.859375,-201.66015625,-29.78515625,0.0
329.7734375,-172.8515625,-5.37109375,2.44140625,-179.19921875,30.76171875,0.0
329.77734375,-169.921875,-10.25390625,-3.41796875,-162.109375,28.3203125,0.0
329.78125,-159.66796875,-18.06640625,-14.6484375,-149.90234375,-51.26953125,0.0
329.78515625,-123.53515625,-15.625,-18.5546875,-124.0234375,-28.80859375,0.0
329.7890625,-92.28515625,-13.671875,-20.5078125,-94.7265625,2.44140625,0.0
329.79296875,-76.66015625,-17.578125,-17.08984375,-80.078125,35.64453125,0.0
329.796875,-79.1015625,-42.48046875,-20.5078125,-76.66015625,-25.390625,0.0
329.80078125,-72.75390625,-56.640625,-29.78515625,-60.546875,-77.63671875,0.0
329.8046875,-34.66796875,-43.45703125,-33.203125,-35.64453125,-14.6484375,0.0
329.80859375,-4.39453125,-42.48046875,-41.015625,-20.99609375,-26.3671875,0.0
329.8125,5.859375,-54.6875,-45.41015625,-9.27734375,-77.63671875,0.0
329.81640625,9.27734375,-59.08203125,-39.55078125,4.8828125,-92.28515625,0.0
329.8203125,9.27734375,-51.7578125,-37.109375,20.01953125,-113.28125,0.0
329.82421875,24.4140625,-49.8046875,-43.45703125,36.62109375,-130.37109375,0.0
329.828125,44.43359375,-53.7109375,-45.41015625,39.55078125,-6.34765625,0.0
329.83203125,41.9921875,-61.03515625,-43.45703125,38.57421875,72.75390625,0.0
329.8359375,38.0859375,-57.12890625,-37.109375,49.8046875,11.23046875,0.0
329.83984375,27.34375,-56.15234375,-43.9453125,44.43359375,-5.859375,0.0
329.84375,20.5078125,-69.3359375,-58.59375,28.80859375,18.5546875,0.0
329.84765625,36.1328125,-60.05859375,-51.7578125,40.0390625,-1.953125,0.0
329.8515625,50.29296875,-51.26953125,-42.48046875,56.15234375,-21.97265625,0.0
329.85546875,43.45703125,-56.640625,-42.48046875,59.5703125,-76.66015625,0.0
329.859375,33.69140625,-53.7109375,-39.55078125,60.546875,-70.3125,0.0
329.86328125,43.45703125,-50.29296875,-42.48046875,56.15234375,-49.8046875,0.0
329.8671875,50.78125,-54.19921875,-46.875,50.78125,-83.49609375,0.0
329.87109375,63.4765625,-42.48046875,-29.78515625,62.5,-49.8046875,0.0
329.875,62.5,-33.203125,-23.4375,69.3359375,-6.34765625,0.0
329.87890625,42.48046875,-47.36328125,-37.109375,53.7109375,-29.78515625,0.0
329.8828125,35.64453125,-54.19921875,-39.55078125,42.96875,-21.484375,0.0
329.88671875,38.0859375,-50.29296875,-18.5546875,42.48046875,5.859375,0.0
329.890625,37.109375,-53.7109375,-18.06640625,28.3203125,1.953125,0.0
329.89453125,38.57421875,-45.41015625,-29.296875,29.296875,15.13671875,0.0
329.8984375,25.390625,-41.50390625,-32.2265625,35.64453125,-36.62109375,0.0
329.90234375,20.99609375,-49.31640625,-32.2265625,26.3671875,-113.76953125,0.0
329.90625,29.296875,-47.8515625,-35.15625,24.90234375,-134.765625,0.0
329.91015625,30.76171875,-42.48046875,-39.0625,26.3671875,-102.5390625,0.0
329.9140625,26.3671875,-43.9453125,-32.71484375,25.390625,-59.08203125,0.0
329.91796875,18.5546875,-50.29296875,-28.80859375,24.90234375,-12.20703125,0.0
329.921875,9.765625,-51.7578125,-26.3671875,25.87890625,-37.59765625,0.0
329.92578125,17.08984375,-41.015625,-22.4609375,23.4375,-78.61328125,0.0
329.9296875,30.76171875,-33.203125,-26.85546875,23.92578125,-28.3203125,0.0
329.93359375,26.85546875,-33.203125,-34.1796875,21.97265625,7.8125,0.0
329.9375,6.34765625,-36.1328125,-35.64453125,13.671875,27.83203125,0.0
329.94140625,-14.16015625,-46.38671875,-32.71484375,2.44140625,7.32421875,0.0
329.9453125,-6.8359375,-54.19921875,-29.78515625,-2.44140625,-26.85546875,0.0
329.94921875,14.16015625,-44.921875,-25.87890625,7.8125,41.015625,0.0
329.953125,9.27734375,-41.50390625,-23.92578125,4.39453125,69.82421875,0.0
329.95703125,-5.859375,-46.875,-21.97265625,-3.90625,-19.04296875,0.0
329.9609375,-6.8359375,-44.43359375,-26.3671875,-4.8828125,-77.1484375,0.0
329.96484375,-2.9296875,-37.59765625,-30.2734375,-12.6953125,-30.2734375,0.0
329.96875,-0.9765625,-32.71484375,-28.80859375,-11.71875,0.48828125,0.0
329.97265625,0.9765625,-32.71484375,-30.2734375,-4.39453125,23.4375,0.0
329.9765625,-7.32421875,-41.9921875,-25.87890625,2.44140625,-124.51171875,0.0
329.98046875,-17.08984375,-48.33984375,-22.94921875,2.9296875,-249.0234375,0.0
329.984375,-7.8125,-43.9453125,-27.34375,-8.7890625,-126.953125,0.0
329.98828125,2.44140625,-41.50390625,-27.83203125,-15.13671875,-85.44921875,0.0
329.9921875,12.6953125,-29.296875,-18.5546875,-6.8359375,-93.75,0.0
329.99609375,-6.34765625,-30.76171875,-22.94921875,-2.9296875,-122.55859375,0.0
330.0,-35.64453125,-44.43359375,-29.296875,-17.08984375,-97.16796875,0.0
330.00390625,-29.78515625,-39.0625,-20.01953125,-23.92578125,-79.58984375,0.0
330.0078125,-11.71875,-31.73828125,-22.94921875,-22.94921875,-83.984375,0.0
330.01171875,-4.39453125,-32.2265625,-32.2265625,-27.34375,35.15625,0.0
330.015625,-15.13671875,-33.203125,-30.2734375,-29.78515625,70.80078125,0.0
330.01953125,-28.3203125,-38.57421875,-31.73828125,-32.2265625,-1.953125,0.0
330.0234375,-25.390625,-38.57421875,-35.64453125,-31.25,-7.8125,0.0
330.02734375,-10.25390625,-33.69140625,-27.34375,-15.13671875,-11.23046875,0.0
330.03125,-1.953125,-29.78515625,-20.01953125,-18.06640625,-43.45703125,0.0
330.03515625,-11.71875,-27.34375,-16.6015625,-28.80859375,-72.265625,0.0
330.0390625,-25.87890625,-27.83203125,-17.08984375,-29.78515625,-97.16796875,0.0
330.04296875,-11.71875,-26.3671875,-27.83203125,-22.4609375,-129.8828125,0.0
330.046875,4.39453125,-24.4140625,-39.55078125,-16.6015625,-104.98046875,0.0
330.05078125,4.8828125,-20.5078125,-31.73828125,-18.5546875,-17.578125,0.0
330.0546875,-3.41796875,-22.94921875,-23.4375,-13.18359375,78.61328125,0.0
330.05859375,-16.6015625,-29.296875,-29.78515625,-14.6484375,33.69140625,0.0
330.0625,-12.20703125,-31.73828125,-29.78515625,-17.578125,-30.76171875,0.0
330.06640625,-0.9765625,-32.2265625,-33.203125,-19.04296875,-41.50390625,0.0
330.0703125,6.34765625,-24.90234375,-40.52734375,-20.5078125,25.390625,0.0
330.07421875,2.44140625,-19.53125,-31.73828125,-12.20703125,90.33203125,0.0
330.078125,-11.71875,-20.5078125,-31.73828125,-7.32421875,33.203125,0.0
330.08203125,-29.78515625,-33.203125,-48.828125,-18.5546875,23.4375,0.0
330.0859375,-24.4140625,-36.62109375,-44.43359375,-23.4375,0.0,0.0
330.08984375,-1.953125,-25.390625,-25.87890625,-6.34765625,54.19921875,0.0
330.09375,-3.90625,-25.87890625,-25.87890625,1.46484375,62.98828125,0.0
330.09765625,-13.671875,-32.71484375,-29.78515625,-8.30078125,-29.296875,0.0
330.1015625,-25.87890625,-37.59765625,-20.99609375,-20.01953125,-20.5078125,0.0
330.10546875,-34.1796875,-36.62109375,-22.4609375,-27.83203125,-19.04296875,0.0
330.109375,-12.6953125,-25.87890625,-15.13671875,-20.01953125,-40.52734375,0.0
330.11328125,-2.9296875,-24.4140625,-8.30078125,-15.13671875,-60.05859375,0.0
330.1171875,-22.4609375,-35.15625,-19.53125,-20.99609375,-51.7578125,0.0
330.12109375,-28.3203125,-36.1328125,-26.85546875,-24.4140625,-37.109375,0.0
330.125,-26.85546875,-36.62109375,-32.71484375,-28.80859375,-13.18359375,0.0
330.12890625,-20.01953125,-39.0625,-30.2734375,-32.2265625,1.953125,0.0
330.1328125,-22.94921875,-34.66796875,-26.85546875,-35.15625,-35.15625,0.0
330.13671875,-38.0859375,-32.2265625,-25.390625,-38.0859375,-65.4296875,0.0
330.140625,-42.96875,-33.203125,-32.71484375,-34.1796875,-71.2890625,0.0
330.14453125,-31.73828125,-39.0625,-36.62109375,-32.71484375,-86.9140625,0.0
330.1484375,-9.765625,-28.3203125,-23.4375,-24.90234375,-99.609375,0.0
330.15234375,-4.8828125,-21.484375,-20.01953125,-22.4609375,-60.05859375,0.0
330.15625,-21.97265625,-31.73828125,-20.01953125,-24.90234375,-51.7578125,0.0
330.16015625,-42.96875,-35.15625,-21.97265625,-26.3671875,-40.0390625,0.0
330.1640625,-46.38671875,-31.25,-28.80859375,-25.390625,17.578125,0.0
330.16796875,-35.15625,-26.3671875,-28.80859375,-22.4609375,-42.96875,0.0
330.171875,-24.4140625,-22.4609375,-34.1796875,-26.3671875,-77.63671875,0.0
330.17578125,-31.73828125,-33.203125,-39.0625,-33.69140625,-30.76171875,0.0
330.1796875,-46.38671875,-45.41015625,-37.59765625,-38.57421875,-35.15625,0.0
330.18359375,-39.55078125,-40.52734375,-39.0625,-33.203125,-15.13671875,0.0
330.1875,-20.99609375,-34.66796875,-35.15625,-26.3671875,60.546875,0.0
330.19140625,-12.6953125,-27.83203125,-28.80859375,-26.3671875,77.63671875,0.0
330.1953125,-22.4609375,-28.80859375,-24.90234375,-27.34375,23.4375,0.0
330.19921875,-31.73828125,-33.69140625,-27.83203125,-29.78515625,-31.73828125,0.0
330.203125,-39.0625,-36.1328125,-22.94921875,-31.25,-14.16015625,0.0
330.20703125,-38.57421875,-38.57421875,-21.97265625,-29.296875,3.41796875,0.0
330.2109375,-21.484375,-32.71484375,-33.69140625,-34.66796875,-33.69140625,0.0
330.21484375,-28.80859375,-32.71484375,-30.76171875,-35.15625,14.16015625,0.0
330.21875,-45.8984375,-37.109375,-10.25390625,-29.78515625,-23.92578125,0.0
330.22265625,-49.8046875,-40.0390625,-15.13671875,-31.73828125,-98.14453125,0.0
330.2265625,-37.59765625,-40.52734375,-28.80859375,-29.78515625,-5.859375,0.0
330.23046875,-21.484375,-24.90234375,-27.83203125,-17.578125,-7.32421875,0.0
330.234375,-29.296875,-21.484375,-34.1796875,-18.5546875,-32.71484375,0.0
330.23828125,-43.45703125,-31.25,-30.76171875,-25.87890625,-75.68359375,0.0
330.2421875,-44.43359375,-34.66796875,-32.2265625,-37.59765625,-18.5546875,0.0
330.24609375,-33.69140625,-37.59765625,-37.109375,-40.0390625,36.1328125,0.0
330.25,-16.11328125,-30.76171875,-28.3203125,-28.80859375,24.4140625,0.0
330.25390625,-18.5546875,-29.78515625,-29.296875,-19.53125,35.15625,0.0
330.2578125,-40.52734375,-40.0390625,-33.203125,-20.5078125,-60.546875,0.0
330.26171875,-42.96875,-44.921875,-25.390625,-26.3671875,-75.68359375,0.0
330.265625,-29.296875,-38.57421875,-29.78515625,-31.25,-39.55078125,0.0
330.26953125,-16.11328125,-24.4140625,-27.34375,-23.4375,-48.33984375,0.0
330.2734375,-9.765625,-21.97265625,-24.4140625,-19.04296875,-20.5078125,0.0
330.27734375,-28.3203125,-33.203125,-26.85546875,-29.296875,-34.66796875,0.0
330.28125,-44.43359375,-32.71484375,-30.2734375,-27.83203125,0.0,0.0
330.28515625,-34.1796875,-22.4609375,-37.109375,-25.390625,-32.71484375,0.0
330.2890625,-21.97265625,-20.99609375,-36.1328125,-28.80859375,-56.15234375,0.0
330.29296875,-23.4375,-20.99609375,-26.85546875,-23.4375,17.08984375,0.0
330.296875,-34.66796875,-26.3671875,-21.484375,-23.92578125,95.21484375,0.0
330.30078125,-48.33984375,-36.62109375,-27.34375,-37.109375,11.23046875,0.0
330.3046875,-43.45703125,-31.25,-26.3671875,-34.1796875,-112.3046875,0.0
330.30859375,-21.97265625,-17.578125,-20.99609375,-28.3203125,-80.078125,0.0
330.3125,-16.11328125,-22.4609375,-30.76171875,-33.203125,58.10546875,0.0
330.31640625,-20.99609375,-34.66796875,-34.1796875,-38.0859375,68.359375,0.0
330.3203125,-30.76171875,-39.0625,-22.94921875,-42.48046875,-106.4453125,0.0
330.32421875,-32.71484375,-33.69140625,-18.5546875,-37.59765625,-213.37890625,0.0
330.328125,-18.06640625,-22.94921875,-21.97265625,-34.66796875,-117.1875,0.0
330.33203125,-17.08984375,-23.4375,-34.1796875,-40.52734375,-86.9140625,0.0
330.3359375,-31.25,-30.76171875,-39.55078125,-44.43359375,-155.2734375,0.0
330.33984375,-45.41015625,-38.57421875,-35.15625,-46.875,-34.66796875,0.0
330.34375,-46.38671875,-37.109375,-33.69140625,-44.921875,54.6875,0.0
330.34765625,-31.73828125,-28.3203125,-30.76171875,-34.1796875,-56.15234375,0.0
330.3515625,-24.4140625,-30.2734375,-33.69140625,-32.2265625,-98.6328125,0.0
330.35546875,-38.0859375,-35.15625,-40.52734375,-41.015625,-42.96875,0.0
330.359375,-54.6875,-34.66796875,-40.52734375,-46.38671875,30.2734375,0.0
330.36328125,-52.734375,-32.2265625,-34.66796875,-43.45703125,22.4609375,0.0
330.3671875,-41.50390625,-41.9921875,-33.69140625,-44.43359375,20.5078125,0.0
330.37109375,-38.0859375,-42.96875,-37.109375,-49.31640625,84.47265625,0.0
330.375,-43.9453125,-34.66796875,-43.9453125,-43.9453125,15.625,0.0
330.37890625,-52.24609375,-34.1796875,-41.015625,-35.15625,-62.98828125,0.0
330.3828125,-52.734375,-34.1796875,-32.2265625,-35.15625,-71.2890625,0.0
330.38671875,-37.109375,-31.25,-29.296875,-42.96875,15.625,0.0
330.390625,-28.80859375,-34.1796875,-29.78515625,-46.875,19.53125,0.0
330.39453125,-34.66796875,-39.55078125,-35.64453125,-39.55078125,-78.125,0.0
330.3984375,-41.015625,-34.66796875,-36.1328125,-31.73828125,-70.80078125,0.0
330.40234375,-43.9453125,-28.3203125,-32.2265625,-37.109375,-29.296875,0.0
330.40625,-31.73828125,-22.94921875,-27.34375,-36.1328125,-28.3203125,0.0
330.41015625,-27.34375,-26.3671875,-32.2265625,-37.109375,4.39453125,0.0
330.4140625,-34.66796875,-27.34375,-25.390625,-33.69140625,80.078125,0.0
330.41796875,-51.7578125,-33.69140625,-23.92578125,-31.73828125,32.71484375,0.0
330.421875,-66.40625,-44.43359375,-32.71484375,-37.59765625,-60.05859375,0.0
330.42578125,-54.19921875,-42.48046875,-41.50390625,-36.1328125,-68.84765625,0.0
330.4296875,-27.34375,-36.62109375,-38.0859375,-26.85546875,-84.9609375,0.0
330.43359375,-37.59765625,-33.69140625,-28.3203125,-25.87890625,-61.03515625,0.0
330.4375,-54.19921875,-32.71484375,-28.3203125,-26.85546875,-36.62109375,0.0
330.44140625,-54.6875,-42.96875,-31.25,-28.80859375,-142.578125,0.0
330.4453125,-51.7578125,-46.875,-35.15625,-34.66796875,-75.68359375,0.0
330.44921875,-32.2265625,-38.57421875,-36.1328125,-25.390625,56.15234375,0.0
330.453125,-25.390625,-31.73828125,-34.66796875,-23.4375,22.94921875,0.0
330.45703125,-48.33984375,-40.52734375,-37.59765625,-37.59765625,-17.08984375,0.0
330.4609375,-58.59375,-44.921875,-44.921875,-42.48046875,39.55078125,0.0
330.46484375,-44.43359375,-34.1796875,-41.50390625,-34.1796875,14.16015625,0.0
330.46875,-29.296875,-33.69140625,-41.50390625,-22.4609375,-62.5,0.0
330.47265625,-19.53125,-33.203125,-35.64453125,-14.16015625,-15.13671875,0.0
330.4765625,-30.2734375,-37.109375,-30.2734375,-24.4140625,-5.37109375,0.0
330.48046875,-34.1796875,-48.33984375,-35.15625,-35.64453125,-120.60546875,0.0
330.484375,-22.94921875,-42.48046875,-38.0859375,-43.45703125,-157.2265625,0.0
330.48828125,-5.37109375,-28.3203125,-33.69140625,-41.015625,-87.40234375,0.0
330.4921875,7.8125,-23.92578125,-23.4375,-31.73828125,-77.63671875,0.0
330.49609375,-4.8828125,-26.85546875,-32.2265625,-37.59765625,-129.8828125,0.0
330.5,-21.484375,-24.4140625,-32.71484375,-36.1328125,-155.2734375,0.0
330.50390625,-34.1796875,-34.66796875,-29.296875,-34.66796875,-155.2734375,0.0
330.5078125,-36.1328125,-39.0625,-41.015625,-34.66796875,-131.8359375,0.0
330.51171875,-24.90234375,-30.2734375,-40.0390625,-24.4140625,-37.59765625,0.0
330.515625,-29.78515625,-37.109375,-38.0859375,-25.390625,6.8359375,0.0
330.51953125,-50.78125,-47.36328125,-44.43359375,-34.1796875,-70.80078125,0.0
330.5234375,-45.41015625,-41.50390625,-35.15625,-38.57421875,-71.2890625,0.0
330.52734375,-26.3671875,-25.390625,-23.92578125,-36.62109375,-26.3671875,0.0
330.53125,-22.94921875,-28.80859375,-26.85546875,-31.73828125,-72.265625,0.0
330.53515625,-31.25,-37.59765625,-30.2734375,-29.78515625,-38.57421875,0.0
330.5390625,-48.33984375,-40.52734375,-32.2265625,-32.2265625,-51.26953125,0.0
330.54296875,-47.8515625,-37.109375,-29.78515625,-29.78515625,-71.77734375,0.0
330.546875,-22.94921875,-27.83203125,-24.90234375,-29.296875,-4.8828125,0.0
330.55078125,-9.27734375,-27.83203125,-25.87890625,-23.92578125,-33.203125,0.0
330.5546875,-24.4140625,-33.69140625,-37.109375,-29.78515625,-37.109375,0.0
330.55859375,-34.66796875,-38.57421875,-41.50390625,-40.52734375,-86.42578125,0.0
330.5625,-33.203125,-30.76171875,-29.296875,-35.64453125,-166.50390625,0.0
330.56640625,-22.94921875,-20.99609375,-28.80859375,-33.69140625,-141.6015625,0.0
330.5703125,-15.625,-29.78515625,-43.45703125,-39.0625,-45.41015625,0.0
330.57421875,-18.06640625,-26.3671875,-32.71484375,-30.2734375,-6.34765625,0.0
330.578125,-35.15625,-28.80859375,-25.87890625,-36.62109375,-5.37109375,0.0
330.58203125,-43.9453125,-42.96875,-33.203125,-45.8984375,3.90625,0.0
330.5859375,-39.0625,-37.59765625,-35.64453125,-41.015625,-50.29296875,0.0
330.58984375,-28.3203125,-32.2265625,-31.73828125,-40.52734375,-42.96875,0.0
330.59375,-23.4375,-41.9921875,-29.78515625,-39.0625,6.8359375,0.0
330.59765625,-21.97265625,-37.109375,-32.71484375,-32.2265625,-47.36328125,0.0
330.6015625,-29.296875,-33.69140625,-29.78515625,-36.1328125,0.9765625,0.0
330.60546875,-30.2734375,-40.52734375,-33.203125,-47.8515625,36.62109375,0.0
330.609375,-16.6015625,-34.66796875,-35.15625,-43.9453125,-90.8203125,0.0
330.61328125,-11.23046875,-24.4140625,-31.25,-37.59765625,-116.2109375,0.0
330.6171875,-24.4140625,-27.34375,-35.15625,-37.109375,-80.078125,0.0
330.62109375,-46.875,-41.015625,-35.64453125,-42.96875,-108.88671875,0.0
330.625,-42.96875,-46.38671875,-33.69140625,-49.31640625,-119.62890625,0.0
330.62890625,-10.7421875,-28.80859375,-24.4140625,-34.66796875,-89.35546875,0.0
330.6328125,-6.34765625,-16.11328125,-21.484375,-20.99609375,-100.09765625,0.0
330.63671875,-35.15625,-30.2734375,-29.296875,-29.296875,-166.015625,0.0
330.640625,-41.9921875,-43.9453125,-34.1796875,-39.0625,-197.265625,0.0
330.64453125,-26.3671875,-38.0859375,-30.2734375,-32.71484375,-159.66796875,0.0
330.6484375,-3.90625,-27.34375,-22.94921875,-24.90234375,-85.9375,0.0
330.65234375,5.37109375,-19.53125,-23.4375,-30.76171875,-31.73828125,0.0
330.65625,-7.32421875,-22.94921875,-21.97265625,-30.76171875,72.265625,0.0
330.66015625,-33.203125,-33.69140625,-23.4375,-41.9921875,38.0859375,0.0
330.6640625,-38.0859375,-33.203125,-27.83203125,-49.8046875,-72.265625,0.0
330.66796875,-16.6015625,-31.25,-23.4375,-38.0859375,-37.109375,0.0
330.671875,-10.7421875,-31.73828125,-25.390625,-39.0625,60.05859375,0.0
330.67578125,-25.390625,-31.25,-30.76171875,-40.52734375,62.98828125,0.0
330.6796875,-30.76171875,-29.296875,-12.20703125,-30.2734375,-31.25,0.0
330.68359375,-32.71484375,-35.15625,-13.18359375,-34.66796875,-39.0625,0.0
330.6875,-19.04296875,-34.1796875,-27.83203125,-35.15625,71.2890625,0.0
330.69140625,-6.8359375,-30.2734375,-27.83203125,-30.2734375,20.99609375,0.0
330.6953125,-26.3671875,-41.50390625,-30.76171875,-43.45703125,-58.10546875,0.0
330.69921875,-46.38671875,-46.38671875,-34.1796875,-53.7109375,67.3828125,0.0
330.703125,-37.59765625,-43.45703125,-32.2265625,-48.828125,67.3828125,0.0
330.70703125,-22.94921875,-35.64453125,-28.80859375,-40.52734375,-40.52734375,0.0
330.7109375,-14.6484375,-24.4140625,-30.76171875,-35.64453125,-9.27734375,0.0
330.71484375,-21.97265625,-25.390625,-20.5078125,-30.76171875,85.9375,0.0
330.71875,-34.1796875,-26.3671875,-15.625,-32.2265625,23.4375,0.0
330.72265625,-33.69140625,-29.296875,-16.11328125,-34.66796875,12.6953125,0.0
330.7265625,-20.5078125,-30.76171875,-15.13671875,-28.3203125,63.96484375,0.0
330.73046875,-3.41796875,-24.4140625,-16.11328125,-26.3671875,46.875,0.0
330.734375,-11.71875,-27.34375,-15.13671875,-27.83203125,34.1796875,0.0
330.73828125,-33.203125,-32.71484375,-22.94921875,-26.3671875,-40.52734375,0.0
330.7421875,-49.8046875,-45.41015625,-36.1328125,-39.55078125,-103.02734375,0.0
330.74609375,-36.62109375,-46.875,-35.64453125,-45.41015625,-55.17578125,0.0
330.75,-15.13671875,-32.71484375,-32.71484375,-33.69140625,-44.921875,0.0
330.75390625,-24.90234375,-32.71484375,-44.43359375,-31.73828125,-39.55078125,0.0
330.7578125,-44.921875,-38.0859375,-41.9921875,-39.55078125,42.96875,0.0
330.76171875,-47.36328125,-34.1796875,-21.97265625,-38.0859375,39.0625,0.0
330.765625,-36.62109375,-30.2734375,-17.578125,-41.9921875,16.6015625,0.0
330.76953125,-28.80859375,-32.2265625,-18.06640625,-39.55078125,6.34765625,0.0
330.7734375,-28.80859375,-33.69140625,-18.5546875,-32.71484375,-6.8359375,0.0
330.77734375,-38.57421875,-34.66796875,-20.5078125,-28.80859375,-1.953125,0.0
330.78125,-49.31640625,-36.62109375,-24.90234375,-26.3671875,-16.6015625,0.0
330.78515625,-35.64453125,-40.52734375,-15.625,-22.94921875,15.13671875,0.0
330.7890625,-22.94921875,-41.9921875,-8.7890625,-25.390625,2.9296875,0.0
330.79296875,-18.06640625,-35.64453125,-20.99609375,-22.94921875,29.78515625,0.0
330.796875,-26.3671875,-29.78515625,-24.4140625,-20.5078125,91.796875,0.0
330.80078125,-41.50390625,-27.83203125,-20.5078125,-22.94921875,-4.8828125,0.0
330.8046875,-38.0859375,-28.3203125,-35.15625,-26.85546875,-77.63671875,0.0
330.80859375,-19.04296875,-31.73828125,-47.8515625,-32.71484375,-78.125,0.0
330.8125,-5.37109375,-22.4609375,-33.203125,-20.5078125,-57.12890625,0.0
330.81640625,-23.4375,-21.97265625,-25.87890625,-15.625,-61.5234375,0.0
330.8203125,-41.9921875,-33.69140625,-29.296875,-25.87890625,-52.734375,0.0
330.82421875,-32.2265625,-30.76171875,-18.5546875,-29.296875,-34.66796875,0.0
330.828125,-17.08984375,-23.92578125,-14.16015625,-30.76171875,-34.66796875,0.0
330.83203125,-8.30078125,-20.99609375,-1.953125,-23.4375,-23.92578125,0.0
330.8359375,-20.01953125,-23.4375,-4.39453125,-18.5546875,14.16015625,0.0
330.83984375,-32.71484375,-31.73828125,-26.3671875,-25.87890625,-24.90234375,0.0
330.84375,-22.94921875,-28.80859375,-28.3203125,-27.83203125,-103.02734375,0.0
330.84765625,-17.08984375,-23.92578125,-17.08984375,-23.92578125,-105.46875,0.0
330.8515625,-16.6015625,-18.06640625,-17.578125,-17.578125,-51.7578125,0.0
330.85546875,-17.08984375,-22.4609375,-28.3203125,-18.5546875,-54.19921875,0.0
330.859375,-31.73828125,-34.1796875,-31.25,-26.3671875,-118.65234375,0.0
330.86328125,-41.015625,-38.0859375,-29.296875,-26.3671875,-108.88671875,0.0
330.8671875,-28.3203125,-39.0625,-36.1328125,-29.78515625,-47.36328125,0.0
330.87109375,-12.6953125,-34.1796875,-35.15625,-32.71484375,20.01953125,0.0
330.875,-15.13671875,-26.85546875,-21.484375,-23.92578125,-49.31640625,0.0
330.87890625,-30.76171875,-27.34375,-21.484375,-23.4375,-145.99609375,0.0
330.8828125,-34.1796875,-34.66796875,-25.87890625,-31.73828125,-96.6796875,0.0
330.88671875,-26.85546875,-45.41015625,-44.43359375,-41.015625,-91.30859375,0.0
330.890625,-9.27734375,-31.25,-45.8984375,-25.390625,-132.32421875,0.0
330.89453125,4.39453125,-9.27734375,-12.20703125,-1.953125,-81.0546875,0.0
330.8984375,-25.390625,-21.97265625,-20.01953125,-15.13671875,-82.51953125,0.0
330.90234375,-42.48046875,-32.71484375,-40.0390625,-32.71484375,-61.5234375,0.0
330.90625,-22.94921875,-26.3671875,-31.25,-28.3203125,0.0,0.0
330.91015625,-14.16015625,-18.5546875,-30.2734375,-22.94921875,-32.2265625,0.0
330.9140625,-26.85546875,-18.5546875,-40.0390625,-30.2734375,-12.6953125,0.0
330.91796875,-37.59765625,-27.83203125,-38.0859375,-32.2265625,37.59765625,0.0
330.921875,-30.76171875,-24.4140625,-13.18359375,-23.92578125,-23.4375,0.0
330.92578125,-20.01953125,-17.578125,-17.08984375,-29.78515625,7.8125,0.0
330.9296875,-20.5078125,-27.34375,-50.29296875,-41.9921875,22.94921875,0.0
330.93359375,-21.97265625,-27.83203125,-43.9453125,-33.69140625,-151.3671875,0.0
330.9375,-31.25,-20.99609375,-22.4609375,-26.3671875,-188.96484375,0.0
330.94140625,-46.875,-28.80859375,-20.5078125,-35.64453125,-128.41796875,0.0
330.9453125,-44.43359375,-37.109375,-22.4609375,-39.55078125,-58.10546875,0.0
330.94921875,-34.1796875,-37.59765625,-27.34375,-40.52734375,-15.625,0.0
330.953125,-33.203125,-39.0625,-31.25,-39.0625,-32.71484375,0.0
330.95703125,-45.8984375,-40.52734375,-37.109375,-41.50390625,-34.1796875,0.0
330.9609375,-48.33984375,-39.0625,-40.0390625,-38.0859375,-40.0390625,0.0
330.96484375,-51.7578125,-46.875,-33.203125,-39.55078125,-98.6328125,0.0
330.96875,-44.921875,-44.921875,-25.87890625,-37.59765625,-92.28515625,0.0
330.97265625,-34.1796875,-31.73828125,-27.34375,-30.76171875,-12.6953125,0.0
330.9765625,-53.7109375,-33.203125,-38.57421875,-37.59765625,43.9453125,0.0
330.98046875,-55.17578125,-29.78515625,-37.109375,-29.78515625,41.015625,0.0
330.984375,-39.0625,-20.5078125,-44.921875,-25.390625,26.3671875,0.0
330.98828125,-30.76171875,-25.390625,-45.41015625,-33.203125,16.11328125,0.0
330.9921875,-27.34375,-28.80859375,-23.92578125,-36.1328125,25.87890625,0.0
330.99609375,-36.1328125,-27.83203125,-18.06640625,-32.2265625,-118.1640625,0.0
331.0,-47.8515625,-36.1328125,-25.87890625,-24.4140625,-133.30078125,0.0
331.00390625,-41.50390625,-39.0625,-30.2734375,-24.90234375,-0.48828125,0.0
331.0078125,-33.203125,-29.78515625,-29.78515625,-29.296875,-16.6015625,0.0
331.01171875,-27.34375,-27.83203125,-26.85546875,-27.83203125,-38.0859375,0.0
331.015625,-29.78515625,-28.3203125,-29.78515625,-28.3203125,1.46484375,0.0
331.01953125,-45.8984375,-32.2265625,-38.0859375,-37.109375,18.5546875,0.0
331.0234375,-45.8984375,-37.59765625,-37.109375,-42.96875,-105.95703125,0.0
331.02734375,-26.85546875,-28.80859375,-33.203125,-34.1796875,4.39453125,0.0
331.03125,-20.99609375,-22.4609375,-44.921875,-32.71484375,121.09375,0.0
331.03515625,-29.78515625,-30.76171875,-49.31640625,-29.296875,105.46875,0.0
331.0390625,-41.015625,-43.9453125,-36.1328125,-23.92578125,-59.08203125,0.0
331.04296875,-44.921875,-43.9453125,-28.80859375,-29.296875,-208.0078125,0.0
331.046875,-38.57421875,-39.0625,-30.2734375,-30.2734375,-239.74609375,0.0
331.05078125,-31.25,-39.0625,-31.73828125,-30.2734375,-291.9921875,0.0
331.0546875,-28.80859375,-30.76171875,-25.87890625,-33.203125,-220.21484375,0.0
331.05859375,-47.36328125,-31.25,-17.08984375,-43.9453125,-120.1171875,0.0
331.0625,-51.26953125,-30.2734375,-24.90234375,-43.45703125,-176.7578125,0.0
331.06640625,-32.71484375,-28.3203125,-26.85546875,-36.1328125,-237.79296875,0.0
331.0703125,-20.01953125,-17.578125,-15.13671875,-21.484375,-116.69921875,0.0
331.07421875,-23.4375,-16.6015625,-23.4375,-20.01953125,10.25390625,0.0
331.078125,-44.43359375,-30.76171875,-34.1796875,-28.3203125,30.76171875,0.0
331.08203125,-58.59375,-38.57421875,-33.69140625,-32.71484375,13.18359375,0.0
331.0859375,-46.38671875,-37.59765625,-30.2734375,-28.80859375,14.6484375,0.0
331.08984375,-24.4140625,-30.76171875,-30.76171875,-18.06640625,79.58984375,0.0
331.09375,-21.97265625,-33.203125,-35.64453125,-18.06640625,96.19140625,0.0
331.09765625,-41.50390625,-32.71484375,-29.78515625,-23.4375,71.77734375,0.0
331.1015625,-66.40625,-34.66796875,-23.92578125,-30.2734375,60.05859375,0.0
331.10546875,-66.89453125,-40.52734375,-29.78515625,-38.0859375,8.30078125,0.0
331.109375,-42.96875,-37.59765625,-29.296875,-30.2734375,35.64453125,0.0
331.11328125,-32.2265625,-31.25,-25.390625,-24.4140625,56.640625,0.0
331.1171875,-49.31640625,-37.109375,-35.64453125,-35.15625,19.53125,0.0
331.12109375,-66.40625,-41.50390625,-41.50390625,-37.59765625,74.70703125,0.0
331.125,-60.546875,-33.69140625,-41.015625,-35.64453125,96.19140625,0.0
331.12890625,-39.0625,-27.83203125,-31.73828125,-32.2265625,59.5703125,0.0
331.1328125,-35.64453125,-28.3203125,-21.484375,-26.85546875,-1.46484375,0.0
331.13671875,-48.33984375,-30.76171875,-22.4609375,-21.97265625,29.78515625,0.0
331.140625,-55.6640625,-24.90234375,-26.85546875,-20.5078125,36.1328125,0.0
331.14453125,-53.7109375,-28.3203125,-25.87890625,-23.4375,-44.921875,0.0
331.1484375,-46.875,-34.66796875,-28.80859375,-34.1796875,-62.98828125,0.0
331.15234375,-41.50390625,-33.69140625,-30.2734375,-39.0625,-37.109375,0.0
331.15625,-47.8515625,-37.59765625,-30.76171875,-34.1796875,-51.7578125,0.0
331.16015625,-64.453125,-37.109375,-27.34375,-26.85546875,-40.0390625,0.0
331.1640625,-66.40625,-38.0859375,-21.484375,-29.78515625,-31.25,0.0
331.16796875,-57.12890625,-39.0625,-30.2734375,-38.0859375,-43.45703125,0.0
331.171875,-53.7109375,-25.87890625,-27.83203125,-31.73828125,-60.546875,0.0
331.17578125,-56.640625,-18.5546875,-20.01953125,-25.87890625,-80.078125,0.0
331.1796875,-64.94140625,-22.4609375,-29.78515625,-27.83203125,-28.80859375,0.0
331.18359375,-71.77734375,-28.80859375,-28.3203125,-31.25,-96.19140625,0.0
331.1875,-54.19921875,-25.87890625,-20.01953125,-26.85546875,-106.93359375,0.0
331.19140625,-45.8984375,-21.484375,-23.4375,-27.34375,-31.25,0.0
331.1953125,-55.6640625,-24.90234375,-31.25,-30.2734375,-45.41015625,0.0
331.19921875,-67.3828125,-34.1796875,-41.9921875,-31.25,-21.97265625,0.0
331.203125,-69.82421875,-41.50390625,-45.41015625,-35.15625,-9.27734375,0.0
331.20703125,-54.19921875,-37.59765625,-40.0390625,-34.66796875,5.37109375,0.0
331.2109375,-40.0390625,-27.34375,-31.73828125,-26.3671875,54.6875,0.0
331.21484375,-40.52734375,-32.71484375,-22.4609375,-26.3671875,32.71484375,0.0
331.21875,-56.15234375,-40.0390625,-13.18359375,-33.69140625,-15.13671875,0.0
331.22265625,-61.03515625,-40.0390625,-15.13671875,-32.2265625,-42.48046875,0.0
331.2265625,-47.8515625,-36.1328125,-19.04296875,-28.80859375,-51.26953125,0.0
331.23046875,-46.875,-33.203125,-27.83203125,-37.59765625,2.9296875,0.0
331.234375,-49.8046875,-31.25,-31.25,-37.59765625,-9.765625,0.0
331.23828125,-57.6171875,-30.2734375,-27.34375,-35.15625,-71.2890625,0.0
331.2421875,-69.82421875,-29.296875,-29.78515625,-36.62109375,-142.08984375,0.0
331.24609375,-59.08203125,-22.94921875,-35.64453125,-36.62109375,-110.3515625,0.0
331.25,-38.0859375,-20.01953125,-32.71484375,-40.0390625,-79.58984375,0.0
331.25390625,-40.0390625,-27.34375,-21.97265625,-42.48046875,-60.05859375,0.0
331.2578125,-55.17578125,-37.59765625,-34.1796875,-42.48046875,-20.5078125,0.0
331.26171875,-63.4765625,-41.9921875,-45.41015625,-41.50390625,-130.859375,0.0
331.265625,-46.875,-37.109375,-27.83203125,-43.45703125,-136.71875,0.0
331.26953125,-35.15625,-33.203125,-17.578125,-45.8984375,-39.0625,0.0
331.2734375,-51.7578125,-31.73828125,-27.34375,-44.43359375,17.578125,0.0
331.27734375,-58.59375,-29.296875,-33.203125,-46.875,19.04296875,0.0
331.28125,-53.7109375,-33.203125,-40.52734375,-49.31640625,-37.109375,0.0
331.28515625,-50.78125,-37.59765625,-42.48046875,-43.9453125,-70.3125,0.0
331.2890625,-37.109375,-28.80859375,-29.296875,-38.0859375,13.18359375,0.0
331.29296875,-26.85546875,-20.5078125,-25.390625,-34.66796875,76.66015625,0.0
331.296875,-50.29296875,-39.0625,-37.109375,-41.50390625,-11.71875,0.0
331.30078125,-67.87109375,-47.36328125,-36.1328125,-41.50390625,-83.49609375,0.0
331.3046875,-52.24609375,-42.96875,-36.1328125,-38.57421875,-88.37890625,0.0
331.30859375,-20.5078125,-39.0625,-42.96875,-37.109375,-42.48046875,0.0
331.3125,-11.71875,-34.66796875,-38.0859375,-32.2265625,-35.64453125,0.0
331.31640625,-24.4140625,-41.50390625,-34.66796875,-36.62109375,-104.98046875,0.0
331.3203125,-31.73828125,-48.33984375,-35.64453125,-35.64453125,-79.58984375,0.0
331.32421875,-24.4140625,-43.45703125,-31.73828125,-38.0859375,-76.171875,0.0
331.328125,-10.7421875,-34.66796875,-28.80859375,-41.015625,-68.359375,0.0
331.33203125,-11.23046875,-31.73828125,-37.59765625,-36.1328125,-5.37109375,0.0
331.3359375,-19.04296875,-31.73828125,-35.15625,-32.71484375,-48.33984375,0.0
331.33984375,-35.64453125,-38.0859375,-37.109375,-42.48046875,-16.11328125,0.0
331.34375,-41.9921875,-49.8046875,-45.41015625,-55.6640625,30.2734375,0.0
331.34765625,-28.3203125,-51.7578125,-37.109375,-50.78125,71.77734375,0.0
331.3515625,-21.97265625,-40.0390625,-37.109375,-42.48046875,89.84375,0.0
331.35546875,-33.203125,-38.0859375,-35.15625,-36.62109375,5.37109375,0.0
331.359375,-51.26953125,-41.015625,-26.3671875,-39.55078125,-20.99609375,0.0
331.36328125,-48.828125,-47.36328125,-31.25,-40.0390625,19.53125,0.0
331.3671875,-27.83203125,-45.41015625,-29.78515625,-31.73828125,12.6953125,0.0
331.37109375,-15.13671875,-40.0390625,-35.64453125,-38.0859375,20.5078125,0.0
331.375,-15.625,-33.203125,-45.41015625,-42.48046875,44.921875,0.0
331.37890625,-17.08984375,-32.71484375,-41.9921875,-32.71484375,-10.25390625,0.0
331.3828125,-20.5078125,-40.0390625,-38.57421875,-33.69140625,-41.50390625,0.0
331.38671875,-7.8125,-38.57421875,-36.62109375,-38.0859375,17.578125,0.0
331.390625,11.71875,-29.78515625,-40.52734375,-33.203125,43.9453125,0.0
331.39453125,2.44140625,-27.83203125,-49.8046875,-29.296875,-32.2265625,0.0
331.3984375,-16.6015625,-33.203125,-48.33984375,-35.15625,-22.4609375,0.0
331.40234375,-26.3671875,-38.0859375,-32.2265625,-41.50390625,-35.64453125,0.0
331.40625,-19.04296875,-34.1796875,-22.4609375,-39.0625,-57.6171875,0.0
331.41015625,-10.25390625,-35.64453125,-22.4609375,-25.87890625,-12.20703125,0.0
331.4140625,-25.390625,-35.64453125,-27.34375,-18.06640625,-20.5078125,0.0
331.41796875,-43.9453125,-31.73828125,-29.78515625,-18.06640625,-28.80859375,0.0
331.421875,-53.7109375,-36.1328125,-32.71484375,-20.01953125,-32.2265625,0.0
331.42578125,-55.17578125,-42.96875,-41.015625,-30.76171875,-22.4609375,0.0
331.4296875,-52.24609375,-38.57421875,-31.73828125,-29.296875,-7.32421875,0.0
331.43359375,-56.15234375,-27.34375,-24.90234375,-28.80859375,10.25390625,0.0
331.4375,-68.359375,-28.80859375,-32.2265625,-38.0859375,-14.6484375,0.0
331.44140625,-77.1484375,-34.1796875,-33.69140625,-36.1328125,-46.38671875,0.0
331.4453125,-64.453125,-23.4375,-32.71484375,-32.71484375,-63.96484375,0.0
331.44921875,-58.10546875,-21.484375,-26.85546875,-41.50390625,-11.71875,0.0
331.453125,-57.12890625,-30.76171875,-23.4375,-37.109375,15.625,0.0
331.45703125,-62.5,-35.15625,-25.390625,-27.83203125,-79.58984375,0.0
331.4609375,-89.84375,-41.50390625,-33.203125,-32.71484375,-95.703125,0.0
331.46484375,-87.40234375,-44.921875,-35.15625,-32.2265625,-66.89453125,0.0
331.46875,-62.5,-36.62109375,-32.2265625,-31.73828125,-15.13671875,0.0
331.47265625,-45.8984375,-26.3671875,-35.15625,-30.2734375,32.71484375,0.0
331.4765625,-45.8984375,-27.83203125,-43.45703125,-32.2265625,-5.859375,0.0
331.48046875,-56.640625,-28.80859375,-38.0859375,-35.64453125,-8.7890625,0.0
331.484375,-65.4296875,-38.0859375,-35.64453125,-41.015625,4.8828125,0.0
331.48828125,-53.7109375,-43.45703125,-37.109375,-41.015625,9.765625,0.0
331.4921875,-25.87890625,-36.62109375,-27.34375,-23.4375,44.43359375,0.0
331.49609375,-28.80859375,-33.203125,-32.2265625,-19.53125,14.6484375,0.0
331.5,-47.36328125,-36.62109375,-30.2734375,-30.76171875,-61.03515625,0.0
331.50390625,-47.36328125,-45.41015625,-24.4140625,-41.015625,-134.27734375,0.0
331.5078125,-34.66796875,-45.41015625,-33.203125,-48.828125,-105.95703125,0.0
331.51171875,-31.25,-40.52734375,-34.66796875,-43.45703125,50.78125,0.0
331.515625,-34.1796875,-34.66796875,-29.296875,-35.64453125,29.296875,0.0
331.51953125,-35.15625,-32.2265625,-24.90234375,-31.25,-44.921875,0.0
331.5234375,-37.109375,-40.52734375,-33.203125,-42.96875,0.9765625,0.0
331.52734375,-25.87890625,-43.9453125,-40.0390625,-54.19921875,-55.6640625,0.0
331.53125,-13.18359375,-32.71484375,-39.0625,-43.45703125,-70.80078125,0.0
331.53515625,-6.8359375,-21.97265625,-23.92578125,-28.80859375,-32.2265625,0.0
331.5390625,-7.32421875,-19.53125,-0.48828125,-26.85546875,-72.75390625,0.0
331.54296875,-15.13671875,-29.296875,-16.11328125,-36.1328125,-65.4296875,0.0
331.546875,1.46484375,-36.1328125,-37.109375,-36.1328125,-50.29296875,0.0
331.55078125,18.06640625,-29.296875,-29.78515625,-28.3203125,-64.94140625,0.0
331.5546875,11.23046875,-21.97265625,-18.06640625,-20.99609375,-81.54296875,0.0
331.55859375,1.46484375,-25.390625,-16.6015625,-18.06640625,-88.37890625,0.0
331.5625,-6.34765625,-36.1328125,-22.94921875,-17.08984375,-17.08984375,0.0
331.56640625,-6.8359375,-44.921875,-28.80859375,-25.87890625,-36.62109375,0.0
331.5703125,1.953125,-41.50390625,-26.85546875,-28.80859375,-23.4375,0.0
331.57421875,0.9765625,-35.64453125,-29.296875,-18.06640625,-68.84765625,0.0
331.578125,-29.296875,-38.0859375,-35.15625,-21.97265625,-143.06640625,0.0
331.58203125,-59.08203125,-39.55078125,-29.78515625,-38.57421875,-74.21875,0.0
331.5859375,-48.828125,-35.15625,-29.296875,-42.96875,-70.80078125,0.0
331.58984375,-25.87890625,-27.34375,-33.203125,-28.80859375,-90.33203125,0.0
331.59375,-22.94921875,-20.5078125,-27.83203125,-25.390625,-58.10546875,0.0
331.59765625,-29.296875,-23.92578125,-16.11328125,-25.87890625,-63.4765625,0.0
331.6015625,-40.0390625,-29.78515625,-18.06640625,-29.78515625,-49.8046875,0.0
331.60546875,-32.71484375,-27.83203125,-31.25,-34.1796875,-31.73828125,0.0
331.609375,-19.53125,-25.87890625,-24.4140625,-27.34375,-66.89453125,0.0
331.61328125,-15.13671875,-20.5078125,-12.20703125,-16.6015625,14.6484375,0.0
331.6171875,-27.83203125,-25.390625,-22.94921875,-14.16015625,22.4609375,0.0
331.62109375,-49.8046875,-38.0859375,-35.15625,-29.296875,-68.84765625,0.0
331.625,-44.921875,-36.1328125,-28.3203125,-35.15625,-119.140625,0.0
331.62890625,-35.64453125,-28.3203125,-22.94921875,-34.1796875,-125.48828125,0.0
331.6328125,-34.1796875,-28.3203125,-32.71484375,-28.3203125,-56.640625,0.0
331.63671875,-35.15625,-36.62109375,-42.96875,-29.296875,-63.4765625,0.0
331.640625,-44.43359375,-30.76171875,-49.8046875,-37.59765625,-105.46875,0.0
331.64453125,-41.9921875,-20.99609375,-34.66796875,-36.62109375,-63.4765625,0.0
331.6484375,-24.90234375,-24.4140625,-24.90234375,-31.25,-24.90234375,0.0
331.65234375,-9.27734375,-23.4375,-20.99609375,-26.85546875,-45.8984375,0.0
331.65625,-14.6484375,-22.4609375,-21.97265625,-23.92578125,-34.1796875,0.0
331.66015625,-30.76171875,-28.80859375,-33.203125,-28.80859375,-44.43359375,0.0
331.6640625,-30.76171875,-30.76171875,-36.62109375,-38.57421875,-165.52734375,0.0
331.66796875,-29.296875,-33.203125,-38.57421875,-43.9453125,-250.9765625,0.0
331.671875,-25.390625,-30.76171875,-26.85546875,-43.45703125,-116.69921875,0.0
331.67578125,-23.92578125,-30.2734375,-23.92578125,-35.64453125,-40.0390625,0.0
331.6796875,-33.203125,-36.62109375,-33.203125,-32.2265625,-95.21484375,0.0
331.68359375,-30.76171875,-35.64453125,-34.1796875,-26.85546875,-25.87890625,0.0
331.6875,-18.5546875,-28.80859375,-33.69140625,-20.01953125,45.41015625,0.0
331.69140625,-20.99609375,-21.484375,-29.78515625,-23.4375,-33.203125,0.0
331.6953125,-38.57421875,-26.3671875,-31.25,-33.203125,-47.36328125,0.0
331.69921875,-44.921875,-28.3203125,-30.2734375,-33.69140625,-71.2890625,0.0
331.703125,-48.828125,-31.73828125,-28.3203125,-32.71484375,-132.32421875,0.0
331.70703125,-46.38671875,-34.66796875,-24.90234375,-29.296875,-108.3984375,0.0
331.7109375,-42.48046875,-31.73828125,-29.78515625,-21.97265625,-35.15625,0.0
331.71484375,-43.45703125,-32.71484375,-32.2265625,-24.4140625,-134.765625,0.0
331.71875,-59.5703125,-40.52734375,-37.109375,-35.15625,-188.96484375,0.0
331.72265625,-75.1953125,-47.36328125,-40.52734375,-39.0625,-20.01953125,0.0
331.7265625,-56.15234375,-39.55078125,-28.80859375,-27.83203125,95.21484375,0.0
331.73046875,-31.25,-28.80859375,-21.97265625,-21.97265625,128.90625,0.0
331.734375,-30.2734375,-25.87890625,-33.203125,-37.109375,89.84375,0.0
331.73828125,-47.8515625,-31.73828125,-45.8984375,-42.48046875,45.8984375,0.0
331.7421875,-59.5703125,-34.66796875,-38.57421875,-38.57421875,21.484375,0.0
331.74609375,-56.15234375,-28.80859375,-31.25,-36.62109375,20.99609375,0.0
331.75,-42.48046875,-24.90234375,-34.1796875,-33.203125,-14.6484375,0.0
331.75390625,-33.69140625,-20.01953125,-28.3203125,-21.97265625,63.4765625,0.0
331.7578125,-43.9453125,-24.4140625,-26.3671875,-20.5078125,46.38671875,0.0
331.76171875,-46.875,-34.1796875,-27.83203125,-26.85546875,-114.2578125,0.0
331.765625,-40.52734375,-37.59765625,-25.87890625,-25.87890625,-96.6796875,0.0
331.76953125,-40.52734375,-34.66796875,-38.57421875,-31.25,-16.11328125,0.0
331.7734375,-45.41015625,-30.2734375,-40.0390625,-29.296875,-51.7578125,0.0
331.77734375,-58.59375,-28.80859375,-26.85546875,-18.5546875,-86.9140625,0.0
331.78125,-74.70703125,-33.69140625,-30.2734375,-23.92578125,-37.59765625,0.0
331.78515625,-67.3828125,-37.59765625,-41.50390625,-32.2265625,-77.1484375,0.0
331.7890625,-47.8515625,-31.25,-42.96875,-31.25,-97.16796875,0.0
331.79296875,-38.0859375,-24.90234375,-33.69140625,-31.25,-59.08203125,0.0
331.796875,-44.921875,-20.99609375,-22.4609375,-33.203125,-120.1171875,0.0
331.80078125,-54.6875,-23.92578125,-20.5078125,-39.0625,-152.83203125,0.0
331.8046875,-50.78125,-20.99609375,-22.4609375,-40.0390625,-91.796875,0.0
331.80859375,-44.43359375,-17.08984375,-24.4140625,-36.62109375,-41.015625,0.0
331.8125,-39.55078125,-22.4609375,-31.73828125,-34.1796875,-9.27734375,0.0
331.81640625,-43.45703125,-23.92578125,-29.296875,-26.85546875,-45.8984375,0.0
331.8203125,-68.359375,-26.3671875,-25.390625,-31.25,-134.27734375,0.0
331.82421875,-72.265625,-35.15625,-34.1796875,-34.66796875,-103.02734375,0.0
331.828125,-45.8984375,-38.57421875,-34.66796875,-31.73828125,-0.48828125,0.0
331.83203125,-36.62109375,-34.1796875,-27.34375,-30.2734375,46.875,0.0
331.8359375,-41.015625,-31.25,-16.6015625,-16.6015625,-63.96484375,0.0
331.83984375,-47.36328125,-33.203125,-19.53125,-12.6953125,-89.35546875,0.0
331.84375,-54.6875,-40.0390625,-40.0390625,-28.3203125,-13.18359375,0.0
331.84765625,-41.015625,-37.59765625,-40.0390625,-32.71484375,-19.04296875,0.0
331.8515625,-30.2734375,-31.73828125,-31.73828125,-32.2265625,-41.9921875,0.0
331.85546875,-40.0390625,-28.3203125,-20.5078125,-20.99609375,-13.671875,0.0
331.859375,-55.17578125,-30.2734375,-22.94921875,-16.11328125,23.4375,0.0
331.86328125,-58.10546875,-34.1796875,-34.66796875,-34.1796875,125.0,0.0
331.8671875,-41.9921875,-34.66796875,-32.2265625,-40.52734375,63.96484375,0.0
331.87109375,-30.2734375,-35.64453125,-28.80859375,-36.62109375,-5.859375,0.0
331.875,-37.109375,-34.1796875,-25.390625,-25.87890625,20.01953125,0.0
331.87890625,-56.15234375,-37.59765625,-20.5078125,-22.94921875,-33.69140625,0.0
331.8828125,-53.7109375,-40.0390625,-25.390625,-31.25,-39.55078125,0.0
331.88671875,-35.15625,-37.109375,-25.87890625,-34.1796875,-31.25,0.0
331.890625,-30.76171875,-30.76171875,-27.83203125,-33.203125,-23.4375,0.0
331.89453125,-41.50390625,-26.3671875,-37.109375,-27.83203125,27.34375,0.0
331.8984375,-54.6875,-31.73828125,-38.0859375,-34.1796875,21.484375,0.0
331.90234375,-57.6171875,-33.69140625,-37.109375,-38.57421875,-66.40625,0.0
331.90625,-43.45703125,-31.73828125,-36.1328125,-33.69140625,-89.35546875,0.0
331.91015625,-27.34375,-34.1796875,-35.64453125,-36.1328125,-4.8828125,0.0
331.9140625,-30.2734375,-36.1328125,-29.296875,-37.109375,-61.03515625,0.0
331.91796875,-40.52734375,-37.59765625,-37.109375,-38.0859375,-177.734375,0.0
331.921875,-49.31640625,-40.52734375,-40.0390625,-42.48046875,-200.68359375,0.0
331.92578125,-55.17578125,-40.0390625,-31.73828125,-50.78125,-199.21875,0.0
331.9296875,-46.875,-33.69140625,-29.296875,-50.29296875,-161.62109375,0.0
331.93359375,-54.19921875,-32.2265625,-20.01953125,-40.0390625,-27.83203125,0.0
331.9375,-73.2421875,-42.48046875,-19.53125,-39.0625,58.10546875,0.0
331.94140625,-78.125,-47.8515625,-23.4375,-48.828125,-40.0390625,0.0
331.9453125,-65.91796875,-42.96875,-17.578125,-47.8515625,-53.7109375,0.0
331.94921875,-56.15234375,-40.52734375,-13.671875,-49.31640625,-103.02734375,0.0
331.953125,-54.6875,-44.921875,-16.6015625,-45.41015625,-148.4375,0.0
331.95703125,-54.19921875,-46.38671875,-8.7890625,-35.64453125,-13.18359375,0.0
331.9609375,-66.40625,-46.875,-10.25390625,-44.921875,72.265625,0.0
331.96484375,-59.5703125,-49.8046875,-20.01953125,-47.36328125,0.0,0.0
331.96875,-36.62109375,-42.96875,-21.97265625,-41.50390625,-4.39453125,0.0
331.97265625,-30.2734375,-37.109375,-32.71484375,-41.015625,61.5234375,0.0
331.9765625,-41.015625,-35.15625,-36.62109375,-33.203125,56.640625,0.0
331.98046875,-56.640625,-43.9453125,-30.76171875,-38.57421875,25.87890625,0.0
331.984375,-56.15234375,-47.8515625,-37.59765625,-52.24609375,-27.34375,0.0
331.98828125,-41.9921875,-41.9921875,-35.64453125,-54.19921875,-18.06640625,0.0
331.9921875,-33.69140625,-38.0859375,-23.4375,-46.38671875,58.10546875,0.0
331.99609375,-45.41015625,-38.57421875,-27.83203125,-35.64453125,109.375,0.0
332.0,-46.875,-42.48046875,-28.3203125,-36.62109375,91.30859375,0.0
332.00390625,-35.15625,-44.43359375,-23.4375,-37.109375,-9.765625,0.0
332.0078125,-34.1796875,-40.0390625,-27.83203125,-39.0625,-71.77734375,0.0
332.01171875,-23.4375,-24.4140625,-26.85546875,-35.15625,-23.92578125,0.0
332.015625,-21.484375,-24.90234375,-30.2734375,-24.4140625,-15.13671875,0.0
332.01953125,-34.66796875,-39.55078125,-40.52734375,-33.203125,-12.20703125,0.0
332.0234375,-42.96875,-41.9921875,-33.69140625,-41.015625,11.71875,0.0
332.02734375,-41.015625,-38.0859375,-33.69140625,-40.52734375,-30.76171875,0.0
332.03125,-32.2265625,-34.1796875,-41.015625,-42.96875,-21.484375,0.0
332.03515625,-33.203125,-36.1328125,-42.96875,-43.45703125,15.13671875,0.0
332.0390625,-43.45703125,-40.52734375,-43.9453125,-49.8046875,19.53125,0.0
332.04296875,-44.43359375,-42.96875,-37.59765625,-52.734375,-41.9921875,0.0
332.046875,-30.2734375,-37.59765625,-25.87890625,-45.41015625,-60.546875,0.0
332.05078125,-22.94921875,-40.52734375,-24.90234375,-44.921875,-29.78515625,0.0
332.0546875,-30.76171875,-42.96875,-28.3203125,-42.48046875,-27.83203125,0.0
332.05859375,-47.8515625,-37.59765625,-31.25,-38.0859375,-78.125,0.0
332.0625,-60.05859375,-40.52734375,-38.0859375,-39.0625,-10.25390625,0.0
332.06640625,-51.26953125,-45.41015625,-40.0390625,-47.36328125,101.5625,0.0
332.0703125,-33.203125,-35.64453125,-37.109375,-42.48046875,40.52734375,0.0
332.07421875,-27.83203125,-28.80859375,-31.73828125,-33.203125,-35.64453125,0.0
332.078125,-44.43359375,-26.3671875,-25.87890625,-31.73828125,53.7109375,0.0
332.08203125,-51.7578125,-31.25,-36.1328125,-34.1796875,29.296875,0.0
332.0859375,-37.109375,-39.0625,-43.9453125,-37.109375,-55.6640625,0.0
332.08984375,-16.6015625,-38.57421875,-38.0859375,-29.296875,20.99609375,0.0
332.09375,-8.30078125,-36.1328125,-22.4609375,-28.3203125,43.45703125,0.0
332.09765625,-22.4609375,-29.296875,-16.11328125,-27.83203125,-18.06640625,0.0
332.1015625,-34.1796875,-30.76171875,-32.71484375,-33.203125,-29.296875,0.0
332.10546875,-29.78515625,-38.57421875,-32.71484375,-41.015625,-2.44140625,0.0
332.109375,-18.06640625,-35.64453125,-28.80859375,-39.0625,15.625,0.0
332.11328125,-17.578125,-27.83203125,-28.80859375,-34.66796875,2.44140625,0.0
332.1171875,-32.2265625,-31.25,-30.2734375,-33.203125,-70.80078125,0.0
332.12109375,-42.96875,-45.8984375,-36.1328125,-42.96875,-105.46875,0.0
332.125,-34.1796875,-43.9453125,-31.25,-44.43359375,-14.6484375,0.0
332.12890625,-18.06640625,-38.0859375,-28.80859375,-42.48046875,37.59765625,0.0
332.1328125,-12.20703125,-31.25,-30.2734375,-36.1328125,17.08984375,0.0
332.13671875,-25.390625,-28.3203125,-28.3203125,-27.83203125,-13.18359375,0.0
332.140625,-34.66796875,-37.59765625,-40.52734375,-31.73828125,28.80859375,0.0
332.14453125,-40.0390625,-40.52734375,-41.015625,-36.62109375,25.87890625,0.0
332.1484375,-40.52734375,-32.2265625,-30.76171875,-32.2265625,-21.97265625,0.0
332.15234375,-34.1796875,-25.87890625,-32.2265625,-21.97265625,41.9921875,0.0
332.15625,-41.9921875,-25.87890625,-25.390625,-17.08984375,29.296875,0.0
332.16015625,-52.734375,-33.203125,-24.4140625,-25.87890625,-51.26953125,0.0
332.1640625,-47.36328125,-37.109375,-21.484375,-36.62109375,-31.25,0.0
332.16796875,-31.73828125,-29.78515625,-22.4609375,-30.2734375,-2.44140625,0.0
332.171875,-28.3203125,-34.66796875,-31.25,-24.4140625,-1.46484375,0.0
332.17578125,-37.109375,-45.41015625,-35.15625,-25.390625,-5.859375,0.0
332.1796875,-46.38671875,-41.50390625,-23.92578125,-20.5078125,-6.8359375,0.0
332.18359375,-45.41015625,-41.9921875,-22.4609375,-21.97265625,-11.23046875,0.0
332.1875,-40.52734375,-47.8515625,-35.64453125,-26.3671875,-42.96875,0.0
332.19140625,-29.296875,-41.50390625,-38.0859375,-23.4375,-49.31640625,0.0
332.1953125,-22.94921875,-35.15625,-30.76171875,-20.99609375,-75.68359375,0.0
332.19921875,-34.1796875,-37.59765625,-22.4609375,-20.99609375,-96.19140625,0.0
332.203125,-41.9921875,-39.55078125,-29.296875,-27.83203125,-75.68359375,0.0
332.20703125,-30.76171875,-37.109375,-34.1796875,-33.203125,-46.875,0.0
332.2109375,-10.25390625,-31.73828125,-37.109375,-27.83203125,-3.41796875,0.0
332.21484375,-3.41796875,-25.87890625,-30.2734375,-19.53125,4.8828125,0.0
332.21875,-12.6953125,-25.390625,-21.484375,-11.23046875,-26.85546875,0.0
332.22265625,-29.296875,-35.64453125,-27.34375,-20.5078125,-94.23828125,0.0
332.2265625,-33.69140625,-39.0625,-25.390625,-31.73828125,-145.5078125,0.0
332.23046875,-17.08984375,-29.296875,-25.390625,-23.4375,-89.35546875,0.0
332.234375,-16.6015625,-17.578125,-32.71484375,-15.13671875,-26.3671875,0.0
332.23828125,-34.1796875,-20.01953125,-32.2265625,-24.90234375,-128.90625,0.0
332.2421875,-35.15625,-30.76171875,-22.94921875,-27.83203125,-113.28125,0.0
332.24609375,-24.4140625,-32.71484375,-26.3671875,-24.4140625,-38.0859375,0.0
332.25,-16.11328125,-25.87890625,-29.78515625,-20.01953125,-70.80078125,0.0
332.25390625,-15.625,-19.04296875,-20.01953125,-13.18359375,-91.30859375,0.0
332.2578125,-23.92578125,-20.5078125,-14.6484375,-19.53125,-139.6484375,0.0
332.26171875,-45.41015625,-42.96875,-33.203125,-40.0390625,-138.671875,0.0
332.265625,-47.8515625,-45.8984375,-38.57421875,-48.33984375,-91.30859375,0.0
332.26953125,-24.90234375,-25.390625,-26.85546875,-37.109375,-62.5,0.0
332.2734375,-17.578125,-18.5546875,-22.4609375,-23.4375,-33.69140625,0.0
332.27734375,-42.48046875,-28.80859375,-26.85546875,-27.34375,-51.7578125,0.0
332.28125,-50.78125,-37.109375,-35.64453125,-38.57421875,-92.7734375,0.0
332.28515625,-35.15625,-33.69140625,-25.87890625,-37.109375,-167.48046875,0.0
332.2890625,-20.99609375,-28.3203125,-15.13671875,-32.71484375,-112.79296875,0.0
332.29296875,-21.484375,-31.73828125,-26.85546875,-42.96875,-41.015625,0.0
332.296875,-36.62109375,-35.64453125,-33.69140625,-48.33984375,-133.7890625,0.0
332.30078125,-48.828125,-34.66796875,-32.71484375,-50.29296875,-260.7421875,0.0
332.3046875,-51.26953125,-33.203125,-37.59765625,-60.05859375,-205.56640625,0.0
332.30859375,-40.0390625,-30.2734375,-31.73828125,-52.734375,-110.3515625,0.0
332.3125,-37.109375,-23.92578125,-32.2265625,-41.9921875,-53.7109375,0.0
332.31640625,-47.36328125,-25.390625,-39.0625,-42.48046875,-45.41015625,0.0
332.3203125,-53.22265625,-32.71484375,-32.2265625,-44.921875,-92.28515625,0.0
332.32421875,-62.5,-41.9921875,-40.52734375,-50.29296875,-142.08984375,0.0
332.328125,-54.19921875,-38.57421875,-46.38671875,-52.734375,-183.10546875,0.0
332.33203125,-39.55078125,-26.85546875,-17.08984375,-44.921875,-183.10546875,0.0
332.3359375,-41.50390625,-22.4609375,-2.9296875,-36.1328125,-162.109375,0.0
332.33984375,-45.8984375,-21.97265625,-24.90234375,-40.0390625,-100.5859375,0.0
332.34375,-51.26953125,-24.4140625,-33.69140625,-48.828125,-84.9609375,0.0
332.34765625,-40.52734375,-21.97265625,-32.71484375,-45.41015625,-86.9140625,0.0
332.3515625,-23.4375,-19.04296875,-37.109375,-39.55078125,-74.70703125,0.0
332.35546875,-32.71484375,-22.94921875,-38.0859375,-33.69140625,-107.91015625,0.0
332.359375,-57.6171875,-37.109375,-36.1328125,-42.96875,-7.32421875,0.0
332.36328125,-65.4296875,-46.38671875,-37.59765625,-41.015625,27.83203125,0.0
332.3671875,-41.9921875,-29.296875,-33.203125,-22.4609375,-27.83203125,0.0
332.37109375,-28.3203125,-17.578125,-35.64453125,-24.90234375,53.22265625,0.0
332.375,-47.36328125,-25.87890625,-44.43359375,-40.52734375,120.60546875,0.0
332.37890625,-46.38671875,-24.90234375,-17.578125,-30.2734375,47.36328125,0.0
332.3828125,-43.9453125,-31.25,-8.7890625,-25.390625,-34.1796875,0.0
332.38671875,-46.875,-39.0625,-31.25,-36.1328125,-24.90234375,0.0
332.390625,-22.94921875,-30.2734375,-28.80859375,-34.1796875,9.765625,0.0
332.39453125,-28.80859375,-23.92578125,-26.85546875,-28.3203125,75.68359375,0.0
332.3984375,-50.78125,-29.296875,-32.2265625,-28.3203125,108.88671875,0.0
332.40234375,-41.9921875,-32.2265625,-30.2734375,-33.69140625,13.18359375,0.0
332.40625,-28.80859375,-32.2265625,-39.0625,-36.1328125,-22.4609375,0.0
332.41015625,-23.4375,-27.34375,-37.59765625,-30.76171875,36.62109375,0.0
332.4140625,-28.80859375,-23.4375,-30.76171875,-32.2265625,42.96875,0.0
332.41796875,-30.2734375,-22.4609375,-41.9921875,-34.66796875,64.453125,0.0
332.421875,-36.62109375,-27.34375,-41.50390625,-33.203125,36.62109375,0.0
332.42578125,-46.38671875,-35.15625,-30.76171875,-34.1796875,-34.1796875,0.0
332.4296875,-34.66796875,-32.71484375,-35.64453125,-28.3203125,-1.46484375,0.0
332.43359375,-13.671875,-22.4609375,-30.2734375,-16.11328125,12.20703125,0.0
332.4375,-25.390625,-21.484375,-16.11328125,-16.11328125,-21.97265625,0.0
332.44140625,-41.015625,-29.296875,-20.01953125,-23.92578125,-77.1484375,0.0
332.4453125,-33.203125,-31.25,-21.484375,-25.390625,-158.69140625,0.0
332.44921875,-26.3671875,-29.296875,-27.34375,-30.2734375,-84.9609375,0.0
332.453125,-20.99609375,-28.80859375,-33.203125,-30.76171875,65.91796875,0.0
332.45703125,-34.1796875,-29.296875,-30.76171875,-31.73828125,108.88671875,0.0
332.4609375,-52.734375,-29.296875,-40.0390625,-35.64453125,-13.18359375,0.0
332.46484375,-48.33984375,-28.3203125,-42.48046875,-31.25,-60.546875,0.0
332.46875,-27.34375,-30.76171875,-18.06640625,-28.3203125,33.69140625,0.0
332.47265625,-22.94921875,-37.109375,-22.94921875,-31.73828125,33.69140625,0.0
332.4765625,-42.48046875,-36.62109375,-39.0625,-28.80859375,37.109375,0.0
332.48046875,-53.7109375,-34.66796875,-29.296875,-27.83203125,-0.48828125,0.0
332.484375,-42.96875,-33.69140625,-25.87890625,-28.3203125,7.8125,0.0
332.48828125,-32.71484375,-33.203125,-29.296875,-31.73828125,9.27734375,0.0
332.4921875,-24.90234375,-27.83203125,-31.73828125,-29.78515625,-44.921875,0.0
332.49609375,-31.73828125,-24.4140625,-27.83203125,-24.90234375,-24.4140625,0.0
332.5,-51.26953125,-31.25,-25.390625,-33.203125,22.94921875,0.0
332.50390625,-54.19921875,-41.9921875,-35.15625,-47.8515625,62.98828125,0.0
332.5078125,-38.57421875,-42.48046875,-38.0859375,-54.19921875,-5.37109375,0.0
332.51171875,-29.296875,-35.64453125,-28.3203125,-52.734375,-40.52734375,0.0
332.515625,-35.64453125,-27.34375,-24.4140625,-48.828125,42.96875,0.0
332.51953125,-42.48046875,-28.3203125,-30.2734375,-40.0390625,48.828125,0.0
332.5234375,-42.96875,-30.76171875,-33.203125,-33.203125,-56.15234375,0.0
332.52734375,-30.76171875,-26.85546875,-26.85546875,-29.78515625,-86.42578125,0.0
332.53125,-24.4140625,-28.3203125,-18.5546875,-34.1796875,-65.4296875,0.0
332.53515625,-27.83203125,-24.90234375,-20.5078125,-34.1796875,-115.72265625,0.0
332.5390625,-24.90234375,-20.01953125,-24.90234375,-21.484375,-196.2890625,0.0
332.54296875,-30.76171875,-23.92578125,-33.69140625,-22.4609375,-253.90625,0.0
332.546875,-31.25,-21.484375,-38.0859375,-27.34375,-214.84375,0.0
332.55078125,-10.7421875,-16.6015625,-34.1796875,-13.18359375,-100.09765625,0.0
332.5546875,-10.7421875,-25.87890625,-31.73828125,-7.32421875,-149.90234375,0.0
332.55859375,-35.15625,-37.59765625,-24.4140625,-19.53125,-100.09765625,0.0
332.5625,-41.50390625,-40.0390625,-29.296875,-26.3671875,55.17578125,0.0
332.56640625,-35.64453125,-39.55078125,-37.109375,-25.87890625,97.16796875,0.0
332.5703125,-29.296875,-31.73828125,-22.4609375,-24.90234375,117.67578125,0.0
332.57421875,-17.578125,-18.5546875,-20.99609375,-15.13671875,138.671875,0.0
332.578125,-26.85546875,-19.53125,-41.015625,-14.16015625,118.1640625,0.0
332.58203125,-44.43359375,-30.2734375,-47.8515625,-30.76171875,-29.296875,0.0
332.5859375,-30.76171875,-27.83203125,-38.0859375,-34.1796875,-39.55078125,0.0
332.58984375,-5.37109375,-26.85546875,-33.69140625,-23.92578125,79.1015625,0.0
332.59375,1.953125,-22.4609375,-27.83203125,-14.16015625,87.40234375,0.0
332.59765625,-18.06640625,-18.06640625,-25.390625,-10.7421875,15.13671875,0.0
332.6015625,-41.50390625,-37.59765625,-37.109375,-21.484375,-139.16015625,0.0
332.60546875,-33.203125,-44.43359375,-36.1328125,-27.34375,-202.1484375,0.0
332.609375,-12.6953125,-37.109375,-26.85546875,-24.4140625,-169.921875,0.0
332.61328125,-10.25390625,-39.55078125,-25.87890625,-27.34375,-158.69140625,0.0
332.6171875,-34.1796875,-40.52734375,-23.92578125,-33.69140625,-200.1953125,0.0
332.62109375,-44.921875,-36.1328125,-35.15625,-35.64453125,-225.5859375,0.0
332.625,-33.69140625,-31.25,-41.9921875,-34.1796875,-125.9765625,0.0
332.62890625,-22.94921875,-33.203125,-28.80859375,-33.69140625,-128.41796875,0.0
332.6328125,-11.23046875,-32.71484375,-22.94921875,-32.2265625,-178.7109375,0.0
332.63671875,-26.3671875,-29.78515625,-31.73828125,-33.203125,-195.3125,0.0
332.640625,-44.921875,-22.94921875,-34.1796875,-32.71484375,-200.68359375,0.0
332.64453125,-42.96875,-23.92578125,-30.76171875,-35.64453125,-133.30078125,0.0
332.6484375,-28.3203125,-24.90234375,-29.296875,-38.0859375,-56.15234375,0.0
332.65234375,-17.578125,-27.34375,-30.2734375,-34.66796875,-23.92578125,0.0
332.65625,-27.34375,-30.2734375,-23.92578125,-27.83203125,-30.2734375,0.0
332.66015625,-41.015625,-33.69140625,-22.4609375,-28.3203125,-76.171875,0.0
332.6640625,-51.26953125,-51.26953125,-31.73828125,-44.921875,-118.1640625,0.0
332.66796875,-33.69140625,-51.7578125,-39.55078125,-46.38671875,-98.6328125,0.0
332.671875,-21.97265625,-36.62109375,-41.015625,-33.69140625,-72.265625,0.0
332.67578125,-33.203125,-31.73828125,-31.25,-35.15625,-94.7265625,0.0
332.6796875,-41.50390625,-30.76171875,-28.3203125,-33.69140625,-122.0703125,0.0
332.68359375,-37.59765625,-27.83203125,-26.3671875,-33.203125,-122.0703125,0.0
332.6875,-27.83203125,-25.87890625,-32.2265625,-41.50390625,-125.9765625,0.0
332.69140625,-23.92578125,-26.3671875,-34.1796875,-32.2265625,-3.90625,0.0
332.6953125,-25.87890625,-26.85546875,-25.87890625,-26.85546875,71.77734375,0.0
332.69921875,-33.203125,-34.66796875,-35.15625,-39.55078125,-48.33984375,0.0
332.703125,-41.50390625,-38.0859375,-32.2265625,-38.0859375,-104.00390625,0.0
332.70703125,-37.59765625,-42.48046875,-36.62109375,-43.9453125,-61.5234375,0.0
332.7109375,-28.3203125,-42.48046875,-41.9921875,-45.8984375,-33.203125,0.0
332.71484375,-32.71484375,-28.80859375,-26.3671875,-27.34375,-10.25390625,0.0
332.71875,-52.24609375,-29.296875,-35.64453125,-26.3671875,-66.40625,0.0
332.72265625,-52.734375,-37.109375,-43.45703125,-36.1328125,-36.62109375,0.0
332.7265625,-41.015625,-34.66796875,-31.25,-34.1796875,-17.08984375,0.0
332.73046875,-32.2265625,-30.76171875,-23.92578125,-32.2265625,-52.24609375,0.0
332.734375,-16.6015625,-20.99609375,-21.484375,-23.92578125,-28.3203125,0.0
332.73828125,-24.90234375,-29.78515625,-30.76171875,-20.01953125,-98.14453125,0.0
332.7421875,-37.109375,-42.96875,-40.52734375,-21.97265625,-121.09375,0.0
332.74609375,-19.04296875,-31.25,-36.1328125,-21.484375,3.41796875,0.0
332.75,-9.27734375,-31.25,-32.2265625,-21.484375,44.43359375,0.0
332.75390625,-11.71875,-32.71484375,-24.4140625,-11.71875,-7.32421875,0.0
332.7578125,-16.6015625,-25.87890625,-23.4375,-7.8125,-47.36328125,0.0
332.76171875,-28.3203125,-32.2265625,-30.2734375,-17.08984375,-89.35546875,0.0
332.765625,-23.92578125,-30.76171875,-31.25,-24.90234375,-49.8046875,0.0
332.76953125,-17.578125,-30.76171875,-38.0859375,-32.2265625,-42.96875,0.0
332.7734375,-14.6484375,-25.87890625,-43.9453125,-28.80859375,-15.13671875,0.0
332.77734375,-20.99609375,-15.13671875,-42.48046875,-19.53125,117.1875,0.0
332.78125,-34.1796875,-29.296875,-34.1796875,-21.484375,125.48828125,0.0
332.78515625,-35.15625,-45.41015625,-40.0390625,-35.64453125,100.5859375,0.0
332.7890625,-21.484375,-39.0625,-32.2265625,-33.203125,58.10546875,0.0
332.79296875,-0.9765625,-26.3671875,-11.23046875,-12.20703125,42.96875,0.0
332.796875,-14.16015625,-28.3203125,-8.7890625,-14.16015625,36.62109375,0.0
332.80078125,-32.2265625,-31.25,-15.13671875,-17.08984375,15.625,0.0
332.8046875,-28.80859375,-26.3671875,-19.53125,-14.6484375,10.7421875,0.0
332.80859375,-19.04296875,-22.94921875,-19.04296875,-19.04296875,59.08203125,0.0
332.8125,-8.7890625,-19.53125,-21.97265625,-16.6015625,168.45703125,0.0
332.81640625,-11.23046875,-20.5078125,-25.87890625,-12.6953125,136.23046875,0.0
332.8203125,-10.25390625,-21.484375,-24.90234375,-7.8125,66.89453125,0.0
332.82421875,-16.6015625,-27.34375,-30.2734375,-17.08984375,1.953125,0.0
332.828125,-16.6015625,-36.1328125,-37.109375,-25.87890625,54.19921875,0.0
332.83203125,2.44140625,-27.34375,-39.0625,-15.13671875,120.1171875,0.0
332.8359375,-8.30078125,-20.5078125,-28.3203125,-8.7890625,33.69140625,0.0
332.83984375,-30.2734375,-24.4140625,-11.23046875,-16.11328125,22.4609375,0.0
332.84375,-32.71484375,-31.73828125,-13.18359375,-30.2734375,41.50390625,0.0
332.84765625,-21.484375,-30.2734375,-29.296875,-34.66796875,41.015625,0.0
332.8515625,-19.04296875,-29.296875,-30.76171875,-31.25,-5.37109375,0.0
332.85546875,-32.71484375,-40.52734375,-27.83203125,-32.71484375,-42.96875,0.0
332.859375,-42.48046875,-47.8515625,-32.71484375,-33.203125,-15.625,0.0
332.86328125,-40.52734375,-41.50390625,-37.109375,-39.0625,-6.8359375,0.0
332.8671875,-23.92578125,-28.3203125,-37.59765625,-40.52734375,12.20703125,0.0
332.87109375,-3.90625,-21.484375,-35.15625,-36.1328125,53.7109375,0.0
332.875,-7.8125,-25.390625,-33.203125,-31.73828125,69.3359375,0.0
332.87890625,-24.90234375,-29.78515625,-31.73828125,-26.85546875,22.4609375,0.0
332.8828125,-21.97265625,-21.484375,-30.2734375,-26.3671875,-12.6953125,0.0
332.88671875,-14.6484375,-24.4140625,-10.7421875,-27.83203125,-34.66796875,0.0
332.890625,-1.46484375,-30.76171875,0.9765625,-24.4140625,-49.31640625,0.0
332.89453125,-7.32421875,-30.2734375,-24.4140625,-26.3671875,27.34375,0.0
332.8984375,-27.83203125,-30.76171875,-33.203125,-28.3203125,57.12890625,0.0
332.90234375,-23.92578125,-26.3671875,-32.71484375,-26.85546875,-23.92578125,0.0
332.90625,-20.99609375,-26.3671875,-30.76171875,-26.3671875,-25.390625,0.0
332.91015625,-14.6484375,-23.92578125,-28.80859375,-26.85546875,30.76171875,0.0
332.9140625,-15.625,-22.4609375,-30.2734375,-28.3203125,27.83203125,0.0
332.91796875,-38.0859375,-30.76171875,-33.69140625,-36.62109375,-25.87890625,0.0
332.921875,-40.0390625,-37.59765625,-41.9921875,-40.0390625,30.2734375,0.0
332.92578125,-28.80859375,-37.59765625,-54.19921875,-41.50390625,-1.46484375,0.0
332.9296875,-20.5078125,-35.15625,-34.1796875,-37.59765625,-54.19921875,0.0
332.93359375,-26.3671875,-30.76171875,-20.5078125,-35.64453125,-80.078125,0.0
332.9375,-39.55078125,-28.3203125,-24.90234375,-31.73828125,-112.3046875,0.0
332.94140625,-39.0625,-34.66796875,-28.3203125,-24.4140625,-120.60546875,0.0
332.9453125,-24.90234375,-32.71484375,-31.73828125,-30.76171875,-98.6328125,0.0
332.94921875,-26.85546875,-36.62109375,-20.01953125,-31.73828125,-75.1953125,0.0
332.953125,-31.73828125,-38.0859375,-26.3671875,-27.34375,-61.03515625,0.0
332.95703125,-27.83203125,-31.73828125,-26.85546875,-27.83203125,-57.6171875,0.0
332.9609375,-37.59765625,-31.25,-30.76171875,-32.2265625,-67.3828125,0.0
332.96484375,-41.015625,-34.1796875,-38.57421875,-40.0390625,6.34765625,0.0
332.96875,-32.71484375,-41.9921875,-38.0859375,-42.96875,82.03125,0.0
332.97265625,-23.92578125,-43.9453125,-31.73828125,-33.203125,-17.578125,0.0
332.9765625,-23.92578125,-37.109375,-28.80859375,-26.3671875,-179.6875,0.0
332.98046875,-30.76171875,-33.203125,-28.80859375,-24.90234375,-226.07421875,0.0
332.984375,-29.78515625,-35.15625,-28.80859375,-30.2734375,-102.5390625,0.0
332.98828125,-22.4609375,-35.64453125,-37.109375,-34.66796875,26.85546875,0.0
332.9921875,-21.484375,-41.9921875,-32.71484375,-36.62109375,-26.3671875,0.0
332.99609375,-32.2265625,-48.828125,-36.62109375,-43.45703125,-70.3125,0.0
333.0,-42.96875,-43.9453125,-46.38671875,-44.921875,10.7421875,0.0
333.00390625,-42.96875,-40.52734375,-45.8984375,-47.36328125,4.39453125,0.0
333.0078125,-22.94921875,-32.71484375,-38.57421875,-39.55078125,-54.19921875,0.0
333.01171875,-3.41796875,-23.4375,-24.90234375,-18.5546875,-27.83203125,0.0
333.015625,-15.625,-21.97265625,-27.83203125,-11.23046875,18.5546875,0.0
333.01953125,-39.0625,-34.66796875,-35.15625,-27.83203125,6.8359375,0.0
333.0234375,-44.43359375,-41.015625,-35.64453125,-41.50390625,-40.52734375,0.0
333.02734375,-28.3203125,-32.71484375,-36.1328125,-36.62109375,-54.19921875,0.0
333.03125,-1.46484375,-21.97265625,-31.25,-31.73828125,-81.0546875,0.0
333.03515625,-10.7421875,-22.94921875,-37.59765625,-41.015625,-39.55078125,0.0
333.0390625,-36.62109375,-33.69140625,-40.0390625,-53.22265625,2.44140625,0.0
333.04296875,-38.0859375,-41.50390625,-38.0859375,-57.12890625,-17.08984375,0.0
333.046875,-31.73828125,-38.0859375,-40.52734375,-43.9453125,-33.69140625,0.0
333.05078125,-26.3671875,-31.73828125,-40.0390625,-35.15625,29.78515625,0.0
333.0546875,-26.85546875,-23.4375,-30.2734375,-33.69140625,68.359375,0.0
333.05859375,-41.50390625,-26.85546875,-33.203125,-41.015625,50.78125,0.0
333.0625,-46.875,-34.1796875,-33.69140625,-38.0859375,0.0,0.0
333.06640625,-43.9453125,-34.66796875,-30.2734375,-42.48046875,-28.3203125,0.0
333.0703125,-33.203125,-33.69140625,-31.73828125,-46.875,12.6953125,0.0
333.07421875,-22.94921875,-24.90234375,-26.85546875,-34.1796875,14.16015625,0.0
333.078125,-37.109375,-23.92578125,-30.76171875,-40.0390625,-106.93359375,0.0
333.08203125,-60.05859375,-44.43359375,-33.203125,-54.6875,-168.9453125,0.0
333.0859375,-49.8046875,-48.33984375,-40.52734375,-50.78125,-28.80859375,0.0
333.08984375,-20.99609375,-28.3203125,-42.96875,-35.15625,41.9921875,0.0
333.09375,-12.6953125,-18.06640625,-28.80859375,-32.2265625,76.66015625,0.0
333.09765625,-31.25,-22.94921875,-23.92578125,-34.66796875,49.31640625,0.0
333.1015625,-49.31640625,-33.203125,-28.80859375,-39.55078125,-11.23046875,0.0
333.10546875,-42.96875,-36.1328125,-38.57421875,-46.875,-47.8515625,0.0
333.109375,-27.34375,-34.1796875,-38.0859375,-45.8984375,-98.6328125,0.0
333.11328125,-15.625,-27.83203125,-28.80859375,-42.96875,-105.95703125,0.0
333.1171875,-13.671875,-21.484375,-27.34375,-31.25,-125.0,0.0
333.12109375,-32.71484375,-23.4375,-27.83203125,-21.484375,-116.69921875,0.0
333.125,-46.875,-31.73828125,-21.484375,-37.109375,-96.6796875,0.0
333.12890625,-26.85546875,-36.1328125,-6.8359375,-35.64453125,-127.9296875,0.0
333.1328125,-8.30078125,-29.296875,-8.7890625,-22.94921875,-96.6796875,0.0
333.13671875,-33.69140625,-27.83203125,-22.4609375,-23.92578125,-84.9609375,0.0
333.140625,-59.08203125,-31.73828125,-32.2265625,-19.53125,-22.4609375,0.0
333.14453125,-46.38671875,-33.69140625,-31.73828125,-17.08984375,46.875,0.0
333.1484375,-33.203125,-45.41015625,-30.76171875,-24.90234375,25.87890625,0.0
333.15234375,-28.3203125,-45.41015625,-30.2734375,-23.4375,7.32421875,0.0
333.15625,-21.484375,-24.4140625,-20.5078125,-11.71875,-49.31640625,0.0
333.16015625,-31.73828125,-28.80859375,-25.87890625,-21.484375,-25.390625,0.0
333.1640625,-46.38671875,-44.921875,-40.0390625,-34.1796875,7.32421875,0.0
333.16796875,-41.9921875,-41.015625,-43.9453125,-21.484375,-36.1328125,0.0
333.171875,-30.2734375,-31.73828125,-30.2734375,-18.06640625,-39.0625,0.0
333.17578125,-18.5546875,-25.390625,-20.01953125,-20.99609375,-7.8125,0.0
333.1796875,-29.78515625,-29.296875,-25.87890625,-23.4375,10.25390625,0.0
333.18359375,-47.36328125,-34.66796875,-27.83203125,-29.296875,-57.6171875,0.0
333.1875,-33.203125,-35.15625,-26.85546875,-31.25,-29.296875,0.0
333.19140625,-10.7421875,-28.3203125,-34.66796875,-23.4375,38.0859375,0.0
333.1953125,-15.13671875,-20.5078125,-43.9453125,-18.06640625,-6.8359375,0.0
333.19921875,-43.45703125,-31.25,-35.64453125,-31.73828125,-69.82421875,0.0
333.203125,-58.59375,-39.0625,-33.203125,-38.57421875,-36.62109375,0.0
333.20703125,-43.45703125,-24.4140625,-32.2265625,-33.203125,38.0859375,0.0
333.2109375,-21.484375,-21.484375,-35.64453125,-31.25,-0.48828125,0.0
333.21484375,-23.4375,-24.90234375,-36.62109375,-28.3203125,-29.296875,0.0
333.21875,-39.0625,-35.15625,-20.5078125,-35.15625,-11.23046875,0.0
333.22265625,-37.59765625,-44.921875,-23.4375,-40.0390625,60.05859375,0.0
333.2265625,-21.97265625,-33.69140625,-29.78515625,-31.73828125,-8.7890625,0.0
333.23046875,-3.41796875,-29.296875,-21.97265625,-20.5078125,-37.109375,0.0
333.234375,-9.27734375,-33.203125,-22.4609375,-16.6015625,80.56640625,0.0
333.23828125,-29.296875,-25.87890625,-26.85546875,-17.578125,87.40234375,0.0
333.2421875,-37.109375,-30.76171875,-35.64453125,-27.34375,-52.24609375,0.0
333.24609375,-30.76171875,-38.0859375,-38.0859375,-26.85546875,-178.22265625,0.0
333.25,-15.625,-24.90234375,-30.2734375,-19.53125,-69.3359375,0.0
333.25390625,-11.71875,-20.5078125,-26.3671875,-17.08984375,-28.80859375,0.0
333.2578125,-30.2734375,-26.85546875,-32.2265625,-22.94921875,-29.296875,0.0
333.26171875,-48.828125,-29.296875,-20.99609375,-33.203125,-90.8203125,0.0
333.265625,-42.48046875,-36.1328125,-16.11328125,-39.0625,-239.74609375,0.0
333.26953125,-23.92578125,-36.62109375,-38.0859375,-33.69140625,-102.05078125,0.0
333.2734375,-21.484375,-31.73828125,-35.15625,-29.78515625,8.7890625,0.0
333.27734375,-36.62109375,-29.78515625,-20.01953125,-25.87890625,25.390625,0.0
333.28125,-50.29296875,-36.1328125,-27.34375,-25.87890625,40.52734375,0.0
333.28515625,-44.921875,-44.43359375,-32.71484375,-30.2734375,2.9296875,0.0
333.2890625,-31.25,-36.1328125,-25.390625,-29.296875,15.625,0.0
333.29296875,-26.3671875,-26.3671875,-25.87890625,-21.484375,28.3203125,0.0
333.296875,-32.71484375,-29.78515625,-28.3203125,-19.04296875,61.03515625,0.0
333.30078125,-46.38671875,-37.109375,-36.62109375,-31.25,-19.53125,0.0
333.3046875,-48.33984375,-31.73828125,-31.25,-31.25,-129.8828125,0.0
333.30859375,-30.2734375,-27.34375,-21.97265625,-33.203125,-10.25390625,0.0
333.3125,-20.99609375,-29.296875,-34.66796875,-32.71484375,9.765625,0.0
333.31640625,-22.94921875,-26.85546875,-38.57421875,-20.99609375,-83.49609375,0.0
333.3203125,-34.66796875,-28.80859375,-22.4609375,-20.99609375,-89.84375,0.0
333.32421875,-39.55078125,-36.1328125,-15.13671875,-34.66796875,-104.98046875,0.0
333.328125,-24.4140625,-39.55078125,-31.25,-39.0625,-30.2734375,0.0
333.33203125,-7.8125,-34.66796875,-36.1328125,-32.2265625,-42.48046875,0.0
333.3359375,-8.30078125,-35.15625,-26.85546875,-30.76171875,-50.78125,0.0
333.33984375,-30.76171875,-41.50390625,-28.3203125,-39.0625,-4.39453125,0.0
333.34375,-36.1328125,-42.48046875,-32.2265625,-42.96875,-7.32421875,0.0
333.34765625,-17.578125,-41.50390625,-28.3203125,-39.55078125,-79.1015625,0.0
333.3515625,-6.8359375,-33.203125,-19.53125,-31.73828125,-75.68359375,0.0
333.35546875,-8.30078125,-23.92578125,-19.53125,-19.04296875,-29.296875,0.0
333.359375,-27.83203125,-28.80859375,-30.76171875,-19.04296875,-109.86328125,0.0
333.36328125,-33.69140625,-32.2265625,-32.2265625,-16.6015625,-130.37109375,0.0
333.3671875,-9.27734375,-33.203125,-22.4609375,-20.99609375,-101.07421875,0.0
333.37109375,5.37109375,-34.1796875,-21.484375,-25.390625,-84.9609375,0.0
333.375,8.7890625,-31.73828125,-25.87890625,-21.97265625,-41.015625,0.0
333.37890625,4.39453125,-34.1796875,-27.34375,-32.2265625,-16.6015625,0.0
333.3828125,5.37109375,-37.59765625,-34.1796875,-42.96875,-37.59765625,0.0
333.38671875,18.06640625,-43.45703125,-37.59765625,-42.96875,1.46484375,0.0
333.390625,23.92578125,-48.828125,-41.9921875,-37.109375,38.0859375,0.0
333.39453125,22.4609375,-39.0625,-38.0859375,-26.3671875,-76.66015625,0.0
333.3984375,22.94921875,-26.3671875,-29.78515625,-31.73828125,-48.33984375,0.0
333.40234375,25.390625,-30.2734375,-29.296875,-48.828125,-13.671875,0.0
333.40625,31.25,-31.73828125,-25.87890625,-48.828125,-80.56640625,0.0
333.41015625,33.203125,-28.80859375,-23.92578125,-50.29296875,-15.625,0.0
333.4140625,26.3671875,-26.3671875,-28.3203125,-39.55078125,66.89453125,0.0
333.41796875,15.625,-21.484375,-47.8515625,-28.80859375,41.015625,0.0
333.421875,3.41796875,-28.3203125,-52.24609375,-39.55078125,-4.8828125,0.0
333.42578125,5.859375,-42.96875,-37.109375,-46.38671875,-7.8125,0.0
333.4296875,15.625,-41.015625,-30.76171875,-46.875,-29.78515625,0.0
333.43359375,18.5546875,-32.71484375,-29.78515625,-36.1328125,-79.58984375,0.0
333.4375,12.20703125,-29.78515625,-26.85546875,-28.3203125,-131.34765625,0.0
333.44140625,-5.37109375,-16.11328125,-20.5078125,-36.62109375,-132.8125,0.0
333.4453125,-10.7421875,-11.23046875,-26.85546875,-46.875,-106.93359375,0.0
333.44921875,-10.25390625,-22.4609375,-43.9453125,-51.7578125,-14.6484375,0.0
333.453125,-24.90234375,-26.3671875,-49.8046875,-49.8046875,35.15625,0.0
333.45703125,-47.36328125,-22.94921875,-52.24609375,-49.31640625,-1.953125,0.0
333.4609375,-62.01171875,-24.90234375,-62.5,-58.59375,-33.69140625,0.0
333.46484375,-55.17578125,-28.80859375,-58.59375,-58.10546875,-81.54296875,0.0
333.46875,-32.2265625,-20.5078125,-38.0859375,-47.8515625,-77.1484375,0.0
333.47265625,-33.69140625,-17.08984375,-40.52734375,-48.33984375,14.6484375,0.0
333.4765625,-48.828125,-20.01953125,-45.41015625,-50.78125,-38.0859375,0.0
333.48046875,-53.7109375,-29.296875,-38.57421875,-57.6171875,-118.1640625,0.0
333.484375,-43.45703125,-26.3671875,-32.2265625,-55.17578125,-11.71875,0.0
333.48828125,-37.109375,-20.99609375,-32.71484375,-49.31640625,23.4375,0.0
333.4921875,-37.59765625,-30.2734375,-32.71484375,-43.9453125,-55.6640625,0.0
333.49609375,-35.64453125,-29.78515625,-32.2265625,-33.69140625,-62.98828125,0.0
333.5,-45.41015625,-26.3671875,-33.69140625,-30.2734375,-56.15234375,0.0
333.50390625,-51.26953125,-26.85546875,-26.3671875,-29.296875,-30.76171875,0.0
333.5078125,-42.96875,-34.1796875,-32.2265625,-41.015625,-20.01953125,0.0
333.51171875,-20.01953125,-24.4140625,-31.25,-33.203125,18.06640625,0.0
333.515625,-24.90234375,-20.99609375,-31.73828125,-29.296875,81.0546875,0.0
333.51953125,-48.828125,-32.2265625,-44.921875,-33.69140625,-5.37109375,0.0
333.5234375,-62.01171875,-41.015625,-51.26953125,-32.71484375,-92.7734375,0.0
333.52734375,-48.828125,-37.109375,-40.52734375,-39.0625,-66.40625,0.0
333.53125,-30.76171875,-25.390625,-28.80859375,-35.64453125,-73.2421875,0.0
333.53515625,-35.64453125,-27.34375,-29.78515625,-28.80859375,-17.08984375,0.0
333.5390625,-52.24609375,-34.66796875,-30.2734375,-34.1796875,11.71875,0.0
333.54296875,-53.7109375,-31.73828125,-27.83203125,-33.69140625,-46.38671875,0.0
333.546875,-29.78515625,-28.3203125,-13.671875,-25.87890625,-76.66015625,0.0
333.55078125,-19.53125,-28.3203125,-9.765625,-20.5078125,-12.20703125,0.0
333.5546875,-24.90234375,-21.484375,-28.3203125,-16.6015625,118.1640625,0.0
333.55859375,-38.0859375,-25.87890625,-31.73828125,-16.6015625,68.359375,0.0
333.5625,-54.6875,-33.69140625,-31.25,-30.2734375,-85.44921875,0.0
333.56640625,-42.96875,-26.85546875,-31.73828125,-37.109375,-18.06640625,0.0
333.5703125,-19.53125,-17.578125,-26.3671875,-28.80859375,110.3515625,0.0
333.57421875,-22.94921875,-25.87890625,-34.1796875,-26.3671875,80.078125,0.0
333.578125,-30.2734375,-22.94921875,-37.109375,-18.06640625,-43.9453125,0.0
333.58203125,-34.1796875,-23.4375,-34.66796875,-19.04296875,-100.09765625,0.0
333.5859375,-29.78515625,-30.76171875,-27.83203125,-22.94921875,-69.3359375,0.0
333.58984375,-18.06640625,-26.3671875,-19.04296875,-16.11328125,-55.6640625,0.0
333.59375,-19.53125,-34.1796875,-22.94921875,-25.87890625,-98.6328125,0.0
333.59765625,-20.01953125,-35.15625,-23.4375,-25.87890625,-31.73828125,0.0
333.6015625,-35.15625,-34.1796875,-31.25,-21.484375,19.53125,0.0
333.60546875,-38.0859375,-42.96875,-37.59765625,-24.4140625,6.34765625,0.0
333.609375,-23.92578125,-41.50390625,-32.71484375,-25.390625,-18.5546875,0.0
333.61328125,-23.92578125,-31.25,-22.94921875,-18.5546875,6.34765625,0.0
333.6171875,-29.296875,-24.4140625,-15.625,-20.01953125,-32.2265625,0.0
333.62109375,-42.48046875,-30.76171875,-20.01953125,-32.71484375,-83.49609375,0.0
333.625,-42.96875,-33.69140625,-29.78515625,-32.71484375,-40.0390625,0.0
333.62890625,-28.3203125,-30.2734375,-32.2265625,-30.2734375,-85.44921875,0.0
333.6328125,-20.01953125,-23.4375,-27.34375,-27.34375,-7.32421875,0.0
333.63671875,-30.2734375,-23.4375,-23.4375,-23.92578125,57.6171875,0.0
333.640625,-39.0625,-41.9921875,-28.3203125,-31.73828125,28.3203125,0.0
333.64453125,-23.4375,-45.41015625,-35.15625,-24.4140625,2.44140625,0.0
333.6484375,-11.23046875,-42.48046875,-30.76171875,-25.87890625,-45.8984375,0.0
333.65234375,-25.87890625,-44.43359375,-25.87890625,-45.41015625,-24.90234375,0.0
333.65625,-40.0390625,-45.41015625,-27.34375,-41.9921875,-114.2578125,0.0
333.66015625,-41.50390625,-49.8046875,-35.64453125,-34.1796875,-217.28515625,0.0
333.6640625,-34.66796875,-46.38671875,-31.25,-26.3671875,-179.19921875,0.0
333.66796875,-17.578125,-41.015625,-25.87890625,-27.83203125,-202.63671875,0.0
333.671875,-8.7890625,-25.87890625,-21.484375,-32.71484375,-117.67578125,0.0
333.67578125,-31.25,-24.4140625,-17.578125,-28.3203125,-36.62109375,0.0
333.6796875,-57.6171875,-45.8984375,-27.34375,-37.109375,-71.77734375,0.0
333.68359375,-55.17578125,-54.6875,-32.71484375,-40.52734375,-24.90234375,0.0
333.6875,-23.4375,-38.57421875,-24.4140625,-22.94921875,36.62109375,0.0
333.69140625,-11.23046875,-31.25,-23.92578125,-19.53125,12.6953125,0.0
333.6953125,-33.69140625,-44.43359375,-28.80859375,-30.76171875,7.8125,0.0
333.69921875,-52.734375,-55.17578125,-28.80859375,-33.69140625,-7.32421875,0.0
333.703125,-44.43359375,-45.41015625,-35.64453125,-28.80859375,37.109375,0.0
333.70703125,-25.87890625,-31.25,-36.1328125,-30.76171875,27.83203125,0.0
333.7109375,-10.25390625,-25.87890625,-20.01953125,-28.80859375,-43.9453125,0.0
333.71484375,-20.5078125,-35.64453125,-18.06640625,-29.78515625,-27.34375,0.0
333.71875,-35.15625,-33.69140625,-19.53125,-23.92578125,-68.84765625,0.0
333.72265625,-41.9921875,-32.2265625,-26.85546875,-23.92578125,-104.00390625,0.0
333.7265625,-39.0625,-36.62109375,-26.3671875,-34.1796875,-31.73828125,0.0
333.73046875,-20.5078125,-34.66796875,-16.11328125,-32.2265625,34.66796875,0.0
333.734375,-21.97265625,-29.296875,-25.87890625,-26.3671875,19.04296875,0.0
333.73828125,-35.15625,-27.34375,-26.3671875,-23.4375,-52.24609375,0.0
333.7421875,-47.8515625,-31.25,-25.390625,-28.80859375,-82.03125,0.0
333.74609375,-43.9453125,-37.59765625,-28.3203125,-34.66796875,-47.36328125,0.0
333.75,-28.80859375,-34.66796875,-26.85546875,-35.64453125,50.29296875,0.0
333.75390625,-27.34375,-23.4375,-23.4375,-23.92578125,122.0703125,0.0
333.7578125,-36.1328125,-25.390625,-25.87890625,-12.6953125,68.359375,0.0
333.76171875,-49.31640625,-36.1328125,-35.64453125,-20.99609375,7.32421875,0.0
333.765625,-48.33984375,-35.15625,-35.15625,-28.3203125,-48.33984375,0.0
333.76953125,-37.109375,-29.296875,-23.92578125,-27.34375,-34.1796875,0.0
333.7734375,-34.66796875,-25.87890625,-20.01953125,-27.34375,1.46484375,0.0
333.77734375,-44.43359375,-25.390625,-28.3203125,-33.203125,-33.203125,0.0
333.78125,-59.08203125,-28.3203125,-35.15625,-36.1328125,-84.9609375,0.0
333.78515625,-53.22265625,-29.296875,-35.15625,-38.57421875,-79.1015625,0.0
333.7890625,-42.48046875,-44.43359375,-30.2734375,-50.78125,22.94921875,0.0
333.79296875,-32.71484375,-35.64453125,-26.3671875,-44.921875,62.5,0.0
333.796875,-36.1328125,-14.6484375,-23.4375,-43.45703125,-8.7890625,0.0
333.80078125,-51.7578125,-31.25,-31.25,-47.36328125,-69.82421875,0.0
333.8046875,-49.8046875,-44.43359375,-42.48046875,-51.26953125,-59.08203125,0.0
333.80859375,-40.52734375,-34.66796875,-31.25,-48.828125,-49.31640625,0.0
333.8125,-29.296875,-21.97265625,-28.3203125,-40.0390625,-68.84765625,0.0
333.81640625,-34.1796875,-20.99609375,-39.0625,-39.55078125,-74.21875,0.0
333.8203125,-48.828125,-29.78515625,-35.15625,-44.43359375,-44.43359375,0.0
333.82421875,-44.921875,-32.71484375,-32.71484375,-53.22265625,5.37109375,0.0
333.828125,-25.390625,-24.90234375,-34.66796875,-49.31640625,-38.57421875,0.0
333.83203125,-8.7890625,-25.390625,-25.87890625,-41.9921875,-174.8046875,0.0
333.8359375,-14.16015625,-31.73828125,-20.99609375,-43.45703125,-173.828125,0.0
333.83984375,-31.73828125,-36.1328125,-36.1328125,-44.43359375,-120.60546875,0.0
333.84375,-33.203125,-37.59765625,-43.9453125,-36.62109375,-153.80859375,0.0
333.84765625,-22.94921875,-32.71484375,-38.57421875,-34.66796875,-147.94921875,0.0
333.8515625,-11.71875,-39.55078125,-37.59765625,-40.52734375,-43.45703125,0.0
333.85546875,-19.04296875,-41.9921875,-37.109375,-35.64453125,-6.8359375,0.0
333.859375,-38.57421875,-37.59765625,-31.25,-25.87890625,-75.68359375,0.0
333.86328125,-35.64453125,-34.1796875,-28.3203125,-25.390625,-83.0078125,0.0
333.8671875,-18.5546875,-29.78515625,-27.34375,-31.73828125,-11.71875,0.0
333.87109375,-8.30078125,-23.4375,-20.5078125,-24.90234375,24.4140625,0.0
333.875,-23.4375,-30.2734375,-25.87890625,-27.83203125,-26.85546875,0.0
333.87890625,-55.17578125,-55.17578125,-31.25,-49.8046875,-164.0625,0.0
333.8828125,-67.87109375,-54.19921875,-29.78515625,-50.78125,-61.03515625,0.0
333.88671875,-49.31640625,-37.109375,-31.25,-39.0625,29.78515625,0.0
333.890625,-25.87890625,-31.25,-31.73828125,-37.109375,2.9296875,0.0
333.89453125,-20.99609375,-21.484375,-26.3671875,-24.4140625,29.78515625,0.0
333.8984375,-36.62109375,-19.04296875,-25.390625,-11.23046875,18.5546875,0.0
333.90234375,-43.9453125,-27.34375,-34.66796875,-17.08984375,13.671875,0.0
333.90625,-40.0390625,-33.69140625,-36.1328125,-29.296875,-26.3671875,0.0
333.91015625,-31.73828125,-42.48046875,-34.1796875,-30.2734375,-9.27734375,0.0
333.9140625,-22.94921875,-37.59765625,-34.1796875,-29.78515625,-23.92578125,0.0
333.91796875,-42.48046875,-25.87890625,-36.62109375,-48.33984375,-80.078125,0.0
333.921875,-73.2421875,-29.296875,-32.71484375,-67.3828125,-69.82421875,0.0
333.92578125,-73.2421875,-26.85546875,-30.2734375,-69.3359375,-135.7421875,0.0
333.9296875,-75.68359375,-18.5546875,-46.38671875,-83.0078125,-128.90625,0.0
333.93359375,-91.796875,-19.53125,-54.6875,-99.609375,-54.6875,0.0
333.9375,-102.05078125,-21.97265625,-34.66796875,-101.5625,-23.92578125,0.0
333.94140625,-121.09375,-31.73828125,-29.296875,-105.95703125,-31.25,0.0
333.9453125,-114.74609375,-33.69140625,-31.73828125,-103.515625,-13.18359375,0.0
333.94921875,-102.05078125,-34.1796875,-29.296875,-105.95703125,34.66796875,0.0
333.953125,-110.3515625,-39.55078125,-33.69140625,-114.74609375,21.484375,0.0
333.95703125,-114.2578125,-37.59765625,-36.1328125,-109.375,-12.6953125,0.0
333.9609375,-116.69921875,-35.64453125,-32.71484375,-97.65625,-92.28515625,0.0
333.96484375,-117.1875,-42.48046875,-33.203125,-96.6796875,-144.04296875,0.0
333.96875,-94.23828125,-40.52734375,-33.69140625,-91.30859375,-78.61328125,0.0
333.97265625,-71.77734375,-33.69140625,-28.80859375,-76.66015625,13.18359375,0.0
333.9765625,-65.91796875,-35.15625,-38.57421875,-63.96484375,86.42578125,0.0
333.98046875,-73.2421875,-40.52734375,-38.0859375,-64.453125,116.2109375,0.0
333.984375,-83.49609375,-45.41015625,-29.296875,-72.265625,92.28515625,0.0
333.98828125,-66.89453125,-37.59765625,-32.2265625,-70.3125,41.9921875,0.0
333.9921875,-52.24609375,-29.78515625,-30.2734375,-58.10546875,-14.16015625,0.0
333.99609375,-55.17578125,-31.25,-20.5078125,-46.875,3.90625,0.0
334.0,-54.19921875,-31.73828125,-24.90234375,-48.33984375,1.953125,0.0
334.00390625,-53.7109375,-33.69140625,-35.64453125,-49.31640625,-93.26171875,0.0
334.0078125,-43.45703125,-33.69140625,-39.0625,-52.24609375,-97.16796875,0.0
334.01171875,-25.87890625,-32.71484375,-28.3203125,-49.8046875,-40.0390625,0.0
334.015625,-31.73828125,-40.52734375,-21.97265625,-44.43359375,-82.03125,0.0
334.01953125,-42.96875,-35.15625,-34.66796875,-41.9921875,-31.73828125,0.0
334.0234375,-38.0859375,-23.4375,-36.62109375,-35.15625,-33.203125,0.0
334.02734375,-25.390625,-24.4140625,-38.57421875,-30.76171875,-109.375,0.0
334.03125,-22.94921875,-31.25,-30.2734375,-40.0390625,-96.19140625,0.0
334.03515625,-25.390625,-29.78515625,-17.08984375,-37.109375,-85.44921875,0.0
334.0390625,-29.296875,-35.15625,-19.04296875,-26.3671875,-123.046875,0.0
334.04296875,-37.109375,-48.33984375,-25.390625,-32.2265625,-162.109375,0.0
334.046875,-25.390625,-49.8046875,-33.203125,-35.64453125,-174.31640625,0.0
334.05078125,-2.9296875,-38.0859375,-34.1796875,-26.85546875,-181.15234375,0.0
334.0546875,-8.7890625,-35.64453125,-28.80859375,-22.4609375,-164.55078125,0.0
334.05859375,-20.99609375,-42.48046875,-12.6953125,-28.3203125,-197.265625,0.0
334.0625,-7.8125,-30.2734375,-11.23046875,-23.4375,-145.99609375,0.0
334.06640625,6.34765625,-17.08984375,-23.4375,-16.6015625,-20.01953125,0.0
334.0703125,-4.8828125,-25.87890625,-21.484375,-24.90234375,-39.0625,0.0
334.07421875,-18.06640625,-33.203125,-25.87890625,-35.15625,-64.453125,0.0
334.078125,-29.296875,-34.66796875,-39.0625,-37.109375,-67.3828125,0.0
334.08203125,-41.9921875,-37.109375,-48.33984375,-43.45703125,-65.4296875,0.0
334.0859375,-38.0859375,-39.0625,-40.52734375,-50.78125,-2.44140625,0.0
334.08984375,-22.94921875,-41.50390625,-35.15625,-47.36328125,72.75390625,0.0
334.09375,-10.7421875,-28.80859375,-36.1328125,-33.69140625,91.30859375,0.0
334.09765625,-10.25390625,-16.6015625,-26.85546875,-18.06640625,30.2734375,0.0
334.1015625,-34.66796875,-21.484375,-18.5546875,-31.25,-1.953125,0.0
334.10546875,-36.62109375,-27.34375,-22.94921875,-49.8046875,-15.625,0.0
334.109375,-16.11328125,-25.390625,-31.73828125,-48.33984375,-70.3125,0.0
334.11328125,-17.08984375,-24.4140625,-34.1796875,-48.33984375,-32.71484375,0.0
334.1171875,-31.73828125,-23.4375,-20.01953125,-39.55078125,1.46484375,0.0
334.12109375,-42.96875,-29.78515625,-22.4609375,-39.55078125,-73.2421875,0.0
334.125,-38.57421875,-26.3671875,-38.0859375,-50.78125,-54.6875,0.0
334.12890625,-14.16015625,-13.671875,-29.78515625,-48.828125,12.20703125,0.0
334.1328125,-8.7890625,-20.01953125,-27.34375,-44.921875,72.265625,0.0
334.13671875,-27.83203125,-23.92578125,-30.2734375,-41.50390625,47.36328125,0.0
334.140625,-38.0859375,-17.578125,-26.3671875,-39.0625,-127.44140625,0.0
334.14453125,-28.80859375,-14.6484375,-26.3671875,-39.55078125,-65.4296875,0.0
334.1484375,-15.625,-25.87890625,-32.2265625,-39.55078125,42.48046875,0.0
334.15234375,-17.08984375,-32.2265625,-37.59765625,-44.43359375,9.765625,0.0
334.15625,-37.109375,-33.69140625,-35.64453125,-46.38671875,-51.7578125,0.0
334.16015625,-50.78125,-35.15625,-26.3671875,-40.52734375,-57.12890625,0.0
334.1640625,-44.921875,-32.71484375,-11.71875,-30.76171875,-109.375,0.0
334.16796875,-32.71484375,-29.296875,-15.13671875,-24.4140625,-72.265625,0.0
334.171875,-33.69140625,-32.71484375,-33.69140625,-26.85546875,76.66015625,0.0
334.17578125,-41.50390625,-35.64453125,-41.015625,-33.203125,45.41015625,0.0
334.1796875,-57.12890625,-35.64453125,-39.55078125,-39.0625,-20.5078125,0.0
334.18359375,-60.546875,-36.62109375,-33.203125,-41.9921875,18.06640625,0.0
334.1875,-39.0625,-33.203125,-27.34375,-39.0625,51.7578125,0.0
334.19140625,-27.34375,-34.66796875,-35.15625,-40.52734375,26.3671875,0.0
334.1953125,-25.87890625,-30.2734375,-38.0859375,-36.1328125,-5.859375,0.0
334.19921875,-45.41015625,-27.83203125,-33.69140625,-30.76171875,-37.59765625,0.0
334.203125,-63.96484375,-32.71484375,-35.15625,-27.83203125,-64.94140625,0.0
334.20703125,-57.12890625,-44.921875,-31.25,-30.76171875,-55.6640625,0.0
334.2109375,-44.43359375,-48.33984375,-26.3671875,-36.62109375,-5.37109375,0.0
334.21484375,-36.1328125,-36.62109375,-27.83203125,-31.25,43.9453125,0.0
334.21875,-42.96875,-34.1796875,-31.73828125,-28.80859375,97.16796875,0.0
334.22265625,-46.875,-36.1328125,-31.73828125,-32.2265625,5.859375,0.0
334.2265625,-33.69140625,-34.1796875,-33.203125,-28.80859375,-48.828125,0.0
334.23046875,-19.04296875,-34.66796875,-31.73828125,-27.34375,13.671875,0.0
334.234375,-15.625,-37.109375,-26.85546875,-31.73828125,-10.25390625,0.0
334.23828125,-31.73828125,-32.2265625,-23.4375,-26.3671875,-19.53125,0.0
334.2421875,-41.9921875,-29.78515625,-22.94921875,-23.92578125,-62.5,0.0
334.24609375,-37.109375,-39.0625,-31.73828125,-27.34375,-83.984375,0.0
334.25,-20.01953125,-35.15625,-29.78515625,-25.390625,-44.43359375,0.0
334.25390625,-9.27734375,-22.4609375,-10.7421875,-20.5078125,-47.36328125,0.0
334.2578125,-25.390625,-21.97265625,-10.25390625,-21.484375,-38.0859375,0.0
334.26171875,-35.64453125,-24.90234375,-22.4609375,-25.87890625,-20.99609375,0.0
334.265625,-28.80859375,-28.3203125,-28.80859375,-28.3203125,-36.62109375,0.0
334.26953125,-17.08984375,-23.92578125,-36.1328125,-27.34375,-30.2734375,0.0
334.2734375,-13.671875,-21.97265625,-33.69140625,-17.08984375,36.62109375,0.0
334.27734375,-25.390625,-32.71484375,-26.85546875,-13.18359375,41.9921875,0.0
334.28125,-40.52734375,-37.109375,-21.484375,-21.97265625,41.015625,0.0
334.28515625,-35.64453125,-30.76171875,-18.5546875,-25.390625,-50.78125,0.0
334.2890625,-29.78515625,-26.3671875,-22.4609375,-18.06640625,-76.171875,0.0
334.29296875,-33.69140625,-27.83203125,-38.57421875,-19.04296875,16.6015625,0.0
334.296875,-32.2265625,-24.4140625,-33.69140625,-16.11328125,33.203125,0.0
334.30078125,-35.64453125,-28.80859375,-26.85546875,-19.53125,18.06640625,0.0
334.3046875,-32.71484375,-36.1328125,-33.69140625,-28.3203125,-21.97265625,0.0
334.30859375,-20.5078125,-32.71484375,-26.3671875,-20.99609375,7.32421875,0.0
334.3125,-13.671875,-24.4140625,-25.87890625,-12.6953125,-4.39453125,0.0
334.31640625,-28.80859375,-25.390625,-34.66796875,-15.625,-69.3359375,0.0
334.3203125,-46.875,-30.2734375,-39.55078125,-23.92578125,-99.12109375,0.0
334.32421875,-29.78515625,-18.5546875,-28.80859375,-21.97265625,-93.26171875,0.0
334.328125,-7.32421875,-10.25390625,-17.578125,-20.99609375,52.24609375,0.0
334.33203125,-14.6484375,-20.01953125,-29.78515625,-28.80859375,104.98046875,0.0
334.3359375,-19.04296875,-24.4140625,-32.2265625,-27.83203125,20.5078125,0.0
334.33984375,-23.92578125,-22.4609375,-19.04296875,-20.5078125,20.5078125,0.0
334.34375,-23.92578125,-23.4375,3.41796875,-10.25390625,-31.25,0.0
334.34765625,-20.99609375,-32.2265625,-11.71875,-15.625,-58.59375,0.0
334.3515625,-13.671875,-33.203125,-34.1796875,-23.92578125,-85.44921875,0.0
334.35546875,-24.90234375,-29.78515625,-25.87890625,-28.80859375,-14.6484375,0.0
334.359375,-48.33984375,-39.55078125,-28.80859375,-37.59765625,-17.578125,0.0
334.36328125,-40.52734375,-42.96875,-36.1328125,-39.0625,-115.234375,0.0
334.3671875,-20.5078125,-36.62109375,-28.3203125,-31.73828125,-142.08984375,0.0
334.37109375,-9.765625,-30.76171875,-26.3671875,-28.80859375,-104.98046875,0.0
334.375,-8.7890625,-23.4375,-31.73828125,-24.4140625,29.296875,0.0
334.37890625,-15.13671875,-23.92578125,-25.390625,-24.90234375,-59.08203125,0.0
334.3828125,-29.296875,-29.296875,-20.5078125,-31.25,-110.83984375,0.0
334.38671875,-29.296875,-35.15625,-12.20703125,-30.76171875,-69.3359375,0.0
334.390625,-12.20703125,-32.71484375,-9.27734375,-24.90234375,-57.12890625,0.0
334.39453125,-5.37109375,-20.01953125,-16.11328125,-15.625,-20.99609375,0.0
334.3984375,-28.3203125,-37.109375,-25.390625,-29.296875,-98.14453125,0.0
334.40234375,-37.59765625,-45.41015625,-27.34375,-39.0625,-72.265625,0.0
334.40625,-28.80859375,-36.1328125,-27.34375,-39.0625,-64.453125,0.0
334.41015625,-20.5078125,-30.2734375,-27.34375,-34.66796875,-30.76171875,0.0
334.4140625,-21.484375,-31.73828125,-28.80859375,-35.64453125,75.1953125,0.0
334.41796875,-35.15625,-36.62109375,-28.80859375,-34.66796875,14.16015625,0.0
334.421875,-47.8515625,-29.78515625,-36.62109375,-34.66796875,-28.3203125,0.0
334.42578125,-47.36328125,-32.71484375,-37.59765625,-44.43359375,-58.59375,0.0
334.4296875,-24.4140625,-37.109375,-20.5078125,-37.59765625,-74.21875,0.0
334.43359375,-20.01953125,-35.15625,-12.6953125,-23.92578125,-15.13671875,0.0
334.4375,-42.96875,-32.71484375,-16.11328125,-16.6015625,-61.03515625,0.0
334.44140625,-56.640625,-38.57421875,-22.4609375,-28.80859375,-129.8828125,0.0
334.4453125,-42.96875,-42.96875,-24.4140625,-41.015625,-30.76171875,0.0
334.44921875,-28.80859375,-44.43359375,-30.2734375,-45.41015625,-13.671875,0.0
334.453125,-19.53125,-30.76171875,-42.96875,-42.48046875,-48.33984375,0.0
334.45703125,-19.53125,-23.92578125,-39.55078125,-28.3203125,-32.2265625,0.0
334.4609375,-44.921875,-37.59765625,-24.90234375,-31.73828125,-98.14453125,0.0
334.46484375,-58.10546875,-42.48046875,-23.92578125,-49.31640625,-138.671875,0.0
334.46875,-43.9453125,-42.96875,-28.3203125,-45.41015625,-69.3359375,0.0
334.47265625,-36.62109375,-34.1796875,-25.390625,-34.66796875,-9.765625,0.0
334.4765625,-48.828125,-34.1796875,-28.80859375,-38.0859375,24.90234375,0.0
334.48046875,-67.87109375,-50.78125,-28.80859375,-44.43359375,21.97265625,0.0
334.484375,-73.73046875,-55.6640625,-26.3671875,-50.78125,55.17578125,0.0
334.48828125,-50.78125,-41.9921875,-28.80859375,-46.38671875,59.08203125,0.0
334.4921875,-32.71484375,-38.57421875,-29.78515625,-35.64453125,-76.66015625,0.0
334.49609375,-33.69140625,-46.38671875,-38.57421875,-32.2265625,-115.72265625,0.0
334.5,-39.0625,-48.33984375,-35.15625,-35.64453125,-127.9296875,0.0
334.50390625,-45.41015625,-50.29296875,-35.15625,-41.50390625,-221.6796875,0.0
334.5078125,-29.78515625,-43.45703125,-42.48046875,-31.73828125,-216.30859375,0.0
334.51171875,-21.97265625,-39.0625,-41.50390625,-28.3203125,-125.48828125,0.0
334.515625,-33.69140625,-34.66796875,-37.59765625,-36.62109375,-80.56640625,0.0
334.51953125,-52.24609375,-37.109375,-35.15625,-39.0625,-148.92578125,0.0
334.5234375,-58.59375,-44.921875,-39.55078125,-40.0390625,-139.16015625,0.0
334.52734375,-43.45703125,-43.45703125,-41.015625,-41.50390625,-20.01953125,0.0
334.53125,-30.2734375,-33.203125,-30.76171875,-34.66796875,75.68359375,0.0
334.53515625,-29.296875,-24.4140625,-25.390625,-27.34375,83.984375,0.0
334.5390625,-42.96875,-30.2734375,-30.76171875,-27.83203125,20.01953125,0.0
334.54296875,-50.29296875,-32.71484375,-31.25,-28.80859375,36.62109375,0.0
334.546875,-39.55078125,-31.25,-33.69140625,-27.83203125,62.01171875,0.0
334.55078125,-16.11328125,-25.87890625,-16.6015625,-20.01953125,14.6484375,0.0
334.5546875,-18.06640625,-25.390625,-6.34765625,-22.4609375,-60.05859375,0.0
334.55859375,-38.57421875,-31.25,-26.85546875,-26.3671875,-22.4609375,0.0
334.5625,-38.57421875,-32.71484375,-26.85546875,-20.01953125,32.71484375,0.0
334.56640625,-33.203125,-32.2265625,-30.76171875,-26.3671875,-26.85546875,0.0
334.5703125,-24.90234375,-34.66796875,-35.15625,-26.85546875,-62.5,0.0
334.57421875,-17.08984375,-39.0625,-38.57421875,-20.01953125,-24.4140625,0.0
334.578125,-25.390625,-35.64453125,-34.66796875,-26.3671875,-88.8671875,0.0
334.58203125,-40.0390625,-35.15625,-23.4375,-35.64453125,-183.59375,0.0
334.5859375,-28.3203125,-30.76171875,-25.390625,-25.87890625,-105.95703125,0.0
334.58984375,-11.23046875,-22.4609375,-34.1796875,-19.53125,1.46484375,0.0
334.59375,-17.08984375,-28.3203125,-33.203125,-27.34375,30.2734375,0.0
334.59765625,-31.73828125,-30.2734375,-25.87890625,-27.83203125,1.46484375,0.0
334.6015625,-41.9921875,-22.94921875,-23.92578125,-30.76171875,-28.3203125,0.0
334.60546875,-35.64453125,-22.94921875,-23.92578125,-38.0859375,-16.11328125,0.0
334.609375,-18.5546875,-25.87890625,-29.296875,-39.0625,29.78515625,0.0
334.61328125,-7.8125,-22.94921875,-35.64453125,-35.64453125,33.203125,0.0
334.6171875,-17.578125,-18.5546875,-35.64453125,-32.2265625,35.15625,0.0
334.62109375,-32.71484375,-24.4140625,-37.59765625,-26.3671875,-0.48828125,0.0
334.625,-32.71484375,-37.59765625,-32.71484375,-29.296875,-112.79296875,0.0
334.62890625,-15.13671875,-33.69140625,-20.99609375,-30.76171875,-118.1640625,0.0
334.6328125,-17.08984375,-29.78515625,-20.99609375,-28.80859375,19.04296875,0.0
334.63671875,-34.66796875,-22.94921875,-28.3203125,-28.3203125,9.27734375,0.0
334.640625,-44.921875,-21.484375,-26.3671875,-25.87890625,-65.4296875,0.0
334.64453125,-33.69140625,-23.92578125,-18.5546875,-27.83203125,17.578125,0.0
334.6484375,-17.578125,-21.484375,-20.5078125,-30.2734375,-6.8359375,0.0
334.65234375,-15.13671875,-21.484375,-22.94921875,-29.296875,-92.7734375,0.0
334.65625,-20.99609375,-19.53125,-22.4609375,-25.87890625,-46.875,0.0
334.66015625,-38.57421875,-28.80859375,-25.87890625,-31.73828125,-13.671875,0.0
334.6640625,-51.26953125,-38.0859375,-29.296875,-39.0625,-79.58984375,0.0
334.66796875,-35.15625,-36.62109375,-44.921875,-41.50390625,-56.15234375,0.0
334.671875,-17.08984375,-31.73828125,-40.52734375,-35.64453125,26.3671875,0.0
334.67578125,-27.34375,-25.390625,-23.4375,-20.99609375,-48.828125,0.0
334.6796875,-52.24609375,-33.203125,-25.390625,-27.34375,-71.2890625,0.0
334.68359375,-51.26953125,-42.96875,-24.90234375,-35.15625,-53.22265625,0.0
334.6875,-38.57421875,-32.71484375,-21.484375,-31.73828125,-22.4609375,0.0
334.69140625,-22.4609375,-22.4609375,-16.6015625,-18.5546875,10.7421875,0.0
334.6953125,-27.34375,-27.34375,-20.01953125,-13.18359375,26.3671875,0.0
334.69921875,-47.8515625,-38.57421875,-28.80859375,-24.90234375,-62.5,0.0
334.703125,-41.015625,-33.203125,-23.4375,-21.97265625,-129.39453125,0.0
334.70703125,-28.3203125,-27.83203125,-24.90234375,-22.94921875,-46.38671875,0.0
334.7109375,-22.4609375,-35.15625,-39.0625,-36.62109375,-62.98828125,0.0
334.71484375,-25.87890625,-31.73828125,-42.96875,-35.15625,-45.8984375,0.0
334.71875,-27.34375,-22.4609375,-27.34375,-23.4375,37.109375,0.0
334.72265625,-32.2265625,-32.71484375,-22.4609375,-24.4140625,-59.08203125,0.0
334.7265625,-40.52734375,-40.0390625,-30.2734375,-28.3203125,-46.38671875,0.0
334.73046875,-32.71484375,-35.64453125,-33.69140625,-28.80859375,11.23046875,0.0
334.734375,-25.87890625,-32.2265625,-25.87890625,-22.4609375,-53.22265625,0.0
334.73828125,-41.015625,-26.85546875,-18.06640625,-16.11328125,-74.21875,0.0
334.7421875,-47.36328125,-29.296875,-23.4375,-28.80859375,-40.0390625,0.0
334.74609375,-36.62109375,-34.1796875,-28.3203125,-38.57421875,-43.9453125,0.0
334.75,-22.94921875,-28.80859375,-24.4140625,-35.15625,-54.19921875,0.0
334.75390625,-22.94921875,-28.80859375,-26.85546875,-32.71484375,-12.20703125,0.0
334.7578125,-36.62109375,-35.15625,-27.83203125,-33.203125,75.1953125,0.0
334.76171875,-45.8984375,-39.0625,-14.16015625,-31.25,-3.41796875,0.0
334.765625,-41.50390625,-39.55078125,-16.6015625,-34.1796875,-75.1953125,0.0
334.76953125,-24.90234375,-33.203125,-35.15625,-24.4140625,7.32421875,0.0
334.7734375,-13.671875,-28.80859375,-29.296875,-11.23046875,34.1796875,0.0
334.77734375,-12.20703125,-34.1796875,-19.53125,-12.6953125,-11.71875,0.0
334.78125,-23.92578125,-37.109375,-27.83203125,-14.16015625,6.8359375,0.0
334.78515625,-23.4375,-29.78515625,-37.109375,-13.671875,10.25390625,0.0
334.7890625,-1.953125,-23.92578125,-34.1796875,0.48828125,-33.203125,0.0
334.79296875,5.37109375,-27.34375,-33.203125,4.39453125,11.71875,0.0
334.796875,5.37109375,-24.4140625,-33.203125,4.8828125,49.8046875,0.0
334.80078125,-2.44140625,-26.3671875,-35.15625,10.7421875,27.34375,0.0
334.8046875,-19.53125,-30.76171875,-36.62109375,1.46484375,68.84765625,0.0
334.80859375,-6.8359375,-25.87890625,-36.62109375,-1.46484375,99.12109375,0.0
334.8125,15.625,-22.4609375,-41.50390625,6.8359375,11.71875,0.0
334.81640625,7.8125,-24.4140625,-40.0390625,5.37109375,-41.015625,0.0
334.8203125,-17.08984375,-35.64453125,-46.38671875,-8.7890625,-71.77734375,0.0
334.82421875,-20.99609375,-34.66796875,-54.6875,-11.71875,-61.5234375,0.0
334.828125,-9.27734375,-29.78515625,-45.8984375,-5.859375,-84.47265625,0.0
334.83203125,-1.953125,-27.34375,-33.69140625,-3.90625,-179.19921875,0.0
334.8359375,-2.44140625,-21.484375,-28.3203125,-10.7421875,-119.62890625,0.0
334.83984375,-21.484375,-20.01953125,-23.4375,-16.11328125,-34.1796875,0.0
334.84375,-32.2265625,-30.2734375,-32.2265625,-20.99609375,-96.6796875,0.0
334.84765625,-15.13671875,-29.78515625,-46.875,-25.390625,-82.03125,0.0
334.8515625,5.37109375,-16.11328125,-41.9921875,-16.11328125,22.94921875,0.0
334.85546875,-0.48828125,-18.06640625,-34.66796875,-14.6484375,22.4609375,0.0
334.859375,-21.484375,-27.83203125,-32.2265625,-18.06640625,-62.98828125,0.0
334.86328125,-26.3671875,-37.109375,-34.66796875,-23.4375,-69.82421875,0.0
334.8671875,-14.6484375,-39.55078125,-37.109375,-24.90234375,39.55078125,0.0
334.87109375,-8.7890625,-33.69140625,-36.1328125,-20.01953125,76.66015625,0.0
334.875,-13.671875,-22.94921875,-33.69140625,-16.11328125,-15.13671875,0.0
334.87890625,-26.3671875,-13.671875,-31.25,-10.25390625,21.484375,0.0
334.8828125,-35.64453125,-31.25,-44.43359375,-10.7421875,57.12890625,0.0
334.88671875,-27.34375,-45.41015625,-46.875,-19.53125,-53.22265625,0.0
334.890625,-10.7421875,-35.64453125,-30.2734375,-20.5078125,-99.12109375,0.0
334.89453125,-8.7890625,-25.390625,-21.97265625,-20.01953125,-31.73828125,0.0
334.8984375,-21.484375,-16.6015625,-13.671875,-16.11328125,-8.7890625,0.0
334.90234375,-33.203125,-16.6015625,-15.13671875,-15.625,-37.109375,0.0
334.90625,-30.76171875,-24.4140625,-33.69140625,-27.83203125,22.4609375,0.0
334.91015625,-13.671875,-20.99609375,-30.2734375,-27.34375,25.390625,0.0
334.9140625,-13.18359375,-16.11328125,-7.32421875,-20.01953125,40.52734375,0.0
334.91796875,-28.80859375,-24.90234375,-17.578125,-28.3203125,29.78515625,0.0
334.921875,-41.50390625,-35.15625,-36.62109375,-35.15625,-57.12890625,0.0
334.92578125,-39.55078125,-36.1328125,-42.48046875,-36.62109375,-103.515625,0.0
334.9296875,-25.390625,-32.71484375,-39.55078125,-35.64453125,-60.05859375,0.0
334.93359375,-17.578125,-31.25,-37.109375,-29.296875,-86.9140625,0.0
334.9375,-27.83203125,-24.90234375,-37.59765625,-19.04296875,-66.89453125,0.0
334.94140625,-49.31640625,-29.296875,-31.73828125,-24.90234375,-85.9375,0.0
334.9453125,-42.48046875,-35.64453125,-33.203125,-36.1328125,-211.9140625,0.0
334.94921875,-22.4609375,-30.2734375,-41.015625,-20.99609375,-162.109375,0.0
334.953125,-19.04296875,-23.92578125,-41.9921875,-13.671875,-2.44140625,0.0
334.95703125,-32.71484375,-32.71484375,-40.0390625,-24.90234375,32.2265625,0.0
334.9609375,-55.17578125,-48.828125,-38.57421875,-32.71484375,-37.59765625,0.0
334.96484375,-54.19921875,-47.8515625,-35.15625,-34.66796875,-5.859375,0.0
334.96875,-38.0859375,-41.015625,-37.59765625,-34.66796875,33.203125,0.0
334.97265625,-31.73828125,-37.109375,-41.015625,-31.25,-5.37109375,0.0
334.9765625,-28.3203125,-25.87890625,-31.25,-19.53125,-5.859375,0.0
334.98046875,-41.50390625,-24.90234375,-25.390625,-15.625,-14.16015625,0.0
334.984375,-49.31640625,-39.0625,-27.34375,-22.94921875,-143.06640625,0.0
334.98828125,-32.2265625,-36.62109375,-26.85546875,-24.4140625,-212.40234375,0.0
334.9921875,-24.4140625,-26.85546875,-25.87890625,-18.5546875,-83.984375,0.0
334.99609375,-34.66796875,-25.87890625,-20.5078125,-17.578125,16.6015625,0.0
335.0,-49.31640625,-30.76171875,-22.4609375,-20.5078125,-35.64453125,0.0
335.00390625,-56.15234375,-37.109375,-22.94921875,-21.484375,-97.16796875,0.0
335.0078125,-50.78125,-41.015625,-23.92578125,-24.90234375,-85.44921875,0.0
335.01171875,-36.62109375,-37.109375,-28.3203125,-25.390625,-4.39453125,0.0
335.015625,-44.43359375,-35.64453125,-37.59765625,-27.83203125,-17.08984375,0.0
335.01953125,-59.08203125,-39.55078125,-43.45703125,-33.69140625,-72.75390625,0.0
335.0234375,-53.22265625,-39.0625,-33.203125,-36.1328125,-76.66015625,0.0
335.02734375,-38.0859375,-28.3203125,-26.85546875,-32.71484375,-57.6171875,0.0
335.03125,-27.34375,-21.484375,-32.2265625,-33.203125,6.34765625,0.0
335.03515625,-38.57421875,-38.57421875,-43.45703125,-36.1328125,11.71875,0.0
335.0390625,-57.6171875,-32.71484375,-38.0859375,-32.2265625,10.25390625,0.0
335.04296875,-55.6640625,-24.4140625,-27.83203125,-32.2265625,-35.64453125,0.0
335.046875,-47.8515625,-37.59765625,-24.4140625,-37.109375,-103.515625,0.0
335.05078125,-46.38671875,-41.9921875,-28.3203125,-36.1328125,-61.5234375,0.0
335.0546875,-39.0625,-35.64453125,-33.69140625,-26.85546875,24.90234375,0.0
335.05859375,-46.38671875,-33.69140625,-33.203125,-25.390625,35.64453125,0.0
335.0625,-62.5,-39.55078125,-31.25,-32.71484375,7.32421875,0.0
335.06640625,-64.453125,-45.41015625,-40.52734375,-37.59765625,-46.38671875,0.0
335.0703125,-47.36328125,-34.1796875,-38.57421875,-31.73828125,-32.2265625,0.0
335.07421875,-39.0625,-21.97265625,-27.83203125,-18.06640625,-22.4609375,0.0
335.078125,-38.57421875,-27.34375,-44.43359375,-12.20703125,0.9765625,0.0
335.08203125,-39.55078125,-31.73828125,-46.38671875,-20.01953125,-32.2265625,0.0
335.0859375,-34.1796875,-30.2734375,-36.62109375,-28.3203125,-131.8359375,0.0
335.08984375,-20.5078125,-23.4375,-39.55078125,-28.80859375,-108.88671875,0.0
335.09375,-13.18359375,-18.5546875,-28.80859375,-23.4375,-48.828125,0.0
335.09765625,-18.5546875,-19.04296875,-12.20703125,-13.18359375,49.31640625,0.0
335.1015625,-38.57421875,-20.01953125,-11.23046875,-15.625,5.37109375,0.0
335.10546875,-44.43359375,-31.73828125,-21.97265625,-31.73828125,-44.921875,0.0
335.109375,-31.25,-36.62109375,-23.92578125,-31.25,58.59375,0.0
335.11328125,-25.87890625,-30.2734375,-29.296875,-31.25,31.73828125,0.0
335.1171875,-26.85546875,-29.296875,-35.64453125,-31.25,-70.80078125,0.0
335.12109375,-39.0625,-32.2265625,-34.66796875,-22.94921875,-117.67578125,0.0
335.125,-39.0625,-30.2734375,-38.57421875,-26.85546875,-109.375,0.0
335.12890625,-14.6484375,-21.484375,-33.69140625,-27.34375,-9.765625,0.0
335.1328125,-8.7890625,-22.94921875,-28.80859375,-31.25,10.25390625,0.0
335.13671875,-25.390625,-33.203125,-28.80859375,-36.1328125,16.6015625,0.0
335.140625,-41.015625,-38.57421875,-37.59765625,-41.015625,-30.76171875,0.0
335.14453125,-32.71484375,-33.69140625,-46.875,-40.0390625,-153.3203125,0.0
335.1484375,-12.6953125,-31.73828125,-44.921875,-34.1796875,-70.3125,0.0
335.15234375,-5.859375,-32.71484375,-40.0390625,-29.78515625,70.80078125,0.0
335.15625,-0.9765625,-21.484375,-22.94921875,-20.01953125,36.1328125,0.0
335.16015625,-15.13671875,-29.296875,-21.97265625,-25.87890625,-24.4140625,0.0
335.1640625,-27.34375,-41.015625,-31.25,-40.0390625,-37.59765625,0.0
335.16796875,-18.5546875,-45.41015625,-31.73828125,-39.0625,-36.62109375,0.0
335.171875,-0.9765625,-43.9453125,-29.78515625,-27.34375,-6.34765625,0.0
335.17578125,10.25390625,-29.296875,-24.90234375,-18.5546875,-9.27734375,0.0
335.1796875,-3.41796875,-30.76171875,-23.4375,-20.5078125,-44.921875,0.0
335.18359375,-15.13671875,-38.57421875,-30.2734375,-29.78515625,-51.26953125,0.0
335.1875,9.27734375,-36.62109375,-35.15625,-32.2265625,-53.22265625,0.0
335.19140625,17.08984375,-39.55078125,-41.9921875,-31.25,-33.69140625,0.0
335.1953125,3.90625,-32.71484375,-33.203125,-23.92578125,-100.09765625,0.0
335.19921875,-1.953125,-34.66796875,-32.71484375,-21.97265625,-130.37109375,0.0
335.203125,-7.32421875,-38.57421875,-45.8984375,-28.3203125,-64.453125,0.0
