timestam,TP9,AF7,AF8,TP10,AUX,Marker
99.00390625,9.765625,-14.6484375,-39.0625,4.8828125,50.78125,0.0
99.0078125,-6.34765625,-12.20703125,-41.015625,1.953125,41.50390625,0.0
99.01171875,-32.2265625,-24.4140625,-28.3203125,-15.13671875,-46.38671875,0.0
99.015625,-33.69140625,-32.2265625,-30.76171875,-22.94921875,-67.3828125,0.0
99.01953125,-7.32421875,-33.69140625,-40.0390625,-17.08984375,-45.41015625,0.0
99.0234375,10.25390625,-39.0625,-35.64453125,-3.90625,-7.8125,0.0
99.02734375,-20.5078125,-50.78125,-22.4609375,-20.01953125,-25.390625,0.0
99.03125,-48.33984375,-51.7578125,-17.578125,-38.57421875,-112.3046875,0.0
99.03515625,-37.59765625,-37.109375,-23.92578125,-31.25,-161.62109375,0.0
99.0390625,-7.8125,-19.53125,-31.73828125,-23.4375,-117.67578125,0.0
99.04296875,-1.953125,-19.53125,-37.109375,-21.97265625,-64.453125,0.0
99.046875,-17.08984375,-25.87890625,-41.50390625,-28.3203125,-17.08984375,0.0
99.05078125,-37.59765625,-32.71484375,-37.109375,-29.296875,-56.15234375,0.0
99.0546875,-49.31640625,-39.0625,-28.80859375,-27.34375,-125.9765625,0.0
99.05859375,-33.203125,-28.80859375,-47.8515625,-28.80859375,-143.06640625,0.0
99.0625,-16.11328125,-30.2734375,-51.7578125,-28.80859375,-99.609375,0.0
99.06640625,-18.5546875,-38.57421875,-29.78515625,-23.4375,50.29296875,0.0
99.0703125,-35.64453125,-41.015625,-15.13671875,-20.99609375,81.54296875,0.0
99.07421875,-44.921875,-43.45703125,-18.5546875,-31.73828125,84.9609375,0.0
99.078125,-20.5078125,-34.1796875,-26.85546875,-29.78515625,33.203125,0.0
99.08203125,-4.8828125,-32.71484375,-31.73828125,-24.4140625,16.11328125,0.0
99.0859375,-20.99609375,-37.59765625,-16.6015625,-21.484375,-3.90625,0.0
99.08984375,-46.875,-35.64453125,-14.16015625,-36.1328125,-24.4140625,0.0
99.09375,-71.77734375,-33.203125,-28.3203125,-60.546875,4.8828125,0.0
99.09765625,-68.84765625,-23.92578125,-35.15625,-62.5,-51.7578125,0.0
99.1015625,-52.734375,-15.625,-31.25,-64.453125,11.23046875,0.0
99.10546875,-65.4296875,-8.30078125,-21.484375,-83.49609375,70.3125,0.0
99.109375,-101.5625,0.48828125,-16.11328125,-111.81640625,15.13671875,0.0
99.11328125,-124.51171875,5.37109375,-17.08984375,-120.1171875,-35.64453125,0.0
99.1171875,-116.2109375,9.765625,-26.85546875,-129.39453125,-68.359375,0.0
99.12109375,-86.9140625,16.11328125,-33.69140625,-129.39453125,-86.9140625,0.0
99.125,-80.078125,18.5546875,-36.1328125,-113.76953125,-106.4453125,0.0
99.12890625,-108.3984375,-1.953125,-33.203125,-121.09375,-102.05078125,0.0
99.1328125,-125.48828125,-19.53125,-32.2265625,-134.765625,-126.953125,0.0
99.13671875,-112.3046875,-7.8125,-44.921875,-130.859375,-91.796875,0.0
99.140625,-100.09765625,9.765625,-60.05859375,-133.30078125,22.94921875,0.0
99.14453125,-92.28515625,32.2265625,-74.70703125,-131.34765625,19.04296875,0.0
99.1484375,-116.2109375,44.43359375,-80.56640625,-141.11328125,0.9765625,0.0
99.15234375,-151.3671875,25.87890625,-62.5,-166.50390625,-45.8984375,0.0
99.15625,-133.30078125,17.08984375,-32.71484375,-161.1328125,-116.69921875,0.0
99.16015625,-104.4921875,35.15625,-22.4609375,-152.83203125,-54.6875,0.0
99.1640625,-109.86328125,32.71484375,-29.296875,-158.69140625,-41.50390625,0.0
99.16796875,-111.81640625,25.390625,-36.62109375,-144.04296875,-83.49609375,0.0
99.171875,-118.65234375,9.765625,-44.43359375,-139.16015625,-9.765625,0.0
99.17578125,-106.93359375,14.16015625,-52.734375,-127.9296875,12.20703125,0.0
99.1796875,-64.94140625,33.203125,-75.68359375,-102.5390625,-83.49609375,0.0
99.18359375,-37.59765625,29.296875,-92.7734375,-90.8203125,-31.25,0.0
99.1875,-38.0859375,13.671875,-81.54296875,-73.73046875,33.203125,0.0
99.19140625,-39.55078125,10.25390625,-78.61328125,-52.734375,-45.8984375,0.0
99.1953125,-18.06640625,7.32421875,-92.7734375,-42.48046875,-90.8203125,0.0
99.19921875,2.44140625,-14.6484375,-89.35546875,-32.71484375,-52.24609375,0.0
99.203125,24.4140625,-36.62109375,-64.94140625,-25.390625,5.37109375,0.0
99.20703125,32.71484375,-31.25,-60.05859375,-17.08984375,-94.7265625,0.0
99.2109375,27.83203125,-7.32421875,-61.03515625,0.48828125,-152.34375,0.0
99.21484375,30.76171875,0.0,-59.08203125,5.859375,-75.1953125,0.0
99.21875,49.8046875,-22.4609375,-54.6875,17.08984375,-98.14453125,0.0
99.22265625,84.47265625,-39.55078125,-35.64453125,45.8984375,-46.38671875,0.0
99.2265625,79.58984375,-41.015625,-46.38671875,48.33984375,57.6171875,0.0
99.23046875,46.38671875,-38.57421875,-51.26953125,41.015625,-55.6640625,0.0
99.234375,36.1328125,-37.59765625,-38.57421875,41.9921875,-151.3671875,0.0
99.23828125,46.875,-54.6875,-52.24609375,38.0859375,-83.0078125,0.0
99.2421875,54.6875,-54.19921875,-40.0390625,40.52734375,-14.16015625,0.0
99.24609375,48.828125,-45.41015625,-26.3671875,43.9453125,8.30078125,0.0
99.25,29.78515625,-59.08203125,-40.52734375,37.109375,12.20703125,0.0
99.25390625,22.94921875,-64.94140625,-42.96875,39.55078125,37.109375,0.0
99.2578125,46.38671875,-51.7578125,-36.62109375,53.22265625,14.16015625,0.0
99.26171875,59.5703125,-44.921875,-40.0390625,44.43359375,-38.0859375,0.0
99.265625,41.9921875,-49.31640625,-35.15625,38.57421875,0.0,0.0
99.26953125,21.97265625,-47.8515625,-33.203125,41.50390625,58.10546875,0.0
99.2734375,24.4140625,-58.59375,-15.625,43.9453125,36.62109375,0.0
99.27734375,40.0390625,-69.82421875,-1.46484375,43.9453125,11.71875,0.0
99.28125,41.015625,-58.59375,-23.4375,39.0625,-14.6484375,0.0
99.28515625,26.3671875,-55.6640625,-44.43359375,26.85546875,15.13671875,0.0
99.2890625,4.8828125,-58.59375,-39.55078125,17.578125,114.74609375,0.0
99.29296875,-4.39453125,-58.59375,-40.0390625,21.484375,-15.625,0.0
99.296875,16.11328125,-50.78125,-32.2265625,23.92578125,-142.578125,0.0
99.30078125,29.78515625,-44.921875,-30.2734375,15.13671875,-63.4765625,0.0
99.3046875,27.34375,-35.64453125,-29.78515625,19.53125,-120.1171875,0.0
99.30859375,1.46484375,-31.25,-20.99609375,20.5078125,-130.37109375,0.0
99.3125,-19.04296875,-42.96875,-24.4140625,2.44140625,-161.62109375,0.0
99.31640625,2.44140625,-53.22265625,-29.78515625,-0.48828125,-205.078125,0.0
99.3203125,31.73828125,-59.08203125,-28.80859375,12.6953125,-5.859375,0.0
99.32421875,33.203125,-60.546875,-25.87890625,14.6484375,62.5,0.0
99.328125,7.32421875,-67.3828125,-27.83203125,7.8125,-25.390625,0.0
99.33203125,3.41796875,-47.8515625,-16.6015625,11.71875,-37.109375,0.0
99.3359375,12.6953125,-35.64453125,-16.6015625,12.20703125,30.76171875,0.0
99.33984375,26.85546875,-50.29296875,-26.3671875,7.8125,0.0,0.0
99.34375,28.80859375,-49.8046875,-26.85546875,0.0,-8.7890625,0.0
99.34765625,3.90625,-41.9921875,-20.01953125,-4.39453125,-27.34375,0.0
99.3515625,-10.25390625,-36.1328125,-34.1796875,0.48828125,-53.7109375,0.0
99.35546875,-1.953125,-36.62109375,-41.50390625,1.953125,0.0,0.0
99.359375,17.578125,-45.8984375,-25.390625,3.90625,43.9453125,0.0
99.36328125,36.62109375,-50.78125,-16.11328125,18.06640625,20.5078125,0.0
99.3671875,30.76171875,-46.875,-4.39453125,22.4609375,-24.90234375,0.0
99.37109375,7.32421875,-63.96484375,-7.8125,13.18359375,-86.9140625,0.0
99.375,-11.23046875,-81.0546875,-24.90234375,-1.953125,-62.5,0.0
99.37890625,-8.30078125,-51.7578125,-35.15625,-12.20703125,41.50390625,0.0
99.3828125,16.11328125,-26.85546875,-27.34375,-7.32421875,50.78125,0.0
99.38671875,7.32421875,-43.9453125,-37.109375,-12.6953125,-8.7890625,0.0
99.390625,-16.6015625,-44.921875,-34.66796875,-13.18359375,21.97265625,0.0
99.39453125,-16.11328125,-40.0390625,-20.99609375,-11.23046875,48.33984375,0.0
99.3984375,-1.46484375,-44.921875,-9.765625,-1.46484375,-44.43359375,0.0
99.40234375,16.11328125,-28.3203125,-14.16015625,8.7890625,-25.390625,0.0
99.40625,8.30078125,-27.83203125,-33.69140625,-4.39453125,41.9921875,0.0
99.41015625,-17.08984375,-46.875,-29.296875,-11.71875,-60.05859375,0.0
99.4140625,-40.0390625,-56.640625,-24.4140625,-14.6484375,-131.34765625,0.0
99.41796875,-26.3671875,-43.45703125,-20.99609375,-20.01953125,-64.94140625,0.0
99.421875,7.32421875,-27.83203125,-20.5078125,-2.9296875,-24.4140625,0.0
99.42578125,5.37109375,-41.50390625,-14.6484375,9.27734375,28.3203125,0.0
99.4296875,-14.6484375,-48.33984375,-1.953125,-1.953125,-4.8828125,0.0
99.43359375,-19.04296875,-41.50390625,3.90625,-11.23046875,-131.34765625,0.0
99.4375,-17.08984375,-61.5234375,-6.8359375,-20.01953125,-82.03125,0.0
99.44140625,6.34765625,-66.40625,-4.39453125,-11.71875,-11.71875,0.0
99.4453125,16.6015625,-26.3671875,-5.37109375,-0.48828125,-86.42578125,0.0
99.44921875,-28.80859375,-12.20703125,-22.94921875,-15.625,-90.8203125,0.0
99.453125,-51.26953125,-11.23046875,-38.0859375,-24.4140625,-39.55078125,0.0
99.45703125,-34.1796875,-5.37109375,-52.734375,-23.4375,-57.12890625,0.0
99.4609375,-8.7890625,-17.08984375,-32.71484375,-12.20703125,-53.22265625,0.0
99.46484375,10.25390625,-17.08984375,1.46484375,-0.48828125,3.90625,0.0
99.46875,-11.23046875,-29.296875,1.953125,-12.20703125,124.51171875,0.0
99.47265625,-41.9921875,-44.43359375,-0.48828125,-21.484375,106.4453125,0.0
99.4765625,-34.1796875,-58.59375,6.8359375,-18.5546875,-13.18359375,0.0
99.48046875,-18.06640625,-70.3125,-0.48828125,-25.87890625,-82.51953125,0.0
99.484375,-2.9296875,-58.59375,1.953125,-18.06640625,-124.51171875,0.0
99.48828125,-8.30078125,-33.69140625,1.46484375,-15.625,-133.7890625,0.0
99.4921875,-27.34375,-17.08984375,-8.30078125,-22.94921875,-152.83203125,0.0
99.49609375,-20.5078125,-10.7421875,-10.25390625,-17.578125,-133.30078125,0.0
99.5,-7.32421875,-4.8828125,-12.6953125,-20.01953125,-69.3359375,0.0
99.50390625,-8.7890625,-21.97265625,-19.04296875,-22.4609375,-109.86328125,0.0
99.5078125,-19.04296875,-43.9453125,-12.6953125,-23.4375,-112.79296875,0.0
99.51171875,-27.34375,-39.0625,-5.859375,-22.94921875,-57.6171875,0.0
99.515625,-20.01953125,-36.1328125,-12.20703125,-16.11328125,-90.8203125,0.0
99.51953125,5.37109375,-33.203125,-6.8359375,-5.859375,8.7890625,0.0
99.5234375,1.953125,-44.43359375,-4.8828125,-0.48828125,86.9140625,0.0
99.52734375,-23.4375,-53.7109375,-18.5546875,-13.18359375,9.27734375,0.0
99.53125,-37.59765625,-34.1796875,-18.06640625,-20.01953125,9.27734375,0.0
99.53515625,-34.66796875,-20.01953125,-13.671875,-10.7421875,-9.27734375,0.0
99.5390625,-23.92578125,-25.390625,-15.625,-22.94921875,-31.73828125,0.0
99.54296875,-9.27734375,-24.4140625,-13.671875,-26.3671875,23.92578125,0.0
99.546875,-26.85546875,-25.390625,-22.4609375,-27.34375,15.13671875,0.0
99.55078125,-51.7578125,-34.66796875,-31.25,-41.015625,-30.76171875,0.0
99.5546875,-43.45703125,-35.15625,-32.2265625,-41.50390625,-24.90234375,0.0
99.55859375,-29.296875,-37.109375,-51.26953125,-41.015625,-7.32421875,0.0
99.5625,-16.11328125,-46.875,-45.8984375,-35.64453125,-71.2890625,0.0
99.56640625,-7.32421875,-45.8984375,-10.7421875,-24.4140625,-91.796875,0.0
99.5703125,-33.203125,-40.52734375,-18.06640625,-21.97265625,-58.10546875,0.0
99.57421875,-53.22265625,-32.2265625,-39.55078125,-35.15625,-56.640625,0.0
99.578125,-32.71484375,-37.109375,-30.2734375,-37.109375,-15.625,0.0
99.58203125,-3.90625,-49.31640625,-18.06640625,-28.3203125,30.76171875,0.0
99.5859375,5.37109375,-19.04296875,-25.390625,-28.3203125,33.203125,0.0
99.58984375,-38.57421875,-3.41796875,-48.828125,-47.36328125,-52.734375,0.0
99.59375,-56.640625,-20.01953125,-43.9453125,-46.875,-67.87109375,0.0
99.59765625,-18.06640625,-14.6484375,-22.4609375,-23.4375,-107.91015625,0.0
99.6015625,-8.30078125,0.48828125,-28.80859375,-33.203125,-96.19140625,0.0
99.60546875,-22.94921875,-9.27734375,-25.87890625,-47.36328125,-78.61328125,0.0
99.609375,-39.55078125,-18.06640625,-22.94921875,-37.59765625,-116.69921875,0.0
99.61328125,-60.546875,-25.87890625,-30.2734375,-44.43359375,-130.859375,0.0
99.6171875,-54.6875,-53.22265625,-36.1328125,-60.546875,-72.75390625,0.0
99.62109375,-19.04296875,-41.015625,-49.8046875,-58.10546875,33.69140625,0.0
99.625,-18.06640625,-0.48828125,-58.10546875,-61.03515625,16.6015625,0.0
99.62890625,-46.875,17.578125,-54.6875,-66.40625,-61.03515625,0.0
99.6328125,-69.3359375,12.6953125,-53.7109375,-72.75390625,-111.328125,0.0
99.63671875,-57.6171875,-1.46484375,-66.40625,-79.58984375,-136.23046875,0.0
99.640625,-9.765625,-5.37109375,-49.31640625,-55.17578125,-73.2421875,0.0
99.64453125,9.27734375,3.41796875,-37.109375,-35.64453125,53.22265625,0.0
99.6484375,-17.578125,-3.41796875,-39.55078125,-43.9453125,19.53125,0.0
99.65234375,-44.43359375,-21.97265625,-39.0625,-50.29296875,-42.48046875,0.0
99.65625,-46.875,-43.9453125,-50.29296875,-58.10546875,-48.828125,0.0
99.66015625,-16.11328125,-35.15625,-44.43359375,-50.78125,-9.27734375,0.0
99.6640625,-11.23046875,-26.85546875,-48.33984375,-48.828125,73.73046875,0.0
99.66796875,-27.34375,-32.71484375,-45.41015625,-43.45703125,79.58984375,0.0
99.671875,-30.76171875,-33.69140625,-43.9453125,-34.66796875,40.52734375,0.0
99.67578125,-24.90234375,-29.296875,-57.12890625,-26.3671875,27.83203125,0.0
99.6796875,-13.671875,-4.39453125,-36.1328125,-21.484375,0.0,0.0
99.68359375,-12.6953125,12.20703125,-16.11328125,-22.4609375,25.390625,0.0
99.6875,-19.53125,-1.953125,-18.5546875,-22.94921875,-4.39453125,0.0
99.69140625,-36.1328125,-29.78515625,-33.69140625,-32.71484375,-56.15234375,0.0
99.6953125,-43.9453125,-40.52734375,-46.875,-47.36328125,-27.34375,0.0
99.69921875,-18.5546875,-35.15625,-47.8515625,-40.0390625,38.0859375,0.0
99.703125,0.9765625,-31.25,-37.59765625,-27.34375,60.05859375,0.0
99.70703125,-19.53125,-36.1328125,-32.71484375,-38.57421875,36.1328125,0.0
99.7109375,-36.62109375,-36.1328125,-25.390625,-34.66796875,-55.6640625,0.0
99.71484375,-32.2265625,-26.85546875,-21.484375,-31.25,-110.83984375,0.0
99.71875,-9.27734375,-26.3671875,-21.484375,-27.34375,-62.01171875,0.0
99.72265625,3.90625,-34.1796875,-21.97265625,-16.6015625,9.27734375,0.0
99.7265625,-19.53125,-38.57421875,-37.59765625,-27.34375,58.10546875,0.0
99.73046875,-36.62109375,-36.62109375,-31.73828125,-31.73828125,-53.22265625,0.0
99.734375,-35.64453125,-47.36328125,-27.83203125,-27.34375,-28.3203125,0.0
99.73828125,-12.6953125,-49.8046875,-30.76171875,-25.87890625,71.2890625,0.0
99.7421875,5.859375,-29.78515625,-31.25,-21.484375,21.484375,0.0
99.74609375,-14.6484375,-16.6015625,-39.0625,-19.53125,-0.9765625,0.0
99.75,-45.41015625,-21.484375,-42.48046875,-34.66796875,37.109375,0.0
99.75390625,-40.52734375,-21.97265625,-26.3671875,-33.69140625,2.9296875,0.0
99.7578125,-18.5546875,-13.671875,-11.71875,-17.578125,3.90625,0.0
99.76171875,-16.11328125,-14.16015625,-29.78515625,-22.4609375,-26.3671875,0.0
99.765625,-20.01953125,-20.99609375,-40.52734375,-30.2734375,-139.6484375,0.0
99.76953125,-36.1328125,-40.0390625,-41.015625,-29.78515625,-178.7109375,0.0
99.7734375,-50.29296875,-55.17578125,-38.57421875,-28.80859375,-198.2421875,0.0
99.77734375,-31.73828125,-41.50390625,-38.57421875,-28.3203125,-171.875,0.0
99.78125,-16.11328125,-28.3203125,-37.59765625,-26.3671875,-142.578125,0.0
99.78515625,-18.5546875,-33.69140625,-28.3203125,-19.04296875,-137.20703125,0.0
99.7890625,-39.0625,-39.55078125,-28.80859375,-22.94921875,-179.6875,0.0
99.79296875,-55.17578125,-36.62109375,-22.4609375,-26.85546875,-211.9140625,0.0
99.796875,-31.73828125,-30.76171875,-14.6484375,-22.94921875,-65.4296875,0.0
99.80078125,-4.39453125,-26.85546875,-26.85546875,-15.13671875,13.18359375,0.0
99.8046875,-11.71875,-24.90234375,-39.0625,-15.625,-17.08984375,0.0
99.80859375,-47.36328125,-35.15625,-36.62109375,-27.34375,-11.23046875,0.0
99.8125,-65.91796875,-47.36328125,-28.3203125,-32.71484375,-76.171875,0.0
99.81640625,-49.8046875,-45.41015625,-27.83203125,-33.69140625,-140.625,0.0
99.8203125,-28.80859375,-32.2265625,-36.1328125,-35.64453125,-57.6171875,0.0
99.82421875,-18.5546875,-26.3671875,-43.45703125,-24.90234375,-51.7578125,0.0
99.828125,-28.80859375,-35.15625,-49.8046875,-19.04296875,9.27734375,0.0
99.83203125,-42.96875,-44.43359375,-32.71484375,-19.04296875,174.31640625,0.0
99.8359375,-37.109375,-43.9453125,-20.99609375,-24.90234375,144.53125,0.0
99.83984375,-11.71875,-35.15625,-28.80859375,-20.5078125,109.375,0.0
99.84375,-0.9765625,-37.109375,-40.0390625,-9.765625,140.625,0.0
99.84765625,-22.4609375,-36.62109375,-37.109375,-29.296875,60.546875,0.0
99.8515625,-46.875,-28.80859375,-31.73828125,-45.8984375,-39.0625,0.0
99.85546875,-43.9453125,-31.25,-41.9921875,-44.921875,9.27734375,0.0
99.859375,-22.94921875,-41.015625,-48.33984375,-37.59765625,21.97265625,0.0
99.86328125,-11.71875,-41.9921875,-39.55078125,-20.01953125,-13.18359375,0.0
99.8671875,-17.578125,-34.66796875,-42.48046875,-19.53125,-27.83203125,0.0
99.87109375,-38.0859375,-34.1796875,-37.109375,-25.87890625,-4.8828125,0.0
99.875,-42.96875,-33.69140625,-24.4140625,-19.53125,67.3828125,0.0
99.87890625,-16.11328125,-33.69140625,-18.06640625,-11.71875,42.96875,0.0
99.8828125,-0.48828125,-26.85546875,-21.97265625,-7.32421875,-32.71484375,0.0
99.88671875,-10.7421875,-26.85546875,-24.4140625,-6.8359375,-2.9296875,0.0
99.890625,-29.78515625,-19.53125,-14.6484375,-10.7421875,2.44140625,0.0
99.89453125,-43.9453125,-17.08984375,-29.296875,-28.3203125,-98.6328125,0.0
99.8984375,-36.1328125,-41.9921875,-55.17578125,-49.8046875,-61.03515625,0.0
99.90234375,-16.6015625,-41.9921875,-60.05859375,-42.48046875,-19.53125,0.0
99.90625,-23.4375,-24.4140625,-37.59765625,-29.296875,34.66796875,0.0
99.91015625,-49.8046875,-33.203125,-24.4140625,-33.203125,30.2734375,0.0
99.9140625,-48.33984375,-42.48046875,-25.390625,-27.34375,-79.1015625,0.0
99.91796875,-23.4375,-28.3203125,-21.97265625,-19.04296875,-84.47265625,0.0
99.921875,-5.859375,-32.71484375,-20.01953125,-17.08984375,-80.078125,0.0
99.92578125,-16.6015625,-44.921875,-25.87890625,-20.01953125,-157.71484375,0.0
99.9296875,-39.0625,-36.62109375,-27.34375,-24.4140625,-135.7421875,0.0
99.93359375,-43.9453125,-34.66796875,-21.97265625,-30.2734375,-68.359375,0.0
99.9375,-16.11328125,-35.15625,-12.6953125,-33.69140625,-61.03515625,0.0
99.94140625,0.0,-31.73828125,-21.97265625,-26.3671875,-113.28125,0.0
99.9453125,-23.4375,-26.3671875,-35.64453125,-30.2734375,-81.0546875,0.0
99.94921875,-38.0859375,-25.390625,-38.0859375,-20.01953125,-15.625,0.0
99.953125,-41.50390625,-30.76171875,-44.921875,-14.6484375,-112.3046875,0.0
99.95703125,-31.73828125,-34.66796875,-55.17578125,-21.97265625,-85.9375,0.0
99.9609375,-12.6953125,-28.3203125,-58.10546875,-18.06640625,-21.484375,0.0
99.96484375,-9.765625,-17.578125,-38.0859375,-13.18359375,-19.53125,0.0
99.96875,-31.25,-19.53125,-16.6015625,-19.53125,-9.27734375,0.0
99.97265625,-44.43359375,-41.015625,-21.484375,-30.2734375,-70.80078125,0.0
99.9765625,-25.390625,-58.59375,-23.4375,-27.34375,-108.3984375,0.0
99.98046875,1.953125,-41.015625,-17.08984375,-21.484375,-104.4921875,0.0
99.984375,1.953125,-19.53125,-35.64453125,-17.578125,-45.41015625,0.0
99.98828125,-19.53125,-27.83203125,-53.7109375,-11.23046875,6.8359375,0.0
99.9921875,-42.96875,-46.38671875,-51.7578125,-23.92578125,-36.62109375,0.0
99.99609375,-44.921875,-46.875,-39.0625,-38.57421875,-63.96484375,0.0
100.0,-26.85546875,-38.57421875,-32.2265625,-33.203125,-123.046875,0.0
100.00390625,-12.6953125,-32.2265625,-30.2734375,-20.01953125,-99.12109375,0.0
100.0078125,-20.99609375,-25.390625,-28.3203125,-17.08984375,-9.27734375,0.0
100.01171875,-40.52734375,-29.78515625,-38.0859375,-23.92578125,43.45703125,0.0
100.015625,-39.55078125,-28.80859375,-37.109375,-25.390625,34.66796875,0.0
100.01953125,-22.4609375,-23.4375,-29.78515625,-22.4609375,29.78515625,0.0
100.0234375,-7.8125,-21.484375,-24.90234375,-19.04296875,49.8046875,0.0
100.02734375,-16.11328125,-16.11328125,-18.5546875,-8.7890625,55.6640625,0.0
100.03125,-35.64453125,-18.06640625,-20.5078125,-10.7421875,20.5078125,0.0
100.03515625,-45.8984375,-27.34375,-23.4375,-32.71484375,-46.38671875,0.0
100.0390625,-26.3671875,-26.85546875,-20.99609375,-28.80859375,1.46484375,0.0
100.04296875,-8.30078125,-30.2734375,-23.92578125,-27.34375,-0.9765625,0.0
100.046875,-19.04296875,-42.96875,-36.62109375,-33.203125,-55.6640625,0.0
100.05078125,-45.8984375,-40.52734375,-40.52734375,-31.25,-53.7109375,0.0
100.0546875,-44.43359375,-25.390625,-26.85546875,-36.62109375,-47.8515625,0.0
100.05859375,-27.83203125,-37.59765625,-18.5546875,-43.9453125,-27.34375,0.0
100.0625,-17.578125,-36.1328125,-14.6484375,-29.296875,-9.27734375,0.0
100.06640625,-22.94921875,-29.296875,-13.671875,-19.53125,23.4375,0.0
100.0703125,-43.9453125,-36.62109375,-22.4609375,-22.94921875,-27.34375,0.0
100.07421875,-48.828125,-24.90234375,-21.97265625,-29.296875,-118.1640625,0.0
100.078125,-31.73828125,-17.578125,-23.4375,-32.71484375,-142.08984375,0.0
100.08203125,-12.20703125,-18.06640625,-29.78515625,-20.01953125,-107.421875,0.0
100.0859375,-11.71875,-31.73828125,-35.64453125,-19.04296875,-118.1640625,0.0
100.08984375,-36.1328125,-48.33984375,-41.9921875,-19.53125,-60.546875,0.0
100.09375,-43.45703125,-38.0859375,-34.1796875,-16.6015625,-25.390625,0.0
100.09765625,-32.71484375,-36.62109375,-31.73828125,-28.80859375,-57.12890625,0.0
100.1015625,-22.94921875,-45.41015625,-37.109375,-32.2265625,17.08984375,0.0
100.10546875,-13.18359375,-35.64453125,-20.01953125,-20.99609375,94.7265625,0.0
100.109375,-24.4140625,-30.2734375,-21.484375,-22.4609375,9.27734375,0.0
100.11328125,-39.0625,-39.0625,-63.96484375,-34.66796875,-41.9921875,0.0
100.1171875,-22.94921875,-24.4140625,-53.22265625,-30.2734375,11.23046875,0.0
100.12109375,-2.44140625,-10.25390625,-14.16015625,-22.94921875,-14.16015625,0.0
100.125,-14.6484375,-28.3203125,-12.6953125,-27.34375,34.66796875,0.0
100.12890625,-48.33984375,-44.43359375,-16.6015625,-41.9921875,61.03515625,0.0
100.1328125,-64.453125,-48.33984375,-3.41796875,-50.29296875,12.20703125,0.0
100.13671875,-59.08203125,-53.22265625,-12.6953125,-56.640625,2.9296875,0.0
100.140625,-40.52734375,-60.05859375,-24.4140625,-50.78125,47.36328125,0.0
100.14453125,-38.0859375,-61.03515625,-9.27734375,-34.66796875,24.90234375,0.0
100.1484375,-61.5234375,-58.10546875,-5.37109375,-35.15625,-1.953125,0.0
100.15234375,-80.078125,-56.15234375,-15.13671875,-45.41015625,13.671875,0.0
100.15625,-74.21875,-52.24609375,-22.94921875,-55.17578125,-20.01953125,0.0
100.16015625,-43.45703125,-42.96875,-20.5078125,-43.45703125,-26.3671875,0.0
100.1640625,-30.2734375,-43.9453125,-15.13671875,-34.66796875,-14.16015625,0.0
100.16796875,-42.96875,-48.33984375,-17.08984375,-34.66796875,-35.15625,0.0
100.171875,-53.22265625,-40.52734375,-22.4609375,-28.3203125,-83.0078125,0.0
100.17578125,-50.29296875,-41.9921875,-35.64453125,-40.0390625,-158.203125,0.0
100.1796875,-29.78515625,-48.33984375,-46.38671875,-47.8515625,-141.6015625,0.0
100.18359375,-18.5546875,-40.52734375,-29.78515625,-36.1328125,-75.1953125,0.0
100.1875,-48.33984375,-40.52734375,-26.3671875,-43.45703125,-45.41015625,0.0
100.19140625,-78.125,-48.33984375,-33.203125,-52.734375,-22.94921875,0.0
100.1953125,-63.96484375,-59.5703125,-43.9453125,-49.31640625,3.41796875,0.0
100.19921875,-33.69140625,-60.05859375,-57.6171875,-40.52734375,57.6171875,0.0
100.203125,-24.90234375,-35.64453125,-34.1796875,-35.15625,57.6171875,0.0
100.20703125,-38.57421875,-26.85546875,-16.11328125,-35.15625,27.34375,0.0
100.2109375,-55.6640625,-39.55078125,-17.578125,-34.1796875,-62.98828125,0.0
100.21484375,-53.7109375,-51.26953125,-12.6953125,-30.76171875,-164.55078125,0.0
100.21875,-40.52734375,-45.41015625,-19.53125,-21.97265625,-136.23046875,0.0
100.22265625,-31.25,-38.0859375,-28.80859375,-25.390625,-103.515625,0.0
100.2265625,-32.2265625,-37.109375,-35.64453125,-30.76171875,-62.01171875,0.0
100.23046875,-57.6171875,-57.6171875,-48.828125,-37.59765625,-37.59765625,0.0
100.234375,-59.08203125,-56.15234375,-50.78125,-47.8515625,-23.4375,0.0
100.23828125,-34.66796875,-36.1328125,-35.15625,-39.0625,-68.359375,0.0
100.2421875,-27.34375,-35.15625,-21.484375,-30.2734375,-34.1796875,0.0
100.24609375,-31.73828125,-27.83203125,-24.4140625,-34.1796875,60.546875,0.0
100.25,-42.48046875,-26.85546875,-23.4375,-38.0859375,19.53125,0.0
100.25390625,-46.38671875,-42.96875,-20.5078125,-29.296875,-9.765625,0.0
100.2578125,-31.25,-44.921875,-16.6015625,-20.01953125,-13.671875,0.0
100.26171875,-18.5546875,-33.203125,-29.296875,-20.99609375,-31.73828125,0.0
100.265625,-27.83203125,-39.55078125,-37.109375,-23.92578125,-17.578125,0.0
100.26953125,-54.19921875,-45.8984375,-31.25,-32.71484375,10.7421875,0.0
100.2734375,-64.94140625,-46.875,-39.0625,-33.69140625,63.96484375,0.0
100.27734375,-33.69140625,-35.15625,-38.57421875,-27.83203125,24.90234375,0.0
100.28125,-11.71875,-17.578125,-33.69140625,-28.80859375,1.953125,0.0
100.28515625,-16.11328125,-18.06640625,-37.109375,-21.97265625,45.8984375,0.0
100.2890625,-40.0390625,-28.3203125,-36.62109375,-24.90234375,-8.30078125,0.0
100.29296875,-51.7578125,-30.2734375,-19.04296875,-32.71484375,-61.03515625,0.0
100.296875,-40.0390625,-34.66796875,-16.6015625,-36.1328125,-101.5625,0.0
100.30078125,-20.01953125,-32.71484375,-17.08984375,-32.2265625,-170.41015625,0.0
100.3046875,-13.18359375,-27.83203125,-20.99609375,-25.87890625,-270.5078125,0.0
100.30859375,-37.59765625,-42.96875,-41.50390625,-21.484375,-221.6796875,0.0
100.3125,-49.31640625,-50.78125,-43.9453125,-20.5078125,-174.8046875,0.0
100.31640625,-30.76171875,-49.8046875,-34.1796875,-29.296875,-206.0546875,0.0
100.3203125,-5.37109375,-41.9921875,-24.90234375,-20.01953125,-155.76171875,0.0
100.32421875,0.0,-25.390625,-25.390625,-18.5546875,-106.93359375,0.0
100.328125,-23.92578125,-19.04296875,-20.5078125,-29.296875,-144.04296875,0.0
100.33203125,-45.8984375,-16.11328125,-17.578125,-24.90234375,-186.5234375,0.0
100.3359375,-44.921875,-21.97265625,-31.25,-33.203125,-155.2734375,0.0
100.33984375,-34.1796875,-30.2734375,-43.45703125,-41.50390625,-68.84765625,0.0
100.34375,-29.78515625,-38.0859375,-48.828125,-36.1328125,-69.3359375,0.0
100.34765625,-34.1796875,-46.875,-27.83203125,-27.34375,-103.02734375,0.0
100.3515625,-45.8984375,-46.38671875,5.37109375,-20.99609375,-41.015625,0.0
100.35546875,-54.19921875,-45.41015625,-0.48828125,-30.2734375,48.828125,0.0
100.359375,-34.66796875,-36.1328125,-15.13671875,-33.203125,80.078125,0.0
100.36328125,-17.578125,-31.25,-17.578125,-33.203125,57.6171875,0.0
100.3671875,-33.203125,-39.55078125,-18.5546875,-25.87890625,18.06640625,0.0
100.37109375,-51.7578125,-35.64453125,-19.53125,-20.01953125,-37.59765625,0.0
100.375,-49.31640625,-24.4140625,-17.08984375,-32.2265625,-29.78515625,0.0
100.37890625,-21.97265625,-32.71484375,-18.06640625,-31.25,29.296875,0.0
100.3828125,-2.9296875,-37.109375,-19.53125,-24.90234375,4.8828125,0.0
100.38671875,-21.97265625,-20.01953125,-18.06640625,-30.76171875,36.62109375,0.0
100.390625,-59.5703125,-35.64453125,-36.1328125,-47.8515625,45.8984375,0.0
100.39453125,-67.3828125,-64.94140625,-55.17578125,-53.7109375,-14.16015625,0.0
100.3984375,-41.50390625,-51.7578125,-43.45703125,-43.45703125,8.30078125,0.0
100.40234375,-11.71875,-23.92578125,-16.6015625,-32.2265625,-3.90625,0.0
100.40625,-11.23046875,-13.18359375,-10.25390625,-23.4375,16.11328125,0.0
100.41015625,-36.62109375,-2.9296875,-21.97265625,-22.94921875,89.35546875,0.0
100.4140625,-41.9921875,-3.90625,-28.3203125,-26.85546875,94.7265625,0.0
100.41796875,-18.06640625,-15.13671875,-30.2734375,-20.01953125,52.24609375,0.0
100.421875,-7.32421875,-13.671875,-28.80859375,-26.3671875,148.92578125,0.0
100.42578125,-16.11328125,-7.8125,-31.25,-38.0859375,212.890625,0.0
100.4296875,-27.34375,-1.953125,-39.55078125,-31.25,134.765625,0.0
100.43359375,-36.62109375,-7.32421875,-35.64453125,-24.4140625,27.34375,0.0
100.4375,-20.5078125,-17.578125,-32.71484375,-30.76171875,-20.99609375,0.0
100.44140625,2.9296875,-21.484375,-33.203125,-33.69140625,3.41796875,0.0
100.4453125,-14.16015625,-25.87890625,-27.83203125,-37.109375,-17.578125,0.0
100.44921875,-46.38671875,-24.4140625,-44.43359375,-42.96875,-16.11328125,0.0
100.453125,-50.29296875,-12.20703125,-52.734375,-36.62109375,-61.03515625,0.0
100.45703125,-34.66796875,-8.7890625,-50.78125,-35.64453125,-88.8671875,0.0
100.4609375,-20.01953125,-24.4140625,-61.5234375,-40.0390625,-51.7578125,0.0
100.46484375,-21.97265625,-37.109375,-45.8984375,-37.109375,-73.2421875,0.0
100.46875,-40.0390625,-27.34375,-34.66796875,-34.1796875,-82.51953125,0.0
100.47265625,-49.31640625,-17.08984375,-41.9921875,-36.1328125,-47.36328125,0.0
100.4765625,-33.203125,-11.71875,-54.6875,-31.73828125,-52.24609375,0.0
100.48046875,-10.25390625,-3.90625,-44.43359375,-22.94921875,-39.55078125,0.0
100.484375,-13.671875,-17.08984375,-22.4609375,-20.5078125,-43.9453125,0.0
100.48828125,-23.4375,-27.83203125,-18.5546875,-19.04296875,3.90625,0.0
100.4921875,-32.2265625,-32.71484375,-23.92578125,-23.4375,-13.18359375,0.0
100.49609375,-41.50390625,-44.43359375,-40.0390625,-41.015625,-100.5859375,0.0
100.5,-37.109375,-39.55078125,-58.10546875,-54.19921875,-44.921875,0.0
100.50390625,-25.390625,-28.3203125,-50.78125,-39.55078125,-22.4609375,0.0
100.5078125,-31.73828125,-23.92578125,-27.34375,-30.76171875,-39.0625,0.0
100.51171875,-49.8046875,-32.71484375,-29.296875,-41.50390625,-65.4296875,0.0
100.515625,-41.9921875,-35.15625,-48.33984375,-41.50390625,-75.68359375,0.0
100.51953125,-18.5546875,-30.2734375,-48.828125,-40.0390625,-61.5234375,0.0
100.5234375,-7.8125,-22.4609375,-33.203125,-35.15625,-22.94921875,0.0
100.52734375,-20.5078125,-11.71875,-20.5078125,-34.1796875,-20.5078125,0.0
100.53125,-37.59765625,-27.83203125,-24.4140625,-36.62109375,-22.4609375,0.0
100.53515625,-40.0390625,-40.52734375,-30.76171875,-35.64453125,-33.203125,0.0
100.5390625,-27.83203125,-15.13671875,-38.57421875,-33.69140625,-41.50390625,0.0
100.54296875,-10.25390625,-5.37109375,-39.0625,-22.94921875,-43.45703125,0.0
100.546875,-27.83203125,-17.08984375,-32.2265625,-25.390625,9.27734375,0.0
100.55078125,-53.7109375,-23.92578125,-28.3203125,-34.1796875,-64.453125,0.0
100.5546875,-43.45703125,-29.296875,-22.94921875,-24.90234375,-238.76953125,0.0
100.55859375,-18.5546875,-36.62109375,-34.66796875,-20.5078125,-218.75,0.0
100.5625,-9.765625,-37.59765625,-48.828125,-31.25,-82.51953125,0.0
100.56640625,-27.34375,-29.78515625,-39.55078125,-35.64453125,44.921875,0.0
100.5703125,-51.26953125,-33.69140625,-40.0390625,-29.78515625,77.1484375,0.0
100.57421875,-53.7109375,-41.50390625,-32.71484375,-27.83203125,32.71484375,0.0
100.578125,-32.71484375,-36.62109375,-27.34375,-29.296875,16.11328125,0.0
100.58203125,-16.11328125,-38.57421875,-33.203125,-38.0859375,-62.01171875,0.0
100.5859375,-20.99609375,-26.85546875,-23.92578125,-29.78515625,-41.9921875,0.0
100.58984375,-42.48046875,-19.53125,-31.73828125,-32.2265625,44.921875,0.0
100.59375,-44.921875,-22.4609375,-35.15625,-31.73828125,3.90625,0.0
100.59765625,-15.13671875,-9.27734375,-23.92578125,-5.859375,-11.23046875,0.0
100.6015625,0.9765625,-8.7890625,-32.2265625,-13.671875,30.76171875,0.0
100.60546875,-9.27734375,-17.08984375,-39.55078125,-25.390625,25.87890625,0.0
100.609375,-27.34375,-26.85546875,-20.01953125,-14.16015625,-7.32421875,0.0
100.61328125,-32.2265625,-42.96875,-7.32421875,-8.7890625,-23.92578125,0.0
100.6171875,-26.3671875,-45.41015625,-19.04296875,-22.94921875,-78.61328125,0.0
100.62109375,-19.04296875,-31.25,-40.0390625,-29.296875,-60.05859375,0.0
100.625,-14.6484375,-9.27734375,-36.1328125,-22.94921875,-37.109375,0.0
100.62890625,-37.59765625,-0.48828125,-16.6015625,-22.94921875,-76.66015625,0.0
100.6328125,-57.12890625,-19.53125,-19.53125,-40.0390625,-65.4296875,0.0
100.63671875,-45.41015625,-33.69140625,-26.85546875,-48.828125,-76.171875,0.0
100.640625,-19.04296875,-26.3671875,-18.5546875,-34.1796875,-55.17578125,0.0
100.64453125,-18.06640625,-29.296875,-26.85546875,-42.96875,-13.671875,0.0
100.6484375,-38.0859375,-34.1796875,-38.57421875,-38.0859375,-32.2265625,0.0
100.65234375,-48.33984375,-36.1328125,-32.2265625,-34.66796875,-40.52734375,0.0
100.65625,-37.109375,-55.17578125,-36.62109375,-35.15625,40.0390625,0.0
100.66015625,-11.71875,-56.15234375,-38.0859375,-15.625,72.265625,0.0
100.6640625,-8.30078125,-34.1796875,-28.80859375,-20.99609375,-3.41796875,0.0
100.66796875,-22.94921875,-15.625,-19.04296875,-21.484375,-20.01953125,0.0
100.671875,-46.38671875,-11.71875,-30.76171875,-20.5078125,-16.11328125,0.0
100.67578125,-50.29296875,-28.3203125,-37.59765625,-22.94921875,-63.96484375,0.0
100.6796875,-24.4140625,-29.78515625,-27.83203125,-28.80859375,-64.94140625,0.0
100.68359375,-13.671875,-22.94921875,-24.90234375,-39.0625,-51.7578125,0.0
100.6875,-21.97265625,-21.484375,-8.7890625,-32.71484375,-16.6015625,0.0
100.69140625,-38.0859375,-41.50390625,-4.8828125,-25.390625,11.23046875,0.0
100.6953125,-38.57421875,-44.921875,-25.87890625,-30.2734375,20.5078125,0.0
100.69921875,-24.90234375,-25.87890625,-47.36328125,-42.48046875,9.27734375,0.0
100.703125,-18.5546875,-15.13671875,-42.48046875,-46.38671875,21.97265625,0.0
100.70703125,-24.4140625,-25.390625,-28.80859375,-35.15625,5.859375,0.0
100.7109375,-33.69140625,-34.66796875,-31.25,-21.97265625,-5.859375,0.0
100.71484375,-27.83203125,-23.92578125,-39.0625,-17.08984375,18.06640625,0.0
100.71875,-9.765625,-38.57421875,-39.55078125,-18.06640625,-51.7578125,0.0
100.72265625,-1.46484375,-40.52734375,-25.390625,-17.08984375,-16.6015625,0.0
100.7265625,-19.04296875,-23.92578125,-34.1796875,-20.99609375,11.23046875,0.0
100.73046875,-43.45703125,-25.87890625,-42.48046875,-26.85546875,-106.93359375,0.0
100.734375,-53.22265625,-34.1796875,-40.52734375,-36.1328125,-167.48046875,0.0
100.73828125,-43.45703125,-28.3203125,-43.9453125,-47.36328125,-161.1328125,0.0
100.7421875,-30.76171875,-26.85546875,-40.52734375,-42.96875,-71.77734375,0.0
100.74609375,-39.0625,-35.64453125,-29.78515625,-42.96875,-18.06640625,0.0
100.75,-58.10546875,-33.69140625,-19.53125,-40.0390625,-125.48828125,0.0
100.75390625,-49.31640625,-35.15625,-20.99609375,-30.2734375,-139.6484375,0.0
100.7578125,-32.2265625,-48.33984375,-33.69140625,-28.3203125,-108.88671875,0.0
100.76171875,-15.625,-41.50390625,-39.55078125,-25.87890625,-143.06640625,0.0
100.765625,-12.6953125,-28.3203125,-34.1796875,-20.01953125,-176.26953125,0.0
100.76953125,-34.1796875,-21.484375,-35.64453125,-19.53125,-192.3828125,0.0
100.7734375,-37.109375,-6.8359375,-32.71484375,-20.01953125,-142.08984375,0.0
100.77734375,-24.90234375,-20.5078125,-28.80859375,-24.4140625,-98.14453125,0.0
100.78125,-12.20703125,-39.0625,-36.1328125,-27.83203125,-77.1484375,0.0
100.78515625,-10.7421875,-31.73828125,-41.015625,-24.4140625,-61.03515625,0.0
100.7890625,-28.80859375,-20.01953125,-27.83203125,-11.71875,-51.26953125,0.0
100.79296875,-62.5,-19.53125,-18.5546875,-28.3203125,-13.671875,0.0
100.796875,-62.01171875,-44.43359375,-34.66796875,-49.31640625,-38.0859375,0.0
100.80078125,-28.3203125,-57.12890625,-35.15625,-34.1796875,3.41796875,0.0
100.8046875,-42.96875,-56.640625,-30.2734375,-44.921875,72.75390625,0.0
100.80859375,-65.91796875,-62.5,-34.66796875,-40.52734375,58.59375,0.0
100.8125,-62.98828125,-62.5,-0.48828125,-16.11328125,40.52734375,0.0
100.81640625,-56.640625,-60.05859375,18.06640625,-23.92578125,-0.9765625,0.0
100.8203125,-39.0625,-52.734375,-11.23046875,-32.71484375,42.48046875,0.0
100.82421875,-48.33984375,-48.33984375,-23.92578125,-45.41015625,73.2421875,0.0
100.828125,-77.1484375,-56.15234375,-12.6953125,-56.15234375,31.73828125,0.0
100.83203125,-84.9609375,-50.78125,-21.97265625,-53.22265625,63.4765625,0.0
100.8359375,-61.03515625,-45.8984375,-25.390625,-44.921875,24.90234375,0.0
100.83984375,-33.203125,-59.08203125,-17.08984375,-34.66796875,-37.109375,0.0
100.84375,-28.80859375,-59.08203125,-31.73828125,-30.2734375,-21.97265625,0.0
100.84765625,-38.57421875,-57.6171875,-22.94921875,-25.87890625,-43.45703125,0.0
100.8515625,-40.52734375,-58.59375,4.8828125,-10.7421875,-93.75,0.0
100.85546875,-39.55078125,-62.5,-7.32421875,-21.97265625,-92.7734375,0.0
100.859375,-27.83203125,-41.9921875,-47.8515625,-36.1328125,-109.86328125,0.0
100.86328125,-21.484375,-30.76171875,-56.15234375,-40.0390625,-134.27734375,0.0
100.8671875,-27.34375,-23.4375,-17.578125,-25.87890625,-50.78125,0.0
100.87109375,-41.50390625,-30.2734375,1.46484375,-21.484375,-30.76171875,0.0
100.875,-52.24609375,-49.8046875,-10.25390625,-32.71484375,-17.578125,0.0
100.87890625,-36.62109375,-34.66796875,-26.85546875,-28.3203125,2.44140625,0.0
100.8828125,-25.390625,-35.64453125,-27.83203125,-41.015625,-21.97265625,0.0
100.88671875,-24.90234375,-45.8984375,-18.06640625,-31.25,-41.015625,0.0
100.890625,-37.59765625,-66.40625,-20.01953125,-16.6015625,-51.26953125,0.0
100.89453125,-56.15234375,-65.91796875,-33.69140625,-33.69140625,-52.24609375,0.0
100.8984375,-34.1796875,-41.9921875,-33.203125,-34.66796875,-35.15625,0.0
100.90234375,-4.8828125,-33.69140625,-23.92578125,-26.3671875,-62.98828125,0.0
100.90625,-20.99609375,-27.83203125,-40.52734375,-33.69140625,-107.91015625,0.0
100.91015625,-44.43359375,-25.390625,-32.2265625,-30.76171875,-55.17578125,0.0
100.9140625,-42.48046875,-26.85546875,-7.32421875,-18.5546875,-23.4375,0.0
100.91796875,-23.92578125,-35.15625,-30.76171875,-19.53125,-39.55078125,0.0
100.921875,-3.41796875,-41.015625,-59.5703125,-25.87890625,9.27734375,0.0
100.92578125,-2.44140625,-41.50390625,-38.0859375,-22.4609375,41.50390625,0.0
100.9296875,-30.76171875,-50.78125,-2.9296875,-18.06640625,-27.34375,0.0
100.93359375,-56.640625,-60.05859375,2.44140625,-23.92578125,-105.46875,0.0
100.9375,-43.9453125,-66.40625,-9.765625,-32.2265625,-27.83203125,0.0
100.94140625,-26.85546875,-64.94140625,-20.01953125,-41.015625,0.9765625,0.0
100.9453125,-27.34375,-30.76171875,-35.64453125,-34.1796875,-66.40625,0.0
100.94921875,-43.45703125,-20.01953125,-41.50390625,-26.85546875,-61.5234375,0.0
100.953125,-64.94140625,-36.62109375,-37.59765625,-42.48046875,-40.0390625,0.0
100.95703125,-54.19921875,-32.2265625,-32.71484375,-46.875,3.41796875,0.0
100.9609375,-27.83203125,-27.34375,-27.83203125,-34.66796875,62.98828125,0.0
100.96484375,-27.83203125,-34.1796875,-42.48046875,-31.73828125,3.41796875,0.0
100.96875,-41.9921875,-52.24609375,-44.921875,-30.76171875,17.08984375,0.0
100.97265625,-59.5703125,-60.546875,-35.64453125,-39.55078125,54.19921875,0.0
100.9765625,-48.33984375,-46.875,-30.2734375,-37.59765625,37.59765625,0.0
100.98046875,-3.41796875,-37.59765625,-20.01953125,-23.4375,19.04296875,0.0
100.984375,1.953125,-48.33984375,-21.97265625,-28.3203125,45.41015625,0.0
100.98828125,-35.64453125,-42.48046875,-29.78515625,-39.0625,55.17578125,0.0
100.9921875,-46.38671875,-15.13671875,-25.87890625,-37.109375,-36.1328125,0.0
100.99609375,-30.2734375,-21.484375,-26.85546875,-38.57421875,-99.12109375,0.0
101.0,-10.25390625,-30.2734375,-35.15625,-33.69140625,-46.38671875,0.0
101.00390625,6.8359375,-13.671875,-25.87890625,-9.765625,-24.90234375,0.0
101.0078125,-13.18359375,-6.8359375,-6.34765625,-11.23046875,-17.578125,0.0
101.01171875,-52.24609375,-15.625,-37.59765625,-33.69140625,41.9921875,0.0
101.015625,-46.38671875,-28.80859375,-63.4765625,-31.73828125,-6.8359375,0.0
101.01953125,-14.16015625,-46.38671875,-27.34375,-21.484375,6.34765625,0.0
101.0234375,-1.46484375,-66.40625,-2.9296875,-17.578125,79.58984375,0.0
101.02734375,-22.4609375,-54.19921875,-30.2734375,-26.85546875,32.71484375,0.0
101.03125,-51.26953125,-32.71484375,-50.29296875,-36.62109375,-76.171875,0.0
101.03515625,-41.50390625,-35.64453125,-31.25,-37.109375,-65.91796875,0.0
101.0390625,-8.7890625,-10.25390625,-17.08984375,-21.484375,59.5703125,0.0
101.04296875,3.41796875,8.30078125,-18.06640625,-17.08984375,75.68359375,0.0
101.046875,-22.4609375,-9.765625,-25.390625,-33.203125,21.97265625,0.0
101.05078125,-47.36328125,-29.296875,-13.671875,-34.1796875,-45.41015625,0.0
101.0546875,-44.43359375,-49.31640625,-22.4609375,-35.64453125,-49.31640625,0.0
101.05859375,-18.06640625,-50.78125,-32.71484375,-40.0390625,29.78515625,0.0
101.0625,6.8359375,-31.73828125,-24.90234375,-27.83203125,3.41796875,0.0
101.06640625,2.44140625,-34.1796875,-15.13671875,-10.7421875,-45.41015625,0.0
101.0703125,-18.06640625,-62.5,-16.11328125,-10.7421875,-80.56640625,0.0
101.07421875,-35.15625,-48.33984375,-38.57421875,-33.203125,-64.94140625,0.0
101.078125,-26.85546875,-9.765625,-41.50390625,-32.2265625,-4.39453125,0.0
101.08203125,-5.859375,-9.765625,-32.2265625,-9.765625,-61.03515625,0.0
101.0859375,-15.13671875,-21.484375,-27.34375,-9.765625,-10.7421875,0.0
101.08984375,-52.24609375,-36.62109375,-26.85546875,-30.2734375,39.0625,0.0
101.09375,-56.640625,-44.43359375,-35.15625,-33.69140625,-75.1953125,0.0
101.09765625,-21.484375,-23.92578125,-41.015625,-24.90234375,-80.078125,0.0
101.1015625,2.9296875,-23.92578125,-28.3203125,-18.06640625,-11.23046875,0.0
101.10546875,-16.6015625,-39.55078125,-19.04296875,-21.484375,-71.77734375,0.0
101.109375,-38.57421875,-48.828125,-8.7890625,-23.4375,-128.90625,0.0
101.11328125,-41.9921875,-52.24609375,-17.578125,-15.625,-128.41796875,0.0
101.1171875,-42.96875,-43.45703125,-50.78125,-28.3203125,-58.59375,0.0
101.12109375,-11.71875,-8.30078125,-36.1328125,-22.4609375,-58.10546875,0.0
101.125,3.41796875,-6.8359375,-14.6484375,-6.34765625,-50.29296875,0.0
101.12890625,-25.390625,-31.25,-25.390625,-14.16015625,-40.52734375,0.0
101.1328125,-57.12890625,-42.48046875,-40.0390625,-40.0390625,-139.6484375,0.0
101.13671875,-51.7578125,-41.9921875,-43.45703125,-54.19921875,-150.390625,0.0
101.140625,-14.16015625,-46.875,-24.90234375,-36.1328125,-69.3359375,0.0
101.14453125,-0.48828125,-48.33984375,-31.73828125,-15.13671875,-43.9453125,0.0
101.1484375,-38.0859375,-38.0859375,-55.17578125,-21.484375,-35.64453125,0.0
101.15234375,-67.87109375,-45.8984375,-23.92578125,-31.73828125,-55.6640625,0.0
101.15625,-49.31640625,-39.0625,-22.94921875,-28.80859375,-98.14453125,0.0
101.16015625,-29.296875,-26.85546875,-58.59375,-30.76171875,-43.9453125,0.0
101.1640625,-12.6953125,-26.3671875,-36.62109375,-29.296875,-21.97265625,0.0
101.16796875,-27.83203125,-35.15625,-18.5546875,-26.85546875,16.6015625,0.0
101.171875,-69.3359375,-43.45703125,-36.62109375,-34.66796875,17.08984375,0.0
101.17578125,-58.59375,-36.62109375,-28.80859375,-40.52734375,-111.328125,0.0
101.1796875,-18.06640625,-51.7578125,-29.296875,-29.78515625,-137.20703125,0.0
101.18359375,0.9765625,-46.38671875,-36.1328125,-13.18359375,-80.078125,0.0
101.1875,-18.5546875,-22.4609375,-12.20703125,-19.04296875,-36.1328125,0.0
101.19140625,-49.31640625,-51.26953125,-19.53125,-32.2265625,-32.71484375,0.0
101.1953125,-41.015625,-58.59375,-26.3671875,-32.71484375,-84.9609375,0.0
101.19921875,-20.01953125,-27.83203125,-24.4140625,-26.3671875,-2.9296875,0.0
101.203125,-12.6953125,-21.97265625,-36.1328125,-16.6015625,106.93359375,0.0
101.20703125,-18.06640625,-24.90234375,-35.15625,-13.18359375,59.5703125,0.0
101.2109375,-28.80859375,-23.4375,-29.78515625,-22.4609375,-80.56640625,0.0
101.21484375,-27.34375,-40.52734375,-23.4375,-23.92578125,-189.94140625,0.0
101.21875,-2.9296875,-51.7578125,-27.34375,-18.06640625,-141.6015625,0.0
101.22265625,17.578125,-29.78515625,-23.4375,-5.37109375,-44.921875,0.0
101.2265625,-15.625,-36.1328125,-32.71484375,-8.30078125,-80.078125,0.0
101.23046875,-49.8046875,-43.9453125,-30.2734375,-21.484375,-174.31640625,0.0
101.234375,-37.59765625,-30.76171875,-25.390625,-22.4609375,-175.78125,0.0
101.23828125,-14.16015625,-31.25,-25.390625,-19.04296875,-150.390625,0.0
101.2421875,-1.46484375,-20.01953125,-7.8125,-6.8359375,-123.046875,0.0
101.24609375,-15.13671875,-25.87890625,-10.7421875,-15.625,-111.81640625,0.0
101.25,-47.36328125,-25.390625,-22.4609375,-24.90234375,-160.64453125,0.0
101.25390625,-49.8046875,-24.90234375,-26.85546875,-22.4609375,-140.13671875,0.0
101.2578125,-24.4140625,-37.59765625,-18.06640625,-13.671875,-103.02734375,0.0
101.26171875,-18.06640625,-41.9921875,-19.53125,-12.20703125,-66.40625,0.0
101.265625,-26.85546875,-26.85546875,-23.4375,-17.08984375,59.5703125,0.0
101.26953125,-41.50390625,-32.2265625,-19.04296875,-19.53125,75.68359375,0.0
101.2734375,-48.828125,-55.17578125,-10.25390625,-21.484375,-13.671875,0.0
101.27734375,-42.96875,-47.36328125,-13.18359375,-25.390625,-66.40625,0.0
101.28125,-34.66796875,-29.78515625,-18.06640625,-23.4375,-149.4140625,0.0
101.28515625,-29.78515625,-15.13671875,-18.5546875,-18.5546875,-125.0,0.0
101.2890625,-35.64453125,-15.625,-25.390625,-17.08984375,-36.1328125,0.0
101.29296875,-36.62109375,-26.3671875,-23.4375,-14.16015625,-3.41796875,0.0
101.296875,-32.71484375,-33.203125,-26.3671875,-28.80859375,19.04296875,0.0
101.30078125,-12.6953125,-33.69140625,-19.04296875,-30.2734375,39.0625,0.0
101.3046875,-19.04296875,-35.64453125,-30.2734375,-31.25,22.94921875,0.0
101.30859375,-45.8984375,-49.31640625,-42.96875,-34.1796875,16.11328125,0.0
101.3125,-65.4296875,-49.8046875,-29.78515625,-35.64453125,8.7890625,0.0
101.31640625,-64.453125,-38.57421875,-36.62109375,-45.41015625,0.9765625,0.0
101.3203125,-35.64453125,-48.33984375,-40.52734375,-38.0859375,46.38671875,0.0
101.32421875,-24.4140625,-45.8984375,-41.015625,-33.69140625,93.75,0.0
101.328125,-37.59765625,-28.80859375,-33.69140625,-32.71484375,104.00390625,0.0
101.33203125,-58.59375,-28.80859375,-37.59765625,-35.64453125,51.26953125,0.0
101.3359375,-48.33984375,-26.85546875,-33.203125,-35.64453125,7.8125,0.0
101.33984375,-11.71875,-22.4609375,-18.06640625,-12.6953125,20.99609375,0.0
101.34375,-10.7421875,-20.5078125,-33.69140625,-13.18359375,71.77734375,0.0
101.34765625,-44.43359375,-30.2734375,-37.59765625,-39.0625,102.5390625,0.0
101.3515625,-66.89453125,-33.69140625,-24.4140625,-49.31640625,-24.4140625,0.0
101.35546875,-60.05859375,-38.57421875,-22.94921875,-43.45703125,-109.375,0.0
101.359375,-38.57421875,-49.31640625,-32.2265625,-41.50390625,-100.5859375,0.0
101.36328125,-34.66796875,-59.5703125,-60.05859375,-44.921875,-141.11328125,0.0
101.3671875,-42.48046875,-60.546875,-64.94140625,-40.52734375,-122.55859375,0.0
101.37109375,-53.7109375,-31.73828125,-38.57421875,-36.62109375,-125.48828125,0.0
101.375,-47.36328125,-4.8828125,-31.73828125,-34.1796875,-170.8984375,0.0
101.37890625,-22.4609375,-1.46484375,-23.92578125,-30.2734375,-168.45703125,0.0
101.3828125,-12.6953125,-16.6015625,-18.5546875,-32.2265625,-173.828125,0.0
101.38671875,-25.390625,-23.4375,-24.4140625,-28.3203125,-103.02734375,0.0
101.390625,-45.41015625,-24.90234375,-29.78515625,-28.80859375,-1.46484375,0.0
101.39453125,-46.875,-36.1328125,-36.62109375,-33.69140625,-8.7890625,0.0
101.3984375,-21.97265625,-47.8515625,-32.2265625,-18.5546875,-67.87109375,0.0
101.40234375,-11.23046875,-45.41015625,-39.0625,-13.18359375,9.765625,0.0
101.40625,-40.0390625,-29.78515625,-55.17578125,-31.73828125,66.89453125,0.0
101.41015625,-58.59375,-38.57421875,-47.8515625,-32.71484375,57.6171875,0.0
101.4140625,-41.015625,-50.78125,-25.390625,-21.97265625,73.2421875,0.0
101.41796875,-23.92578125,-24.4140625,-23.4375,-23.4375,79.58984375,0.0
101.421875,-5.37109375,0.9765625,-21.484375,-13.18359375,113.76953125,0.0
101.42578125,-21.97265625,-15.625,-23.92578125,-31.25,-6.8359375,0.0
101.4296875,-47.36328125,-30.76171875,-30.76171875,-46.875,-83.984375,0.0
101.43359375,-41.015625,-29.296875,-24.4140625,-35.64453125,-37.59765625,0.0
101.4375,-16.11328125,-28.80859375,-12.6953125,-20.99609375,-104.4921875,0.0
101.44140625,-3.41796875,-30.2734375,-28.80859375,-23.4375,-67.87109375,0.0
101.4453125,-12.6953125,-33.203125,-41.9921875,-32.71484375,-20.01953125,0.0
101.44921875,-30.76171875,-25.87890625,-42.96875,-28.3203125,-31.73828125,0.0
101.453125,-49.31640625,-26.3671875,-42.48046875,-34.1796875,-63.4765625,0.0
101.45703125,-45.41015625,-41.50390625,-41.9921875,-41.015625,-71.2890625,0.0
101.4609375,-16.11328125,-41.015625,-43.9453125,-32.2265625,-26.3671875,0.0
101.46484375,-0.48828125,-18.5546875,-34.66796875,-14.16015625,-15.625,0.0
101.46875,-31.25,-23.92578125,-38.57421875,-24.90234375,-39.0625,0.0
101.47265625,-59.5703125,-54.6875,-45.41015625,-50.78125,-172.36328125,0.0
101.4765625,-47.36328125,-36.62109375,-45.41015625,-44.921875,-220.21484375,0.0
101.48046875,-9.765625,-1.953125,-35.64453125,-20.01953125,-98.6328125,0.0
101.484375,-8.7890625,-4.39453125,-24.90234375,-16.11328125,0.0,0.0
101.48828125,-40.0390625,-14.16015625,-25.390625,-30.2734375,1.953125,0.0
101.4921875,-54.19921875,-35.64453125,-33.69140625,-30.2734375,-20.5078125,0.0
101.49609375,-48.828125,-50.78125,-41.015625,-36.62109375,-36.62109375,0.0
101.5,-17.578125,-38.57421875,-41.9921875,-30.2734375,-38.0859375,0.0
101.50390625,-6.34765625,-41.015625,-39.55078125,-17.578125,12.6953125,0.0
101.5078125,-26.3671875,-41.015625,-35.64453125,-25.390625,-14.6484375,0.0
101.51171875,-25.87890625,-30.2734375,-30.76171875,-27.83203125,-54.6875,0.0
101.515625,-29.78515625,-31.25,-33.203125,-38.0859375,-7.8125,0.0
101.51953125,-26.3671875,-21.97265625,-32.2265625,-43.45703125,10.7421875,0.0
101.5234375,-2.44140625,-0.48828125,-14.6484375,-21.484375,18.06640625,0.0
101.52734375,-15.625,-1.953125,-13.671875,-14.6484375,-5.859375,0.0
101.53125,-59.08203125,-25.87890625,-46.38671875,-38.57421875,-21.97265625,0.0
101.53515625,-78.125,-46.38671875,-57.12890625,-60.05859375,-20.99609375,0.0
101.5390625,-53.22265625,-37.59765625,-38.0859375,-65.4296875,-3.90625,0.0
101.54296875,-20.01953125,-20.01953125,-36.1328125,-47.36328125,30.2734375,0.0
101.546875,-30.76171875,-15.625,-24.90234375,-37.109375,21.97265625,0.0
101.55078125,-85.9375,-18.06640625,-16.11328125,-64.94140625,-38.57421875,0.0
101.5546875,-104.98046875,-23.4375,-21.97265625,-81.54296875,-93.26171875,0.0
101.55859375,-95.703125,-27.34375,-11.71875,-102.5390625,-63.96484375,0.0
101.5625,-110.83984375,-35.64453125,-0.48828125,-127.9296875,-31.73828125,0.0
101.56640625,-125.9765625,-27.83203125,-6.34765625,-124.51171875,42.48046875,0.0
101.5703125,-156.73828125,-41.015625,-12.6953125,-133.7890625,13.671875,0.0
101.57421875,-168.45703125,-43.45703125,7.32421875,-145.99609375,-62.01171875,0.0
101.578125,-149.4140625,-10.25390625,11.71875,-146.484375,-79.1015625,0.0
101.58203125,-157.71484375,-12.6953125,-6.8359375,-159.66796875,-78.61328125,0.0
101.5859375,-176.26953125,-17.578125,-14.6484375,-159.66796875,-4.8828125,0.0
101.58984375,-191.40625,-15.13671875,-15.625,-159.1796875,67.87109375,0.0
101.59375,-196.77734375,-13.671875,-35.15625,-170.8984375,115.72265625,0.0
101.59765625,-183.10546875,4.39453125,-30.76171875,-171.875,36.1328125,0.0
101.6015625,-177.24609375,14.16015625,-6.8359375,-174.31640625,-62.01171875,0.0
101.60546875,-199.21875,-11.23046875,-9.27734375,-197.75390625,-59.08203125,0.0
101.609375,-227.5390625,-27.83203125,-27.34375,-210.44921875,-75.68359375,0.0
101.61328125,-222.65625,-20.5078125,-41.015625,-194.82421875,-91.796875,0.0
101.6171875,-190.4296875,-22.94921875,-26.85546875,-169.921875,-34.66796875,0.0
101.62109375,-169.921875,-8.30078125,-15.625,-158.69140625,14.6484375,0.0
101.625,-167.48046875,13.671875,-11.23046875,-156.25,14.6484375,0.0
101.62890625,-178.22265625,-5.37109375,-41.50390625,-149.90234375,-55.6640625,0.0
101.6328125,-173.33984375,-20.5078125,-66.89453125,-138.671875,-58.10546875,0.0
101.63671875,-134.765625,-10.7421875,-36.62109375,-118.65234375,13.18359375,0.0
101.640625,-98.14453125,-20.01953125,-13.18359375,-110.3515625,20.01953125,0.0
101.64453125,-88.8671875,-22.4609375,-11.23046875,-93.26171875,-2.9296875,0.0
101.6484375,-97.16796875,-19.04296875,-18.5546875,-78.61328125,-46.38671875,0.0
101.65234375,-112.3046875,-42.96875,-36.1328125,-83.49609375,-117.67578125,0.0
101.65625,-102.05078125,-56.15234375,-55.17578125,-88.37890625,-128.90625,0.0
101.66015625,-64.453125,-41.50390625,-54.19921875,-76.171875,-101.5625,0.0
101.6640625,-41.9921875,-41.50390625,-48.828125,-51.26953125,-68.359375,0.0
101.66796875,-40.0390625,-47.36328125,-51.7578125,-26.85546875,-50.78125,0.0
101.671875,-40.52734375,-51.7578125,-62.5,-21.97265625,-34.1796875,0.0
101.67578125,-18.06640625,-53.22265625,-55.17578125,-11.23046875,-39.0625,0.0
101.6796875,9.765625,-52.24609375,-54.6875,-2.44140625,-4.39453125,0.0
101.68359375,20.01953125,-43.9453125,-60.05859375,0.48828125,55.6640625,0.0
101.6875,12.6953125,-30.76171875,-35.15625,9.765625,81.0546875,0.0
101.69140625,6.8359375,-35.15625,-28.80859375,20.5078125,60.546875,0.0
101.6953125,6.8359375,-57.12890625,-52.734375,12.20703125,6.34765625,0.0
101.69921875,20.99609375,-62.01171875,-57.12890625,12.20703125,9.27734375,0.0
101.703125,32.71484375,-45.8984375,-57.6171875,18.5546875,8.7890625,0.0
101.70703125,18.06640625,-44.921875,-55.6640625,15.625,6.8359375,0.0
101.7109375,1.953125,-55.6640625,-48.33984375,16.11328125,-0.48828125,0.0
101.71484375,-7.32421875,-73.2421875,-70.80078125,8.7890625,27.34375,0.0
101.71875,18.5546875,-72.75390625,-54.19921875,15.13671875,5.37109375,0.0
101.72265625,54.6875,-61.5234375,-20.01953125,36.1328125,-51.26953125,0.0
101.7265625,52.24609375,-40.0390625,-31.73828125,36.62109375,22.4609375,0.0
101.73046875,8.7890625,-27.34375,-40.0390625,9.765625,41.015625,0.0
101.734375,-3.90625,-40.52734375,-36.1328125,4.39453125,-44.43359375,0.0
101.73828125,21.484375,-45.8984375,-40.0390625,12.6953125,-83.984375,0.0
101.7421875,35.64453125,-30.2734375,-40.52734375,17.578125,-59.5703125,0.0
101.74609375,24.90234375,-18.06640625,-43.45703125,24.4140625,-82.51953125,0.0
101.75,-8.30078125,-35.15625,-45.41015625,13.671875,-124.0234375,0.0
101.75390625,-25.390625,-78.61328125,-32.71484375,1.46484375,-53.7109375,0.0
101.7578125,-0.48828125,-90.8203125,-28.3203125,13.671875,-68.84765625,0.0
101.76171875,21.484375,-77.1484375,-42.48046875,12.6953125,-84.9609375,0.0
101.765625,11.71875,-59.5703125,-44.43359375,3.90625,-34.66796875,0.0
101.76953125,-11.71875,-44.43359375,-31.73828125,2.9296875,-30.76171875,0.0
101.7734375,-21.97265625,-36.62109375,-37.59765625,1.953125,-8.7890625,0.0
101.77734375,3.41796875,-27.34375,-43.9453125,19.53125,55.17578125,0.0
101.78125,30.76171875,-26.85546875,-29.296875,23.4375,38.0859375,0.0
101.78515625,24.90234375,-30.76171875,-16.11328125,11.71875,-74.21875,0.0
101.7890625,10.25390625,-30.76171875,-19.53125,15.625,-145.5078125,0.0
101.79296875,-5.37109375,-51.7578125,-38.0859375,9.765625,-184.08203125,0.0
101.796875,-6.34765625,-67.3828125,-49.31640625,3.41796875,-149.4140625,0.0
101.80078125,7.8125,-54.6875,-41.50390625,5.859375,-214.35546875,0.0
101.8046875,-0.9765625,-50.78125,-37.109375,-0.9765625,-131.8359375,0.0
101.80859375,-15.625,-46.875,-40.52734375,-0.9765625,4.8828125,0.0
101.8125,-20.01953125,-28.3203125,-27.34375,0.0,-12.20703125,0.0
101.81640625,-19.04296875,-22.94921875,-20.01953125,0.0,-42.96875,0.0
101.8203125,3.90625,-31.25,-31.25,-1.953125,-54.6875,0.0
101.82421875,23.92578125,-22.94921875,-21.97265625,6.8359375,-21.484375,0.0
101.828125,18.06640625,-18.5546875,-1.953125,20.99609375,1.953125,0.0
101.83203125,-9.765625,-42.96875,-23.4375,-4.39453125,-8.30078125,0.0
101.8359375,-16.6015625,-52.24609375,-46.38671875,-28.3203125,-68.84765625,0.0
101.83984375,0.48828125,-43.9453125,-46.38671875,-30.2734375,-86.9140625,0.0
101.84375,5.37109375,-20.5078125,-41.9921875,-24.4140625,-32.2265625,0.0
101.84765625,-19.04296875,-25.87890625,-27.34375,-23.4375,-26.3671875,0.0
101.8515625,-25.87890625,-46.38671875,-11.23046875,-15.625,-14.16015625,0.0
101.85546875,-9.27734375,-41.015625,-24.4140625,-14.16015625,-3.41796875,0.0
101.859375,7.8125,-27.83203125,-25.390625,-17.08984375,17.08984375,0.0
101.86328125,18.5546875,-21.97265625,-16.6015625,-15.625,44.921875,0.0
101.8671875,-13.18359375,-38.57421875,-35.64453125,-22.4609375,0.0,0.0
101.87109375,-41.015625,-46.875,-44.921875,-19.53125,-94.23828125,0.0
101.875,-35.15625,-43.9453125,-46.38671875,-19.04296875,-103.515625,0.0
101.87890625,-20.01953125,-47.36328125,-50.78125,-23.92578125,-107.91015625,0.0
101.8828125,-5.859375,-39.55078125,-39.0625,-13.671875,-90.8203125,0.0
101.88671875,-13.671875,-32.71484375,-30.2734375,-11.71875,-40.52734375,0.0
101.890625,-34.66796875,-35.64453125,-31.25,-15.625,-62.01171875,0.0
101.89453125,-28.80859375,-33.69140625,-32.71484375,-7.32421875,-82.51953125,0.0
101.8984375,1.953125,-27.34375,-33.69140625,-3.41796875,55.17578125,0.0
101.90234375,4.8828125,-20.99609375,-18.06640625,-15.13671875,56.640625,0.0
101.90625,-5.37109375,-23.92578125,-18.06640625,-10.25390625,-35.15625,0.0
101.91015625,-29.296875,-30.76171875,-40.52734375,-13.671875,-92.7734375,0.0
101.9140625,-41.015625,-50.29296875,-34.1796875,-26.3671875,-95.21484375,0.0
101.91796875,-24.4140625,-73.2421875,-21.484375,-28.80859375,-52.24609375,0.0
101.921875,-13.671875,-61.5234375,-20.5078125,-27.34375,-64.453125,0.0
101.92578125,-8.30078125,-22.94921875,-21.97265625,-21.484375,-5.37109375,0.0
101.9296875,-29.78515625,-7.8125,-25.390625,-30.76171875,7.32421875,0.0
101.93359375,-40.52734375,-15.13671875,-27.34375,-34.66796875,-130.859375,0.0
101.9375,-29.296875,-26.85546875,-44.43359375,-48.33984375,-105.46875,0.0
101.94140625,-10.7421875,-41.9921875,-50.29296875,-42.96875,52.24609375,0.0
101.9453125,1.46484375,-43.45703125,-20.01953125,-12.6953125,51.26953125,0.0
101.94921875,-16.6015625,-60.05859375,-11.23046875,-10.7421875,-10.7421875,0.0
101.953125,-42.96875,-63.4765625,-42.96875,-28.80859375,86.9140625,0.0
101.95703125,-27.34375,-42.96875,-50.78125,-29.78515625,62.5,0.0
101.9609375,1.46484375,-30.2734375,-26.85546875,-18.06640625,-29.78515625,0.0
101.96484375,3.90625,-12.20703125,-17.08984375,-11.71875,44.43359375,0.0
101.96875,-18.5546875,-9.27734375,-27.83203125,-14.6484375,62.01171875,0.0
101.97265625,-54.6875,-23.4375,-43.9453125,-40.0390625,-29.78515625,0.0
101.9765625,-55.6640625,-27.34375,-44.43359375,-58.10546875,-59.5703125,0.0
101.98046875,-26.85546875,-37.59765625,-20.99609375,-49.31640625,-17.578125,0.0
101.984375,-8.7890625,-49.8046875,-9.27734375,-26.3671875,50.78125,0.0
101.98828125,-11.23046875,-54.6875,-9.27734375,-9.765625,92.7734375,0.0
101.9921875,-17.08984375,-40.0390625,-6.34765625,0.0,20.99609375,0.0
101.99609375,-24.90234375,-37.59765625,-18.06640625,-16.11328125,-73.73046875,0.0
102.0,-19.04296875,-47.8515625,-42.96875,-34.1796875,-78.125,0.0
102.00390625,-3.41796875,-27.83203125,-46.875,-16.6015625,-116.69921875,0.0
102.0078125,-21.97265625,-9.27734375,-31.73828125,-9.27734375,-178.7109375,0.0
102.01171875,-55.17578125,-22.94921875,-24.4140625,-31.73828125,-146.484375,0.0
102.015625,-48.828125,-45.41015625,-26.3671875,-37.109375,-67.3828125,0.0
102.01953125,-16.6015625,-44.921875,-29.296875,-23.4375,-10.25390625,0.0
102.0234375,-14.16015625,-33.203125,-24.90234375,-22.4609375,28.3203125,0.0
102.02734375,-40.52734375,-41.9921875,-14.6484375,-27.34375,-11.23046875,0.0
102.03125,-62.5,-54.6875,-17.578125,-25.390625,-49.8046875,0.0
102.03515625,-49.31640625,-55.6640625,-35.15625,-34.66796875,-25.87890625,0.0
102.0390625,-36.1328125,-41.50390625,-45.41015625,-48.828125,-3.90625,0.0
102.04296875,-26.85546875,-17.578125,-35.64453125,-40.52734375,1.46484375,0.0
102.046875,-26.3671875,-11.23046875,-41.50390625,-32.71484375,6.8359375,0.0
102.05078125,-38.0859375,-25.390625,-43.9453125,-29.78515625,-2.9296875,0.0
102.0546875,-26.85546875,-41.9921875,-43.45703125,-20.99609375,-100.09765625,0.0
102.05859375,-13.18359375,-55.6640625,-43.9453125,-18.06640625,-140.13671875,0.0
102.0625,-7.8125,-37.109375,-29.78515625,-17.08984375,-111.328125,0.0
102.06640625,-19.04296875,-19.53125,-16.11328125,-25.87890625,-167.96875,0.0
102.0703125,-53.7109375,-41.50390625,-16.11328125,-44.43359375,-235.3515625,0.0
102.07421875,-47.36328125,-63.96484375,-5.37109375,-40.0390625,-270.01953125,0.0
102.078125,-13.18359375,-66.40625,6.34765625,-22.4609375,-277.34375,0.0
102.08203125,-21.97265625,-45.8984375,-15.13671875,-34.1796875,-170.8984375,0.0
102.0859375,-43.45703125,-18.5546875,-30.76171875,-41.50390625,-136.71875,0.0
102.08984375,-67.87109375,-20.5078125,-27.83203125,-45.8984375,-133.7890625,0.0
102.09375,-77.63671875,-29.78515625,-19.53125,-51.7578125,-166.50390625,0.0
102.09765625,-49.31640625,-34.66796875,-6.8359375,-38.57421875,-185.05859375,0.0
102.1015625,-18.06640625,-36.1328125,-12.20703125,-21.97265625,-54.6875,0.0
102.10546875,-4.39453125,-21.484375,-25.87890625,-6.8359375,106.93359375,0.0
102.109375,-30.2734375,-21.484375,-18.5546875,-11.23046875,90.33203125,0.0
102.11328125,-62.01171875,-37.109375,-5.37109375,-35.64453125,-30.76171875,0.0
102.1171875,-50.78125,-44.43359375,-11.23046875,-46.38671875,29.78515625,0.0
102.12109375,-14.16015625,-37.109375,-13.18359375,-27.34375,86.9140625,0.0
102.125,0.9765625,-30.2734375,-0.48828125,-5.37109375,31.25,0.0
102.12890625,-29.78515625,-36.1328125,-7.8125,-10.25390625,75.68359375,0.0
102.1328125,-60.546875,-49.8046875,-29.78515625,-31.25,-20.99609375,0.0
102.13671875,-53.7109375,-61.03515625,-44.43359375,-42.48046875,-50.78125,0.0
102.140625,-20.01953125,-56.640625,-39.0625,-22.94921875,40.52734375,0.0
102.14453125,-4.39453125,-30.76171875,-8.30078125,-11.71875,-6.34765625,0.0
102.1484375,-29.78515625,-23.4375,-14.16015625,-26.85546875,-90.8203125,0.0
102.15234375,-43.45703125,-23.92578125,-46.38671875,-24.90234375,-129.39453125,0.0
102.15625,-39.55078125,-38.57421875,-38.0859375,-27.83203125,-100.5859375,0.0
102.16015625,-24.4140625,-35.15625,-21.484375,-33.203125,-25.390625,0.0
102.1640625,-10.25390625,-22.4609375,-4.39453125,-13.18359375,17.578125,0.0
102.16796875,-20.5078125,-34.1796875,-8.7890625,0.48828125,6.34765625,0.0
102.171875,-38.57421875,-43.45703125,-39.0625,-10.25390625,57.6171875,0.0
102.17578125,-41.50390625,-58.59375,-38.57421875,-28.3203125,43.9453125,0.0
102.1796875,-36.1328125,-65.4296875,-34.66796875,-49.31640625,-36.1328125,0.0
102.18359375,-30.76171875,-41.015625,-35.15625,-39.55078125,2.44140625,0.0
102.1875,-38.57421875,-22.94921875,-29.78515625,-26.85546875,27.34375,0.0
102.19140625,-58.10546875,-39.0625,-27.34375,-33.69140625,-1.46484375,0.0
102.1953125,-49.8046875,-49.8046875,-42.48046875,-34.1796875,-56.640625,0.0
102.19921875,-12.20703125,-32.2265625,-47.8515625,-20.5078125,-27.83203125,0.0
102.203125,0.48828125,-18.06640625,-37.59765625,-18.5546875,10.25390625,0.0
102.20703125,-1.46484375,-11.23046875,-39.0625,-19.04296875,-7.32421875,0.0
102.2109375,-12.6953125,-15.625,-34.1796875,-14.16015625,10.25390625,0.0
102.21484375,-47.36328125,-46.875,-37.109375,-41.015625,51.7578125,0.0
102.21875,-41.9921875,-49.31640625,-34.1796875,-43.9453125,32.2265625,0.0
102.22265625,-24.4140625,-30.76171875,-39.55078125,-36.1328125,23.92578125,0.0
102.2265625,-44.921875,-40.0390625,-38.57421875,-53.22265625,40.0390625,0.0
102.23046875,-55.6640625,-38.57421875,-14.16015625,-50.78125,41.015625,0.0
102.234375,-48.828125,-37.59765625,-9.27734375,-41.015625,-11.71875,0.0
102.23828125,-43.9453125,-60.546875,-19.04296875,-54.6875,-39.55078125,0.0
102.2421875,-37.109375,-56.640625,-11.23046875,-60.05859375,-27.83203125,0.0
102.24609375,-37.109375,-20.5078125,5.37109375,-42.48046875,-3.41796875,0.0
102.25,-70.80078125,-9.765625,-1.46484375,-54.6875,-16.11328125,0.0
102.25390625,-96.6796875,-10.25390625,-16.6015625,-87.890625,-94.7265625,0.0
102.2578125,-83.984375,-6.34765625,-14.6484375,-94.23828125,-140.625,0.0
102.26171875,-65.4296875,17.08984375,-11.23046875,-94.23828125,-65.91796875,0.0
102.265625,-73.73046875,27.34375,-8.7890625,-103.515625,-80.56640625,0.0
102.26953125,-122.55859375,-11.23046875,-15.13671875,-125.9765625,-122.0703125,0.0
102.2734375,-139.16015625,-26.85546875,-28.80859375,-135.7421875,-176.7578125,0.0
102.27734375,-117.1875,-17.578125,-19.04296875,-131.8359375,-180.17578125,0.0
102.28125,-101.07421875,11.23046875,-22.4609375,-125.0,-37.109375,0.0
102.28515625,-120.1171875,32.71484375,-42.48046875,-124.51171875,-64.453125,0.0
102.2890625,-166.9921875,26.3671875,-52.734375,-156.73828125,-79.58984375,0.0
102.29296875,-169.43359375,27.83203125,-30.2734375,-172.36328125,28.3203125,0.0
102.296875,-137.20703125,28.80859375,-7.8125,-162.59765625,32.2265625,0.0
102.30078125,-115.234375,34.66796875,-9.765625,-147.4609375,-12.6953125,0.0
102.3046875,-115.72265625,23.92578125,-28.3203125,-133.7890625,25.390625,0.0
102.30859375,-124.0234375,6.8359375,-43.9453125,-127.9296875,29.296875,0.0
102.3125,-124.51171875,-15.625,-39.55078125,-115.234375,15.625,0.0
102.31640625,-104.98046875,-41.015625,-57.6171875,-107.91015625,30.76171875,0.0
102.3203125,-56.640625,-10.7421875,-53.22265625,-86.42578125,-2.9296875,0.0
102.32421875,-26.3671875,21.97265625,-41.015625,-53.7109375,33.203125,0.0
102.328125,-38.57421875,6.8359375,-52.734375,-39.0625,-23.4375,0.0
102.33203125,-58.59375,-7.32421875,-74.21875,-41.015625,-65.4296875,0.0
102.3359375,-40.52734375,3.90625,-86.42578125,-42.48046875,-29.78515625,0.0
102.33984375,-4.39453125,4.8828125,-78.61328125,-32.2265625,8.7890625,0.0
102.34375,20.01953125,-15.13671875,-69.3359375,-6.34765625,-98.14453125,0.0
102.34765625,7.32421875,-29.78515625,-76.66015625,-5.859375,-133.30078125,0.0
102.3515625,-10.25390625,-31.73828125,-81.0546875,-20.01953125,-30.2734375,0.0
102.35546875,-9.765625,-26.85546875,-61.03515625,-18.06640625,-135.25390625,0.0
102.359375,10.7421875,-24.90234375,-43.9453125,-7.8125,-182.12890625,0.0
102.36328125,31.73828125,-29.296875,-44.921875,1.953125,-46.38671875,0.0
102.3671875,17.578125,-23.92578125,-50.78125,8.30078125,0.9765625,0.0
102.37109375,9.765625,-28.80859375,-46.38671875,14.6484375,-68.84765625,0.0
102.375,16.11328125,-34.1796875,-46.875,4.8828125,-48.33984375,0.0
102.37890625,23.4375,-27.83203125,-62.01171875,0.9765625,-27.83203125,0.0
102.3828125,44.921875,-32.2265625,-67.87109375,16.6015625,-38.0859375,0.0
102.38671875,46.38671875,-46.38671875,-48.828125,21.97265625,-12.20703125,0.0
102.390625,14.6484375,-53.22265625,-41.9921875,5.37109375,13.18359375,0.0
102.39453125,-0.48828125,-38.57421875,-48.828125,-5.859375,9.765625,0.0
102.3984375,21.97265625,-31.25,-36.62109375,17.08984375,16.6015625,0.0
102.40234375,30.76171875,-39.55078125,-38.57421875,18.06640625,16.11328125,0.0
102.40625,5.859375,-43.9453125,-38.57421875,-0.48828125,82.03125,0.0
102.41015625,-15.13671875,-58.10546875,-43.45703125,1.46484375,109.86328125,0.0
102.4140625,-16.6015625,-59.5703125,-63.4765625,-0.48828125,20.5078125,0.0
102.41796875,-0.9765625,-52.24609375,-44.43359375,-7.32421875,3.41796875,0.0
102.421875,20.99609375,-51.7578125,-27.83203125,1.46484375,141.11328125,0.0
102.42578125,19.04296875,-42.96875,-31.25,9.765625,152.83203125,0.0
102.4296875,-6.34765625,-51.7578125,-32.2265625,10.25390625,-10.7421875,0.0
102.43359375,-29.296875,-58.10546875,-47.8515625,-0.9765625,-96.19140625,0.0
102.4375,-23.4375,-56.15234375,-51.7578125,-20.01953125,-21.484375,0.0
102.44140625,5.859375,-44.43359375,-33.203125,-6.34765625,8.7890625,0.0
102.4453125,16.11328125,-39.0625,-30.2734375,14.16015625,-44.43359375,0.0
102.44921875,-5.859375,-60.05859375,-27.34375,12.20703125,-79.1015625,0.0
102.453125,-37.59765625,-75.1953125,-34.66796875,-7.32421875,-125.48828125,0.0
102.45703125,-23.92578125,-65.4296875,-33.203125,-11.71875,-101.07421875,0.0
102.4609375,-1.953125,-66.89453125,-29.78515625,-15.13671875,-20.5078125,0.0
102.46484375,-7.32421875,-70.3125,-25.390625,-10.25390625,31.73828125,0.0
102.46875,-14.16015625,-49.31640625,-19.53125,9.27734375,-9.765625,0.0
102.47265625,-22.94921875,-42.48046875,-25.390625,4.39453125,-89.35546875,0.0
102.4765625,-14.16015625,-51.7578125,-36.1328125,2.44140625,-121.58203125,0.0
102.48046875,7.8125,-49.31640625,-44.43359375,11.23046875,-45.8984375,0.0
102.484375,10.7421875,-48.33984375,-22.4609375,5.859375,8.7890625,0.0
102.48828125,-4.8828125,-43.45703125,-8.30078125,8.7890625,-13.18359375,0.0
102.4921875,-28.3203125,-33.69140625,-25.390625,-6.34765625,-72.75390625,0.0
102.49609375,-16.11328125,-34.1796875,-30.76171875,-15.625,-56.640625,0.0
102.5,0.48828125,-32.71484375,-32.2265625,-15.13671875,55.17578125,0.0
102.50390625,-15.625,-41.50390625,-32.2265625,-19.53125,45.41015625,0.0
102.5078125,-34.66796875,-71.2890625,-12.20703125,-10.7421875,-7.32421875,0.0
102.51171875,-43.45703125,-75.1953125,-23.4375,-15.625,39.55078125,0.0
102.515625,-38.57421875,-67.3828125,-46.875,-25.87890625,36.62109375,0.0
102.51953125,-10.7421875,-46.875,-27.83203125,-17.08984375,-40.0390625,0.0
102.5234375,10.25390625,-16.6015625,-11.23046875,2.9296875,-5.859375,0.0
102.52734375,-10.7421875,-28.3203125,-13.18359375,-4.8828125,41.015625,0.0
102.53125,-26.3671875,-43.9453125,-25.87890625,-15.13671875,28.80859375,0.0
102.53515625,-13.18359375,-38.0859375,-39.55078125,-6.8359375,-20.99609375,0.0
102.5390625,-10.25390625,-40.52734375,-47.8515625,-2.44140625,12.20703125,0.0
102.54296875,-15.13671875,-44.921875,-24.90234375,-4.39453125,84.9609375,0.0
102.546875,-24.90234375,-47.8515625,8.30078125,-11.23046875,21.484375,0.0
102.55078125,-50.29296875,-63.4765625,0.9765625,-20.01953125,-47.36328125,0.0
102.5546875,-51.7578125,-63.96484375,-17.08984375,-27.34375,-15.625,0.0
102.55859375,-35.15625,-58.59375,-21.484375,-22.94921875,29.296875,0.0
102.5625,-28.3203125,-57.12890625,-24.4140625,-20.01953125,-4.39453125,0.0
102.56640625,-20.99609375,-46.38671875,-27.83203125,-17.08984375,-42.96875,0.0
102.5703125,-24.90234375,-46.38671875,-34.66796875,-15.13671875,-47.8515625,0.0
102.57421875,-28.80859375,-45.8984375,-37.109375,-19.04296875,-50.29296875,0.0
102.578125,-6.34765625,-45.41015625,-33.203125,-17.578125,-51.26953125,0.0
102.58203125,12.20703125,-40.0390625,-27.34375,-16.6015625,4.8828125,0.0
102.5859375,-1.953125,-37.109375,-25.87890625,-24.4140625,20.5078125,0.0
102.58984375,-26.3671875,-44.43359375,-32.2265625,-38.0859375,-43.9453125,0.0
102.59375,-31.73828125,-51.7578125,-36.1328125,-43.9453125,-62.01171875,0.0
102.59765625,-5.37109375,-50.78125,-33.69140625,-29.78515625,-106.4453125,0.0
102.6015625,28.3203125,-35.15625,-32.71484375,-11.71875,-68.359375,0.0
102.60546875,19.04296875,-46.38671875,-47.36328125,-14.6484375,17.578125,0.0
102.609375,-17.578125,-61.5234375,-63.96484375,-30.76171875,-46.875,0.0
102.61328125,-20.01953125,-62.01171875,-56.640625,-28.80859375,-106.4453125,0.0
102.6171875,4.8828125,-52.734375,-48.33984375,-28.80859375,-7.32421875,0.0
102.62109375,31.25,-28.3203125,-39.55078125,-19.04296875,7.8125,0.0
102.625,29.296875,-21.97265625,-20.5078125,-7.32421875,-47.8515625,0.0
102.62890625,-1.953125,-28.80859375,-12.6953125,-20.01953125,-80.56640625,0.0
102.6328125,-22.94921875,-38.57421875,-16.6015625,-25.390625,-83.984375,0.0
102.63671875,-2.44140625,-41.9921875,-11.71875,-11.71875,-88.37890625,0.0
102.640625,6.8359375,-47.36328125,-22.94921875,-19.04296875,-87.40234375,0.0
102.64453125,-6.34765625,-41.9921875,-37.109375,-25.87890625,-80.56640625,0.0
102.6484375,-31.25,-15.625,-41.9921875,-29.78515625,-58.59375,0.0
102.65234375,-46.875,-17.578125,-39.55078125,-33.69140625,-72.75390625,0.0
102.65625,-29.296875,-34.1796875,-40.52734375,-20.5078125,-116.69921875,0.0
102.66015625,-8.30078125,-30.2734375,-45.41015625,-12.6953125,-49.8046875,0.0
102.6640625,3.41796875,-27.83203125,-32.71484375,2.9296875,23.4375,0.0
102.66796875,-12.6953125,-44.921875,-29.296875,4.8828125,17.578125,0.0
102.671875,-37.59765625,-54.6875,-19.53125,-14.16015625,-36.1328125,0.0
102.67578125,-28.3203125,-49.8046875,-7.32421875,-17.578125,-53.7109375,0.0
102.6796875,4.8828125,-41.50390625,-4.39453125,-13.18359375,-88.37890625,0.0
102.68359375,7.8125,-35.64453125,-18.5546875,-14.6484375,-97.16796875,0.0
102.6875,4.8828125,-30.76171875,-13.671875,-11.71875,-76.171875,0.0
102.69140625,-4.8828125,-28.80859375,-2.9296875,-12.20703125,-53.7109375,0.0
102.6953125,-8.30078125,-34.66796875,-15.13671875,-14.16015625,24.90234375,0.0
102.69921875,12.6953125,-31.25,-24.4140625,-7.32421875,-15.13671875,0.0
102.703125,23.4375,-34.1796875,-20.99609375,-0.48828125,-37.109375,0.0
102.70703125,7.32421875,-34.1796875,-21.484375,0.48828125,68.359375,0.0
102.7109375,-27.83203125,-25.390625,-37.109375,-19.53125,-14.16015625,0.0
102.71484375,-43.45703125,-31.25,-40.0390625,-36.1328125,-114.2578125,0.0
102.71875,-20.99609375,-21.484375,-28.80859375,-25.87890625,-56.640625,0.0
102.72265625,-9.27734375,-20.5078125,-24.90234375,-23.4375,5.859375,0.0
102.7265625,-22.94921875,-36.1328125,-29.78515625,-20.99609375,6.8359375,0.0
102.73046875,-43.45703125,-46.875,-25.390625,-12.20703125,-63.4765625,0.0
102.734375,-45.8984375,-49.8046875,-29.296875,-18.06640625,-61.03515625,0.0
102.73828125,-23.92578125,-45.41015625,-38.57421875,-20.01953125,35.15625,0.0
102.7421875,-5.37109375,-43.45703125,-28.80859375,-17.578125,23.92578125,0.0
102.74609375,-1.46484375,-41.50390625,-25.87890625,-2.44140625,-35.64453125,0.0
102.75,-25.87890625,-45.8984375,-33.203125,3.90625,-54.6875,0.0
102.75390625,-33.69140625,-46.38671875,-23.92578125,-2.9296875,-15.625,0.0
102.7578125,-5.859375,-37.109375,-8.7890625,-1.46484375,-27.34375,0.0
102.76171875,-7.8125,-38.0859375,-22.4609375,-12.6953125,-31.73828125,0.0
102.765625,-25.87890625,-46.38671875,-29.296875,-19.04296875,68.84765625,0.0
102.76953125,-30.76171875,-50.78125,-27.83203125,-9.765625,88.37890625,0.0
102.7734375,-34.66796875,-39.0625,-30.76171875,-9.765625,55.17578125,0.0
102.77734375,-19.53125,-33.69140625,-36.62109375,-20.99609375,-24.90234375,0.0
102.78125,2.9296875,-29.78515625,-44.43359375,-11.71875,-49.31640625,0.0
102.78515625,-4.39453125,-31.25,-34.66796875,-10.7421875,-17.578125,0.0
102.7890625,-31.73828125,-52.734375,-27.83203125,-27.83203125,-19.04296875,0.0
102.79296875,-46.38671875,-52.734375,-23.92578125,-32.71484375,-29.296875,0.0
102.796875,-34.1796875,-34.1796875,-32.2265625,-27.34375,-29.78515625,0.0
102.80078125,-9.765625,-30.2734375,-30.76171875,-16.11328125,-32.71484375,0.0
102.8046875,-4.8828125,-30.76171875,-20.5078125,-4.8828125,-44.921875,0.0
102.80859375,-22.4609375,-37.59765625,-26.85546875,-11.71875,-16.6015625,0.0
102.8125,-33.69140625,-40.0390625,-29.78515625,-20.01953125,-21.484375,0.0
102.81640625,-31.73828125,-32.71484375,-35.64453125,-19.04296875,-72.75390625,0.0
102.8203125,-16.11328125,-28.3203125,-32.71484375,-20.01953125,-77.1484375,0.0
102.82421875,-14.16015625,-24.4140625,-39.0625,-19.04296875,-59.08203125,0.0
102.828125,-35.15625,-26.3671875,-48.33984375,-16.11328125,-98.6328125,0.0
102.83203125,-47.8515625,-38.57421875,-31.25,-28.80859375,-123.046875,0.0
102.8359375,-33.203125,-41.50390625,-20.99609375,-30.76171875,-64.94140625,0.0
102.83984375,-1.953125,-23.4375,-18.06640625,-11.23046875,-53.22265625,0.0
102.84375,7.32421875,-24.90234375,-7.32421875,-5.37109375,-54.6875,0.0
102.84765625,-12.6953125,-41.015625,-4.8828125,-7.8125,-48.828125,0.0
102.8515625,-38.0859375,-42.96875,-19.04296875,-20.01953125,-76.66015625,0.0
102.85546875,-37.59765625,-41.50390625,-32.71484375,-27.83203125,-118.65234375,0.0
102.859375,-14.6484375,-38.57421875,-42.48046875,-20.99609375,-78.125,0.0
102.86328125,-3.41796875,-28.80859375,-42.48046875,-15.625,-10.7421875,0.0
102.8671875,-12.20703125,-25.390625,-33.203125,-19.04296875,-4.39453125,0.0
102.87109375,-17.578125,-35.64453125,-18.5546875,-20.01953125,-20.99609375,0.0
102.875,-25.87890625,-46.875,-25.390625,-32.2265625,-38.0859375,0.0
102.87890625,-16.11328125,-45.8984375,-39.55078125,-34.1796875,-51.26953125,0.0
102.8828125,2.9296875,-32.71484375,-35.15625,-22.94921875,-128.41796875,0.0
102.88671875,-17.578125,-28.3203125,-37.59765625,-21.484375,-119.62890625,0.0
102.890625,-38.0859375,-25.87890625,-34.66796875,-20.99609375,-134.27734375,0.0
102.89453125,-43.9453125,-36.62109375,-27.34375,-32.71484375,-143.06640625,0.0
102.8984375,-25.87890625,-44.43359375,-27.34375,-33.69140625,-62.5,0.0
102.90234375,-7.32421875,-34.1796875,-31.25,-19.53125,-44.43359375,0.0
102.90625,-12.20703125,-22.4609375,-37.109375,-11.23046875,-75.68359375,0.0
102.91015625,-38.57421875,-41.9921875,-37.109375,-16.6015625,-56.15234375,0.0
102.9140625,-46.875,-46.38671875,-27.34375,-20.01953125,-22.94921875,0.0
102.91796875,-31.25,-27.83203125,-27.34375,-23.92578125,16.11328125,0.0
102.921875,-18.06640625,-24.90234375,-31.73828125,-20.99609375,112.79296875,0.0
102.92578125,-17.578125,-29.78515625,-27.83203125,-17.08984375,79.58984375,0.0
102.9296875,-32.71484375,-32.2265625,-37.109375,-25.87890625,5.859375,0.0
102.93359375,-42.48046875,-36.1328125,-39.55078125,-24.4140625,-0.48828125,0.0
102.9375,-35.64453125,-28.80859375,-26.85546875,-26.3671875,60.05859375,0.0
102.94140625,-19.04296875,-28.3203125,-35.15625,-26.3671875,101.5625,0.0
102.9453125,-24.90234375,-45.41015625,-41.015625,-26.85546875,85.44921875,0.0
102.94921875,-44.921875,-41.50390625,-28.80859375,-36.62109375,11.23046875,0.0
102.953125,-55.6640625,-28.3203125,-22.4609375,-41.015625,-3.41796875,0.0
102.95703125,-40.0390625,-33.69140625,-18.06640625,-32.2265625,15.625,0.0
102.9609375,-11.23046875,-35.64453125,-21.484375,-20.01953125,-8.30078125,0.0
102.96484375,-18.06640625,-26.85546875,-33.69140625,-22.94921875,-5.859375,0.0
102.96875,-45.41015625,-21.484375,-26.85546875,-23.92578125,-18.5546875,0.0
102.97265625,-43.45703125,-21.97265625,-2.44140625,-18.06640625,-94.7265625,0.0
102.9765625,-32.71484375,-30.76171875,-16.6015625,-30.2734375,-104.4921875,0.0
102.98046875,-25.87890625,-37.59765625,-30.2734375,-38.0859375,8.30078125,0.0
102.984375,-21.97265625,-30.76171875,-16.11328125,-25.87890625,-1.46484375,0.0
102.98828125,-40.0390625,-35.15625,-21.97265625,-26.3671875,-26.3671875,0.0
102.9921875,-53.7109375,-42.96875,-30.2734375,-35.64453125,0.48828125,0.0
102.99609375,-37.59765625,-35.15625,-29.78515625,-28.80859375,29.296875,0.0
103.0,-19.53125,-35.15625,-26.3671875,-23.92578125,-17.578125,0.0
103.00390625,-15.13671875,-36.1328125,-17.578125,-22.4609375,-31.73828125,0.0
103.0078125,-24.90234375,-36.62109375,-13.18359375,-21.484375,-14.6484375,0.0
103.01171875,-33.69140625,-44.921875,-12.6953125,-21.484375,14.6484375,0.0
103.015625,-24.90234375,-42.48046875,-12.20703125,-23.4375,-55.17578125,0.0
103.01953125,-15.625,-24.4140625,-14.6484375,-25.390625,-107.421875,0.0
103.0234375,-18.06640625,-19.04296875,-19.53125,-26.85546875,-43.9453125,0.0
103.02734375,-38.57421875,-26.85546875,-33.69140625,-33.69140625,-29.296875,0.0
103.03125,-50.78125,-24.4140625,-36.62109375,-35.15625,-76.171875,0.0
103.03515625,-49.8046875,-26.3671875,-31.73828125,-41.015625,-58.59375,0.0
103.0390625,-42.96875,-32.71484375,-25.87890625,-40.52734375,-14.16015625,0.0
103.04296875,-32.71484375,-41.9921875,-14.6484375,-35.15625,-21.97265625,0.0
103.046875,-37.59765625,-55.17578125,-18.06640625,-30.76171875,24.90234375,0.0
103.05078125,-57.12890625,-57.6171875,-31.25,-35.15625,-20.5078125,0.0
103.0546875,-60.05859375,-45.41015625,-44.43359375,-41.015625,-138.18359375,0.0
103.05859375,-32.71484375,-35.15625,-34.1796875,-34.1796875,-153.3203125,0.0
103.0625,-15.625,-41.9921875,-21.484375,-27.83203125,-143.06640625,0.0
103.06640625,-29.78515625,-39.55078125,-25.87890625,-31.73828125,-109.375,0.0
103.0703125,-55.6640625,-28.80859375,-22.4609375,-51.7578125,-137.6953125,0.0
103.07421875,-58.59375,-27.34375,-25.390625,-59.08203125,-140.13671875,0.0
103.078125,-52.24609375,-35.64453125,-42.96875,-62.01171875,-57.12890625,0.0
103.08203125,-41.50390625,-34.1796875,-53.22265625,-58.10546875,23.92578125,0.0
103.0859375,-27.83203125,-24.4140625,-46.38671875,-39.0625,79.58984375,0.0
103.08984375,-44.43359375,-24.4140625,-41.9921875,-34.1796875,17.08984375,0.0
103.09375,-52.24609375,-36.1328125,-48.33984375,-39.55078125,-35.15625,0.0
103.09765625,-35.64453125,-45.8984375,-47.8515625,-39.0625,-107.421875,0.0
103.1015625,-20.01953125,-41.015625,-45.41015625,-36.62109375,-91.796875,0.0
103.10546875,-26.3671875,-42.96875,-50.78125,-39.0625,-93.26171875,0.0
103.109375,-44.43359375,-48.828125,-49.31640625,-40.0390625,-161.62109375,0.0
103.11328125,-58.59375,-51.26953125,-60.546875,-47.8515625,-124.0234375,0.0
103.1171875,-41.015625,-42.96875,-69.82421875,-46.38671875,-110.83984375,0.0
103.12109375,-15.625,-30.76171875,-65.4296875,-38.0859375,-83.984375,0.0
103.125,-23.92578125,-38.57421875,-61.03515625,-36.1328125,-5.37109375,0.0
103.12890625,-49.31640625,-47.8515625,-37.59765625,-39.55078125,-19.53125,0.0
103.1328125,-62.98828125,-32.71484375,-27.83203125,-43.45703125,-3.41796875,0.0
103.13671875,-47.36328125,-33.203125,-33.203125,-44.43359375,40.0390625,0.0
103.140625,-23.4375,-43.45703125,-36.62109375,-40.0390625,18.06640625,0.0
103.14453125,-21.484375,-33.203125,-58.59375,-29.78515625,23.92578125,0.0
103.1484375,-39.55078125,-30.2734375,-56.15234375,-25.390625,53.22265625,0.0
103.15234375,-49.8046875,-36.1328125,-14.16015625,-36.1328125,94.7265625,0.0
103.15625,-45.8984375,-50.29296875,-18.5546875,-57.12890625,24.4140625,0.0
103.16015625,-25.390625,-58.59375,-36.62109375,-57.6171875,-22.94921875,0.0
103.1640625,-3.90625,-42.96875,-22.94921875,-31.25,-15.625,0.0
103.16796875,-27.83203125,-35.15625,-30.76171875,-35.15625,-32.2265625,0.0
103.171875,-64.453125,-49.31640625,-48.828125,-59.5703125,-0.48828125,0.0
103.17578125,-49.8046875,-56.15234375,-45.8984375,-56.640625,39.0625,0.0
103.1796875,-28.3203125,-50.29296875,-41.9921875,-46.38671875,43.45703125,0.0
103.18359375,-33.69140625,-53.7109375,-47.8515625,-52.24609375,54.19921875,0.0
103.1875,-41.9921875,-54.6875,-44.921875,-52.734375,32.71484375,0.0
103.19140625,-54.19921875,-43.45703125,-42.96875,-48.33984375,-51.7578125,0.0
103.1953125,-46.38671875,-45.8984375,-45.41015625,-37.59765625,-105.95703125,0.0
103.19921875,-28.3203125,-49.31640625,-50.78125,-42.48046875,-54.6875,0.0
103.203125,-23.92578125,-38.57421875,-54.6875,-43.45703125,-18.06640625,0.0
103.20703125,-34.66796875,-34.66796875,-46.38671875,-31.73828125,33.69140625,0.0
103.2109375,-59.5703125,-38.57421875,-41.9921875,-38.57421875,0.48828125,0.0
103.21484375,-55.17578125,-45.41015625,-43.9453125,-43.45703125,-87.40234375,0.0
103.21875,-24.90234375,-46.875,-36.62109375,-31.25,-5.859375,0.0
103.22265625,-12.20703125,-40.0390625,-38.57421875,-25.390625,-44.921875,0.0
103.2265625,-33.69140625,-45.41015625,-50.29296875,-36.1328125,-51.26953125,0.0
103.23046875,-47.8515625,-43.9453125,-49.8046875,-36.1328125,55.6640625,0.0
103.234375,-42.48046875,-46.38671875,-61.5234375,-34.66796875,49.31640625,0.0
103.23828125,-27.34375,-60.546875,-55.6640625,-36.62109375,8.30078125,0.0
103.2421875,-20.99609375,-56.640625,-28.3203125,-31.73828125,26.85546875,0.0
103.24609375,-38.57421875,-51.26953125,-29.296875,-42.48046875,59.5703125,0.0
103.25,-54.19921875,-46.875,-43.9453125,-46.38671875,21.97265625,0.0
103.25390625,-53.7109375,-46.38671875,-46.38671875,-42.48046875,-33.203125,0.0
103.2578125,-38.0859375,-52.24609375,-25.390625,-41.50390625,-72.75390625,0.0
103.26171875,-21.484375,-52.24609375,-25.87890625,-33.203125,22.94921875,0.0
103.265625,-30.76171875,-54.6875,-42.96875,-36.1328125,83.984375,0.0
103.26953125,-56.640625,-61.5234375,-40.0390625,-51.26953125,2.44140625,0.0
103.2734375,-63.4765625,-53.7109375,-46.875,-55.17578125,-105.46875,0.0
103.27734375,-41.015625,-48.828125,-42.96875,-49.31640625,-86.42578125,0.0
103.28125,-23.92578125,-47.8515625,-30.76171875,-40.52734375,-39.0625,0.0
103.28515625,-32.2265625,-44.921875,-31.25,-44.43359375,-2.44140625,0.0
103.2890625,-49.31640625,-55.6640625,-32.71484375,-49.31640625,-41.50390625,0.0
103.29296875,-59.5703125,-58.10546875,-40.0390625,-38.57421875,-108.3984375,0.0
103.296875,-53.7109375,-48.828125,-46.38671875,-41.9921875,-23.92578125,0.0
103.30078125,-34.1796875,-41.9921875,-44.921875,-51.26953125,13.18359375,0.0
103.3046875,-37.109375,-40.52734375,-47.8515625,-52.24609375,-30.2734375,0.0
103.30859375,-58.10546875,-47.36328125,-48.33984375,-53.7109375,-51.26953125,0.0
103.3125,-69.82421875,-50.29296875,-49.8046875,-54.19921875,-73.73046875,0.0
103.31640625,-60.546875,-53.22265625,-47.36328125,-49.31640625,-85.44921875,0.0
103.3203125,-41.50390625,-46.875,-34.66796875,-43.45703125,-54.6875,0.0
103.32421875,-44.921875,-27.83203125,-46.875,-48.828125,-20.5078125,0.0
103.328125,-63.4765625,-19.53125,-52.734375,-50.78125,-18.5546875,0.0
103.33203125,-64.453125,-17.08984375,-18.5546875,-46.38671875,-79.58984375,0.0
103.3359375,-52.734375,-27.83203125,-10.7421875,-54.19921875,-98.6328125,0.0
103.33984375,-43.9453125,-37.59765625,-32.71484375,-63.4765625,-20.99609375,0.0
103.34375,-50.29296875,-25.390625,-30.76171875,-63.4765625,-20.5078125,0.0
103.34765625,-84.47265625,-18.06640625,-24.90234375,-88.8671875,-94.7265625,0.0
103.3515625,-115.72265625,-19.53125,-40.0390625,-111.328125,-85.9375,0.0
103.35546875,-114.2578125,-20.01953125,-45.8984375,-116.2109375,-74.21875,0.0
103.359375,-104.98046875,-15.625,-29.296875,-117.67578125,-103.02734375,0.0
103.36328125,-104.00390625,-14.16015625,-20.01953125,-113.28125,-9.765625,0.0
103.3671875,-124.0234375,-17.578125,-24.90234375,-124.51171875,59.5703125,0.0
103.37109375,-150.390625,-14.6484375,-20.99609375,-140.13671875,-26.85546875,0.0
103.375,-153.3203125,-10.25390625,-20.5078125,-145.01953125,-100.09765625,0.0
103.37890625,-132.8125,-5.37109375,-25.390625,-141.6015625,-104.4921875,0.0
103.3828125,-134.27734375,-2.9296875,-19.53125,-148.4375,-91.796875,0.0
103.38671875,-153.80859375,4.8828125,-11.71875,-150.87890625,-55.6640625,0.0
103.390625,-177.734375,-0.9765625,-7.32421875,-159.1796875,-26.85546875,0.0
103.39453125,-189.94140625,-13.18359375,-17.578125,-180.6640625,-9.27734375,0.0
103.3984375,-161.1328125,-10.25390625,-27.83203125,-171.38671875,9.27734375,0.0
103.40234375,-134.27734375,7.32421875,-21.97265625,-148.4375,-16.11328125,0.0
103.40625,-140.625,22.94921875,-19.53125,-143.06640625,-49.31640625,0.0
103.41015625,-150.390625,15.13671875,-20.01953125,-148.92578125,-31.25,0.0
103.4140625,-142.08984375,3.90625,-30.2734375,-152.34375,-127.44140625,0.0
103.41796875,-120.60546875,-3.90625,-34.1796875,-140.625,-141.6015625,0.0
103.421875,-92.28515625,-0.9765625,-21.484375,-105.95703125,-63.96484375,0.0
103.42578125,-91.30859375,-7.8125,-22.94921875,-93.26171875,-14.6484375,0.0
103.4296875,-104.00390625,-17.578125,-34.1796875,-94.7265625,-26.3671875,0.0
103.43359375,-91.796875,-26.85546875,-38.0859375,-79.58984375,-68.84765625,0.0
103.4375,-61.5234375,-33.203125,-32.71484375,-59.5703125,-35.64453125,0.0
103.44140625,-35.15625,-29.78515625,-33.69140625,-50.29296875,49.31640625,0.0
103.4453125,-22.4609375,-29.78515625,-34.1796875,-22.4609375,38.0859375,0.0
103.44921875,-26.85546875,-39.55078125,-47.8515625,-2.44140625,-27.83203125,0.0
103.453125,-22.94921875,-45.8984375,-62.5,-9.765625,-51.7578125,0.0
103.45703125,-0.9765625,-42.96875,-47.8515625,-5.37109375,-30.76171875,0.0
103.4609375,11.23046875,-51.7578125,-41.9921875,-3.90625,25.390625,0.0
103.46484375,4.8828125,-59.08203125,-45.41015625,-5.859375,36.62109375,0.0
103.46875,-3.41796875,-46.38671875,-31.73828125,7.32421875,49.31640625,0.0
103.47265625,-3.41796875,-46.38671875,-36.62109375,13.18359375,-52.734375,0.0
103.4765625,11.23046875,-61.03515625,-38.57421875,12.20703125,-94.23828125,0.0
103.48046875,27.83203125,-69.3359375,-34.66796875,8.30078125,-29.78515625,0.0
103.484375,28.3203125,-59.08203125,-42.96875,8.7890625,-2.9296875,0.0
103.48828125,19.04296875,-41.9921875,-36.62109375,17.08984375,26.85546875,0.0
103.4921875,-0.48828125,-40.52734375,-28.80859375,7.8125,-30.76171875,0.0
103.49609375,4.39453125,-39.55078125,-33.69140625,7.8125,-71.77734375,0.0
103.5,27.34375,-37.59765625,-32.2265625,14.6484375,-108.3984375,0.0
103.50390625,36.62109375,-28.3203125,-26.3671875,25.390625,-99.12109375,0.0
103.5078125,21.97265625,-25.390625,-25.87890625,35.15625,-26.85546875,0.0
103.51171875,-12.20703125,-34.1796875,-38.57421875,16.11328125,-84.9609375,0.0
103.515625,-21.97265625,-37.109375,-41.015625,-6.8359375,-64.94140625,0.0
103.51953125,-2.44140625,-38.0859375,-38.0859375,-5.859375,-112.3046875,0.0
103.5234375,0.48828125,-42.96875,-39.0625,-3.41796875,-137.6953125,0.0
103.52734375,-19.53125,-46.875,-33.69140625,-8.30078125,-5.859375,0.0
103.53125,-28.3203125,-55.17578125,-33.203125,-10.25390625,-73.73046875,0.0
103.53515625,-18.5546875,-52.734375,-36.1328125,-11.71875,-85.44921875,0.0
103.5390625,-6.34765625,-41.015625,-42.96875,-12.6953125,-24.90234375,0.0
103.54296875,-7.8125,-47.8515625,-41.9921875,-9.765625,6.34765625,0.0
103.546875,-13.18359375,-47.8515625,-40.0390625,-5.859375,26.3671875,0.0
103.55078125,-25.87890625,-35.64453125,-24.4140625,-13.18359375,-31.25,0.0
103.5546875,-28.80859375,-38.0859375,-13.18359375,-24.4140625,-62.5,0.0
103.55859375,-24.4140625,-53.22265625,-24.90234375,-43.45703125,-13.18359375,0.0
103.5625,-24.90234375,-45.8984375,-33.203125,-43.45703125,17.578125,0.0
103.56640625,-54.19921875,-25.87890625,-39.55078125,-54.6875,26.85546875,0.0
103.5703125,-96.19140625,-28.80859375,-48.33984375,-79.1015625,-7.8125,0.0
103.57421875,-112.3046875,-35.64453125,-33.69140625,-95.21484375,-99.609375,0.0
103.578125,-97.65625,-28.3203125,-10.7421875,-98.14453125,-127.44140625,0.0
103.58203125,-84.47265625,-21.484375,-4.39453125,-98.14453125,-155.76171875,0.0
103.5859375,-107.421875,-21.484375,-6.8359375,-115.72265625,-80.56640625,0.0
103.58984375,-144.04296875,-27.34375,-16.11328125,-135.25390625,25.87890625,0.0
103.59375,-149.90234375,-24.4140625,-11.71875,-140.625,56.15234375,0.0
103.59765625,-127.9296875,-18.06640625,-1.46484375,-133.7890625,42.96875,0.0
103.6015625,-126.953125,-20.01953125,-12.6953125,-140.625,35.64453125,0.0
103.60546875,-148.92578125,-15.625,-14.16015625,-159.66796875,79.1015625,0.0
103.609375,-164.0625,-2.9296875,-2.44140625,-171.875,23.92578125,0.0
103.61328125,-172.8515625,2.44140625,-13.18359375,-172.8515625,-29.78515625,0.0
103.6171875,-158.203125,-9.765625,-21.97265625,-163.0859375,-26.85546875,0.0
103.62109375,-120.60546875,-0.48828125,-3.41796875,-144.04296875,-30.76171875,0.0
103.625,-114.2578125,21.97265625,1.46484375,-131.34765625,-1.46484375,0.0
103.62890625,-129.39453125,15.625,-11.23046875,-130.859375,72.265625,0.0
103.6328125,-139.16015625,-3.41796875,-3.90625,-132.8125,14.16015625,0.0
103.63671875,-124.51171875,-17.08984375,5.37109375,-127.9296875,12.6953125,0.0
103.640625,-95.703125,-32.2265625,-2.9296875,-110.83984375,32.71484375,0.0
103.64453125,-83.984375,-36.62109375,-12.20703125,-93.75,-15.13671875,0.0
103.6484375,-80.078125,-26.85546875,-18.06640625,-64.453125,14.16015625,0.0
103.65234375,-76.171875,-35.15625,-40.52734375,-50.29296875,7.8125,0.0
103.65625,-57.6171875,-39.0625,-55.17578125,-47.36328125,-33.203125,0.0
103.66015625,-22.94921875,-37.109375,-43.9453125,-28.3203125,-6.8359375,0.0
103.6640625,-5.37109375,-36.1328125,-38.0859375,-16.11328125,-39.55078125,0.0
103.66796875,-12.6953125,-40.52734375,-40.0390625,-5.37109375,-136.71875,0.0
103.671875,-13.18359375,-54.19921875,-46.875,3.41796875,-68.84765625,0.0
103.67578125,6.34765625,-67.3828125,-49.8046875,9.27734375,-42.96875,0.0
103.6796875,38.0859375,-69.3359375,-41.9921875,21.97265625,-78.61328125,0.0
103.68359375,50.78125,-58.59375,-51.26953125,33.69140625,-75.68359375,0.0
103.6875,32.2265625,-52.734375,-58.59375,30.76171875,-97.65625,0.0
103.69140625,13.671875,-52.24609375,-48.828125,26.3671875,-127.9296875,0.0
103.6953125,19.53125,-47.8515625,-47.8515625,21.484375,-110.3515625,0.0
103.69921875,44.43359375,-46.38671875,-40.52734375,26.85546875,-135.25390625,0.0
103.703125,60.546875,-53.7109375,-25.390625,46.875,-128.41796875,0.0
103.70703125,41.9921875,-46.38671875,-20.01953125,52.24609375,-92.7734375,0.0
103.7109375,17.578125,-41.50390625,-39.55078125,39.0625,-144.53125,0.0
103.71484375,31.73828125,-39.0625,-41.50390625,33.203125,-86.42578125,0.0
103.71875,45.41015625,-47.8515625,-33.69140625,26.85546875,94.23828125,0.0
103.72265625,34.66796875,-57.12890625,-42.48046875,12.20703125,80.56640625,0.0
103.7265625,18.5546875,-49.31640625,-41.50390625,12.20703125,-39.0625,0.0
103.73046875,3.41796875,-47.8515625,-40.52734375,23.4375,-80.56640625,0.0
103.734375,14.16015625,-43.9453125,-26.85546875,27.83203125,-65.4296875,0.0
103.73828125,34.66796875,-44.921875,-15.625,31.25,-80.56640625,0.0
103.7421875,42.48046875,-35.15625,-17.08984375,41.9921875,51.26953125,0.0
103.74609375,25.87890625,-30.76171875,-16.11328125,41.9921875,87.40234375,0.0
103.75,10.25390625,-26.85546875,-16.11328125,35.15625,41.50390625,0.0
103.75390625,10.7421875,-20.99609375,-9.765625,34.66796875,9.765625,0.0
103.7578125,15.625,-28.80859375,-23.92578125,25.390625,-81.0546875,0.0
103.76171875,32.71484375,-27.34375,-41.015625,17.578125,-64.94140625,0.0
103.765625,23.4375,-33.203125,-27.83203125,19.04296875,-53.22265625,0.0
103.76953125,0.9765625,-41.9921875,-11.23046875,24.90234375,-71.77734375,0.0
103.7734375,0.48828125,-36.62109375,-14.6484375,20.99609375,-93.26171875,0.0
103.77734375,16.6015625,-37.109375,-10.7421875,20.01953125,-142.08984375,0.0
103.78125,32.2265625,-40.52734375,-4.8828125,29.296875,-108.3984375,0.0
103.78515625,30.2734375,-39.55078125,-12.20703125,35.15625,-11.23046875,0.0
103.7890625,16.6015625,-28.80859375,-10.7421875,32.71484375,-33.69140625,0.0
103.79296875,-13.18359375,-31.25,-20.01953125,11.23046875,-97.65625,0.0
103.796875,-18.06640625,-31.25,-31.73828125,-4.8828125,-112.79296875,0.0
103.80078125,1.953125,-19.53125,-25.87890625,-0.48828125,-146.484375,0.0
103.8046875,10.25390625,-22.94921875,-12.6953125,13.671875,-92.28515625,0.0
103.80859375,-10.25390625,-41.9921875,-15.625,9.765625,-20.5078125,0.0
103.8125,-29.78515625,-40.0390625,-27.83203125,-5.859375,-64.94140625,0.0
103.81640625,-17.08984375,-25.87890625,-32.2265625,-10.7421875,-118.65234375,0.0
103.8203125,0.9765625,-26.3671875,-37.59765625,-14.6484375,-7.32421875,0.0
103.82421875,-5.859375,-28.3203125,-25.390625,-14.6484375,53.22265625,0.0
103.828125,-26.3671875,-24.4140625,-15.13671875,-12.20703125,-41.9921875,0.0
103.83203125,-31.73828125,-47.36328125,-21.484375,-19.53125,12.6953125,0.0
103.8359375,-11.71875,-47.36328125,-28.3203125,-17.578125,73.73046875,0.0
103.83984375,1.46484375,-21.97265625,-34.66796875,-17.578125,28.3203125,0.0
103.84375,0.48828125,-14.6484375,-32.2265625,-12.20703125,62.98828125,0.0
103.84765625,-5.37109375,-18.06640625,-24.4140625,-0.48828125,5.859375,0.0
103.8515625,-25.87890625,-34.66796875,-17.578125,-10.25390625,-121.09375,0.0
103.85546875,-26.3671875,-47.36328125,-10.7421875,-13.18359375,-117.1875,0.0
103.859375,-4.8828125,-44.921875,-8.7890625,-15.625,-80.56640625,0.0
103.86328125,-3.90625,-34.66796875,-17.578125,-22.4609375,-27.34375,0.0
103.8671875,-17.08984375,-28.3203125,-28.3203125,-13.671875,50.29296875,0.0
103.87109375,-31.73828125,-22.4609375,-30.76171875,-13.18359375,86.42578125,0.0
103.875,-33.69140625,-26.85546875,-25.390625,-16.6015625,66.89453125,0.0
103.87890625,-10.7421875,-29.296875,-20.99609375,-10.7421875,-7.8125,0.0
103.8828125,-3.41796875,-21.97265625,-20.01953125,-4.8828125,-33.203125,0.0
103.88671875,-11.71875,-24.4140625,-8.7890625,-4.8828125,12.20703125,0.0
103.890625,-23.4375,-31.25,-0.9765625,-9.765625,20.01953125,0.0
103.89453125,-36.62109375,-24.4140625,-19.04296875,-25.390625,-45.8984375,0.0
103.8984375,-31.25,-18.5546875,-38.57421875,-37.59765625,-7.32421875,0.0
103.90234375,-11.71875,-18.06640625,-24.90234375,-22.4609375,20.5078125,0.0
103.90625,-9.27734375,-20.01953125,-20.01953125,-13.671875,-40.0390625,0.0
103.91015625,-31.25,-26.3671875,-24.90234375,-23.92578125,-34.1796875,0.0
103.9140625,-44.921875,-38.57421875,-28.80859375,-31.73828125,-101.07421875,0.0
103.91796875,-32.71484375,-48.828125,-41.9921875,-30.2734375,-197.75390625,0.0
103.921875,-10.7421875,-44.921875,-34.66796875,-20.5078125,-158.69140625,0.0
103.92578125,-16.11328125,-34.1796875,-25.390625,-21.484375,40.0390625,0.0
103.9296875,-39.0625,-26.85546875,-22.94921875,-25.87890625,-14.6484375,0.0
103.93359375,-51.7578125,-33.203125,-23.92578125,-29.78515625,-207.51953125,0.0
103.9375,-33.69140625,-33.69140625,-18.06640625,-27.34375,-213.8671875,0.0
103.94140625,-9.765625,-26.85546875,-14.6484375,-20.5078125,-133.7890625,0.0
103.9453125,-13.671875,-24.4140625,-13.671875,-16.6015625,-107.91015625,0.0
103.94921875,-29.296875,-16.6015625,-16.11328125,-11.23046875,-164.55078125,0.0
103.953125,-35.15625,-20.99609375,-24.4140625,-17.578125,-70.80078125,0.0
103.95703125,-18.5546875,-27.34375,-29.296875,-22.94921875,37.59765625,0.0
103.9609375,6.8359375,-15.625,-32.71484375,-11.23046875,8.30078125,0.0
103.96484375,4.39453125,-12.20703125,-21.484375,-10.25390625,26.3671875,0.0
103.96875,-12.20703125,-20.01953125,-5.859375,-14.6484375,58.10546875,0.0
103.97265625,-26.3671875,-24.90234375,-20.5078125,-21.97265625,61.5234375,0.0
103.9765625,-25.87890625,-19.04296875,-41.50390625,-30.76171875,-12.20703125,0.0
103.98046875,-7.8125,-19.53125,-31.25,-19.53125,1.953125,0.0
103.984375,-5.37109375,-20.99609375,-30.2734375,-11.23046875,51.7578125,0.0
103.98828125,-22.4609375,-30.2734375,-32.2265625,-18.5546875,-46.875,0.0
103.9921875,-32.71484375,-29.296875,-18.06640625,-18.06640625,-63.4765625,0.0
103.99609375,-24.4140625,-25.390625,-9.765625,-17.578125,-0.48828125,0.0
104.0,0.9765625,-28.80859375,-11.71875,-13.671875,6.8359375,0.0
104.00390625,7.8125,-17.08984375,-14.6484375,4.8828125,4.8828125,0.0
104.0078125,-18.5546875,-17.578125,-20.5078125,-2.44140625,25.390625,0.0
104.01171875,-46.875,-31.25,-33.69140625,-35.64453125,-27.34375,0.0
104.015625,-42.48046875,-35.64453125,-36.1328125,-37.109375,3.90625,0.0
104.01953125,-18.06640625,-41.9921875,-34.66796875,-24.4140625,39.55078125,0.0
104.0234375,-8.7890625,-42.96875,-34.1796875,-20.5078125,29.296875,0.0
104.02734375,-15.13671875,-37.59765625,-11.23046875,-22.4609375,12.6953125,0.0
104.03125,-37.109375,-43.45703125,-11.71875,-36.1328125,-29.78515625,0.0
104.03515625,-44.921875,-52.24609375,-29.78515625,-38.57421875,39.55078125,0.0
104.0390625,-26.3671875,-48.33984375,-29.296875,-37.109375,46.875,0.0
104.04296875,-20.99609375,-38.57421875,-30.76171875,-38.57421875,-10.7421875,0.0
104.046875,-37.59765625,-26.85546875,-33.69140625,-35.15625,-65.91796875,0.0
104.05078125,-54.19921875,-24.4140625,-33.203125,-40.0390625,-116.69921875,0.0
104.0546875,-47.8515625,-31.73828125,-25.87890625,-39.0625,-99.609375,0.0
104.05859375,-29.78515625,-43.45703125,-24.90234375,-37.109375,-39.0625,0.0
104.0625,-22.4609375,-50.29296875,-37.109375,-40.0390625,-16.6015625,0.0
104.06640625,-31.25,-43.45703125,-44.43359375,-41.015625,-5.37109375,0.0
104.0703125,-50.29296875,-44.921875,-38.0859375,-44.921875,-30.76171875,0.0
104.07421875,-45.8984375,-41.015625,-40.52734375,-47.36328125,-78.125,0.0
104.078125,-26.85546875,-39.0625,-52.734375,-42.48046875,-87.890625,0.0
104.08203125,-21.484375,-50.78125,-42.48046875,-35.64453125,-96.19140625,0.0
104.0859375,-28.80859375,-41.9921875,-31.25,-34.1796875,-91.30859375,0.0
104.08984375,-44.43359375,-39.55078125,-26.3671875,-39.55078125,-21.97265625,0.0
104.09375,-54.19921875,-49.31640625,-30.2734375,-53.7109375,-29.78515625,0.0
104.09765625,-48.33984375,-52.734375,-42.48046875,-60.546875,-104.00390625,0.0
104.1015625,-26.3671875,-40.0390625,-37.59765625,-44.921875,-24.4140625,0.0
104.10546875,-27.34375,-30.2734375,-37.59765625,-35.15625,52.734375,0.0
104.109375,-47.36328125,-32.71484375,-51.26953125,-45.41015625,46.38671875,0.0
104.11328125,-47.8515625,-33.203125,-39.0625,-42.96875,-6.8359375,0.0
104.1171875,-29.78515625,-35.15625,-24.4140625,-33.69140625,31.73828125,0.0
104.12109375,-6.34765625,-31.73828125,-36.62109375,-25.87890625,112.79296875,0.0
104.125,-13.18359375,-28.80859375,-40.0390625,-22.94921875,60.546875,0.0
104.12890625,-37.109375,-33.203125,-28.3203125,-25.390625,-51.7578125,0.0
104.1328125,-50.78125,-43.9453125,-34.1796875,-31.73828125,-22.4609375,0.0
104.13671875,-42.96875,-41.9921875,-44.43359375,-34.66796875,90.8203125,0.0
104.140625,-18.5546875,-28.3203125,-42.48046875,-36.62109375,71.77734375,0.0
104.14453125,-19.53125,-41.015625,-42.96875,-37.109375,26.85546875,0.0
104.1484375,-48.828125,-61.5234375,-51.26953125,-42.48046875,-4.8828125,0.0
104.15234375,-61.5234375,-58.10546875,-42.96875,-47.36328125,-47.36328125,0.0
104.15625,-37.59765625,-42.96875,-27.34375,-30.2734375,-43.45703125,0.0
104.16015625,-12.6953125,-46.875,-29.78515625,-19.04296875,-20.5078125,0.0
104.1640625,-15.625,-48.828125,-43.9453125,-24.4140625,-11.23046875,0.0
104.16796875,-34.66796875,-46.38671875,-45.8984375,-24.90234375,0.9765625,0.0
104.171875,-58.10546875,-50.29296875,-42.48046875,-25.87890625,3.41796875,0.0
104.17578125,-58.10546875,-46.38671875,-48.828125,-34.66796875,-17.578125,0.0
104.1796875,-27.34375,-31.25,-49.31640625,-29.78515625,-31.25,0.0
104.18359375,-15.13671875,-20.5078125,-45.8984375,-23.92578125,13.671875,0.0
104.1875,-47.36328125,-25.390625,-45.8984375,-30.76171875,-10.7421875,0.0
104.19140625,-61.03515625,-38.0859375,-47.36328125,-31.73828125,8.30078125,0.0
104.1953125,-46.875,-45.8984375,-42.96875,-37.109375,-9.765625,0.0
104.19921875,-35.64453125,-38.0859375,-26.85546875,-35.64453125,-35.64453125,0.0
104.203125,-23.4375,-40.52734375,-18.06640625,-30.2734375,-48.33984375,0.0
104.20703125,-23.92578125,-40.52734375,-28.80859375,-28.80859375,-43.45703125,0.0
104.2109375,-55.6640625,-52.24609375,-48.33984375,-41.50390625,2.9296875,0.0
104.21484375,-67.3828125,-62.98828125,-51.7578125,-51.26953125,-46.38671875,0.0
104.21875,-53.7109375,-49.31640625,-47.36328125,-57.6171875,-48.33984375,0.0
104.22265625,-37.59765625,-37.109375,-37.59765625,-49.31640625,-3.90625,0.0
104.2265625,-34.66796875,-36.1328125,-35.64453125,-28.3203125,-2.9296875,0.0
104.23046875,-56.640625,-46.38671875,-47.36328125,-42.48046875,23.4375,0.0
104.234375,-66.40625,-54.6875,-43.9453125,-49.31640625,6.34765625,0.0
104.23828125,-36.1328125,-54.6875,-34.1796875,-39.0625,-30.76171875,0.0
104.2421875,-24.90234375,-61.5234375,-37.109375,-50.29296875,-78.125,0.0
104.24609375,-44.43359375,-49.31640625,-41.9921875,-47.8515625,-66.89453125,0.0
104.25,-61.5234375,-33.69140625,-53.7109375,-43.45703125,-66.40625,0.0
104.25390625,-74.21875,-46.875,-62.01171875,-67.3828125,-114.2578125,0.0
104.2578125,-46.38671875,-37.59765625,-38.0859375,-53.22265625,-37.59765625,0.0
104.26171875,-20.01953125,-30.2734375,-30.76171875,-36.62109375,-0.48828125,0.0
104.265625,-27.34375,-41.50390625,-39.0625,-50.29296875,17.578125,0.0
104.26953125,-41.50390625,-55.6640625,-35.15625,-43.9453125,-31.73828125,0.0
104.2734375,-38.0859375,-52.24609375,-35.15625,-32.2265625,-79.58984375,0.0
104.27734375,-21.484375,-36.62109375,-32.71484375,-37.59765625,-60.546875,0.0
104.28125,-11.23046875,-26.85546875,-31.25,-42.48046875,-9.765625,0.0
104.28515625,-20.5078125,-25.87890625,-36.62109375,-39.0625,6.8359375,0.0
104.2890625,-47.36328125,-37.59765625,-32.2265625,-38.0859375,-20.99609375,0.0
104.29296875,-59.08203125,-50.29296875,-36.62109375,-43.45703125,12.6953125,0.0
104.296875,-46.875,-47.8515625,-53.22265625,-52.24609375,63.4765625,0.0
104.30078125,-30.2734375,-38.57421875,-49.8046875,-43.9453125,34.1796875,0.0
104.3046875,-27.83203125,-29.296875,-32.71484375,-24.90234375,-1.46484375,0.0
104.30859375,-47.8515625,-34.1796875,-36.1328125,-27.83203125,-7.8125,0.0
104.3125,-64.94140625,-48.33984375,-42.48046875,-38.57421875,43.45703125,0.0
104.31640625,-49.8046875,-55.17578125,-31.73828125,-41.015625,13.671875,0.0
104.3203125,-31.73828125,-47.36328125,-23.4375,-39.0625,-78.61328125,0.0
104.32421875,-30.76171875,-32.2265625,-34.1796875,-36.1328125,-40.52734375,0.0
104.328125,-42.96875,-32.71484375,-38.57421875,-36.62109375,4.39453125,0.0
104.33203125,-50.29296875,-27.34375,-29.296875,-40.0390625,-38.57421875,0.0
104.3359375,-38.57421875,-36.1328125,-30.76171875,-36.62109375,-74.21875,0.0
104.33984375,-24.4140625,-52.24609375,-35.64453125,-28.3203125,-20.5078125,0.0
104.34375,-19.04296875,-34.66796875,-34.1796875,-24.90234375,6.34765625,0.0
104.34765625,-29.78515625,-20.01953125,-28.3203125,-22.4609375,-41.50390625,0.0
104.3515625,-42.96875,-22.94921875,-25.87890625,-25.390625,-28.80859375,0.0
104.35546875,-41.015625,-24.90234375,-33.203125,-34.1796875,-94.7265625,0.0
104.359375,-20.5078125,-27.34375,-36.1328125,-27.34375,-147.94921875,0.0
104.36328125,-16.11328125,-29.296875,-34.1796875,-23.4375,-99.609375,0.0
104.3671875,-43.9453125,-26.85546875,-41.015625,-31.73828125,-139.6484375,0.0
104.37109375,-53.7109375,-22.4609375,-42.96875,-25.87890625,-148.4375,0.0
104.375,-39.0625,-31.25,-29.296875,-24.4140625,-90.33203125,0.0
104.37890625,-24.4140625,-40.52734375,-18.06640625,-30.76171875,-18.5546875,0.0
104.3828125,-22.4609375,-35.15625,-20.99609375,-32.2265625,-26.85546875,0.0
104.38671875,-30.2734375,-31.73828125,-23.4375,-28.3203125,-20.01953125,0.0
104.390625,-36.62109375,-23.4375,-25.87890625,-15.625,-56.640625,0.0
104.39453125,-35.15625,-17.578125,-32.2265625,-11.23046875,-104.00390625,0.0
104.3984375,-14.6484375,-22.94921875,-21.97265625,-2.9296875,-99.609375,0.0
104.40234375,-1.953125,-36.62109375,-8.7890625,-0.9765625,-133.7890625,0.0
104.40625,-12.20703125,-42.96875,-7.32421875,-12.20703125,-90.8203125,0.0
104.41015625,-26.85546875,-33.203125,-15.13671875,-18.5546875,-67.3828125,0.0
104.4140625,-33.203125,-26.3671875,-21.97265625,-22.4609375,-76.171875,0.0
104.41796875,-22.94921875,-24.4140625,-24.90234375,-19.04296875,-43.9453125,0.0
104.421875,3.41796875,-10.7421875,-18.06640625,0.9765625,19.04296875,0.0
104.42578125,0.0,-8.7890625,-9.27734375,6.8359375,-57.12890625,0.0
104.4296875,-35.15625,-17.578125,-23.4375,-13.671875,-107.91015625,0.0
104.43359375,-46.875,-24.4140625,-36.1328125,-28.80859375,-12.20703125,0.0
104.4375,-24.90234375,-23.92578125,-16.6015625,-21.97265625,-9.765625,0.0
104.44140625,-1.46484375,-20.01953125,-9.765625,-16.11328125,-54.6875,0.0
104.4453125,-3.90625,-13.671875,-20.99609375,-18.5546875,-59.5703125,0.0
104.44921875,-22.4609375,-8.7890625,-14.16015625,-13.18359375,-5.37109375,0.0
104.453125,-35.15625,-26.85546875,-7.32421875,-22.94921875,15.13671875,0.0
104.45703125,-14.6484375,-34.1796875,-12.20703125,-20.99609375,7.32421875,0.0
104.4609375,12.6953125,-19.53125,-14.16015625,-8.30078125,25.87890625,0.0
104.46484375,10.25390625,-12.20703125,-5.37109375,-13.671875,28.3203125,0.0
104.46875,-15.13671875,-20.01953125,-3.90625,-12.6953125,80.078125,0.0
104.47265625,-29.78515625,-31.25,-9.765625,-13.18359375,61.03515625,0.0
104.4765625,-22.94921875,-32.2265625,-26.3671875,-18.06640625,9.27734375,0.0
104.48046875,-1.46484375,-13.671875,-25.390625,-6.8359375,-29.296875,0.0
104.484375,4.8828125,-6.8359375,-10.7421875,1.953125,-44.921875,0.0
104.48828125,-13.671875,-16.11328125,-12.20703125,-3.90625,-11.71875,0.0
104.4921875,-31.73828125,-34.66796875,-20.99609375,-15.625,-42.48046875,0.0
104.49609375,-26.85546875,-40.0390625,-27.34375,-21.97265625,-38.0859375,0.0
104.5,-12.6953125,-29.78515625,-28.3203125,-22.94921875,-29.296875,0.0
104.50390625,-10.7421875,-28.3203125,-17.578125,-22.94921875,2.44140625,0.0
104.5078125,-24.90234375,-24.4140625,-15.625,-16.6015625,38.57421875,0.0
104.51171875,-28.3203125,-20.5078125,-5.859375,-9.765625,14.6484375,0.0
104.515625,-20.5078125,-29.78515625,0.0,-16.6015625,-20.5078125,0.0
104.51953125,-18.06640625,-37.59765625,2.44140625,-22.94921875,-47.8515625,0.0
104.5234375,-8.7890625,-25.87890625,2.9296875,-25.390625,-52.734375,0.0
104.52734375,-14.16015625,-19.04296875,-8.7890625,-23.4375,-37.109375,0.0
104.53125,-34.1796875,-19.53125,-10.7421875,-15.625,-99.12109375,0.0
104.53515625,-31.73828125,-26.85546875,-14.16015625,-18.06640625,-185.546875,0.0
104.5390625,-6.8359375,-29.296875,-10.7421875,-15.13671875,-167.48046875,0.0
104.54296875,1.46484375,-20.01953125,2.44140625,-11.71875,-100.5859375,0.0
104.546875,-19.04296875,-25.390625,0.0,-18.06640625,-96.19140625,0.0
104.55078125,-49.31640625,-34.66796875,-22.94921875,-31.73828125,-99.609375,0.0
104.5546875,-43.45703125,-23.4375,-34.1796875,-27.34375,-121.09375,0.0
104.55859375,-18.06640625,-14.6484375,-34.1796875,-19.53125,-74.21875,0.0
104.5625,0.0,-18.06640625,-11.23046875,-4.8828125,-32.2265625,0.0
104.56640625,-15.625,-27.34375,-2.44140625,-1.953125,-77.63671875,0.0
104.5703125,-50.78125,-35.15625,-5.37109375,-22.94921875,-41.015625,0.0
104.57421875,-50.78125,-29.78515625,-19.53125,-35.64453125,-47.36328125,0.0
104.578125,-31.25,-31.73828125,-38.57421875,-32.2265625,-59.08203125,0.0
104.58203125,-14.16015625,-33.203125,-27.83203125,-18.06640625,-64.453125,0.0
104.5859375,-16.11328125,-20.01953125,-12.20703125,-12.20703125,-24.4140625,0.0
104.58984375,-39.55078125,-26.85546875,-12.6953125,-22.4609375,0.48828125,0.0
104.59375,-39.0625,-31.25,-22.94921875,-20.99609375,0.48828125,0.0
104.59765625,-13.671875,-21.97265625,-35.64453125,-14.16015625,-38.0859375,0.0
104.6015625,-11.71875,-26.3671875,-36.62109375,-20.99609375,-83.984375,0.0
104.60546875,-13.18359375,-29.78515625,-13.18359375,-13.671875,-85.9375,0.0
104.609375,-26.3671875,-34.66796875,-2.9296875,-14.16015625,-61.5234375,0.0
104.61328125,-33.203125,-27.83203125,-10.7421875,-21.484375,8.7890625,0.0
104.6171875,-14.16015625,-12.6953125,-12.6953125,-15.13671875,-36.1328125,0.0
104.62109375,-10.25390625,-16.11328125,-20.5078125,-19.53125,-37.109375,0.0
104.625,-14.6484375,-19.53125,-26.3671875,-20.99609375,-0.48828125,0.0
104.62890625,-30.2734375,-25.390625,-43.9453125,-20.01953125,20.01953125,0.0
104.6328125,-49.8046875,-28.3203125,-40.52734375,-27.34375,-2.44140625,0.0
104.63671875,-42.48046875,-33.69140625,-31.73828125,-33.69140625,-69.3359375,0.0
104.640625,-19.04296875,-35.15625,-30.2734375,-28.3203125,-49.31640625,0.0
104.64453125,-24.90234375,-38.57421875,-29.296875,-25.390625,16.6015625,0.0
104.6484375,-42.96875,-42.96875,-27.83203125,-22.4609375,-3.90625,0.0
104.65234375,-38.57421875,-32.2265625,-17.578125,-23.92578125,-41.9921875,0.0
104.65625,-23.92578125,-24.4140625,-25.87890625,-36.62109375,28.3203125,0.0
104.66015625,-17.08984375,-23.4375,-28.3203125,-37.59765625,-41.015625,0.0
104.6640625,-15.625,-13.18359375,-10.25390625,-27.34375,-150.390625,0.0
104.66796875,-30.76171875,-13.671875,-9.765625,-22.4609375,-151.3671875,0.0
104.671875,-46.38671875,-21.97265625,-26.85546875,-28.3203125,-91.796875,0.0
104.67578125,-34.66796875,-25.87890625,-29.296875,-30.2734375,-48.33984375,0.0
104.6796875,-12.6953125,-33.69140625,-32.71484375,-26.85546875,-130.859375,0.0
104.68359375,-19.53125,-42.96875,-29.78515625,-35.15625,-178.22265625,0.0
104.6875,-47.8515625,-40.0390625,-22.4609375,-49.8046875,-127.9296875,0.0
104.69140625,-60.05859375,-28.80859375,-17.578125,-49.8046875,-158.203125,0.0
104.6953125,-44.43359375,-23.92578125,-11.23046875,-38.57421875,-130.859375,0.0
104.69921875,-29.78515625,-35.64453125,-19.04296875,-41.50390625,-42.48046875,0.0
104.703125,-25.390625,-34.66796875,-31.73828125,-40.0390625,8.30078125,0.0
104.70703125,-38.0859375,-17.08984375,-36.1328125,-41.9921875,66.89453125,0.0
104.7109375,-67.87109375,-36.1328125,-26.85546875,-53.7109375,30.2734375,0.0
104.71484375,-56.15234375,-46.38671875,-28.3203125,-47.8515625,-8.30078125,0.0
104.71875,-20.99609375,-22.94921875,-33.203125,-30.76171875,55.6640625,0.0
104.72265625,-6.34765625,-19.04296875,-26.3671875,-29.296875,54.19921875,0.0
104.7265625,-19.04296875,-24.90234375,-31.25,-26.85546875,30.76171875,0.0
104.73046875,-44.921875,-28.3203125,-27.34375,-26.85546875,42.48046875,0.0
104.734375,-51.7578125,-31.25,-17.08984375,-38.0859375,74.70703125,0.0
104.73828125,-32.2265625,-28.80859375,-20.5078125,-33.69140625,24.90234375,0.0
104.7421875,-24.90234375,-25.87890625,-21.97265625,-31.73828125,-96.19140625,0.0
104.74609375,-42.96875,-26.85546875,-37.59765625,-41.50390625,-85.44921875,0.0
104.75,-59.08203125,-23.4375,-45.8984375,-42.48046875,-104.98046875,0.0
104.75390625,-59.08203125,-31.25,-30.76171875,-49.8046875,-64.453125,0.0
104.7578125,-39.55078125,-42.48046875,-23.92578125,-55.6640625,46.38671875,0.0
104.76171875,-17.578125,-32.2265625,-20.01953125,-43.45703125,166.9921875,0.0
104.765625,-14.6484375,-22.94921875,-13.18359375,-25.390625,151.3671875,0.0
104.76953125,-38.57421875,-36.1328125,-14.16015625,-25.390625,16.6015625,0.0
104.7734375,-54.6875,-48.33984375,-20.99609375,-47.36328125,49.8046875,0.0
104.77734375,-51.26953125,-59.5703125,-42.48046875,-57.12890625,59.08203125,0.0
104.78125,-41.50390625,-57.6171875,-50.29296875,-48.33984375,-4.39453125,0.0
104.78515625,-28.3203125,-36.62109375,-25.87890625,-37.109375,41.50390625,0.0
104.7890625,-45.41015625,-25.390625,-17.08984375,-38.57421875,37.59765625,0.0
104.79296875,-58.10546875,-35.15625,-28.3203125,-46.38671875,-61.5234375,0.0
104.796875,-38.57421875,-43.9453125,-37.109375,-40.0390625,-94.7265625,0.0
104.80078125,-13.18359375,-34.66796875,-26.85546875,-20.5078125,-37.59765625,0.0
104.8046875,-14.6484375,-28.3203125,-23.92578125,-21.484375,1.953125,0.0
104.80859375,-41.015625,-27.34375,-38.0859375,-37.109375,9.765625,0.0
104.8125,-53.7109375,-36.62109375,-44.43359375,-47.8515625,-41.50390625,0.0
104.81640625,-33.203125,-44.43359375,-26.3671875,-43.9453125,-73.73046875,0.0
104.8203125,-7.8125,-37.59765625,-8.7890625,-26.85546875,12.6953125,0.0
104.82421875,-18.06640625,-39.55078125,-20.01953125,-30.76171875,30.2734375,0.0
104.828125,-42.96875,-48.33984375,-31.25,-45.41015625,-67.87109375,0.0
104.83203125,-56.640625,-49.8046875,-42.96875,-47.36328125,-122.0703125,0.0
104.8359375,-49.8046875,-47.36328125,-62.01171875,-45.41015625,-29.78515625,0.0
104.83984375,-24.4140625,-41.50390625,-57.6171875,-39.0625,-50.78125,0.0
104.84375,-17.08984375,-37.59765625,-28.80859375,-29.296875,-94.7265625,0.0
104.84765625,-41.9921875,-47.8515625,-20.99609375,-37.59765625,-21.484375,0.0
104.8515625,-54.6875,-46.875,-32.2265625,-48.33984375,2.9296875,0.0
104.85546875,-41.015625,-29.296875,-28.80859375,-44.921875,-54.6875,0.0
104.859375,-24.4140625,-29.296875,-18.06640625,-35.15625,-31.73828125,0.0
104.86328125,-23.92578125,-34.66796875,-24.4140625,-34.1796875,-42.48046875,0.0
104.8671875,-39.0625,-44.43359375,-40.0390625,-41.50390625,-93.75,0.0
104.87109375,-55.17578125,-47.8515625,-35.64453125,-50.78125,-71.2890625,0.0
104.875,-45.8984375,-38.0859375,-27.34375,-52.24609375,-74.21875,0.0
104.87890625,-15.13671875,-26.3671875,-28.80859375,-33.69140625,-4.8828125,0.0
104.8828125,-3.90625,-14.6484375,-20.5078125,-19.04296875,-8.7890625,0.0
104.88671875,-24.4140625,-20.99609375,-20.01953125,-22.94921875,-30.76171875,0.0
104.890625,-47.36328125,-29.296875,-20.01953125,-33.69140625,-46.38671875,0.0
104.89453125,-41.50390625,-32.71484375,-25.390625,-39.55078125,-50.29296875,0.0
104.8984375,-22.94921875,-37.59765625,-46.875,-41.015625,10.25390625,0.0
104.90234375,-19.53125,-35.15625,-50.29296875,-36.62109375,28.3203125,0.0
104.90625,-36.62109375,-28.3203125,-39.0625,-34.66796875,-14.16015625,0.0
104.91015625,-57.6171875,-36.1328125,-27.83203125,-45.8984375,-22.4609375,0.0
104.9140625,-72.75390625,-46.38671875,-29.296875,-55.6640625,-21.97265625,0.0
104.91796875,-50.78125,-47.36328125,-27.83203125,-50.29296875,-58.10546875,0.0
104.921875,-24.4140625,-41.015625,-20.01953125,-33.69140625,7.32421875,0.0
104.92578125,-32.2265625,-31.25,-21.484375,-34.1796875,13.18359375,0.0
104.9296875,-58.59375,-41.50390625,-29.78515625,-50.78125,-6.34765625,0.0
104.93359375,-66.40625,-44.43359375,-32.71484375,-53.22265625,-25.390625,0.0
104.9375,-41.015625,-34.66796875,-19.04296875,-52.734375,-41.9921875,0.0
104.94140625,-21.97265625,-27.83203125,-13.671875,-43.9453125,-50.78125,0.0
104.9453125,-40.52734375,-36.62109375,-17.578125,-35.64453125,-78.125,0.0
104.94921875,-49.8046875,-37.109375,-17.578125,-31.25,-125.9765625,0.0
104.953125,-30.76171875,-21.97265625,-14.6484375,-18.06640625,-150.390625,0.0
104.95703125,-25.87890625,-30.2734375,-26.85546875,-30.2734375,-120.1171875,0.0
104.9609375,-21.97265625,-40.0390625,-43.45703125,-39.55078125,-58.59375,0.0
104.96484375,-26.3671875,-36.62109375,-34.66796875,-35.15625,-28.3203125,0.0
104.96875,-41.9921875,-43.9453125,-20.5078125,-32.2265625,-52.24609375,0.0
104.97265625,-41.9921875,-58.59375,-28.80859375,-22.94921875,-44.921875,0.0
104.9765625,-14.6484375,-55.6640625,-39.0625,-4.8828125,-26.85546875,0.0
104.98046875,10.7421875,-41.9921875,-34.1796875,2.9296875,-67.3828125,0.0
104.984375,-5.37109375,-42.48046875,-36.62109375,-11.23046875,-57.12890625,0.0
104.98828125,-20.01953125,-41.50390625,-34.1796875,-13.671875,38.0859375,0.0
104.9921875,-21.484375,-41.9921875,-33.69140625,-10.25390625,-5.859375,0.0
104.99609375,-9.765625,-44.43359375,-41.015625,-11.71875,-62.01171875,0.0
105.0,3.41796875,-45.41015625,-52.734375,-14.16015625,-62.98828125,0.0
105.00390625,1.953125,-55.17578125,-54.19921875,-11.71875,-93.75,0.0
105.0078125,-9.765625,-52.24609375,-44.43359375,-7.8125,-77.1484375,0.0
105.01171875,-31.73828125,-48.33984375,-41.015625,-12.20703125,-53.7109375,0.0
105.015625,-31.25,-53.22265625,-47.8515625,-17.578125,-4.39453125,0.0
105.01953125,-8.7890625,-55.6640625,-43.9453125,-11.23046875,0.9765625,0.0
105.0234375,-8.30078125,-60.546875,-48.828125,-7.8125,-66.40625,0.0
105.02734375,-28.3203125,-50.78125,-48.33984375,-14.6484375,-0.48828125,0.0
105.03125,-40.0390625,-34.1796875,-37.59765625,-21.97265625,-17.08984375,0.0
105.03515625,-25.87890625,-37.59765625,-38.57421875,-12.6953125,-68.359375,0.0
105.0390625,-2.9296875,-46.38671875,-30.2734375,-5.859375,-35.15625,0.0
105.04296875,4.39453125,-41.9921875,-31.73828125,-14.16015625,-58.59375,0.0
105.046875,-4.39453125,-36.62109375,-32.71484375,-11.71875,-55.17578125,0.0
105.05078125,-30.76171875,-45.41015625,-23.4375,-13.18359375,-31.25,0.0
105.0546875,-27.34375,-46.875,-25.87890625,-17.08984375,-41.015625,0.0
105.05859375,-3.90625,-40.0390625,-32.71484375,-11.71875,-23.92578125,0.0
105.0625,0.9765625,-25.390625,-28.80859375,-8.30078125,71.77734375,0.0
105.06640625,-12.20703125,-18.06640625,-26.3671875,-16.11328125,58.59375,0.0
105.0703125,-35.15625,-20.01953125,-27.83203125,-21.97265625,-24.90234375,0.0
105.07421875,-29.78515625,-28.3203125,-20.99609375,-11.71875,-39.55078125,0.0
105.078125,-16.6015625,-45.8984375,-23.4375,-15.13671875,-104.98046875,0.0
105.08203125,-5.37109375,-43.45703125,-32.2265625,-27.34375,-126.46484375,0.0
105.0859375,-7.32421875,-39.55078125,-31.25,-24.90234375,-22.94921875,0.0
105.08984375,-27.83203125,-43.9453125,-27.34375,-23.92578125,-9.27734375,0.0
105.09375,-31.25,-41.9921875,-26.3671875,-29.78515625,-73.73046875,0.0
105.09765625,-13.671875,-37.59765625,-19.53125,-27.34375,-68.84765625,0.0
105.1015625,8.30078125,-24.4140625,-14.16015625,-13.671875,45.8984375,0.0
105.10546875,-1.953125,-20.01953125,-29.78515625,-5.859375,106.93359375,0.0
105.109375,-23.92578125,-23.92578125,-34.66796875,-12.6953125,-18.06640625,0.0
105.11328125,-36.1328125,-34.1796875,-16.6015625,-21.97265625,-113.28125,0.0
105.1171875,-28.80859375,-38.57421875,-20.99609375,-27.83203125,-157.71484375,0.0
105.12109375,-14.16015625,-22.4609375,-21.97265625,-20.5078125,-62.01171875,0.0
105.125,-20.99609375,-18.5546875,-17.578125,-10.25390625,-9.765625,0.0
105.12890625,-43.45703125,-30.2734375,-24.90234375,-21.484375,-45.8984375,0.0
105.1328125,-52.734375,-34.1796875,-22.94921875,-34.66796875,-77.63671875,0.0
105.13671875,-38.57421875,-26.3671875,-21.97265625,-41.50390625,-92.28515625,0.0
105.140625,-15.13671875,-19.04296875,-21.97265625,-37.109375,9.27734375,0.0
105.14453125,-18.5546875,-24.4140625,-28.80859375,-31.25,-11.71875,0.0
105.1484375,-41.9921875,-38.57421875,-31.25,-32.2265625,-43.45703125,0.0
105.15234375,-53.7109375,-41.50390625,-18.5546875,-31.25,42.96875,0.0
105.15625,-35.15625,-36.62109375,-24.90234375,-22.94921875,50.78125,0.0
105.16015625,-3.41796875,-35.64453125,-22.94921875,-11.71875,38.57421875,0.0
105.1640625,2.9296875,-29.78515625,-6.8359375,-3.90625,41.9921875,0.0
105.16796875,-18.06640625,-31.25,-16.6015625,-11.23046875,-38.0859375,0.0
105.171875,-29.296875,-28.3203125,-20.01953125,-15.13671875,-97.65625,0.0
105.17578125,-14.6484375,-29.78515625,-11.23046875,-10.25390625,-47.8515625,0.0
105.1796875,-2.9296875,-41.015625,-25.390625,-20.5078125,10.25390625,0.0
105.18359375,8.7890625,-26.85546875,-31.25,-6.8359375,101.5625,0.0
105.1875,-0.9765625,-19.04296875,-7.8125,6.8359375,48.33984375,0.0
105.19140625,-36.1328125,-34.66796875,-7.8125,-14.16015625,-44.921875,0.0
105.1953125,-41.015625,-45.41015625,-25.87890625,-24.90234375,65.91796875,0.0
105.19921875,-25.87890625,-44.43359375,-43.45703125,-32.2265625,68.359375,0.0
105.203125,-24.4140625,-32.2265625,-37.109375,-36.62109375,7.32421875,0.0
105.20703125,-39.55078125,-13.18359375,-20.99609375,-29.78515625,-6.8359375,0.0
105.2109375,-45.8984375,-20.99609375,-17.08984375,-27.34375,-47.8515625,0.0
105.21484375,-32.71484375,-36.62109375,-22.94921875,-23.4375,-12.6953125,0.0
105.21875,-18.06640625,-29.78515625,-24.90234375,-23.4375,-49.31640625,0.0
105.22265625,-11.71875,-24.90234375,-11.71875,-23.4375,-102.5390625,0.0
105.2265625,-20.01953125,-21.97265625,-13.18359375,-22.94921875,-23.92578125,0.0
105.23046875,-47.36328125,-28.80859375,-28.3203125,-35.64453125,62.01171875,0.0
105.234375,-49.8046875,-28.3203125,-37.109375,-41.9921875,-18.5546875,0.0
105.23828125,-24.4140625,-28.80859375,-41.015625,-30.76171875,-58.10546875,0.0
