timestam,TP9,AF7,AF8,TP10,AUX,Marker
309.00390625,-33.203125,-28.3203125,-29.296875,-41.9921875,-87.40234375,0.0
309.0078125,-13.671875,-29.78515625,-30.76171875,-30.2734375,-31.25,0.0
309.01171875,-19.53125,-27.34375,-29.78515625,-23.92578125,-111.81640625,0.0
309.015625,-41.015625,-32.71484375,-28.3203125,-32.71484375,-159.66796875,0.0
309.01953125,-39.55078125,-31.25,-17.578125,-27.34375,-144.53125,0.0
309.0234375,-28.3203125,-25.87890625,-20.01953125,-26.85546875,-133.7890625,0.0
309.02734375,-21.484375,-23.92578125,-31.25,-30.2734375,-42.48046875,0.0
309.03125,-33.203125,-25.87890625,-30.76171875,-30.76171875,77.1484375,0.0
309.03515625,-42.96875,-28.3203125,-15.13671875,-25.390625,59.08203125,0.0
309.0390625,-42.96875,-39.0625,-10.7421875,-20.01953125,-56.640625,0.0
309.04296875,-37.59765625,-47.36328125,-31.25,-44.43359375,-68.84765625,0.0
309.046875,-24.4140625,-34.66796875,-31.73828125,-52.734375,7.8125,0.0
309.05078125,-28.3203125,-35.15625,-30.76171875,-42.48046875,18.5546875,0.0
309.0546875,-47.8515625,-51.26953125,-43.45703125,-43.9453125,-20.01953125,0.0
309.05859375,-40.52734375,-44.921875,-41.015625,-40.0390625,-22.4609375,0.0
309.0625,-26.3671875,-36.62109375,-39.55078125,-36.1328125,24.4140625,0.0
309.06640625,-22.4609375,-39.0625,-37.59765625,-39.0625,-16.6015625,0.0
309.0703125,-26.3671875,-39.55078125,-33.203125,-38.57421875,-66.89453125,0.0
309.07421875,-42.96875,-37.109375,-41.015625,-36.62109375,-12.6953125,0.0
309.078125,-45.41015625,-26.3671875,-19.53125,-26.3671875,-34.66796875,0.0
309.08203125,-37.109375,-29.296875,-1.953125,-22.94921875,-66.40625,0.0
309.0859375,-34.66796875,-37.109375,-17.578125,-20.01953125,-3.90625,0.0
309.08984375,-26.3671875,-29.78515625,-25.390625,-20.99609375,42.48046875,0.0
309.09375,-31.73828125,-29.78515625,-31.25,-33.203125,50.29296875,0.0
309.09765625,-49.8046875,-34.66796875,-29.78515625,-34.66796875,34.1796875,0.0
309.1015625,-47.36328125,-36.62109375,-29.78515625,-36.1328125,-12.6953125,0.0
309.10546875,-33.203125,-31.73828125,-30.76171875,-32.71484375,6.34765625,0.0
309.109375,-27.83203125,-27.83203125,-29.296875,-22.94921875,7.32421875,0.0
309.11328125,-45.41015625,-33.203125,-27.34375,-20.01953125,-37.109375,0.0
309.1171875,-56.15234375,-34.1796875,-32.2265625,-20.5078125,27.34375,0.0
309.12109375,-37.109375,-21.484375,-35.15625,-22.94921875,68.84765625,0.0
309.125,-11.23046875,-17.08984375,-20.5078125,-18.06640625,42.48046875,0.0
309.12890625,-5.37109375,-27.34375,-15.13671875,-14.6484375,55.6640625,0.0
309.1328125,-24.90234375,-27.34375,-16.11328125,-20.01953125,80.56640625,0.0
309.13671875,-42.48046875,-23.92578125,-13.18359375,-33.69140625,37.59765625,0.0
309.140625,-31.73828125,-18.06640625,-23.4375,-38.57421875,-9.27734375,0.0
309.14453125,-28.80859375,-21.97265625,-28.3203125,-29.296875,-39.55078125,0.0
309.1484375,-45.8984375,-28.80859375,-37.109375,-42.48046875,-53.7109375,0.0
309.15234375,-49.8046875,-23.92578125,-43.9453125,-44.921875,-7.32421875,0.0
309.15625,-53.7109375,-22.4609375,-34.1796875,-46.38671875,-37.59765625,0.0
309.16015625,-49.31640625,-15.625,-32.2265625,-49.8046875,-36.62109375,0.0
309.1640625,-34.1796875,-9.765625,-37.109375,-47.8515625,-1.46484375,0.0
309.16796875,-19.53125,-6.34765625,-28.3203125,-40.0390625,-12.20703125,0.0
309.171875,-20.5078125,-9.27734375,-28.80859375,-29.296875,-16.11328125,0.0
309.17578125,-45.8984375,-27.34375,-44.921875,-48.828125,-50.29296875,0.0
309.1796875,-48.33984375,-33.69140625,-46.38671875,-60.05859375,-18.5546875,0.0
309.18359375,-32.2265625,-26.3671875,-43.9453125,-50.29296875,1.46484375,0.0
309.1875,-16.6015625,-15.625,-38.0859375,-39.55078125,-51.26953125,0.0
309.19140625,-17.08984375,-19.04296875,-32.2265625,-32.71484375,-103.515625,0.0
309.1953125,-46.38671875,-28.3203125,-44.921875,-37.109375,-104.4921875,0.0
309.19921875,-53.22265625,-28.3203125,-45.41015625,-38.57421875,-95.21484375,0.0
309.203125,-32.2265625,-34.66796875,-35.64453125,-40.52734375,-88.8671875,0.0
309.20703125,-20.99609375,-29.296875,-33.203125,-39.0625,-14.16015625,0.0
309.2109375,-22.94921875,-20.99609375,-23.4375,-26.85546875,-19.53125,0.0
309.21484375,-31.73828125,-22.4609375,-20.5078125,-22.94921875,-78.61328125,0.0
309.21875,-40.0390625,-27.34375,-32.2265625,-32.71484375,-97.16796875,0.0
309.22265625,-37.109375,-27.83203125,-36.62109375,-41.015625,-78.61328125,0.0
309.2265625,-26.85546875,-23.4375,-29.296875,-39.55078125,-43.9453125,0.0
309.23046875,-24.4140625,-28.3203125,-23.4375,-30.2734375,-23.92578125,0.0
309.234375,-30.2734375,-25.87890625,-33.69140625,-27.34375,-6.8359375,0.0
309.23828125,-33.69140625,-22.4609375,-36.62109375,-29.296875,-0.48828125,0.0
309.2421875,-20.01953125,-18.06640625,-16.6015625,-25.390625,-54.6875,0.0
309.24609375,-0.48828125,-14.6484375,-16.11328125,-25.390625,-101.5625,0.0
309.25,-10.25390625,-17.08984375,-30.76171875,-32.71484375,-47.8515625,0.0
309.25390625,-29.78515625,-19.53125,-27.34375,-28.80859375,-29.296875,0.0
309.2578125,-27.83203125,-24.90234375,-21.484375,-21.97265625,-118.1640625,0.0
309.26171875,-20.99609375,-24.4140625,-33.203125,-23.4375,-134.27734375,0.0
309.265625,-19.04296875,-28.3203125,-40.52734375,-27.83203125,-159.1796875,0.0
309.26953125,-24.90234375,-28.3203125,-32.2265625,-23.92578125,-130.859375,0.0
309.2734375,-27.83203125,-17.08984375,-19.53125,-14.16015625,-146.484375,0.0
309.27734375,-38.0859375,-25.390625,-23.4375,-21.97265625,-223.14453125,0.0
309.28125,-34.66796875,-30.2734375,-29.296875,-32.2265625,-177.24609375,0.0
309.28515625,-11.71875,-18.5546875,-20.5078125,-27.34375,-51.7578125,0.0
309.2890625,-4.8828125,-17.578125,-20.99609375,-17.08984375,26.85546875,0.0
309.29296875,-23.4375,-20.5078125,-22.4609375,-15.625,-95.703125,0.0
309.296875,-40.0390625,-22.94921875,-34.66796875,-24.4140625,-189.453125,0.0
309.30078125,-39.0625,-26.85546875,-37.109375,-30.2734375,-141.6015625,0.0
309.3046875,-26.85546875,-20.5078125,-20.01953125,-26.85546875,-115.72265625,0.0
309.30859375,-19.53125,-17.578125,-24.4140625,-18.06640625,-140.13671875,0.0
309.3125,-34.66796875,-22.94921875,-34.66796875,-23.92578125,-113.28125,0.0
309.31640625,-44.921875,-28.80859375,-21.484375,-34.66796875,-60.05859375,0.0
309.3203125,-27.34375,-22.4609375,0.48828125,-22.94921875,-52.734375,0.0
309.32421875,-17.578125,-20.5078125,-8.30078125,-21.484375,51.26953125,0.0
309.328125,-13.671875,-21.97265625,-24.4140625,-28.80859375,82.51953125,0.0
309.33203125,-18.06640625,-14.6484375,-16.11328125,-15.13671875,23.4375,0.0
309.3359375,-41.015625,-28.3203125,-29.78515625,-27.34375,0.48828125,0.0
309.33984375,-48.828125,-40.52734375,-46.875,-41.015625,-22.94921875,0.0
309.34375,-26.85546875,-32.2265625,-40.0390625,-22.4609375,61.5234375,0.0
309.34765625,-10.7421875,-22.4609375,-36.62109375,-11.71875,57.6171875,0.0
309.3515625,-25.87890625,-30.76171875,-45.41015625,-22.4609375,-73.73046875,0.0
309.35546875,-45.41015625,-40.0390625,-48.33984375,-34.1796875,9.27734375,0.0
309.359375,-54.19921875,-42.48046875,-42.48046875,-41.9921875,76.171875,0.0
309.36328125,-41.015625,-39.0625,-23.92578125,-36.1328125,17.578125,0.0
309.3671875,-21.484375,-27.34375,-0.48828125,-19.04296875,56.640625,0.0
309.37109375,-37.109375,-35.15625,-16.11328125,-26.3671875,76.66015625,0.0
309.375,-52.734375,-42.96875,-32.2265625,-33.203125,-2.44140625,0.0
309.37890625,-45.8984375,-37.109375,-31.73828125,-29.78515625,-47.8515625,0.0
309.3828125,-37.59765625,-40.52734375,-37.59765625,-34.66796875,-96.6796875,0.0
309.38671875,-25.390625,-42.48046875,-34.1796875,-34.66796875,-36.62109375,0.0
309.390625,-27.34375,-36.1328125,-25.87890625,-24.90234375,-8.30078125,0.0
309.39453125,-40.52734375,-31.73828125,-31.73828125,-24.90234375,-77.1484375,0.0
309.3984375,-46.875,-37.109375,-35.64453125,-33.203125,-158.203125,0.0
309.40234375,-35.15625,-41.015625,-32.2265625,-34.66796875,-223.14453125,0.0
309.40625,-11.23046875,-30.2734375,-37.109375,-31.73828125,-77.63671875,0.0
309.41015625,-4.39453125,-23.4375,-25.390625,-18.5546875,46.38671875,0.0
309.4140625,-20.5078125,-21.97265625,-10.25390625,-12.6953125,106.93359375,0.0
309.41796875,-38.0859375,-34.1796875,-29.78515625,-27.83203125,-17.578125,0.0
309.421875,-33.203125,-41.50390625,-38.0859375,-28.3203125,-104.00390625,0.0
309.42578125,-15.625,-34.1796875,-26.85546875,-19.04296875,10.25390625,0.0
309.4296875,-14.16015625,-34.1796875,-26.85546875,-22.94921875,38.0859375,0.0
309.43359375,-32.2265625,-37.109375,-30.76171875,-25.390625,-33.203125,0.0
309.4375,-50.29296875,-38.57421875,-33.69140625,-36.62109375,-107.91015625,0.0
309.44140625,-41.9921875,-31.73828125,-35.64453125,-38.57421875,-74.70703125,0.0
309.4453125,-26.85546875,-22.94921875,-37.59765625,-35.15625,-26.3671875,0.0
309.44921875,-23.4375,-25.87890625,-38.0859375,-34.66796875,59.5703125,0.0
309.453125,-21.484375,-22.4609375,-26.85546875,-22.4609375,82.51953125,0.0
309.45703125,-43.45703125,-32.2265625,-35.64453125,-37.109375,25.87890625,0.0
309.4609375,-49.31640625,-39.55078125,-46.875,-48.33984375,40.52734375,0.0
309.46484375,-27.83203125,-29.296875,-29.296875,-39.55078125,-15.625,0.0
309.46875,-17.08984375,-24.90234375,-16.6015625,-36.62109375,0.9765625,0.0
309.47265625,-34.1796875,-27.83203125,-21.484375,-37.109375,30.2734375,0.0
309.4765625,-56.640625,-38.57421875,-35.15625,-46.875,8.30078125,0.0
309.48046875,-54.6875,-39.0625,-32.2265625,-51.26953125,0.9765625,0.0
309.484375,-47.36328125,-32.2265625,-30.2734375,-45.41015625,-12.6953125,0.0
309.48828125,-35.15625,-38.0859375,-36.1328125,-43.45703125,20.99609375,0.0
309.4921875,-40.0390625,-37.59765625,-28.3203125,-40.0390625,73.2421875,0.0
309.49609375,-45.41015625,-28.80859375,-24.90234375,-39.0625,44.43359375,0.0
309.5,-42.48046875,-30.76171875,-23.92578125,-38.57421875,-10.7421875,0.0
309.50390625,-37.109375,-37.109375,-29.296875,-34.66796875,-31.73828125,0.0
309.5078125,-25.390625,-36.62109375,-43.45703125,-38.57421875,23.92578125,0.0
309.51171875,-23.4375,-22.94921875,-31.25,-34.1796875,16.11328125,0.0
309.515625,-41.9921875,-21.97265625,-20.01953125,-33.203125,-20.5078125,0.0
309.51953125,-47.8515625,-34.66796875,-28.3203125,-37.109375,-26.85546875,0.0
309.5234375,-32.71484375,-33.69140625,-29.78515625,-39.55078125,16.11328125,0.0
309.52734375,-19.53125,-24.4140625,-16.6015625,-36.62109375,-28.3203125,0.0
309.53125,-26.3671875,-32.2265625,-20.5078125,-38.57421875,-73.2421875,0.0
309.53515625,-41.9921875,-42.96875,-38.57421875,-48.33984375,-96.19140625,0.0
309.5390625,-40.0390625,-35.15625,-36.62109375,-41.9921875,-166.015625,0.0
309.54296875,-22.4609375,-27.83203125,-27.34375,-34.66796875,-117.1875,0.0
309.546875,-14.16015625,-28.80859375,-20.99609375,-32.71484375,-25.87890625,0.0
309.55078125,-17.578125,-29.296875,-29.296875,-23.92578125,7.8125,0.0
309.5546875,-29.78515625,-25.87890625,-35.64453125,-16.11328125,15.625,0.0
309.55859375,-44.921875,-32.2265625,-24.90234375,-27.83203125,-36.1328125,0.0
309.5625,-33.203125,-38.0859375,-18.5546875,-37.109375,-54.19921875,0.0
309.56640625,-24.90234375,-34.66796875,-18.5546875,-28.3203125,-26.85546875,0.0
309.5703125,-33.203125,-38.57421875,-20.5078125,-27.34375,-48.33984375,0.0
309.57421875,-47.8515625,-41.50390625,-24.90234375,-39.0625,-68.359375,0.0
309.578125,-60.546875,-44.43359375,-30.2734375,-45.41015625,-28.80859375,0.0
309.58203125,-45.41015625,-43.45703125,-28.3203125,-40.0390625,-2.44140625,0.0
309.5859375,-29.296875,-38.0859375,-27.83203125,-32.71484375,59.08203125,0.0
309.58984375,-28.3203125,-30.76171875,-25.87890625,-24.4140625,90.33203125,0.0
309.59375,-32.2265625,-31.25,-27.83203125,-22.4609375,34.1796875,0.0
309.59765625,-38.0859375,-36.62109375,-34.1796875,-26.85546875,-24.90234375,0.0
309.6015625,-27.34375,-38.0859375,-36.62109375,-34.1796875,-36.1328125,0.0
309.60546875,-22.94921875,-44.43359375,-43.45703125,-41.9921875,60.546875,0.0
309.609375,-23.4375,-37.109375,-41.015625,-29.296875,91.30859375,0.0
309.61328125,-30.76171875,-36.1328125,-32.2265625,-18.06640625,31.25,0.0
309.6171875,-42.96875,-44.43359375,-24.4140625,-22.94921875,-40.0390625,0.0
309.62109375,-41.9921875,-43.9453125,-28.3203125,-27.34375,-104.00390625,0.0
309.625,-27.83203125,-34.66796875,-32.71484375,-25.390625,-90.8203125,0.0
309.62890625,-15.625,-26.3671875,-29.78515625,-20.5078125,-81.54296875,0.0
309.6328125,-26.3671875,-29.296875,-16.11328125,-19.04296875,-82.51953125,0.0
309.63671875,-42.96875,-37.59765625,-19.04296875,-29.78515625,-98.14453125,0.0
309.640625,-49.31640625,-39.0625,-32.71484375,-43.45703125,-48.828125,0.0
309.64453125,-31.73828125,-29.296875,-25.390625,-31.25,32.2265625,0.0
309.6484375,-15.625,-22.94921875,-27.34375,-21.97265625,-38.57421875,0.0
309.65234375,-35.64453125,-32.71484375,-33.69140625,-32.71484375,-39.0625,0.0
309.65625,-46.38671875,-43.45703125,-25.390625,-34.66796875,-51.26953125,0.0
309.66015625,-38.0859375,-34.1796875,-25.390625,-28.80859375,-99.12109375,0.0
309.6640625,-26.3671875,-26.3671875,-31.73828125,-29.78515625,-73.2421875,0.0
309.66796875,-11.71875,-26.85546875,-29.296875,-29.78515625,-97.16796875,0.0
309.671875,-17.08984375,-29.78515625,-31.25,-39.0625,-104.4921875,0.0
309.67578125,-31.73828125,-31.73828125,-36.1328125,-43.45703125,-64.94140625,0.0
309.6796875,-33.69140625,-31.73828125,-41.9921875,-38.0859375,-59.5703125,0.0
309.68359375,-20.01953125,-29.78515625,-40.0390625,-41.50390625,8.30078125,0.0
309.6875,-16.6015625,-29.78515625,-33.69140625,-40.52734375,5.859375,0.0
309.69140625,-26.85546875,-33.203125,-34.1796875,-37.59765625,-210.9375,0.0
309.6953125,-42.48046875,-37.59765625,-21.484375,-33.203125,-271.484375,0.0
309.69921875,-51.7578125,-47.36328125,-28.3203125,-35.15625,-221.6796875,0.0
309.703125,-41.015625,-41.50390625,-46.875,-34.66796875,-229.98046875,0.0
309.70703125,-27.34375,-29.78515625,-39.55078125,-29.78515625,-162.109375,0.0
309.7109375,-24.90234375,-30.76171875,-36.62109375,-31.25,-93.75,0.0
309.71484375,-42.96875,-31.25,-36.62109375,-36.1328125,-106.93359375,0.0
309.71875,-50.78125,-35.64453125,-34.1796875,-40.52734375,-138.671875,0.0
309.72265625,-30.2734375,-38.57421875,-31.25,-36.1328125,-215.33203125,0.0
309.7265625,-18.06640625,-24.4140625,-20.99609375,-37.59765625,-188.96484375,0.0
309.73046875,-20.99609375,-16.6015625,-22.4609375,-41.015625,-72.75390625,0.0
309.734375,-40.52734375,-21.484375,-32.71484375,-39.55078125,-111.328125,0.0
309.73828125,-52.24609375,-27.34375,-34.66796875,-43.45703125,-125.9765625,0.0
309.7421875,-34.1796875,-26.85546875,-38.0859375,-41.50390625,12.6953125,0.0
309.74609375,-20.01953125,-16.11328125,-35.15625,-34.1796875,-9.765625,0.0
309.75,-16.6015625,-12.6953125,-27.34375,-21.97265625,-51.7578125,0.0
309.75390625,-33.203125,-24.4140625,-35.64453125,-26.85546875,-4.8828125,0.0
309.7578125,-51.26953125,-31.25,-38.57421875,-48.33984375,55.6640625,0.0
309.76171875,-36.1328125,-26.3671875,-29.296875,-42.48046875,144.04296875,0.0
309.765625,-19.04296875,-20.01953125,-32.2265625,-26.3671875,93.26171875,0.0
309.76953125,-20.99609375,-15.625,-40.0390625,-19.53125,79.1015625,0.0
309.7734375,-31.73828125,-26.3671875,-39.55078125,-18.5546875,53.22265625,0.0
309.77734375,-46.38671875,-40.52734375,-43.9453125,-29.78515625,36.1328125,0.0
309.78125,-39.0625,-34.66796875,-40.0390625,-32.71484375,19.04296875,0.0
309.78515625,-20.5078125,-36.1328125,-35.64453125,-36.1328125,-49.8046875,0.0
309.7890625,-17.578125,-34.66796875,-40.0390625,-41.50390625,-19.53125,0.0
309.79296875,-26.3671875,-28.3203125,-34.66796875,-29.78515625,-24.4140625,0.0
309.796875,-26.85546875,-28.80859375,-30.76171875,-23.92578125,-46.875,0.0
309.80078125,-19.04296875,-20.5078125,-30.76171875,-21.97265625,-88.37890625,0.0
309.8046875,-9.765625,-17.08984375,-30.2734375,-18.06640625,-52.24609375,0.0
309.80859375,-6.8359375,-17.578125,-38.0859375,-20.5078125,44.921875,0.0
309.8125,-25.87890625,-21.97265625,-28.80859375,-22.4609375,82.51953125,0.0
309.81640625,-42.96875,-31.73828125,-17.08984375,-21.97265625,102.05078125,0.0
309.8203125,-25.87890625,-26.3671875,-19.53125,-21.97265625,88.37890625,0.0
309.82421875,-5.859375,-20.01953125,-29.296875,-22.4609375,30.76171875,0.0
309.828125,-15.13671875,-27.83203125,-27.34375,-28.3203125,-35.64453125,0.0
309.83203125,-32.2265625,-32.2265625,-22.94921875,-28.3203125,8.30078125,0.0
309.8359375,-36.62109375,-23.92578125,-19.53125,-17.578125,-20.5078125,0.0
309.83984375,-36.62109375,-15.625,-22.4609375,-27.83203125,-106.4453125,0.0
309.84375,-25.390625,-10.7421875,-24.4140625,-36.1328125,42.48046875,0.0
309.84765625,-18.06640625,-7.8125,-16.6015625,-29.78515625,110.83984375,0.0
309.8515625,-44.43359375,-14.6484375,-28.80859375,-42.48046875,53.7109375,0.0
309.85546875,-53.7109375,-27.83203125,-22.4609375,-49.8046875,-4.8828125,0.0
309.859375,-57.6171875,-25.390625,-17.08984375,-59.5703125,-22.4609375,0.0
309.86328125,-56.640625,-8.7890625,-16.11328125,-66.89453125,-37.59765625,0.0
309.8671875,-55.17578125,2.44140625,-11.71875,-73.2421875,-14.16015625,0.0
309.87109375,-76.171875,14.6484375,-6.8359375,-84.9609375,35.15625,0.0
309.875,-108.3984375,20.5078125,9.765625,-105.46875,-36.62109375,0.0
309.87890625,-125.48828125,9.765625,7.8125,-126.46484375,-95.703125,0.0
309.8828125,-129.39453125,5.37109375,-5.859375,-148.92578125,-122.0703125,0.0
309.88671875,-137.6953125,19.04296875,-12.6953125,-170.41015625,-88.8671875,0.0
309.890625,-155.2734375,17.578125,-18.06640625,-180.17578125,-23.92578125,0.0
309.89453125,-186.5234375,9.27734375,-22.94921875,-189.453125,10.25390625,0.0
309.8984375,-198.73046875,9.765625,-13.671875,-197.75390625,-37.109375,0.0
309.90234375,-200.1953125,25.390625,-6.8359375,-214.84375,-32.2265625,0.0
309.90625,-208.0078125,35.64453125,-5.859375,-227.05078125,61.03515625,0.0
309.91015625,-220.703125,30.76171875,1.953125,-230.95703125,-30.76171875,0.0
309.9140625,-230.46875,24.4140625,3.90625,-229.00390625,-96.6796875,0.0
309.91796875,-225.5859375,18.5546875,10.7421875,-220.21484375,-45.8984375,0.0
309.921875,-204.58984375,17.578125,9.765625,-204.58984375,-76.171875,0.0
309.92578125,-173.33984375,13.671875,-20.5078125,-186.03515625,-60.05859375,0.0
309.9296875,-150.390625,6.34765625,-27.34375,-160.15625,-59.5703125,0.0
309.93359375,-145.01953125,-4.8828125,-20.01953125,-134.765625,-56.15234375,0.0
309.9375,-133.7890625,-16.11328125,-24.90234375,-113.76953125,-45.41015625,0.0
309.94140625,-99.12109375,-20.01953125,-18.5546875,-93.75,-102.5390625,0.0
309.9453125,-68.359375,-25.87890625,-17.578125,-78.61328125,-57.12890625,0.0
309.94921875,-54.19921875,-24.90234375,-29.296875,-62.98828125,9.765625,0.0
309.953125,-48.33984375,-28.80859375,-32.2265625,-41.50390625,0.9765625,0.0
309.95703125,-40.52734375,-40.52734375,-30.76171875,-19.53125,-45.41015625,0.0
309.9609375,-23.92578125,-41.9921875,-32.71484375,-10.7421875,-20.99609375,0.0
309.96484375,-1.46484375,-47.36328125,-23.92578125,-1.46484375,20.99609375,0.0
309.96875,7.32421875,-54.6875,-33.69140625,12.6953125,-33.203125,0.0
309.97265625,8.7890625,-53.7109375,-48.33984375,20.01953125,-49.8046875,0.0
309.9765625,17.578125,-49.8046875,-31.25,28.80859375,23.92578125,0.0
309.98046875,26.3671875,-50.78125,-13.671875,44.43359375,-13.671875,0.0
309.984375,39.55078125,-54.6875,-24.4140625,44.43359375,-58.10546875,0.0
309.98828125,54.19921875,-54.6875,-36.62109375,51.7578125,-37.59765625,0.0
309.9921875,37.59765625,-59.08203125,-35.64453125,52.24609375,27.34375,0.0
309.99609375,17.08984375,-62.01171875,-35.15625,41.015625,-41.015625,0.0
310.0,28.3203125,-62.5,-38.0859375,47.36328125,-121.58203125,0.0
310.00390625,44.43359375,-61.03515625,-42.96875,50.78125,-59.5703125,0.0
310.0078125,63.96484375,-41.50390625,-22.94921875,63.96484375,-24.90234375,0.0
310.01171875,53.22265625,-41.015625,-26.3671875,56.640625,17.578125,0.0
310.015625,23.4375,-59.08203125,-49.8046875,37.59765625,64.94140625,0.0
310.01953125,20.99609375,-66.40625,-52.734375,32.71484375,32.71484375,0.0
310.0234375,45.41015625,-56.15234375,-28.80859375,38.0859375,-22.4609375,0.0
310.02734375,55.17578125,-48.33984375,-23.4375,38.57421875,-41.9921875,0.0
310.03125,30.2734375,-55.17578125,-34.1796875,33.69140625,20.01953125,0.0
310.03515625,17.578125,-59.5703125,-30.2734375,35.64453125,29.78515625,0.0
310.0390625,20.5078125,-52.24609375,-39.55078125,30.76171875,-15.13671875,0.0
310.04296875,26.3671875,-57.12890625,-38.0859375,26.3671875,-38.57421875,0.0
310.046875,34.66796875,-64.94140625,-34.1796875,21.484375,4.8828125,0.0
310.05078125,41.9921875,-47.36328125,-26.3671875,36.62109375,45.41015625,0.0
310.0546875,20.5078125,-37.59765625,-33.203125,35.64453125,-30.2734375,0.0
310.05859375,-1.46484375,-50.29296875,-50.78125,14.16015625,-79.58984375,0.0
310.0625,10.25390625,-54.6875,-36.1328125,10.7421875,-63.4765625,0.0
310.06640625,25.87890625,-49.8046875,-31.25,13.671875,-30.2734375,0.0
310.0703125,36.1328125,-34.66796875,-19.53125,27.34375,5.859375,0.0
310.07421875,24.90234375,-33.69140625,-10.7421875,24.4140625,-6.34765625,0.0
310.078125,1.46484375,-51.7578125,-25.390625,2.44140625,-15.625,0.0
310.08203125,4.8828125,-44.43359375,-27.34375,1.46484375,39.0625,0.0
310.0859375,18.06640625,-43.45703125,-29.78515625,4.8828125,84.47265625,0.0
310.08984375,18.5546875,-52.734375,-34.1796875,10.25390625,45.41015625,0.0
310.09375,1.953125,-55.17578125,-38.0859375,10.7421875,28.3203125,0.0
310.09765625,-2.44140625,-44.43359375,-35.64453125,13.18359375,23.4375,0.0
310.1015625,3.90625,-36.62109375,-34.1796875,13.18359375,16.11328125,0.0
310.10546875,10.7421875,-40.0390625,-30.76171875,5.859375,70.3125,0.0
310.109375,15.625,-37.109375,-29.296875,4.8828125,42.96875,0.0
310.11328125,7.8125,-32.2265625,-26.3671875,15.13671875,15.625,0.0
310.1171875,-7.8125,-36.62109375,-21.484375,11.71875,-67.87109375,0.0
310.12109375,-17.08984375,-51.26953125,-33.203125,-10.25390625,-215.8203125,0.0
310.125,-10.25390625,-54.6875,-31.25,-13.671875,-210.9375,0.0
310.12890625,-1.46484375,-48.33984375,-36.1328125,-10.25390625,-162.109375,0.0
310.1328125,-7.8125,-35.64453125,-38.57421875,-6.34765625,-62.01171875,0.0
310.13671875,-25.390625,-39.55078125,-27.34375,-11.23046875,-61.5234375,0.0
310.140625,-28.80859375,-50.29296875,-32.2265625,-20.01953125,-151.85546875,0.0
310.14453125,-7.8125,-44.43359375,-36.62109375,-14.16015625,-71.2890625,0.0
310.1484375,-5.859375,-38.57421875,-40.0390625,-3.41796875,-66.89453125,0.0
310.15234375,-20.99609375,-34.66796875,-39.55078125,-5.859375,-112.79296875,0.0
310.15625,-33.203125,-40.0390625,-30.2734375,-16.6015625,-85.9375,0.0
310.16015625,-18.06640625,-35.15625,-18.5546875,-8.7890625,-31.73828125,0.0
310.1640625,4.8828125,-21.484375,-19.04296875,-3.90625,34.1796875,0.0
310.16796875,-1.953125,-17.578125,-26.3671875,-9.765625,32.71484375,0.0
310.171875,-15.625,-27.34375,-22.4609375,-11.71875,-22.94921875,0.0
310.17578125,-28.80859375,-43.45703125,-29.78515625,-18.5546875,-72.265625,0.0
310.1796875,-30.76171875,-46.875,-34.66796875,-19.04296875,-44.43359375,0.0
310.18359375,-26.85546875,-45.41015625,-41.015625,-30.76171875,-9.27734375,0.0
310.1875,-14.16015625,-35.15625,-27.34375,-30.2734375,-25.87890625,0.0
310.19140625,-11.23046875,-20.99609375,-17.08984375,-15.13671875,4.8828125,0.0
310.1953125,-32.2265625,-21.97265625,-26.85546875,-16.6015625,-37.59765625,0.0
310.19921875,-34.66796875,-33.203125,-45.8984375,-27.83203125,-91.30859375,0.0
310.203125,-17.08984375,-29.78515625,-49.8046875,-17.578125,4.39453125,0.0
310.20703125,-3.41796875,-22.94921875,-28.80859375,-10.25390625,17.08984375,0.0
310.2109375,-20.99609375,-34.1796875,-35.64453125,-31.25,-45.8984375,0.0
310.21484375,-41.9921875,-35.15625,-43.45703125,-33.203125,-58.59375,0.0
310.21875,-41.50390625,-40.0390625,-41.9921875,-33.69140625,-106.93359375,0.0
310.22265625,-30.76171875,-41.50390625,-42.48046875,-34.66796875,-121.09375,0.0
310.2265625,-17.578125,-37.109375,-42.96875,-26.85546875,3.41796875,0.0
310.23046875,-19.53125,-37.59765625,-40.0390625,-24.90234375,119.140625,0.0
310.234375,-31.25,-38.57421875,-38.0859375,-22.4609375,43.9453125,0.0
310.23828125,-41.9921875,-41.9921875,-34.1796875,-23.92578125,-39.0625,0.0
310.2421875,-33.69140625,-32.71484375,-31.25,-25.390625,-41.50390625,0.0
310.24609375,-12.6953125,-30.76171875,-31.73828125,-20.5078125,-3.41796875,0.0
310.25,-1.46484375,-22.4609375,-19.04296875,-9.765625,45.41015625,0.0
310.25390625,-15.13671875,-19.04296875,-22.4609375,-8.30078125,3.90625,0.0
310.2578125,-48.33984375,-44.921875,-44.43359375,-26.3671875,-61.5234375,0.0
310.26171875,-46.875,-48.828125,-37.109375,-34.66796875,-44.921875,0.0
310.265625,-32.2265625,-43.9453125,-30.2734375,-36.62109375,-41.50390625,0.0
310.26953125,-20.5078125,-35.15625,-33.203125,-36.1328125,-26.85546875,0.0
310.2734375,-22.94921875,-26.3671875,-31.73828125,-24.90234375,-80.078125,0.0
310.27734375,-44.43359375,-35.64453125,-30.76171875,-28.3203125,-83.49609375,0.0
310.28125,-41.9921875,-42.48046875,-34.66796875,-40.0390625,-44.43359375,0.0
310.28515625,-25.390625,-35.15625,-36.62109375,-37.59765625,-83.0078125,0.0
310.2890625,-22.4609375,-25.390625,-38.0859375,-36.62109375,-72.265625,0.0
310.29296875,-21.97265625,-22.4609375,-25.390625,-28.3203125,-29.78515625,0.0
310.296875,-27.34375,-27.83203125,-10.25390625,-12.20703125,25.87890625,0.0
310.30078125,-41.50390625,-37.59765625,-28.80859375,-21.97265625,-8.30078125,0.0
310.3046875,-28.80859375,-33.203125,-45.8984375,-27.34375,-36.1328125,0.0
310.30859375,-15.13671875,-20.99609375,-33.69140625,-21.484375,-21.97265625,0.0
310.3125,-42.48046875,-25.390625,-32.2265625,-34.1796875,-15.625,0.0
310.31640625,-52.734375,-24.90234375,-33.69140625,-36.1328125,-26.3671875,0.0
310.3203125,-41.015625,-25.87890625,-30.2734375,-28.3203125,-54.19921875,0.0
310.32421875,-31.25,-28.3203125,-33.69140625,-37.109375,-27.83203125,0.0
310.328125,-22.4609375,-24.4140625,-32.71484375,-47.36328125,-71.77734375,0.0
310.33203125,-29.78515625,-24.4140625,-36.62109375,-42.96875,-86.42578125,0.0
310.3359375,-49.31640625,-27.34375,-39.0625,-40.52734375,-118.65234375,0.0
310.33984375,-46.875,-30.2734375,-26.85546875,-38.57421875,-152.34375,0.0
310.34375,-32.71484375,-32.2265625,-30.2734375,-39.0625,-101.07421875,0.0
310.34765625,-26.3671875,-36.62109375,-43.45703125,-44.43359375,35.64453125,0.0
310.3515625,-25.390625,-29.78515625,-35.15625,-30.2734375,38.0859375,0.0
310.35546875,-26.85546875,-17.08984375,-24.90234375,-19.53125,-31.25,0.0
310.359375,-33.203125,-29.78515625,-33.69140625,-38.57421875,-55.17578125,0.0
310.36328125,-26.3671875,-38.0859375,-30.76171875,-41.015625,-67.87109375,0.0
310.3671875,-17.08984375,-30.2734375,-24.4140625,-26.85546875,-26.3671875,0.0
310.37109375,-27.34375,-34.66796875,-32.2265625,-32.2265625,-33.69140625,0.0
310.375,-39.0625,-36.62109375,-31.25,-39.0625,-19.53125,0.0
310.37890625,-39.0625,-29.78515625,-29.296875,-35.15625,-33.69140625,0.0
310.3828125,-15.625,-21.97265625,-29.78515625,-24.90234375,-62.5,0.0
310.38671875,-5.859375,-26.3671875,-33.203125,-29.296875,-33.69140625,0.0
310.390625,-20.5078125,-33.69140625,-35.64453125,-36.1328125,-54.6875,0.0
310.39453125,-31.25,-32.2265625,-31.73828125,-27.83203125,-23.92578125,0.0
310.3984375,-28.3203125,-28.3203125,-26.3671875,-24.4140625,-40.0390625,0.0
310.40234375,-14.6484375,-28.80859375,-33.69140625,-30.2734375,-58.59375,0.0
310.40625,-6.8359375,-25.87890625,-32.71484375,-25.390625,39.55078125,0.0
310.41015625,-14.16015625,-25.390625,-36.1328125,-19.53125,101.5625,0.0
310.4140625,-24.4140625,-30.2734375,-39.0625,-14.6484375,46.875,0.0
310.41796875,-27.83203125,-32.71484375,-25.87890625,-13.671875,-76.66015625,0.0
310.421875,-19.04296875,-33.69140625,-25.87890625,-21.484375,-67.87109375,0.0
310.42578125,-6.34765625,-32.2265625,-20.01953125,-13.671875,-45.8984375,0.0
310.4296875,-9.765625,-20.99609375,-23.4375,-18.06640625,-61.5234375,0.0
310.43359375,-25.390625,-25.87890625,-30.76171875,-31.25,-127.44140625,0.0
310.4375,-36.62109375,-45.8984375,-35.15625,-33.203125,-138.671875,0.0
310.44140625,-29.78515625,-42.48046875,-41.015625,-32.2265625,-189.94140625,0.0
310.4453125,-2.9296875,-23.92578125,-19.53125,-15.625,-258.7890625,0.0
310.44921875,-4.39453125,-21.97265625,-16.6015625,-17.08984375,-166.9921875,0.0
310.453125,-40.52734375,-33.69140625,-32.71484375,-34.1796875,-114.74609375,0.0
310.45703125,-58.59375,-41.015625,-35.64453125,-35.15625,-107.91015625,0.0
310.4609375,-44.43359375,-39.0625,-37.109375,-34.1796875,-117.1875,0.0
310.46484375,-23.4375,-31.25,-28.3203125,-28.80859375,-135.7421875,0.0
310.46875,-20.01953125,-31.73828125,-36.62109375,-27.83203125,-126.46484375,0.0
310.47265625,-36.1328125,-33.203125,-30.2734375,-27.83203125,-138.671875,0.0
310.4765625,-47.36328125,-31.73828125,-6.8359375,-23.92578125,-135.25390625,0.0
310.48046875,-42.48046875,-40.0390625,-15.625,-39.0625,-124.0234375,0.0
310.484375,-26.3671875,-36.62109375,-30.2734375,-43.45703125,-109.86328125,0.0
310.48828125,-15.625,-20.5078125,-19.04296875,-19.04296875,-48.828125,0.0
310.4921875,-31.73828125,-24.4140625,-16.11328125,-19.04296875,-16.6015625,0.0
310.49609375,-50.78125,-37.109375,-30.76171875,-31.73828125,4.8828125,0.0
310.5,-45.41015625,-41.9921875,-32.2265625,-34.1796875,31.25,0.0
310.50390625,-22.94921875,-29.296875,-24.90234375,-33.203125,55.6640625,0.0
310.5078125,-16.6015625,-29.78515625,-26.85546875,-22.4609375,67.3828125,0.0
310.51171875,-27.83203125,-33.69140625,-29.296875,-18.06640625,44.921875,0.0
310.515625,-44.43359375,-24.90234375,-22.94921875,-22.94921875,-48.33984375,0.0
310.51953125,-49.8046875,-29.296875,-30.76171875,-25.390625,-98.6328125,0.0
310.5234375,-29.78515625,-28.3203125,-43.45703125,-31.25,-39.0625,0.0
310.52734375,-21.97265625,-24.90234375,-37.59765625,-35.64453125,19.53125,0.0
310.53125,-26.3671875,-22.4609375,-24.90234375,-26.85546875,25.87890625,0.0
310.53515625,-19.04296875,-17.08984375,-10.25390625,-18.5546875,-79.58984375,0.0
310.5390625,-25.87890625,-25.390625,-13.671875,-23.92578125,-146.484375,0.0
310.54296875,-22.4609375,-25.87890625,-20.99609375,-27.34375,-167.48046875,0.0
310.546875,-4.39453125,-20.99609375,-24.90234375,-25.87890625,-84.9609375,0.0
310.55078125,-15.625,-27.83203125,-40.52734375,-26.3671875,91.796875,0.0
310.5546875,-41.9921875,-35.64453125,-40.52734375,-31.73828125,117.67578125,0.0
310.55859375,-54.6875,-42.48046875,-33.203125,-39.55078125,110.3515625,0.0
310.5625,-41.9921875,-41.015625,-32.71484375,-41.9921875,112.3046875,0.0
310.56640625,-30.2734375,-32.2265625,-31.73828125,-34.1796875,127.9296875,0.0
310.5703125,-30.2734375,-17.08984375,-32.2265625,-25.87890625,116.2109375,0.0
310.57421875,-31.25,-16.6015625,-26.3671875,-20.5078125,18.5546875,0.0
310.578125,-41.9921875,-25.87890625,-23.4375,-28.80859375,-81.54296875,0.0
310.58203125,-29.296875,-26.3671875,-16.6015625,-29.78515625,-43.9453125,0.0
310.5859375,-16.6015625,-30.76171875,-20.5078125,-34.1796875,48.33984375,0.0
310.58984375,-17.08984375,-27.34375,-20.99609375,-32.2265625,53.22265625,0.0
310.59375,-32.71484375,-32.71484375,-20.5078125,-24.4140625,-18.5546875,0.0
310.59765625,-50.78125,-43.45703125,-35.15625,-36.62109375,-42.48046875,0.0
310.6015625,-38.0859375,-41.9921875,-40.52734375,-38.0859375,-16.6015625,0.0
310.60546875,-20.01953125,-35.64453125,-40.52734375,-33.69140625,-53.22265625,0.0
310.609375,-21.97265625,-33.69140625,-50.78125,-33.69140625,-153.80859375,0.0
310.61328125,-39.0625,-36.62109375,-47.8515625,-27.34375,-207.03125,0.0
310.6171875,-39.55078125,-34.1796875,-35.64453125,-27.83203125,-209.47265625,0.0
310.62109375,-26.85546875,-30.2734375,-35.15625,-33.69140625,-200.68359375,0.0
310.625,-13.18359375,-26.85546875,-31.25,-28.80859375,-195.80078125,0.0
310.62890625,-20.01953125,-28.3203125,-21.97265625,-27.34375,-64.94140625,0.0
310.6328125,-27.83203125,-19.53125,-18.06640625,-19.53125,7.8125,0.0
310.63671875,-32.2265625,-20.01953125,-26.85546875,-17.08984375,32.2265625,0.0
310.640625,-36.1328125,-33.203125,-38.57421875,-30.76171875,46.875,0.0
310.64453125,-32.71484375,-39.0625,-37.109375,-34.1796875,84.47265625,0.0
310.6484375,-24.90234375,-40.52734375,-29.78515625,-26.3671875,78.125,0.0
310.65234375,-31.25,-41.015625,-29.296875,-25.87890625,45.41015625,0.0
310.65625,-46.38671875,-34.66796875,-31.73828125,-29.78515625,34.66796875,0.0
310.66015625,-46.38671875,-39.0625,-40.52734375,-36.62109375,-41.015625,0.0
310.6640625,-28.3203125,-33.203125,-36.1328125,-35.64453125,-68.84765625,0.0
310.66796875,-13.18359375,-23.4375,-24.4140625,-29.296875,-52.24609375,0.0
310.671875,-18.06640625,-27.83203125,-30.76171875,-25.390625,-12.20703125,0.0
310.67578125,-33.203125,-36.1328125,-38.57421875,-23.4375,-14.6484375,0.0
310.6796875,-44.921875,-44.921875,-36.1328125,-28.80859375,-43.9453125,0.0
310.68359375,-38.57421875,-43.45703125,-43.45703125,-37.59765625,-76.171875,0.0
310.6875,-18.5546875,-24.4140625,-36.62109375,-25.87890625,-68.84765625,0.0
310.69140625,-17.08984375,-18.5546875,-26.3671875,-15.625,15.13671875,0.0
310.6953125,-39.55078125,-41.50390625,-35.15625,-31.25,-11.23046875,0.0
310.69921875,-48.33984375,-53.7109375,-35.64453125,-43.45703125,-104.98046875,0.0
310.703125,-36.62109375,-46.875,-31.25,-41.50390625,-139.6484375,0.0
310.70703125,-34.66796875,-40.0390625,-29.296875,-31.73828125,-125.48828125,0.0
310.7109375,-34.66796875,-32.2265625,-22.4609375,-22.4609375,-74.70703125,0.0
310.71484375,-44.921875,-36.62109375,-28.3203125,-26.85546875,-16.11328125,0.0
310.71875,-56.640625,-46.38671875,-43.45703125,-35.64453125,0.0,0.0
310.72265625,-36.62109375,-32.71484375,-37.59765625,-29.296875,-4.8828125,0.0
310.7265625,-12.20703125,-25.390625,-21.97265625,-18.5546875,51.7578125,0.0
310.73046875,-12.6953125,-28.3203125,-16.6015625,-19.53125,111.328125,0.0
310.734375,-22.4609375,-25.390625,-23.92578125,-24.90234375,123.53515625,0.0
310.73828125,-31.25,-29.78515625,-23.4375,-30.2734375,47.8515625,0.0
310.7421875,-25.87890625,-26.3671875,-19.04296875,-26.3671875,-49.31640625,0.0
310.74609375,-9.765625,-25.390625,-26.85546875,-23.4375,-34.66796875,0.0
310.75,-7.8125,-29.78515625,-31.25,-32.2265625,18.06640625,0.0
310.75390625,-21.97265625,-28.80859375,-28.3203125,-40.0390625,2.9296875,0.0
310.7578125,-36.62109375,-32.2265625,-15.13671875,-38.57421875,-14.16015625,0.0
310.76171875,-40.0390625,-43.45703125,-20.99609375,-38.57421875,-7.32421875,0.0
310.765625,-33.203125,-41.015625,-39.55078125,-38.57421875,19.04296875,0.0
310.76953125,-21.97265625,-23.4375,-34.1796875,-30.2734375,42.48046875,0.0
310.7734375,-32.71484375,-23.92578125,-32.2265625,-35.15625,-13.18359375,0.0
310.77734375,-51.7578125,-38.57421875,-36.62109375,-50.29296875,-118.1640625,0.0
310.78125,-47.8515625,-37.59765625,-31.73828125,-52.734375,-156.73828125,0.0
310.78515625,-31.25,-33.203125,-28.3203125,-44.921875,-161.62109375,0.0
310.7890625,-25.390625,-31.73828125,-30.76171875,-41.015625,-125.0,0.0
310.79296875,-40.0390625,-32.2265625,-22.94921875,-35.15625,-66.89453125,0.0
310.796875,-50.29296875,-43.45703125,-17.08984375,-34.1796875,-75.68359375,0.0
310.80078125,-38.57421875,-53.22265625,-30.2734375,-44.43359375,-46.38671875,0.0
310.8046875,-22.4609375,-42.96875,-31.73828125,-46.38671875,-11.71875,0.0
310.80859375,-22.94921875,-27.83203125,-27.83203125,-39.0625,55.6640625,0.0
310.8125,-38.57421875,-36.62109375,-29.296875,-38.57421875,27.34375,0.0
310.81640625,-55.17578125,-45.41015625,-44.43359375,-38.57421875,-119.62890625,0.0
310.8203125,-44.921875,-32.2265625,-35.64453125,-37.109375,-150.87890625,0.0
310.82421875,-24.4140625,-24.90234375,-13.18359375,-32.71484375,-66.40625,0.0
310.828125,-23.92578125,-31.25,-19.04296875,-25.87890625,-5.859375,0.0
310.83203125,-39.0625,-40.52734375,-20.5078125,-28.3203125,-60.546875,0.0
310.8359375,-53.7109375,-44.921875,-26.3671875,-36.62109375,-83.49609375,0.0
310.83984375,-46.875,-39.55078125,-25.390625,-36.62109375,-64.94140625,0.0
310.84375,-29.296875,-29.78515625,-20.99609375,-31.25,-18.06640625,0.0
310.84765625,-18.06640625,-27.83203125,-20.5078125,-21.484375,-32.71484375,0.0
310.8515625,-29.78515625,-33.203125,-22.4609375,-20.99609375,-29.78515625,0.0
310.85546875,-50.29296875,-34.66796875,-24.4140625,-26.85546875,20.01953125,0.0
310.859375,-47.8515625,-39.0625,-29.296875,-28.80859375,18.06640625,0.0
310.86328125,-24.4140625,-28.3203125,-20.01953125,-20.5078125,82.03125,0.0
310.8671875,-3.41796875,-10.25390625,-8.7890625,-14.16015625,95.703125,0.0
310.87109375,-12.20703125,-18.06640625,-25.390625,-19.04296875,63.4765625,0.0
310.875,-33.69140625,-31.73828125,-23.92578125,-23.92578125,26.3671875,0.0
310.87890625,-40.52734375,-33.203125,-21.484375,-31.73828125,-29.78515625,0.0
310.8828125,-34.1796875,-32.2265625,-25.390625,-39.55078125,-44.921875,0.0
310.88671875,-28.3203125,-30.2734375,-19.04296875,-37.59765625,-33.203125,0.0
310.890625,-39.55078125,-34.66796875,-27.34375,-39.55078125,-77.63671875,0.0
310.89453125,-49.8046875,-39.55078125,-35.64453125,-46.38671875,-44.921875,0.0
310.8984375,-45.8984375,-35.64453125,-34.66796875,-42.96875,-37.109375,0.0
310.90234375,-39.55078125,-29.78515625,-31.73828125,-35.64453125,-86.42578125,0.0
310.90625,-29.296875,-24.90234375,-20.99609375,-27.34375,25.87890625,0.0
310.91015625,-32.71484375,-30.2734375,-17.08984375,-31.25,59.08203125,0.0
310.9140625,-46.875,-36.1328125,-24.90234375,-41.9921875,24.4140625,0.0
310.91796875,-52.734375,-35.15625,-37.109375,-44.921875,-61.03515625,0.0
310.921875,-38.0859375,-27.83203125,-26.3671875,-35.15625,-130.37109375,0.0
310.92578125,-11.71875,-19.04296875,-7.8125,-23.92578125,-62.01171875,0.0
310.9296875,-21.97265625,-24.4140625,-23.92578125,-33.69140625,14.16015625,0.0
310.93359375,-41.015625,-31.25,-34.1796875,-47.36328125,14.16015625,0.0
310.9375,-44.921875,-29.78515625,-25.390625,-38.57421875,-18.5546875,0.0
310.94140625,-38.57421875,-32.71484375,-34.1796875,-34.66796875,-10.7421875,0.0
310.9453125,-20.01953125,-28.3203125,-35.15625,-35.64453125,-50.29296875,0.0
310.94921875,-9.27734375,-17.578125,-27.34375,-30.76171875,-68.359375,0.0
310.953125,-12.20703125,-18.06640625,-22.94921875,-25.87890625,-69.3359375,0.0
310.95703125,-23.4375,-25.390625,-25.390625,-25.87890625,-71.77734375,0.0
310.9609375,-29.296875,-31.25,-39.55078125,-38.57421875,-81.0546875,0.0
310.96484375,-14.16015625,-30.76171875,-29.296875,-32.71484375,-50.78125,0.0
310.96875,-9.27734375,-29.78515625,-16.6015625,-23.4375,2.44140625,0.0
310.97265625,-31.73828125,-34.1796875,-27.34375,-27.83203125,58.59375,0.0
310.9765625,-45.41015625,-35.64453125,-35.15625,-32.2265625,-36.62109375,0.0
310.98046875,-44.43359375,-31.73828125,-24.90234375,-37.109375,-141.6015625,0.0
310.984375,-35.64453125,-26.3671875,-19.04296875,-34.1796875,-101.07421875,0.0
310.98828125,-25.87890625,-25.87890625,-18.06640625,-23.92578125,-96.19140625,0.0
310.9921875,-37.59765625,-29.296875,-18.06640625,-22.4609375,-111.328125,0.0
310.99609375,-59.08203125,-39.0625,-25.87890625,-32.71484375,-140.625,0.0
311.0,-41.015625,-32.2265625,-21.97265625,-24.4140625,-132.8125,0.0
311.00390625,-18.06640625,-23.92578125,-13.671875,-18.5546875,-9.27734375,0.0
311.0078125,-18.5546875,-33.203125,-11.71875,-28.80859375,23.4375,0.0
311.01171875,-22.4609375,-32.71484375,-20.01953125,-28.3203125,7.32421875,0.0
311.015625,-38.0859375,-37.59765625,-29.296875,-29.78515625,15.625,0.0
311.01953125,-44.921875,-41.015625,-29.296875,-37.109375,-68.84765625,0.0
311.0234375,-35.64453125,-33.203125,-25.390625,-37.59765625,-100.5859375,0.0
311.02734375,-24.90234375,-31.25,-23.92578125,-40.0390625,-24.90234375,0.0
311.03125,-26.85546875,-29.78515625,-25.390625,-34.66796875,13.18359375,0.0
311.03515625,-43.45703125,-36.62109375,-21.97265625,-33.203125,-24.4140625,0.0
311.0390625,-57.12890625,-45.41015625,-27.83203125,-42.48046875,-6.34765625,0.0
311.04296875,-30.2734375,-35.15625,-20.99609375,-25.87890625,38.0859375,0.0
311.046875,-12.6953125,-24.4140625,-9.765625,-15.625,19.04296875,0.0
311.05078125,-38.57421875,-30.76171875,-23.4375,-24.4140625,23.92578125,0.0
311.0546875,-52.734375,-36.62109375,-32.71484375,-30.76171875,-6.34765625,0.0
311.05859375,-47.8515625,-38.0859375,-28.80859375,-32.71484375,-32.2265625,0.0
311.0625,-33.203125,-39.55078125,-33.203125,-37.59765625,-78.125,0.0
311.06640625,-19.04296875,-41.9921875,-48.33984375,-44.921875,-25.87890625,0.0
311.0703125,-33.203125,-37.59765625,-47.36328125,-39.0625,50.29296875,0.0
311.07421875,-50.29296875,-31.73828125,-36.62109375,-34.66796875,36.62109375,0.0
311.078125,-51.7578125,-37.109375,-31.73828125,-38.57421875,116.2109375,0.0
311.08203125,-39.55078125,-30.76171875,-30.2734375,-33.69140625,63.96484375,0.0
311.0859375,-23.92578125,-20.01953125,-33.203125,-30.2734375,-41.015625,0.0
311.08984375,-21.484375,-16.11328125,-16.11328125,-28.3203125,-90.8203125,0.0
311.09375,-31.25,-17.08984375,-3.90625,-29.78515625,-111.328125,0.0
311.09765625,-49.31640625,-33.69140625,-26.85546875,-41.50390625,-40.0390625,0.0
311.1015625,-40.0390625,-34.1796875,-35.15625,-40.0390625,-39.0625,0.0
311.10546875,-23.92578125,-35.15625,-30.2734375,-34.1796875,-87.40234375,0.0
311.109375,-30.2734375,-36.1328125,-34.1796875,-42.48046875,-77.1484375,0.0
311.11328125,-47.8515625,-28.80859375,-33.69140625,-44.921875,-36.62109375,0.0
311.1171875,-61.03515625,-32.71484375,-29.78515625,-35.64453125,-21.97265625,0.0
311.12109375,-51.26953125,-37.59765625,-23.4375,-32.2265625,17.08984375,0.0
311.125,-34.66796875,-36.1328125,-20.5078125,-43.45703125,24.4140625,0.0
311.12890625,-35.15625,-41.50390625,-27.83203125,-51.7578125,-86.9140625,0.0
311.1328125,-35.15625,-32.2265625,-22.4609375,-31.73828125,-79.1015625,0.0
311.13671875,-51.26953125,-27.34375,-17.578125,-28.3203125,-68.359375,0.0
311.140625,-67.87109375,-46.875,-38.0859375,-52.24609375,-28.3203125,0.0
311.14453125,-48.828125,-42.96875,-42.48046875,-41.9921875,-22.4609375,0.0
311.1484375,-27.83203125,-26.3671875,-24.90234375,-26.85546875,-33.203125,0.0
311.15234375,-27.34375,-24.4140625,-14.6484375,-32.2265625,12.6953125,0.0
311.15625,-39.0625,-23.92578125,-26.3671875,-36.62109375,3.90625,0.0
311.16015625,-47.36328125,-28.80859375,-33.69140625,-39.0625,-20.99609375,0.0
311.1640625,-35.64453125,-25.390625,-30.76171875,-40.0390625,-4.39453125,0.0
311.16796875,-22.94921875,-22.94921875,-39.0625,-39.0625,33.69140625,0.0
311.171875,-29.296875,-34.1796875,-35.15625,-37.109375,27.34375,0.0
311.17578125,-41.015625,-41.015625,-19.04296875,-41.9921875,-29.296875,0.0
311.1796875,-39.0625,-39.0625,-24.4140625,-39.55078125,-103.515625,0.0
311.18359375,-20.99609375,-30.76171875,-35.64453125,-34.1796875,-72.265625,0.0
311.1875,-23.92578125,-24.4140625,-27.34375,-38.0859375,2.9296875,0.0
311.19140625,-42.48046875,-18.06640625,-24.90234375,-38.57421875,14.6484375,0.0
311.1953125,-40.0390625,-11.23046875,-14.6484375,-30.76171875,-75.68359375,0.0
311.19921875,-44.921875,-32.71484375,-13.18359375,-37.59765625,-100.5859375,0.0
311.203125,-41.50390625,-47.36328125,-31.73828125,-40.0390625,-75.68359375,0.0
311.20703125,-23.4375,-36.62109375,-35.15625,-33.203125,-88.8671875,0.0
311.2109375,-28.3203125,-34.66796875,-30.2734375,-37.59765625,-24.4140625,0.0
311.21484375,-45.41015625,-42.48046875,-34.66796875,-44.43359375,33.69140625,0.0
311.21875,-53.22265625,-37.59765625,-40.0390625,-42.48046875,-10.25390625,0.0
311.22265625,-37.109375,-26.85546875,-34.66796875,-38.0859375,-1.46484375,0.0
311.2265625,-13.18359375,-26.3671875,-23.4375,-33.203125,71.2890625,0.0
311.23046875,-23.4375,-37.59765625,-22.94921875,-32.2265625,82.03125,0.0
311.234375,-44.921875,-43.9453125,-35.15625,-38.0859375,-7.8125,0.0
311.23828125,-36.62109375,-33.203125,-14.6484375,-36.1328125,-103.515625,0.0
311.2421875,-27.34375,-36.1328125,-19.04296875,-37.109375,-74.70703125,0.0
311.24609375,-20.01953125,-41.015625,-47.36328125,-40.52734375,-15.625,0.0
311.25,-23.4375,-33.69140625,-34.66796875,-35.15625,-77.1484375,0.0
311.25390625,-39.0625,-34.66796875,-20.99609375,-36.62109375,-124.51171875,0.0
311.2578125,-45.41015625,-40.0390625,-26.85546875,-39.55078125,-141.6015625,0.0
311.26171875,-40.0390625,-44.921875,-37.59765625,-45.41015625,-85.44921875,0.0
311.265625,-32.2265625,-43.9453125,-36.62109375,-47.8515625,73.2421875,0.0
311.26953125,-23.4375,-32.71484375,-39.55078125,-34.1796875,39.0625,0.0
311.2734375,-30.76171875,-31.25,-41.9921875,-33.69140625,-87.40234375,0.0
311.27734375,-50.78125,-39.55078125,-37.109375,-46.38671875,-102.5390625,0.0
311.28125,-44.921875,-37.109375,-33.203125,-50.78125,-119.62890625,0.0
311.28515625,-20.01953125,-34.1796875,-9.27734375,-38.0859375,-110.83984375,0.0
311.2890625,-14.6484375,-30.76171875,-7.8125,-29.296875,-24.90234375,0.0
311.29296875,-29.78515625,-28.3203125,-32.71484375,-34.1796875,-26.85546875,0.0
311.296875,-43.45703125,-33.69140625,-37.109375,-31.25,-109.375,0.0
311.30078125,-40.0390625,-37.109375,-34.66796875,-41.015625,-148.92578125,0.0
311.3046875,-30.76171875,-37.59765625,-35.15625,-49.31640625,-107.91015625,0.0
311.30859375,-32.2265625,-36.62109375,-29.78515625,-40.0390625,-65.4296875,0.0
311.3125,-33.203125,-33.203125,-20.99609375,-35.15625,-180.6640625,0.0
311.31640625,-42.48046875,-35.64453125,-24.90234375,-42.96875,-228.02734375,0.0
311.3203125,-50.78125,-42.48046875,-37.59765625,-51.7578125,-197.75390625,0.0
311.32421875,-40.0390625,-36.62109375,-45.8984375,-43.9453125,-179.19921875,0.0
311.328125,-19.04296875,-24.4140625,-28.3203125,-27.83203125,-64.453125,0.0
311.33203125,-22.94921875,-24.4140625,-20.5078125,-20.99609375,34.1796875,0.0
311.3359375,-45.8984375,-37.59765625,-35.15625,-28.3203125,23.92578125,0.0
311.33984375,-44.921875,-34.1796875,-26.85546875,-33.203125,-29.296875,0.0
311.34375,-33.69140625,-27.34375,-25.87890625,-37.59765625,-10.7421875,0.0
311.34765625,-30.76171875,-39.55078125,-35.15625,-35.15625,-5.859375,0.0
311.3515625,-28.3203125,-37.59765625,-29.296875,-11.23046875,-3.90625,0.0
311.35546875,-41.015625,-28.3203125,-25.87890625,-13.18359375,47.36328125,0.0
311.359375,-52.734375,-34.66796875,-28.3203125,-41.50390625,41.9921875,0.0
311.36328125,-37.109375,-34.1796875,-30.2734375,-46.875,-8.30078125,0.0
311.3671875,-20.01953125,-18.5546875,-35.64453125,-49.31640625,-65.4296875,0.0
311.37109375,-19.53125,-15.625,-42.48046875,-53.7109375,-41.015625,0.0
311.375,-29.78515625,-15.625,-31.73828125,-43.9453125,-38.0859375,0.0
311.37890625,-25.390625,-14.16015625,-35.64453125,-36.1328125,-81.0546875,0.0
311.3828125,-11.71875,-21.484375,-53.7109375,-41.015625,-78.61328125,0.0
311.38671875,-2.44140625,-22.4609375,-45.41015625,-40.0390625,-50.78125,0.0
311.390625,-10.25390625,-18.06640625,-39.0625,-34.1796875,-32.2265625,0.0
311.39453125,-31.25,-19.53125,-48.33984375,-38.0859375,-36.1328125,0.0
311.3984375,-34.1796875,-21.97265625,-56.640625,-41.015625,-25.390625,0.0
311.40234375,-21.484375,-27.34375,-59.08203125,-41.9921875,-58.59375,0.0
311.40625,-11.71875,-27.34375,-55.17578125,-41.50390625,19.04296875,0.0
311.41015625,-14.16015625,-13.18359375,-43.9453125,-33.203125,70.80078125,0.0
311.4140625,-29.296875,-13.18359375,-44.43359375,-27.83203125,39.55078125,0.0
311.41796875,-37.59765625,-32.2265625,-45.41015625,-35.64453125,52.734375,0.0
311.421875,-37.109375,-38.57421875,-38.57421875,-43.45703125,24.90234375,0.0
311.42578125,-27.83203125,-25.87890625,-32.2265625,-33.203125,-30.2734375,0.0
311.4296875,-26.85546875,-22.94921875,-31.25,-28.3203125,-56.640625,0.0
311.43359375,-45.8984375,-34.1796875,-49.31640625,-38.57421875,3.41796875,0.0
311.4375,-44.921875,-34.1796875,-49.8046875,-37.109375,36.62109375,0.0
311.44140625,-36.1328125,-33.203125,-36.1328125,-33.69140625,16.6015625,0.0
311.4453125,-32.2265625,-34.66796875,-41.015625,-37.59765625,6.8359375,0.0
311.44921875,-16.6015625,-30.2734375,-40.0390625,-27.83203125,81.54296875,0.0
311.453125,-27.34375,-24.90234375,-40.52734375,-20.5078125,80.078125,0.0
311.45703125,-47.8515625,-31.73828125,-43.45703125,-29.296875,44.921875,0.0
311.4609375,-26.85546875,-26.3671875,-33.203125,-22.94921875,75.1953125,0.0
311.46484375,-6.34765625,-22.4609375,-25.87890625,-15.13671875,92.7734375,0.0
311.46875,-7.32421875,-26.3671875,-27.34375,-18.06640625,125.0,0.0
311.47265625,-17.08984375,-21.97265625,-35.64453125,-15.625,54.6875,0.0
311.4765625,-32.2265625,-27.34375,-30.76171875,-20.01953125,-98.14453125,0.0
311.48046875,-31.25,-30.76171875,-17.08984375,-26.85546875,-159.66796875,0.0
311.484375,-21.484375,-29.296875,-26.85546875,-25.390625,-85.44921875,0.0
311.48828125,-12.6953125,-25.87890625,-41.9921875,-19.04296875,-75.1953125,0.0
311.4921875,-24.4140625,-27.34375,-39.55078125,-22.94921875,-132.8125,0.0
311.49609375,-44.921875,-36.1328125,-33.203125,-27.83203125,-112.79296875,0.0
311.5,-41.015625,-38.57421875,-33.69140625,-31.73828125,-84.47265625,0.0
311.50390625,-17.578125,-25.390625,-29.78515625,-33.203125,-87.40234375,0.0
311.5078125,-7.8125,-20.5078125,-27.34375,-31.73828125,-39.0625,0.0
311.51171875,-19.53125,-19.04296875,-27.83203125,-29.78515625,14.6484375,0.0
311.515625,-31.73828125,-23.92578125,-35.64453125,-28.3203125,-59.08203125,0.0
311.51953125,-36.62109375,-39.0625,-36.62109375,-35.64453125,-87.40234375,0.0
311.5234375,-17.578125,-32.2265625,-19.04296875,-33.69140625,-88.8671875,0.0
311.52734375,-13.18359375,-32.2265625,-16.6015625,-27.34375,-123.53515625,0.0
311.53125,-33.203125,-34.66796875,-26.3671875,-28.3203125,-38.57421875,0.0
311.53515625,-52.24609375,-35.64453125,-28.3203125,-27.83203125,-45.8984375,0.0
311.5390625,-45.8984375,-36.62109375,-25.390625,-27.83203125,-149.4140625,0.0
311.54296875,-32.2265625,-33.69140625,-29.296875,-29.296875,-85.9375,0.0
311.546875,-31.25,-37.59765625,-34.1796875,-30.76171875,38.0859375,0.0
311.55078125,-25.87890625,-29.78515625,-24.90234375,-23.92578125,6.34765625,0.0
311.5546875,-37.59765625,-30.2734375,-26.3671875,-23.92578125,-86.9140625,0.0
311.55859375,-46.875,-37.109375,-35.15625,-32.2265625,-179.6875,0.0
311.5625,-30.76171875,-33.203125,-32.2265625,-30.76171875,-279.78515625,0.0
311.56640625,-10.7421875,-26.3671875,-26.85546875,-15.625,-175.29296875,0.0
311.5703125,-14.16015625,-35.15625,-24.90234375,-17.08984375,-94.23828125,0.0
311.57421875,-41.50390625,-41.9921875,-21.97265625,-26.85546875,-65.4296875,0.0
311.578125,-58.59375,-37.109375,-20.99609375,-32.2265625,-7.32421875,0.0
311.58203125,-44.43359375,-35.15625,-21.97265625,-41.9921875,-26.3671875,0.0
311.5859375,-15.13671875,-27.83203125,-20.01953125,-32.2265625,-15.625,0.0
311.58984375,-15.625,-25.87890625,-33.69140625,-26.3671875,-41.9921875,0.0
311.59375,-35.64453125,-33.69140625,-27.34375,-30.76171875,-58.10546875,0.0
311.59765625,-46.875,-41.9921875,-15.13671875,-38.0859375,-36.62109375,0.0
311.6015625,-44.43359375,-43.45703125,-17.08984375,-34.1796875,-36.62109375,0.0
311.60546875,-32.2265625,-40.52734375,-23.92578125,-30.76171875,56.640625,0.0
311.609375,-28.3203125,-40.0390625,-26.3671875,-29.78515625,79.58984375,0.0
311.61328125,-37.109375,-43.9453125,-15.625,-32.2265625,-14.16015625,0.0
311.6171875,-50.29296875,-49.8046875,-18.06640625,-50.29296875,-6.34765625,0.0
311.62109375,-45.8984375,-49.31640625,-31.25,-51.26953125,-8.7890625,0.0
311.625,-27.34375,-44.921875,-31.25,-41.015625,4.8828125,0.0
311.62890625,-24.90234375,-44.43359375,-25.390625,-41.9921875,58.59375,0.0
311.6328125,-41.50390625,-41.015625,-24.4140625,-38.57421875,10.7421875,0.0
311.63671875,-51.26953125,-41.015625,-31.73828125,-38.57421875,-43.9453125,0.0
311.640625,-47.36328125,-43.9453125,-34.1796875,-49.31640625,8.7890625,0.0
311.64453125,-31.73828125,-41.015625,-26.85546875,-43.45703125,-46.38671875,0.0
311.6484375,-14.16015625,-35.15625,-23.4375,-34.1796875,-30.2734375,0.0
311.65234375,-18.5546875,-30.2734375,-20.5078125,-33.203125,66.89453125,0.0
311.65625,-35.15625,-31.25,-23.92578125,-34.1796875,-36.62109375,0.0
311.66015625,-40.0390625,-42.96875,-24.4140625,-43.45703125,-121.58203125,0.0
311.6640625,-28.80859375,-43.9453125,-26.85546875,-41.9921875,-32.71484375,0.0
311.66796875,-21.484375,-40.0390625,-34.1796875,-33.69140625,55.6640625,0.0
311.671875,-31.73828125,-45.8984375,-30.76171875,-34.66796875,51.26953125,0.0
311.67578125,-42.96875,-48.33984375,-25.87890625,-31.25,-29.296875,0.0
311.6796875,-43.9453125,-49.31640625,-33.203125,-32.2265625,7.32421875,0.0
311.68359375,-35.15625,-47.36328125,-40.0390625,-36.1328125,78.125,0.0
311.6875,-19.53125,-30.2734375,-30.2734375,-31.73828125,27.34375,0.0
311.69140625,-23.4375,-29.78515625,-36.1328125,-30.76171875,23.92578125,0.0
311.6953125,-40.52734375,-38.0859375,-47.8515625,-32.2265625,43.9453125,0.0
311.69921875,-49.31640625,-36.62109375,-37.109375,-41.015625,53.22265625,0.0
311.703125,-36.1328125,-36.1328125,-23.4375,-41.015625,53.22265625,0.0
311.70703125,-22.94921875,-36.62109375,-23.4375,-24.90234375,-5.37109375,0.0
311.7109375,-34.66796875,-38.57421875,-33.69140625,-25.390625,49.8046875,0.0
311.71484375,-46.38671875,-39.55078125,-33.203125,-29.296875,46.38671875,0.0
311.71875,-48.33984375,-39.0625,-30.76171875,-28.3203125,-6.8359375,0.0
311.72265625,-45.8984375,-36.1328125,-25.87890625,-33.203125,-14.6484375,0.0
311.7265625,-30.76171875,-34.1796875,-26.85546875,-32.2265625,-52.24609375,0.0
311.73046875,-31.73828125,-40.52734375,-32.2265625,-28.80859375,-36.1328125,0.0
311.734375,-46.875,-42.48046875,-30.76171875,-35.15625,-51.7578125,0.0
311.73828125,-49.31640625,-36.62109375,-30.76171875,-38.57421875,-45.8984375,0.0
311.7421875,-51.26953125,-36.1328125,-44.43359375,-40.0390625,-23.92578125,0.0
311.74609375,-41.9921875,-32.2265625,-34.1796875,-32.71484375,4.8828125,0.0
311.75,-36.62109375,-29.296875,-13.671875,-25.87890625,10.25390625,0.0
311.75390625,-52.734375,-27.34375,-21.484375,-30.76171875,-27.34375,0.0
311.7578125,-50.78125,-29.78515625,-36.62109375,-31.25,-34.1796875,0.0
311.76171875,-37.59765625,-37.109375,-34.66796875,-36.1328125,-55.17578125,0.0
311.765625,-31.73828125,-29.296875,-20.01953125,-33.203125,-52.734375,0.0
311.76953125,-39.0625,-30.76171875,-23.92578125,-38.57421875,31.73828125,0.0
311.7734375,-47.36328125,-42.96875,-31.73828125,-42.96875,6.8359375,0.0
311.77734375,-47.8515625,-40.0390625,-32.2265625,-31.73828125,-82.03125,0.0
311.78125,-24.4140625,-21.484375,-5.37109375,-11.71875,-79.1015625,0.0
311.78515625,-16.6015625,-27.34375,-12.6953125,-20.5078125,-65.4296875,0.0
311.7890625,-37.109375,-42.48046875,-53.22265625,-33.203125,-61.5234375,0.0
311.79296875,-39.0625,-34.1796875,-35.15625,-23.4375,-46.875,0.0
311.796875,-41.015625,-30.2734375,-15.625,-29.78515625,-88.37890625,0.0
311.80078125,-40.0390625,-33.203125,-32.71484375,-26.85546875,-125.0,0.0
311.8046875,-24.90234375,-37.59765625,-37.109375,-26.3671875,-114.74609375,0.0
311.80859375,-4.8828125,-32.2265625,-28.3203125,-24.90234375,-113.28125,0.0
311.8125,-7.8125,-25.390625,-23.92578125,-22.94921875,-105.46875,0.0
311.81640625,-38.57421875,-37.109375,-32.2265625,-35.64453125,-71.77734375,0.0
311.8203125,-46.875,-46.38671875,-34.1796875,-41.9921875,-32.2265625,0.0
311.82421875,-19.53125,-35.15625,-27.83203125,-33.69140625,-19.53125,0.0
311.828125,-21.97265625,-29.78515625,-37.59765625,-38.57421875,11.23046875,0.0
311.83203125,-34.1796875,-28.80859375,-39.55078125,-38.57421875,-34.1796875,0.0
311.8359375,-38.0859375,-25.87890625,-34.1796875,-28.80859375,-97.16796875,0.0
311.83984375,-44.43359375,-28.3203125,-31.73828125,-30.76171875,-87.890625,0.0
311.84375,-30.2734375,-23.92578125,-28.80859375,-33.203125,-69.3359375,0.0
311.84765625,-20.5078125,-26.3671875,-35.15625,-33.69140625,-31.73828125,0.0
311.8515625,-26.85546875,-33.69140625,-35.64453125,-25.390625,37.59765625,0.0
311.85546875,-47.8515625,-39.0625,-35.64453125,-29.296875,-29.78515625,0.0
311.859375,-57.12890625,-45.8984375,-36.1328125,-40.0390625,-17.08984375,0.0
311.86328125,-40.0390625,-41.015625,-26.3671875,-34.66796875,14.6484375,0.0
311.8671875,-32.2265625,-28.80859375,-20.01953125,-29.78515625,-67.87109375,0.0
311.87109375,-41.9921875,-33.69140625,-21.97265625,-33.203125,-30.76171875,0.0
311.875,-50.78125,-45.41015625,-28.3203125,-40.52734375,-88.37890625,0.0
311.87890625,-58.59375,-53.7109375,-40.0390625,-52.734375,-177.734375,0.0
311.8828125,-43.45703125,-41.50390625,-38.0859375,-55.6640625,-95.703125,0.0
311.88671875,-22.94921875,-30.2734375,-34.66796875,-45.41015625,-22.4609375,0.0
311.890625,-31.73828125,-38.0859375,-42.48046875,-46.38671875,-100.09765625,0.0
311.89453125,-41.015625,-34.66796875,-34.66796875,-46.38671875,-122.0703125,0.0
311.8984375,-36.1328125,-28.3203125,-21.97265625,-40.0390625,-58.59375,0.0
311.90234375,-34.1796875,-27.34375,-28.3203125,-45.8984375,-49.31640625,0.0
311.90625,-25.390625,-22.94921875,-34.66796875,-46.38671875,-0.48828125,0.0
311.91015625,-27.34375,-26.85546875,-37.59765625,-41.50390625,29.78515625,0.0
311.9140625,-42.96875,-37.109375,-26.3671875,-40.0390625,-50.78125,0.0
311.91796875,-49.8046875,-41.50390625,-15.625,-43.45703125,-75.68359375,0.0
311.921875,-35.64453125,-34.66796875,-25.390625,-43.45703125,-24.4140625,0.0
311.92578125,-6.34765625,-20.5078125,-23.92578125,-29.78515625,-2.9296875,0.0
311.9296875,-10.7421875,-19.53125,-23.92578125,-25.390625,-43.45703125,0.0
311.93359375,-35.64453125,-28.3203125,-37.109375,-35.64453125,-70.3125,0.0
311.9375,-40.52734375,-36.1328125,-35.15625,-39.55078125,0.9765625,0.0
311.94140625,-30.76171875,-31.73828125,-23.4375,-38.57421875,14.16015625,0.0
311.9453125,-4.8828125,-12.6953125,-1.46484375,-20.01953125,20.99609375,0.0
311.94921875,-8.7890625,-15.13671875,-8.30078125,-22.94921875,-33.69140625,0.0
311.953125,-34.66796875,-29.78515625,-31.73828125,-37.59765625,-82.51953125,0.0
311.95703125,-48.33984375,-41.9921875,-37.59765625,-42.96875,-94.23828125,0.0
311.9609375,-50.29296875,-46.38671875,-41.50390625,-49.8046875,-83.0078125,0.0
311.96484375,-38.57421875,-39.0625,-37.59765625,-41.9921875,-0.48828125,0.0
311.96875,-26.3671875,-35.64453125,-31.25,-36.1328125,19.53125,0.0
311.97265625,-34.66796875,-38.57421875,-27.34375,-30.2734375,36.62109375,0.0
311.9765625,-50.29296875,-37.109375,-24.4140625,-29.78515625,-9.27734375,0.0
311.98046875,-49.8046875,-45.41015625,-39.55078125,-43.45703125,-50.29296875,0.0
311.984375,-41.50390625,-37.59765625,-43.45703125,-42.96875,-25.87890625,0.0
311.98828125,-35.64453125,-22.94921875,-13.18359375,-28.3203125,-20.99609375,0.0
311.9921875,-42.48046875,-28.80859375,-1.46484375,-25.390625,-20.5078125,0.0
311.99609375,-59.5703125,-45.8984375,-25.390625,-33.203125,65.4296875,0.0
312.0,-62.01171875,-46.38671875,-35.64453125,-34.66796875,105.95703125,0.0
312.00390625,-40.0390625,-34.1796875,-36.1328125,-34.66796875,30.76171875,0.0
312.0078125,-26.85546875,-33.203125,-41.9921875,-35.64453125,47.36328125,0.0
312.01171875,-28.80859375,-34.66796875,-41.015625,-31.73828125,102.05078125,0.0
312.015625,-31.73828125,-27.83203125,-34.66796875,-25.390625,5.37109375,0.0
312.01953125,-38.0859375,-30.2734375,-35.15625,-28.80859375,-168.9453125,0.0
312.0234375,-24.90234375,-30.2734375,-22.94921875,-25.390625,-274.4140625,0.0
312.02734375,-9.765625,-31.25,-19.04296875,-20.99609375,-276.3671875,0.0
312.03125,-30.2734375,-33.69140625,-40.52734375,-36.1328125,-235.3515625,0.0
312.03515625,-39.55078125,-26.85546875,-24.90234375,-33.203125,-243.1640625,0.0
312.0390625,-19.53125,-18.5546875,-7.8125,-26.3671875,-200.1953125,0.0
312.04296875,-14.6484375,-24.90234375,-27.83203125,-37.109375,-167.96875,0.0
312.046875,-18.06640625,-27.83203125,-38.57421875,-39.55078125,-103.515625,0.0
312.05078125,-25.390625,-18.5546875,-39.55078125,-33.203125,-16.11328125,0.0
312.0546875,-43.9453125,-23.4375,-41.50390625,-34.1796875,-36.1328125,0.0
312.05859375,-54.6875,-34.1796875,-42.96875,-40.52734375,-57.12890625,0.0
312.0625,-41.50390625,-31.25,-42.48046875,-41.015625,-29.296875,0.0
312.06640625,-26.3671875,-25.390625,-41.50390625,-44.921875,-50.29296875,0.0
312.0703125,-29.78515625,-23.92578125,-36.62109375,-41.015625,-84.47265625,0.0
312.07421875,-48.828125,-35.15625,-50.78125,-43.9453125,-80.56640625,0.0
312.078125,-47.8515625,-35.64453125,-51.7578125,-49.8046875,-101.07421875,0.0
312.08203125,-20.5078125,-21.97265625,-22.4609375,-43.45703125,-61.5234375,0.0
312.0859375,-7.32421875,-28.3203125,-31.25,-42.96875,6.34765625,0.0
312.08984375,-23.4375,-34.1796875,-43.45703125,-40.52734375,86.42578125,0.0
312.09375,-37.109375,-28.3203125,-31.73828125,-34.66796875,112.3046875,0.0
312.09765625,-41.015625,-37.109375,-30.2734375,-32.2265625,68.84765625,0.0
312.1015625,-33.69140625,-41.50390625,-35.64453125,-26.85546875,17.578125,0.0
312.10546875,-19.04296875,-29.78515625,-38.0859375,-21.97265625,-30.2734375,0.0
312.109375,-20.99609375,-19.53125,-35.15625,-24.4140625,-42.48046875,0.0
312.11328125,-30.76171875,-24.4140625,-28.80859375,-26.85546875,-106.93359375,0.0
312.1171875,-44.43359375,-28.3203125,-36.1328125,-32.2265625,-184.5703125,0.0
312.12109375,-45.41015625,-38.0859375,-48.828125,-51.7578125,-186.03515625,0.0
312.125,-23.4375,-33.203125,-32.71484375,-37.59765625,-104.00390625,0.0
312.12890625,-18.06640625,-24.90234375,-25.390625,-20.01953125,-76.66015625,0.0
312.1328125,-36.62109375,-37.59765625,-39.0625,-33.69140625,-40.52734375,0.0
312.13671875,-43.9453125,-33.203125,-36.1328125,-32.2265625,25.87890625,0.0
312.140625,-33.203125,-23.4375,-32.71484375,-28.80859375,16.6015625,0.0
312.14453125,-17.578125,-26.85546875,-22.4609375,-27.34375,46.38671875,0.0
312.1484375,-13.18359375,-29.78515625,-17.08984375,-26.3671875,73.73046875,0.0
312.15234375,-22.94921875,-26.85546875,-19.53125,-25.390625,59.5703125,0.0
312.15625,-42.96875,-40.0390625,-22.94921875,-34.1796875,126.953125,0.0
312.16015625,-44.43359375,-46.875,-35.15625,-44.43359375,101.07421875,0.0
312.1640625,-21.97265625,-35.64453125,-36.1328125,-35.64453125,64.94140625,0.0
312.16796875,-6.34765625,-30.2734375,-26.3671875,-22.94921875,83.984375,0.0
312.171875,-3.41796875,-24.90234375,-20.5078125,-16.6015625,62.98828125,0.0
312.17578125,-22.94921875,-28.80859375,-32.2265625,-24.4140625,65.91796875,0.0
312.1796875,-37.109375,-32.71484375,-39.55078125,-38.0859375,18.06640625,0.0
312.18359375,-32.2265625,-32.2265625,-35.64453125,-41.015625,-58.59375,0.0
312.1875,-23.92578125,-27.34375,-31.73828125,-31.25,-5.37109375,0.0
312.19140625,-36.62109375,-30.2734375,-43.9453125,-28.3203125,17.08984375,0.0
312.1953125,-46.875,-38.57421875,-39.55078125,-32.2265625,55.17578125,0.0
312.19921875,-43.9453125,-42.96875,-24.4140625,-34.66796875,-21.97265625,0.0
312.203125,-37.109375,-43.9453125,-28.80859375,-39.0625,-82.03125,0.0
312.20703125,-28.80859375,-37.109375,-28.3203125,-41.50390625,24.90234375,0.0
312.2109375,-41.9921875,-32.71484375,-23.4375,-42.48046875,-21.97265625,0.0
312.21484375,-53.22265625,-36.62109375,-18.06640625,-34.66796875,-68.84765625,0.0
312.21875,-48.33984375,-36.1328125,-22.4609375,-28.80859375,-8.30078125,0.0
312.22265625,-42.96875,-36.62109375,-34.66796875,-33.203125,-7.32421875,0.0
312.2265625,-26.3671875,-32.71484375,-29.78515625,-27.34375,20.99609375,0.0
312.23046875,-22.94921875,-20.5078125,-24.90234375,-22.94921875,61.5234375,0.0
312.234375,-39.0625,-22.4609375,-29.78515625,-27.34375,-54.19921875,0.0
312.23828125,-40.52734375,-31.73828125,-35.15625,-27.83203125,-125.9765625,0.0
312.2421875,-24.90234375,-35.15625,-34.66796875,-32.71484375,-111.328125,0.0
312.24609375,-5.859375,-30.76171875,-29.78515625,-36.1328125,-90.33203125,0.0
312.25,4.39453125,-20.01953125,-28.3203125,-28.80859375,-32.2265625,0.0
312.25390625,-7.8125,-18.5546875,-36.1328125,-24.90234375,-49.31640625,0.0
312.2578125,-25.87890625,-30.2734375,-31.25,-35.64453125,-92.7734375,0.0
312.26171875,-13.671875,-40.0390625,-15.13671875,-40.0390625,-59.5703125,0.0
312.265625,-5.859375,-45.41015625,-27.83203125,-40.52734375,0.0,0.0
312.26953125,-6.34765625,-35.64453125,-32.2265625,-32.71484375,-40.0390625,0.0
312.2734375,-22.4609375,-24.4140625,-25.87890625,-20.5078125,-53.22265625,0.0
312.27734375,-46.38671875,-34.66796875,-22.4609375,-25.390625,-3.41796875,0.0
312.28125,-33.69140625,-40.0390625,-17.578125,-31.25,-42.96875,0.0
312.28515625,-27.34375,-39.55078125,-21.97265625,-42.48046875,-77.1484375,0.0
312.2890625,-33.203125,-40.0390625,-36.1328125,-41.9921875,-0.48828125,0.0
312.29296875,-39.55078125,-30.76171875,-39.55078125,-26.3671875,13.671875,0.0
312.296875,-49.8046875,-32.2265625,-24.90234375,-30.76171875,-96.19140625,0.0
312.30078125,-47.8515625,-33.69140625,-16.11328125,-36.1328125,-131.34765625,0.0
312.3046875,-33.203125,-29.296875,-20.99609375,-37.109375,-88.37890625,0.0
312.30859375,-15.625,-28.80859375,-23.92578125,-30.76171875,-14.6484375,0.0
312.3125,-30.76171875,-31.25,-24.90234375,-29.78515625,-0.48828125,0.0
312.31640625,-45.41015625,-37.59765625,-25.87890625,-32.71484375,-113.76953125,0.0
312.3203125,-29.78515625,-38.0859375,-21.97265625,-33.203125,-117.67578125,0.0
312.32421875,-25.87890625,-36.1328125,-25.87890625,-35.64453125,-120.60546875,0.0
312.328125,-24.4140625,-25.87890625,-26.85546875,-27.34375,-179.19921875,0.0
312.33203125,-31.73828125,-25.87890625,-25.390625,-23.4375,-178.22265625,0.0
312.3359375,-47.8515625,-30.2734375,-36.62109375,-27.34375,-130.859375,0.0
312.33984375,-49.8046875,-31.73828125,-50.29296875,-26.85546875,-106.4453125,0.0
312.34375,-34.1796875,-28.80859375,-40.52734375,-25.390625,-64.453125,0.0
312.34765625,-17.578125,-21.97265625,-21.484375,-24.4140625,45.8984375,0.0
312.3515625,-30.76171875,-25.87890625,-23.4375,-26.85546875,42.96875,0.0
312.35546875,-47.8515625,-29.78515625,-26.85546875,-23.4375,-19.04296875,0.0
312.359375,-44.921875,-28.80859375,-19.53125,-24.4140625,-25.390625,0.0
312.36328125,-27.83203125,-36.1328125,-26.3671875,-33.203125,32.71484375,0.0
312.3671875,-21.97265625,-38.57421875,-35.15625,-37.109375,78.125,0.0
312.37109375,-32.71484375,-27.83203125,-31.25,-33.69140625,52.24609375,0.0
312.375,-49.8046875,-26.3671875,-33.69140625,-33.203125,10.25390625,0.0
312.37890625,-52.734375,-29.78515625,-33.69140625,-31.25,-40.0390625,0.0
312.3828125,-41.50390625,-36.1328125,-30.2734375,-31.73828125,-50.78125,0.0
312.38671875,-28.3203125,-33.203125,-26.3671875,-26.85546875,-5.37109375,0.0
312.390625,-26.3671875,-29.78515625,-23.92578125,-23.4375,-20.99609375,0.0
312.39453125,-44.921875,-42.96875,-37.59765625,-34.1796875,-44.921875,0.0
312.3984375,-46.875,-39.0625,-33.69140625,-37.59765625,-19.53125,0.0
312.40234375,-31.25,-30.2734375,-26.3671875,-35.15625,-78.125,0.0
312.40625,-24.90234375,-34.66796875,-36.62109375,-34.1796875,-74.21875,0.0
312.41015625,-32.71484375,-33.69140625,-36.1328125,-32.2265625,27.83203125,0.0
312.4140625,-46.38671875,-36.62109375,-25.87890625,-34.1796875,38.0859375,0.0
312.41796875,-55.6640625,-46.875,-34.1796875,-38.57421875,-73.2421875,0.0
312.421875,-47.36328125,-40.0390625,-39.0625,-38.0859375,-75.1953125,0.0
312.42578125,-31.25,-28.80859375,-33.69140625,-36.1328125,26.85546875,0.0
312.4296875,-32.2265625,-28.80859375,-35.64453125,-39.55078125,62.01171875,0.0
312.43359375,-49.31640625,-32.2265625,-34.66796875,-41.50390625,37.109375,0.0
312.4375,-57.6171875,-33.203125,-28.80859375,-40.0390625,2.9296875,0.0
312.44140625,-57.12890625,-38.57421875,-41.015625,-43.9453125,-10.25390625,0.0
312.4453125,-42.48046875,-33.203125,-41.50390625,-42.96875,-51.7578125,0.0
312.44921875,-40.52734375,-29.296875,-39.0625,-40.52734375,-83.984375,0.0
312.453125,-51.7578125,-38.57421875,-40.0390625,-44.43359375,-46.38671875,0.0
312.45703125,-57.12890625,-40.0390625,-30.2734375,-43.9453125,-61.03515625,0.0
312.4609375,-46.38671875,-35.15625,-36.1328125,-45.41015625,-62.98828125,0.0
312.46484375,-33.69140625,-33.69140625,-38.57421875,-52.734375,20.5078125,0.0
312.46875,-31.73828125,-31.25,-33.69140625,-51.7578125,12.20703125,0.0
312.47265625,-30.76171875,-31.25,-34.1796875,-39.55078125,-43.9453125,0.0
312.4765625,-44.43359375,-33.69140625,-35.64453125,-34.1796875,-0.48828125,0.0
312.48046875,-49.31640625,-51.26953125,-34.1796875,-41.9921875,-55.17578125,0.0
312.484375,-36.62109375,-49.8046875,-26.3671875,-41.015625,-3.90625,0.0
312.48828125,-33.69140625,-33.203125,-21.484375,-31.25,117.67578125,0.0
312.4921875,-33.203125,-33.203125,-24.4140625,-31.73828125,21.97265625,0.0
312.49609375,-43.45703125,-41.50390625,-24.4140625,-40.52734375,-20.99609375,0.0
312.5,-42.96875,-39.0625,-9.765625,-36.1328125,-42.48046875,0.0
312.50390625,-30.2734375,-35.15625,-14.16015625,-37.109375,-82.51953125,0.0
312.5078125,-23.92578125,-37.59765625,-26.85546875,-43.9453125,-40.0390625,0.0
312.51171875,-29.296875,-22.4609375,-23.4375,-33.203125,-7.8125,0.0
312.515625,-46.38671875,-27.34375,-33.203125,-38.57421875,21.97265625,0.0
312.51953125,-47.8515625,-38.57421875,-42.96875,-48.828125,16.6015625,0.0
312.5234375,-33.69140625,-33.69140625,-41.50390625,-39.55078125,-45.41015625,0.0
312.52734375,-20.5078125,-32.2265625,-31.25,-29.296875,-29.78515625,0.0
312.53125,-27.83203125,-30.76171875,-28.3203125,-23.4375,27.34375,0.0
312.53515625,-46.38671875,-39.0625,-28.3203125,-25.390625,-65.91796875,0.0
312.5390625,-48.33984375,-41.50390625,-31.25,-33.69140625,-118.1640625,0.0
312.54296875,-23.4375,-27.34375,-21.97265625,-26.3671875,-36.1328125,0.0
312.546875,-15.625,-27.83203125,-8.7890625,-20.5078125,-24.90234375,0.0
312.55078125,-28.3203125,-34.1796875,-15.13671875,-20.01953125,-62.01171875,0.0
312.5546875,-36.1328125,-36.62109375,-14.6484375,-16.11328125,-126.46484375,0.0
312.55859375,-40.0390625,-45.41015625,-17.578125,-18.06640625,-106.4453125,0.0
312.5625,-25.390625,-45.41015625,-24.4140625,-27.83203125,-23.92578125,0.0
312.56640625,-22.94921875,-39.0625,-27.83203125,-33.203125,19.04296875,0.0
312.5703125,-32.71484375,-40.52734375,-24.4140625,-26.3671875,5.37109375,0.0
312.57421875,-36.1328125,-33.203125,-20.01953125,-20.5078125,-38.57421875,0.0
312.578125,-36.62109375,-29.296875,-23.4375,-22.94921875,-93.26171875,0.0
312.58203125,-26.3671875,-32.71484375,-30.2734375,-30.76171875,-163.0859375,0.0
312.5859375,-16.11328125,-27.83203125,-33.203125,-31.73828125,-72.265625,0.0
312.58984375,-9.27734375,-14.6484375,-14.6484375,-11.23046875,-35.15625,0.0
312.59375,-18.06640625,-10.7421875,-2.9296875,-3.41796875,-62.98828125,0.0
312.59765625,-47.36328125,-24.4140625,-22.4609375,-26.85546875,-11.23046875,0.0
312.6015625,-51.26953125,-26.85546875,-26.85546875,-39.0625,-31.25,0.0
312.60546875,-34.66796875,-27.83203125,-28.80859375,-40.0390625,8.7890625,0.0
312.609375,-35.64453125,-34.66796875,-35.64453125,-36.62109375,64.94140625,0.0
312.61328125,-46.875,-34.66796875,-38.0859375,-39.0625,52.734375,0.0
312.6171875,-49.8046875,-31.25,-39.0625,-33.69140625,-37.109375,0.0
312.62109375,-41.015625,-30.2734375,-35.15625,-25.390625,-53.7109375,0.0
312.625,-34.1796875,-39.55078125,-35.64453125,-31.25,44.43359375,0.0
312.62890625,-31.73828125,-40.52734375,-31.73828125,-33.203125,19.04296875,0.0
312.6328125,-35.15625,-36.62109375,-23.4375,-30.76171875,-51.26953125,0.0
312.63671875,-42.48046875,-39.0625,-31.73828125,-33.69140625,-75.68359375,0.0
312.640625,-44.921875,-43.45703125,-44.921875,-42.96875,-82.03125,0.0
312.64453125,-40.0390625,-40.52734375,-42.48046875,-43.45703125,-40.0390625,0.0
312.6484375,-32.71484375,-32.2265625,-23.4375,-38.57421875,18.5546875,0.0
312.65234375,-33.203125,-32.2265625,-16.6015625,-30.2734375,-11.71875,0.0
312.65625,-45.8984375,-46.38671875,-36.62109375,-29.296875,-92.28515625,0.0
312.66015625,-45.41015625,-47.8515625,-35.64453125,-36.62109375,-143.5546875,0.0
312.6640625,-27.83203125,-39.0625,-23.92578125,-35.15625,-121.58203125,0.0
312.66796875,-17.578125,-28.80859375,-19.53125,-28.80859375,-46.38671875,0.0
312.671875,-22.4609375,-24.4140625,-17.08984375,-22.94921875,-7.8125,0.0
312.67578125,-37.59765625,-33.69140625,-26.85546875,-30.76171875,-66.40625,0.0
312.6796875,-43.9453125,-34.66796875,-32.2265625,-36.1328125,-92.7734375,0.0
312.68359375,-29.296875,-34.66796875,-31.73828125,-40.0390625,-58.10546875,0.0
312.6875,-16.6015625,-38.0859375,-34.1796875,-37.109375,-7.8125,0.0
312.69140625,-31.25,-39.55078125,-40.0390625,-39.55078125,10.25390625,0.0
312.6953125,-40.52734375,-33.69140625,-12.20703125,-31.73828125,-90.33203125,0.0
312.69921875,-29.78515625,-26.85546875,-1.46484375,-24.90234375,-195.80078125,0.0
312.703125,-20.01953125,-32.71484375,-31.73828125,-38.0859375,-118.1640625,0.0
312.70703125,-9.27734375,-32.2265625,-41.50390625,-35.15625,33.69140625,0.0
312.7109375,-15.13671875,-26.85546875,-35.64453125,-26.3671875,20.5078125,0.0
312.71484375,-24.4140625,-25.87890625,-30.76171875,-23.4375,-105.95703125,0.0
312.71875,-29.78515625,-35.64453125,-41.015625,-40.52734375,-190.91796875,0.0
312.72265625,-24.4140625,-39.55078125,-43.45703125,-41.9921875,-201.66015625,0.0
312.7265625,-21.484375,-34.66796875,-42.48046875,-31.73828125,-104.00390625,0.0
312.73046875,-20.99609375,-28.80859375,-38.57421875,-27.83203125,19.53125,0.0
312.734375,-40.52734375,-35.15625,-49.8046875,-43.9453125,89.84375,0.0
312.73828125,-46.875,-28.80859375,-40.0390625,-45.41015625,45.8984375,0.0
312.7421875,-32.71484375,-24.90234375,-20.99609375,-32.2265625,-58.10546875,0.0
312.74609375,-31.25,-26.85546875,-42.48046875,-44.43359375,-16.11328125,0.0
312.75,-20.99609375,-12.6953125,-45.8984375,-42.48046875,35.15625,0.0
312.75390625,-29.296875,-21.484375,-32.71484375,-41.015625,-46.875,0.0
312.7578125,-50.29296875,-38.0859375,-38.57421875,-52.734375,-40.0390625,0.0
312.76171875,-49.8046875,-36.1328125,-53.22265625,-61.5234375,-6.8359375,0.0
312.765625,-28.80859375,-32.2265625,-49.31640625,-54.19921875,-20.01953125,0.0
312.76953125,-16.11328125,-28.80859375,-42.96875,-43.9453125,-26.85546875,0.0
312.7734375,-27.83203125,-30.2734375,-52.24609375,-41.015625,-36.1328125,0.0
312.77734375,-43.45703125,-37.59765625,-47.36328125,-41.015625,-45.8984375,0.0
312.78125,-35.64453125,-39.55078125,-39.0625,-56.15234375,-77.63671875,0.0
312.78515625,-8.7890625,-30.76171875,-15.13671875,-41.9921875,-99.12109375,0.0
312.7890625,-1.46484375,-24.90234375,-3.90625,-21.97265625,-127.9296875,0.0
312.79296875,-12.20703125,-22.4609375,-29.296875,-26.85546875,-97.16796875,0.0
312.796875,-20.01953125,-20.99609375,-27.34375,-28.3203125,-78.125,0.0
312.80078125,-35.15625,-33.203125,-25.390625,-31.25,-137.20703125,0.0
312.8046875,-26.85546875,-36.1328125,-29.78515625,-36.62109375,-45.41015625,0.0
312.80859375,-21.97265625,-31.73828125,-40.52734375,-37.59765625,26.3671875,0.0
312.8125,-35.15625,-27.34375,-37.109375,-29.296875,-67.87109375,0.0
312.81640625,-42.48046875,-28.3203125,-31.25,-30.76171875,-148.92578125,0.0
312.8203125,-39.55078125,-33.203125,-43.45703125,-38.57421875,-168.45703125,0.0
312.82421875,-19.04296875,-28.80859375,-43.9453125,-31.25,-77.1484375,0.0
312.828125,-6.34765625,-19.53125,-30.2734375,-25.390625,-53.7109375,0.0
312.83203125,-19.04296875,-22.94921875,-27.34375,-24.90234375,0.0,0.0
312.8359375,-38.0859375,-25.87890625,-33.69140625,-27.83203125,68.359375,0.0
312.83984375,-39.0625,-27.34375,-32.71484375,-32.71484375,-16.6015625,0.0
312.84375,-31.25,-32.71484375,-41.50390625,-33.203125,1.953125,0.0
312.84765625,-13.18359375,-24.4140625,-28.80859375,-29.296875,125.48828125,0.0
312.8515625,-18.5546875,-25.390625,-15.13671875,-27.34375,138.671875,0.0
312.85546875,-50.78125,-40.0390625,-22.94921875,-37.109375,21.97265625,0.0
312.859375,-49.8046875,-37.109375,-32.71484375,-41.9921875,-41.015625,0.0
312.86328125,-23.92578125,-31.25,-37.109375,-35.15625,-45.41015625,0.0
312.8671875,-14.6484375,-24.90234375,-29.78515625,-27.83203125,11.71875,0.0
312.87109375,-22.4609375,-19.04296875,-26.3671875,-21.97265625,8.30078125,0.0
312.875,-34.66796875,-22.94921875,-15.13671875,-21.97265625,-65.4296875,0.0
312.87890625,-41.50390625,-31.73828125,-13.18359375,-25.87890625,-12.6953125,0.0
312.8828125,-37.59765625,-39.0625,-36.1328125,-28.3203125,43.45703125,0.0
312.88671875,-32.2265625,-40.52734375,-40.52734375,-29.296875,0.0,0.0
312.890625,-35.64453125,-34.66796875,-33.69140625,-29.78515625,45.41015625,0.0
312.89453125,-43.45703125,-38.0859375,-34.66796875,-28.3203125,58.10546875,0.0
312.8984375,-43.45703125,-42.96875,-38.57421875,-27.83203125,-17.578125,0.0
312.90234375,-36.1328125,-34.66796875,-30.76171875,-38.57421875,-20.99609375,0.0
312.90625,-24.4140625,-26.3671875,-23.92578125,-37.59765625,-4.8828125,0.0
312.91015625,-16.11328125,-25.390625,-19.53125,-33.69140625,7.8125,0.0
312.9140625,-36.1328125,-30.76171875,-19.53125,-42.96875,26.3671875,0.0
312.91796875,-51.7578125,-38.57421875,-17.578125,-40.0390625,48.828125,0.0
312.921875,-41.015625,-39.0625,-22.4609375,-32.71484375,50.78125,0.0
312.92578125,-24.4140625,-33.203125,-31.25,-27.83203125,-0.9765625,0.0
312.9296875,-17.08984375,-31.25,-30.2734375,-25.87890625,-31.73828125,0.0
312.93359375,-28.3203125,-28.80859375,-21.484375,-20.01953125,-23.4375,0.0
312.9375,-46.38671875,-32.71484375,-19.04296875,-20.5078125,-39.0625,0.0
312.94140625,-46.38671875,-34.1796875,-26.85546875,-28.3203125,-21.484375,0.0
312.9453125,-25.390625,-25.390625,-32.2265625,-31.25,40.52734375,0.0
312.94921875,-21.484375,-26.85546875,-36.1328125,-31.25,34.1796875,0.0
312.953125,-38.0859375,-30.2734375,-33.69140625,-27.34375,43.9453125,0.0
312.95703125,-49.8046875,-37.109375,-29.296875,-31.25,-24.90234375,0.0
312.9609375,-44.43359375,-40.0390625,-27.83203125,-35.64453125,-93.75,0.0
312.96484375,-18.5546875,-24.90234375,-18.5546875,-30.76171875,-91.796875,0.0
312.96875,-8.7890625,-14.6484375,-19.53125,-28.80859375,-81.54296875,0.0
312.97265625,-26.3671875,-22.94921875,-31.73828125,-34.66796875,-13.18359375,0.0
312.9765625,-46.38671875,-36.62109375,-37.109375,-42.96875,-25.87890625,0.0
312.98046875,-32.2265625,-28.80859375,-29.296875,-29.78515625,-13.671875,0.0
312.984375,-15.625,-27.34375,-29.78515625,-27.34375,45.8984375,0.0
312.98828125,-17.578125,-33.69140625,-31.73828125,-34.1796875,27.34375,0.0
312.9921875,-21.97265625,-26.85546875,-24.90234375,-30.76171875,39.55078125,0.0
312.99609375,-29.296875,-29.78515625,-33.69140625,-29.296875,-63.96484375,0.0
313.0,-20.01953125,-27.83203125,-44.43359375,-30.2734375,-147.4609375,0.0
313.00390625,-4.8828125,-23.92578125,-46.38671875,-21.484375,-21.484375,0.0
313.0078125,-10.25390625,-27.83203125,-29.78515625,-18.5546875,28.3203125,0.0
313.01171875,-15.625,-22.4609375,-7.8125,-22.94921875,43.45703125,0.0
313.015625,-25.87890625,-20.99609375,-8.7890625,-16.6015625,10.7421875,0.0
313.01953125,-42.48046875,-39.55078125,-18.06640625,-31.25,-73.73046875,0.0
313.0234375,-34.1796875,-45.41015625,-18.5546875,-36.1328125,-98.6328125,0.0
313.02734375,-26.3671875,-38.57421875,-18.5546875,-29.78515625,-42.48046875,0.0
313.03125,-31.73828125,-31.25,-17.578125,-29.296875,-41.9921875,0.0
313.03515625,-43.9453125,-32.71484375,-19.04296875,-35.15625,-78.61328125,0.0
313.0390625,-50.78125,-41.50390625,-25.390625,-43.45703125,-39.0625,0.0
313.04296875,-32.71484375,-33.69140625,-25.87890625,-34.66796875,-71.2890625,0.0
313.046875,-20.5078125,-29.296875,-33.69140625,-38.57421875,-86.9140625,0.0
313.05078125,-28.80859375,-34.66796875,-43.9453125,-42.96875,-58.10546875,0.0
313.0546875,-40.52734375,-36.1328125,-41.015625,-33.203125,-68.84765625,0.0
313.05859375,-42.48046875,-37.109375,-38.57421875,-39.55078125,-82.03125,0.0
313.0625,-36.62109375,-37.59765625,-35.15625,-39.0625,-107.91015625,0.0
313.06640625,-20.5078125,-33.203125,-27.34375,-32.71484375,-97.65625,0.0
313.0703125,-12.20703125,-30.76171875,-26.3671875,-32.2265625,-15.625,0.0
313.07421875,-30.2734375,-36.1328125,-22.4609375,-28.80859375,21.484375,0.0
313.078125,-46.875,-38.57421875,-22.4609375,-31.73828125,-4.8828125,0.0
313.08203125,-34.1796875,-35.64453125,-24.4140625,-32.71484375,-51.26953125,0.0
313.0859375,-19.53125,-38.57421875,-26.85546875,-30.2734375,7.8125,0.0
313.08984375,-19.04296875,-34.66796875,-33.203125,-34.66796875,104.4921875,0.0
313.09375,-31.73828125,-36.62109375,-30.2734375,-35.64453125,36.62109375,0.0
313.09765625,-41.9921875,-43.45703125,-27.34375,-31.73828125,-94.23828125,0.0
313.1015625,-33.203125,-37.59765625,-34.66796875,-29.78515625,-114.74609375,0.0
313.10546875,-17.08984375,-31.25,-39.55078125,-29.296875,-57.6171875,0.0
313.109375,-11.71875,-26.85546875,-35.15625,-23.92578125,-58.10546875,0.0
313.11328125,-28.3203125,-33.203125,-25.87890625,-21.97265625,-86.42578125,0.0
313.1171875,-35.64453125,-40.52734375,-22.94921875,-23.92578125,-79.1015625,0.0
313.12109375,-24.90234375,-37.59765625,-29.296875,-28.3203125,-95.703125,0.0
313.125,-20.5078125,-33.69140625,-32.2265625,-31.73828125,-96.19140625,0.0
313.12890625,-13.18359375,-26.3671875,-34.1796875,-30.76171875,-25.87890625,0.0
313.1328125,-20.99609375,-23.92578125,-27.34375,-27.83203125,9.27734375,0.0
313.13671875,-32.71484375,-34.1796875,-16.11328125,-32.71484375,-110.3515625,0.0
313.140625,-25.87890625,-38.57421875,-22.94921875,-44.43359375,-131.34765625,0.0
313.14453125,-20.5078125,-37.109375,-24.4140625,-47.8515625,-62.01171875,0.0
313.1484375,-14.6484375,-30.2734375,-18.06640625,-36.1328125,-47.8515625,0.0
313.15234375,-23.92578125,-26.85546875,-27.34375,-27.83203125,-95.703125,0.0
313.15625,-40.0390625,-31.25,-27.83203125,-36.1328125,-91.30859375,0.0
313.16015625,-46.875,-36.62109375,-23.92578125,-37.109375,-59.5703125,0.0
313.1640625,-39.55078125,-32.71484375,-23.92578125,-26.85546875,-74.70703125,0.0
313.16796875,-24.4140625,-21.484375,-22.4609375,-17.08984375,-41.015625,0.0
313.171875,-37.59765625,-32.71484375,-24.4140625,-22.94921875,-62.5,0.0
313.17578125,-48.33984375,-44.921875,-31.73828125,-28.80859375,-104.4921875,0.0
313.1796875,-40.0390625,-36.62109375,-34.66796875,-27.83203125,-135.7421875,0.0
313.18359375,-25.87890625,-33.203125,-35.64453125,-31.73828125,-113.28125,0.0
313.1875,-21.97265625,-26.3671875,-28.3203125,-19.53125,-31.73828125,0.0
313.19140625,-31.73828125,-19.53125,-18.5546875,-9.765625,-23.4375,0.0
313.1953125,-43.45703125,-28.3203125,-20.01953125,-20.01953125,-77.1484375,0.0
313.19921875,-54.19921875,-40.0390625,-31.25,-34.66796875,-70.3125,0.0
313.203125,-28.80859375,-36.1328125,-34.66796875,-31.25,-39.55078125,0.0
313.20703125,-22.4609375,-34.1796875,-30.2734375,-28.3203125,-99.12109375,0.0
313.2109375,-39.0625,-31.73828125,-25.390625,-23.4375,-59.08203125,0.0
313.21484375,-49.31640625,-29.78515625,-28.80859375,-19.53125,26.85546875,0.0
313.21875,-59.5703125,-37.109375,-34.66796875,-29.296875,-11.23046875,0.0
313.22265625,-51.7578125,-33.203125,-26.85546875,-32.71484375,-54.19921875,0.0
313.2265625,-43.45703125,-34.1796875,-33.69140625,-35.15625,-41.50390625,0.0
313.23046875,-40.0390625,-37.59765625,-43.9453125,-31.25,46.38671875,0.0
313.234375,-50.29296875,-35.15625,-41.015625,-24.4140625,51.26953125,0.0
313.23828125,-63.96484375,-38.0859375,-36.62109375,-34.66796875,-40.52734375,0.0
313.2421875,-50.29296875,-36.62109375,-35.15625,-47.8515625,-81.54296875,0.0
313.24609375,-33.203125,-32.71484375,-32.2265625,-44.921875,-52.734375,0.0
313.25,-32.71484375,-29.296875,-31.73828125,-34.1796875,-14.16015625,0.0
313.25390625,-49.8046875,-37.59765625,-33.203125,-36.62109375,3.90625,0.0
313.2578125,-57.12890625,-45.8984375,-29.296875,-46.38671875,-19.53125,0.0
313.26171875,-40.0390625,-41.9921875,-28.80859375,-39.0625,-104.00390625,0.0
313.265625,-20.99609375,-39.0625,-32.71484375,-32.2265625,-62.5,0.0
313.26953125,-18.06640625,-35.15625,-36.62109375,-32.2265625,27.83203125,0.0
313.2734375,-27.83203125,-31.73828125,-32.71484375,-28.80859375,52.24609375,0.0
313.27734375,-37.109375,-33.203125,-33.69140625,-31.73828125,30.2734375,0.0
313.28125,-40.52734375,-35.15625,-44.43359375,-40.0390625,5.37109375,0.0
313.28515625,-20.01953125,-24.4140625,-42.48046875,-35.15625,2.9296875,0.0
313.2890625,-17.578125,-15.13671875,-41.9921875,-27.83203125,-2.44140625,0.0
313.29296875,-44.921875,-30.2734375,-38.57421875,-31.25,10.25390625,0.0
313.296875,-55.17578125,-41.9921875,-26.85546875,-39.0625,-6.8359375,0.0
313.30078125,-46.38671875,-35.64453125,-37.59765625,-45.8984375,-83.49609375,0.0
313.3046875,-26.3671875,-29.296875,-44.921875,-35.64453125,-98.6328125,0.0
313.30859375,-17.578125,-27.34375,-31.73828125,-20.99609375,-62.5,0.0
313.3125,-36.1328125,-26.85546875,-22.94921875,-25.87890625,-130.37109375,0.0
313.31640625,-48.828125,-30.76171875,-20.01953125,-31.73828125,-222.16796875,0.0
313.3203125,-48.828125,-38.0859375,-25.390625,-38.57421875,-169.43359375,0.0
313.32421875,-44.921875,-41.015625,-28.3203125,-41.015625,-5.37109375,0.0
313.328125,-34.66796875,-31.25,-24.90234375,-32.71484375,58.59375,0.0
313.33203125,-43.9453125,-32.71484375,-24.90234375,-33.69140625,13.18359375,0.0
313.3359375,-55.6640625,-41.50390625,-28.3203125,-30.2734375,-31.73828125,0.0
313.33984375,-48.33984375,-35.15625,-20.99609375,-28.80859375,-14.6484375,0.0
313.34375,-29.78515625,-27.83203125,-11.23046875,-30.2734375,28.3203125,0.0
313.34765625,-16.11328125,-28.3203125,-21.484375,-29.296875,55.17578125,0.0
313.3515625,-20.01953125,-28.80859375,-28.3203125,-31.25,14.16015625,0.0
313.35546875,-36.62109375,-36.1328125,-24.90234375,-32.71484375,-70.3125,0.0
313.359375,-48.828125,-42.48046875,-24.4140625,-38.0859375,-187.01171875,0.0
313.36328125,-35.64453125,-41.9921875,-33.69140625,-43.9453125,-242.1875,0.0
313.3671875,-20.01953125,-36.62109375,-31.73828125,-43.9453125,-209.47265625,0.0
313.37109375,-27.83203125,-31.25,-22.94921875,-39.0625,-115.72265625,0.0
313.375,-45.8984375,-35.64453125,-30.76171875,-39.0625,4.39453125,0.0
313.37890625,-46.38671875,-38.0859375,-33.69140625,-37.59765625,29.78515625,0.0
313.3828125,-36.1328125,-36.1328125,-29.296875,-32.71484375,-0.9765625,0.0
313.38671875,-23.4375,-37.59765625,-36.1328125,-34.66796875,34.1796875,0.0
313.390625,-22.94921875,-32.2265625,-32.2265625,-32.71484375,121.58203125,0.0
313.39453125,-31.25,-24.90234375,-21.97265625,-20.99609375,60.05859375,0.0
313.3984375,-23.4375,-25.390625,-19.53125,-19.53125,-65.4296875,0.0
313.40234375,-13.18359375,-20.5078125,-21.484375,-22.4609375,-35.64453125,0.0
313.40625,-11.71875,-23.92578125,-25.87890625,-27.34375,14.6484375,0.0
313.41015625,-17.08984375,-24.4140625,-16.6015625,-22.4609375,-52.24609375,0.0
313.4140625,-33.69140625,-24.4140625,-13.671875,-23.4375,-49.31640625,0.0
313.41796875,-46.38671875,-37.59765625,-23.4375,-37.109375,13.671875,0.0
313.421875,-42.48046875,-35.15625,-33.69140625,-41.9921875,-37.59765625,0.0
313.42578125,-31.25,-30.76171875,-31.73828125,-41.50390625,-44.43359375,0.0
313.4296875,-30.2734375,-30.2734375,-21.97265625,-35.64453125,-68.359375,0.0
313.43359375,-38.0859375,-33.69140625,-18.5546875,-27.83203125,-97.16796875,0.0
313.4375,-42.96875,-41.015625,-18.5546875,-26.3671875,-58.59375,0.0
313.44140625,-38.57421875,-41.015625,-19.53125,-31.73828125,4.8828125,0.0
313.4453125,-21.97265625,-26.85546875,-7.32421875,-28.3203125,33.203125,0.0
313.44921875,-14.16015625,-12.20703125,-13.671875,-18.5546875,49.31640625,0.0
313.453125,-26.85546875,-14.16015625,-35.15625,-15.13671875,26.85546875,0.0
313.45703125,-47.8515625,-28.3203125,-33.69140625,-16.11328125,-42.96875,0.0
313.4609375,-42.48046875,-31.25,-25.390625,-21.97265625,-46.875,0.0
313.46484375,-12.20703125,-23.4375,-16.6015625,-26.85546875,15.13671875,0.0
313.46875,-8.7890625,-21.484375,-18.5546875,-30.76171875,96.19140625,0.0
313.47265625,-24.90234375,-24.90234375,-16.6015625,-26.3671875,80.078125,0.0
313.4765625,-42.48046875,-37.59765625,-22.4609375,-31.25,-34.66796875,0.0
313.48046875,-35.64453125,-39.0625,-40.0390625,-39.0625,-50.78125,0.0
313.484375,-6.8359375,-23.92578125,-41.50390625,-30.2734375,-41.50390625,0.0
313.48828125,3.41796875,-20.99609375,-21.97265625,-23.4375,-93.75,0.0
313.4921875,-6.34765625,-19.53125,-15.625,-24.4140625,-107.91015625,0.0
313.49609375,-25.87890625,-26.85546875,-35.15625,-28.80859375,-80.56640625,0.0
313.5,-27.34375,-27.83203125,-37.59765625,-30.2734375,-109.375,0.0
313.50390625,-10.7421875,-28.80859375,-41.50390625,-32.2265625,-78.61328125,0.0
313.5078125,-9.765625,-35.15625,-46.875,-30.2734375,19.04296875,0.0
313.51171875,-33.69140625,-36.1328125,-41.50390625,-28.3203125,26.85546875,0.0
313.515625,-44.43359375,-38.57421875,-36.1328125,-36.62109375,56.640625,0.0
313.51953125,-41.015625,-39.55078125,-38.0859375,-48.33984375,39.0625,0.0
313.5234375,-30.2734375,-35.64453125,-36.1328125,-44.43359375,-36.62109375,0.0
313.52734375,-22.4609375,-27.83203125,-37.59765625,-42.96875,23.4375,0.0
313.53125,-31.25,-21.97265625,-41.50390625,-42.96875,69.82421875,0.0
313.53515625,-28.3203125,-18.5546875,-22.4609375,-28.3203125,71.2890625,0.0
313.5390625,-20.99609375,-25.87890625,-13.18359375,-26.85546875,44.921875,0.0
313.54296875,-20.99609375,-41.9921875,-33.69140625,-40.52734375,-48.33984375,0.0
313.546875,-9.765625,-30.2734375,-33.69140625,-35.64453125,-13.671875,0.0
313.55078125,-12.20703125,-16.11328125,-28.80859375,-23.4375,25.390625,0.0
313.5546875,-35.64453125,-31.25,-41.50390625,-30.76171875,-2.9296875,0.0
313.55859375,-41.50390625,-37.59765625,-48.33984375,-37.59765625,-106.4453125,0.0
313.5625,-26.85546875,-28.3203125,-46.38671875,-37.109375,-119.140625,0.0
313.56640625,-19.04296875,-32.71484375,-39.0625,-39.0625,43.9453125,0.0
313.5703125,-15.13671875,-32.2265625,-34.1796875,-34.66796875,65.4296875,0.0
313.57421875,-26.3671875,-23.4375,-41.015625,-39.0625,28.3203125,0.0
313.578125,-30.76171875,-22.4609375,-21.97265625,-39.55078125,5.37109375,0.0
313.58203125,-11.23046875,-21.484375,0.48828125,-23.4375,-95.703125,0.0
313.5859375,-9.765625,-28.80859375,-19.53125,-30.2734375,-82.03125,0.0
313.58984375,-13.671875,-24.90234375,-28.80859375,-34.1796875,-18.06640625,0.0
313.59375,-25.87890625,-25.87890625,-26.85546875,-28.80859375,-63.96484375,0.0
313.59765625,-45.8984375,-31.73828125,-34.66796875,-34.1796875,-86.9140625,0.0
313.6015625,-41.9921875,-30.76171875,-33.69140625,-35.15625,-51.7578125,0.0
313.60546875,-13.18359375,-21.97265625,-25.87890625,-25.87890625,3.41796875,0.0
313.609375,-13.671875,-12.20703125,-32.2265625,-24.4140625,-35.15625,0.0
313.61328125,-40.52734375,-19.53125,-39.55078125,-26.85546875,-83.49609375,0.0
313.6171875,-42.48046875,-28.3203125,-40.0390625,-29.296875,-89.84375,0.0
313.62109375,-32.71484375,-28.80859375,-38.57421875,-31.25,-48.33984375,0.0
313.625,-11.71875,-12.20703125,-15.13671875,-18.5546875,-23.4375,0.0
313.62890625,-1.953125,-10.25390625,-7.32421875,-12.20703125,31.25,0.0
313.6328125,-25.390625,-27.83203125,-25.390625,-23.92578125,38.57421875,0.0
313.63671875,-31.25,-28.3203125,-26.3671875,-27.83203125,-41.9921875,0.0
313.640625,-28.3203125,-28.80859375,-29.78515625,-31.25,-22.4609375,0.0
313.64453125,-22.4609375,-29.78515625,-40.0390625,-38.0859375,-11.23046875,0.0
313.6484375,-19.04296875,-29.296875,-38.0859375,-43.9453125,-35.15625,0.0
313.65234375,-40.0390625,-38.0859375,-33.69140625,-44.921875,-69.82421875,0.0
313.65625,-54.6875,-45.41015625,-34.66796875,-47.36328125,-81.54296875,0.0
313.66015625,-47.36328125,-37.59765625,-29.78515625,-42.96875,-56.15234375,0.0
313.6640625,-31.73828125,-31.73828125,-33.203125,-42.48046875,-52.734375,0.0
313.66796875,-18.5546875,-26.85546875,-33.69140625,-28.80859375,-125.48828125,0.0
313.671875,-20.5078125,-25.390625,-26.3671875,-16.11328125,-152.83203125,0.0
313.67578125,-48.828125,-40.52734375,-29.78515625,-32.2265625,-148.4375,0.0
313.6796875,-55.17578125,-41.015625,-30.76171875,-39.0625,-113.76953125,0.0
313.68359375,-38.57421875,-28.3203125,-25.87890625,-31.73828125,-111.328125,0.0
313.6875,-28.80859375,-32.2265625,-21.97265625,-27.34375,-93.26171875,0.0
313.69140625,-34.66796875,-41.9921875,-26.3671875,-32.2265625,-66.40625,0.0
313.6953125,-55.17578125,-43.9453125,-37.109375,-35.64453125,-47.8515625,0.0
313.69921875,-54.6875,-38.57421875,-33.69140625,-30.76171875,16.11328125,0.0
313.703125,-34.66796875,-31.25,-28.3203125,-35.15625,13.18359375,0.0
313.70703125,-31.25,-29.296875,-28.3203125,-40.0390625,-46.875,0.0
313.7109375,-32.2265625,-30.76171875,-28.80859375,-29.78515625,-52.24609375,0.0
313.71484375,-32.2265625,-26.3671875,-24.4140625,-16.6015625,-3.90625,0.0
313.71875,-51.26953125,-36.62109375,-20.5078125,-27.83203125,-1.953125,0.0
313.72265625,-45.41015625,-47.8515625,-29.78515625,-48.33984375,2.44140625,0.0
313.7265625,-20.5078125,-34.1796875,-35.64453125,-40.0390625,15.625,0.0
313.73046875,-21.97265625,-26.85546875,-31.25,-27.34375,61.03515625,0.0
313.734375,-41.50390625,-33.203125,-31.25,-35.15625,33.203125,0.0
313.73828125,-56.15234375,-46.875,-39.55078125,-42.48046875,-12.20703125,0.0
313.7421875,-46.38671875,-49.31640625,-41.9921875,-41.50390625,14.16015625,0.0
313.74609375,-24.90234375,-31.73828125,-39.0625,-35.15625,-24.4140625,0.0
313.75,-17.08984375,-22.94921875,-31.25,-22.94921875,-21.484375,0.0
313.75390625,-40.0390625,-34.66796875,-30.2734375,-30.2734375,41.015625,0.0
313.7578125,-50.78125,-30.76171875,-27.34375,-32.2265625,36.62109375,0.0
313.76171875,-30.2734375,-18.06640625,-20.01953125,-22.4609375,74.70703125,0.0
313.765625,-28.80859375,-26.85546875,-27.34375,-36.62109375,62.01171875,0.0
313.76953125,-36.1328125,-31.25,-38.57421875,-40.0390625,0.48828125,0.0
313.7734375,-38.0859375,-27.34375,-35.64453125,-30.2734375,-16.11328125,0.0
313.77734375,-55.6640625,-30.76171875,-31.25,-39.0625,-6.34765625,0.0
313.78125,-58.10546875,-38.57421875,-34.1796875,-49.31640625,-39.0625,0.0
313.78515625,-32.71484375,-38.0859375,-38.57421875,-44.921875,-63.4765625,0.0
313.7890625,-27.34375,-34.66796875,-41.50390625,-44.43359375,6.8359375,0.0
313.79296875,-37.59765625,-29.296875,-41.015625,-44.921875,4.39453125,0.0
313.796875,-54.19921875,-33.69140625,-35.15625,-42.48046875,-50.78125,0.0
313.80078125,-52.24609375,-40.0390625,-37.109375,-39.55078125,-87.40234375,0.0
313.8046875,-19.53125,-31.73828125,-37.59765625,-24.90234375,-30.2734375,0.0
313.80859375,-12.6953125,-27.83203125,-24.90234375,-18.5546875,6.8359375,0.0
313.8125,-39.55078125,-36.1328125,-26.85546875,-30.76171875,-3.90625,0.0
313.81640625,-48.828125,-43.45703125,-31.25,-31.25,-70.80078125,0.0
313.8203125,-26.3671875,-31.25,-22.4609375,-13.18359375,-187.98828125,0.0
313.82421875,-2.9296875,-24.90234375,-25.87890625,-13.671875,-85.9375,0.0
313.828125,-15.13671875,-35.15625,-33.69140625,-23.92578125,32.2265625,0.0
313.83203125,-33.69140625,-35.64453125,-29.296875,-22.94921875,-35.15625,0.0
313.8359375,-45.41015625,-35.64453125,-32.2265625,-26.85546875,-20.5078125,0.0
313.83984375,-44.921875,-40.0390625,-39.55078125,-30.2734375,-23.92578125,0.0
313.84375,-32.71484375,-35.15625,-43.9453125,-29.78515625,-44.43359375,0.0
313.84765625,-23.4375,-29.296875,-40.52734375,-28.3203125,60.05859375,0.0
313.8515625,-24.4140625,-27.34375,-33.69140625,-20.99609375,64.94140625,0.0
313.85546875,-38.0859375,-29.78515625,-32.2265625,-19.53125,14.16015625,0.0
313.859375,-38.57421875,-41.9921875,-34.66796875,-31.73828125,-33.203125,0.0
313.86328125,-31.73828125,-40.52734375,-35.15625,-39.0625,-94.23828125,0.0
313.8671875,-31.25,-30.2734375,-24.4140625,-37.59765625,-80.56640625,0.0
313.87109375,-35.64453125,-34.66796875,-25.390625,-38.57421875,-34.66796875,0.0
313.875,-54.19921875,-43.9453125,-47.36328125,-46.875,-7.32421875,0.0
313.87890625,-44.921875,-36.62109375,-29.78515625,-36.62109375,-132.32421875,0.0
313.8828125,-26.85546875,-31.73828125,-9.765625,-28.80859375,-219.23828125,0.0
313.88671875,-28.3203125,-31.25,-19.53125,-29.296875,-150.390625,0.0
313.890625,-30.76171875,-32.2265625,-21.97265625,-27.34375,-111.81640625,0.0
313.89453125,-43.9453125,-40.0390625,-26.85546875,-37.109375,-112.79296875,0.0
313.8984375,-50.78125,-36.62109375,-38.0859375,-45.8984375,-98.6328125,0.0
313.90234375,-34.1796875,-36.1328125,-47.36328125,-41.9921875,-83.49609375,0.0
313.90625,-23.92578125,-30.2734375,-41.50390625,-38.57421875,-21.97265625,0.0
313.91015625,-20.99609375,-18.06640625,-20.01953125,-28.80859375,-16.11328125,0.0
313.9140625,-21.484375,-11.71875,-5.37109375,-19.53125,-82.51953125,0.0
313.91796875,-43.9453125,-25.87890625,-30.76171875,-35.15625,-125.0,0.0
313.921875,-42.96875,-39.55078125,-44.43359375,-42.48046875,-97.65625,0.0
313.92578125,-21.97265625,-37.59765625,-34.66796875,-29.296875,2.9296875,0.0
313.9296875,-23.92578125,-35.15625,-39.0625,-26.85546875,-6.34765625,0.0
313.93359375,-36.1328125,-37.59765625,-38.57421875,-37.109375,-12.20703125,0.0
313.9375,-41.9921875,-34.66796875,-25.390625,-35.15625,21.484375,0.0
313.94140625,-36.62109375,-33.203125,-27.34375,-29.78515625,-58.10546875,0.0
313.9453125,-26.85546875,-31.73828125,-33.69140625,-28.3203125,-43.9453125,0.0
313.94921875,-26.3671875,-28.80859375,-32.71484375,-22.94921875,-30.2734375,0.0
313.953125,-27.34375,-28.80859375,-24.4140625,-19.53125,-94.23828125,0.0
313.95703125,-31.25,-34.66796875,-25.390625,-25.390625,-104.4921875,0.0
313.9609375,-30.2734375,-30.76171875,-33.203125,-30.76171875,-65.91796875,0.0
313.96484375,-20.99609375,-25.390625,-31.25,-29.78515625,-94.7265625,0.0
313.96875,-22.94921875,-27.83203125,-25.390625,-24.4140625,-33.69140625,0.0
313.97265625,-25.390625,-28.80859375,-15.625,-17.578125,68.84765625,0.0
313.9765625,-27.34375,-31.25,-22.4609375,-23.4375,8.30078125,0.0
313.98046875,-27.34375,-37.109375,-36.1328125,-32.2265625,-118.1640625,0.0
313.984375,-30.2734375,-41.015625,-30.76171875,-30.2734375,-235.3515625,0.0
313.98828125,-31.73828125,-32.2265625,-21.97265625,-28.80859375,-193.359375,0.0
313.9921875,-41.50390625,-30.2734375,-30.2734375,-34.1796875,-115.234375,0.0
313.99609375,-55.6640625,-33.69140625,-33.69140625,-39.0625,-144.53125,0.0
314.0,-43.9453125,-34.66796875,-33.203125,-39.55078125,-192.3828125,0.0
314.00390625,-24.90234375,-31.25,-34.1796875,-41.015625,-183.10546875,0.0
314.0078125,-19.04296875,-24.4140625,-33.203125,-38.57421875,-48.828125,0.0
314.01171875,-26.85546875,-31.25,-33.203125,-36.1328125,10.25390625,0.0
314.015625,-40.52734375,-35.64453125,-36.62109375,-43.45703125,-29.296875,0.0
314.01953125,-47.36328125,-40.0390625,-45.8984375,-57.6171875,-18.5546875,0.0
314.0234375,-29.296875,-36.62109375,-38.0859375,-54.19921875,2.44140625,0.0
314.02734375,-8.30078125,-23.92578125,-30.2734375,-41.50390625,-42.96875,0.0
314.03125,-22.4609375,-29.78515625,-36.1328125,-37.59765625,-72.265625,0.0
314.03515625,-43.45703125,-37.59765625,-27.83203125,-37.59765625,1.953125,0.0
314.0390625,-48.33984375,-36.62109375,-22.4609375,-44.43359375,76.66015625,0.0
314.04296875,-43.9453125,-40.0390625,-24.90234375,-45.8984375,132.32421875,0.0
314.046875,-27.34375,-41.50390625,-22.94921875,-33.203125,117.67578125,0.0
314.05078125,-31.25,-37.109375,-28.80859375,-25.390625,125.0,0.0
314.0546875,-40.52734375,-23.92578125,-27.83203125,-22.4609375,88.37890625,0.0
314.05859375,-45.8984375,-29.296875,-32.71484375,-28.3203125,-48.33984375,0.0
314.0625,-37.109375,-37.59765625,-41.015625,-39.0625,-46.38671875,0.0
314.06640625,-16.6015625,-30.76171875,-39.0625,-34.66796875,3.90625,0.0
314.0703125,-21.484375,-31.25,-41.9921875,-25.87890625,25.87890625,0.0
314.07421875,-43.45703125,-33.203125,-36.1328125,-28.80859375,-1.46484375,0.0
314.078125,-51.7578125,-41.9921875,-32.2265625,-35.15625,-106.4453125,0.0
314.08203125,-39.0625,-37.59765625,-32.2265625,-33.69140625,-90.33203125,0.0
314.0859375,-28.3203125,-25.87890625,-19.53125,-32.2265625,25.390625,0.0
314.08984375,-21.97265625,-30.76171875,-10.25390625,-32.2265625,96.19140625,0.0
314.09375,-33.69140625,-32.2265625,-8.30078125,-21.97265625,6.8359375,0.0
314.09765625,-46.875,-39.0625,-20.5078125,-21.97265625,-47.8515625,0.0
314.1015625,-38.0859375,-46.875,-32.71484375,-27.34375,-83.0078125,0.0
314.10546875,-16.6015625,-30.76171875,-21.97265625,-16.6015625,-28.3203125,0.0
314.109375,-13.671875,-29.296875,-19.53125,-20.01953125,115.234375,0.0
314.11328125,-33.69140625,-33.203125,-21.97265625,-24.90234375,74.70703125,0.0
314.1171875,-45.8984375,-34.66796875,-22.4609375,-26.3671875,-55.6640625,0.0
314.12109375,-36.1328125,-42.48046875,-33.69140625,-41.015625,-132.32421875,0.0
314.125,-25.390625,-38.57421875,-35.64453125,-40.0390625,-67.3828125,0.0
314.12890625,-21.484375,-26.3671875,-38.0859375,-30.2734375,20.5078125,0.0
314.1328125,-27.83203125,-25.87890625,-47.36328125,-31.25,-17.08984375,0.0
314.13671875,-46.875,-37.109375,-40.0390625,-40.0390625,-63.96484375,0.0
314.140625,-49.31640625,-42.48046875,-24.4140625,-42.96875,-63.4765625,0.0
314.14453125,-35.15625,-41.9921875,-23.4375,-44.43359375,-31.25,0.0
314.1484375,-21.97265625,-38.0859375,-24.90234375,-36.1328125,30.76171875,0.0
314.15234375,-23.4375,-31.73828125,-23.92578125,-21.484375,41.9921875,0.0
314.15625,-35.15625,-35.15625,-34.66796875,-30.2734375,-51.7578125,0.0
314.16015625,-42.48046875,-44.921875,-41.50390625,-40.0390625,-38.57421875,0.0
314.1640625,-30.2734375,-43.45703125,-37.59765625,-32.2265625,91.30859375,0.0
314.16796875,-12.6953125,-37.59765625,-29.78515625,-19.04296875,94.23828125,0.0
314.171875,-18.06640625,-34.66796875,-29.78515625,-16.11328125,93.26171875,0.0
314.17578125,-34.66796875,-43.9453125,-36.62109375,-21.97265625,90.33203125,0.0
314.1796875,-44.43359375,-53.7109375,-51.7578125,-29.78515625,-8.30078125,0.0
314.18359375,-31.73828125,-48.828125,-54.19921875,-27.34375,-80.078125,0.0
314.1875,-14.6484375,-38.57421875,-42.48046875,-16.6015625,-75.68359375,0.0
314.19140625,-28.3203125,-41.9921875,-35.15625,-22.4609375,-81.0546875,0.0
314.1953125,-51.26953125,-44.921875,-27.34375,-28.80859375,-46.38671875,0.0
314.19921875,-56.640625,-41.9921875,-27.83203125,-29.78515625,25.390625,0.0
314.203125,-39.0625,-40.52734375,-31.25,-34.1796875,24.90234375,0.0
314.20703125,-23.92578125,-37.59765625,-31.25,-35.15625,5.859375,0.0
314.2109375,-22.4609375,-34.66796875,-26.3671875,-32.2265625,-18.5546875,0.0
314.21484375,-30.2734375,-33.203125,-28.3203125,-33.203125,-77.1484375,0.0
314.21875,-43.9453125,-41.015625,-35.64453125,-38.0859375,-152.83203125,0.0
314.22265625,-32.71484375,-37.59765625,-36.62109375,-38.0859375,-155.2734375,0.0
314.2265625,-14.6484375,-22.4609375,-35.15625,-36.1328125,-117.1875,0.0
314.23046875,-20.99609375,-15.13671875,-36.1328125,-24.4140625,-53.22265625,0.0
314.234375,-41.9921875,-23.92578125,-44.43359375,-30.76171875,5.37109375,0.0
314.23828125,-44.921875,-36.62109375,-29.78515625,-35.64453125,-13.18359375,0.0
314.2421875,-22.4609375,-32.71484375,-14.16015625,-23.4375,32.2265625,0.0
314.24609375,-3.41796875,-25.390625,-25.87890625,-26.3671875,48.33984375,0.0
314.25,-13.18359375,-24.90234375,-28.80859375,-28.3203125,-86.9140625,0.0
314.25390625,-41.50390625,-31.25,-23.92578125,-34.1796875,-130.37109375,0.0
314.2578125,-48.828125,-36.62109375,-21.97265625,-39.55078125,-59.5703125,0.0
314.26171875,-30.2734375,-26.3671875,-30.76171875,-37.59765625,-22.94921875,0.0
314.265625,-8.30078125,-16.11328125,-36.62109375,-27.83203125,-5.37109375,0.0
314.26953125,-14.16015625,-20.99609375,-35.64453125,-31.25,23.4375,0.0
314.2734375,-28.80859375,-27.34375,-36.62109375,-36.1328125,5.37109375,0.0
314.27734375,-34.1796875,-25.390625,-38.57421875,-35.64453125,-24.90234375,0.0
314.28125,-23.4375,-21.97265625,-41.9921875,-38.0859375,-75.1953125,0.0
314.28515625,-10.25390625,-18.5546875,-37.59765625,-32.2265625,-45.41015625,0.0
314.2890625,-7.8125,-13.18359375,-32.2265625,-28.80859375,0.48828125,0.0
314.29296875,-19.53125,-9.765625,-20.99609375,-22.94921875,8.30078125,0.0
314.296875,-33.203125,-14.16015625,-15.625,-21.97265625,-41.015625,0.0
314.30078125,-25.87890625,-22.94921875,-27.83203125,-27.83203125,-100.09765625,0.0
314.3046875,-12.6953125,-23.92578125,-36.62109375,-25.87890625,-76.66015625,0.0
314.30859375,-16.11328125,-27.34375,-27.34375,-22.94921875,22.4609375,0.0
314.3125,-28.80859375,-28.80859375,-7.8125,-13.671875,21.484375,0.0
314.31640625,-40.0390625,-22.4609375,-6.8359375,-11.71875,-103.02734375,0.0
314.3203125,-36.1328125,-22.4609375,-24.4140625,-19.53125,-146.97265625,0.0
314.32421875,-33.203125,-23.4375,-31.25,-23.4375,0.0,0.0
314.328125,-26.85546875,-18.06640625,-24.90234375,-20.5078125,81.54296875,0.0
314.33203125,-28.80859375,-24.4140625,-17.578125,-21.484375,-20.01953125,0.0
314.3359375,-49.8046875,-29.78515625,-22.94921875,-29.78515625,-72.265625,0.0
314.33984375,-52.24609375,-34.66796875,-31.25,-33.203125,-96.19140625,0.0
314.34375,-34.66796875,-43.9453125,-34.66796875,-29.296875,21.484375,0.0
314.34765625,-24.4140625,-37.59765625,-27.34375,-28.80859375,107.421875,0.0
314.3515625,-29.296875,-31.73828125,-26.85546875,-35.64453125,-21.97265625,0.0
314.35546875,-44.43359375,-35.64453125,-26.85546875,-35.15625,-174.8046875,0.0
314.359375,-41.50390625,-36.62109375,-25.87890625,-41.50390625,-171.38671875,0.0
314.36328125,-29.78515625,-32.71484375,-29.78515625,-46.38671875,-157.2265625,0.0
314.3671875,-27.34375,-24.90234375,-31.25,-43.45703125,-124.0234375,0.0
314.37109375,-24.4140625,-21.97265625,-30.2734375,-35.15625,-68.84765625,0.0
314.375,-33.203125,-26.85546875,-26.3671875,-32.71484375,-17.08984375,0.0
314.37890625,-41.9921875,-28.3203125,-28.80859375,-37.59765625,-36.62109375,0.0
314.3828125,-43.9453125,-34.1796875,-38.0859375,-44.43359375,-57.12890625,0.0
314.38671875,-33.69140625,-32.2265625,-36.62109375,-38.57421875,-18.5546875,0.0
314.390625,-33.69140625,-29.78515625,-26.3671875,-35.15625,22.94921875,0.0
314.39453125,-49.31640625,-38.57421875,-31.25,-43.9453125,51.26953125,0.0
314.3984375,-51.26953125,-45.41015625,-50.29296875,-54.6875,-6.34765625,0.0
314.40234375,-41.50390625,-46.875,-43.45703125,-53.22265625,-37.109375,0.0
314.40625,-29.78515625,-41.015625,-33.203125,-42.96875,-10.25390625,0.0
314.41015625,-21.97265625,-28.3203125,-25.390625,-30.2734375,-0.48828125,0.0
314.4140625,-34.1796875,-31.73828125,-29.296875,-28.80859375,-2.44140625,0.0
314.41796875,-48.33984375,-39.55078125,-30.76171875,-34.1796875,19.53125,0.0
314.421875,-37.59765625,-33.69140625,-9.27734375,-29.78515625,-85.44921875,0.0
314.42578125,-33.203125,-35.15625,-17.08984375,-34.66796875,-55.17578125,0.0
314.4296875,-32.71484375,-37.109375,-33.203125,-38.57421875,-5.859375,0.0
314.43359375,-35.64453125,-35.15625,-36.1328125,-33.69140625,-27.83203125,0.0
314.4375,-38.57421875,-33.69140625,-36.62109375,-30.2734375,-6.34765625,0.0
314.44140625,-30.76171875,-37.59765625,-40.0390625,-33.203125,-54.19921875,0.0
314.4453125,-27.34375,-42.96875,-43.45703125,-39.55078125,-60.05859375,0.0
314.44921875,-29.296875,-43.45703125,-43.45703125,-34.1796875,-51.26953125,0.0
314.453125,-38.57421875,-39.0625,-32.2265625,-31.25,-6.8359375,0.0
314.45703125,-54.6875,-42.48046875,-26.85546875,-35.64453125,11.71875,0.0
314.4609375,-52.734375,-48.828125,-35.64453125,-41.015625,-2.44140625,0.0
314.46484375,-19.04296875,-36.1328125,-19.53125,-25.87890625,-17.08984375,0.0
314.46875,-7.8125,-25.87890625,-20.01953125,-24.90234375,-20.99609375,0.0
314.47265625,-30.2734375,-31.73828125,-38.57421875,-32.2265625,35.64453125,0.0
314.4765625,-48.33984375,-42.96875,-30.76171875,-30.76171875,29.78515625,0.0
314.48046875,-42.96875,-41.50390625,-27.34375,-32.71484375,-63.4765625,0.0
314.484375,-20.99609375,-28.80859375,-27.34375,-23.92578125,-53.7109375,0.0
314.48828125,-25.390625,-31.73828125,-33.203125,-31.25,28.3203125,0.0
314.4921875,-36.1328125,-32.2265625,-35.64453125,-31.73828125,-10.7421875,0.0
314.49609375,-43.45703125,-31.73828125,-33.203125,-23.92578125,-59.5703125,0.0
314.5,-56.640625,-39.55078125,-32.2265625,-36.62109375,22.94921875,0.0
314.50390625,-45.41015625,-45.41015625,-34.66796875,-44.43359375,77.63671875,0.0
314.5078125,-25.87890625,-32.71484375,-32.2265625,-32.2265625,3.41796875,0.0
314.51171875,-28.3203125,-24.90234375,-19.53125,-26.3671875,-68.359375,0.0
314.515625,-50.29296875,-36.1328125,-22.94921875,-41.50390625,-157.2265625,0.0
314.51953125,-50.29296875,-37.109375,-33.69140625,-48.33984375,-201.171875,0.0
314.5234375,-25.390625,-33.203125,-22.94921875,-41.50390625,-156.73828125,0.0
314.52734375,-22.94921875,-34.1796875,-14.16015625,-43.9453125,-62.01171875,0.0
314.53125,-28.80859375,-37.59765625,-15.13671875,-38.0859375,-12.20703125,0.0
314.53515625,-32.71484375,-39.55078125,-11.71875,-29.78515625,-53.22265625,0.0
314.5390625,-34.66796875,-41.50390625,-13.18359375,-28.3203125,-95.21484375,0.0
314.54296875,-22.94921875,-41.50390625,-22.4609375,-29.296875,-61.5234375,0.0
314.546875,-21.484375,-29.296875,-27.34375,-38.57421875,-11.23046875,0.0
314.55078125,-31.25,-29.78515625,-25.87890625,-38.0859375,15.625,0.0
314.5546875,-42.48046875,-39.0625,-36.62109375,-39.55078125,4.39453125,0.0
314.55859375,-51.7578125,-39.0625,-48.828125,-51.26953125,-56.15234375,0.0
314.5625,-36.62109375,-34.66796875,-37.59765625,-46.875,-28.80859375,0.0
314.56640625,-15.13671875,-31.73828125,-20.5078125,-34.1796875,6.34765625,0.0
314.5703125,-10.25390625,-24.4140625,-9.27734375,-27.83203125,-41.015625,0.0
314.57421875,-26.3671875,-23.4375,-13.18359375,-27.34375,0.0,0.0
314.578125,-45.8984375,-34.1796875,-37.109375,-40.52734375,44.921875,0.0
314.58203125,-34.66796875,-32.71484375,-28.3203125,-45.41015625,-6.8359375,0.0
314.5859375,-31.73828125,-33.69140625,-13.18359375,-33.203125,-106.4453125,0.0
314.58984375,-45.41015625,-39.0625,-25.390625,-36.1328125,-51.7578125,0.0
314.59375,-43.45703125,-36.62109375,-27.83203125,-36.1328125,-22.94921875,0.0
314.59765625,-45.41015625,-33.69140625,-25.87890625,-31.73828125,-86.42578125,0.0
314.6015625,-37.59765625,-39.55078125,-34.1796875,-37.59765625,-124.51171875,0.0
314.60546875,-15.625,-31.73828125,-35.15625,-31.73828125,-52.734375,0.0
314.609375,-2.9296875,-22.94921875,-35.64453125,-20.5078125,70.80078125,0.0
314.61328125,-16.11328125,-30.2734375,-34.1796875,-19.53125,23.92578125,0.0
314.6171875,-41.9921875,-36.1328125,-26.85546875,-31.25,7.32421875,0.0
314.62109375,-41.50390625,-39.55078125,-26.3671875,-36.62109375,14.16015625,0.0
314.625,-20.99609375,-38.0859375,-31.25,-31.73828125,-60.546875,0.0
314.62890625,-21.484375,-37.109375,-35.15625,-30.76171875,-119.140625,0.0
314.6328125,-33.69140625,-37.59765625,-28.3203125,-29.78515625,-183.10546875,0.0
314.63671875,-45.41015625,-44.921875,-30.76171875,-33.69140625,-221.6796875,0.0
314.640625,-46.38671875,-45.41015625,-36.1328125,-37.59765625,-163.57421875,0.0
314.64453125,-31.25,-39.55078125,-33.203125,-34.66796875,-86.9140625,0.0
314.6484375,-26.85546875,-35.64453125,-31.73828125,-32.71484375,-70.80078125,0.0
314.65234375,-38.57421875,-38.0859375,-35.15625,-32.2265625,17.08984375,0.0
314.65625,-43.9453125,-39.0625,-35.64453125,-34.1796875,14.16015625,0.0
314.66015625,-32.71484375,-26.85546875,-28.3203125,-29.296875,15.625,0.0
314.6640625,-22.4609375,-21.97265625,-18.06640625,-26.3671875,136.71875,0.0
314.66796875,-20.5078125,-29.78515625,-19.04296875,-31.25,83.49609375,0.0
314.671875,-30.2734375,-34.66796875,-27.34375,-34.1796875,-31.73828125,0.0
314.67578125,-44.921875,-37.59765625,-30.2734375,-39.0625,-158.203125,0.0
314.6796875,-39.55078125,-32.71484375,-29.78515625,-40.52734375,-173.828125,0.0
314.68359375,-21.97265625,-30.2734375,-30.76171875,-40.0390625,-55.17578125,0.0
314.6875,-16.11328125,-30.76171875,-34.66796875,-33.69140625,4.8828125,0.0
314.69140625,-27.83203125,-33.203125,-38.0859375,-33.69140625,44.43359375,0.0
314.6953125,-47.36328125,-36.62109375,-34.66796875,-41.50390625,-4.39453125,0.0
314.69921875,-50.78125,-36.62109375,-35.64453125,-44.43359375,-66.40625,0.0
314.703125,-31.25,-32.71484375,-30.76171875,-35.15625,0.48828125,0.0
314.70703125,-13.18359375,-24.4140625,-19.53125,-23.4375,15.13671875,0.0
314.7109375,-22.4609375,-29.296875,-30.2734375,-32.2265625,-3.90625,0.0
314.71484375,-42.48046875,-40.0390625,-39.55078125,-39.0625,-9.765625,0.0
314.71875,-48.828125,-39.55078125,-29.78515625,-31.73828125,-15.625,0.0
314.72265625,-44.43359375,-39.0625,-27.83203125,-35.15625,11.23046875,0.0
314.7265625,-27.34375,-33.203125,-31.25,-37.59765625,7.32421875,0.0
314.73046875,-27.34375,-32.2265625,-30.76171875,-35.15625,-23.4375,0.0
314.734375,-45.8984375,-36.62109375,-29.78515625,-34.1796875,-91.796875,0.0
314.73828125,-52.734375,-36.62109375,-35.15625,-34.1796875,-156.73828125,0.0
314.7421875,-37.59765625,-30.76171875,-41.50390625,-31.73828125,-134.27734375,0.0
314.74609375,-23.92578125,-25.390625,-42.96875,-31.73828125,-86.9140625,0.0
314.75,-20.99609375,-23.4375,-24.4140625,-22.4609375,-33.203125,0.0
314.75390625,-31.73828125,-32.2265625,-11.23046875,-17.578125,-13.671875,0.0
314.7578125,-43.45703125,-40.52734375,-23.92578125,-32.2265625,-56.15234375,0.0
314.76171875,-37.109375,-36.62109375,-38.0859375,-41.50390625,-85.9375,0.0
314.765625,-31.25,-41.015625,-40.0390625,-46.875,6.8359375,0.0
314.76953125,-25.87890625,-40.52734375,-24.4140625,-42.96875,75.1953125,0.0
314.7734375,-36.1328125,-38.0859375,-15.625,-37.59765625,-29.296875,0.0
314.77734375,-51.7578125,-37.59765625,-20.5078125,-41.9921875,-149.4140625,0.0
314.78125,-43.45703125,-32.2265625,-25.87890625,-43.45703125,-104.00390625,0.0
314.78515625,-25.390625,-31.25,-32.2265625,-42.96875,-74.21875,0.0
314.7890625,-18.06640625,-22.4609375,-35.15625,-35.15625,-49.8046875,0.0
314.79296875,-23.4375,-22.94921875,-22.4609375,-25.87890625,7.32421875,0.0
314.796875,-40.0390625,-36.62109375,-14.16015625,-31.73828125,-38.0859375,0.0
314.80078125,-48.828125,-45.8984375,-32.71484375,-42.48046875,-67.87109375,0.0
314.8046875,-31.25,-37.59765625,-36.62109375,-36.1328125,-16.6015625,0.0
314.80859375,-22.94921875,-28.3203125,-24.4140625,-30.2734375,-0.48828125,0.0
314.8125,-32.2265625,-33.69140625,-24.90234375,-35.15625,8.30078125,0.0
314.81640625,-47.8515625,-33.203125,-23.4375,-37.59765625,3.90625,0.0
314.8203125,-50.78125,-35.64453125,-26.85546875,-43.45703125,-41.9921875,0.0
314.82421875,-33.203125,-36.1328125,-28.3203125,-39.0625,-36.62109375,0.0
314.828125,-24.4140625,-27.83203125,-21.484375,-27.34375,-23.4375,0.0
314.83203125,-35.15625,-29.78515625,-19.04296875,-27.83203125,-19.53125,0.0
314.8359375,-48.33984375,-29.78515625,-24.90234375,-35.64453125,-5.859375,0.0
314.83984375,-43.9453125,-22.94921875,-31.25,-37.59765625,-53.22265625,0.0
314.84375,-36.62109375,-31.73828125,-29.296875,-34.66796875,-71.77734375,0.0
314.84765625,-20.99609375,-36.62109375,-27.34375,-38.57421875,21.97265625,0.0
314.8515625,-30.76171875,-39.0625,-27.34375,-41.50390625,79.58984375,0.0
314.85546875,-66.89453125,-44.43359375,-34.1796875,-37.109375,-2.9296875,0.0
314.859375,-66.40625,-42.96875,-35.64453125,-44.921875,-79.58984375,0.0
314.86328125,-41.50390625,-35.15625,-29.296875,-44.43359375,-35.15625,0.0
314.8671875,-22.94921875,-24.90234375,-18.06640625,-35.64453125,12.20703125,0.0
314.87109375,-19.53125,-24.90234375,-20.99609375,-35.64453125,-70.80078125,0.0
314.875,-40.0390625,-40.52734375,-36.1328125,-41.50390625,-70.3125,0.0
314.87890625,-44.921875,-40.0390625,-26.85546875,-43.9453125,106.93359375,0.0
314.8828125,-33.203125,-26.3671875,-27.83203125,-43.9453125,76.171875,0.0
314.88671875,-27.34375,-29.296875,-46.38671875,-47.36328125,-8.30078125,0.0
314.890625,-24.90234375,-34.66796875,-45.8984375,-41.9921875,60.05859375,0.0
314.89453125,-35.64453125,-37.109375,-37.109375,-41.9921875,31.25,0.0
314.8984375,-49.31640625,-43.45703125,-44.43359375,-51.26953125,-38.0859375,0.0
314.90234375,-42.96875,-35.64453125,-47.36328125,-49.8046875,-31.73828125,0.0
314.90625,-30.2734375,-20.5078125,-31.25,-42.48046875,-9.27734375,0.0
314.91015625,-35.64453125,-20.5078125,-23.4375,-45.41015625,-26.3671875,0.0
314.9140625,-51.7578125,-22.94921875,-29.296875,-54.19921875,-87.40234375,0.0
314.91796875,-63.96484375,-24.90234375,-39.55078125,-59.08203125,-142.08984375,0.0
314.921875,-59.08203125,-28.80859375,-44.43359375,-63.96484375,-102.5390625,0.0
314.92578125,-42.48046875,-33.203125,-41.9921875,-61.5234375,-55.6640625,0.0
314.9296875,-32.71484375,-27.83203125,-38.0859375,-49.31640625,-52.734375,0.0
314.93359375,-43.45703125,-26.3671875,-39.55078125,-48.33984375,-84.47265625,0.0
314.9375,-50.78125,-30.76171875,-33.203125,-50.29296875,-60.05859375,0.0
314.94140625,-33.203125,-28.80859375,-26.3671875,-45.41015625,-21.97265625,0.0
314.9453125,-19.53125,-28.80859375,-28.3203125,-41.015625,-44.43359375,0.0
314.94921875,-17.578125,-33.69140625,-41.50390625,-35.64453125,22.94921875,0.0
314.953125,-41.015625,-36.62109375,-48.828125,-41.50390625,46.38671875,0.0
314.95703125,-67.3828125,-37.59765625,-38.57421875,-46.38671875,-39.0625,0.0
314.9609375,-54.6875,-34.66796875,-31.73828125,-50.29296875,-87.40234375,0.0
314.96484375,-30.2734375,-30.2734375,-31.73828125,-48.33984375,-36.1328125,0.0
314.96875,-25.87890625,-27.83203125,-35.15625,-40.0390625,-31.73828125,0.0
314.97265625,-32.71484375,-26.3671875,-30.76171875,-33.203125,-43.45703125,0.0
314.9765625,-49.31640625,-36.62109375,-34.1796875,-38.0859375,-59.5703125,0.0
314.98046875,-47.8515625,-40.0390625,-43.45703125,-46.875,-114.2578125,0.0
314.984375,-34.1796875,-29.296875,-42.96875,-45.8984375,-114.74609375,0.0
314.98828125,-35.15625,-32.2265625,-33.203125,-48.33984375,-86.42578125,0.0
314.9921875,-40.52734375,-31.73828125,-22.4609375,-38.57421875,-7.8125,0.0
314.99609375,-49.8046875,-32.2265625,-39.55078125,-36.1328125,25.87890625,0.0
315.0,-49.31640625,-37.59765625,-49.8046875,-41.50390625,21.97265625,0.0
315.00390625,-39.55078125,-33.69140625,-38.57421875,-43.9453125,2.9296875,0.0
315.0078125,-19.53125,-21.97265625,-22.94921875,-36.62109375,-61.03515625,0.0
315.01171875,-23.92578125,-23.92578125,-20.5078125,-31.25,-79.1015625,0.0
315.015625,-41.50390625,-28.80859375,-31.25,-35.15625,-39.55078125,0.0
315.01953125,-43.45703125,-25.87890625,-34.1796875,-39.55078125,-44.43359375,0.0
315.0234375,-34.66796875,-33.203125,-32.71484375,-44.43359375,-102.5390625,0.0
315.02734375,-19.53125,-30.76171875,-30.2734375,-38.57421875,-81.0546875,0.0
315.03125,-25.390625,-28.80859375,-31.25,-31.25,-9.765625,0.0
315.03515625,-36.1328125,-38.57421875,-19.04296875,-33.69140625,-62.5,0.0
315.0390625,-40.0390625,-42.96875,-28.3203125,-43.45703125,-111.81640625,0.0
315.04296875,-34.1796875,-38.57421875,-42.96875,-42.96875,-63.96484375,0.0
315.046875,-26.3671875,-28.80859375,-29.296875,-31.25,-60.546875,0.0
315.05078125,-26.85546875,-26.3671875,-17.578125,-26.85546875,-50.29296875,0.0
315.0546875,-33.69140625,-27.34375,-30.76171875,-25.87890625,-35.64453125,0.0
315.05859375,-40.0390625,-25.390625,-42.96875,-32.71484375,-114.74609375,0.0
315.0625,-32.71484375,-22.94921875,-37.109375,-42.48046875,-55.17578125,0.0
315.06640625,-23.92578125,-20.99609375,-47.36328125,-47.36328125,19.53125,0.0
315.0703125,-33.203125,-17.578125,-50.29296875,-41.015625,26.85546875,0.0
315.07421875,-50.78125,-23.92578125,-44.921875,-40.52734375,61.5234375,0.0
315.078125,-46.875,-29.78515625,-34.1796875,-41.015625,-40.52734375,0.0
315.08203125,-27.34375,-30.2734375,-20.01953125,-37.109375,-71.2890625,0.0
315.0859375,-13.671875,-32.2265625,-30.76171875,-32.71484375,19.04296875,0.0
315.08984375,-15.625,-29.78515625,-34.1796875,-29.78515625,-47.36328125,0.0
315.09375,-28.80859375,-31.73828125,-18.5546875,-31.73828125,-71.2890625,0.0
315.09765625,-39.55078125,-36.62109375,-20.99609375,-36.1328125,-53.22265625,0.0
315.1015625,-35.64453125,-33.69140625,-29.78515625,-35.15625,-61.03515625,0.0
315.10546875,-23.4375,-23.4375,-30.76171875,-35.15625,-29.296875,0.0
315.109375,-20.01953125,-28.3203125,-31.25,-35.15625,-1.953125,0.0
315.11328125,-23.92578125,-34.66796875,-29.78515625,-29.78515625,21.484375,0.0
315.1171875,-36.1328125,-38.0859375,-36.62109375,-31.73828125,22.4609375,0.0
315.12109375,-44.921875,-37.59765625,-48.828125,-38.57421875,-11.71875,0.0
315.125,-34.1796875,-35.15625,-46.875,-40.52734375,-32.2265625,0.0
315.12890625,-27.34375,-35.64453125,-35.15625,-34.66796875,18.06640625,0.0
315.1328125,-35.64453125,-35.15625,-31.73828125,-33.69140625,16.11328125,0.0
315.13671875,-42.96875,-31.25,-34.1796875,-37.109375,-74.70703125,0.0
315.140625,-42.48046875,-37.59765625,-31.25,-47.8515625,-104.4921875,0.0
315.14453125,-40.0390625,-42.48046875,-23.92578125,-45.8984375,-23.92578125,0.0
315.1484375,-35.15625,-38.0859375,-25.87890625,-33.203125,41.9921875,0.0
315.15234375,-38.57421875,-35.15625,-25.87890625,-26.85546875,58.10546875,0.0
315.15625,-57.6171875,-36.1328125,-27.83203125,-27.34375,0.0,0.0
315.16015625,-56.640625,-42.96875,-36.1328125,-38.0859375,-17.08984375,0.0
315.1640625,-33.203125,-34.66796875,-36.62109375,-34.66796875,23.92578125,0.0
315.16796875,-28.3203125,-25.87890625,-32.71484375,-26.3671875,24.4140625,0.0
315.171875,-39.55078125,-24.90234375,-30.2734375,-35.64453125,25.390625,0.0
315.17578125,-52.24609375,-30.2734375,-37.109375,-45.8984375,10.25390625,0.0
315.1796875,-61.5234375,-47.36328125,-41.9921875,-54.6875,-18.5546875,0.0
315.18359375,-50.29296875,-46.875,-34.1796875,-57.12890625,-55.6640625,0.0
315.1875,-40.0390625,-33.69140625,-35.15625,-45.41015625,-8.30078125,0.0
315.19140625,-37.59765625,-33.69140625,-35.64453125,-36.62109375,-26.3671875,0.0
315.1953125,-42.48046875,-30.76171875,-21.97265625,-38.0859375,-10.25390625,0.0
315.19921875,-47.36328125,-31.73828125,-20.99609375,-35.64453125,8.30078125,0.0
315.203125,-36.1328125,-33.203125,-21.484375,-25.87890625,-69.3359375,0.0
