timestam,TP9,AF7,AF8,TP10,AUX,Marker
422.00390625,-35.15625,-43.45703125,-27.34375,-24.4140625,7.8125,0.0
422.0078125,-18.5546875,-37.109375,-29.78515625,-16.11328125,-40.0390625,0.0
422.01171875,-34.1796875,-39.55078125,-29.78515625,-26.3671875,-33.203125,0.0
422.015625,-47.8515625,-47.36328125,-21.97265625,-18.06640625,-74.70703125,0.0
422.01953125,-46.875,-43.9453125,-24.4140625,-13.18359375,-73.73046875,0.0
422.0234375,-41.9921875,-37.109375,-19.53125,-15.625,-21.97265625,0.0
422.02734375,-31.73828125,-31.73828125,-18.5546875,-16.6015625,5.859375,0.0
422.03125,-26.85546875,-25.390625,-24.4140625,-19.53125,15.625,0.0
422.03515625,-36.1328125,-29.78515625,-31.73828125,-18.5546875,12.20703125,0.0
422.0390625,-40.0390625,-24.90234375,-35.15625,-15.625,-20.01953125,0.0
422.04296875,-39.0625,-23.92578125,-41.015625,-26.85546875,-41.9921875,0.0
422.046875,-28.80859375,-36.62109375,-35.15625,-31.73828125,-46.38671875,0.0
422.05078125,-28.3203125,-38.0859375,-23.4375,-26.3671875,-23.4375,0.0
422.0546875,-48.828125,-49.31640625,-29.78515625,-30.76171875,23.92578125,0.0
422.05859375,-51.7578125,-48.828125,-45.8984375,-28.80859375,-20.99609375,0.0
422.0625,-42.48046875,-29.78515625,-57.12890625,-29.296875,-36.1328125,0.0
422.06640625,-33.69140625,-22.4609375,-45.8984375,-31.73828125,18.06640625,0.0
422.0703125,-23.92578125,-27.83203125,-30.76171875,-33.69140625,-26.85546875,0.0
422.07421875,-33.203125,-32.2265625,-29.78515625,-27.34375,-120.1171875,0.0
422.078125,-49.31640625,-36.62109375,-40.52734375,-23.92578125,-104.00390625,0.0
422.08203125,-38.57421875,-32.71484375,-40.0390625,-17.578125,-73.2421875,0.0
422.0859375,-25.87890625,-34.1796875,-37.59765625,-12.20703125,-21.97265625,0.0
422.08984375,-18.06640625,-40.52734375,-37.109375,-1.46484375,29.296875,0.0
422.09375,-33.203125,-39.55078125,-30.2734375,-10.7421875,-57.6171875,0.0
422.09765625,-56.640625,-48.33984375,-43.9453125,-32.71484375,-82.51953125,0.0
422.1015625,-50.78125,-63.4765625,-56.640625,-41.9921875,22.94921875,0.0
422.10546875,-21.97265625,-48.33984375,-52.734375,-36.1328125,26.3671875,0.0
422.109375,-12.20703125,-23.4375,-41.50390625,-31.25,-10.25390625,0.0
422.11328125,-38.0859375,-26.3671875,-47.36328125,-51.26953125,22.4609375,0.0
422.1171875,-41.9921875,-34.1796875,-40.0390625,-36.62109375,-22.94921875,0.0
422.12109375,-20.99609375,-26.3671875,-24.4140625,-4.8828125,-61.03515625,0.0
422.125,-22.94921875,-28.80859375,-47.8515625,-25.390625,-66.89453125,0.0
422.12890625,-36.62109375,-37.109375,-55.6640625,-57.12890625,-49.8046875,0.0
422.1328125,-50.29296875,-23.4375,-46.38671875,-61.5234375,-61.5234375,0.0
422.13671875,-82.51953125,-9.27734375,-52.24609375,-75.68359375,-90.8203125,0.0
422.140625,-99.609375,-16.6015625,-48.33984375,-102.5390625,-100.5859375,0.0
422.14453125,-92.7734375,-17.08984375,-39.55078125,-112.3046875,-135.7421875,0.0
422.1484375,-102.5390625,-19.04296875,-35.64453125,-122.55859375,-201.171875,0.0
422.15234375,-118.1640625,-21.97265625,-48.828125,-139.6484375,-225.09765625,0.0
422.15625,-131.8359375,-11.71875,-53.22265625,-147.4609375,-239.74609375,0.0
422.16015625,-150.390625,-12.20703125,-52.734375,-164.0625,-188.4765625,0.0
422.1640625,-155.76171875,-28.80859375,-66.89453125,-187.01171875,-164.0625,0.0
422.16796875,-137.6953125,-14.6484375,-52.24609375,-183.10546875,-143.5546875,0.0
422.171875,-151.3671875,13.18359375,-36.62109375,-190.4296875,-40.0390625,0.0
422.17578125,-181.15234375,14.16015625,-42.48046875,-210.44921875,15.625,0.0
422.1796875,-191.40625,-3.41796875,-35.15625,-214.35546875,-42.48046875,0.0
422.18359375,-178.7109375,-3.41796875,-11.71875,-205.078125,-5.859375,0.0
422.1875,-172.8515625,25.390625,-7.32421875,-214.84375,27.83203125,0.0
422.19140625,-191.40625,33.69140625,-27.34375,-233.3984375,28.3203125,0.0
422.1953125,-205.078125,4.39453125,-28.3203125,-229.00390625,39.55078125,0.0
422.19921875,-201.171875,10.25390625,-9.27734375,-217.7734375,-16.6015625,0.0
422.203125,-198.73046875,29.296875,-5.37109375,-222.16796875,-82.51953125,0.0
422.20703125,-187.5,33.69140625,-13.671875,-231.93359375,-35.15625,0.0
422.2109375,-178.22265625,45.8984375,-19.04296875,-227.5390625,20.01953125,0.0
422.21484375,-176.26953125,29.78515625,-11.71875,-212.40234375,17.08984375,0.0
422.21875,-161.62109375,14.6484375,-23.92578125,-196.77734375,-17.578125,0.0
422.22265625,-132.32421875,11.71875,-54.6875,-174.8046875,-18.06640625,0.0
422.2265625,-104.4921875,8.30078125,-57.6171875,-146.97265625,-6.8359375,0.0
422.23046875,-86.42578125,18.5546875,-57.12890625,-129.8828125,-2.44140625,0.0
422.234375,-73.2421875,30.2734375,-66.89453125,-114.2578125,12.20703125,0.0
422.23828125,-53.7109375,30.76171875,-69.3359375,-89.35546875,-32.2265625,0.0
422.2421875,-22.4609375,22.4609375,-76.66015625,-57.12890625,-105.95703125,0.0
422.24609375,10.7421875,18.06640625,-93.26171875,-37.109375,-103.515625,0.0
422.25,35.64453125,17.08984375,-92.28515625,-21.97265625,-41.9921875,0.0
422.25390625,39.55078125,8.30078125,-96.19140625,-4.8828125,44.43359375,0.0
422.2578125,42.96875,-19.53125,-112.3046875,3.41796875,8.30078125,0.0
422.26171875,62.01171875,-28.80859375,-116.69921875,16.11328125,-34.66796875,0.0
422.265625,96.6796875,-20.5078125,-120.1171875,41.50390625,9.765625,0.0
422.26953125,116.69921875,-6.34765625,-123.046875,60.546875,0.48828125,0.0
422.2734375,117.1875,8.7890625,-116.69921875,73.2421875,-39.55078125,0.0
422.27734375,113.76953125,-8.30078125,-110.83984375,82.03125,-58.10546875,0.0
422.28125,123.046875,-42.48046875,-106.4453125,89.84375,-57.6171875,0.0
422.28515625,135.7421875,-44.43359375,-114.74609375,90.33203125,1.953125,0.0
422.2890625,134.27734375,-31.25,-91.30859375,89.35546875,52.24609375,0.0
422.29296875,126.953125,-33.203125,-70.80078125,93.26171875,34.1796875,0.0
422.296875,100.09765625,-47.36328125,-80.078125,84.9609375,-24.4140625,0.0
422.30078125,96.19140625,-54.19921875,-73.73046875,80.56640625,-84.9609375,0.0
422.3046875,111.328125,-64.94140625,-62.98828125,77.63671875,-75.1953125,0.0
422.30859375,110.83984375,-65.4296875,-61.03515625,81.0546875,-37.59765625,0.0
422.3125,99.609375,-58.10546875,-63.96484375,84.47265625,-55.6640625,0.0
422.31640625,85.44921875,-61.03515625,-81.54296875,75.68359375,-38.57421875,0.0
422.3203125,86.42578125,-50.29296875,-71.2890625,73.2421875,-7.32421875,0.0
422.32421875,85.44921875,-59.08203125,-50.29296875,62.01171875,-58.59375,0.0
422.328125,92.28515625,-67.87109375,-58.10546875,59.08203125,-76.171875,0.0
422.33203125,87.890625,-53.22265625,-73.2421875,62.5,-21.97265625,0.0
422.3359375,62.5,-35.15625,-64.94140625,50.78125,-68.359375,0.0
422.33984375,52.734375,-35.64453125,-45.41015625,49.8046875,-145.01953125,0.0
422.34375,62.01171875,-57.6171875,-40.0390625,57.12890625,-29.296875,0.0
422.34765625,66.40625,-50.78125,-45.8984375,54.6875,53.7109375,0.0
422.3515625,61.5234375,-36.62109375,-36.62109375,55.17578125,-62.01171875,0.0
422.35546875,34.66796875,-46.38671875,-36.1328125,46.38671875,-71.77734375,0.0
422.359375,18.06640625,-49.31640625,-55.17578125,33.69140625,-12.6953125,0.0
422.36328125,35.15625,-36.1328125,-46.875,38.57421875,-31.73828125,0.0
422.3671875,40.0390625,-28.3203125,-50.29296875,36.62109375,-47.36328125,0.0
422.37109375,28.3203125,-32.71484375,-58.10546875,25.87890625,-13.671875,0.0
422.375,21.484375,-47.8515625,-31.73828125,24.90234375,19.04296875,0.0
422.37890625,24.90234375,-49.8046875,-27.34375,23.92578125,15.625,0.0
422.3828125,31.25,-45.8984375,-44.43359375,17.578125,-43.9453125,0.0
422.38671875,28.80859375,-53.22265625,-39.55078125,7.8125,-70.3125,0.0
422.390625,29.296875,-44.43359375,-28.3203125,10.25390625,-39.0625,0.0
422.39453125,20.99609375,-42.48046875,-24.4140625,12.20703125,-12.20703125,0.0
422.3984375,0.48828125,-55.6640625,-34.66796875,0.48828125,-45.41015625,0.0
422.40234375,1.953125,-44.43359375,-50.78125,-4.39453125,-79.1015625,0.0
422.40625,4.8828125,-31.25,-59.08203125,-5.37109375,-42.96875,0.0
422.41015625,6.8359375,-46.38671875,-50.29296875,-1.953125,-8.7890625,0.0
422.4140625,3.90625,-60.05859375,-38.57421875,-3.41796875,-20.99609375,0.0
422.41796875,-16.6015625,-49.8046875,-48.33984375,-15.13671875,-50.78125,0.0
422.421875,-14.6484375,-28.80859375,-52.734375,-21.484375,-62.01171875,0.0
422.42578125,-5.37109375,-32.71484375,-60.05859375,-31.25,-36.1328125,0.0
422.4296875,-1.46484375,-25.87890625,-62.01171875,-29.78515625,-69.3359375,0.0
422.43359375,-10.7421875,4.8828125,-29.78515625,-26.3671875,-13.18359375,0.0
422.4375,-38.57421875,-8.7890625,-30.76171875,-43.45703125,-7.8125,0.0
422.44140625,-28.3203125,-25.87890625,-40.52734375,-42.96875,-86.42578125,0.0
422.4453125,-7.32421875,-26.3671875,-37.59765625,-29.78515625,-50.78125,0.0
422.44921875,-11.23046875,-32.2265625,-48.828125,-30.76171875,31.25,0.0
422.453125,-32.71484375,-36.1328125,-41.50390625,-43.9453125,111.328125,0.0
422.45703125,-65.4296875,-25.390625,-41.50390625,-63.4765625,40.52734375,0.0
422.4609375,-74.70703125,-20.01953125,-68.84765625,-72.265625,-54.19921875,0.0
422.46484375,-51.26953125,-41.50390625,-68.84765625,-57.12890625,-71.2890625,0.0
422.46875,-37.109375,-49.31640625,-33.69140625,-50.78125,-103.515625,0.0
422.47265625,-36.1328125,-23.4375,-26.3671875,-43.45703125,-68.359375,0.0
422.4765625,-36.1328125,-27.34375,-38.0859375,-34.66796875,-173.828125,0.0
422.48046875,-30.2734375,-35.15625,-30.2734375,-30.76171875,-310.546875,0.0
422.484375,-19.04296875,-26.3671875,-45.41015625,-29.78515625,-179.6875,0.0
422.48828125,-0.9765625,-25.390625,-46.38671875,-26.3671875,9.27734375,0.0
422.4921875,-3.90625,-20.5078125,-34.1796875,-21.484375,35.15625,0.0
422.49609375,-24.90234375,-44.43359375,-42.96875,-24.90234375,0.48828125,0.0
422.5,-26.3671875,-55.17578125,-54.19921875,-26.3671875,-14.6484375,0.0
422.50390625,-10.7421875,-18.5546875,-44.921875,-18.06640625,4.39453125,0.0
422.5078125,0.9765625,0.9765625,-43.9453125,-2.9296875,70.3125,0.0
422.51171875,-4.8828125,-20.99609375,-65.4296875,-7.32421875,96.19140625,0.0
422.515625,-16.6015625,-45.41015625,-56.15234375,-13.18359375,69.82421875,0.0
422.51953125,-5.37109375,-49.31640625,-35.64453125,3.90625,13.671875,0.0
422.5234375,16.11328125,-46.875,-50.29296875,11.71875,-15.13671875,0.0
422.52734375,23.92578125,-43.9453125,-72.265625,7.8125,32.71484375,0.0
422.53125,17.578125,-28.3203125,-62.5,6.8359375,34.66796875,0.0
422.53515625,13.18359375,-16.11328125,-47.36328125,7.8125,-19.53125,0.0
422.5390625,3.90625,-18.06640625,-45.41015625,-0.48828125,-32.71484375,0.0
422.54296875,-2.44140625,-34.66796875,-44.921875,-9.27734375,31.73828125,0.0
422.546875,9.27734375,-24.90234375,-38.57421875,-2.9296875,35.15625,0.0
422.55078125,15.625,-11.23046875,-39.0625,7.32421875,-19.04296875,0.0
422.5546875,17.08984375,-24.4140625,-49.8046875,20.99609375,-27.83203125,0.0
422.55859375,13.671875,-52.24609375,-46.875,16.11328125,-88.8671875,0.0
422.5625,-9.765625,-72.75390625,-38.57421875,-10.7421875,-101.07421875,0.0
422.56640625,-10.7421875,-48.828125,-46.875,-17.578125,-12.20703125,0.0
422.5703125,8.7890625,-20.99609375,-45.41015625,-3.90625,19.04296875,0.0
422.57421875,-1.46484375,-23.92578125,-35.64453125,-2.44140625,18.5546875,0.0
422.578125,-14.6484375,-22.4609375,-30.76171875,-10.7421875,-14.6484375,0.0
422.58203125,0.48828125,-29.296875,-28.80859375,-2.44140625,-30.76171875,0.0
422.5859375,4.8828125,-39.55078125,-38.57421875,-3.41796875,-70.80078125,0.0
422.58984375,2.44140625,-25.390625,-39.55078125,-5.859375,-62.01171875,0.0
422.59375,-0.9765625,-23.4375,-33.69140625,0.48828125,-13.18359375,0.0
422.59765625,-9.765625,-31.73828125,-24.4140625,0.9765625,-35.15625,0.0
422.6015625,-16.6015625,-38.57421875,-27.83203125,-16.11328125,-95.703125,0.0
422.60546875,-10.25390625,-36.62109375,-39.55078125,-21.484375,-27.34375,0.0
422.609375,-0.48828125,-31.25,-56.640625,-13.671875,24.4140625,0.0
422.61328125,-8.7890625,-34.66796875,-78.61328125,-19.53125,35.15625,0.0
422.6171875,-22.94921875,-40.52734375,-59.5703125,-22.4609375,11.23046875,0.0
422.62109375,-23.4375,-45.41015625,-34.1796875,-20.01953125,-54.6875,0.0
422.625,-5.859375,-41.015625,-40.0390625,-21.484375,-67.87109375,0.0
422.62890625,4.8828125,-27.83203125,-44.921875,-17.578125,-40.52734375,0.0
422.6328125,6.34765625,-21.97265625,-27.34375,-1.953125,-25.390625,0.0
422.63671875,-2.44140625,-35.15625,-24.4140625,-1.46484375,-50.78125,0.0
422.640625,-12.6953125,-64.453125,-35.64453125,-8.30078125,-80.078125,0.0
422.64453125,-4.39453125,-41.015625,-33.69140625,-12.6953125,-52.734375,0.0
422.6484375,-6.34765625,-5.37109375,-47.8515625,-20.99609375,34.66796875,0.0
422.65234375,-23.4375,-15.13671875,-58.59375,-26.3671875,18.06640625,0.0
422.65625,-27.34375,-32.2265625,-55.17578125,-20.5078125,-49.31640625,0.0
422.66015625,-23.92578125,-49.31640625,-44.43359375,-23.4375,-117.67578125,0.0
422.6640625,-18.5546875,-56.640625,-31.25,-26.3671875,-62.01171875,0.0
422.66796875,-12.6953125,-50.78125,-37.109375,-28.3203125,-0.48828125,0.0
422.671875,-4.8828125,-36.1328125,-39.0625,-23.4375,3.41796875,0.0
422.67578125,-12.20703125,-30.2734375,-32.2265625,-15.625,35.15625,0.0
422.6796875,-13.18359375,-33.69140625,-29.296875,-13.671875,-89.35546875,0.0
422.68359375,1.46484375,-40.0390625,-25.87890625,-8.30078125,-77.63671875,0.0
422.6875,22.4609375,-37.109375,-18.06640625,2.44140625,23.4375,0.0
422.69140625,11.23046875,-41.9921875,-22.4609375,-6.34765625,-6.34765625,0.0
422.6953125,-19.04296875,-29.78515625,-35.15625,-22.94921875,0.0,0.0
422.69921875,-24.4140625,-14.6484375,-43.9453125,-21.97265625,-32.2265625,0.0
422.703125,-14.16015625,-14.16015625,-49.8046875,-16.6015625,-52.734375,0.0
422.70703125,-5.859375,-30.2734375,-44.43359375,-24.4140625,-13.671875,0.0
422.7109375,0.9765625,-56.15234375,-35.64453125,-25.390625,93.75,0.0
422.71484375,-27.34375,-35.15625,-31.73828125,-30.2734375,143.5546875,0.0
422.71875,-52.734375,-9.27734375,-33.203125,-41.50390625,76.171875,0.0
422.72265625,-49.8046875,-28.3203125,-50.78125,-48.828125,26.85546875,0.0
422.7265625,-29.296875,-40.52734375,-52.734375,-40.0390625,76.171875,0.0
422.73046875,-10.7421875,-46.875,-49.31640625,-20.01953125,70.80078125,0.0
422.734375,-22.94921875,-56.640625,-57.12890625,-21.97265625,-8.30078125,0.0
422.73828125,-32.71484375,-58.10546875,-45.8984375,-30.2734375,-38.0859375,0.0
422.7421875,-19.04296875,-46.38671875,-33.203125,-29.296875,-65.4296875,0.0
422.74609375,-15.13671875,-16.6015625,-35.15625,-33.203125,-77.1484375,0.0
422.75,-12.20703125,-18.06640625,-38.0859375,-21.97265625,-57.12890625,0.0
422.75390625,-18.06640625,-35.15625,-41.50390625,-9.765625,-64.94140625,0.0
422.7578125,-21.97265625,-20.99609375,-39.0625,-13.671875,25.87890625,0.0
422.76171875,-20.99609375,-10.25390625,-42.96875,-25.87890625,52.24609375,0.0
422.765625,-15.13671875,-12.20703125,-33.203125,-23.92578125,0.0,0.0
422.76953125,-7.32421875,-12.6953125,-19.04296875,-21.484375,-11.71875,0.0
422.7734375,-20.99609375,-24.4140625,-21.97265625,-30.2734375,38.57421875,0.0
422.77734375,-39.55078125,-38.57421875,-35.15625,-32.2265625,-39.55078125,0.0
422.78125,-43.9453125,-44.43359375,-54.19921875,-41.50390625,-150.390625,0.0
422.78515625,-25.390625,-36.1328125,-31.73828125,-38.57421875,-122.0703125,0.0
422.7890625,-14.16015625,-20.5078125,-10.25390625,-32.2265625,-79.1015625,0.0
422.79296875,-22.4609375,-15.625,-36.1328125,-32.2265625,-54.19921875,0.0
422.796875,-29.78515625,-19.53125,-59.5703125,-28.3203125,-23.4375,0.0
422.80078125,-40.52734375,-48.828125,-54.19921875,-43.45703125,-126.953125,0.0
422.8046875,-35.15625,-49.31640625,-32.2265625,-41.9921875,-214.35546875,0.0
422.80859375,-14.16015625,-17.08984375,-18.5546875,-24.4140625,-208.0078125,0.0
422.8125,-13.671875,-37.109375,-31.25,-20.5078125,-209.47265625,0.0
422.81640625,-38.57421875,-45.8984375,-49.8046875,-25.87890625,-130.859375,0.0
422.8203125,-50.78125,-36.1328125,-50.78125,-32.71484375,-107.91015625,0.0
422.82421875,-36.62109375,-41.015625,-32.71484375,-36.62109375,-150.87890625,0.0
422.828125,-15.13671875,-30.76171875,-35.64453125,-29.78515625,32.2265625,0.0
422.83203125,-12.20703125,-20.5078125,-33.203125,-29.78515625,64.453125,0.0
422.8359375,-40.0390625,-24.90234375,-27.34375,-36.1328125,-41.9921875,0.0
422.83984375,-44.921875,-39.0625,-36.1328125,-30.76171875,44.43359375,0.0
422.84375,-22.4609375,-60.05859375,-59.08203125,-30.2734375,62.98828125,0.0
422.84765625,-18.06640625,-49.8046875,-65.91796875,-34.1796875,-27.83203125,0.0
422.8515625,-28.3203125,-20.99609375,-38.57421875,-41.50390625,-13.18359375,0.0
422.85546875,-39.0625,-17.578125,-25.390625,-36.62109375,44.43359375,0.0
422.859375,-38.0859375,-37.59765625,-26.3671875,-32.2265625,34.66796875,0.0
422.86328125,-23.4375,-56.15234375,-25.87890625,-26.3671875,21.484375,0.0
422.8671875,-19.53125,-34.1796875,-38.0859375,-23.92578125,84.47265625,0.0
422.87109375,-29.78515625,-14.6484375,-60.546875,-36.1328125,47.8515625,0.0
422.875,-54.6875,-29.78515625,-54.6875,-48.33984375,-35.64453125,0.0
422.87890625,-66.40625,-23.92578125,-40.52734375,-50.29296875,-128.90625,0.0
422.8828125,-55.6640625,-23.92578125,-34.1796875,-48.828125,-45.41015625,0.0
422.88671875,-29.296875,-29.296875,-34.66796875,-41.015625,-5.37109375,0.0
422.890625,-26.85546875,-35.64453125,-61.03515625,-40.52734375,-32.71484375,0.0
422.89453125,-49.31640625,-39.0625,-52.734375,-45.41015625,45.41015625,0.0
422.8984375,-61.03515625,-47.8515625,-30.76171875,-42.48046875,-45.8984375,0.0
422.90234375,-53.22265625,-44.921875,-38.57421875,-37.109375,-111.81640625,0.0
422.90625,-34.1796875,-33.203125,-45.41015625,-33.69140625,-34.1796875,0.0
422.91015625,-27.34375,-32.2265625,-45.41015625,-31.73828125,-32.71484375,0.0
422.9140625,-38.57421875,-39.55078125,-33.203125,-30.76171875,-63.96484375,0.0
422.91796875,-49.8046875,-35.15625,-31.73828125,-29.78515625,-27.34375,0.0
422.921875,-49.31640625,-32.71484375,-41.50390625,-34.66796875,-57.12890625,0.0
422.92578125,-38.57421875,-25.390625,-33.69140625,-42.96875,-110.83984375,0.0
422.9296875,-32.71484375,-6.34765625,-20.99609375,-39.55078125,-54.19921875,0.0
422.93359375,-53.22265625,-18.5546875,-25.87890625,-41.50390625,-71.77734375,0.0
422.9375,-70.80078125,-30.2734375,-28.3203125,-45.41015625,-76.171875,0.0
422.94140625,-67.3828125,-29.296875,-18.5546875,-48.33984375,-32.71484375,0.0
422.9453125,-74.21875,-38.57421875,-30.2734375,-64.453125,-30.2734375,0.0
422.94921875,-78.125,-35.15625,-36.1328125,-71.2890625,-12.20703125,0.0
422.953125,-79.58984375,-12.6953125,-23.92578125,-68.84765625,45.8984375,0.0
422.95703125,-100.09765625,-10.7421875,-30.76171875,-87.890625,-20.5078125,0.0
422.9609375,-124.51171875,-18.5546875,-39.55078125,-115.234375,-145.5078125,0.0
422.96484375,-119.140625,-17.578125,-33.69140625,-120.60546875,-90.8203125,0.0
422.96875,-113.76953125,-12.6953125,-25.390625,-117.67578125,-59.08203125,0.0
422.97265625,-129.39453125,-7.32421875,-29.296875,-123.046875,-129.39453125,0.0
422.9765625,-144.04296875,-16.6015625,-28.80859375,-128.41796875,-219.23828125,0.0
422.98046875,-158.69140625,-21.97265625,-39.0625,-146.97265625,-242.67578125,0.0
422.984375,-164.0625,4.39453125,-40.0390625,-166.9921875,-170.8984375,0.0
422.98828125,-166.9921875,37.109375,-27.83203125,-170.41015625,-112.3046875,0.0
422.9921875,-176.26953125,31.25,-30.76171875,-179.19921875,-102.5390625,0.0
422.99609375,-195.80078125,41.015625,-44.43359375,-190.91796875,-82.51953125,0.0
423.0,-209.47265625,59.5703125,-50.29296875,-201.66015625,-142.08984375,0.0
423.00390625,-194.3359375,53.22265625,-54.19921875,-197.265625,-64.94140625,0.0
423.0078125,-174.8046875,40.0390625,-56.640625,-176.7578125,31.73828125,0.0
423.01171875,-164.0625,24.4140625,-37.59765625,-164.55078125,-10.25390625,0.0
423.015625,-163.57421875,27.83203125,-35.15625,-163.57421875,-27.34375,0.0
423.01953125,-170.41015625,40.52734375,-41.9921875,-166.50390625,-101.5625,0.0
423.0234375,-153.3203125,30.76171875,-46.38671875,-153.80859375,-108.88671875,0.0
423.02734375,-109.375,22.94921875,-62.5,-118.65234375,-63.96484375,0.0
423.03125,-72.265625,1.953125,-60.546875,-85.44921875,-18.06640625,0.0
423.03515625,-72.265625,-16.6015625,-66.40625,-76.171875,6.8359375,0.0
423.0390625,-67.3828125,4.8828125,-84.47265625,-59.5703125,-55.17578125,0.0
423.04296875,-50.29296875,2.9296875,-85.9375,-46.875,-73.2421875,0.0
423.046875,-12.6953125,-21.97265625,-69.82421875,-16.6015625,-39.55078125,0.0
423.05078125,10.7421875,-27.34375,-66.89453125,2.9296875,-26.85546875,0.0
423.0546875,7.8125,-21.484375,-76.66015625,13.671875,9.765625,0.0
423.05859375,3.41796875,-35.15625,-68.84765625,25.87890625,-41.015625,0.0
423.0625,17.08984375,-59.08203125,-58.10546875,35.15625,-58.59375,0.0
423.06640625,45.8984375,-47.8515625,-43.9453125,49.8046875,6.8359375,0.0
423.0703125,56.15234375,-27.83203125,-44.43359375,48.33984375,0.48828125,0.0
423.07421875,46.875,-38.0859375,-53.22265625,48.33984375,17.08984375,0.0
423.078125,34.66796875,-61.5234375,-46.875,55.17578125,4.39453125,0.0
423.08203125,40.52734375,-55.17578125,-56.640625,56.15234375,-52.24609375,0.0
423.0859375,62.01171875,-59.08203125,-76.171875,57.6171875,-5.37109375,0.0
423.08984375,63.4765625,-79.1015625,-65.91796875,58.59375,0.9765625,0.0
423.09375,53.22265625,-75.1953125,-35.64453125,63.96484375,17.578125,0.0
423.09765625,34.66796875,-59.08203125,-43.45703125,54.19921875,8.7890625,0.0
423.1015625,23.92578125,-45.8984375,-76.66015625,32.2265625,34.1796875,0.0
423.10546875,48.828125,-39.55078125,-64.94140625,39.0625,48.828125,0.0
423.109375,63.96484375,-62.5,-34.66796875,51.7578125,-44.43359375,0.0
423.11328125,42.96875,-77.1484375,-35.15625,41.015625,-21.484375,0.0
423.1171875,20.5078125,-48.828125,-43.45703125,31.25,-49.31640625,0.0
423.12109375,12.20703125,-44.921875,-46.38671875,25.390625,-52.734375,0.0
423.125,18.06640625,-61.03515625,-59.5703125,20.5078125,6.34765625,0.0
423.12890625,37.109375,-58.10546875,-62.01171875,26.3671875,12.6953125,0.0
423.1328125,31.25,-76.66015625,-49.31640625,14.6484375,33.203125,0.0
423.13671875,17.578125,-79.58984375,-53.22265625,13.18359375,52.734375,0.0
423.140625,15.13671875,-80.56640625,-58.59375,7.32421875,-31.25,0.0
423.14453125,16.11328125,-62.5,-41.015625,2.44140625,-98.14453125,0.0
423.1484375,19.53125,-35.64453125,-42.48046875,4.8828125,-66.89453125,0.0
423.15234375,23.92578125,-46.38671875,-48.828125,8.30078125,-18.5546875,0.0
423.15625,15.625,-69.3359375,-29.78515625,15.13671875,29.78515625,0.0
423.16015625,4.39453125,-83.0078125,-28.3203125,13.18359375,62.98828125,0.0
423.1640625,-2.44140625,-70.3125,-45.41015625,11.23046875,-4.8828125,0.0
423.16796875,1.953125,-47.36328125,-56.15234375,-0.9765625,-34.1796875,0.0
423.171875,16.6015625,-39.0625,-46.875,1.46484375,27.83203125,0.0
423.17578125,14.6484375,-33.203125,-35.15625,9.765625,-29.78515625,0.0
423.1796875,8.30078125,-29.78515625,-29.78515625,6.8359375,-146.97265625,0.0
423.18359375,9.765625,-59.08203125,-43.45703125,-3.90625,-139.16015625,0.0
423.1875,10.7421875,-59.5703125,-59.08203125,-8.7890625,-68.359375,0.0
423.19140625,24.4140625,-43.45703125,-31.73828125,6.8359375,25.390625,0.0
423.1953125,18.5546875,-32.71484375,-16.11328125,16.11328125,7.32421875,0.0
423.19921875,9.765625,-23.92578125,-35.64453125,12.20703125,-10.25390625,0.0
423.203125,14.6484375,-40.0390625,-49.8046875,-1.953125,29.78515625,0.0
423.20703125,23.4375,-34.66796875,-41.9921875,-2.44140625,49.8046875,0.0
423.2109375,33.69140625,-29.78515625,-29.296875,20.99609375,34.1796875,0.0
423.21484375,21.484375,-31.25,-14.6484375,23.92578125,-13.671875,0.0
423.21875,3.90625,-31.73828125,-17.08984375,-1.46484375,-90.33203125,0.0
423.22265625,1.953125,-44.43359375,-17.578125,-5.859375,-50.29296875,0.0
423.2265625,-1.953125,-54.6875,-31.73828125,-16.6015625,5.859375,0.0
423.23046875,8.7890625,-20.5078125,-52.24609375,-27.83203125,-78.61328125,0.0
423.234375,0.9765625,0.0,-38.0859375,-43.9453125,-69.82421875,0.0
423.23828125,-13.18359375,-0.48828125,-22.4609375,-58.10546875,-78.61328125,0.0
423.2421875,10.25390625,-13.18359375,-22.4609375,-50.29296875,-174.8046875,0.0
423.24609375,16.11328125,-12.20703125,-18.5546875,-63.4765625,-127.44140625,0.0
423.25,-6.34765625,-13.671875,-17.08984375,-87.890625,0.9765625,0.0
423.25390625,-41.015625,30.2734375,-16.11328125,-107.91015625,-10.25390625,0.0
423.2578125,-83.984375,66.40625,-45.8984375,-139.16015625,-66.40625,0.0
423.26171875,-78.61328125,44.921875,-67.87109375,-147.4609375,-67.87109375,0.0
423.265625,-38.57421875,34.1796875,-40.52734375,-130.859375,-80.56640625,0.0
423.26953125,-53.7109375,10.25390625,-9.27734375,-155.76171875,-35.64453125,0.0
423.2734375,-84.47265625,33.203125,0.48828125,-181.640625,72.265625,0.0
423.27734375,-82.03125,81.0546875,5.859375,-171.38671875,10.7421875,0.0
423.28125,-144.53125,63.96484375,-39.0625,-203.61328125,-32.71484375,0.0
423.28515625,-178.22265625,49.31640625,-67.87109375,-231.93359375,-12.20703125,0.0
423.2890625,-148.4375,77.63671875,-52.24609375,-228.515625,-20.01953125,0.0
423.29296875,-150.87890625,84.47265625,-45.41015625,-229.98046875,-49.31640625,0.0
423.296875,-173.828125,67.87109375,-45.41015625,-236.81640625,-102.5390625,0.0
423.30078125,-182.12890625,44.921875,-39.0625,-231.4453125,-117.67578125,0.0
423.3046875,-150.390625,35.64453125,-50.78125,-215.8203125,-104.00390625,0.0
423.30859375,-138.18359375,56.640625,-64.453125,-220.703125,-55.17578125,0.0
423.3125,-180.17578125,72.265625,-55.17578125,-222.65625,-35.15625,0.0
423.31640625,-205.56640625,62.01171875,-48.828125,-213.37890625,-32.2265625,0.0
423.3203125,-170.8984375,37.109375,-30.2734375,-199.70703125,-83.984375,0.0
423.32421875,-132.8125,36.1328125,-30.2734375,-192.87109375,-105.95703125,0.0
423.328125,-118.65234375,54.19921875,-50.29296875,-196.77734375,-67.3828125,0.0
423.33203125,-120.1171875,30.2734375,-35.15625,-196.2890625,-49.31640625,0.0
423.3359375,-139.6484375,14.16015625,-15.13671875,-191.89453125,-78.125,0.0
423.33984375,-161.1328125,53.7109375,-11.23046875,-191.89453125,-13.671875,0.0
423.34375,-147.94921875,70.3125,-20.5078125,-185.05859375,-42.48046875,0.0
423.34765625,-121.58203125,50.78125,-51.7578125,-167.96875,-14.16015625,0.0
423.3515625,-124.0234375,41.9921875,-41.50390625,-146.97265625,20.01953125,0.0
423.35546875,-144.04296875,9.27734375,-13.18359375,-124.0234375,-33.203125,0.0
423.359375,-154.296875,-27.83203125,-9.27734375,-124.51171875,-82.03125,0.0
423.36328125,-141.11328125,-10.7421875,-14.16015625,-129.39453125,-49.31640625,0.0
423.3671875,-114.74609375,40.52734375,-8.30078125,-99.12109375,-43.45703125,0.0
423.37109375,-120.1171875,69.3359375,-32.71484375,-111.328125,-63.4765625,0.0
423.375,-133.7890625,24.90234375,-64.94140625,-158.203125,38.57421875,0.0
423.37890625,-127.9296875,-10.7421875,-63.96484375,-152.34375,-3.90625,0.0
423.3828125,-120.1171875,-17.08984375,-66.40625,-144.53125,-46.38671875,0.0
423.38671875,-110.83984375,-87.890625,-59.08203125,-122.0703125,61.5234375,0.0
423.390625,-100.5859375,-28.3203125,-54.19921875,-87.890625,73.2421875,0.0
423.39453125,-90.33203125,63.96484375,-61.5234375,-76.66015625,25.87890625,0.0
423.3984375,-82.51953125,41.50390625,-70.3125,-88.8671875,-23.92578125,0.0
423.40234375,-66.89453125,-16.6015625,-58.10546875,-116.69921875,-76.66015625,0.0
423.40625,-13.18359375,-47.8515625,-36.62109375,-106.4453125,-95.21484375,0.0
423.41015625,58.59375,-32.2265625,-17.08984375,-93.75,-54.6875,0.0
423.4140625,30.76171875,-54.6875,-21.97265625,-101.07421875,36.1328125,0.0
423.41796875,-60.05859375,-35.15625,-50.29296875,-120.60546875,76.66015625,0.0
423.421875,-102.05078125,4.39453125,-62.98828125,-132.8125,-44.921875,0.0
423.42578125,-115.234375,-3.90625,-64.453125,-121.58203125,-105.46875,0.0
423.4296875,-76.171875,1.46484375,-60.546875,-83.0078125,34.66796875,0.0
423.43359375,-22.4609375,-2.44140625,-52.734375,-44.921875,90.33203125,0.0
423.4375,-29.296875,-2.9296875,-49.8046875,-50.29296875,-20.5078125,0.0
423.44140625,-12.6953125,-25.87890625,-49.31640625,-57.12890625,-58.59375,0.0
423.4453125,28.80859375,-121.09375,-32.2265625,-46.875,18.06640625,0.0
423.44921875,41.015625,-49.31640625,-24.90234375,-12.6953125,53.22265625,0.0
423.453125,29.78515625,21.97265625,-41.50390625,7.32421875,117.1875,0.0
423.45703125,-39.0625,23.4375,-73.73046875,-12.6953125,62.5,0.0
423.4609375,-28.3203125,-73.2421875,-81.0546875,-15.13671875,-35.15625,0.0
423.46484375,67.3828125,-147.4609375,-56.640625,0.0,-74.70703125,0.0
423.46875,96.19140625,-64.453125,-47.8515625,-9.765625,-91.796875,0.0
423.47265625,97.16796875,-28.3203125,-80.078125,-5.37109375,-73.2421875,0.0
423.4765625,39.0625,-3.41796875,-92.28515625,18.5546875,-44.921875,0.0
423.48046875,29.296875,15.625,-52.734375,33.203125,-86.9140625,0.0
423.484375,92.28515625,-27.34375,-35.64453125,31.73828125,-96.6796875,0.0
423.48828125,146.484375,-19.53125,-44.43359375,46.38671875,-9.765625,0.0
423.4921875,115.72265625,38.0859375,-51.26953125,48.33984375,-6.8359375,0.0
423.49609375,74.70703125,34.66796875,-31.73828125,70.3125,-42.96875,0.0
423.5,95.21484375,-119.140625,-7.8125,142.08984375,-80.078125,0.0
423.50390625,117.1875,-51.7578125,-51.7578125,162.109375,-108.3984375,0.0
423.5078125,124.0234375,136.71875,-55.17578125,118.1640625,-34.66796875,0.0
423.51171875,75.68359375,67.87109375,-8.30078125,85.9375,-4.39453125,0.0
423.515625,168.9453125,7.8125,54.6875,174.8046875,-30.2734375,0.0
423.51953125,267.578125,-4.8828125,88.8671875,243.65234375,-10.25390625,0.0
423.5234375,210.9375,17.08984375,-5.859375,194.82421875,-32.2265625,0.0
423.52734375,218.26171875,29.78515625,-20.99609375,176.26953125,44.43359375,0.0
423.53125,245.60546875,-41.9921875,5.859375,190.4296875,55.17578125,0.0
423.53515625,207.51953125,85.44921875,-8.30078125,180.6640625,-30.76171875,0.0
423.5390625,133.30078125,143.06640625,-43.45703125,60.546875,-83.984375,0.0
423.54296875,94.23828125,-73.73046875,-48.33984375,46.38671875,-59.5703125,0.0
423.546875,132.32421875,-76.171875,10.7421875,111.328125,-63.4765625,0.0
423.55078125,48.828125,49.31640625,-65.91796875,-20.99609375,-72.75390625,0.0
423.5546875,41.015625,64.94140625,-80.56640625,-10.25390625,-46.875,0.0
423.55859375,-1.46484375,19.53125,-63.96484375,35.64453125,-102.5390625,0.0
423.5625,-38.0859375,-34.66796875,-78.61328125,14.16015625,-89.84375,0.0
423.56640625,-4.39453125,-16.11328125,-54.6875,11.23046875,-35.64453125,0.0
423.5703125,15.13671875,161.1328125,-20.99609375,38.0859375,-83.0078125,0.0
423.57421875,-14.16015625,218.75,-54.6875,23.92578125,-143.5546875,0.0
423.578125,-29.78515625,77.63671875,-74.21875,-20.5078125,-144.04296875,0.0
423.58203125,-39.0625,141.6015625,-44.921875,-8.30078125,-66.40625,0.0
423.5859375,-20.01953125,422.8515625,-36.62109375,45.41015625,-17.578125,0.0
423.58984375,18.5546875,401.85546875,-33.203125,61.5234375,-13.18359375,0.0
423.59375,52.24609375,374.0234375,-41.9921875,10.25390625,55.17578125,0.0
423.59765625,66.40625,458.0078125,-80.078125,-34.66796875,5.37109375,0.0
423.6015625,62.5,544.43359375,-80.078125,-12.20703125,-87.890625,0.0
423.60546875,28.3203125,584.47265625,-45.8984375,33.203125,-109.86328125,0.0
423.609375,-72.75390625,573.2421875,-53.7109375,6.34765625,-20.01953125,0.0
423.61328125,-74.21875,603.515625,-74.70703125,-41.50390625,-42.96875,0.0
423.6171875,-14.16015625,585.9375,-86.9140625,-58.10546875,-149.90234375,0.0
423.62109375,23.4375,626.46484375,-86.9140625,-51.7578125,-100.09765625,0.0
423.625,25.87890625,614.2578125,-47.36328125,-13.671875,-42.96875,0.0
423.62890625,-45.8984375,628.90625,-37.59765625,-37.59765625,-18.5546875,0.0
423.6328125,-100.09765625,552.24609375,-43.9453125,-84.9609375,-7.32421875,0.0
423.63671875,-65.4296875,462.40234375,-45.8984375,-69.82421875,17.578125,0.0
423.640625,-20.01953125,482.91015625,-62.5,-40.52734375,80.078125,0.0
423.64453125,2.9296875,495.60546875,-61.5234375,-57.12890625,35.64453125,0.0
423.6484375,22.94921875,571.77734375,-36.62109375,-52.24609375,61.03515625,0.0
423.65234375,-3.90625,612.3046875,-14.16015625,6.8359375,162.59765625,0.0
423.65625,-72.75390625,598.14453125,-47.36328125,10.25390625,80.078125,0.0
423.66015625,-60.05859375,610.3515625,-69.3359375,-9.27734375,-27.83203125,0.0
423.6640625,-35.15625,627.44140625,-43.45703125,6.34765625,27.83203125,0.0
423.66796875,-57.12890625,569.82421875,-32.2265625,0.48828125,45.41015625,0.0
423.671875,-18.06640625,482.421875,-15.13671875,-33.203125,20.5078125,0.0
423.67578125,-2.44140625,516.6015625,-4.39453125,-40.0390625,-6.34765625,0.0
423.6796875,-59.08203125,550.29296875,-24.90234375,-62.01171875,-35.64453125,0.0
423.68359375,-48.33984375,453.61328125,-27.34375,-47.36328125,20.01953125,0.0
423.6875,-10.25390625,431.640625,-28.80859375,-0.9765625,67.3828125,0.0
423.69140625,-9.765625,455.56640625,-33.203125,10.25390625,68.359375,0.0
423.6953125,-2.9296875,392.08984375,-15.13671875,23.92578125,38.57421875,0.0
423.69921875,-14.6484375,422.8515625,-26.3671875,-7.32421875,52.734375,0.0
423.703125,-18.06640625,393.06640625,-56.640625,-74.21875,62.5,0.0
423.70703125,-2.9296875,285.64453125,-54.6875,-64.94140625,17.08984375,0.0
423.7109375,-37.59765625,331.0546875,-49.31640625,-50.78125,24.4140625,0.0
423.71484375,-76.171875,390.13671875,-30.76171875,-39.55078125,21.484375,0.0
423.71875,-59.08203125,367.1875,-20.5078125,-4.39453125,-49.31640625,0.0
423.72265625,-32.2265625,317.3828125,-50.78125,-27.83203125,-117.67578125,0.0
423.7265625,2.44140625,289.0625,-52.24609375,-49.31640625,-104.00390625,0.0
423.73046875,0.48828125,259.27734375,-25.87890625,-24.90234375,-90.33203125,0.0
423.734375,-60.546875,243.1640625,-49.8046875,-53.22265625,-126.46484375,0.0
423.73828125,-73.2421875,248.046875,-50.78125,-83.984375,-113.76953125,0.0
423.7421875,-45.8984375,291.015625,-13.671875,-23.4375,-105.46875,0.0
423.74609375,-49.31640625,285.64453125,-33.203125,12.6953125,-87.40234375,0.0
423.75,-46.38671875,173.33984375,-56.640625,-15.625,-69.3359375,0.0
423.75390625,-26.85546875,186.5234375,-43.9453125,-23.92578125,-162.109375,0.0
423.7578125,-46.38671875,304.6875,-37.109375,-40.0390625,-235.3515625,0.0
423.76171875,-37.109375,290.0390625,-21.97265625,-33.203125,-229.00390625,0.0
423.765625,-18.06640625,223.14453125,-29.296875,-18.5546875,-204.58984375,0.0
423.76953125,-41.50390625,211.42578125,-53.22265625,-46.875,-92.28515625,0.0
423.7734375,-41.9921875,242.1875,-32.71484375,-47.8515625,-1.46484375,0.0
423.77734375,-8.7890625,248.53515625,0.48828125,-0.48828125,-66.89453125,0.0
423.78125,-4.8828125,227.05078125,-8.7890625,9.765625,-141.11328125,0.0
423.78515625,-36.1328125,191.40625,-32.2265625,-35.15625,-52.24609375,0.0
423.7890625,-52.734375,207.51953125,-40.52734375,-73.2421875,93.75,0.0
423.79296875,-14.16015625,275.390625,-19.53125,-50.29296875,104.00390625,0.0
423.796875,-12.6953125,199.21875,-26.85546875,-13.18359375,-40.0390625,0.0
423.80078125,-46.38671875,115.234375,-62.01171875,-15.625,-21.484375,0.0
423.8046875,-61.03515625,212.40234375,-58.10546875,-41.9921875,21.484375,0.0
423.80859375,-63.4765625,208.49609375,-36.1328125,-74.21875,43.9453125,0.0
423.8125,-80.56640625,190.4296875,-40.0390625,-80.56640625,108.88671875,0.0
423.81640625,-82.51953125,236.81640625,-18.5546875,-46.875,-24.4140625,0.0
423.8203125,-82.51953125,213.37890625,-1.953125,-82.51953125,-79.1015625,0.0
423.82421875,-93.26171875,134.27734375,-5.37109375,-116.2109375,100.5859375,0.0
423.828125,-103.515625,146.97265625,-21.484375,-122.0703125,167.48046875,0.0
423.83203125,-121.58203125,183.10546875,-45.8984375,-109.86328125,81.54296875,0.0
423.8359375,-162.109375,209.47265625,-38.57421875,-108.3984375,31.73828125,0.0
423.83984375,-191.89453125,217.7734375,-54.19921875,-172.36328125,4.39453125,0.0
423.84375,-194.3359375,145.99609375,-102.5390625,-229.4921875,-27.83203125,0.0
423.84765625,-137.6953125,145.01953125,-56.15234375,-183.59375,-34.66796875,0.0
423.8515625,-87.890625,180.17578125,-8.30078125,-116.69921875,7.32421875,0.0
423.85546875,-95.21484375,164.0625,-3.90625,-101.07421875,-19.53125,0.0
423.859375,-136.71875,132.8125,-15.13671875,-125.0,-60.05859375,0.0
423.86328125,-172.8515625,133.7890625,-57.12890625,-143.5546875,-28.80859375,0.0
423.8671875,-100.5859375,121.09375,-43.45703125,-90.33203125,29.78515625,0.0
423.87109375,-54.19921875,104.00390625,-29.78515625,-86.42578125,27.83203125,0.0
423.875,-124.0234375,109.375,-69.3359375,-132.32421875,-32.2265625,0.0
423.87890625,-125.48828125,160.15625,-60.05859375,-124.0234375,-95.703125,0.0
423.8828125,-84.9609375,144.53125,-38.57421875,-88.8671875,-66.40625,0.0
423.88671875,-71.77734375,87.890625,-62.98828125,-78.125,33.203125,0.0
423.890625,-66.40625,100.5859375,-65.4296875,-68.84765625,83.49609375,0.0
423.89453125,-81.54296875,126.46484375,-28.3203125,-57.12890625,116.2109375,0.0
423.8984375,-100.09765625,55.17578125,-44.43359375,-91.30859375,103.02734375,0.0
423.90234375,-60.546875,55.6640625,-40.52734375,-44.43359375,-71.2890625,0.0
423.90625,-20.99609375,134.765625,-53.22265625,5.37109375,-72.265625,0.0
423.91015625,-52.24609375,108.3984375,-86.9140625,-45.8984375,93.75,0.0
423.9140625,-58.59375,82.03125,-42.96875,-51.26953125,52.734375,0.0
423.91796875,-23.92578125,101.5625,-24.90234375,-42.96875,-24.90234375,0.0
423.921875,-8.30078125,66.40625,-31.25,-54.19921875,-34.66796875,0.0
423.92578125,-45.8984375,-8.30078125,-45.41015625,-83.0078125,15.625,0.0
423.9296875,-83.0078125,-74.21875,-77.1484375,-87.890625,22.4609375,0.0
423.93359375,-105.46875,49.31640625,-84.47265625,-66.40625,36.1328125,0.0
423.9375,-93.26171875,114.2578125,-53.7109375,-72.75390625,-35.64453125,0.0
423.94140625,-69.3359375,57.6171875,-36.1328125,-98.6328125,-150.87890625,0.0
423.9453125,-62.98828125,1.953125,-31.25,-95.703125,-116.2109375,0.0
423.94921875,-74.21875,88.37890625,-28.3203125,-110.83984375,-68.359375,0.0
423.953125,-155.2734375,231.4453125,-29.296875,-168.9453125,-77.1484375,0.0
423.95703125,-166.015625,167.48046875,9.765625,-138.671875,-92.28515625,0.0
423.9609375,-101.5625,134.27734375,0.9765625,-93.75,-96.6796875,0.0
423.96484375,-100.5859375,190.91796875,-58.59375,-87.40234375,-83.984375,0.0
423.96875,-96.6796875,63.96484375,-113.76953125,-98.14453125,-37.109375,0.0
423.97265625,-83.0078125,50.29296875,-89.35546875,-107.421875,12.20703125,0.0
423.9765625,-53.22265625,212.890625,-33.69140625,-74.70703125,-7.32421875,0.0
423.98046875,-0.48828125,150.390625,-0.48828125,-15.625,-86.42578125,0.0
423.984375,-43.45703125,24.90234375,30.2734375,-62.01171875,-93.75,0.0
423.98828125,-158.69140625,14.16015625,-47.36328125,-159.1796875,-5.859375,0.0
423.9921875,-124.0234375,51.7578125,-41.50390625,-94.23828125,-17.578125,0.0
423.99609375,-81.0546875,126.46484375,2.44140625,-22.94921875,-92.7734375,0.0
424.0,-134.765625,168.9453125,-74.70703125,-84.9609375,-191.40625,0.0
424.00390625,-36.1328125,-39.55078125,-70.3125,-73.73046875,-212.890625,0.0
424.0078125,-15.625,-143.06640625,-52.24609375,-47.36328125,-79.1015625,0.0
424.01171875,-50.29296875,215.8203125,-50.29296875,-5.37109375,-42.48046875,0.0
424.015625,-14.16015625,213.37890625,-32.71484375,42.48046875,-74.21875,0.0
424.01953125,1.46484375,97.16796875,-22.94921875,20.99609375,-82.51953125,0.0
424.0234375,-14.6484375,105.46875,-20.5078125,-8.30078125,-107.91015625,0.0
424.02734375,-57.12890625,50.78125,-69.82421875,-67.3828125,-67.3828125,0.0
424.03125,-38.57421875,34.66796875,-90.33203125,-55.6640625,-7.8125,0.0
424.03515625,9.765625,-28.80859375,-57.6171875,5.859375,34.1796875,0.0
424.0390625,39.0625,-7.8125,-30.2734375,23.92578125,5.37109375,0.0
424.04296875,8.7890625,81.0546875,-45.41015625,-1.953125,-38.0859375,0.0
424.046875,-5.859375,76.66015625,-72.265625,19.53125,40.0390625,0.0
424.05078125,32.71484375,-52.24609375,-59.08203125,79.58984375,49.31640625,0.0
424.0546875,10.7421875,57.6171875,-73.73046875,40.52734375,-4.8828125,0.0
424.05859375,-28.3203125,95.21484375,-104.98046875,-0.48828125,-37.109375,0.0
424.0625,-19.04296875,33.69140625,-55.17578125,47.8515625,-27.34375,0.0
424.06640625,-15.625,33.203125,-26.85546875,45.41015625,7.8125,0.0
424.0703125,47.36328125,-142.08984375,-11.23046875,53.7109375,-1.953125,0.0
424.07421875,41.015625,-24.4140625,-41.50390625,16.11328125,-29.296875,0.0
424.078125,-25.87890625,219.23828125,-57.6171875,-33.203125,-57.6171875,0.0
424.08203125,1.953125,197.75390625,-10.7421875,1.46484375,-50.78125,0.0
424.0859375,-35.64453125,106.4453125,-46.38671875,-30.2734375,-25.390625,0.0
424.08984375,-37.109375,1.46484375,-74.21875,-27.83203125,30.2734375,0.0
424.09375,22.4609375,-73.73046875,-25.390625,41.015625,80.078125,0.0
424.09765625,-26.85546875,64.94140625,-20.99609375,14.6484375,17.08984375,0.0
424.1015625,-72.265625,134.27734375,-77.63671875,-60.05859375,-73.73046875,0.0
424.10546875,-39.55078125,88.37890625,-63.4765625,-38.0859375,-59.08203125,0.0
424.109375,-15.13671875,-17.08984375,-45.8984375,-16.11328125,62.98828125,0.0
424.11328125,-2.44140625,-12.6953125,-44.43359375,6.34765625,114.74609375,0.0
424.1171875,4.8828125,149.90234375,-35.64453125,14.6484375,-10.25390625,0.0
424.12109375,-30.76171875,106.4453125,-52.24609375,-25.87890625,-40.52734375,0.0
424.125,-36.1328125,43.9453125,-28.80859375,-12.20703125,25.87890625,0.0
424.12890625,6.34765625,66.40625,8.30078125,59.5703125,3.41796875,0.0
424.1328125,-22.4609375,123.046875,-22.94921875,19.04296875,-62.01171875,0.0
424.13671875,-54.6875,89.35546875,-65.4296875,-57.6171875,-36.1328125,0.0
424.140625,-40.0390625,53.22265625,-61.03515625,-54.19921875,9.27734375,0.0
424.14453125,-27.34375,112.79296875,-19.04296875,-18.06640625,-12.20703125,0.0
424.1484375,-21.97265625,134.765625,-22.4609375,2.9296875,-46.875,0.0
424.15234375,-18.5546875,139.16015625,-41.50390625,-1.46484375,-38.57421875,0.0
424.15625,-14.16015625,123.53515625,-31.73828125,-8.30078125,-17.578125,0.0
424.16015625,-16.11328125,87.40234375,-43.9453125,-24.4140625,-14.6484375,0.0
424.1640625,9.765625,21.97265625,-21.484375,-5.37109375,-50.29296875,0.0
424.16796875,13.671875,54.19921875,-8.30078125,-15.13671875,18.06640625,0.0
424.171875,-8.7890625,110.3515625,-38.57421875,-15.13671875,20.99609375,0.0
424.17578125,18.06640625,70.80078125,-26.3671875,53.7109375,-46.38671875,0.0
424.1796875,3.41796875,79.1015625,-4.8828125,62.98828125,-145.01953125,0.0
424.18359375,-34.66796875,145.5078125,-19.53125,-27.34375,-189.453125,0.0
424.1875,-33.69140625,122.0703125,-41.50390625,-63.96484375,-108.88671875,0.0
424.19140625,-12.20703125,98.14453125,-38.57421875,-7.8125,-77.63671875,0.0
424.1953125,-25.390625,130.37109375,-30.76171875,-26.3671875,-93.26171875,0.0
424.19921875,-84.47265625,116.2109375,-54.6875,-93.75,-160.64453125,0.0
424.203125,-17.578125,113.76953125,-35.15625,-36.62109375,-108.3984375,0.0
424.20703125,33.69140625,122.0703125,-9.27734375,14.16015625,-73.2421875,0.0
424.2109375,-4.8828125,-25.87890625,-41.015625,-0.9765625,-86.42578125,0.0
424.21484375,-50.29296875,55.6640625,-56.640625,-16.11328125,-81.0546875,0.0
424.21875,-50.29296875,188.96484375,-56.15234375,-39.0625,-80.078125,0.0
424.22265625,-47.8515625,80.56640625,-34.1796875,-84.9609375,-37.109375,0.0
424.2265625,-51.7578125,78.61328125,-18.5546875,-88.37890625,-16.6015625,0.0
424.23046875,-51.7578125,115.72265625,-30.76171875,-29.78515625,31.73828125,0.0
424.234375,-31.25,61.5234375,2.9296875,1.953125,-39.0625,0.0
424.23828125,-32.71484375,-51.26953125,-10.25390625,-23.92578125,-220.703125,0.0
424.2421875,-45.41015625,36.62109375,-85.9375,-33.69140625,-234.375,0.0
424.24609375,-48.828125,253.90625,-31.73828125,-20.01953125,-175.78125,0.0
424.25,-120.60546875,208.0078125,-20.5078125,-112.79296875,-136.23046875,0.0
424.25390625,-155.76171875,105.46875,-58.10546875,-166.015625,-141.11328125,0.0
424.2578125,-108.3984375,104.4921875,-50.29296875,-94.23828125,-242.67578125,0.0
424.26171875,-10.25390625,90.33203125,-27.34375,-23.92578125,-247.55859375,0.0
424.265625,24.90234375,-3.41796875,-16.11328125,-25.87890625,-108.3984375,0.0
424.26953125,-11.23046875,-58.59375,-32.71484375,-50.29296875,-32.2265625,0.0
424.2734375,2.9296875,26.85546875,-25.87890625,-43.45703125,-6.8359375,0.0
424.27734375,-36.1328125,105.95703125,-12.20703125,-41.9921875,9.27734375,0.0
424.28125,-107.91015625,89.84375,-44.921875,-82.51953125,-5.37109375,0.0
424.28515625,-108.88671875,96.6796875,-60.546875,-88.8671875,29.78515625,0.0
424.2890625,-86.42578125,61.03515625,-25.87890625,-31.25,12.6953125,0.0
424.29296875,-96.19140625,72.265625,-26.3671875,-3.90625,43.9453125,0.0
424.296875,-67.87109375,109.86328125,-27.83203125,-11.23046875,57.12890625,0.0
424.30078125,-23.92578125,49.8046875,-32.2265625,-39.55078125,-58.59375,0.0
424.3046875,-8.7890625,50.78125,-58.59375,-93.26171875,-25.87890625,0.0
424.30859375,-10.7421875,105.46875,-34.1796875,-91.30859375,45.41015625,0.0
424.3125,-54.6875,113.76953125,-32.2265625,-75.68359375,-3.41796875,0.0
424.31640625,-28.80859375,74.21875,-21.484375,-15.625,-19.53125,0.0
424.3203125,24.90234375,25.390625,-4.8828125,22.4609375,8.7890625,0.0
424.32421875,14.16015625,55.6640625,-37.109375,-26.3671875,-3.41796875,0.0
424.328125,-5.37109375,109.375,-12.6953125,-3.41796875,42.48046875,0.0
424.33203125,-15.625,59.5703125,-16.6015625,2.44140625,93.26171875,0.0
424.3359375,-44.921875,7.8125,-48.828125,-39.0625,42.48046875,0.0
424.33984375,-74.70703125,85.9375,-50.78125,-53.22265625,15.13671875,0.0
424.34375,-65.4296875,103.02734375,-28.3203125,-32.2265625,-41.50390625,0.0
424.34765625,-48.828125,59.08203125,-11.23046875,-10.25390625,-53.7109375,0.0
424.3515625,-11.23046875,79.58984375,-0.9765625,24.4140625,-15.625,0.0
424.35546875,29.78515625,46.875,10.7421875,5.37109375,-21.484375,0.0
424.359375,-20.99609375,54.6875,-8.7890625,-40.52734375,10.7421875,0.0
424.36328125,-64.453125,125.48828125,-34.1796875,-47.8515625,47.8515625,0.0
424.3671875,-39.55078125,27.83203125,-51.7578125,-44.921875,100.5859375,0.0
424.37109375,-5.859375,-17.08984375,-28.3203125,-22.94921875,32.71484375,0.0
424.375,-37.109375,39.0625,-27.34375,-17.578125,-17.578125,0.0
424.37890625,-28.3203125,68.84765625,-17.578125,-19.53125,-10.25390625,0.0
424.3828125,-23.4375,37.109375,-29.296875,-73.73046875,18.06640625,0.0
424.38671875,-37.109375,18.5546875,-66.40625,-68.84765625,19.04296875,0.0
424.390625,-49.31640625,63.96484375,-75.68359375,-40.52734375,-31.25,0.0
424.39453125,-24.90234375,79.58984375,-47.8515625,-44.921875,14.6484375,0.0
424.3984375,-0.48828125,43.9453125,0.48828125,-6.34765625,-40.52734375,0.0
424.40234375,-78.61328125,11.71875,-34.1796875,-41.50390625,-121.58203125,0.0
424.40625,-125.48828125,24.4140625,-47.36328125,-81.0546875,-77.63671875,0.0
424.41015625,-61.03515625,56.15234375,-10.25390625,-35.64453125,-66.40625,0.0
424.4140625,8.30078125,0.9765625,-35.15625,-26.3671875,-111.328125,0.0
424.41796875,-6.34765625,-106.4453125,-37.59765625,-61.5234375,-155.2734375,0.0
424.421875,-42.96875,-32.71484375,-16.11328125,-40.52734375,-71.2890625,0.0
424.42578125,-53.22265625,77.63671875,-5.37109375,10.7421875,0.48828125,0.0
424.4296875,-70.3125,82.03125,-15.625,0.0,-80.078125,0.0
424.43359375,-77.63671875,70.3125,-42.48046875,-43.45703125,-82.51953125,0.0
424.4375,-79.1015625,8.7890625,-38.57421875,-55.17578125,24.90234375,0.0
424.44140625,-60.546875,-28.3203125,-30.76171875,-59.5703125,63.4765625,0.0
424.4453125,-30.2734375,-25.390625,-61.03515625,-70.3125,87.40234375,0.0
424.44921875,-28.3203125,30.2734375,-58.59375,-54.19921875,93.75,0.0
424.453125,-37.109375,47.8515625,-20.99609375,-25.390625,62.5,0.0
424.45703125,-26.85546875,-13.18359375,-10.7421875,-32.2265625,10.25390625,0.0
424.4609375,14.6484375,-85.9375,-21.484375,-20.99609375,-35.15625,0.0
424.46484375,-4.39453125,33.203125,-11.71875,-10.7421875,-30.76171875,0.0
424.46875,-86.42578125,50.29296875,-23.92578125,-34.1796875,-52.24609375,0.0
424.47265625,-75.1953125,20.99609375,-49.31640625,-21.97265625,-37.59765625,0.0
424.4765625,-47.8515625,23.92578125,-58.59375,-7.8125,-100.5859375,0.0
424.48046875,-55.6640625,29.78515625,-63.4765625,-33.203125,-212.40234375,0.0
424.484375,-31.73828125,-5.859375,-47.36328125,-55.6640625,-165.52734375,0.0
424.48828125,-19.53125,7.8125,-30.76171875,-51.26953125,-133.30078125,0.0
424.4921875,-42.48046875,84.47265625,-20.99609375,-13.18359375,-85.9375,0.0
424.49609375,-34.66796875,79.1015625,13.18359375,-0.48828125,-0.9765625,0.0
424.5,-35.15625,6.8359375,-12.20703125,-27.83203125,-60.05859375,0.0
424.50390625,-37.59765625,-60.05859375,-51.26953125,-56.15234375,-107.421875,0.0
424.5078125,4.8828125,-58.59375,-42.48046875,-41.50390625,-41.015625,0.0
424.51171875,-2.44140625,27.34375,-44.43359375,-16.6015625,-10.25390625,0.0
424.515625,-20.01953125,29.78515625,-46.875,-2.9296875,16.11328125,0.0
424.51953125,-15.625,28.3203125,-59.08203125,-8.7890625,-9.765625,0.0
424.5234375,-40.0390625,57.6171875,-33.69140625,-31.25,-127.44140625,0.0
424.52734375,-21.97265625,36.1328125,-3.90625,-1.46484375,-64.453125,0.0
424.53125,27.34375,-7.32421875,8.30078125,35.15625,23.92578125,0.0
424.53515625,9.765625,-55.6640625,7.8125,2.9296875,-47.36328125,0.0
424.5390625,-32.71484375,-21.484375,-12.6953125,-62.01171875,-42.96875,0.0
424.54296875,-41.50390625,65.91796875,-35.64453125,-53.22265625,14.6484375,0.0
424.546875,-31.73828125,73.2421875,-51.26953125,-22.94921875,-57.12890625,0.0
424.55078125,-3.90625,64.453125,-68.84765625,-29.78515625,-113.76953125,0.0
424.5546875,0.9765625,29.296875,-85.9375,-33.203125,-97.16796875,0.0
424.55859375,-27.34375,-76.171875,-64.94140625,-4.39453125,-119.62890625,0.0
424.5625,-45.41015625,-84.47265625,-30.76171875,-0.48828125,-75.1953125,0.0
424.56640625,-48.33984375,-1.46484375,-8.30078125,-17.578125,-37.109375,0.0
424.5703125,-15.13671875,61.5234375,0.9765625,-4.39453125,-85.9375,0.0
424.57421875,-30.76171875,55.17578125,-41.9921875,-16.11328125,-2.44140625,0.0
424.578125,-40.52734375,-14.6484375,-58.10546875,-48.828125,-52.24609375,0.0
424.58203125,20.01953125,-66.40625,-28.3203125,-29.78515625,-115.234375,0.0
424.5859375,17.08984375,-15.625,-47.36328125,-26.3671875,-6.34765625,0.0
424.58984375,-35.64453125,-16.6015625,-81.54296875,-31.25,32.71484375,0.0
424.59375,-59.08203125,-23.92578125,-62.01171875,-18.06640625,-5.859375,0.0
424.59765625,-56.640625,93.75,-22.94921875,-17.578125,-87.890625,0.0
424.6015625,-55.17578125,80.56640625,4.39453125,-35.15625,-125.9765625,0.0
424.60546875,-33.203125,0.48828125,2.9296875,-33.203125,-49.8046875,0.0
424.609375,18.06640625,-45.41015625,-25.390625,-22.94921875,22.94921875,0.0
424.61328125,26.85546875,-28.80859375,-37.59765625,-0.48828125,-0.48828125,0.0
424.6171875,-35.64453125,25.87890625,-60.546875,-4.8828125,5.859375,0.0
424.62109375,-71.77734375,9.765625,-77.63671875,-40.52734375,-37.59765625,0.0
424.625,-46.38671875,-27.83203125,-63.96484375,-60.05859375,-52.24609375,0.0
424.62890625,6.8359375,7.8125,-14.16015625,-37.59765625,-9.27734375,0.0
424.6328125,-17.08984375,18.06640625,-18.5546875,-36.1328125,-46.38671875,0.0
424.63671875,-46.38671875,-49.31640625,-26.3671875,-42.96875,-60.05859375,0.0
424.640625,-50.78125,-27.83203125,-28.3203125,-35.64453125,-43.9453125,0.0
424.64453125,-65.4296875,-29.296875,-53.22265625,-39.55078125,5.859375,0.0
424.6484375,-46.875,-135.7421875,-46.875,-55.17578125,21.97265625,0.0
424.65234375,-6.34765625,-88.37890625,-57.6171875,-74.70703125,-7.8125,0.0
424.65625,12.6953125,69.82421875,-73.2421875,-27.34375,-62.5,0.0
424.66015625,-27.83203125,82.51953125,-32.71484375,43.45703125,-87.40234375,0.0
424.6640625,-81.0546875,-2.44140625,-38.57421875,-8.7890625,-45.41015625,0.0
424.66796875,-52.734375,-31.73828125,-83.984375,-49.8046875,19.04296875,0.0
424.671875,-1.953125,-80.56640625,-60.05859375,-5.859375,-94.23828125,0.0
424.67578125,-11.23046875,-100.5859375,0.0,-16.6015625,-273.4375,0.0
424.6796875,-44.43359375,-12.20703125,-27.34375,-53.22265625,-302.24609375,0.0
424.68359375,-31.73828125,-25.390625,-31.25,-45.8984375,-270.01953125,0.0
424.6875,-9.765625,-50.78125,-10.7421875,-22.4609375,-133.30078125,0.0
424.69140625,0.48828125,17.08984375,-17.08984375,-7.32421875,-72.75390625,0.0
424.6953125,-45.8984375,37.109375,-38.0859375,2.44140625,-92.7734375,0.0
424.69921875,-84.9609375,-6.8359375,-58.59375,-30.76171875,-167.96875,0.0
424.703125,-65.4296875,-13.671875,-60.05859375,-75.68359375,-194.3359375,0.0
424.70703125,-25.390625,-0.9765625,-47.8515625,-64.453125,-90.8203125,0.0
424.7109375,11.23046875,-16.6015625,-34.66796875,-30.2734375,-12.20703125,0.0
424.71484375,-6.34765625,-55.6640625,-40.0390625,-17.578125,-59.5703125,0.0
424.71875,-33.203125,-94.23828125,-28.3203125,16.11328125,-121.58203125,0.0
424.72265625,-10.25390625,-54.6875,-31.25,19.53125,-106.4453125,0.0
424.7265625,-2.44140625,26.3671875,-13.671875,2.44140625,-90.8203125,0.0
424.73046875,-33.69140625,41.50390625,-10.7421875,-24.90234375,-27.34375,0.0
424.734375,-53.7109375,5.37109375,-55.17578125,-47.8515625,84.9609375,0.0
424.73828125,-45.8984375,-59.5703125,-51.26953125,-47.8515625,65.4296875,0.0
424.7421875,-29.78515625,-74.70703125,-35.15625,-50.78125,-2.9296875,0.0
424.74609375,-32.2265625,-3.41796875,-37.109375,-26.3671875,67.3828125,0.0
424.75,-19.04296875,-26.85546875,-30.76171875,-2.9296875,152.34375,0.0
424.75390625,-37.59765625,-44.921875,-26.85546875,-2.44140625,145.5078125,0.0
424.7578125,-60.05859375,-7.32421875,-58.59375,0.9765625,83.49609375,0.0
424.76171875,-21.484375,2.44140625,-53.7109375,12.20703125,43.9453125,0.0
424.765625,5.37109375,52.24609375,14.6484375,-0.48828125,41.9921875,0.0
424.76953125,-13.18359375,-11.71875,-12.6953125,-50.78125,81.54296875,0.0
424.7734375,-32.71484375,-103.515625,-50.78125,-63.96484375,100.09765625,0.0
424.77734375,-66.40625,-63.96484375,-31.73828125,-22.94921875,54.6875,0.0
424.78125,-74.70703125,-24.4140625,-30.2734375,-30.2734375,-33.203125,0.0
424.78515625,-57.6171875,-42.96875,-52.24609375,-69.3359375,54.19921875,0.0
424.7890625,-39.55078125,-62.5,-55.17578125,-31.25,130.37109375,0.0
424.79296875,-9.765625,-15.625,-25.87890625,11.23046875,85.44921875,0.0
424.796875,-32.71484375,-4.8828125,-35.15625,-35.64453125,51.7578125,0.0
424.80078125,-72.75390625,-23.92578125,-71.2890625,-98.6328125,-20.99609375,0.0
424.8046875,-38.57421875,-23.92578125,-53.22265625,-68.359375,-22.94921875,0.0
424.80859375,-10.25390625,-17.578125,-31.73828125,-30.76171875,41.9921875,0.0
424.8125,-27.34375,-53.22265625,-35.64453125,-44.43359375,-21.484375,0.0
424.81640625,-47.36328125,-74.21875,-26.3671875,-34.1796875,-114.2578125,0.0
424.8203125,-64.94140625,-30.76171875,-48.828125,-39.0625,-105.95703125,0.0
424.82421875,-37.109375,13.18359375,-49.8046875,-35.15625,-20.5078125,0.0
424.828125,-2.9296875,-4.8828125,-19.53125,-27.34375,62.5,0.0
424.83203125,-20.5078125,-97.65625,-44.921875,-38.0859375,53.7109375,0.0
424.8359375,-39.0625,-64.453125,-79.1015625,-34.1796875,-29.78515625,0.0
424.83984375,-56.640625,-36.62109375,-61.03515625,-41.9921875,-58.59375,0.0
424.84375,-63.96484375,-49.8046875,-29.78515625,-33.203125,-42.96875,0.0
424.84765625,-31.73828125,34.66796875,-15.13671875,-28.80859375,-11.23046875,0.0
424.8515625,-19.04296875,21.484375,-28.3203125,-64.94140625,30.2734375,0.0
424.85546875,-26.3671875,-63.96484375,-36.1328125,-61.03515625,-59.08203125,0.0
424.859375,-5.859375,-79.58984375,-14.16015625,11.23046875,-194.3359375,0.0
424.86328125,-38.57421875,-38.57421875,-31.73828125,-20.5078125,-135.7421875,0.0
424.8671875,-56.15234375,-4.39453125,-45.8984375,-77.63671875,-143.06640625,0.0
424.87109375,-8.30078125,9.765625,-34.66796875,-62.98828125,-120.60546875,0.0
424.875,-7.8125,-0.48828125,-27.34375,-27.34375,-22.94921875,0.0
424.87890625,-21.97265625,-2.9296875,-17.578125,-1.46484375,-179.19921875,0.0
424.8828125,-29.78515625,-61.03515625,-46.38671875,-40.0390625,-253.41796875,0.0
424.88671875,-41.9921875,-78.125,-55.6640625,-72.265625,-57.12890625,0.0
424.890625,-36.62109375,-41.50390625,-48.33984375,-30.2734375,80.078125,0.0
424.89453125,-17.08984375,20.5078125,-56.640625,21.97265625,0.48828125,0.0
424.8984375,10.25390625,-58.10546875,-10.25390625,27.83203125,-123.046875,0.0
424.90234375,-22.4609375,-119.62890625,-24.90234375,-44.43359375,-75.1953125,0.0
424.90625,-70.80078125,-38.0859375,-55.6640625,-90.8203125,-17.08984375,0.0
424.91015625,-59.5703125,-46.875,-33.203125,-60.05859375,-47.8515625,0.0
424.9140625,-22.4609375,1.953125,-23.4375,-1.46484375,23.4375,0.0
424.91796875,-13.671875,41.015625,-19.53125,3.90625,39.55078125,0.0
424.921875,-70.80078125,-46.38671875,-56.640625,-47.36328125,-24.90234375,0.0
424.92578125,-45.41015625,-33.69140625,-52.734375,-56.15234375,-15.625,0.0
424.9296875,28.80859375,-6.8359375,-23.4375,-7.8125,73.73046875,0.0
424.93359375,20.99609375,-93.75,-30.76171875,-5.37109375,105.95703125,0.0
424.9375,5.859375,-67.87109375,-20.01953125,-8.7890625,-0.48828125,0.0
424.94140625,-40.52734375,14.6484375,-33.203125,-14.6484375,-75.1953125,0.0
424.9453125,-72.75390625,-14.16015625,-42.48046875,-40.52734375,-34.66796875,0.0
424.94921875,-23.92578125,-108.88671875,-30.76171875,-22.4609375,30.76171875,0.0
424.953125,30.2734375,-83.49609375,-31.73828125,10.25390625,43.9453125,0.0
424.95703125,19.53125,25.390625,-36.62109375,11.71875,65.4296875,0.0
424.9609375,-11.71875,37.109375,-72.265625,-36.62109375,49.31640625,0.0
424.96484375,0.0,-24.90234375,-92.28515625,-57.12890625,4.8828125,0.0
424.96875,19.04296875,-53.7109375,-26.85546875,-31.25,-2.9296875,0.0
424.97265625,6.8359375,-39.0625,3.41796875,-30.2734375,28.80859375,0.0
424.9765625,-10.7421875,-45.41015625,-27.83203125,-30.2734375,19.04296875,0.0
424.98046875,-17.578125,-33.203125,-54.19921875,-4.39453125,-51.26953125,0.0
424.984375,-4.39453125,-34.1796875,-46.38671875,21.484375,-16.11328125,0.0
424.98828125,24.90234375,-43.9453125,-36.62109375,14.16015625,78.61328125,0.0
424.9921875,7.8125,-47.36328125,-35.64453125,19.04296875,58.59375,0.0
424.99609375,-11.23046875,-81.54296875,-23.92578125,22.4609375,-21.484375,0.0
425.0,-4.8828125,-61.5234375,-44.43359375,-32.71484375,-12.20703125,0.0
425.00390625,16.11328125,-13.671875,-51.26953125,-52.24609375,-37.109375,0.0
425.0078125,9.765625,-1.953125,-39.0625,-26.85546875,-39.0625,0.0
425.01171875,-8.7890625,-17.08984375,-6.8359375,21.97265625,-22.4609375,0.0
425.015625,6.8359375,-48.33984375,-0.48828125,35.15625,-68.359375,0.0
425.01953125,-1.46484375,-39.0625,-37.109375,-31.25,-53.7109375,0.0
425.0234375,-19.04296875,-57.12890625,-47.36328125,-62.98828125,1.953125,0.0
425.02734375,-10.7421875,-59.08203125,-45.8984375,-29.78515625,17.578125,0.0
425.03125,3.41796875,1.46484375,-62.5,-5.37109375,26.85546875,0.0
425.03515625,11.71875,-24.90234375,-39.0625,-13.671875,-5.37109375,0.0
425.0390625,3.90625,-49.31640625,-30.76171875,-11.23046875,-88.37890625,0.0
425.04296875,-22.94921875,-38.0859375,-37.109375,-19.53125,-86.42578125,0.0
425.046875,-30.76171875,-8.7890625,-5.37109375,-11.23046875,-31.73828125,0.0
425.05078125,-16.6015625,-16.6015625,-19.04296875,-13.671875,-54.6875,0.0
425.0546875,-5.37109375,-44.43359375,-34.1796875,-26.85546875,-6.34765625,0.0
425.05859375,-5.859375,-42.48046875,-35.15625,-11.71875,-0.48828125,0.0
425.0625,-10.7421875,-53.7109375,-40.52734375,-6.34765625,-56.640625,0.0
425.06640625,12.20703125,-90.8203125,-39.0625,-1.953125,-88.37890625,0.0
425.0703125,-13.18359375,-59.08203125,-60.05859375,-35.64453125,-48.33984375,0.0
425.07421875,-55.17578125,2.9296875,-42.96875,-47.36328125,-80.56640625,0.0
425.078125,-49.8046875,-23.92578125,-28.3203125,-27.83203125,-170.8984375,0.0
425.08203125,-31.25,-41.015625,-42.48046875,-40.0390625,-117.67578125,0.0
425.0859375,-22.4609375,-15.625,-50.78125,-31.73828125,-102.05078125,0.0
425.08984375,-11.23046875,-58.10546875,-39.55078125,-12.20703125,-74.21875,0.0
425.09375,14.6484375,-112.3046875,3.90625,-11.71875,-65.91796875,0.0
425.09765625,24.4140625,-51.26953125,9.27734375,6.34765625,-141.11328125,0.0
425.1015625,-9.765625,16.6015625,-29.78515625,-21.97265625,-159.66796875,0.0
425.10546875,-40.0390625,11.23046875,-53.7109375,-63.96484375,-121.09375,0.0
425.109375,-49.8046875,-45.8984375,-49.8046875,-62.01171875,-54.19921875,0.0
425.11328125,-26.3671875,-29.296875,-20.01953125,-34.1796875,-58.10546875,0.0
425.1171875,-21.484375,11.23046875,5.859375,4.39453125,-98.14453125,0.0
425.12109375,-29.78515625,-50.29296875,-24.4140625,9.27734375,-142.08984375,0.0
425.125,-10.7421875,-83.49609375,-51.26953125,-0.48828125,-114.74609375,0.0
425.12890625,0.0,-45.41015625,-11.23046875,-8.7890625,-85.44921875,0.0
425.1328125,18.5546875,-27.34375,-4.8828125,-26.3671875,-45.8984375,0.0
425.13671875,4.8828125,1.46484375,-36.62109375,-7.32421875,-51.7578125,0.0
425.140625,-44.43359375,-34.1796875,-49.8046875,-9.27734375,-49.8046875,0.0
425.14453125,-34.1796875,-72.75390625,-12.6953125,-45.8984375,-32.2265625,0.0
425.1484375,-30.76171875,-36.1328125,5.37109375,-66.40625,-7.32421875,0.0
425.15234375,-40.0390625,-33.203125,-13.671875,-44.921875,7.32421875,0.0
425.15625,-36.1328125,-22.94921875,-23.4375,-37.59765625,-4.39453125,0.0
425.16015625,-19.04296875,-49.8046875,-10.25390625,-34.66796875,-59.5703125,0.0
425.1640625,-9.765625,-75.1953125,-22.4609375,-10.25390625,-75.1953125,0.0
425.16796875,0.9765625,-28.3203125,-58.59375,11.23046875,-34.66796875,0.0
425.171875,20.01953125,33.69140625,-43.9453125,23.92578125,-40.52734375,0.0
425.17578125,-17.08984375,16.6015625,-44.921875,-35.15625,-68.84765625,0.0
425.1796875,-46.875,-36.1328125,-56.640625,-86.9140625,-83.984375,0.0
425.18359375,-19.53125,-65.4296875,-8.30078125,-64.94140625,-119.62890625,0.0
425.1875,-24.4140625,-47.8515625,-6.34765625,-43.45703125,-90.8203125,0.0
425.19140625,-41.015625,-30.2734375,-15.13671875,-31.73828125,-10.7421875,0.0
425.1953125,-27.34375,-51.7578125,-21.484375,-20.99609375,-22.94921875,0.0
425.19921875,-36.62109375,-128.41796875,-27.34375,-21.484375,-49.31640625,0.0
425.203125,-44.43359375,-129.39453125,-36.62109375,-33.203125,-61.03515625,0.0
425.20703125,-6.34765625,-52.734375,-47.36328125,-20.99609375,-31.73828125,0.0
425.2109375,21.484375,19.53125,-43.9453125,11.71875,23.92578125,0.0
425.21484375,-14.16015625,21.97265625,-47.8515625,-12.20703125,-14.16015625,0.0
425.21875,-20.01953125,5.37109375,-63.96484375,-41.50390625,-24.90234375,0.0
425.22265625,9.27734375,-16.6015625,-69.82421875,-19.04296875,2.9296875,0.0
425.2265625,17.08984375,-62.98828125,-43.9453125,-9.27734375,42.96875,0.0
425.23046875,17.578125,-30.2734375,-8.30078125,-1.46484375,129.8828125,0.0
425.234375,-24.90234375,-26.3671875,-19.04296875,-3.41796875,124.0234375,0.0
425.23828125,-57.12890625,-80.56640625,-26.85546875,-23.92578125,50.29296875,0.0
425.2421875,-56.15234375,-58.59375,-15.13671875,-46.38671875,-99.609375,0.0
425.24609375,-32.71484375,-88.8671875,-26.85546875,-56.15234375,-76.171875,0.0
425.25,2.44140625,-94.7265625,-42.96875,-24.4140625,20.99609375,0.0
425.25390625,15.625,-15.13671875,-42.96875,3.90625,0.9765625,0.0
425.2578125,29.78515625,-2.44140625,-37.109375,7.8125,39.0625,0.0
425.26171875,24.4140625,12.20703125,-33.203125,-0.9765625,111.328125,0.0
425.265625,-11.71875,30.76171875,-50.78125,-15.13671875,33.203125,0.0
425.26953125,-22.94921875,-12.6953125,-68.84765625,-45.41015625,1.46484375,0.0
425.2734375,-7.8125,-87.40234375,-44.43359375,-64.453125,77.1484375,0.0
425.27734375,-17.08984375,-118.65234375,-27.34375,-52.24609375,-6.8359375,0.0
425.28125,-21.484375,-60.546875,-31.25,-11.71875,-107.91015625,0.0
425.28515625,8.30078125,19.04296875,-21.484375,19.53125,-143.5546875,0.0
425.2890625,-2.9296875,28.3203125,-16.11328125,0.48828125,-87.40234375,0.0
425.29296875,-39.0625,-29.296875,-34.1796875,-16.11328125,-12.6953125,0.0
425.296875,-26.85546875,-51.7578125,-42.48046875,0.9765625,-27.34375,0.0
425.30078125,-33.69140625,-20.99609375,-24.90234375,1.953125,-59.08203125,0.0
425.3046875,-22.4609375,-26.85546875,-30.76171875,-34.1796875,-24.90234375,0.0
425.30859375,31.73828125,-78.61328125,-51.26953125,-18.06640625,15.13671875,0.0
425.3125,-20.5078125,-64.94140625,-47.8515625,-33.203125,-17.578125,0.0
425.31640625,-58.59375,0.48828125,-25.87890625,-38.57421875,-47.36328125,0.0
425.3203125,-10.7421875,3.90625,-25.390625,17.08984375,-50.78125,0.0
425.32421875,24.4140625,-51.7578125,-47.8515625,-4.8828125,24.90234375,0.0
425.328125,12.6953125,-39.55078125,-40.0390625,-26.3671875,82.51953125,0.0
425.33203125,-47.8515625,-20.5078125,-27.34375,-27.83203125,-29.78515625,0.0
425.3359375,-55.17578125,-66.40625,-37.109375,-35.64453125,-110.3515625,0.0
425.33984375,-41.015625,-40.0390625,-41.9921875,-44.921875,-100.09765625,0.0
425.34375,-50.78125,-10.7421875,-49.31640625,-70.80078125,-20.99609375,0.0
425.34765625,-51.7578125,-31.73828125,-48.33984375,-56.640625,-29.296875,0.0
425.3515625,-44.921875,-26.85546875,-48.33984375,-31.73828125,8.30078125,0.0
425.35546875,-21.97265625,-37.109375,-46.38671875,-12.20703125,63.96484375,0.0
425.359375,-19.04296875,-51.7578125,-28.3203125,-15.13671875,12.6953125,0.0
425.36328125,-23.4375,-40.0390625,-23.92578125,-14.6484375,-108.88671875,0.0
425.3671875,-15.625,-102.5390625,-48.828125,-6.8359375,-129.39453125,0.0
425.37109375,-39.0625,-62.01171875,-39.0625,-16.6015625,-45.41015625,0.0
425.375,-59.5703125,0.0,-38.57421875,-37.109375,-36.62109375,0.0
425.37890625,-52.734375,-38.57421875,-36.62109375,-55.17578125,-36.1328125,0.0
425.3828125,-35.64453125,-48.33984375,-24.90234375,-44.43359375,19.53125,0.0
425.38671875,-10.25390625,-38.57421875,-38.57421875,-38.57421875,71.77734375,0.0
425.390625,25.87890625,-24.4140625,-23.92578125,0.0,78.125,0.0
425.39453125,6.8359375,-17.08984375,-11.23046875,18.5546875,43.9453125,0.0
425.3984375,-20.01953125,-93.75,-20.99609375,-2.9296875,-22.4609375,0.0
425.40234375,-27.83203125,-95.21484375,-55.17578125,-31.25,-65.4296875,0.0
425.40625,-40.52734375,-5.37109375,-43.9453125,-34.66796875,-27.34375,0.0
425.41015625,-30.2734375,0.9765625,-19.53125,-14.16015625,-13.671875,0.0
425.4140625,-30.76171875,-29.78515625,-20.99609375,-25.87890625,-38.57421875,0.0
425.41796875,-43.9453125,-43.9453125,-30.2734375,-37.59765625,-63.4765625,0.0
425.421875,-19.04296875,-89.35546875,-24.4140625,-20.01953125,-159.66796875,0.0
425.42578125,21.97265625,-5.859375,13.18359375,8.30078125,-141.6015625,0.0
425.4296875,6.34765625,7.8125,-14.16015625,0.0,20.99609375,0.0
425.43359375,-35.64453125,-73.2421875,-62.5,-31.73828125,44.43359375,0.0
425.4375,-57.12890625,-37.59765625,-57.12890625,-58.59375,2.44140625,0.0
425.44140625,-38.0859375,-30.2734375,-27.83203125,-27.34375,-36.62109375,0.0
425.4453125,-12.6953125,-74.21875,-37.109375,3.41796875,-50.29296875,0.0
425.44921875,2.44140625,-47.36328125,-59.08203125,-8.7890625,-38.0859375,0.0
425.453125,-11.71875,4.39453125,-50.29296875,-23.92578125,-4.8828125,0.0
425.45703125,-32.2265625,-10.7421875,-15.13671875,-16.11328125,35.64453125,0.0
425.4609375,-33.203125,-60.546875,-17.578125,-17.08984375,-86.9140625,0.0
425.46484375,-6.8359375,-74.21875,-21.484375,-11.71875,-73.73046875,0.0
425.46875,10.25390625,-59.08203125,-4.39453125,-20.99609375,12.20703125,0.0
425.47265625,0.0,-35.64453125,-4.8828125,-49.8046875,-32.71484375,0.0
425.4765625,-12.20703125,-29.78515625,-39.55078125,-37.109375,-21.97265625,0.0
425.48046875,-38.57421875,-29.296875,-71.2890625,-15.13671875,-47.36328125,0.0
425.484375,-42.48046875,-23.92578125,-72.265625,-11.71875,-53.22265625,0.0
425.48828125,-18.06640625,-15.625,-54.6875,-1.46484375,52.24609375,0.0
425.4921875,-10.7421875,-26.85546875,-10.7421875,2.9296875,89.84375,0.0
425.49609375,-31.73828125,-49.8046875,-18.5546875,-16.6015625,54.6875,0.0
425.5,-35.64453125,-61.03515625,-45.41015625,-33.203125,3.41796875,0.0
425.50390625,-24.90234375,-81.54296875,-28.80859375,-41.9921875,-58.59375,0.0
425.5078125,-33.69140625,-56.640625,-31.25,-44.921875,-71.2890625,0.0
425.51171875,-33.69140625,-5.859375,-39.55078125,-20.01953125,-46.875,0.0
425.515625,1.953125,-14.16015625,-9.27734375,14.6484375,-67.3828125,0.0
425.51953125,3.90625,-51.26953125,-21.97265625,-1.46484375,-144.04296875,0.0
425.5234375,-7.32421875,-42.48046875,-34.66796875,-20.5078125,-115.234375,0.0
425.52734375,-1.953125,-53.22265625,-22.94921875,-20.5078125,-42.96875,0.0
425.53125,-3.41796875,-62.98828125,-31.73828125,-39.55078125,54.19921875,0.0
425.53515625,-43.9453125,-66.40625,-45.8984375,-58.59375,52.24609375,0.0
425.5390625,-73.73046875,-71.2890625,-62.01171875,-48.33984375,24.90234375,0.0
425.54296875,-41.9921875,-23.92578125,-57.12890625,-21.97265625,-18.5546875,0.0
425.546875,-37.109375,-23.4375,-46.875,-38.57421875,-72.265625,0.0
425.55078125,-34.66796875,-37.109375,-27.34375,-56.640625,-70.80078125,0.0
425.5546875,-6.34765625,-44.43359375,-16.6015625,-39.55078125,-80.078125,0.0
425.55859375,-24.90234375,-72.75390625,-31.25,-12.6953125,-111.81640625,0.0
425.5625,-31.25,-55.6640625,-48.33984375,3.90625,-70.3125,0.0
425.56640625,15.625,-30.2734375,-41.015625,11.71875,21.484375,0.0
425.5703125,33.69140625,-51.26953125,-20.99609375,10.7421875,83.984375,0.0
425.57421875,-7.8125,-74.70703125,-23.92578125,-2.44140625,45.8984375,0.0
425.578125,-65.91796875,-72.75390625,-31.25,-15.13671875,-106.93359375,0.0
425.58203125,-53.22265625,-62.01171875,-37.59765625,-11.23046875,-172.36328125,0.0
425.5859375,-1.46484375,-52.24609375,-61.5234375,-36.62109375,-70.3125,0.0
425.58984375,7.32421875,-16.6015625,-62.01171875,-40.52734375,46.875,0.0
425.59375,-22.4609375,-22.4609375,-21.484375,-4.8828125,69.3359375,0.0
425.59765625,-32.2265625,-53.22265625,-4.8828125,6.34765625,72.75390625,0.0
425.6015625,-19.53125,-47.36328125,-20.01953125,-8.30078125,-81.54296875,0.0
425.60546875,9.765625,-56.640625,-42.48046875,-20.01953125,-147.94921875,0.0
425.609375,30.76171875,-59.5703125,-40.0390625,5.859375,-30.2734375,0.0
425.61328125,4.8828125,-10.7421875,-30.76171875,18.5546875,-50.78125,0.0
425.6171875,-39.55078125,-20.01953125,-25.87890625,9.27734375,-143.5546875,0.0
425.62109375,-50.78125,-72.265625,-12.20703125,-13.18359375,-103.515625,0.0
425.625,-27.83203125,-87.40234375,-18.06640625,-32.71484375,-138.671875,0.0
425.62890625,-1.953125,-71.2890625,-29.78515625,-16.11328125,-49.31640625,0.0
425.6328125,-19.53125,-5.37109375,-61.03515625,-10.25390625,89.35546875,0.0
425.63671875,-58.59375,-11.23046875,-59.5703125,-15.625,81.0546875,0.0
425.640625,-62.01171875,-69.82421875,-25.87890625,-21.97265625,-18.06640625,0.0
425.64453125,-35.64453125,-87.40234375,-28.80859375,-40.52734375,-41.50390625,0.0
425.6484375,-8.30078125,-66.89453125,-18.5546875,-19.53125,0.9765625,0.0
425.65234375,26.85546875,-5.37109375,-5.37109375,24.4140625,-47.8515625,0.0
425.65625,15.13671875,-14.6484375,-59.08203125,11.71875,-81.0546875,0.0
425.66015625,-15.13671875,-28.80859375,-76.66015625,-22.94921875,-6.34765625,0.0
425.6640625,-31.25,-41.015625,-43.9453125,-44.43359375,15.13671875,0.0
425.66796875,-19.53125,-52.24609375,-19.53125,-34.1796875,18.5546875,0.0
425.671875,-3.41796875,-66.89453125,-5.37109375,9.765625,5.37109375,0.0
425.67578125,-24.90234375,-116.69921875,2.9296875,18.06640625,-87.40234375,0.0
425.6796875,-40.52734375,-81.54296875,-10.7421875,-11.71875,-107.91015625,0.0
425.68359375,-32.2265625,-36.1328125,-41.015625,-51.7578125,7.32421875,0.0
425.6875,-50.29296875,-35.64453125,-65.91796875,-79.58984375,84.47265625,0.0
425.69140625,-59.5703125,-39.55078125,-51.26953125,-71.2890625,41.015625,0.0
425.6953125,-38.0859375,-34.1796875,-32.71484375,-56.640625,16.6015625,0.0
425.69921875,-17.578125,0.9765625,-48.33984375,-23.92578125,-54.19921875,0.0
425.703125,-27.34375,-22.94921875,-57.12890625,-27.34375,-30.76171875,0.0
425.70703125,-9.27734375,-46.875,-14.6484375,-45.8984375,75.68359375,0.0
425.7109375,16.6015625,-92.28515625,8.30078125,-25.390625,53.22265625,0.0
425.71484375,-20.5078125,-96.19140625,-20.99609375,-34.1796875,21.484375,0.0
425.71875,-40.0390625,-19.04296875,-17.578125,-39.55078125,-30.2734375,0.0
425.72265625,-31.73828125,-20.5078125,-10.7421875,-38.0859375,2.44140625,0.0
425.7265625,-25.390625,-59.5703125,-45.41015625,-32.2265625,23.4375,0.0
425.73046875,-26.85546875,-54.19921875,-57.6171875,-4.8828125,-26.3671875,0.0
425.734375,-45.41015625,-38.0859375,-15.625,-6.8359375,-50.29296875,0.0
425.73828125,-33.69140625,-24.4140625,3.90625,-16.6015625,-132.8125,0.0
425.7421875,-29.78515625,-45.41015625,-32.71484375,-52.24609375,-130.37109375,0.0
425.74609375,-44.921875,-55.6640625,-60.05859375,-60.05859375,-56.640625,0.0
425.75,-28.80859375,-57.12890625,-24.4140625,-0.9765625,-9.27734375,0.0
425.75390625,-22.94921875,-60.05859375,13.671875,11.71875,-43.45703125,0.0
425.7578125,-31.25,-35.64453125,-14.16015625,-34.66796875,-13.671875,0.0
425.76171875,-39.55078125,-47.36328125,-58.59375,-77.1484375,2.9296875,0.0
425.765625,-36.1328125,-72.265625,-57.12890625,-61.03515625,-20.5078125,0.0
425.76953125,-22.94921875,-55.17578125,-23.4375,-37.109375,30.76171875,0.0
425.7734375,-29.296875,-34.66796875,-26.85546875,-33.203125,62.01171875,0.0
425.77734375,-28.80859375,-3.41796875,-34.1796875,-9.27734375,17.578125,0.0
425.78125,-9.27734375,-11.71875,-12.6953125,8.30078125,-78.61328125,0.0
425.78515625,-7.8125,-70.80078125,-13.671875,3.90625,-15.625,0.0
425.7890625,-14.16015625,-85.9375,-6.34765625,14.16015625,57.12890625,0.0
425.79296875,-30.76171875,-95.21484375,-28.80859375,-1.953125,28.80859375,0.0
425.796875,-50.29296875,-69.3359375,-62.01171875,-37.59765625,-41.015625,0.0
425.80078125,-44.921875,-19.53125,-32.2265625,-45.41015625,-129.8828125,0.0
425.8046875,-36.1328125,-29.296875,-15.625,-51.26953125,-78.125,0.0
425.80859375,-33.69140625,-41.50390625,-51.7578125,-54.19921875,-1.46484375,0.0
425.8125,-25.87890625,-9.765625,-56.15234375,-25.87890625,-2.44140625,0.0
425.81640625,-21.97265625,4.8828125,-28.3203125,-25.87890625,-35.15625,0.0
425.8203125,-24.4140625,-49.31640625,-23.4375,-48.828125,-63.96484375,0.0
425.82421875,-32.71484375,-76.66015625,-28.80859375,-43.45703125,-53.7109375,0.0
425.828125,-27.83203125,-25.87890625,-34.1796875,-35.15625,-8.30078125,0.0
425.83203125,-15.625,-22.94921875,-23.92578125,-20.99609375,58.59375,0.0
425.8359375,-25.390625,-63.96484375,-22.94921875,5.859375,55.17578125,0.0
425.83984375,-29.296875,-61.03515625,-28.80859375,6.34765625,2.44140625,0.0
425.84375,-4.39453125,-37.109375,-13.18359375,-18.5546875,-97.16796875,0.0
425.84765625,2.44140625,-7.8125,-17.08984375,-41.9921875,-58.10546875,0.0
425.8515625,2.44140625,-25.390625,-25.390625,-3.41796875,-1.953125,0.0
425.85546875,-0.9765625,-60.05859375,-25.390625,24.90234375,-31.73828125,0.0
425.859375,-30.76171875,-53.7109375,-31.25,-13.18359375,-82.51953125,0.0
425.86328125,-40.0390625,-64.94140625,-44.43359375,-38.0859375,-86.9140625,0.0
425.8671875,-46.875,-43.9453125,-60.05859375,-46.38671875,6.8359375,0.0
425.87109375,-24.4140625,-55.17578125,-48.33984375,-35.64453125,37.59765625,0.0
425.875,-13.18359375,-96.19140625,-34.66796875,-35.64453125,57.12890625,0.0
425.87890625,-57.12890625,-32.71484375,-59.5703125,-62.01171875,-2.44140625,0.0
425.8828125,-50.29296875,-21.97265625,-31.25,-23.4375,-53.7109375,0.0
425.88671875,9.765625,-57.12890625,9.27734375,5.37109375,52.24609375,0.0
425.890625,37.59765625,-52.24609375,-19.53125,-31.25,115.72265625,0.0
425.89453125,5.37109375,-38.0859375,-21.97265625,-41.015625,0.48828125,0.0
425.8984375,-43.45703125,-17.08984375,-28.3203125,-31.73828125,-47.36328125,0.0
425.90234375,-74.70703125,-22.94921875,-48.33984375,-51.26953125,6.34765625,0.0
425.90625,-67.3828125,-59.5703125,-38.0859375,-62.01171875,-63.4765625,0.0
425.91015625,-41.015625,-83.49609375,-42.96875,-35.15625,-62.5,0.0
425.9140625,-12.6953125,-90.33203125,-56.15234375,-15.625,-75.1953125,0.0
425.91796875,-0.9765625,-79.58984375,-35.15625,-25.390625,-153.80859375,0.0
425.921875,-26.85546875,-35.15625,-15.13671875,-41.50390625,-187.98828125,0.0
425.92578125,-33.69140625,5.37109375,-10.25390625,-52.24609375,-154.296875,0.0
425.9296875,-31.73828125,-15.13671875,-31.25,-41.9921875,-83.0078125,0.0
425.93359375,-20.5078125,-51.26953125,-21.97265625,-12.20703125,-74.21875,0.0
425.9375,-41.015625,-39.0625,12.6953125,-10.25390625,-87.40234375,0.0
425.94140625,-67.87109375,-58.59375,-6.34765625,-45.41015625,-153.3203125,0.0
425.9453125,-35.15625,-45.41015625,-32.71484375,-65.91796875,-153.3203125,0.0
425.94921875,5.37109375,-33.203125,-12.20703125,-45.8984375,-14.6484375,0.0
425.953125,17.08984375,-119.62890625,4.39453125,5.859375,-15.625,0.0
425.95703125,-29.78515625,-90.33203125,-14.16015625,7.8125,-82.51953125,0.0
425.9609375,-80.56640625,6.34765625,-33.69140625,-44.921875,-83.984375,0.0
425.96484375,-70.80078125,-2.44140625,-45.41015625,-65.4296875,-24.4140625,0.0
425.96875,-47.36328125,-33.69140625,-33.69140625,-55.17578125,-26.85546875,0.0
425.97265625,-23.4375,-66.40625,-5.859375,-27.34375,-74.21875,0.0
425.9765625,-16.6015625,-51.7578125,-25.390625,5.37109375,-128.90625,0.0
425.98046875,-48.33984375,-34.1796875,-38.0859375,-21.484375,-176.7578125,0.0
425.984375,-39.0625,-36.1328125,-11.71875,-45.41015625,-153.80859375,0.0
425.98828125,-1.953125,-28.3203125,7.8125,-46.875,-19.04296875,0.0
425.9921875,-23.4375,-24.90234375,-14.16015625,-50.29296875,-15.625,0.0
425.99609375,-56.640625,-49.8046875,-42.48046875,-22.94921875,6.8359375,0.0
426.0,-50.78125,-67.87109375,-41.015625,-12.6953125,7.32421875,0.0
426.00390625,-21.484375,-61.03515625,-36.62109375,-16.11328125,-63.96484375,0.0
426.0078125,15.13671875,-72.265625,-16.6015625,9.765625,2.9296875,0.0
426.01171875,7.32421875,-62.01171875,-15.625,1.46484375,76.66015625,0.0
426.015625,-28.3203125,-32.71484375,-16.6015625,-42.48046875,105.95703125,0.0
426.01953125,-76.171875,-29.296875,-11.71875,-55.6640625,30.76171875,0.0
426.0234375,-60.546875,-6.34765625,-7.8125,-39.0625,-56.15234375,0.0
426.02734375,-14.6484375,-15.625,-11.23046875,-37.109375,-34.66796875,0.0
426.03125,-23.4375,-49.8046875,-24.90234375,-29.78515625,29.296875,0.0
426.03515625,-38.0859375,-66.40625,-24.4140625,-22.94921875,-8.7890625,0.0
426.0390625,-54.6875,-95.703125,-6.8359375,-34.1796875,-105.95703125,0.0
426.04296875,-56.640625,-88.37890625,-10.25390625,-34.1796875,-125.0,0.0
426.046875,-11.23046875,-56.640625,-21.484375,-15.13671875,-44.921875,0.0
426.05078125,-6.8359375,-42.48046875,-19.04296875,-34.66796875,-13.18359375,0.0
426.0546875,-32.2265625,-9.765625,-14.16015625,-57.6171875,35.15625,0.0
426.05859375,-52.24609375,-13.18359375,-14.16015625,-32.2265625,43.45703125,0.0
426.0625,-50.29296875,-58.10546875,-8.30078125,1.953125,-29.78515625,0.0
426.06640625,-41.9921875,-83.49609375,-28.80859375,-22.94921875,-67.3828125,0.0
426.0703125,-34.1796875,-38.57421875,-68.359375,-60.05859375,-28.80859375,0.0
426.07421875,-33.69140625,-34.66796875,-64.94140625,-56.15234375,-73.73046875,0.0
426.078125,-60.05859375,-85.44921875,-42.48046875,-41.9921875,-147.94921875,0.0
426.08203125,-64.94140625,-77.63671875,-30.76171875,-38.57421875,-143.06640625,0.0
426.0859375,-19.53125,-48.33984375,-17.578125,-40.52734375,-83.49609375,0.0
426.08984375,5.37109375,-29.78515625,-18.5546875,-41.50390625,-21.484375,0.0
426.09375,-21.484375,-50.78125,-23.92578125,-9.765625,0.9765625,0.0
426.09765625,-38.0859375,-44.921875,-11.71875,12.6953125,4.39453125,0.0
426.1015625,-23.4375,-10.25390625,0.9765625,2.44140625,-29.296875,0.0
426.10546875,-14.16015625,-23.4375,-28.80859375,-18.06640625,8.7890625,0.0
426.109375,-13.18359375,-52.24609375,-55.17578125,-64.453125,38.0859375,0.0
426.11328125,-24.90234375,-75.1953125,-48.33984375,-76.66015625,-21.97265625,0.0
426.1171875,-41.9921875,-54.19921875,-40.0390625,-44.921875,-88.37890625,0.0
426.12109375,-46.38671875,-68.84765625,-55.17578125,0.48828125,-152.34375,0.0
426.125,-34.66796875,-69.82421875,-47.36328125,5.37109375,-79.58984375,0.0
426.12890625,-15.13671875,-37.59765625,-2.44140625,-27.34375,-3.90625,0.0
426.1328125,-40.0390625,-56.640625,-20.5078125,-69.3359375,7.32421875,0.0
426.13671875,-71.77734375,-69.82421875,-56.640625,-73.73046875,16.11328125,0.0
426.140625,-48.33984375,-40.0390625,-15.625,-41.9921875,-46.38671875,0.0
426.14453125,-8.7890625,-23.92578125,-9.765625,-30.76171875,-49.31640625,0.0
426.1484375,-10.7421875,-57.6171875,-36.1328125,-28.80859375,61.5234375,0.0
426.15234375,-38.57421875,-70.3125,-43.9453125,-38.57421875,60.546875,0.0
426.15625,-27.83203125,-71.77734375,-15.625,-30.2734375,-66.40625,0.0
426.16015625,-33.69140625,-116.69921875,-7.8125,-21.97265625,-200.68359375,0.0
426.1640625,-54.19921875,-68.359375,-54.19921875,-32.71484375,-186.03515625,0.0
426.16796875,-44.921875,3.90625,-69.82421875,-42.96875,-177.734375,0.0
426.171875,-39.0625,3.41796875,-36.62109375,-50.78125,-162.59765625,0.0
426.17578125,-49.8046875,-44.43359375,-23.4375,-36.1328125,-157.2265625,0.0
426.1796875,-65.91796875,-64.453125,-22.94921875,-54.6875,-110.3515625,0.0
426.18359375,-48.33984375,-41.9921875,-35.15625,-78.125,-36.62109375,0.0
426.1875,-17.578125,-58.10546875,-40.0390625,-35.64453125,1.953125,0.0
426.19140625,6.34765625,-55.17578125,-22.94921875,23.92578125,65.4296875,0.0
426.1953125,-28.80859375,-46.38671875,-37.109375,10.7421875,68.359375,0.0
426.19921875,-78.125,-68.359375,-50.78125,-61.5234375,-108.3984375,0.0
426.203125,-59.08203125,-51.26953125,-19.04296875,-79.1015625,-202.1484375,0.0
426.20703125,-27.34375,-27.83203125,-9.27734375,-49.8046875,-109.375,0.0
426.2109375,-34.66796875,-20.5078125,-50.29296875,-23.92578125,-35.64453125,0.0
426.21484375,-42.96875,-22.94921875,-71.77734375,-24.90234375,-41.50390625,0.0
426.21875,-39.55078125,-48.33984375,-37.59765625,-43.9453125,-125.0,0.0
426.22265625,-33.69140625,-66.89453125,-17.08984375,-51.26953125,-118.1640625,0.0
426.2265625,-28.3203125,-50.29296875,-26.3671875,-28.3203125,-1.46484375,0.0
426.23046875,-13.671875,-25.390625,-23.4375,4.8828125,61.5234375,0.0
426.234375,-14.6484375,-57.12890625,-6.8359375,-12.20703125,117.1875,0.0
426.23828125,-36.62109375,-75.1953125,-20.01953125,-32.2265625,134.765625,0.0
426.2421875,-25.87890625,-41.50390625,-38.57421875,-27.34375,74.21875,0.0
426.24609375,-21.97265625,-51.7578125,-23.4375,-26.85546875,-6.8359375,0.0
426.25,-33.203125,-54.19921875,-26.3671875,-51.26953125,-4.39453125,0.0
426.25390625,-45.8984375,-40.52734375,-33.203125,-36.62109375,-34.66796875,0.0
426.2578125,-46.875,-57.12890625,-31.73828125,2.9296875,-29.296875,0.0
426.26171875,-39.55078125,-65.91796875,-41.9921875,-15.13671875,-6.8359375,0.0
426.265625,-37.59765625,-36.62109375,-49.31640625,-57.12890625,-41.015625,0.0
426.26953125,-49.31640625,-9.765625,-47.36328125,-69.3359375,71.77734375,0.0
426.2734375,-47.36328125,-40.0390625,-29.296875,-42.48046875,76.66015625,0.0
426.27734375,-21.97265625,-79.58984375,-15.13671875,-8.7890625,-4.39453125,0.0
426.28125,-25.87890625,-96.6796875,-4.8828125,-7.8125,-41.015625,0.0
426.28515625,-38.0859375,-70.3125,-15.13671875,-14.16015625,-2.44140625,0.0
426.2890625,-30.2734375,-23.4375,-42.96875,-33.203125,12.6953125,0.0
426.29296875,-19.53125,-24.4140625,-45.8984375,-41.015625,-3.41796875,0.0
426.296875,-11.23046875,-57.12890625,-20.5078125,-5.859375,-27.83203125,0.0
426.30078125,-35.15625,-77.63671875,-27.83203125,-13.18359375,-37.109375,0.0
426.3046875,-36.1328125,-56.640625,-54.6875,-54.6875,-33.203125,0.0
426.30859375,-14.16015625,-29.78515625,-41.015625,-43.45703125,-5.859375,0.0
426.3125,-23.92578125,-25.390625,-14.6484375,-14.16015625,36.62109375,0.0
426.31640625,-58.59375,-30.76171875,-27.34375,-17.08984375,40.0390625,0.0
426.3203125,-62.98828125,-62.5,-38.57421875,-25.87890625,-65.4296875,0.0
426.32421875,-41.50390625,-108.3984375,-45.41015625,-34.66796875,-54.19921875,0.0
426.328125,-20.5078125,-83.984375,-41.9921875,-40.0390625,39.0625,0.0
426.33203125,-16.11328125,-42.48046875,-21.97265625,-13.671875,1.953125,0.0
426.3359375,-31.73828125,-25.87890625,-6.34765625,3.90625,-124.0234375,0.0
426.33984375,-31.25,-25.87890625,-27.83203125,-25.87890625,-79.1015625,0.0
426.34375,-15.13671875,-45.8984375,-45.8984375,-32.2265625,-15.625,0.0
426.34765625,-23.92578125,-75.68359375,-53.7109375,-25.390625,-57.12890625,0.0
426.3515625,-20.01953125,-62.98828125,-41.50390625,5.859375,-117.1875,0.0
426.35546875,-16.11328125,-12.20703125,-28.3203125,3.90625,-151.3671875,0.0
426.359375,-16.6015625,-39.0625,-18.06640625,-24.90234375,-138.671875,0.0
426.36328125,31.25,-72.265625,5.37109375,0.0,-100.09765625,0.0
426.3671875,9.765625,-30.76171875,-1.46484375,3.90625,-17.08984375,0.0
426.37109375,-49.31640625,-16.6015625,-9.765625,-5.37109375,13.671875,0.0
426.375,-34.66796875,-21.97265625,-18.06640625,1.953125,33.203125,0.0
426.37890625,-21.97265625,-59.08203125,-61.03515625,-41.9921875,-42.48046875,0.0
426.3828125,-30.2734375,-79.1015625,-58.10546875,-80.078125,-77.1484375,0.0
426.38671875,-20.5078125,-37.59765625,-29.78515625,-62.98828125,0.48828125,0.0
426.390625,-13.18359375,-28.3203125,-20.99609375,-24.4140625,-30.76171875,0.0
426.39453125,-29.78515625,-17.578125,-35.15625,-8.30078125,-77.63671875,0.0
426.3984375,-37.109375,0.9765625,-39.0625,-14.6484375,-152.83203125,0.0
426.40234375,-35.64453125,-33.203125,-36.1328125,-28.80859375,-167.96875,0.0
426.40625,-27.83203125,-81.54296875,-37.59765625,-23.92578125,-72.75390625,0.0
426.41015625,3.41796875,-55.17578125,-3.90625,7.8125,-51.7578125,0.0
426.4140625,3.41796875,-8.7890625,25.390625,-5.37109375,-21.97265625,0.0
426.41796875,-41.015625,-28.80859375,-2.44140625,-16.6015625,-48.828125,0.0
426.421875,-42.48046875,-47.8515625,-38.0859375,4.39453125,-34.1796875,0.0
426.42578125,-10.25390625,-50.29296875,-54.6875,-0.48828125,111.328125,0.0
426.4296875,-11.23046875,-57.12890625,-56.15234375,-33.69140625,160.64453125,0.0
426.43359375,-16.6015625,-32.71484375,-53.22265625,-57.6171875,94.7265625,0.0
426.4375,-28.3203125,-34.66796875,-43.45703125,-19.53125,-58.10546875,0.0
426.44140625,-47.8515625,-59.5703125,-26.3671875,-14.16015625,-107.91015625,0.0
426.4453125,-12.20703125,-52.24609375,-12.6953125,-40.0390625,-35.15625,0.0
426.44921875,20.99609375,-49.8046875,-17.08984375,-46.38671875,19.04296875,0.0
426.453125,-4.39453125,-32.71484375,-14.16015625,-45.41015625,25.390625,0.0
426.45703125,-38.57421875,-24.4140625,-3.41796875,-25.87890625,-72.265625,0.0
426.4609375,-40.52734375,-70.3125,-0.9765625,-11.23046875,-108.88671875,0.0
426.46484375,-28.80859375,-34.66796875,-14.6484375,-20.99609375,-15.13671875,0.0
426.46875,-9.27734375,13.18359375,-29.78515625,-19.53125,-39.55078125,0.0
426.47265625,-8.7890625,-14.16015625,-21.484375,5.37109375,-77.63671875,0.0
426.4765625,-22.94921875,-51.26953125,-30.76171875,21.97265625,-57.6171875,0.0
426.48046875,-39.0625,-66.89453125,-43.45703125,-15.625,-78.125,0.0
426.484375,-20.99609375,-56.640625,-30.2734375,-52.734375,-84.9609375,0.0
426.48828125,-5.37109375,-58.59375,-24.4140625,-28.3203125,2.44140625,0.0
426.4921875,-31.25,-36.1328125,-30.2734375,-17.08984375,63.96484375,0.0
426.49609375,-50.78125,-13.671875,-42.48046875,-20.5078125,-27.34375,0.0
426.5,-47.8515625,-50.29296875,-39.0625,-29.296875,-110.3515625,0.0
426.50390625,-20.99609375,-42.96875,-14.16015625,-37.59765625,-169.921875,0.0
426.5078125,5.859375,-55.17578125,-1.953125,-30.2734375,-172.36328125,0.0
426.51171875,19.53125,-85.44921875,-7.32421875,-23.92578125,-167.48046875,0.0
426.515625,-20.5078125,-37.59765625,-29.296875,-37.109375,-218.75,0.0
426.51953125,-62.98828125,-32.2265625,-45.8984375,-36.1328125,-287.59765625,0.0
426.5234375,-53.22265625,-29.78515625,-51.26953125,-27.83203125,-165.0390625,0.0
426.52734375,-40.52734375,-10.7421875,-66.89453125,-22.4609375,-17.08984375,0.0
426.53125,-18.5546875,-10.7421875,-29.296875,1.46484375,84.9609375,0.0
426.53515625,-9.765625,-26.3671875,17.578125,4.8828125,128.41796875,0.0
426.5390625,-12.20703125,-86.9140625,-5.859375,-14.16015625,7.8125,0.0
426.54296875,-24.90234375,-108.88671875,-55.6640625,-4.8828125,-40.0390625,0.0
426.546875,-30.76171875,-62.01171875,-44.43359375,-12.6953125,53.7109375,0.0
426.55078125,-25.87890625,-41.015625,-13.18359375,-49.31640625,135.25390625,0.0
426.5546875,-41.9921875,-30.76171875,-30.76171875,-59.5703125,90.8203125,0.0
426.55859375,-73.73046875,-29.296875,-34.66796875,-61.03515625,-45.8984375,0.0
426.5625,-61.5234375,-29.78515625,-23.92578125,-66.89453125,-78.61328125,0.0
426.56640625,-19.53125,-24.90234375,-26.85546875,-32.2265625,25.87890625,0.0
426.5703125,14.6484375,-61.03515625,-32.71484375,17.578125,25.390625,0.0
426.57421875,-11.23046875,-99.609375,-41.015625,-0.48828125,11.23046875,0.0
426.578125,-48.828125,-59.08203125,-43.45703125,-42.48046875,-12.6953125,0.0
426.58203125,-52.24609375,-42.96875,-45.8984375,-69.82421875,-110.83984375,0.0
426.5859375,-43.45703125,-73.2421875,-45.8984375,-63.96484375,-76.66015625,0.0
426.58984375,-17.08984375,-40.52734375,-27.83203125,-21.484375,-2.44140625,0.0
426.59375,2.44140625,-10.25390625,-23.4375,-3.41796875,-26.3671875,0.0
426.59765625,-13.671875,-27.34375,-34.1796875,-22.94921875,-54.6875,0.0
426.6015625,-31.25,-48.828125,-30.2734375,-37.109375,-66.89453125,0.0
426.60546875,-22.4609375,-40.52734375,-17.08984375,-23.4375,-137.20703125,0.0
426.609375,-14.16015625,-53.7109375,-29.296875,-31.25,-89.84375,0.0
426.61328125,-9.27734375,-69.82421875,-27.34375,-19.04296875,59.08203125,0.0
426.6171875,-24.4140625,-44.921875,-33.69140625,13.671875,32.2265625,0.0
426.62109375,-54.19921875,-34.1796875,-58.10546875,-42.96875,-54.19921875,0.0
426.625,-45.8984375,-42.48046875,-45.41015625,-87.890625,-3.41796875,0.0
426.62890625,-27.83203125,-57.6171875,-24.4140625,-70.3125,83.984375,0.0
426.6328125,-5.37109375,-61.03515625,-21.484375,-44.43359375,80.078125,0.0
426.63671875,-3.41796875,-56.15234375,-24.4140625,-18.06640625,18.06640625,0.0
426.640625,-31.25,-69.82421875,-27.34375,-3.41796875,-88.8671875,0.0
426.64453125,-46.875,-43.9453125,-38.57421875,-9.27734375,-100.5859375,0.0
426.6484375,-44.921875,-26.3671875,-50.78125,-20.5078125,-21.97265625,0.0
426.65234375,-34.1796875,-37.109375,-41.50390625,-37.109375,-10.25390625,0.0
426.65625,-33.203125,-36.62109375,-24.90234375,-31.73828125,-43.45703125,0.0
426.66015625,-27.34375,-59.08203125,-9.27734375,-17.578125,-109.86328125,0.0
426.6640625,-30.2734375,-71.77734375,-14.6484375,-33.69140625,-100.5859375,0.0
426.66796875,-37.109375,-81.0546875,-41.50390625,-31.25,-14.6484375,0.0
426.671875,-33.203125,-67.87109375,-31.25,11.23046875,23.92578125,0.0
426.67578125,-40.0390625,-34.1796875,-10.25390625,-1.46484375,-42.48046875,0.0
426.6796875,-54.6875,-27.83203125,-32.2265625,-37.109375,-104.00390625,0.0
426.68359375,-48.828125,-18.06640625,-26.85546875,-36.1328125,-106.93359375,0.0
426.6875,-19.04296875,-24.4140625,-15.13671875,-41.50390625,-43.45703125,0.0
426.69140625,5.37109375,-80.078125,-18.5546875,-47.36328125,59.08203125,0.0
426.6953125,-22.4609375,-104.00390625,-10.7421875,-28.80859375,26.85546875,0.0
426.69921875,-48.33984375,-47.8515625,-23.4375,-16.11328125,-62.01171875,0.0
426.703125,-66.40625,-17.08984375,-44.43359375,-18.06640625,-45.8984375,0.0
426.70703125,-47.36328125,-38.57421875,-49.8046875,-49.8046875,38.57421875,0.0
426.7109375,-17.08984375,-43.9453125,-32.71484375,-57.12890625,53.22265625,0.0
426.71484375,-30.2734375,-39.55078125,-34.66796875,-17.08984375,-25.390625,0.0
426.71875,-37.109375,-34.66796875,-48.33984375,-9.765625,-17.08984375,0.0
426.72265625,-22.4609375,-31.25,-34.1796875,-44.43359375,122.55859375,0.0
426.7265625,-9.765625,-42.48046875,-16.11328125,-58.10546875,91.796875,0.0
426.73046875,-4.8828125,-57.6171875,-4.8828125,-22.4609375,-22.94921875,0.0
426.734375,-17.08984375,-49.31640625,-7.8125,2.44140625,-82.03125,0.0
426.73828125,-52.24609375,-30.2734375,-22.94921875,-10.7421875,-76.66015625,0.0
426.7421875,-79.58984375,-33.69140625,-33.203125,-11.23046875,-55.6640625,0.0
426.74609375,-61.03515625,-51.7578125,-38.57421875,-26.3671875,-41.015625,0.0
426.75,-18.5546875,-77.1484375,-42.96875,-53.22265625,20.01953125,0.0
426.75390625,-7.8125,-79.58984375,-29.78515625,-30.76171875,43.9453125,0.0
426.7578125,-12.6953125,-67.87109375,-22.94921875,-7.8125,25.87890625,0.0
426.76171875,-16.11328125,-84.9609375,-42.48046875,-27.34375,-119.140625,0.0
426.765625,-33.69140625,-41.50390625,-45.41015625,-36.1328125,-160.64453125,0.0
426.76953125,-24.4140625,0.9765625,-33.203125,-20.99609375,-61.03515625,0.0
426.7734375,-18.5546875,-14.16015625,-10.25390625,-19.04296875,-193.84765625,0.0
426.77734375,-7.8125,-29.296875,-6.34765625,-16.11328125,-240.234375,0.0
426.78125,20.01953125,-41.015625,-13.18359375,-6.34765625,-187.01171875,0.0
426.78515625,6.8359375,-47.36328125,-10.7421875,-23.92578125,-187.98828125,0.0
426.7890625,-7.8125,-49.31640625,-2.9296875,-42.96875,-76.171875,0.0
426.79296875,-10.7421875,-44.43359375,-15.13671875,-30.76171875,-70.80078125,0.0
426.796875,-28.3203125,-52.734375,-35.64453125,-12.6953125,-159.1796875,0.0
426.80078125,-66.89453125,-54.6875,-38.0859375,-34.1796875,-153.3203125,0.0
426.8046875,-63.96484375,-73.73046875,-64.453125,-67.87109375,-67.87109375,0.0
426.80859375,-22.94921875,-91.796875,-78.125,-61.03515625,2.44140625,0.0
426.8125,-30.76171875,-60.546875,-32.2265625,-43.45703125,44.921875,0.0
426.81640625,-34.66796875,-19.53125,21.97265625,-23.92578125,60.05859375,0.0
426.8203125,-44.921875,-10.7421875,13.18359375,-36.62109375,12.20703125,0.0
426.82421875,-38.0859375,-49.31640625,-10.7421875,-50.78125,-31.73828125,0.0
426.828125,-8.7890625,-66.40625,-7.32421875,-29.296875,43.9453125,0.0
426.83203125,-16.6015625,-24.90234375,-12.20703125,-9.27734375,73.73046875,0.0
426.8359375,-18.06640625,5.37109375,4.8828125,4.39453125,-56.640625,0.0
426.83984375,-40.52734375,-41.015625,1.953125,-20.01953125,-99.12109375,0.0
426.84375,-50.78125,-80.56640625,-32.71484375,-45.8984375,-13.18359375,0.0
426.84765625,-28.3203125,-51.7578125,-51.26953125,-48.33984375,5.37109375,0.0
426.8515625,-22.94921875,-40.52734375,-53.7109375,-26.85546875,54.6875,0.0
426.85546875,-37.109375,-54.6875,-23.92578125,-32.71484375,92.28515625,0.0
426.859375,-63.96484375,-63.96484375,-9.27734375,-63.96484375,14.6484375,0.0
426.86328125,-40.52734375,-72.75390625,-16.6015625,-40.52734375,-75.68359375,0.0
426.8671875,-9.27734375,-75.1953125,-24.4140625,-17.578125,-35.64453125,0.0
426.87109375,-20.5078125,-58.10546875,-12.6953125,-21.484375,10.7421875,0.0
426.875,-41.015625,-50.29296875,-16.11328125,-13.18359375,-24.4140625,0.0
426.87890625,-60.546875,-41.9921875,-23.4375,-6.8359375,-115.234375,0.0
426.8828125,-52.734375,-43.45703125,-23.92578125,-32.2265625,-114.2578125,0.0
426.88671875,-37.59765625,-47.8515625,-47.36328125,-55.17578125,-11.23046875,0.0
426.890625,-33.69140625,-29.78515625,-45.8984375,-36.1328125,27.83203125,0.0
426.89453125,-34.1796875,-59.5703125,-19.04296875,-5.37109375,-51.7578125,0.0
426.8984375,-43.45703125,-81.0546875,-16.11328125,1.46484375,-49.31640625,0.0
426.90234375,-56.640625,-59.5703125,-32.71484375,-41.9921875,43.9453125,0.0
426.90625,-23.4375,-45.8984375,-26.85546875,-54.6875,71.77734375,0.0
426.91015625,-3.41796875,-36.1328125,-32.2265625,-32.71484375,24.90234375,0.0
426.9140625,-42.48046875,-46.875,-17.08984375,-20.99609375,36.62109375,0.0
426.91796875,-68.84765625,-65.4296875,-15.625,-33.69140625,41.015625,0.0
426.921875,-50.29296875,-77.1484375,-24.4140625,-42.96875,-0.48828125,0.0
426.92578125,-12.6953125,-39.0625,-18.06640625,-30.2734375,23.92578125,0.0
426.9296875,8.7890625,-3.41796875,-35.64453125,-26.3671875,61.03515625,0.0
426.93359375,-9.765625,-47.36328125,-14.16015625,-15.13671875,20.01953125,0.0
426.9375,-55.6640625,-71.2890625,-10.7421875,-14.16015625,-82.51953125,0.0
426.94140625,-46.38671875,-60.546875,-41.9921875,-19.04296875,-94.23828125,0.0
426.9453125,2.9296875,-39.55078125,-7.32421875,1.953125,-42.96875,0.0
426.94921875,-0.48828125,-29.296875,12.20703125,-36.62109375,10.7421875,0.0
426.953125,-26.3671875,-53.7109375,-25.390625,-75.1953125,73.2421875,0.0
426.95703125,-49.31640625,-54.19921875,-34.1796875,-60.546875,36.1328125,0.0
426.9609375,-47.36328125,-32.2265625,-23.4375,-37.109375,-44.43359375,0.0
426.96484375,-16.11328125,-20.01953125,-23.4375,-15.13671875,-30.76171875,0.0
426.96875,2.44140625,-14.6484375,-8.7890625,-4.8828125,10.7421875,0.0
426.97265625,-10.7421875,-24.4140625,-9.765625,-31.25,67.3828125,0.0
426.9765625,-39.0625,-32.71484375,-38.57421875,-35.64453125,7.32421875,0.0
426.98046875,-66.89453125,-46.38671875,-42.48046875,-22.4609375,-64.94140625,0.0
426.984375,-44.43359375,-69.82421875,-24.4140625,-49.8046875,-44.43359375,0.0
426.98828125,3.90625,-85.9375,-27.34375,-49.8046875,18.06640625,0.0
426.9921875,-2.9296875,-64.453125,-41.9921875,-32.2265625,19.04296875,0.0
426.99609375,-28.80859375,-42.48046875,-19.53125,-32.71484375,-72.75390625,0.0
427.0,-42.48046875,-43.45703125,-26.3671875,-44.921875,-123.046875,0.0
427.00390625,-38.0859375,-43.9453125,-41.015625,-58.59375,-86.42578125,0.0
427.0078125,-8.7890625,-46.38671875,-40.52734375,-36.62109375,-37.109375,0.0
427.01171875,34.66796875,-53.22265625,-22.4609375,13.18359375,13.671875,0.0
427.015625,8.30078125,-29.296875,1.46484375,6.8359375,-11.23046875,0.0
427.01953125,-53.22265625,-24.90234375,-23.92578125,-42.48046875,-76.66015625,0.0
427.0234375,-46.875,-47.36328125,-40.52734375,-46.875,-101.5625,0.0
427.02734375,-29.296875,-49.31640625,-29.78515625,-36.1328125,-34.1796875,0.0
427.03125,-11.71875,-66.40625,-39.55078125,-36.1328125,56.640625,0.0
427.03515625,-10.25390625,-70.80078125,-64.94140625,-26.85546875,19.04296875,0.0
427.0390625,-24.90234375,-26.3671875,-44.921875,-3.41796875,-76.66015625,0.0
427.04296875,-47.8515625,-36.1328125,-27.83203125,-25.390625,-103.515625,0.0
427.046875,-46.38671875,-101.5625,-36.62109375,-61.03515625,-17.578125,0.0
427.05078125,-28.3203125,-113.28125,-35.64453125,-41.015625,43.9453125,0.0
427.0546875,-31.73828125,-24.90234375,-17.578125,-21.97265625,23.92578125,0.0
427.05859375,-33.203125,18.06640625,-1.46484375,-18.5546875,-118.65234375,0.0
427.0625,-25.87890625,-27.83203125,-21.484375,-31.73828125,-185.546875,0.0
427.06640625,-1.46484375,-40.0390625,-37.109375,-54.6875,-30.2734375,0.0
427.0703125,9.765625,-46.38671875,-27.34375,-41.50390625,34.66796875,0.0
427.07421875,-24.4140625,-47.8515625,-21.97265625,6.34765625,-21.97265625,0.0
427.078125,-36.62109375,-37.59765625,-36.1328125,25.87890625,-57.6171875,0.0
427.08203125,-47.36328125,-40.0390625,-56.640625,-9.765625,-78.61328125,0.0
427.0859375,-51.26953125,-54.6875,-36.1328125,-41.50390625,22.94921875,0.0
427.08984375,-19.04296875,-44.921875,-12.6953125,-34.66796875,71.77734375,0.0
427.09375,-19.53125,-61.03515625,-34.1796875,-35.15625,65.4296875,0.0
427.09765625,-28.80859375,-56.640625,-33.69140625,-36.1328125,10.25390625,0.0
427.1015625,-13.671875,-23.92578125,-13.18359375,-8.7890625,-86.42578125,0.0
427.10546875,-30.76171875,-50.29296875,-13.18359375,14.6484375,-70.80078125,0.0
427.109375,-33.203125,-71.77734375,-26.3671875,-1.953125,21.97265625,0.0
427.11328125,-15.13671875,-47.8515625,-41.9921875,-31.73828125,84.9609375,0.0
427.1171875,-11.71875,-41.015625,-49.8046875,-39.55078125,-25.87890625,0.0
427.12109375,-18.06640625,-39.55078125,-39.55078125,-40.52734375,-100.09765625,0.0
427.125,-42.48046875,-35.15625,-20.01953125,-40.0390625,-105.46875,0.0
427.12890625,-37.59765625,-28.80859375,-19.53125,-9.765625,-60.546875,0.0
427.1328125,-17.578125,-21.484375,-17.578125,28.3203125,16.6015625,0.0
427.13671875,-30.2734375,-49.31640625,-1.953125,7.32421875,-86.42578125,0.0
427.140625,-47.36328125,-94.23828125,-12.6953125,-41.50390625,-120.60546875,0.0
427.14453125,-41.50390625,-59.5703125,-21.484375,-25.390625,-86.9140625,0.0
427.1484375,-20.01953125,-31.25,-14.6484375,0.9765625,-116.69921875,0.0
427.15234375,-5.37109375,-62.5,-25.87890625,-19.53125,-19.53125,0.0
427.15625,-18.5546875,-77.1484375,-37.59765625,-55.6640625,27.34375,0.0
427.16015625,-42.48046875,-42.48046875,-21.97265625,-44.921875,-42.48046875,0.0
427.1640625,-32.2265625,-19.53125,-7.32421875,-17.08984375,-106.93359375,0.0
427.16796875,-20.01953125,-17.578125,-11.71875,-11.71875,-49.8046875,0.0
427.171875,-31.25,-23.92578125,-32.71484375,-5.37109375,14.16015625,0.0
427.17578125,-31.73828125,-46.38671875,-37.59765625,0.48828125,-51.7578125,0.0
427.1796875,-17.08984375,-54.6875,-18.5546875,-11.71875,-138.18359375,0.0
427.18359375,-25.390625,-55.17578125,-30.2734375,-53.7109375,-115.234375,0.0
427.1875,-22.94921875,-58.10546875,-41.9921875,-44.43359375,-9.765625,0.0
427.19140625,-15.13671875,-62.98828125,-12.20703125,7.32421875,20.99609375,0.0
427.1953125,-57.6171875,-56.15234375,-22.94921875,-6.8359375,-11.23046875,0.0
427.19921875,-76.66015625,-47.8515625,-51.7578125,-41.015625,-78.125,0.0
427.203125,-59.08203125,-35.64453125,-55.6640625,-63.96484375,-142.08984375,0.0
427.20703125,-17.578125,-28.3203125,-1.953125,-38.57421875,-128.41796875,0.0
427.2109375,-2.9296875,-61.5234375,25.390625,3.90625,-62.5,0.0
427.21484375,-44.921875,-77.63671875,-21.97265625,-25.390625,-28.80859375,0.0
427.21875,-73.73046875,-53.22265625,-43.45703125,-59.08203125,-81.0546875,0.0
427.22265625,-38.0859375,-37.59765625,-39.55078125,-65.4296875,-96.6796875,0.0
427.2265625,-12.6953125,-42.96875,-41.9921875,-58.59375,-22.4609375,0.0
427.23046875,-21.97265625,-69.3359375,-39.55078125,-43.45703125,2.9296875,0.0
427.234375,-26.3671875,-44.43359375,-39.55078125,-30.2734375,-32.2265625,0.0
427.23828125,-26.85546875,-6.34765625,-45.41015625,-11.71875,-45.8984375,0.0
427.2421875,-31.73828125,-25.390625,-44.921875,-11.23046875,-40.0390625,0.0
427.24609375,-46.875,-41.9921875,-46.38671875,-32.71484375,-42.48046875,0.0
427.25,-30.76171875,-44.43359375,-36.62109375,-50.78125,25.390625,0.0
427.25390625,-30.2734375,-77.1484375,-3.41796875,-52.24609375,18.06640625,0.0
427.2578125,-53.22265625,-61.5234375,-3.41796875,-30.2734375,-6.8359375,0.0
427.26171875,-64.94140625,-52.734375,-35.64453125,-32.71484375,24.4140625,0.0
427.265625,-43.9453125,-57.6171875,-34.1796875,-38.0859375,-8.30078125,0.0
427.26953125,-23.4375,-41.015625,-24.90234375,-15.625,22.94921875,0.0
427.2734375,-28.3203125,-48.33984375,-44.921875,-32.2265625,-15.625,0.0
427.27734375,-30.76171875,-47.8515625,-55.6640625,-39.55078125,-78.125,0.0
427.28125,-21.97265625,-52.24609375,-41.9921875,-11.23046875,-96.6796875,0.0
427.28515625,-24.90234375,-46.38671875,-26.85546875,-22.94921875,-53.22265625,0.0
427.2890625,-30.76171875,-46.875,-24.4140625,-65.4296875,-30.76171875,0.0
427.29296875,-39.55078125,-46.38671875,-34.1796875,-65.91796875,1.953125,0.0
427.296875,-50.78125,-48.33984375,-19.04296875,-42.96875,58.10546875,0.0
427.30078125,-45.41015625,-62.98828125,-12.20703125,-37.59765625,-8.30078125,0.0
427.3046875,-30.76171875,-57.12890625,-35.64453125,-48.33984375,4.8828125,0.0
427.30859375,-6.34765625,-70.80078125,-29.78515625,-17.08984375,81.0546875,0.0
427.3125,-17.578125,-78.61328125,-25.87890625,29.78515625,30.2734375,0.0
427.31640625,-34.66796875,-50.29296875,-29.296875,35.64453125,-77.63671875,0.0
427.3203125,-28.3203125,-26.3671875,-32.71484375,-14.16015625,-93.75,0.0
427.32421875,-35.15625,-52.734375,-61.5234375,-80.56640625,-76.66015625,0.0
427.328125,-23.92578125,-39.0625,-50.78125,-81.54296875,-67.87109375,0.0
427.33203125,-4.39453125,-20.99609375,-15.13671875,-45.8984375,-26.3671875,0.0
427.3359375,-35.64453125,-46.38671875,-11.23046875,-20.01953125,-43.45703125,0.0
427.33984375,-56.640625,-54.19921875,-24.4140625,-13.18359375,-75.68359375,0.0
427.34375,-19.53125,-48.828125,-7.32421875,-19.53125,-61.03515625,0.0
427.34765625,0.0,-63.96484375,0.0,-24.4140625,28.3203125,0.0
427.3515625,-20.5078125,-74.21875,-27.34375,-15.13671875,111.328125,0.0
427.35546875,-43.45703125,-68.359375,-48.828125,-25.87890625,31.25,0.0
427.359375,-39.55078125,-43.9453125,-51.7578125,-33.203125,-53.22265625,0.0
427.36328125,-11.71875,-16.6015625,-42.48046875,-20.01953125,26.85546875,0.0
427.3671875,-22.4609375,-30.76171875,-41.9921875,-19.53125,76.171875,0.0
427.37109375,-49.31640625,-51.7578125,-47.36328125,-24.4140625,-81.54296875,0.0
427.375,-42.96875,-47.8515625,-21.97265625,-27.83203125,-192.87109375,0.0
427.37890625,-28.3203125,-53.22265625,-12.6953125,-38.0859375,-167.48046875,0.0
427.3828125,-11.71875,-51.26953125,-27.34375,-49.31640625,-119.140625,0.0
427.38671875,-14.6484375,-69.3359375,-16.11328125,-51.7578125,-194.3359375,0.0
427.390625,-20.99609375,-88.8671875,-8.30078125,-29.78515625,-242.1875,0.0
427.39453125,-43.45703125,-47.36328125,-28.80859375,-27.34375,-179.6875,0.0
427.3984375,-57.12890625,-15.13671875,-24.90234375,-27.83203125,-224.609375,0.0
427.40234375,-48.33984375,-18.06640625,-18.06640625,-11.23046875,-169.43359375,0.0
427.40625,-39.0625,-58.10546875,-37.59765625,-10.25390625,4.39453125,0.0
427.41015625,-17.08984375,-71.2890625,-50.29296875,-18.06640625,26.3671875,0.0
427.4140625,-15.625,-33.203125,-44.921875,-32.71484375,53.22265625,0.0
427.41796875,-38.57421875,-21.97265625,-15.625,-36.1328125,99.609375,0.0
427.421875,-55.6640625,-45.41015625,-38.57421875,-44.43359375,43.9453125,0.0
427.42578125,-24.4140625,-49.31640625,-54.19921875,-41.015625,-14.6484375,0.0
427.4296875,5.37109375,-48.33984375,-26.85546875,-22.4609375,32.71484375,0.0
427.43359375,-18.5546875,-67.3828125,18.5546875,-8.30078125,89.35546875,0.0
427.4375,-67.87109375,-64.94140625,11.23046875,-21.484375,43.45703125,0.0
427.44140625,-69.3359375,-48.828125,-35.64453125,-41.9921875,5.37109375,0.0
427.4453125,-40.52734375,-46.875,-43.9453125,-44.43359375,-6.8359375,0.0
427.44921875,-35.64453125,-54.19921875,-42.96875,-40.52734375,38.57421875,0.0
427.453125,-29.296875,-62.01171875,-26.85546875,-28.3203125,126.953125,0.0
427.45703125,-34.66796875,-68.84765625,-11.23046875,-7.32421875,67.3828125,0.0
427.4609375,-30.2734375,-64.453125,-33.203125,-11.71875,14.16015625,0.0
427.46484375,-16.6015625,-31.73828125,-45.41015625,-31.25,9.765625,0.0
427.46875,-31.73828125,-20.5078125,-41.015625,-41.9921875,-30.2734375,0.0
427.47265625,-3.41796875,-53.7109375,-37.59765625,-22.4609375,8.7890625,0.0
427.4765625,3.41796875,-74.70703125,-14.6484375,3.41796875,33.69140625,0.0
427.48046875,-32.71484375,-37.59765625,4.8828125,-12.6953125,-40.52734375,0.0
427.484375,-66.40625,-37.59765625,-15.13671875,-52.24609375,-1.46484375,0.0
427.48828125,-57.12890625,-48.33984375,-29.296875,-53.7109375,89.84375,0.0
427.4921875,-31.25,-29.78515625,-27.34375,-37.59765625,49.8046875,0.0
427.49609375,-35.64453125,-46.38671875,-30.2734375,-18.06640625,-0.9765625,0.0
427.5,-43.9453125,-90.33203125,-39.0625,-10.7421875,30.76171875,0.0
427.50390625,-31.73828125,-97.16796875,-45.41015625,-40.0390625,-3.41796875,0.0
427.5078125,-29.78515625,-68.359375,-44.43359375,-47.8515625,-22.4609375,0.0
427.51171875,-23.4375,-32.71484375,-30.2734375,-32.2265625,44.43359375,0.0
427.515625,-18.5546875,-20.01953125,-24.90234375,-15.625,16.11328125,0.0
427.51953125,-24.90234375,-44.43359375,-29.78515625,6.8359375,-117.1875,0.0
427.5234375,-26.3671875,-58.10546875,-20.5078125,-7.32421875,-154.78515625,0.0
427.52734375,-14.16015625,-58.10546875,-34.66796875,-46.38671875,-100.09765625,0.0
427.53125,-9.27734375,-55.17578125,-34.66796875,-35.64453125,-49.8046875,0.0
427.53515625,-14.16015625,-67.3828125,-10.7421875,-7.32421875,-74.70703125,0.0
427.5390625,-15.13671875,-92.28515625,2.44140625,-26.3671875,-99.12109375,0.0
427.54296875,-34.1796875,-73.2421875,-20.01953125,-43.9453125,-49.8046875,0.0
427.546875,-37.59765625,-31.25,-38.0859375,-48.828125,8.7890625,0.0
427.55078125,-27.83203125,-6.34765625,-37.59765625,-42.48046875,42.48046875,0.0
427.5546875,-25.390625,-14.6484375,-37.109375,-21.484375,96.19140625,0.0
427.55859375,-38.0859375,-38.57421875,-31.73828125,0.48828125,36.1328125,0.0
427.5625,-49.8046875,-66.40625,-48.33984375,-14.6484375,-80.56640625,0.0
427.56640625,-20.5078125,-66.40625,-48.828125,-37.59765625,-71.77734375,0.0
427.5703125,-7.32421875,-48.33984375,-35.64453125,-43.9453125,-72.265625,0.0
427.57421875,-17.08984375,-55.17578125,-24.4140625,-34.1796875,-94.23828125,0.0
427.578125,-25.87890625,-73.73046875,-37.59765625,-11.23046875,-56.15234375,0.0
427.58203125,-55.6640625,-68.84765625,-33.203125,-17.578125,-112.79296875,0.0
427.5859375,-33.69140625,-46.38671875,8.7890625,-25.87890625,-62.5,0.0
427.58984375,-20.5078125,-56.15234375,5.37109375,-26.3671875,15.13671875,0.0
427.59375,-43.9453125,-42.96875,-16.6015625,-21.484375,-27.34375,0.0
427.59765625,-58.10546875,-36.1328125,-29.78515625,-43.45703125,-79.1015625,0.0
427.6015625,-71.77734375,-50.78125,-33.69140625,-53.7109375,-82.51953125,0.0
427.60546875,-42.96875,-53.22265625,-37.109375,-41.015625,-62.98828125,0.0
427.609375,-12.6953125,-60.546875,-44.921875,-52.24609375,-4.39453125,0.0
427.61328125,-20.99609375,-56.640625,-51.26953125,-53.7109375,13.18359375,0.0
427.6171875,-36.62109375,-52.24609375,-30.76171875,-29.296875,-69.82421875,0.0
427.62109375,-41.50390625,-65.4296875,-14.6484375,-13.18359375,-124.0234375,0.0
427.625,-26.85546875,-62.01171875,-14.6484375,6.34765625,-48.33984375,0.0
427.62890625,-7.32421875,-67.87109375,-15.625,18.06640625,-25.87890625,0.0
427.6328125,-9.765625,-46.38671875,-23.4375,-7.8125,-29.296875,0.0
427.63671875,-33.203125,-26.3671875,-31.73828125,-53.22265625,-64.453125,0.0
427.640625,-57.12890625,-51.7578125,-41.50390625,-66.40625,-24.90234375,0.0
427.64453125,-55.6640625,-61.03515625,-46.38671875,-64.94140625,26.85546875,0.0
427.6484375,-23.4375,-53.7109375,-32.2265625,-56.640625,22.4609375,0.0
427.65234375,-7.8125,-53.7109375,-27.34375,-34.1796875,78.125,0.0
427.65625,-29.78515625,-63.96484375,-48.33984375,-6.34765625,-32.71484375,0.0
427.66015625,-33.69140625,-29.296875,-29.78515625,25.87890625,-215.8203125,0.0
427.6640625,-12.6953125,-24.4140625,-4.8828125,0.0,-194.3359375,0.0
427.66796875,-13.18359375,-51.7578125,-21.484375,-66.89453125,-16.6015625,0.0
427.671875,-15.13671875,-38.0859375,-11.71875,-40.52734375,71.77734375,0.0
427.67578125,-34.1796875,-46.38671875,-33.203125,-33.69140625,29.296875,0.0
427.6796875,-49.8046875,-68.359375,-72.265625,-56.640625,-51.7578125,0.0
427.68359375,-29.78515625,-57.6171875,-36.1328125,-26.85546875,-104.98046875,0.0
427.6875,-21.484375,-53.7109375,-18.06640625,-23.4375,-20.01953125,0.0
427.69140625,-19.04296875,-68.359375,-25.390625,-23.92578125,4.39453125,0.0
427.6953125,-0.48828125,-39.55078125,-10.7421875,-0.9765625,-74.21875,0.0
427.69921875,-14.16015625,-12.6953125,-20.5078125,-0.48828125,-270.99609375,0.0
427.703125,-40.0390625,-45.8984375,-40.52734375,-32.2265625,-312.5,0.0
427.70703125,-25.390625,-53.22265625,-50.29296875,-50.78125,-248.046875,0.0
427.7109375,-5.37109375,-30.2734375,-25.390625,-25.87890625,-197.265625,0.0
427.71484375,-7.32421875,-51.7578125,-8.30078125,-4.39453125,-155.2734375,0.0
427.71875,-28.80859375,-79.58984375,-16.6015625,-3.41796875,-277.83203125,0.0
427.72265625,-43.45703125,-81.0546875,-24.4140625,-34.66796875,-211.9140625,0.0
427.7265625,-4.8828125,-74.70703125,-35.64453125,-44.921875,-15.625,0.0
427.73046875,3.41796875,-42.96875,-16.6015625,-10.25390625,7.32421875,0.0
427.734375,-26.85546875,-20.01953125,-16.6015625,4.39453125,118.1640625,0.0
427.73828125,-29.78515625,-13.671875,-31.25,-15.13671875,108.3984375,0.0
427.7421875,-35.15625,-34.1796875,-34.66796875,-42.96875,3.90625,0.0
427.74609375,-37.59765625,-52.24609375,-22.4609375,-52.24609375,66.40625,0.0
427.75,-34.1796875,-33.203125,-18.5546875,-27.34375,83.0078125,0.0
427.75390625,-46.38671875,-43.45703125,-34.1796875,-22.4609375,35.64453125,0.0
427.7578125,-25.390625,-66.89453125,-26.3671875,-47.36328125,38.57421875,0.0
427.76171875,0.48828125,-107.91015625,-10.25390625,-49.31640625,-53.22265625,0.0
427.765625,-14.6484375,-96.6796875,-20.99609375,-61.03515625,-94.23828125,0.0
427.76953125,-39.55078125,-34.1796875,-34.1796875,-54.19921875,29.296875,0.0
427.7734375,-41.50390625,-17.578125,-42.48046875,-21.484375,116.69921875,0.0
427.77734375,-33.69140625,-24.90234375,-25.390625,1.46484375,72.265625,0.0
427.78125,-13.671875,-41.50390625,-10.7421875,-12.20703125,62.01171875,0.0
427.78515625,-13.671875,-80.56640625,-25.390625,-59.08203125,128.90625,0.0
427.7890625,-21.484375,-73.73046875,-41.9921875,-55.6640625,107.421875,0.0
427.79296875,-27.34375,-64.94140625,-24.90234375,-24.4140625,37.59765625,0.0
427.796875,-52.734375,-78.61328125,-8.30078125,-18.06640625,-45.8984375,0.0
427.80078125,-56.15234375,-60.05859375,-12.20703125,-24.4140625,-71.2890625,0.0
427.8046875,-27.83203125,-65.4296875,-36.1328125,-41.015625,-56.15234375,0.0
427.80859375,-29.296875,-58.10546875,-29.296875,-55.17578125,-31.73828125,0.0
427.8125,-28.3203125,-43.9453125,1.953125,-34.66796875,-90.33203125,0.0
427.81640625,-35.64453125,-52.24609375,-12.6953125,-17.578125,-92.7734375,0.0
427.8203125,-50.78125,-40.0390625,-29.296875,-42.96875,-60.05859375,0.0
427.82421875,-27.34375,-46.875,-11.23046875,-28.3203125,-62.01171875,0.0
427.828125,-19.53125,-52.24609375,-20.01953125,-25.87890625,-41.9921875,0.0
427.83203125,-23.92578125,-30.76171875,-36.62109375,-39.55078125,-36.1328125,0.0
427.8359375,-33.69140625,-16.6015625,-49.8046875,-53.7109375,-31.25,0.0
427.83984375,-59.08203125,-51.26953125,-58.10546875,-78.61328125,16.6015625,0.0
427.84375,-45.8984375,-82.03125,-32.71484375,-67.87109375,-15.13671875,0.0
427.84765625,-38.0859375,-40.52734375,-24.90234375,-41.015625,-41.50390625,0.0
427.8515625,-39.55078125,-2.44140625,-33.203125,-41.9921875,-55.6640625,0.0
427.85546875,-44.43359375,-17.578125,-43.45703125,-61.03515625,-86.9140625,0.0
427.859375,-45.8984375,-57.12890625,-53.22265625,-81.0546875,-97.16796875,0.0
427.86328125,-27.34375,-57.6171875,-41.50390625,-54.19921875,-63.4765625,0.0
427.8671875,-8.30078125,-45.41015625,-10.25390625,-25.87890625,-33.203125,0.0
427.87109375,-18.5546875,-48.828125,0.0,-7.8125,-3.90625,0.0
427.875,-42.48046875,-27.34375,-30.76171875,12.6953125,12.20703125,0.0
427.87890625,-47.8515625,-41.50390625,-44.43359375,-10.25390625,-140.625,0.0
427.8828125,-41.015625,-81.0546875,-44.921875,-55.6640625,-128.41796875,0.0
427.88671875,-37.109375,-74.70703125,-33.69140625,-66.40625,-41.015625,0.0
427.890625,-18.06640625,-34.66796875,-23.4375,-42.96875,7.8125,0.0
427.89453125,-25.390625,-18.5546875,-15.13671875,-23.92578125,25.87890625,0.0
427.8984375,-56.15234375,-46.38671875,-23.4375,-41.50390625,-29.296875,0.0
427.90234375,-51.7578125,-46.38671875,-45.8984375,-63.4765625,37.59765625,0.0
427.90625,-42.96875,-37.109375,-49.31640625,-43.45703125,36.62109375,0.0
427.91015625,-55.17578125,-62.01171875,-30.2734375,-24.4140625,-53.22265625,0.0
427.9140625,-56.640625,-67.3828125,-14.16015625,-22.4609375,-89.35546875,0.0
427.91796875,-39.55078125,-61.5234375,-26.3671875,-32.2265625,-85.9375,0.0
427.921875,-26.85546875,-72.75390625,-41.9921875,-34.1796875,-86.42578125,0.0
427.92578125,-18.06640625,-53.7109375,-18.06640625,-11.23046875,-60.546875,0.0
427.9296875,-20.99609375,-22.4609375,2.44140625,-15.625,20.01953125,0.0
427.93359375,-42.96875,-28.80859375,-38.0859375,-44.43359375,76.171875,0.0
427.9375,-59.5703125,-49.8046875,-56.640625,-58.10546875,-55.6640625,0.0
427.94140625,-68.359375,-65.4296875,-30.76171875,-58.59375,-186.03515625,0.0
427.9453125,-62.5,-51.7578125,-26.85546875,-39.55078125,-51.7578125,0.0
427.94921875,-27.83203125,-47.8515625,-29.296875,-20.5078125,45.8984375,0.0
427.953125,-3.90625,-76.171875,-11.71875,-7.32421875,-71.77734375,0.0
427.95703125,-21.484375,-83.49609375,-13.671875,-19.04296875,-61.03515625,0.0
427.9609375,-52.24609375,-74.21875,-47.8515625,-47.36328125,-27.83203125,0.0
427.96484375,-58.10546875,-43.9453125,-60.05859375,-63.4765625,-67.87109375,0.0
427.96875,-36.62109375,-23.4375,-31.73828125,-45.8984375,5.37109375,0.0
427.97265625,-23.92578125,-42.96875,-16.6015625,-13.671875,-18.06640625,0.0
427.9765625,-38.57421875,-36.1328125,-21.484375,-20.5078125,-62.98828125,0.0
427.98046875,-44.43359375,-23.4375,-9.27734375,-26.85546875,-46.875,0.0
427.984375,-53.22265625,-62.5,-21.97265625,-28.3203125,-71.2890625,0.0
427.98828125,-31.73828125,-82.03125,-29.296875,-11.71875,-16.6015625,0.0
427.9921875,-10.7421875,-71.77734375,-15.13671875,-12.6953125,30.76171875,0.0
427.99609375,-23.4375,-44.921875,-43.9453125,-67.3828125,2.9296875,0.0
428.0,-33.203125,-42.48046875,-57.6171875,-82.03125,-52.24609375,0.0
428.00390625,-46.38671875,-53.22265625,-33.69140625,-57.6171875,-66.89453125,0.0
428.0078125,-24.4140625,-43.45703125,-38.57421875,-35.64453125,0.48828125,0.0
428.01171875,-15.13671875,-51.7578125,-37.59765625,-22.94921875,81.54296875,0.0
428.015625,-20.99609375,-40.52734375,-15.625,9.27734375,83.0078125,0.0
428.01953125,-13.18359375,-49.8046875,-19.04296875,24.90234375,-7.32421875,0.0
428.0234375,-8.30078125,-74.70703125,-15.13671875,7.8125,-88.8671875,0.0
428.02734375,17.578125,-66.40625,-4.8828125,0.9765625,-37.59765625,0.0
428.03125,-6.34765625,-43.9453125,-23.4375,-23.4375,-14.6484375,0.0
428.03515625,-51.26953125,-35.15625,-31.73828125,-23.92578125,-57.6171875,0.0
428.0390625,-45.41015625,-39.55078125,-20.01953125,-19.04296875,-93.26171875,0.0
428.04296875,-39.55078125,-50.29296875,-14.16015625,-56.640625,-80.56640625,0.0
428.046875,-33.203125,-43.9453125,-40.52734375,-61.03515625,-11.23046875,0.0
428.05078125,-16.11328125,-46.38671875,-50.29296875,-15.13671875,72.75390625,0.0
428.0546875,-31.73828125,-70.80078125,-40.0390625,-0.9765625,68.359375,0.0
428.05859375,-57.12890625,-67.3828125,-30.76171875,-14.16015625,-26.3671875,0.0
428.0625,-28.80859375,-57.12890625,-23.4375,-24.4140625,-77.1484375,0.0
428.06640625,-5.859375,-64.453125,-33.69140625,-50.78125,40.0390625,0.0
428.0703125,-12.20703125,-57.12890625,-21.484375,-62.01171875,151.3671875,0.0
428.07421875,-24.90234375,-38.0859375,-5.859375,-28.3203125,98.6328125,0.0
428.078125,-47.8515625,-36.62109375,-28.3203125,-35.64453125,-28.80859375,0.0
428.08203125,-49.8046875,-53.7109375,-47.8515625,-58.10546875,-103.515625,0.0
428.0859375,-13.18359375,-32.2265625,-30.2734375,-27.34375,-59.5703125,0.0
428.08984375,0.48828125,-16.11328125,-13.18359375,3.41796875,14.6484375,0.0
428.09375,-24.4140625,-50.29296875,-13.671875,-1.46484375,-19.53125,0.0
428.09765625,-57.12890625,-55.17578125,-52.734375,-29.78515625,-47.8515625,0.0
428.1015625,-52.24609375,-56.15234375,-59.5703125,-41.50390625,-41.50390625,0.0
428.10546875,-18.5546875,-67.3828125,-15.13671875,-36.1328125,-72.265625,0.0
428.109375,8.30078125,-58.59375,4.8828125,-12.6953125,-8.7890625,0.0
428.11328125,1.953125,-60.05859375,-26.85546875,-6.34765625,58.59375,0.0
428.1171875,-36.1328125,-59.5703125,-43.9453125,-23.92578125,27.83203125,0.0
428.12109375,-58.10546875,-68.84765625,-24.90234375,-37.109375,-59.5703125,0.0
428.125,-46.38671875,-97.65625,-28.3203125,-65.4296875,-80.078125,0.0
428.12890625,-20.99609375,-64.453125,-38.0859375,-54.19921875,-26.3671875,0.0
428.1328125,1.46484375,-8.30078125,-25.87890625,-17.08984375,32.2265625,0.0
428.13671875,-3.90625,-25.390625,-11.23046875,14.6484375,31.25,0.0
428.140625,-21.484375,-36.62109375,-20.01953125,14.6484375,-84.47265625,0.0
428.14453125,-27.34375,-34.66796875,-36.1328125,-29.296875,-107.91015625,0.0
428.1484375,-42.96875,-47.8515625,-47.36328125,-64.453125,-76.66015625,0.0
428.15234375,-39.55078125,-50.29296875,-61.03515625,-54.6875,-35.64453125,0.0
428.15625,-25.87890625,-56.640625,-36.1328125,-36.62109375,-10.7421875,0.0
428.16015625,-36.62109375,-67.87109375,-16.11328125,-30.2734375,-74.21875,0.0
428.1640625,-46.38671875,-86.9140625,-22.94921875,-14.16015625,-22.94921875,0.0
428.16796875,-30.2734375,-100.5859375,-20.99609375,-10.25390625,54.6875,0.0
428.171875,-30.2734375,-75.68359375,-31.73828125,-60.05859375,8.30078125,0.0
428.17578125,-43.45703125,-47.36328125,-32.2265625,-86.42578125,-74.70703125,0.0
428.1796875,-52.24609375,-26.85546875,-41.9921875,-64.453125,-76.171875,0.0
428.18359375,-22.94921875,-19.04296875,-36.1328125,-23.92578125,-64.453125,0.0
428.1875,16.11328125,-55.6640625,-17.08984375,1.46484375,32.2265625,0.0
428.19140625,-5.37109375,-52.734375,-22.94921875,-17.578125,45.41015625,0.0
428.1953125,-53.7109375,-49.31640625,-28.80859375,-38.57421875,-40.0390625,0.0
428.19921875,-71.2890625,-72.75390625,-18.5546875,-37.59765625,-50.78125,0.0
428.203125,-57.6171875,-89.84375,-34.66796875,-62.01171875,-110.3515625,0.0
428.20703125,-32.71484375,-76.66015625,-43.9453125,-71.2890625,-84.9609375,0.0
428.2109375,-15.13671875,-58.10546875,-23.92578125,-24.4140625,-84.47265625,0.0
428.21484375,-20.01953125,-67.87109375,-19.04296875,-22.94921875,-59.08203125,0.0
428.21875,-3.90625,-58.59375,-23.92578125,-41.50390625,-59.08203125,0.0
428.22265625,-13.18359375,-48.33984375,-30.76171875,-38.57421875,-114.2578125,0.0
428.2265625,-35.64453125,-47.36328125,-35.15625,-51.7578125,-67.3828125,0.0
428.23046875,-36.1328125,-29.296875,-41.50390625,-65.91796875,-81.54296875,0.0
428.234375,-39.0625,-29.296875,-32.71484375,-48.33984375,-54.6875,0.0
