timestamp,TP9,AF7,AF8,TP10,AUX,Marker,
307.00390625,-62.5,-30.2734375,-31.25,-51.7578125,-41.9921875,0.0
307.0078125,-39.0625,-30.76171875,-18.5546875,-46.38671875,8.30078125,0.0
307.01171875,-43.9453125,-35.64453125,-20.01953125,3.41796875,0.48828125,0.0
307.015625,-43.45703125,-36.62109375,-26.85546875,-2.9296875,-31.73828125,0.0
307.01953125,-28.80859375,-30.76171875,-23.92578125,-58.59375,-44.921875,0.0
307.0234375,-38.57421875,-26.3671875,-35.15625,-45.41015625,8.7890625,0.0
307.02734375,-41.015625,-29.78515625,-41.50390625,-21.484375,49.31640625,0.0
307.03125,-45.8984375,-29.296875,-29.296875,-2.9296875,-31.73828125,0.0
307.03515625,-40.0390625,-24.90234375,-20.5078125,-10.25390625,-54.19921875,0.0
307.0390625,-34.66796875,-25.87890625,-19.04296875,-49.8046875,-75.68359375,0.0
307.04296875,-49.8046875,-23.92578125,-23.4375,-47.36328125,-20.5078125,0.0
307.046875,-59.08203125,-21.484375,-28.3203125,-28.80859375,-10.25390625,0.0
307.05078125,-87.890625,-32.71484375,-24.4140625,-11.23046875,-41.9921875,0.0
307.0546875,-61.03515625,-25.87890625,-23.92578125,-5.37109375,-24.4140625,0.0
307.05859375,-41.015625,-20.99609375,-35.64453125,-48.33984375,-36.1328125,0.0
307.0625,-80.078125,-32.71484375,-48.828125,-66.89453125,-87.890625,0.0
307.06640625,-93.26171875,-34.66796875,-44.43359375,-58.10546875,-107.421875,0.0
307.0703125,-64.453125,-35.15625,-35.64453125,-38.57421875,1.953125,0.0
307.07421875,-37.59765625,-36.62109375,-36.1328125,-10.7421875,8.7890625,0.0
307.078125,-65.91796875,-31.73828125,-42.48046875,-10.7421875,-16.11328125,0.0
307.08203125,-84.47265625,-29.78515625,-45.8984375,-22.94921875,78.125,0.0
307.0859375,-72.265625,-26.3671875,-37.109375,-52.734375,66.89453125,0.0
307.08984375,-65.91796875,-31.25,-32.2265625,-42.96875,-29.78515625,0.0
307.09375,-33.69140625,-36.62109375,-34.1796875,4.39453125,-11.71875,0.0
307.09765625,-13.671875,-41.50390625,-36.62109375,0.9765625,40.52734375,0.0
307.1015625,-22.4609375,-41.015625,-36.62109375,-37.109375,7.8125,0.0
307.10546875,-42.48046875,-35.64453125,-33.203125,-45.8984375,21.484375,0.0
307.109375,-48.828125,-29.296875,-15.13671875,-19.53125,99.12109375,0.0
307.11328125,-29.296875,-27.34375,-5.859375,-19.53125,101.07421875,0.0
307.1171875,-26.3671875,-41.015625,-16.6015625,-45.41015625,-9.27734375,0.0
307.12109375,-62.5,-51.26953125,-29.78515625,-49.31640625,-121.58203125,0.0
307.125,-89.35546875,-46.38671875,-35.64453125,-57.12890625,-33.69140625,0.0
307.12890625,-58.10546875,-43.45703125,-32.2265625,-52.24609375,77.63671875,0.0
307.1328125,-33.69140625,-41.015625,-29.296875,-22.4609375,97.65625,0.0
307.13671875,-29.78515625,-37.109375,-23.4375,-24.90234375,36.62109375,0.0
307.140625,-10.7421875,-35.15625,-31.73828125,-27.83203125,-4.8828125,0.0
307.14453125,-41.50390625,-39.55078125,-42.96875,-51.26953125,3.41796875,0.0
307.1484375,-49.31640625,-47.8515625,-27.83203125,-42.96875,22.4609375,0.0
307.15234375,-3.41796875,-50.29296875,-47.36328125,22.4609375,39.55078125,0.0
307.15625,-0.48828125,-47.36328125,-49.8046875,21.97265625,44.43359375,0.0
307.16015625,-37.109375,-45.8984375,-18.06640625,-65.4296875,66.40625,0.0
307.1640625,-75.1953125,-45.8984375,-19.53125,-47.36328125,55.6640625,0.0
307.16796875,-85.9375,-34.66796875,-32.71484375,-0.48828125,70.80078125,0.0
307.171875,-69.3359375,-32.2265625,-14.16015625,-32.71484375,43.9453125,0.0
307.17578125,-35.64453125,-28.80859375,-33.69140625,-13.18359375,-14.16015625,0.0
307.1796875,-22.94921875,-24.90234375,-58.10546875,-11.71875,-97.65625,0.0
307.18359375,-43.45703125,-31.73828125,-29.296875,-30.2734375,-181.15234375,0.0
307.1875,-60.546875,-35.64453125,-13.671875,-33.69140625,-186.5234375,0.0
307.19140625,-21.97265625,-31.73828125,-23.92578125,1.46484375,-112.79296875,0.0
307.1953125,11.71875,-25.87890625,-5.37109375,13.671875,22.4609375,0.0
307.19921875,30.2734375,-22.4609375,-20.01953125,3.90625,41.50390625,0.0
307.203125,-4.39453125,-29.78515625,-36.1328125,-17.08984375,30.2734375,0.0
307.20703125,-60.546875,-28.80859375,-23.4375,-31.73828125,8.7890625,0.0
307.2109375,-60.05859375,-26.3671875,-20.01953125,-20.5078125,-1.46484375,0.0
307.21484375,-14.16015625,-29.296875,-21.484375,-16.11328125,-16.6015625,0.0
307.21875,-12.20703125,-25.390625,-30.2734375,14.16015625,-64.94140625,0.0
307.22265625,-38.0859375,-21.97265625,-35.64453125,-5.37109375,-27.83203125,0.0
307.2265625,-45.41015625,-23.4375,-25.87890625,-20.99609375,-27.83203125,0.0
307.23046875,-21.484375,-21.97265625,-26.85546875,12.20703125,-54.6875,0.0
307.234375,4.39453125,-16.6015625,-40.52734375,20.5078125,5.859375,0.0
307.23828125,2.44140625,-12.20703125,-52.734375,-8.7890625,75.1953125,0.0
307.2421875,-27.34375,-15.625,-34.1796875,-24.4140625,-9.765625,0.0
307.24609375,-68.84765625,-20.01953125,-21.484375,-24.90234375,-138.18359375,0.0
307.25,-50.29296875,-17.08984375,-18.5546875,-7.8125,-185.05859375,0.0
307.25390625,-10.7421875,-16.6015625,-10.7421875,18.5546875,-137.20703125,0.0
307.2578125,-1.46484375,-10.25390625,-22.4609375,8.7890625,-71.2890625,0.0
307.26171875,-23.4375,-14.6484375,-34.1796875,-31.25,-108.88671875,0.0
307.265625,-58.10546875,-21.97265625,-35.15625,-39.55078125,-152.34375,0.0
307.26953125,-56.640625,-26.85546875,-32.71484375,-11.23046875,-160.15625,0.0
307.2734375,-20.99609375,-26.3671875,-28.3203125,5.859375,-156.73828125,0.0
307.27734375,-2.9296875,-30.76171875,-26.3671875,-0.9765625,-134.27734375,0.0
307.28125,-38.57421875,-42.96875,-27.34375,-5.37109375,-114.2578125,0.0
307.28515625,-59.5703125,-29.78515625,-26.85546875,-29.78515625,-117.1875,0.0
307.2890625,-70.3125,-14.16015625,-24.4140625,-41.9921875,-13.18359375,0.0
307.29296875,-57.6171875,-22.4609375,-28.3203125,-36.62109375,68.84765625,0.0
307.296875,-6.34765625,-26.85546875,-35.64453125,-14.16015625,40.0390625,0.0
307.30078125,-23.4375,-26.3671875,-37.109375,-23.92578125,-0.9765625,0.0
307.3046875,-42.48046875,-28.3203125,-34.1796875,-56.15234375,-26.85546875,0.0
307.30859375,-30.2734375,-30.2734375,-33.203125,-50.78125,-28.3203125,0.0
307.3125,-31.73828125,-22.94921875,-29.296875,-19.04296875,22.4609375,0.0
307.31640625,-21.97265625,-22.94921875,-26.3671875,-9.27734375,72.75390625,0.0
307.3203125,-47.8515625,-32.2265625,-28.3203125,-31.73828125,74.70703125,0.0
307.32421875,-52.734375,-38.0859375,-31.25,-56.15234375,14.16015625,0.0
307.328125,-46.38671875,-40.0390625,-31.25,-52.24609375,-4.8828125,0.0
307.33203125,-37.109375,-31.73828125,-30.76171875,-32.2265625,5.859375,0.0
307.3359375,-14.16015625,-16.11328125,-28.80859375,-32.2265625,104.4921875,0.0
307.33984375,-1.46484375,-22.94921875,-30.2734375,-54.6875,149.4140625,0.0
307.34375,-31.25,-34.1796875,-33.203125,-88.8671875,92.28515625,0.0
307.34765625,-64.94140625,-33.69140625,-27.83203125,-52.24609375,48.828125,0.0
307.3515625,-38.0859375,-27.83203125,-22.94921875,-16.6015625,-65.91796875,0.0
307.35546875,2.9296875,-30.76171875,-29.296875,-36.62109375,-103.02734375,0.0
307.359375,-7.8125,-32.71484375,-36.1328125,-61.5234375,-3.41796875,0.0
307.36328125,-38.57421875,-26.85546875,-38.0859375,-73.73046875,-34.66796875,0.0
307.3671875,-41.015625,-30.2734375,-30.76171875,-62.5,-83.984375,0.0
307.37109375,-44.43359375,-32.2265625,-26.85546875,-43.45703125,21.484375,0.0
307.375,-7.32421875,-27.83203125,-28.3203125,-24.90234375,-11.71875,0.0
307.37890625,-0.48828125,-34.1796875,-29.78515625,-41.015625,-64.94140625,0.0
307.3828125,-61.03515625,-45.41015625,-31.73828125,-70.3125,15.625,0.0
307.38671875,-65.91796875,-38.57421875,-31.25,-80.078125,-28.3203125,0.0
307.390625,-54.19921875,-27.34375,-29.78515625,-67.87109375,-24.90234375,0.0
307.39453125,-37.59765625,-29.78515625,-21.484375,-41.015625,15.13671875,0.0
307.3984375,-14.16015625,-35.15625,-28.3203125,-53.22265625,66.40625,0.0
307.40234375,-13.18359375,-34.1796875,-48.828125,-82.03125,73.2421875,0.0
307.40625,-41.9921875,-36.62109375,-51.26953125,-86.9140625,12.6953125,0.0
307.41015625,-48.33984375,-35.64453125,-35.64453125,-59.5703125,10.7421875,0.0
307.4140625,-12.20703125,-32.71484375,-29.296875,-36.1328125,18.5546875,0.0
307.41796875,-8.30078125,-25.390625,-33.203125,-54.19921875,72.265625,0.0
307.421875,-33.203125,-18.5546875,-35.15625,-64.94140625,123.046875,0.0
307.42578125,-52.734375,-31.73828125,-31.25,-60.05859375,29.296875,0.0
307.4296875,-41.9921875,-29.296875,-27.83203125,-49.31640625,-95.21484375,0.0
307.43359375,-16.6015625,-18.5546875,-28.3203125,-23.92578125,-79.58984375,0.0
307.4375,-8.7890625,-15.13671875,-33.203125,-44.43359375,-54.6875,0.0
307.44140625,-27.34375,-15.13671875,-36.62109375,-69.3359375,16.11328125,0.0
307.4453125,-36.1328125,-19.53125,-41.015625,-56.640625,64.94140625,0.0
307.44921875,-35.15625,-18.06640625,-43.45703125,-36.1328125,29.296875,0.0
307.453125,5.859375,-13.18359375,-38.57421875,-11.71875,20.5078125,0.0
307.45703125,20.01953125,-14.6484375,-41.50390625,-8.7890625,57.12890625,0.0
307.4609375,-4.8828125,-15.13671875,-35.15625,-42.96875,35.64453125,0.0
307.46484375,-45.41015625,-16.6015625,-32.2265625,-58.10546875,-30.2734375,0.0
307.46875,-54.19921875,-20.5078125,-36.62109375,-37.109375,-58.59375,0.0
307.47265625,-26.85546875,-16.11328125,-34.1796875,-34.66796875,-42.96875,0.0
307.4765625,-4.8828125,-6.8359375,-37.59765625,-48.33984375,7.8125,0.0
307.48046875,-5.859375,-17.08984375,-39.55078125,-65.4296875,3.41796875,0.0
307.484375,-57.12890625,-32.2265625,-37.59765625,-68.359375,-14.16015625,0.0
307.48828125,-52.24609375,-40.52734375,-33.69140625,-54.6875,119.140625,0.0
307.4921875,-15.13671875,-41.9921875,-32.71484375,-34.1796875,105.95703125,0.0
307.49609375,-30.2734375,-38.0859375,-37.109375,-49.8046875,-34.1796875,0.0
307.5,-17.578125,-35.64453125,-38.57421875,-72.75390625,-15.13671875,0.0
307.50390625,-20.01953125,-27.83203125,-40.52734375,-75.1953125,38.0859375,0.0
307.5078125,-51.26953125,-24.4140625,-47.36328125,-62.5,5.859375,0.0
307.51171875,-35.15625,-31.73828125,-46.38671875,-39.55078125,-113.76953125,0.0
307.515625,-8.7890625,-28.80859375,-35.15625,-31.73828125,-142.578125,0.0
307.51953125,-4.39453125,-25.87890625,-35.64453125,-48.33984375,-46.875,0.0
307.5234375,-31.73828125,-28.80859375,-38.0859375,-66.89453125,51.26953125,0.0
307.52734375,-57.12890625,-30.2734375,-37.109375,-64.453125,70.80078125,0.0
307.53125,-30.76171875,-26.3671875,-37.109375,-21.484375,2.9296875,0.0
307.53515625,4.8828125,-33.69140625,-35.64453125,-8.30078125,-53.22265625,0.0
307.5390625,0.0,-41.9921875,-34.66796875,-46.38671875,4.39453125,0.0
307.54296875,-46.875,-37.109375,-36.1328125,-62.5,3.90625,0.0
307.546875,-63.4765625,-27.83203125,-30.76171875,-46.38671875,-30.76171875,0.0
307.55078125,-39.0625,-18.06640625,-27.34375,-20.5078125,-10.7421875,0.0
307.5546875,-17.08984375,-17.08984375,-28.3203125,-18.06640625,-51.7578125,0.0
307.55859375,-19.53125,-24.90234375,-28.80859375,-36.62109375,-22.94921875,0.0
307.5625,-51.7578125,-29.296875,-32.2265625,-44.43359375,13.671875,0.0
307.56640625,-69.3359375,-28.80859375,-38.57421875,-41.9921875,-60.05859375,0.0
307.5703125,-38.57421875,-18.5546875,-31.73828125,-10.7421875,-15.13671875,0.0
307.57421875,-17.578125,-14.16015625,-16.11328125,9.765625,-28.80859375,0.0
307.578125,-33.69140625,-20.5078125,-17.08984375,-33.69140625,-28.3203125,0.0
307.58203125,-40.52734375,-22.94921875,-25.390625,-68.359375,-0.48828125,0.0
307.5859375,-56.640625,-21.484375,-25.87890625,-60.05859375,-57.12890625,0.0
307.58984375,-36.1328125,-30.2734375,-26.85546875,-14.16015625,-93.75,0.0
307.59375,6.34765625,-25.390625,-27.34375,3.90625,-83.0078125,0.0
307.59765625,-28.80859375,-17.578125,-28.3203125,-22.4609375,-21.484375,0.0
307.6015625,-62.01171875,-22.94921875,-33.69140625,-43.9453125,-52.24609375,0.0
307.60546875,-66.40625,-24.90234375,-36.1328125,-61.03515625,-84.47265625,0.0
307.609375,-74.21875,-23.92578125,-32.2265625,-62.98828125,-95.21484375,0.0
307.61328125,-41.50390625,-21.97265625,-26.3671875,-3.41796875,-112.3046875,0.0
307.6171875,-20.99609375,-5.859375,-25.87890625,-29.78515625,-80.078125,0.0
307.62109375,-49.31640625,-16.6015625,-32.2265625,-57.12890625,-48.33984375,0.0
307.625,-75.68359375,-18.5546875,-40.0390625,-45.41015625,-58.10546875,0.0
307.62890625,-91.796875,1.46484375,-33.203125,-22.4609375,-132.8125,0.0
307.6328125,-58.10546875,-41.9921875,-14.6484375,11.71875,-145.5078125,0.0
307.63671875,-26.85546875,-52.24609375,-20.01953125,19.53125,-42.48046875,0.0
307.640625,-34.66796875,-30.2734375,-36.1328125,-36.62109375,1.953125,0.0
307.64453125,-67.3828125,-21.97265625,-43.45703125,-60.05859375,75.1953125,0.0
307.6484375,-65.91796875,-35.15625,-37.59765625,-31.25,78.125,0.0
307.65234375,-17.08984375,-36.1328125,-37.109375,-52.734375,-18.06640625,0.0
307.65625,-20.99609375,-34.66796875,-37.109375,-38.57421875,-11.23046875,0.0
307.66015625,-43.9453125,-28.3203125,-33.203125,0.48828125,15.13671875,0.0
307.6640625,-42.96875,-26.85546875,-34.66796875,-36.1328125,20.5078125,0.0
307.66796875,-26.85546875,-42.48046875,-30.76171875,-47.8515625,30.76171875,0.0
307.671875,-18.5546875,-37.109375,-24.90234375,9.27734375,63.96484375,0.0
307.67578125,0.9765625,-29.78515625,-21.97265625,36.62109375,72.75390625,0.0
307.6796875,9.765625,-21.97265625,-26.3671875,-7.8125,96.19140625,0.0
307.68359375,-33.69140625,-26.3671875,-32.71484375,-8.7890625,94.7265625,0.0
307.6875,1.46484375,-28.80859375,-26.3671875,19.53125,15.13671875,0.0
307.69140625,46.38671875,-28.80859375,-11.23046875,33.69140625,10.7421875,0.0
307.6953125,-2.9296875,-30.76171875,-12.6953125,24.4140625,48.33984375,0.0
307.69921875,-31.73828125,-38.0859375,-22.94921875,-15.13671875,44.921875,0.0
307.703125,-41.015625,-31.73828125,-23.4375,-58.10546875,43.9453125,0.0
307.70703125,-39.55078125,-29.78515625,-22.4609375,-34.1796875,-13.18359375,0.0
307.7109375,-30.76171875,-28.3203125,-23.4375,2.9296875,-1.953125,0.0
307.71484375,-15.13671875,-26.85546875,-19.53125,5.859375,57.6171875,0.0
307.71875,-20.99609375,-25.87890625,-22.4609375,-15.625,67.3828125,0.0
307.72265625,-28.80859375,-26.3671875,-29.78515625,-30.76171875,31.25,0.0
307.7265625,-27.83203125,-27.34375,-26.3671875,-31.25,-11.23046875,0.0
307.73046875,-22.4609375,-29.78515625,-22.4609375,10.7421875,0.0,0.0
307.734375,11.23046875,-28.80859375,-17.578125,33.69140625,-21.97265625,0.0
307.73828125,-6.34765625,-22.4609375,-19.04296875,-0.48828125,-15.13671875,0.0
307.7421875,-53.22265625,-31.25,-23.92578125,-22.4609375,86.9140625,0.0
307.74609375,-56.640625,-42.48046875,-23.92578125,-5.859375,107.91015625,0.0
307.75,-27.83203125,-35.64453125,-23.4375,10.25390625,58.10546875,0.0
307.75390625,-10.7421875,-26.3671875,-17.578125,0.9765625,41.9921875,0.0
307.7578125,-18.06640625,-25.87890625,-20.5078125,-17.578125,-13.18359375,0.0
307.76171875,-45.8984375,-32.2265625,-26.85546875,-32.71484375,-68.84765625,0.0
307.765625,-36.62109375,-31.25,-27.34375,-5.37109375,-13.18359375,0.0
307.76953125,-27.34375,-26.3671875,-26.85546875,24.4140625,-74.21875,0.0
307.7734375,-47.8515625,-27.83203125,-29.78515625,3.41796875,-118.1640625,0.0
307.77734375,-32.2265625,-30.76171875,-35.15625,-15.625,-111.328125,0.0
307.78125,-32.71484375,-28.3203125,-40.52734375,-34.66796875,-93.26171875,0.0
307.78515625,-51.7578125,-27.83203125,-41.50390625,-57.6171875,-55.6640625,0.0
307.7890625,-52.24609375,-30.76171875,-37.109375,-40.0390625,-18.5546875,0.0
307.79296875,-63.4765625,-36.62109375,-28.3203125,-17.08984375,69.3359375,0.0
307.796875,-57.6171875,-30.2734375,-33.69140625,-27.83203125,79.1015625,0.0
307.80078125,-33.69140625,-28.80859375,-41.9921875,-53.22265625,-47.8515625,0.0
307.8046875,-36.62109375,-30.76171875,-40.52734375,-55.17578125,-136.71875,0.0
307.80859375,-65.4296875,-35.15625,-38.0859375,-32.71484375,-189.453125,0.0
307.8125,-36.62109375,-36.1328125,-22.4609375,3.90625,-137.20703125,0.0
307.81640625,-8.7890625,-33.203125,-21.484375,-2.44140625,-13.18359375,0.0
307.8203125,-54.19921875,-36.62109375,-35.15625,-23.4375,20.01953125,0.0
307.82421875,-80.56640625,-40.52734375,-35.64453125,-45.41015625,-14.16015625,0.0
307.828125,-79.58984375,-39.55078125,-35.15625,-58.10546875,-11.71875,0.0
307.83203125,-69.82421875,-29.296875,-36.62109375,-35.15625,-28.80859375,0.0
307.8359375,-52.734375,-24.4140625,-31.73828125,-15.13671875,-18.06640625,0.0
307.83984375,-31.73828125,-27.83203125,-29.78515625,-18.5546875,-27.83203125,0.0
307.84375,-19.53125,-30.76171875,-32.71484375,-36.62109375,-89.35546875,0.0
307.84765625,-44.43359375,-29.78515625,-32.71484375,-21.484375,-46.38671875,0.0
307.8515625,-39.0625,-32.71484375,-27.83203125,2.9296875,-21.97265625,0.0
307.85546875,-24.4140625,-37.59765625,-26.3671875,-21.484375,-68.84765625,0.0
307.859375,-48.828125,-34.1796875,-24.90234375,-45.41015625,-98.14453125,0.0
307.86328125,-95.21484375,-34.1796875,-31.25,-49.8046875,-44.43359375,0.0
307.8671875,-105.46875,-43.45703125,-48.33984375,-50.78125,11.23046875,0.0
307.87109375,-79.1015625,-42.48046875,-46.38671875,-46.38671875,-60.05859375,0.0
307.875,-19.53125,-30.2734375,-41.015625,-43.45703125,8.7890625,0.0
307.87890625,-38.0859375,-35.15625,-51.7578125,-53.22265625,58.10546875,0.0
307.8828125,-85.9375,-40.0390625,-57.12890625,-62.98828125,32.71484375,0.0
307.88671875,-73.73046875,-35.15625,-45.41015625,-54.19921875,-12.20703125,0.0
307.890625,-41.015625,-31.25,-28.80859375,-18.06640625,-18.5546875,0.0
307.89453125,-34.66796875,-33.69140625,-29.296875,-19.04296875,-10.7421875,0.0
307.8984375,-52.24609375,-29.78515625,-33.203125,-20.99609375,13.18359375,0.0
307.90234375,-57.6171875,-27.34375,-38.57421875,-41.9921875,25.87890625,0.0
307.90625,-59.5703125,-30.2734375,-47.36328125,-45.41015625,28.3203125,0.0
307.91015625,-39.0625,-26.3671875,-48.33984375,-20.01953125,77.1484375,0.0
307.9140625,-51.7578125,-27.83203125,-43.9453125,-11.23046875,19.04296875,0.0
307.91796875,-73.73046875,-38.0859375,-42.48046875,-42.96875,-24.4140625,0.0
307.921875,-80.56640625,-36.1328125,-43.9453125,-92.28515625,20.99609375,0.0
307.92578125,-75.1953125,-30.2734375,-41.9921875,-74.21875,92.28515625,0.0
307.9296875,-70.3125,-31.73828125,-28.80859375,-37.109375,87.40234375,0.0
307.93359375,-55.6640625,-41.50390625,-29.296875,-42.96875,39.55078125,0.0
307.9375,-53.7109375,-40.0390625,-40.0390625,-35.64453125,62.5,0.0
307.94140625,-65.91796875,-27.34375,-38.0859375,-40.52734375,28.80859375,0.0
307.9453125,-79.1015625,-22.4609375,-24.4140625,-58.59375,23.4375,0.0
307.94921875,-68.84765625,-27.83203125,-17.578125,-37.59765625,49.31640625,0.0
307.953125,-23.92578125,-28.80859375,-25.390625,-29.78515625,57.6171875,0.0
307.95703125,-36.1328125,-27.34375,-30.76171875,-41.50390625,44.921875,0.0
307.9609375,-57.6171875,-31.73828125,-31.25,-41.50390625,55.6640625,0.0
307.96484375,-42.48046875,-33.69140625,-28.3203125,-52.734375,-85.9375,0.0
307.96875,-67.87109375,-28.3203125,-30.2734375,-43.45703125,-104.00390625,0.0
307.97265625,-41.50390625,-23.4375,-31.73828125,-19.53125,11.71875,0.0
307.9765625,-13.18359375,-14.16015625,-23.4375,-25.87890625,26.85546875,0.0
307.98046875,-37.59765625,-16.6015625,-30.2734375,-35.64453125,24.90234375,0.0
307.984375,-62.5,-31.25,-36.62109375,-48.33984375,46.38671875,0.0
307.98828125,-43.45703125,-30.2734375,-36.1328125,-36.62109375,15.13671875,0.0
307.9921875,-25.87890625,-29.296875,-32.71484375,0.48828125,-103.02734375,0.0
307.99609375,-36.62109375,-36.62109375,-33.203125,-9.765625,-154.78515625,0.0
308.0,-43.45703125,-33.69140625,-47.36328125,-33.203125,-72.265625,0.0
308.00390625,-55.17578125,-34.66796875,-46.875,-51.7578125,-36.1328125,0.0
308.0078125,-41.9921875,-28.3203125,-44.43359375,-57.6171875,-83.984375,0.0
308.01171875,-22.94921875,-22.94921875,-43.45703125,-30.2734375,-57.12890625,0.0
308.015625,-14.6484375,-28.3203125,-39.55078125,-22.94921875,-7.32421875,0.0
308.01953125,-14.16015625,-26.3671875,-34.1796875,-40.52734375,-7.32421875,0.0
308.0234375,-60.05859375,-23.92578125,-30.2734375,-31.25,5.37109375,0.0
308.02734375,-78.125,-31.25,-32.2265625,-8.30078125,-5.37109375,0.0
308.03125,-54.6875,-31.73828125,-33.203125,-9.765625,11.71875,0.0
308.03515625,-15.13671875,-29.78515625,-26.3671875,-17.578125,2.44140625,0.0
308.0390625,-13.18359375,-30.2734375,-30.2734375,-28.80859375,-34.66796875,0.0
308.04296875,-42.48046875,-36.1328125,-36.62109375,-40.52734375,-36.1328125,0.0
308.046875,-38.0859375,-40.0390625,-30.2734375,-23.92578125,-68.359375,0.0
308.05078125,-16.6015625,-29.296875,-25.390625,0.9765625,-47.8515625,0.0
308.0546875,-0.48828125,-16.6015625,-24.90234375,5.859375,18.5546875,0.0
308.05859375,-15.13671875,-15.625,-38.0859375,-24.90234375,-48.33984375,0.0
308.0625,-27.34375,-20.01953125,-48.33984375,-48.828125,-97.16796875,0.0
308.06640625,-24.90234375,-20.01953125,-48.33984375,-42.48046875,12.20703125,0.0
308.0703125,-36.62109375,-18.06640625,-39.0625,-15.625,44.43359375,0.0
308.07421875,-11.71875,-28.3203125,-30.76171875,1.46484375,-5.37109375,0.0
308.078125,21.97265625,-31.73828125,-31.25,-7.32421875,-2.9296875,0.0
308.08203125,18.06640625,-27.83203125,-29.78515625,-20.5078125,19.53125,0.0
308.0859375,-25.390625,-28.80859375,-28.3203125,-25.87890625,31.73828125,0.0
308.08984375,-64.94140625,-25.390625,-28.3203125,-4.39453125,-38.0859375,0.0
308.09375,-39.0625,-22.94921875,-25.390625,4.39453125,-25.390625,0.0
308.09765625,-26.3671875,-29.296875,-32.2265625,-24.4140625,10.25390625,0.0
308.1015625,-54.6875,-29.78515625,-51.26953125,-51.7578125,-59.08203125,0.0
308.10546875,-62.5,-30.2734375,-54.19921875,-58.10546875,-1.46484375,0.0
308.109375,-40.52734375,-32.2265625,-31.73828125,-47.8515625,46.38671875,0.0
308.11328125,-9.765625,-28.3203125,-14.16015625,-24.4140625,-12.20703125,0.0
308.1171875,-38.0859375,-30.76171875,-21.97265625,-19.53125,-23.92578125,0.0
308.12109375,-49.31640625,-35.64453125,-28.80859375,-41.015625,-54.19921875,0.0
308.125,-30.2734375,-32.2265625,-25.390625,-51.7578125,-148.92578125,0.0
308.12890625,-29.78515625,-24.90234375,-25.390625,-21.97265625,-149.4140625,0.0
308.1328125,-16.6015625,-21.484375,-24.4140625,-21.97265625,-64.453125,0.0
308.13671875,-2.44140625,-22.94921875,-27.34375,-49.8046875,-51.7578125,0.0
308.140625,-14.16015625,-32.71484375,-33.69140625,-65.91796875,-51.7578125,0.0
308.14453125,-61.03515625,-35.64453125,-35.15625,-88.8671875,-56.15234375,0.0
308.1484375,-82.03125,-25.390625,-33.69140625,-66.89453125,-41.50390625,0.0
308.15234375,-42.48046875,-31.25,-32.2265625,-26.85546875,1.953125,0.0
308.15625,-3.41796875,-36.1328125,-24.90234375,-14.16015625,22.94921875,0.0
308.16015625,6.34765625,-27.34375,-24.4140625,-24.4140625,60.05859375,0.0
308.1640625,-60.05859375,-21.484375,-35.64453125,-78.125,80.078125,0.0
308.16796875,-106.93359375,-23.4375,-34.1796875,-74.70703125,82.51953125,0.0
308.171875,-45.8984375,-23.92578125,-27.34375,-30.2734375,45.41015625,0.0
308.17578125,-29.296875,-24.4140625,-26.3671875,-19.04296875,16.6015625,0.0
308.1796875,-59.5703125,-23.92578125,-22.94921875,-31.25,-8.30078125,0.0
308.18359375,-41.9921875,-26.85546875,-21.97265625,-58.10546875,41.9921875,0.0
308.1875,-64.453125,-37.109375,-16.6015625,-49.8046875,95.21484375,0.0
308.19140625,-59.5703125,-37.59765625,-23.4375,-23.92578125,126.46484375,0.0
308.1953125,-44.921875,-36.62109375,-31.25,-20.01953125,133.30078125,0.0
308.19921875,-57.6171875,-40.0390625,-40.0390625,-60.05859375,47.36328125,0.0
308.203125,-62.5,-33.69140625,-43.45703125,-72.75390625,18.5546875,0.0
308.20703125,-81.0546875,-25.87890625,-35.64453125,-38.57421875,44.43359375,0.0
308.2109375,-59.5703125,-23.4375,-41.50390625,-29.296875,20.99609375,0.0
308.21484375,-10.25390625,-20.01953125,-41.50390625,-16.6015625,-0.9765625,0.0
308.21875,-23.4375,-24.4140625,-41.50390625,-42.48046875,49.8046875,0.0
308.22265625,-44.921875,-29.78515625,-43.45703125,-90.8203125,18.5546875,0.0
308.2265625,-49.8046875,-27.34375,-33.69140625,-76.171875,-61.5234375,0.0
308.23046875,-71.2890625,-25.87890625,-28.80859375,-52.24609375,-19.04296875,0.0
308.234375,-50.78125,-34.1796875,-24.90234375,-27.83203125,31.25,0.0
308.23828125,-25.87890625,-39.0625,-19.04296875,-36.62109375,-16.6015625,0.0
308.2421875,-41.9921875,-34.1796875,-20.99609375,-62.01171875,-51.7578125,0.0
308.24609375,-60.05859375,-25.390625,-23.4375,-58.59375,-122.55859375,0.0
308.25,-41.015625,-25.390625,-22.94921875,-19.04296875,-158.69140625,0.0
308.25390625,-14.16015625,-23.4375,-25.87890625,-0.48828125,-117.67578125,0.0
308.2578125,-14.16015625,-8.7890625,-33.203125,-15.13671875,-127.9296875,0.0
308.26171875,-15.625,-4.8828125,-40.0390625,-45.41015625,-48.33984375,0.0
308.265625,-44.43359375,-15.13671875,-39.0625,-64.453125,41.9921875,0.0
308.26953125,-53.7109375,-16.6015625,-37.59765625,-54.6875,32.71484375,0.0
308.2734375,-7.32421875,-10.7421875,-37.109375,-16.6015625,15.13671875,0.0
308.27734375,-4.39453125,-10.25390625,-35.15625,-11.71875,-38.0859375,0.0
308.28125,-29.296875,-17.08984375,-33.69140625,-46.38671875,-107.421875,0.0
308.28515625,-39.55078125,-24.90234375,-38.0859375,-55.17578125,-13.18359375,0.0
308.2890625,-30.2734375,-16.6015625,-41.9921875,-63.4765625,24.90234375,0.0
308.29296875,-34.66796875,-13.671875,-41.015625,-49.8046875,17.578125,0.0
308.296875,-17.08984375,-16.6015625,-43.9453125,-53.7109375,56.15234375,0.0
308.30078125,11.71875,-26.3671875,-46.875,-83.984375,43.45703125,0.0
308.3046875,-26.3671875,-31.73828125,-41.9921875,-81.54296875,-2.44140625,0.0
308.30859375,-64.94140625,-30.76171875,-39.0625,-48.33984375,15.13671875,0.0
308.3125,-41.9921875,-28.3203125,-37.109375,-20.5078125,3.41796875,0.0
308.31640625,-1.953125,-26.3671875,-32.71484375,-38.57421875,26.85546875,0.0
308.3203125,-11.71875,-20.5078125,-30.76171875,-61.5234375,12.20703125,0.0
308.32421875,-48.828125,-24.4140625,-33.203125,-59.5703125,-61.03515625,0.0
308.328125,-54.6875,-29.78515625,-34.1796875,-28.80859375,-29.78515625,0.0
308.33203125,-24.4140625,-20.5078125,-26.3671875,-12.6953125,62.98828125,0.0
308.3359375,-11.23046875,-23.92578125,-26.3671875,-29.78515625,41.50390625,0.0
308.33984375,-8.7890625,-28.80859375,-34.1796875,-43.9453125,-16.6015625,0.0
308.34375,4.39453125,-22.94921875,-33.69140625,-49.31640625,-16.11328125,0.0
308.34765625,-28.3203125,-31.25,-30.2734375,-49.8046875,-22.94921875,0.0
308.3515625,-56.15234375,-41.9921875,-24.90234375,-20.01953125,-51.26953125,0.0
308.35546875,-31.25,-35.15625,-25.87890625,-19.04296875,-34.1796875,0.0
308.359375,-8.7890625,-25.390625,-28.3203125,-51.7578125,-25.390625,0.0
308.36328125,-12.20703125,-29.296875,-24.90234375,-58.59375,-23.4375,0.0
308.3671875,-44.43359375,-33.203125,-18.06640625,-56.15234375,-30.2734375,0.0
308.37109375,-51.26953125,-30.2734375,-20.99609375,-33.69140625,-61.5234375,0.0
308.375,-23.4375,-24.90234375,-32.2265625,-31.73828125,-21.97265625,0.0
308.37890625,-5.37109375,-28.3203125,-33.203125,-39.55078125,-41.50390625,0.0
308.3828125,-49.31640625,-30.2734375,-35.15625,-58.10546875,-72.265625,0.0
308.38671875,-62.98828125,-37.59765625,-35.15625,-41.9921875,-5.859375,0.0
308.390625,-23.92578125,-33.69140625,-24.90234375,9.765625,-15.13671875,0.0
308.39453125,-22.4609375,-14.16015625,-22.4609375,-10.7421875,0.9765625,0.0
308.3984375,-42.96875,-25.87890625,-20.5078125,-32.71484375,40.52734375,0.0
308.40234375,-64.453125,-35.64453125,-23.92578125,-19.04296875,38.0859375,0.0
308.40625,-96.19140625,-37.59765625,-28.3203125,-33.203125,-57.6171875,0.0
308.41015625,-84.9609375,-40.52734375,-27.83203125,-27.83203125,-22.4609375,0.0
308.4140625,-17.578125,-45.41015625,-22.4609375,22.4609375,31.25,0.0
308.41796875,-18.5546875,-45.41015625,-23.4375,-1.953125,-40.0390625,0.0
308.421875,-62.5,-41.50390625,-28.80859375,-48.33984375,-21.484375,0.0
308.42578125,-85.44921875,-44.43359375,-26.85546875,-40.52734375,5.37109375,0.0
308.4296875,-90.33203125,-34.1796875,-16.6015625,-15.625,-9.27734375,0.0
308.43359375,-61.03515625,-29.296875,-14.6484375,-8.30078125,99.12109375,0.0
308.4375,-45.41015625,-25.87890625,-20.99609375,-15.13671875,141.11328125,0.0
308.44140625,-73.73046875,-33.69140625,-23.4375,-29.296875,61.03515625,0.0
308.4453125,-81.0546875,-53.7109375,-15.625,-41.015625,17.578125,0.0
308.44921875,-80.078125,-55.17578125,-15.625,-30.2734375,22.4609375,0.0
308.453125,-80.078125,-40.52734375,-26.85546875,-27.83203125,33.203125,0.0
308.45703125,-74.21875,-31.25,-28.80859375,-51.7578125,12.20703125,0.0
308.4609375,-73.2421875,-36.1328125,-23.4375,-47.36328125,10.25390625,0.0
308.46484375,-82.51953125,-38.0859375,-25.87890625,-64.94140625,-25.390625,0.0
308.46875,-86.9140625,-40.0390625,-29.78515625,-49.31640625,-107.421875,0.0
308.47265625,-78.61328125,-42.96875,-26.85546875,-10.7421875,-130.37109375,0.0
308.4765625,-75.68359375,-42.96875,-27.83203125,-28.80859375,-139.6484375,0.0
308.48046875,-40.52734375,-39.55078125,-27.34375,-55.17578125,-149.90234375,0.0
308.484375,-48.828125,-33.69140625,-28.80859375,-64.453125,-144.53125,0.0
308.48828125,-95.21484375,-42.48046875,-26.3671875,-60.05859375,-175.29296875,0.0
308.4921875,-93.75,-43.45703125,-30.2734375,-36.1328125,-153.80859375,0.0
308.49609375,-68.359375,-40.0390625,-31.73828125,-20.99609375,-126.46484375,0.0
308.5,-68.359375,-37.109375,-29.296875,-52.734375,-73.2421875,0.0
308.50390625,-91.30859375,-28.3203125,-35.15625,-84.9609375,53.22265625,0.0
308.5078125,-79.58984375,-30.2734375,-27.83203125,-43.9453125,80.56640625,0.0
308.51171875,-80.56640625,-40.0390625,-20.99609375,-6.8359375,14.16015625,0.0
308.515625,-66.89453125,-31.73828125,-36.1328125,-19.53125,50.78125,0.0
308.51953125,-6.8359375,-23.92578125,-49.31640625,-42.48046875,113.28125,0.0
308.5234375,-36.1328125,-29.296875,-56.640625,-39.0625,37.59765625,0.0
308.52734375,-105.46875,-34.1796875,-45.41015625,-67.87109375,28.80859375,0.0
308.53125,-72.265625,-26.85546875,-36.62109375,-33.203125,57.6171875,0.0
308.53515625,-33.203125,-20.99609375,-37.109375,-17.578125,0.9765625,0.0
308.5390625,-22.4609375,-28.3203125,-38.57421875,-30.2734375,-1.46484375,0.0
308.54296875,-27.83203125,-41.9921875,-44.43359375,-42.96875,28.3203125,0.0
308.546875,-66.40625,-44.43359375,-42.48046875,-66.40625,23.4375,0.0
308.55078125,-67.87109375,-31.73828125,-31.25,-46.875,63.96484375,0.0
308.5546875,-40.52734375,-20.5078125,-23.92578125,-54.19921875,36.62109375,0.0
308.55859375,-29.78515625,-20.01953125,-21.484375,-79.58984375,32.2265625,0.0
308.5625,-51.26953125,-20.99609375,-24.90234375,-73.2421875,57.12890625,0.0
308.56640625,-71.2890625,-18.5546875,-30.76171875,-57.12890625,12.6953125,0.0
308.5703125,-72.265625,-28.80859375,-36.1328125,-76.171875,-20.99609375,0.0
308.57421875,-19.53125,-26.85546875,-35.64453125,-38.57421875,20.01953125,0.0
308.578125,7.32421875,-24.4140625,-28.80859375,-18.5546875,24.4140625,0.0
308.58203125,-67.87109375,-32.71484375,-33.203125,-81.0546875,59.5703125,0.0
308.5859375,-99.12109375,-39.55078125,-37.59765625,-106.93359375,44.921875,0.0
308.58984375,-72.75390625,-42.96875,-31.25,-32.2265625,-3.41796875,0.0
308.59375,-58.10546875,-34.66796875,-30.76171875,13.18359375,-3.90625,0.0
308.59765625,-34.1796875,-27.34375,-28.80859375,-45.41015625,-5.859375,0.0
308.6015625,-25.390625,-32.71484375,-30.2734375,-96.6796875,-34.66796875,0.0
308.60546875,-53.22265625,-46.38671875,-34.1796875,-51.26953125,-17.578125,0.0
308.609375,-34.66796875,-43.9453125,-27.83203125,-13.671875,-68.84765625,0.0
308.61328125,-8.7890625,-35.15625,-21.97265625,-30.76171875,-58.10546875,0.0
308.6171875,-33.69140625,-32.2265625,-28.80859375,-76.66015625,-10.25390625,0.0
308.62109375,-30.2734375,-27.83203125,-35.15625,-62.5,-86.9140625,0.0
308.625,-53.22265625,-38.57421875,-30.76171875,-28.3203125,-95.21484375,0.0
308.62890625,-85.44921875,-47.8515625,-30.2734375,-57.6171875,-90.33203125,0.0
308.6328125,-47.8515625,-45.41015625,-30.76171875,-55.17578125,-12.6953125,0.0
308.63671875,-14.16015625,-44.43359375,-24.4140625,-14.16015625,43.45703125,0.0
308.640625,-43.45703125,-43.45703125,-20.01953125,-31.25,27.34375,0.0
308.64453125,-43.45703125,-34.1796875,-28.80859375,-52.734375,21.97265625,0.0
308.6484375,-33.203125,-22.94921875,-26.3671875,-19.04296875,-4.39453125,0.0
308.65234375,-39.55078125,-23.92578125,-13.18359375,3.41796875,-19.53125,0.0
308.65625,-27.83203125,-19.53125,-16.6015625,-23.4375,-41.9921875,0.0
308.66015625,-10.25390625,-14.6484375,-34.66796875,-59.08203125,-47.8515625,0.0
308.6640625,-21.97265625,-19.53125,-34.66796875,-51.7578125,-3.90625,0.0
308.66796875,-36.62109375,-25.87890625,-26.3671875,-43.45703125,-21.97265625,0.0
308.671875,-29.78515625,-25.87890625,-26.85546875,-17.578125,-24.4140625,0.0
308.67578125,-4.39453125,-24.4140625,-34.66796875,-24.4140625,39.0625,0.0
308.6796875,6.8359375,-29.296875,-38.57421875,-74.70703125,-24.90234375,0.0
308.68359375,-30.2734375,-31.25,-25.87890625,-62.98828125,-58.10546875,0.0
308.6875,-68.359375,-27.34375,-22.4609375,-24.90234375,-20.01953125,0.0
308.69140625,-59.08203125,-26.3671875,-29.296875,-7.32421875,-51.7578125,0.0
308.6953125,-11.23046875,-25.390625,-22.94921875,-0.48828125,-12.20703125,0.0
308.69921875,8.30078125,-24.90234375,-19.53125,-29.296875,10.25390625,0.0
308.703125,-16.6015625,-35.64453125,-24.4140625,-49.31640625,-74.70703125,0.0
308.70703125,-42.96875,-39.55078125,-25.390625,-24.4140625,-122.55859375,0.0
308.7109375,-65.91796875,-31.73828125,-14.16015625,5.37109375,-152.34375,0.0
308.71484375,-41.015625,-29.296875,-13.671875,-19.53125,-115.72265625,0.0
308.71875,-19.53125,-33.203125,-19.04296875,-49.8046875,-63.96484375,0.0
308.72265625,-61.03515625,-39.0625,-19.53125,-59.5703125,-21.97265625,0.0
308.7265625,-62.5,-39.0625,-14.6484375,-77.1484375,-7.32421875,0.0
308.73046875,-57.12890625,-33.69140625,-9.765625,-3.41796875,-125.48828125,0.0
308.734375,-35.15625,-30.2734375,-16.11328125,12.20703125,-123.046875,0.0
308.73828125,-5.37109375,-21.97265625,-19.53125,-61.5234375,9.765625,0.0
308.7421875,-62.5,-20.01953125,-23.92578125,-32.2265625,-2.9296875,0.0
308.74609375,-76.171875,-28.3203125,-28.3203125,-23.4375,-63.4765625,0.0
308.75,-45.41015625,-34.1796875,-34.1796875,-32.71484375,-95.703125,0.0
308.75390625,-31.73828125,-39.0625,-35.64453125,-0.9765625,-70.3125,0.0
308.7578125,-37.59765625,-35.15625,-29.78515625,-8.30078125,-18.06640625,0.0
308.76171875,-33.203125,-35.15625,-34.66796875,-43.45703125,91.796875,0.0
308.765625,-45.41015625,-42.96875,-36.1328125,-54.19921875,156.73828125,0.0
308.76953125,-53.22265625,-34.66796875,-24.90234375,-16.11328125,129.39453125,0.0
308.7734375,-47.36328125,-25.87890625,-21.97265625,4.39453125,74.21875,0.0
308.77734375,-24.4140625,-28.80859375,-23.4375,10.25390625,52.734375,0.0
308.78125,-26.3671875,-30.2734375,-21.97265625,-12.6953125,86.42578125,0.0
308.78515625,-69.3359375,-30.2734375,-25.390625,-70.80078125,15.13671875,0.0
308.7890625,-44.43359375,-24.4140625,-20.5078125,-37.109375,-20.01953125,0.0
308.79296875,-1.953125,-19.53125,-16.6015625,17.578125,22.4609375,0.0
308.796875,-11.23046875,-25.87890625,-19.53125,-28.3203125,73.73046875,0.0
308.80078125,-7.32421875,-30.2734375,-30.76171875,-30.2734375,98.14453125,0.0
308.8046875,-23.92578125,-28.3203125,-34.66796875,-16.11328125,51.7578125,0.0
308.80859375,-62.01171875,-37.109375,-20.5078125,9.27734375,12.6953125,0.0
308.8125,-39.55078125,-32.2265625,-19.53125,31.73828125,-6.34765625,0.0
308.81640625,-32.71484375,-19.04296875,-30.76171875,-16.11328125,9.27734375,0.0
308.8203125,-46.38671875,-17.08984375,-32.2265625,-48.828125,-10.25390625,0.0
308.82421875,-67.87109375,-22.94921875,-37.109375,-66.40625,-21.484375,0.0
308.828125,-77.1484375,-34.66796875,-32.71484375,-67.87109375,20.01953125,0.0
308.83203125,-59.08203125,-30.2734375,-28.80859375,-37.59765625,18.5546875,0.0
308.8359375,-37.59765625,-24.4140625,-35.15625,-35.64453125,-16.11328125,0.0
308.83984375,-34.1796875,-33.203125,-41.015625,-83.49609375,-73.73046875,0.0
308.84375,-53.22265625,-35.64453125,-46.38671875,-74.70703125,-45.41015625,0.0
308.84765625,-64.94140625,-32.71484375,-34.66796875,-8.7890625,-40.52734375,0.0
308.8515625,-47.36328125,-24.90234375,-24.4140625,13.671875,-38.0859375,0.0
308.85546875,-26.85546875,-25.87890625,-33.69140625,-24.4140625,28.3203125,0.0
308.859375,-26.3671875,-28.80859375,-38.57421875,-57.6171875,34.1796875,0.0
308.86328125,-38.0859375,-28.80859375,-37.59765625,-65.4296875,23.4375,0.0
308.8671875,-63.4765625,-36.1328125,-30.76171875,-46.38671875,43.45703125,0.0
308.87109375,-40.52734375,-37.109375,-22.94921875,-4.39453125,48.33984375,0.0
308.875,-11.23046875,-24.90234375,-26.85546875,-4.39453125,27.83203125,0.0
308.87890625,-70.3125,-20.5078125,-34.1796875,-25.87890625,25.390625,0.0
308.8828125,-76.171875,-14.6484375,-41.015625,-54.19921875,27.83203125,0.0
308.88671875,-62.5,-10.25390625,-43.9453125,-66.89453125,-11.71875,0.0
308.890625,-67.3828125,-19.53125,-31.73828125,-75.1953125,-45.8984375,0.0
308.89453125,-36.1328125,-25.390625,-21.484375,-62.98828125,-42.48046875,0.0
308.8984375,0.0,-23.4375,-29.296875,-28.3203125,38.57421875,0.0
308.90234375,-48.33984375,-23.4375,-35.15625,-42.48046875,0.0,0.0
308.90625,-82.51953125,-25.87890625,-26.85546875,-30.76171875,-68.359375,0.0
308.91015625,-39.55078125,-23.4375,-19.53125,-6.8359375,-22.4609375,0.0
308.9140625,-12.6953125,-21.484375,-24.4140625,-10.25390625,-18.06640625,0.0
308.91796875,-15.625,-18.06640625,-34.1796875,-2.44140625,43.45703125,0.0
308.921875,-22.4609375,-13.671875,-31.25,-10.25390625,18.5546875,0.0
308.92578125,-34.66796875,-14.16015625,-34.66796875,-60.05859375,15.625,0.0
308.9296875,-31.73828125,-19.53125,-35.64453125,-62.5,31.73828125,0.0
308.93359375,-31.25,-13.671875,-27.34375,-25.390625,25.87890625,0.0
308.9375,-35.64453125,-15.13671875,-30.76171875,-52.734375,-10.25390625,0.0
308.94140625,-48.33984375,-31.25,-32.71484375,-73.2421875,-121.09375,0.0
308.9453125,-54.19921875,-29.296875,-29.296875,-62.5,-125.48828125,0.0
308.94921875,-54.6875,-21.97265625,-30.76171875,-47.8515625,-35.15625,0.0
308.953125,-36.62109375,-16.6015625,-32.2265625,-23.92578125,7.8125,0.0
308.95703125,-20.01953125,-12.20703125,-31.73828125,-20.01953125,-42.48046875,0.0
308.9609375,-41.9921875,-25.390625,-36.62109375,-42.96875,-99.12109375,0.0
308.96484375,-69.82421875,-31.73828125,-38.57421875,-63.96484375,-118.65234375,0.0
308.96875,-67.87109375,-29.78515625,-35.15625,-39.0625,-25.87890625,0.0
308.97265625,-49.31640625,-30.76171875,-37.59765625,-18.06640625,28.80859375,0.0
308.9765625,-18.06640625,-24.4140625,-36.62109375,-15.13671875,-18.5546875,0.0
308.98046875,-19.04296875,-29.296875,-33.203125,-41.9921875,1.953125,0.0
308.984375,-58.59375,-39.55078125,-27.83203125,-38.0859375,22.94921875,0.0
308.98828125,-70.80078125,-31.73828125,-25.87890625,-39.55078125,37.59765625,0.0
308.9921875,-90.8203125,-34.66796875,-23.92578125,-40.52734375,-18.5546875,0.0
308.99609375,-46.38671875,-31.73828125,-21.484375,-19.53125,-23.4375,0.0
309.0,-34.1796875,-20.99609375,-27.34375,-46.875,4.39453125,0.0
309.00390625,-63.96484375,-30.76171875,-32.2265625,-83.0078125,-10.7421875,0.0
309.0078125,-53.7109375,-35.15625,-24.4140625,-35.64453125,-18.5546875,0.0
309.01171875,-31.73828125,-29.78515625,-21.97265625,0.48828125,-30.2734375,0.0
309.015625,4.39453125,-22.4609375,-28.3203125,0.9765625,-31.73828125,0.0
309.01953125,-16.11328125,-21.97265625,-34.66796875,-16.6015625,-11.71875,0.0
309.0234375,-53.22265625,-12.6953125,-38.0859375,-58.59375,9.765625,0.0
309.02734375,-55.17578125,-15.625,-33.203125,-35.64453125,30.2734375,0.0
309.03125,-42.96875,-32.71484375,-29.78515625,3.90625,12.6953125,0.0
309.03515625,-12.6953125,-32.71484375,-29.78515625,-12.6953125,37.109375,0.0
309.0390625,-4.8828125,-29.78515625,-33.203125,-55.17578125,20.5078125,0.0
309.04296875,-18.5546875,-30.2734375,-37.59765625,-66.89453125,-47.8515625,0.0
309.046875,-26.85546875,-33.69140625,-36.1328125,-44.921875,0.48828125,0.0
309.05078125,-35.64453125,-38.0859375,-30.2734375,-3.90625,-25.390625,0.0
309.0546875,-31.73828125,-31.25,-19.53125,18.5546875,-45.41015625,0.0
309.05859375,-23.4375,-24.90234375,-19.04296875,-25.390625,67.3828125,0.0
309.0625,-40.0390625,-27.83203125,-25.390625,-57.6171875,76.171875,0.0
309.06640625,-35.15625,-31.25,-29.78515625,-44.43359375,61.03515625,0.0
309.0703125,-39.55078125,-27.83203125,-27.83203125,-34.66796875,76.66015625,0.0
309.07421875,-16.11328125,-23.4375,-16.6015625,-27.83203125,28.80859375,0.0
309.078125,16.6015625,-24.90234375,-26.85546875,-25.87890625,2.44140625,0.0
309.08203125,-1.46484375,-33.69140625,-39.0625,-36.62109375,-12.6953125,0.0
309.0859375,-55.17578125,-50.78125,-36.1328125,-25.390625,-125.9765625,0.0
309.08984375,-72.75390625,-44.921875,-31.73828125,-29.296875,-178.7109375,0.0
309.09375,-36.1328125,-33.69140625,-30.76171875,-51.26953125,-174.8046875,0.0
309.09765625,-19.04296875,-40.52734375,-32.2265625,-57.12890625,-67.3828125,0.0
309.1015625,-43.45703125,-42.48046875,-33.203125,-66.40625,-58.10546875,0.0
309.10546875,-75.1953125,-39.0625,-26.85546875,-66.40625,-68.359375,0.0
309.109375,-78.61328125,-34.66796875,-20.99609375,-54.6875,-11.23046875,0.0
309.11328125,-57.6171875,-32.2265625,-23.92578125,-18.06640625,-27.34375,0.0
309.1171875,-34.66796875,-30.76171875,-25.390625,-23.92578125,87.40234375,0.0
309.12109375,-42.96875,-32.2265625,-29.78515625,-47.8515625,75.68359375,0.0
309.125,-69.82421875,-38.57421875,-39.0625,-83.49609375,-71.2890625,0.0
309.12890625,-62.5,-38.0859375,-43.9453125,-81.54296875,-133.7890625,0.0
309.1328125,-8.30078125,-27.34375,-32.71484375,-29.296875,-144.53125,0.0
309.13671875,-5.859375,-25.87890625,-20.99609375,-8.30078125,-120.1171875,0.0
309.140625,-36.62109375,-31.73828125,-24.90234375,-51.26953125,-123.53515625,0.0
309.14453125,-69.3359375,-40.52734375,-27.83203125,-55.17578125,-52.24609375,0.0
309.1484375,-75.1953125,-45.41015625,-28.80859375,-36.62109375,17.08984375,0.0
309.15234375,-69.82421875,-40.0390625,-23.4375,-31.73828125,4.8828125,0.0
309.15625,-45.41015625,-33.69140625,-22.4609375,-23.92578125,8.30078125,0.0
309.16015625,-30.76171875,-36.1328125,-26.85546875,-58.10546875,107.91015625,0.0
309.1640625,-58.59375,-37.109375,-30.76171875,-67.3828125,79.1015625,0.0
309.16796875,-62.01171875,-38.57421875,-25.87890625,-34.66796875,13.671875,0.0
309.171875,-43.45703125,-35.15625,-21.97265625,-15.625,63.96484375,0.0
309.17578125,-20.5078125,-32.2265625,-29.296875,-2.44140625,33.69140625,0.0
309.1796875,-10.25390625,-32.71484375,-32.2265625,-30.2734375,-24.90234375,0.0
309.18359375,-35.64453125,-34.1796875,-30.2734375,-61.03515625,-33.69140625,0.0
309.1875,-47.8515625,-37.109375,-24.90234375,-25.87890625,-16.11328125,0.0
309.19140625,-26.3671875,-33.203125,-22.94921875,-1.953125,-62.01171875,0.0
309.1953125,-24.90234375,-32.2265625,-27.34375,-28.80859375,-59.5703125,0.0
309.19921875,-28.3203125,-34.66796875,-39.55078125,-52.24609375,26.3671875,0.0
309.203125,-34.66796875,-29.296875,-45.41015625,-67.87109375,47.8515625,0.0
309.20703125,-59.08203125,-27.34375,-46.875,-64.94140625,65.91796875,0.0
309.2109375,-62.5,-28.80859375,-41.9921875,-23.4375,49.31640625,0.0
309.21484375,-33.69140625,-31.73828125,-38.0859375,-19.53125,24.4140625,0.0
309.21875,-10.25390625,-34.1796875,-35.15625,-44.43359375,-19.04296875,0.0
309.22265625,-21.97265625,-34.66796875,-32.71484375,-82.51953125,-31.25,0.0
309.2265625,-64.453125,-36.62109375,-29.296875,-80.56640625,-37.59765625,0.0
309.23046875,-45.41015625,-37.59765625,-31.25,-36.62109375,-20.5078125,0.0
309.234375,-30.76171875,-27.83203125,-27.34375,-20.01953125,11.23046875,0.0
309.23828125,-40.52734375,-20.5078125,-28.3203125,-25.87890625,12.6953125,0.0
309.2421875,-29.296875,-27.83203125,-39.0625,-56.15234375,46.875,0.0
309.24609375,-46.38671875,-26.85546875,-37.109375,-58.10546875,91.30859375,0.0
309.25,-37.59765625,-20.5078125,-29.78515625,-20.5078125,96.19140625,0.0
309.25390625,-10.25390625,-20.99609375,-24.4140625,-2.9296875,51.26953125,0.0
309.2578125,-12.20703125,-18.5546875,-27.34375,-42.96875,5.859375,0.0
309.26171875,-32.71484375,-20.01953125,-36.62109375,-82.03125,32.71484375,0.0
309.265625,-65.91796875,-24.90234375,-47.36328125,-77.63671875,53.22265625,0.0
309.26953125,-77.1484375,-16.6015625,-43.9453125,-49.8046875,45.41015625,0.0
309.2734375,-54.6875,-14.16015625,-37.109375,-27.34375,5.37109375,0.0
309.27734375,-28.3203125,-23.4375,-40.52734375,-31.73828125,2.44140625,0.0
309.28125,-12.6953125,-32.71484375,-37.109375,-65.91796875,57.12890625,0.0
309.28515625,-54.19921875,-42.48046875,-29.296875,-83.984375,12.6953125,0.0
309.2890625,-86.9140625,-33.203125,-26.85546875,-53.22265625,-36.1328125,0.0
309.29296875,-60.05859375,-28.80859375,-31.25,-46.875,-64.453125,0.0
309.296875,-19.53125,-28.3203125,-34.1796875,-47.8515625,-75.68359375,0.0
309.30078125,-70.80078125,-23.4375,-36.1328125,-59.5703125,-17.578125,0.0
309.3046875,-104.98046875,-22.94921875,-40.0390625,-83.984375,-4.39453125,0.0
309.30859375,-72.265625,-30.76171875,-37.59765625,-75.68359375,-50.29296875,0.0
309.3125,-57.6171875,-34.66796875,-33.203125,-74.70703125,-23.4375,0.0
309.31640625,-45.41015625,-34.66796875,-40.52734375,-103.515625,0.9765625,0.0
309.3203125,-48.33984375,-37.109375,-54.19921875,-103.02734375,-29.78515625,0.0
309.32421875,-67.3828125,-40.52734375,-53.7109375,-102.05078125,-124.0234375,0.0
309.328125,-64.453125,-32.71484375,-40.52734375,-54.6875,-94.23828125,0.0
309.33203125,-66.40625,-25.87890625,-40.52734375,-35.15625,-25.87890625,0.0
309.3359375,-35.15625,-25.87890625,-46.875,-99.609375,-34.66796875,0.0
309.33984375,-41.9921875,-30.76171875,-40.52734375,-42.96875,79.58984375,0.0
309.34375,-85.9375,-41.015625,-32.71484375,-93.26171875,76.171875,0.0
309.34765625,-72.75390625,-41.50390625,-31.73828125,-100.5859375,-72.265625,0.0
309.3515625,-58.59375,-36.62109375,-34.1796875,-22.94921875,-5.859375,0.0
309.35546875,-40.0390625,-34.1796875,-30.2734375,-48.33984375,88.8671875,0.0
309.359375,-49.31640625,-34.1796875,-35.64453125,-51.7578125,-20.01953125,0.0
309.36328125,-53.7109375,-32.2265625,-40.52734375,-38.57421875,-24.90234375,0.0
309.3671875,-64.94140625,-28.80859375,-27.34375,-26.3671875,-41.9921875,0.0
309.37109375,-83.984375,-30.76171875,-23.92578125,-92.28515625,-104.00390625,0.0
309.375,-43.45703125,-26.3671875,-32.71484375,-54.19921875,-28.80859375,0.0
309.37890625,-15.13671875,-30.76171875,-34.1796875,-52.24609375,11.23046875,0.0
309.3828125,-35.15625,-37.59765625,-27.83203125,-44.43359375,-49.31640625,0.0
309.38671875,-39.55078125,-39.0625,-19.04296875,-23.4375,-109.375,0.0
309.390625,-49.31640625,-30.76171875,-16.11328125,-65.91796875,-141.11328125,0.0
309.39453125,-63.96484375,-23.92578125,-20.01953125,27.83203125,-78.125,0.0
309.3984375,-22.94921875,-22.94921875,-17.08984375,19.04296875,3.41796875,0.0
309.40234375,-38.57421875,-24.4140625,-20.99609375,-60.05859375,-5.37109375,0.0
309.40625,-45.41015625,-30.2734375,-20.5078125,-6.34765625,-121.09375,0.0
309.41015625,-25.390625,-31.25,-22.94921875,-18.5546875,-67.87109375,0.0
309.4140625,-30.2734375,-30.2734375,-23.4375,-0.9765625,28.80859375,0.0
309.41796875,-6.8359375,-38.0859375,-23.92578125,-9.27734375,-97.16796875,0.0
309.421875,-34.66796875,-35.64453125,-31.73828125,-40.52734375,-180.17578125,0.0
309.42578125,-55.17578125,-28.3203125,-27.34375,-39.55078125,-154.78515625,0.0
309.4296875,-52.734375,-30.2734375,-22.94921875,-63.96484375,-99.609375,0.0
309.43359375,-38.57421875,-27.83203125,-22.4609375,1.46484375,-107.421875,0.0
309.4375,-24.4140625,-20.99609375,-20.99609375,8.7890625,-220.703125,0.0
309.44140625,-41.50390625,-21.484375,-25.87890625,-36.1328125,-207.03125,0.0
309.4453125,-48.828125,-22.4609375,-34.66796875,-1.953125,-125.48828125,0.0
309.44921875,-65.4296875,-27.83203125,-30.76171875,-28.3203125,-54.6875,0.0
309.453125,-50.29296875,-26.3671875,-25.87890625,-23.92578125,-38.57421875,0.0
309.45703125,0.0,-21.484375,-23.92578125,-32.71484375,-71.77734375,0.0
309.4609375,-14.6484375,-21.97265625,-32.71484375,-102.5390625,-105.95703125,0.0
309.46484375,-61.03515625,-22.94921875,-38.57421875,-42.96875,-104.00390625,0.0
309.46875,-64.453125,-32.2265625,-33.203125,-15.625,-33.203125,0.0
309.47265625,-38.0859375,-31.25,-29.78515625,-4.8828125,66.40625,0.0
309.4765625,-15.13671875,-28.3203125,-26.85546875,-55.6640625,22.94921875,0.0
309.48046875,-3.41796875,-36.62109375,-30.76171875,-95.21484375,-71.77734375,0.0
309.484375,-31.25,-42.48046875,-27.34375,-53.22265625,-63.96484375,0.0
309.48828125,-59.08203125,-32.71484375,-18.06640625,-46.875,33.203125,0.0
309.4921875,-61.03515625,-20.5078125,-18.5546875,9.27734375,110.3515625,0.0
309.49609375,-30.76171875,-30.2734375,-22.94921875,12.6953125,125.9765625,0.0
309.5,-14.6484375,-27.34375,-31.73828125,-41.50390625,111.328125,0.0
309.50390625,-32.71484375,-24.90234375,-34.1796875,-78.61328125,147.4609375,0.0
309.5078125,-40.0390625,-35.64453125,-21.97265625,-60.05859375,87.40234375,0.0
309.51171875,-48.33984375,-32.71484375,-28.80859375,-4.8828125,38.57421875,0.0
309.515625,-38.0859375,-24.4140625,-35.64453125,-8.7890625,104.00390625,0.0
309.51953125,-26.3671875,-17.08984375,-35.15625,-48.33984375,71.77734375,0.0
309.5234375,-41.015625,-21.484375,-27.83203125,-38.0859375,29.78515625,0.0
309.52734375,-45.41015625,-34.1796875,-17.08984375,-92.28515625,-14.16015625,0.0
309.53125,-13.18359375,-28.3203125,-19.04296875,-45.8984375,44.43359375,0.0
309.53515625,-21.484375,-21.97265625,-22.4609375,35.15625,86.42578125,0.0
309.5390625,-39.0625,-31.25,-31.25,-78.125,68.359375,0.0
309.54296875,-34.66796875,-32.71484375,-33.69140625,-118.1640625,104.4921875,0.0
309.546875,-61.5234375,-34.66796875,-28.3203125,-72.265625,69.82421875,0.0
309.55078125,-64.94140625,-35.15625,-22.4609375,-30.76171875,45.8984375,0.0
309.5546875,-29.78515625,-33.69140625,-20.99609375,-5.859375,-38.57421875,0.0
309.55859375,-13.18359375,-41.015625,-23.4375,-27.34375,-111.328125,0.0
309.5625,-35.64453125,-49.31640625,-27.34375,-45.41015625,-134.27734375,0.0
309.56640625,-39.55078125,-41.50390625,-37.59765625,-38.57421875,-116.69921875,0.0
309.5703125,8.30078125,-41.50390625,-35.64453125,-62.98828125,-86.9140625,0.0
309.57421875,-5.859375,-40.0390625,-32.71484375,-28.3203125,9.27734375,0.0
309.578125,-21.484375,-34.1796875,-35.15625,-35.64453125,90.33203125,0.0
309.58203125,-21.484375,-38.0859375,-31.25,-66.89453125,85.9375,0.0
309.5859375,-56.640625,-33.203125,-22.94921875,-30.76171875,35.15625,0.0
309.58984375,-35.64453125,-30.2734375,-18.5546875,-13.671875,51.26953125,0.0
309.59375,-18.06640625,-37.109375,-23.92578125,20.01953125,98.6328125,0.0
309.59765625,-33.69140625,-44.43359375,-36.62109375,-91.30859375,35.64453125,0.0
309.6015625,-35.64453125,-41.9921875,-41.50390625,-89.35546875,-85.9375,0.0
309.60546875,-42.48046875,-29.296875,-39.0625,-19.04296875,-94.7265625,0.0
309.609375,-42.48046875,-24.90234375,-31.73828125,-43.45703125,-95.21484375,0.0
309.61328125,0.9765625,-20.99609375,-25.390625,10.7421875,-80.56640625,0.0
309.6171875,26.85546875,-24.90234375,-26.3671875,-21.97265625,32.2265625,0.0
309.62109375,-3.41796875,-34.1796875,-29.296875,-96.6796875,22.4609375,0.0
309.625,-45.8984375,-33.69140625,-38.0859375,-40.52734375,28.3203125,0.0
309.62890625,-77.1484375,-32.71484375,-39.0625,-0.9765625,46.875,0.0
309.6328125,-36.62109375,-25.390625,-35.64453125,-51.7578125,0.9765625,0.0
309.63671875,-12.6953125,-20.99609375,-31.25,-62.98828125,-0.48828125,0.0
309.640625,-18.5546875,-31.25,-25.390625,-56.15234375,47.36328125,0.0
309.64453125,-54.6875,-34.66796875,-26.3671875,-60.546875,55.17578125,0.0
309.6484375,-86.42578125,-31.73828125,-39.0625,-68.359375,-80.56640625,0.0
309.65234375,-39.55078125,-27.34375,-37.109375,-22.94921875,-98.6328125,0.0
309.65625,-16.6015625,-20.01953125,-20.99609375,3.41796875,-16.11328125,0.0
309.66015625,-28.80859375,-34.1796875,-29.78515625,-29.78515625,13.671875,0.0
309.6640625,-41.9921875,-40.0390625,-43.45703125,-98.14453125,11.71875,0.0
309.66796875,-77.63671875,-35.64453125,-40.52734375,-52.734375,25.390625,0.0
309.671875,-81.0546875,-36.1328125,-31.73828125,-24.4140625,57.6171875,0.0
309.67578125,-59.5703125,-34.66796875,-24.4140625,-41.50390625,33.69140625,0.0
309.6796875,-48.33984375,-26.3671875,-20.01953125,-62.98828125,16.11328125,0.0
309.68359375,-52.734375,-20.5078125,-21.484375,-67.3828125,83.0078125,0.0
309.6875,-57.12890625,-29.78515625,-24.4140625,-4.8828125,60.05859375,0.0
309.69140625,-56.640625,-23.4375,-24.4140625,11.23046875,-35.64453125,0.0
309.6953125,-35.64453125,-21.484375,-21.97265625,-53.7109375,35.15625,0.0
309.69921875,9.27734375,-30.2734375,-14.6484375,-36.1328125,42.96875,0.0
309.703125,-3.41796875,-33.69140625,-16.6015625,3.90625,-13.18359375,0.0
309.70703125,-60.546875,-35.15625,-36.62109375,-35.64453125,-10.25390625,0.0
309.7109375,-65.4296875,-38.0859375,-44.921875,-10.25390625,-94.23828125,0.0
309.71484375,-18.5546875,-41.50390625,-36.62109375,48.33984375,-182.6171875,0.0
309.71875,-11.71875,-35.64453125,-28.80859375,-37.109375,-168.45703125,0.0
309.72265625,-24.90234375,-35.15625,-27.83203125,-102.05078125,-182.12890625,0.0
309.7265625,-52.734375,-31.25,-25.390625,-54.19921875,-103.515625,0.0
309.73046875,-34.66796875,-34.1796875,-20.5078125,-24.90234375,-107.91015625,0.0
309.734375,12.20703125,-41.50390625,-13.671875,31.25,-157.2265625,0.0
309.73828125,25.87890625,-35.15625,-24.4140625,55.17578125,-104.98046875,0.0
309.7421875,-0.9765625,-30.76171875,-32.2265625,-62.01171875,-99.609375,0.0
309.74609375,-55.17578125,-31.25,-26.3671875,-77.63671875,-28.80859375,0.0
309.75,-65.4296875,-38.0859375,-27.34375,-38.57421875,71.2890625,0.0
309.75390625,9.27734375,-30.76171875,-18.06640625,13.18359375,36.62109375,0.0
309.7578125,17.08984375,-16.11328125,-18.5546875,30.2734375,35.64453125,0.0
309.76171875,-1.46484375,-23.4375,-36.62109375,-68.359375,99.609375,0.0
309.765625,-9.765625,-28.3203125,-35.64453125,-20.5078125,73.73046875,0.0
309.76953125,-32.2265625,-27.34375,-23.92578125,-5.859375,23.92578125,0.0
309.7734375,-5.37109375,-33.203125,-11.23046875,-54.19921875,8.30078125,0.0
309.77734375,30.76171875,-30.76171875,-15.625,8.30078125,-5.37109375,0.0
309.78125,11.23046875,-24.90234375,-26.85546875,-32.2265625,-9.27734375,0.0
309.78515625,-36.62109375,-35.64453125,-31.73828125,-41.9921875,-1.46484375,0.0
309.7890625,-33.203125,-37.59765625,-33.69140625,11.23046875,-3.90625,0.0
309.79296875,9.765625,-35.15625,-22.94921875,-31.25,25.390625,0.0
309.796875,-7.32421875,-41.50390625,-13.671875,-110.3515625,24.4140625,0.0
309.80078125,-23.4375,-39.55078125,-36.1328125,-14.6484375,-97.65625,0.0
309.8046875,-5.859375,-38.0859375,-48.33984375,25.87890625,-32.2265625,0.0
309.80859375,-50.78125,-37.59765625,-44.43359375,-65.91796875,3.90625,0.0
309.8125,-35.15625,-39.55078125,-34.66796875,-66.40625,20.5078125,0.0
309.81640625,14.6484375,-41.9921875,-22.94921875,38.0859375,41.50390625,0.0
309.8203125,-2.9296875,-31.73828125,-38.57421875,26.85546875,51.7578125,0.0
309.82421875,-37.59765625,-32.2265625,-45.41015625,-12.20703125,43.45703125,0.0
309.828125,-50.78125,-37.59765625,-35.15625,-14.6484375,25.390625,0.0
309.83203125,-23.92578125,-36.1328125,-21.97265625,-54.19921875,99.12109375,0.0
309.8359375,2.44140625,-34.66796875,-15.625,-45.41015625,93.26171875,0.0
309.83984375,33.69140625,-27.83203125,-27.83203125,-34.1796875,47.36328125,0.0
309.84375,11.71875,-32.2265625,-12.20703125,-33.69140625,16.6015625,0.0
309.84765625,-29.78515625,-25.390625,-17.08984375,16.11328125,19.53125,0.0
309.8515625,-6.8359375,-9.765625,-40.0390625,26.3671875,-37.109375,0.0
309.85546875,33.69140625,-13.18359375,-30.76171875,18.06640625,-22.4609375,0.0
309.859375,-30.2734375,-28.3203125,-25.390625,-57.12890625,20.01953125,0.0
309.86328125,-64.94140625,-34.66796875,-36.62109375,-131.34765625,40.52734375,0.0
309.8671875,-15.625,-30.76171875,-48.33984375,-31.73828125,58.59375,0.0
309.87109375,-8.30078125,-26.85546875,-46.38671875,-4.8828125,41.50390625,0.0
309.875,20.5078125,-28.80859375,-35.64453125,-40.52734375,-10.25390625,0.0
309.87890625,14.6484375,-30.2734375,-37.109375,-20.01953125,-21.484375,0.0
309.8828125,-20.01953125,-29.78515625,-45.41015625,-27.83203125,-76.171875,0.0
309.88671875,-39.55078125,-27.83203125,-35.64453125,-71.2890625,-19.53125,0.0
309.890625,-41.50390625,-27.34375,-25.390625,-3.90625,37.59765625,0.0
309.89453125,-21.484375,-26.85546875,-31.73828125,43.9453125,-25.87890625,0.0
309.8984375,-8.7890625,-30.76171875,-46.38671875,-4.8828125,19.04296875,0.0
309.90234375,-6.8359375,-33.69140625,-55.6640625,-41.50390625,114.2578125,0.0
309.90625,-45.41015625,-26.85546875,-42.48046875,-93.75,85.44921875,0.0
309.91015625,-67.87109375,-22.4609375,-30.76171875,-26.3671875,2.44140625,0.0
309.9140625,-24.4140625,-24.90234375,-37.59765625,62.98828125,-35.64453125,0.0
309.91796875,-4.8828125,-26.85546875,-32.2265625,-14.16015625,-14.16015625,0.0
309.921875,-9.765625,-33.69140625,-27.83203125,-51.26953125,0.9765625,0.0
309.92578125,-46.875,-26.3671875,-29.78515625,-18.5546875,9.765625,0.0
309.9296875,-47.8515625,-20.5078125,-24.4140625,-25.390625,1.953125,0.0
309.93359375,-8.30078125,-20.01953125,-31.25,0.0,-5.37109375,0.0
309.9375,-27.83203125,-17.08984375,-26.85546875,25.87890625,42.96875,0.0
309.94140625,-36.62109375,-21.484375,-23.4375,-49.31640625,44.921875,0.0
309.9453125,-33.203125,-25.390625,-41.015625,-40.52734375,12.6953125,0.0
309.94921875,-37.59765625,-23.4375,-32.71484375,34.66796875,-6.34765625,0.0
309.953125,-23.4375,-22.4609375,-27.34375,26.3671875,-9.27734375,0.0
309.95703125,-5.859375,-17.578125,-33.69140625,-9.27734375,-36.62109375,0.0
309.9609375,-20.99609375,-21.97265625,-34.1796875,-60.546875,-59.08203125,0.0
309.96484375,-56.640625,-31.25,-35.64453125,-63.96484375,-31.25,0.0
309.96875,-53.7109375,-20.5078125,-41.50390625,-0.48828125,31.25,0.0
309.97265625,-23.92578125,-9.765625,-34.66796875,-19.53125,56.640625,0.0
309.9765625,-22.4609375,-16.6015625,-29.78515625,16.11328125,-27.34375,0.0
309.98046875,-14.6484375,-26.3671875,-33.69140625,-14.6484375,-72.75390625,0.0
309.984375,-11.71875,-27.34375,-36.62109375,-41.9921875,-83.49609375,0.0
309.98828125,-26.85546875,-22.94921875,-37.59765625,-38.0859375,-8.7890625,0.0
309.9921875,-31.73828125,-28.3203125,-41.9921875,-20.01953125,28.3203125,0.0
309.99609375,-22.94921875,-37.59765625,-31.25,-19.04296875,-3.41796875,0.0
310.0,-3.90625,-27.34375,-44.921875,-11.71875,2.9296875,0.0
310.00390625,-47.36328125,-30.2734375,-45.8984375,-24.90234375,-156.25,0.0
310.0078125,-58.59375,-24.4140625,-32.2265625,-55.17578125,-282.71484375,0.0
310.01171875,-47.36328125,-21.97265625,-25.87890625,-18.5546875,-215.8203125,0.0
310.015625,-15.13671875,-25.390625,-26.3671875,-4.39453125,-151.85546875,0.0
310.01953125,6.8359375,-25.390625,-40.52734375,67.87109375,-203.61328125,0.0
310.0234375,-35.15625,-36.62109375,-36.1328125,-27.34375,-309.5703125,0.0
310.02734375,-33.203125,-37.109375,-31.25,-103.02734375,-285.64453125,0.0
310.03125,-7.32421875,-22.94921875,-39.0625,-7.32421875,-64.453125,0.0
310.03515625,26.3671875,-22.4609375,-40.52734375,13.18359375,62.5,0.0
310.0390625,23.92578125,-28.80859375,-47.36328125,-42.96875,99.609375,0.0
310.04296875,-32.71484375,-29.296875,-50.29296875,-83.984375,124.0234375,0.0
310.046875,-50.78125,-26.3671875,-42.96875,-8.30078125,113.28125,0.0
310.05078125,-53.22265625,-30.76171875,-36.1328125,60.546875,70.80078125,0.0
310.0546875,-28.80859375,-33.203125,-38.57421875,44.43359375,76.66015625,0.0
310.05859375,-28.3203125,-33.203125,-44.921875,-24.4140625,13.671875,0.0
310.0625,-41.50390625,-37.59765625,-41.015625,-96.6796875,-36.62109375,0.0
310.06640625,-36.1328125,-41.015625,-38.57421875,-37.59765625,23.92578125,0.0
310.0703125,-31.25,-37.59765625,-47.36328125,-15.625,8.7890625,0.0
310.07421875,-30.76171875,-34.1796875,-47.36328125,-20.5078125,-0.48828125,0.0
310.078125,-10.7421875,-40.0390625,-33.203125,-18.06640625,28.3203125,0.0
310.08203125,-4.39453125,-41.015625,-36.1328125,-20.99609375,78.125,0.0
310.0859375,-30.76171875,-44.921875,-57.6171875,-55.6640625,85.9375,0.0
310.08984375,-21.484375,-39.55078125,-46.875,-74.70703125,-0.9765625,0.0
310.09375,-0.9765625,-28.3203125,-48.33984375,27.83203125,11.71875,0.0
310.09765625,-5.859375,-21.97265625,-51.7578125,50.78125,12.6953125,0.0
310.1015625,-17.578125,-21.97265625,-39.55078125,-28.80859375,-73.2421875,0.0
310.10546875,-20.01953125,-16.6015625,-44.921875,-23.92578125,-66.40625,0.0
310.109375,-20.5078125,-23.92578125,-37.109375,-12.6953125,-35.64453125,0.0
310.11328125,-47.8515625,-34.1796875,-21.484375,-14.6484375,26.85546875,0.0
310.1171875,-46.38671875,-41.015625,-12.6953125,31.25,74.21875,0.0
310.12109375,-22.4609375,-33.69140625,-21.484375,-33.203125,61.03515625,0.0
310.125,-21.484375,-23.92578125,-23.4375,-103.515625,108.88671875,0.0
310.12890625,-37.109375,-24.4140625,-19.53125,4.8828125,87.890625,0.0
310.1328125,-24.4140625,-23.4375,-29.296875,89.35546875,16.6015625,0.0
310.13671875,5.37109375,-27.83203125,-19.04296875,24.4140625,-4.8828125,0.0
310.140625,-28.3203125,-28.80859375,-17.08984375,-73.73046875,-15.13671875,0.0
310.14453125,-59.08203125,-32.2265625,-26.3671875,-61.5234375,-20.99609375,0.0
310.1484375,-48.33984375,-35.15625,-24.4140625,44.43359375,41.015625,0.0
310.15234375,-49.31640625,-29.78515625,-18.5546875,-0.9765625,51.26953125,0.0
310.15625,-20.01953125,-30.76171875,-21.97265625,-74.70703125,-27.83203125,0.0
310.16015625,-5.859375,-34.66796875,-29.78515625,-76.66015625,-41.015625,0.0
310.1640625,-40.0390625,-33.69140625,-43.9453125,-62.01171875,-14.16015625,0.0
310.16796875,-46.875,-32.71484375,-41.50390625,-31.25,14.6484375,0.0
310.171875,-33.69140625,-33.69140625,-33.203125,-44.921875,20.01953125,0.0
310.17578125,-36.1328125,-35.15625,-35.64453125,-5.859375,25.87890625,0.0
310.1796875,-47.36328125,-36.62109375,-30.76171875,-41.9921875,-13.671875,0.0
310.18359375,-64.453125,-40.0390625,-30.2734375,-179.19921875,-24.90234375,0.0
310.1875,-75.1953125,-36.62109375,-28.80859375,-90.8203125,-45.41015625,0.0
310.19140625,-51.7578125,-33.203125,-34.1796875,19.53125,-102.05078125,0.0
310.1953125,-35.64453125,-28.3203125,-39.55078125,9.27734375,-133.7890625,0.0
310.19921875,-2.44140625,-33.203125,-35.64453125,-25.390625,-171.38671875,0.0
310.203125,-35.64453125,-36.62109375,-33.203125,-59.08203125,-147.4609375,0.0
310.20703125,-90.33203125,-34.66796875,-26.85546875,-58.59375,-70.3125,0.0
310.2109375,-53.7109375,-30.2734375,-31.73828125,-12.6953125,26.3671875,0.0
310.21484375,-7.8125,-29.296875,-23.92578125,1.953125,30.76171875,0.0
310.21875,-0.9765625,-24.90234375,-14.16015625,-79.1015625,20.01953125,0.0
310.22265625,-17.578125,-19.04296875,-36.62109375,-69.3359375,49.31640625,0.0
310.2265625,-58.59375,-19.04296875,-43.9453125,-38.0859375,-24.90234375,0.0
310.23046875,-45.8984375,-15.13671875,-34.66796875,-9.765625,-46.875,0.0
310.234375,-11.71875,-10.7421875,-37.59765625,-4.39453125,11.71875,0.0
310.23828125,-14.6484375,-20.99609375,-38.57421875,-93.26171875,-71.77734375,0.0
310.2421875,-31.73828125,-29.296875,-32.2265625,-69.3359375,-100.09765625,0.0
310.24609375,-58.59375,-20.01953125,-37.109375,-50.78125,-67.3828125,0.0
310.25,-57.12890625,-18.06640625,-28.80859375,-34.66796875,-50.29296875,0.0
310.25390625,-23.4375,-18.06640625,-14.16015625,-12.20703125,-0.48828125,0.0
310.2578125,-14.6484375,-17.578125,-20.5078125,-89.35546875,12.6953125,0.0
310.26171875,-56.15234375,-25.390625,-30.76171875,-75.68359375,-10.7421875,0.0
310.265625,-57.6171875,-17.08984375,-23.4375,-38.57421875,24.90234375,0.0
310.26953125,-56.15234375,-9.27734375,-20.01953125,-24.4140625,40.52734375,0.0
310.2734375,-46.875,-27.34375,-22.94921875,-6.34765625,-9.27734375,0.0
310.27734375,-21.97265625,-34.1796875,-20.01953125,-6.8359375,17.08984375,0.0
310.28125,-30.76171875,-21.97265625,-21.484375,-93.75,12.6953125,0.0
310.28515625,-43.9453125,-21.97265625,-25.390625,-104.98046875,62.98828125,0.0
310.2890625,-50.78125,-37.59765625,-23.4375,12.20703125,107.421875,0.0
310.29296875,-23.92578125,-46.38671875,-17.08984375,38.57421875,29.296875,0.0
310.296875,-8.7890625,-43.45703125,-10.25390625,-2.9296875,-51.7578125,0.0
310.30078125,-49.8046875,-35.64453125,-10.25390625,-39.55078125,-104.98046875,0.0
310.3046875,-65.91796875,-32.71484375,-22.4609375,-73.2421875,-83.49609375,0.0
310.30859375,-55.6640625,-29.296875,-15.625,-62.5,-64.453125,0.0
310.3125,-29.78515625,-28.80859375,0.9765625,45.41015625,-148.4375,0.0
310.31640625,3.41796875,-36.62109375,-13.18359375,36.62109375,-83.49609375,0.0
310.3203125,-16.6015625,-40.0390625,-28.80859375,-31.73828125,40.0390625,0.0
310.32421875,-42.48046875,-34.1796875,-28.3203125,-34.1796875,18.5546875,0.0
310.328125,-37.59765625,-29.78515625,-22.94921875,-15.625,-104.4921875,0.0
310.33203125,-59.08203125,-34.66796875,-13.18359375,3.90625,-22.4609375,0.0
310.3359375,-36.62109375,-36.62109375,-18.06640625,7.32421875,104.4921875,0.0
310.33984375,-15.13671875,-38.0859375,-29.78515625,-22.4609375,31.25,0.0
310.34375,-53.22265625,-38.57421875,-26.3671875,-84.47265625,55.6640625,0.0
310.34765625,-57.12890625,-34.1796875,-22.94921875,-33.69140625,7.32421875,0.0
310.3515625,-46.875,-34.1796875,-28.80859375,-4.39453125,-71.77734375,0.0
310.35546875,-18.5546875,-34.1796875,-26.85546875,-10.25390625,-22.94921875,0.0
310.359375,-3.41796875,-31.25,-29.78515625,6.8359375,-18.06640625,0.0
310.36328125,-34.1796875,-30.2734375,-33.203125,-18.06640625,-51.7578125,0.0
310.3671875,-40.52734375,-29.296875,-34.1796875,-21.97265625,-46.38671875,0.0
310.37109375,-38.57421875,-33.69140625,-33.203125,12.20703125,-83.0078125,0.0
310.375,-20.5078125,-43.45703125,-30.2734375,2.9296875,-52.24609375,0.0
310.37890625,14.16015625,-41.50390625,-35.64453125,-10.25390625,39.0625,0.0
310.3828125,-26.85546875,-37.59765625,-30.2734375,-29.296875,67.3828125,0.0
310.38671875,-71.77734375,-49.8046875,-20.99609375,-55.17578125,91.796875,0.0
310.390625,-68.84765625,-56.15234375,-17.578125,-15.625,118.1640625,0.0
310.39453125,-53.7109375,-58.10546875,-17.08984375,-4.39453125,76.66015625,0.0
310.3984375,-18.5546875,-50.78125,-23.4375,-8.7890625,28.3203125,0.0
310.40234375,-39.0625,-37.59765625,-26.85546875,-42.96875,-4.39453125,0.0
310.40625,-74.21875,-38.57421875,-28.80859375,-32.2265625,-10.25390625,0.0
310.41015625,-52.734375,-49.8046875,-23.92578125,15.13671875,-75.68359375,0.0
310.4140625,-11.23046875,-42.48046875,-20.5078125,13.671875,-42.48046875,0.0
310.41796875,-19.53125,-33.69140625,-32.71484375,-5.37109375,77.1484375,0.0
310.421875,-33.69140625,-37.109375,-41.50390625,-33.69140625,80.078125,0.0
310.42578125,-62.01171875,-37.109375,-41.9921875,-55.6640625,38.57421875,0.0
310.4296875,-70.80078125,-35.64453125,-38.0859375,-43.45703125,-1.46484375,0.0
310.43359375,-45.8984375,-36.62109375,-33.203125,10.7421875,-18.06640625,0.0
310.4375,-18.06640625,-33.69140625,-32.2265625,17.08984375,13.18359375,0.0
310.44140625,-26.85546875,-32.71484375,-31.73828125,-32.2265625,-20.01953125,0.0
310.4453125,-48.33984375,-23.4375,-36.1328125,-36.62109375,-73.73046875,0.0
310.44921875,-67.87109375,-22.4609375,-34.66796875,-53.7109375,-4.8828125,0.0
310.453125,-55.6640625,-32.2265625,-29.296875,-3.90625,-38.57421875,0.0
310.45703125,-12.6953125,-35.15625,-25.87890625,16.11328125,-89.35546875,0.0
310.4609375,-31.25,-34.1796875,-31.73828125,-55.17578125,-65.4296875,0.0
310.46484375,-50.29296875,-39.0625,-37.109375,-60.05859375,-100.09765625,0.0
310.46875,-58.59375,-48.828125,-27.34375,-17.08984375,-83.0078125,0.0
310.47265625,-62.5,-40.52734375,-18.06640625,-12.6953125,-63.4765625,0.0
310.4765625,-27.83203125,-24.4140625,-18.5546875,3.41796875,-23.92578125,0.0
310.48046875,-47.36328125,-20.5078125,-27.83203125,-47.36328125,-12.6953125,0.0
310.484375,-81.54296875,-24.4140625,-33.203125,-49.8046875,-58.10546875,0.0
310.48828125,-60.546875,-25.87890625,-25.390625,-15.13671875,-34.1796875,0.0
310.4921875,-44.921875,-23.92578125,-22.94921875,-41.50390625,-22.4609375,0.0
310.49609375,-68.359375,-24.90234375,-20.99609375,-8.7890625,-58.10546875,0.0
310.5,-58.59375,-27.34375,-23.4375,-28.3203125,21.484375,0.0
310.50390625,-66.89453125,-31.73828125,-30.76171875,-65.4296875,-3.90625,0.0
310.5078125,-78.125,-38.57421875,-30.2734375,-35.64453125,-11.71875,0.0
310.51171875,-43.45703125,-39.55078125,-28.80859375,-23.4375,37.109375,0.0
310.515625,-20.99609375,-32.2265625,-32.71484375,-43.9453125,-8.7890625,0.0
310.51953125,-34.66796875,-27.34375,-36.62109375,-43.45703125,-38.57421875,0.0
310.5234375,-60.05859375,-32.2265625,-38.0859375,-38.57421875,-59.08203125,0.0
310.52734375,-73.2421875,-31.25,-37.59765625,-28.80859375,-36.62109375,0.0
310.53125,-39.55078125,-29.78515625,-30.76171875,-20.01953125,-66.40625,0.0
310.53515625,20.5078125,-29.296875,-28.3203125,-20.99609375,-71.2890625,0.0
310.5390625,-18.5546875,-38.0859375,-28.3203125,-28.80859375,-12.6953125,0.0
310.54296875,-82.03125,-50.29296875,-25.390625,-66.89453125,34.1796875,0.0
310.546875,-95.21484375,-43.9453125,-29.296875,-51.26953125,30.76171875,0.0
310.55078125,-84.47265625,-29.78515625,-27.34375,-20.01953125,20.99609375,0.0
310.5546875,-50.78125,-25.87890625,-23.92578125,-2.44140625,72.75390625,0.0
310.55859375,-19.04296875,-29.78515625,-28.3203125,-20.01953125,60.05859375,0.0
310.5625,-34.66796875,-27.34375,-36.1328125,-33.69140625,55.17578125,0.0
310.56640625,-75.68359375,-26.85546875,-32.2265625,-24.4140625,45.8984375,0.0
310.5703125,-63.96484375,-30.2734375,-23.4375,-20.5078125,40.52734375,0.0
310.57421875,-17.578125,-23.92578125,-21.97265625,-18.5546875,54.19921875,0.0
310.578125,-3.90625,-29.78515625,-32.71484375,-17.578125,-8.30078125,0.0
310.58203125,-29.78515625,-35.64453125,-42.96875,-41.015625,-48.33984375,0.0
310.5859375,-44.921875,-30.2734375,-34.1796875,-40.0390625,6.34765625,0.0
310.58984375,-30.2734375,-30.76171875,-25.87890625,-16.11328125,-34.66796875,0.0
310.59375,-14.16015625,-30.2734375,-21.97265625,11.23046875,-53.22265625,0.0
310.59765625,0.9765625,-36.62109375,-24.90234375,6.8359375,-17.08984375,0.0
310.6015625,-26.85546875,-49.31640625,-34.66796875,-38.57421875,-59.08203125,0.0
310.60546875,-55.6640625,-41.015625,-34.1796875,-46.875,-58.59375,0.0
310.609375,-43.9453125,-35.64453125,-20.99609375,-6.34765625,24.4140625,0.0
310.61328125,-30.2734375,-42.48046875,-17.578125,22.94921875,77.63671875,0.0
310.6171875,-3.90625,-36.62109375,-23.4375,-1.953125,93.26171875,0.0
310.62109375,0.48828125,-28.3203125,-26.3671875,-21.97265625,96.6796875,0.0
310.625,-9.27734375,-27.83203125,-25.390625,-20.01953125,68.359375,0.0
310.62890625,-12.6953125,-31.25,-27.83203125,-13.671875,82.03125,0.0
310.6328125,-5.37109375,-34.66796875,-20.99609375,4.8828125,34.1796875,0.0
310.63671875,5.859375,-35.15625,-16.6015625,7.32421875,-70.3125,0.0
310.640625,-8.30078125,-36.1328125,-22.94921875,-46.38671875,-51.26953125,0.0
310.64453125,-31.25,-33.69140625,-22.4609375,-81.0546875,-78.125,0.0
310.6484375,-48.33984375,-39.0625,-29.296875,-23.4375,-80.078125,0.0
310.65234375,-37.109375,-44.921875,-35.64453125,-13.671875,-27.83203125,0.0
310.65625,-15.13671875,-44.43359375,-35.64453125,-30.76171875,-19.53125,0.0
310.66015625,-10.25390625,-45.41015625,-38.57421875,-37.59765625,-59.5703125,0.0
310.6640625,-19.04296875,-41.9921875,-31.25,-60.05859375,-58.59375,0.0
310.66796875,-30.2734375,-35.15625,-27.83203125,-35.64453125,-27.34375,0.0
310.671875,-5.37109375,-28.3203125,-28.80859375,-14.16015625,20.99609375,0.0
310.67578125,0.48828125,-26.85546875,-27.83203125,-21.484375,21.484375,0.0
310.6796875,-14.6484375,-30.2734375,-30.76171875,-47.8515625,40.0390625,0.0
310.68359375,0.48828125,-25.390625,-42.48046875,-75.1953125,98.6328125,0.0
310.6875,-45.41015625,-22.94921875,-41.50390625,-70.80078125,58.59375,0.0
310.69140625,-81.54296875,-30.2734375,-29.296875,-42.48046875,-64.453125,0.0
310.6953125,-44.43359375,-36.62109375,-37.109375,-18.5546875,-87.40234375,0.0
310.69921875,-43.45703125,-37.109375,-45.8984375,-41.50390625,-25.87890625,0.0
310.703125,-58.10546875,-35.15625,-36.1328125,-66.89453125,13.18359375,0.0
310.70703125,-52.24609375,-37.109375,-25.390625,-31.73828125,19.04296875,0.0
310.7109375,-44.43359375,-34.1796875,-23.92578125,-3.90625,-66.40625,0.0
310.71484375,-2.9296875,-30.2734375,-26.3671875,-17.08984375,-139.6484375,0.0
310.71875,2.44140625,-34.1796875,-26.85546875,-42.48046875,-132.8125,0.0
310.72265625,-72.75390625,-27.34375,-27.83203125,-74.70703125,-74.21875,0.0
310.7265625,-87.40234375,-22.94921875,-27.34375,-63.96484375,-8.30078125,0.0
310.73046875,-47.8515625,-31.25,-18.5546875,-31.73828125,28.80859375,0.0
310.734375,-19.53125,-27.34375,-23.4375,-27.34375,25.390625,0.0
310.73828125,-12.20703125,-19.53125,-28.3203125,-45.41015625,53.7109375,0.0
310.7421875,-35.64453125,-21.484375,-26.85546875,-55.17578125,123.53515625,0.0
310.74609375,-64.453125,-30.76171875,-28.80859375,-40.0390625,151.85546875,0.0
310.75,-71.77734375,-31.25,-29.78515625,-26.85546875,21.484375,0.0
310.75390625,-44.921875,-25.390625,-29.296875,-22.4609375,-52.24609375,0.0
310.7578125,-12.6953125,-23.92578125,-33.203125,-28.3203125,-4.8828125,0.0
310.76171875,-14.6484375,-27.34375,-39.0625,-38.0859375,-102.05078125,0.0
310.765625,-35.15625,-36.1328125,-39.55078125,-38.57421875,-68.359375,0.0
310.76953125,-20.01953125,-33.69140625,-34.1796875,-25.87890625,3.90625,0.0
310.7734375,-22.94921875,-25.87890625,-31.73828125,-18.06640625,40.52734375,0.0
310.77734375,-34.1796875,-28.80859375,-38.0859375,-41.50390625,96.19140625,0.0
310.78125,-43.9453125,-26.3671875,-43.9453125,-64.94140625,78.61328125,0.0
310.78515625,-57.6171875,-28.80859375,-34.66796875,-60.546875,-18.5546875,0.0
310.7890625,-58.59375,-38.0859375,-23.4375,-32.2265625,-46.38671875,0.0
310.79296875,-18.06640625,-41.50390625,-17.578125,-9.27734375,-71.77734375,0.0
310.796875,-0.48828125,-30.2734375,-23.92578125,-0.48828125,-87.40234375,0.0
310.80078125,-23.4375,-21.97265625,-34.66796875,-21.484375,-11.23046875,0.0
310.8046875,-33.203125,-23.92578125,-40.0390625,-50.78125,6.34765625,0.0
310.80859375,-54.6875,-28.3203125,-33.69140625,-49.31640625,-25.390625,0.0
310.8125,-56.15234375,-26.85546875,-30.76171875,-32.2265625,-10.7421875,0.0
310.81640625,-23.4375,-24.90234375,-30.2734375,-34.1796875,-19.53125,0.0
310.8203125,-33.69140625,-24.90234375,-26.85546875,-51.26953125,-7.8125,0.0
310.82421875,-79.58984375,-29.296875,-26.85546875,-61.03515625,-7.32421875,0.0
310.828125,-90.33203125,-36.1328125,-22.94921875,-67.87109375,-35.15625,0.0
310.83203125,-52.24609375,-39.0625,-19.53125,-53.7109375,-58.10546875,0.0
310.8359375,-44.43359375,-38.57421875,-20.5078125,-41.50390625,-87.40234375,0.0
310.83984375,-66.89453125,-36.62109375,-24.4140625,-58.10546875,-39.55078125,0.0
310.84375,-80.56640625,-33.203125,-26.3671875,-70.3125,25.390625,0.0
310.84765625,-91.796875,-33.203125,-24.90234375,-59.5703125,0.0,0.0
310.8515625,-62.01171875,-29.78515625,-17.08984375,-36.1328125,-17.578125,0.0
310.85546875,-29.78515625,-28.3203125,-16.6015625,-15.625,-9.27734375,0.0
310.859375,-43.9453125,-28.3203125,-33.203125,-35.15625,-58.10546875,0.0
310.86328125,-54.19921875,-34.66796875,-36.1328125,-59.08203125,-89.84375,0.0
310.8671875,-71.77734375,-37.59765625,-32.2265625,-48.33984375,-51.7578125,0.0
310.87109375,-81.0546875,-27.83203125,-35.64453125,-28.80859375,-94.23828125,0.0
310.875,-51.26953125,-10.25390625,-32.2265625,0.9765625,-87.40234375,0.0
310.87890625,-61.03515625,-4.8828125,-18.06640625,-14.16015625,8.30078125,0.0
310.8828125,-81.54296875,-13.18359375,-11.71875,-47.36328125,51.26953125,0.0
310.88671875,-88.8671875,-23.4375,-17.08984375,-50.78125,-14.16015625,0.0
310.890625,-65.91796875,-28.3203125,-20.01953125,-44.43359375,-50.78125,0.0
310.89453125,-25.87890625,-21.484375,-21.484375,-20.5078125,-15.13671875,0.0
310.8984375,-41.50390625,-12.20703125,-27.83203125,-8.7890625,-24.4140625,0.0
310.90234375,-100.5859375,-21.484375,-32.2265625,-39.0625,-46.38671875,0.0
310.90625,-121.09375,-34.66796875,-33.203125,-50.78125,-24.90234375,0.0
310.91015625,-125.0,-35.15625,-37.109375,-41.50390625,-25.87890625,0.0
310.9140625,-97.16796875,-25.87890625,-39.0625,-32.71484375,-80.56640625,0.0
310.91796875,-60.05859375,-24.4140625,-41.9921875,-26.3671875,-62.98828125,0.0
310.921875,-67.3828125,-29.78515625,-48.828125,-68.84765625,-13.18359375,0.0
310.92578125,-88.37890625,-32.2265625,-49.8046875,-93.26171875,-36.1328125,0.0
310.9296875,-90.33203125,-31.25,-43.9453125,-54.19921875,-91.30859375,0.0
310.93359375,-67.3828125,-34.1796875,-38.57421875,-20.01953125,-99.12109375,0.0
310.9375,-49.31640625,-37.59765625,-36.62109375,-31.73828125,-42.96875,0.0
310.94140625,-41.9921875,-35.15625,-36.1328125,-47.36328125,23.92578125,0.0
310.9453125,-83.984375,-30.76171875,-41.015625,-38.57421875,-18.06640625,0.0
310.94921875,-88.8671875,-21.97265625,-42.48046875,-27.83203125,-104.98046875,0.0
310.953125,-57.6171875,-23.92578125,-35.64453125,-29.296875,-103.515625,0.0
310.95703125,-46.38671875,-29.78515625,-38.57421875,-36.1328125,-13.671875,0.0
310.9609375,-44.921875,-31.25,-42.96875,-57.6171875,27.83203125,0.0
310.96484375,-62.01171875,-32.2265625,-40.0390625,-56.640625,-22.94921875,0.0
310.96875,-55.6640625,-28.80859375,-29.78515625,2.9296875,-5.859375,0.0
310.97265625,-47.36328125,-36.62109375,-25.390625,41.9921875,18.06640625,0.0
310.9765625,-49.31640625,-38.0859375,-35.15625,-12.6953125,48.828125,0.0
310.98046875,-64.453125,-35.15625,-40.52734375,-59.5703125,8.30078125,0.0
310.984375,-82.51953125,-34.66796875,-35.64453125,-45.41015625,-11.71875,0.0
310.98828125,-91.30859375,-32.71484375,-43.45703125,-2.44140625,-23.92578125,0.0
310.9921875,-36.1328125,-29.78515625,-40.52734375,20.5078125,-38.57421875,0.0
310.99609375,-0.48828125,-33.69140625,-37.59765625,-5.37109375,5.859375,0.0
311.0,-40.52734375,-37.109375,-46.875,-27.83203125,-7.8125,0.0
311.00390625,-45.8984375,-33.203125,-43.45703125,-28.80859375,-62.01171875,0.0
311.0078125,-32.71484375,-22.4609375,-33.69140625,-18.06640625,-24.4140625,0.0
311.01171875,-65.91796875,-21.484375,-30.2734375,-10.7421875,-27.83203125,0.0
311.015625,-65.91796875,-31.73828125,-30.76171875,-6.34765625,6.34765625,0.0
311.01953125,-47.8515625,-31.73828125,-39.0625,-20.99609375,-57.12890625,0.0
311.0234375,-51.26953125,-29.78515625,-42.96875,-30.2734375,-187.5,0.0
311.02734375,-50.29296875,-35.64453125,-40.0390625,-25.87890625,-124.0234375,0.0
311.03125,-42.48046875,-37.59765625,-37.109375,11.23046875,-46.38671875,0.0
311.03515625,-19.53125,-32.2265625,-36.1328125,16.6015625,-67.87109375,0.0
311.0390625,7.8125,-24.90234375,-41.9921875,-11.23046875,-61.03515625,0.0
311.04296875,-21.97265625,-30.76171875,-39.55078125,-26.3671875,-16.11328125,0.0
311.046875,-57.12890625,-35.15625,-35.15625,-20.99609375,-18.06640625,0.0
311.05078125,-39.0625,-30.76171875,-28.3203125,21.484375,1.46484375,0.0
311.0546875,-10.25390625,-24.90234375,-22.4609375,34.66796875,-12.20703125,0.0
311.05859375,-15.13671875,-22.4609375,-27.83203125,-0.9765625,-17.08984375,0.0
311.0625,-21.97265625,-26.3671875,-32.71484375,-27.83203125,21.484375,0.0
311.06640625,-36.62109375,-39.0625,-28.80859375,-21.484375,66.89453125,0.0
311.0703125,-39.0625,-38.0859375,-20.99609375,13.671875,130.37109375,0.0
311.07421875,5.37109375,-24.90234375,-17.08984375,25.390625,115.72265625,0.0
311.078125,22.4609375,-16.6015625,-21.97265625,-1.953125,75.1953125,0.0
311.08203125,-8.7890625,-17.578125,-25.390625,-18.5546875,51.7578125,0.0
311.0859375,-43.9453125,-24.4140625,-31.73828125,-36.1328125,-21.484375,0.0
311.08984375,-52.24609375,-28.80859375,-34.66796875,-27.34375,-9.765625,0.0
311.09375,-13.671875,-30.76171875,-32.2265625,11.23046875,31.73828125,0.0
311.09765625,7.32421875,-30.2734375,-32.71484375,-7.32421875,-58.59375,0.0
311.1015625,-41.50390625,-30.2734375,-26.85546875,-50.29296875,-56.15234375,0.0
311.10546875,-84.47265625,-34.1796875,-26.85546875,-35.15625,3.90625,0.0
311.109375,-83.49609375,-36.1328125,-34.1796875,-23.4375,-37.109375,0.0
311.11328125,-47.36328125,-29.296875,-25.87890625,-5.37109375,-22.4609375,0.0
311.1171875,-20.01953125,-28.80859375,-24.4140625,-1.46484375,25.87890625,0.0
311.12109375,-32.2265625,-32.2265625,-28.80859375,-42.96875,117.67578125,0.0
311.125,-51.26953125,-34.66796875,-30.2734375,-41.50390625,175.78125,0.0
311.12890625,-38.0859375,-33.69140625,-26.3671875,-5.859375,131.8359375,0.0
311.1328125,-15.625,-27.83203125,-20.5078125,5.859375,20.99609375,0.0
311.13671875,-10.7421875,-29.78515625,-26.3671875,-0.48828125,-59.5703125,0.0
311.140625,-15.625,-33.69140625,-26.85546875,-17.578125,-58.10546875,0.0
311.14453125,-27.34375,-29.296875,-27.34375,-38.57421875,-51.7578125,0.0
311.1484375,-19.53125,-30.76171875,-25.390625,-30.2734375,-59.5703125,0.0
311.15234375,-24.90234375,-31.73828125,-22.4609375,-15.13671875,-78.61328125,0.0
311.15625,-21.97265625,-30.76171875,-23.92578125,-18.5546875,-76.171875,0.0
311.16015625,-6.34765625,-44.43359375,-28.80859375,-40.0390625,-56.640625,0.0
311.1640625,-27.83203125,-48.828125,-24.4140625,-62.01171875,-65.91796875,0.0
311.16796875,-64.94140625,-39.0625,-21.97265625,-57.12890625,-125.9765625,0.0
311.171875,-47.8515625,-29.78515625,-18.5546875,-12.6953125,-89.35546875,0.0
311.17578125,-26.3671875,-25.87890625,-13.18359375,10.7421875,-42.48046875,0.0
311.1796875,-43.45703125,-20.99609375,-13.671875,-25.390625,-52.734375,0.0
311.18359375,-64.94140625,-27.83203125,-17.578125,-62.98828125,-33.69140625,0.0
311.1875,-74.21875,-30.2734375,-15.13671875,-42.96875,16.6015625,0.0
311.19140625,-59.5703125,-27.83203125,-16.11328125,-21.484375,-5.37109375,0.0
311.1953125,-42.48046875,-33.69140625,-21.484375,-31.25,-62.5,0.0
311.19921875,-33.203125,-39.55078125,-26.3671875,-55.6640625,-1.46484375,0.0
311.203125,-75.1953125,-41.015625,-28.3203125,-76.66015625,10.25390625,0.0
311.20703125,-99.609375,-41.50390625,-27.34375,-57.6171875,-43.45703125,0.0
311.2109375,-55.17578125,-35.64453125,-24.90234375,-8.7890625,-35.15625,0.0
311.21484375,-10.25390625,-24.90234375,-13.671875,1.953125,53.22265625,0.0
311.21875,1.953125,-23.92578125,-20.99609375,-38.57421875,59.5703125,0.0
311.22265625,-23.4375,-24.4140625,-34.1796875,-73.73046875,17.08984375,0.0
311.2265625,-56.15234375,-24.90234375,-38.0859375,-57.6171875,7.32421875,0.0
311.23046875,-58.59375,-24.90234375,-35.64453125,-36.1328125,-10.7421875,0.0
311.234375,-42.48046875,-22.4609375,-29.296875,-9.765625,-51.26953125,0.0
311.23828125,-28.3203125,-24.4140625,-33.69140625,-34.1796875,-46.875,0.0
311.2421875,-40.0390625,-26.3671875,-39.55078125,-94.23828125,11.23046875,0.0
311.24609375,-39.55078125,-27.83203125,-36.1328125,-83.49609375,-7.32421875,0.0
311.25,-31.25,-31.25,-29.296875,-41.50390625,-74.21875,0.0
311.25390625,-20.99609375,-22.94921875,-38.0859375,-32.2265625,-69.3359375,0.0
311.2578125,0.48828125,-18.5546875,-40.52734375,-37.59765625,32.71484375,0.0
311.26171875,-26.85546875,-23.92578125,-40.52734375,-64.94140625,49.8046875,0.0
311.265625,-60.546875,-29.296875,-39.0625,-79.1015625,52.734375,0.0
311.26953125,-45.41015625,-32.71484375,-32.2265625,-46.875,-9.27734375,0.0
311.2734375,-5.37109375,-20.5078125,-35.64453125,-18.06640625,-20.99609375,0.0
311.27734375,-16.6015625,-17.578125,-35.15625,-16.6015625,19.04296875,0.0
311.28125,-41.015625,-20.5078125,-30.76171875,-53.22265625,65.4296875,0.0
311.28515625,-53.22265625,-27.83203125,-36.62109375,-69.82421875,45.41015625,0.0
311.2890625,-64.94140625,-29.78515625,-31.73828125,-43.9453125,-16.11328125,0.0
311.29296875,-30.2734375,-17.578125,-21.484375,-26.3671875,24.90234375,0.0
311.296875,8.30078125,-16.11328125,-27.83203125,-44.43359375,16.6015625,0.0
311.30078125,-20.99609375,-27.34375,-34.1796875,-77.63671875,-58.10546875,0.0
311.3046875,-60.546875,-33.203125,-32.71484375,-66.89453125,-90.33203125,0.0
311.30859375,-42.96875,-31.25,-30.76171875,-45.8984375,-79.58984375,0.0
311.3125,-29.296875,-28.3203125,-26.3671875,-25.87890625,-86.9140625,0.0
311.31640625,-30.2734375,-31.73828125,-27.83203125,-16.6015625,-102.5390625,0.0
311.3203125,-4.8828125,-34.1796875,-33.203125,-42.48046875,22.94921875,0.0
311.32421875,-35.15625,-32.71484375,-40.52734375,-74.70703125,66.40625,0.0
311.328125,-78.125,-34.1796875,-41.9921875,-73.2421875,47.8515625,0.0
311.33203125,-44.43359375,-28.80859375,-32.2265625,-27.83203125,73.2421875,0.0
311.3359375,-3.41796875,-27.83203125,-29.296875,-10.25390625,-6.34765625,0.0
311.33984375,4.39453125,-35.64453125,-31.73828125,-38.57421875,-54.19921875,0.0
311.34375,-41.50390625,-41.50390625,-27.34375,-43.9453125,-112.3046875,0.0
311.34765625,-69.3359375,-46.875,-23.92578125,-9.765625,-104.00390625,0.0
311.3515625,-2.44140625,-38.0859375,-19.04296875,20.5078125,-18.5546875,0.0
311.35546875,22.4609375,-26.3671875,-21.97265625,13.671875,-8.7890625,0.0
311.359375,-17.08984375,-31.73828125,-26.85546875,-22.94921875,-24.90234375,0.0
311.36328125,-51.26953125,-41.50390625,-24.4140625,-49.8046875,-26.3671875,0.0
311.3671875,-41.015625,-42.96875,-20.99609375,-42.48046875,-12.20703125,0.0
311.37109375,-22.94921875,-39.0625,-21.484375,-11.71875,75.1953125,0.0
311.375,19.04296875,-32.71484375,-20.01953125,0.48828125,125.0,0.0
311.37890625,-3.90625,-34.1796875,-21.484375,-10.7421875,66.89453125,0.0
311.3828125,-44.43359375,-37.59765625,-29.296875,-50.78125,12.6953125,0.0
311.38671875,-37.109375,-36.1328125,-33.69140625,-48.828125,20.99609375,0.0
311.390625,-17.08984375,-31.25,-24.4140625,3.41796875,8.7890625,0.0
311.39453125,9.765625,-34.1796875,-15.625,0.48828125,13.671875,0.0
311.3984375,25.87890625,-38.57421875,-22.94921875,-54.19921875,45.8984375,0.0
311.40234375,-23.92578125,-36.62109375,-29.78515625,-72.265625,6.8359375,0.0
311.40625,-77.1484375,-42.48046875,-26.85546875,-41.9921875,-63.96484375,0.0
311.41015625,-75.1953125,-44.43359375,-26.3671875,-38.0859375,-45.41015625,0.0
311.4140625,-54.6875,-31.73828125,-21.97265625,-43.9453125,0.0,0.0
311.41796875,-15.625,-31.25,-25.87890625,-43.9453125,-36.1328125,0.0
311.421875,-16.6015625,-38.0859375,-28.80859375,-56.640625,-83.0078125,0.0
311.42578125,-59.5703125,-40.52734375,-28.80859375,-78.61328125,-138.671875,0.0
311.4296875,-57.12890625,-39.55078125,-29.78515625,-64.453125,-109.86328125,0.0
311.43359375,-43.9453125,-32.71484375,-28.3203125,-20.99609375,-26.3671875,0.0
311.4375,-27.34375,-27.34375,-34.1796875,-30.76171875,-7.32421875,0.0
311.44140625,-43.9453125,-40.52734375,-42.48046875,-78.125,41.50390625,0.0
311.4453125,-65.91796875,-45.8984375,-36.1328125,-93.26171875,63.4765625,0.0
311.44921875,-52.24609375,-42.48046875,-27.83203125,-53.22265625,-6.8359375,0.0
311.453125,-49.8046875,-35.15625,-28.3203125,-30.76171875,-29.78515625,0.0
311.45703125,-25.390625,-20.99609375,-28.80859375,-49.8046875,-111.328125,0.0
311.4609375,-14.16015625,-24.4140625,-28.80859375,-63.4765625,-166.9921875,0.0
311.46484375,-23.92578125,-38.0859375,-29.78515625,-57.12890625,-137.20703125,0.0
311.46875,-31.25,-45.41015625,-34.1796875,-50.78125,-153.3203125,0.0
311.47265625,-35.15625,-45.41015625,-30.2734375,-37.59765625,-186.5234375,0.0
311.4765625,-34.1796875,-47.8515625,-22.94921875,-30.2734375,-40.52734375,0.0
311.48046875,-42.48046875,-39.55078125,-25.390625,-52.734375,96.19140625,0.0
311.484375,-51.26953125,-44.43359375,-25.390625,-42.96875,116.2109375,0.0
311.48828125,-52.734375,-58.10546875,-19.53125,-30.76171875,30.2734375,0.0
311.4921875,-50.29296875,-38.57421875,-21.484375,-23.4375,-50.78125,0.0
311.49609375,-23.4375,-29.78515625,-25.390625,-19.53125,-76.66015625,0.0
311.5,-35.64453125,-30.76171875,-25.87890625,-69.3359375,-32.71484375,0.0
311.50390625,-78.61328125,-31.25,-22.4609375,-84.9609375,50.78125,0.0
311.5078125,-77.63671875,-38.57421875,-27.83203125,-51.7578125,47.8515625,0.0
311.51171875,-55.17578125,-36.1328125,-30.2734375,-2.9296875,36.1328125,0.0
311.515625,-31.25,-38.57421875,-29.78515625,-9.27734375,31.25,0.0
311.51953125,-42.48046875,-37.59765625,-37.59765625,-69.82421875,57.12890625,0.0
311.5234375,-64.453125,-28.3203125,-41.015625,-81.54296875,83.984375,0.0
311.52734375,-71.2890625,-36.62109375,-34.1796875,-51.7578125,57.12890625,0.0
311.53125,-58.10546875,-37.59765625,-25.87890625,-10.25390625,62.98828125,0.0
311.53515625,-26.85546875,-27.34375,-29.296875,-5.37109375,49.8046875,0.0
311.5390625,-14.6484375,-30.2734375,-40.0390625,-46.38671875,-25.390625,0.0
311.54296875,-27.83203125,-38.57421875,-41.50390625,-77.1484375,-26.85546875,0.0
311.546875,-30.2734375,-36.1328125,-38.0859375,-71.77734375,30.2734375,0.0
311.55078125,-45.8984375,-30.76171875,-36.1328125,-38.0859375,11.71875,0.0
311.5546875,-51.26953125,-28.3203125,-33.69140625,-11.71875,51.7578125,0.0
311.55859375,-39.0625,-17.578125,-33.69140625,-22.4609375,133.7890625,0.0
311.5625,-49.31640625,-21.484375,-35.64453125,-58.59375,51.26953125,0.0
311.56640625,-70.80078125,-40.52734375,-46.875,-67.3828125,-45.8984375,0.0
311.5703125,-64.94140625,-27.83203125,-49.8046875,-31.25,44.921875,0.0
311.57421875,-36.1328125,-22.94921875,-33.69140625,-14.6484375,66.89453125,0.0
311.578125,-7.32421875,-33.69140625,-32.2265625,-38.0859375,-35.64453125,0.0
311.58203125,-4.8828125,-34.1796875,-38.0859375,-60.546875,-51.7578125,0.0
311.5859375,-37.109375,-34.1796875,-31.25,-44.921875,-8.30078125,0.0
311.58984375,-77.63671875,-28.80859375,-30.2734375,-29.78515625,-24.90234375,0.0
311.59375,-67.87109375,-27.34375,-25.390625,-13.18359375,-42.48046875,0.0
311.59765625,-45.41015625,-23.92578125,-27.34375,-6.8359375,20.5078125,0.0
311.6015625,-64.94140625,-21.484375,-37.109375,-44.43359375,-11.23046875,0.0
311.60546875,-82.51953125,-27.83203125,-33.203125,-55.6640625,-147.4609375,0.0
311.609375,-69.3359375,-27.34375,-31.25,-15.13671875,-127.9296875,0.0
311.61328125,-44.921875,-14.16015625,-30.76171875,-3.41796875,-19.04296875,0.0
311.6171875,-23.92578125,-10.25390625,-33.69140625,-35.64453125,26.85546875,0.0
311.62109375,-38.57421875,-22.4609375,-38.0859375,-52.734375,49.31640625,0.0
311.625,-55.17578125,-24.90234375,-40.52734375,-54.19921875,78.125,0.0
311.62890625,-44.43359375,-27.83203125,-37.59765625,-27.83203125,62.01171875,0.0
311.6328125,-20.01953125,-31.25,-32.2265625,-8.30078125,18.5546875,0.0
311.63671875,-17.578125,-25.87890625,-33.69140625,-31.25,64.453125,0.0
311.640625,-46.875,-27.83203125,-34.66796875,-41.015625,78.125,0.0
311.64453125,-84.47265625,-34.66796875,-35.64453125,-51.7578125,48.33984375,0.0
311.6484375,-113.28125,-37.109375,-34.66796875,-35.64453125,6.8359375,0.0
311.65234375,-86.9140625,-37.59765625,-36.1328125,14.6484375,-4.39453125,0.0
311.65625,-46.38671875,-38.57421875,-43.45703125,23.92578125,-6.34765625,0.0
311.66015625,-35.15625,-33.203125,-51.26953125,8.7890625,-68.84765625,0.0
311.6640625,-62.98828125,-34.1796875,-47.8515625,-10.7421875,-94.7265625,0.0
311.66796875,-83.49609375,-35.64453125,-33.69140625,-27.34375,-8.7890625,0.0
311.671875,-54.19921875,-34.66796875,-24.4140625,9.765625,31.73828125,0.0
311.67578125,-15.625,-44.43359375,-27.34375,20.01953125,41.015625,0.0
311.6796875,-30.76171875,-48.33984375,-33.69140625,-24.4140625,44.921875,0.0
311.68359375,-69.82421875,-35.64453125,-35.15625,-37.59765625,-2.9296875,0.0
311.6875,-84.47265625,-29.78515625,-34.1796875,-26.85546875,-9.765625,0.0
311.69140625,-44.43359375,-29.296875,-31.73828125,-7.8125,11.71875,0.0
311.6953125,5.37109375,-26.85546875,-29.78515625,38.0859375,-26.3671875,0.0
311.69921875,-46.875,-32.71484375,-32.2265625,9.765625,-141.6015625,0.0
311.703125,-95.21484375,-38.0859375,-27.34375,-72.75390625,-151.85546875,0.0
311.70703125,-80.56640625,-35.64453125,-28.80859375,-49.8046875,-138.18359375,0.0
311.7109375,-64.453125,-30.76171875,-30.2734375,8.7890625,-60.05859375,0.0
311.71484375,-36.1328125,-29.78515625,-27.34375,18.5546875,-22.94921875,0.0
311.71875,-35.64453125,-36.62109375,-34.66796875,-2.9296875,-49.8046875,0.0
311.72265625,-58.59375,-38.57421875,-48.33984375,-35.15625,-30.76171875,0.0
311.7265625,-56.640625,-34.1796875,-51.7578125,-39.55078125,-61.5234375,0.0
311.73046875,-23.92578125,-38.57421875,-46.875,-6.34765625,-66.89453125,0.0
311.734375,-13.18359375,-37.109375,-41.015625,14.6484375,-44.43359375,0.0
311.73828125,-47.36328125,-27.83203125,-35.15625,-9.765625,-31.25,0.0
311.7421875,-69.82421875,-25.390625,-30.2734375,-43.45703125,-65.4296875,0.0
311.74609375,-79.58984375,-27.83203125,-28.3203125,-23.4375,-71.77734375,0.0
311.75,-79.58984375,-33.69140625,-30.76171875,-2.9296875,-1.46484375,0.0
311.75390625,-48.33984375,-38.57421875,-28.80859375,-15.13671875,27.83203125,0.0
311.7578125,-28.80859375,-34.66796875,-27.83203125,-15.13671875,-19.53125,0.0
311.76171875,-27.83203125,-32.2265625,-34.66796875,-47.8515625,-5.859375,0.0
311.765625,-60.05859375,-33.203125,-37.109375,-60.546875,-5.859375,0.0
311.76953125,-70.3125,-36.62109375,-29.296875,-10.7421875,-66.89453125,0.0
311.7734375,-42.96875,-37.109375,-23.4375,-0.9765625,-1.46484375,0.0
311.77734375,-27.83203125,-37.109375,-25.390625,-36.62109375,-11.23046875,0.0
311.78125,-38.57421875,-43.9453125,-30.2734375,-41.9921875,-55.6640625,0.0
311.78515625,-46.875,-43.9453125,-36.62109375,-31.73828125,-1.953125,0.0
311.7890625,-16.11328125,-39.55078125,-31.25,-5.859375,-20.01953125,0.0
311.79296875,0.0,-40.52734375,-30.2734375,33.69140625,-22.94921875,0.0
311.796875,8.30078125,-37.109375,-34.66796875,14.16015625,52.24609375,0.0
311.80078125,-35.15625,-38.0859375,-34.1796875,-37.59765625,42.96875,0.0
311.8046875,-60.546875,-39.55078125,-34.1796875,-43.9453125,62.98828125,0.0
311.80859375,-60.05859375,-43.45703125,-35.15625,-29.296875,47.36328125,0.0
311.8125,-41.9921875,-38.57421875,-28.80859375,-5.37109375,-91.30859375,0.0
311.81640625,-6.8359375,-25.390625,-19.53125,12.20703125,-81.0546875,0.0
311.8203125,7.32421875,-18.06640625,-32.2265625,-20.5078125,-51.26953125,0.0
311.82421875,-31.73828125,-22.94921875,-43.9453125,-59.5703125,-111.81640625,0.0
311.828125,-67.3828125,-24.90234375,-37.59765625,-47.36328125,-51.26953125,0.0
311.83203125,-46.38671875,-25.87890625,-30.76171875,-16.11328125,30.2734375,0.0
311.8359375,-15.625,-32.71484375,-24.4140625,-25.390625,54.6875,0.0
311.83984375,-40.0390625,-37.59765625,-26.85546875,-69.3359375,60.546875,0.0
311.84375,-72.75390625,-32.2265625,-38.57421875,-70.80078125,58.10546875,0.0
311.84765625,-82.51953125,-28.3203125,-43.45703125,-47.8515625,25.87890625,0.0
311.8515625,-55.17578125,-27.83203125,-47.36328125,-42.48046875,-12.6953125,0.0
311.85546875,-24.90234375,-31.73828125,-48.33984375,-35.15625,-38.57421875,0.0
311.859375,-39.0625,-31.73828125,-41.015625,-44.43359375,-73.2421875,0.0
311.86328125,-59.5703125,-25.87890625,-39.0625,-46.875,-124.51171875,0.0
311.8671875,-65.4296875,-32.2265625,-36.62109375,-20.99609375,-149.90234375,0.0
311.87109375,-46.38671875,-34.66796875,-35.64453125,-17.08984375,-86.42578125,0.0
311.875,-32.2265625,-30.76171875,-29.78515625,-33.69140625,-51.7578125,0.0
311.87890625,-34.1796875,-25.87890625,-30.76171875,-51.26953125,-25.87890625,0.0
311.8828125,-29.296875,-32.71484375,-38.57421875,-59.08203125,-19.53125,0.0
311.88671875,-41.50390625,-43.45703125,-36.1328125,-49.8046875,-32.71484375,0.0
311.890625,-57.12890625,-29.78515625,-34.1796875,-21.484375,-23.4375,0.0
311.89453125,-20.01953125,-19.04296875,-30.76171875,1.46484375,11.23046875,0.0
311.8984375,-11.23046875,-29.296875,-27.34375,-38.0859375,54.19921875,0.0
311.90234375,-49.8046875,-41.015625,-33.203125,-69.82421875,35.15625,0.0
311.90625,-62.5,-39.0625,-32.2265625,-42.96875,-18.06640625,0.0
311.91015625,-63.96484375,-24.90234375,-34.66796875,-23.4375,-30.76171875,0.0
311.9140625,-50.78125,-20.99609375,-40.0390625,-37.109375,-22.94921875,0.0
311.91796875,-32.2265625,-32.2265625,-37.59765625,-47.8515625,-39.55078125,0.0
311.921875,-53.22265625,-27.83203125,-36.62109375,-58.59375,-58.10546875,0.0
311.92578125,-78.61328125,-21.97265625,-40.0390625,-61.5234375,-67.3828125,0.0
311.9296875,-77.63671875,-22.94921875,-30.2734375,-45.41015625,-115.234375,0.0
311.93359375,-67.87109375,-29.78515625,-25.87890625,-23.4375,-44.921875,0.0
311.9375,-60.05859375,-37.109375,-35.15625,-37.59765625,-11.23046875,0.0
311.94140625,-61.03515625,-29.78515625,-43.9453125,-80.56640625,-55.6640625,0.0
311.9453125,-68.359375,-23.4375,-47.36328125,-73.2421875,20.01953125,0.0
311.94921875,-64.94140625,-23.4375,-41.9921875,-36.62109375,32.71484375,0.0
311.953125,-26.85546875,-31.73828125,-33.69140625,-16.6015625,-4.8828125,0.0
311.95703125,1.46484375,-32.2265625,-37.109375,-39.0625,45.8984375,0.0
311.9609375,-26.3671875,-26.85546875,-34.66796875,-52.734375,52.24609375,0.0
311.96484375,-51.7578125,-31.73828125,-30.2734375,-57.12890625,-31.73828125,0.0
311.96875,-62.5,-32.2265625,-23.92578125,-54.6875,-71.77734375,0.0
311.97265625,-65.4296875,-27.34375,-24.90234375,-26.85546875,-45.8984375,0.0
311.9765625,-42.48046875,-20.5078125,-31.25,-35.64453125,-39.0625,0.0
311.98046875,-17.08984375,-20.99609375,-27.83203125,-52.24609375,4.39453125,0.0
311.984375,-45.41015625,-38.0859375,-26.85546875,-58.59375,59.5703125,0.0
311.98828125,-56.15234375,-36.1328125,-25.87890625,-39.0625,57.12890625,0.0
311.9921875,-23.4375,-24.4140625,-27.83203125,-18.06640625,41.9921875,0.0
311.99609375,-14.6484375,-25.87890625,-32.71484375,-22.94921875,-0.48828125,0.0
312.0,-17.578125,-32.2265625,-43.45703125,-54.6875,-31.73828125,0.0
312.00390625,-24.4140625,-35.64453125,-44.921875,-52.734375,-53.22265625,0.0
312.0078125,-48.828125,-33.69140625,-38.0859375,-22.94921875,-136.23046875,0.0
312.01171875,-34.66796875,-29.78515625,-39.55078125,-23.92578125,-132.8125,0.0
312.015625,2.9296875,-27.83203125,-37.59765625,-26.85546875,-110.83984375,0.0
312.01953125,-10.7421875,-26.85546875,-34.66796875,-38.57421875,-64.94140625,0.0
312.0234375,-35.64453125,-32.71484375,-35.15625,-46.875,-79.1015625,0.0
312.02734375,-51.7578125,-40.52734375,-34.1796875,-35.64453125,-73.73046875,0.0
312.03125,-34.1796875,-38.57421875,-29.78515625,-27.34375,-19.53125,0.0
312.03515625,-4.39453125,-33.69140625,-28.80859375,-21.97265625,14.6484375,0.0
312.0390625,-3.90625,-26.3671875,-30.2734375,-49.8046875,-23.92578125,0.0
312.04296875,-31.25,-21.484375,-36.1328125,-67.87109375,-42.48046875,0.0
312.046875,-55.6640625,-28.80859375,-41.015625,-45.8984375,-24.4140625,0.0
312.05078125,-42.96875,-34.1796875,-38.0859375,-24.4140625,4.39453125,0.0
312.0546875,-13.18359375,-30.2734375,-28.3203125,-9.27734375,81.0546875,0.0
312.05859375,-13.18359375,-24.4140625,-29.78515625,-41.015625,104.98046875,0.0
312.0625,-25.390625,-25.390625,-34.66796875,-63.96484375,-14.16015625,0.0
312.06640625,-52.734375,-23.4375,-30.2734375,-39.0625,27.83203125,0.0
312.0703125,-52.734375,-19.04296875,-26.85546875,-1.953125,73.73046875,0.0
312.07421875,-16.11328125,-22.94921875,-31.73828125,2.44140625,-19.04296875,0.0
312.078125,-24.90234375,-26.85546875,-37.109375,-39.55078125,-8.7890625,0.0
312.08203125,-43.9453125,-32.71484375,-41.015625,-61.03515625,24.90234375,0.0
312.0859375,-45.41015625,-40.52734375,-34.66796875,-48.828125,63.4765625,0.0
312.08984375,-88.37890625,-41.50390625,-27.34375,-19.04296875,106.93359375,0.0
312.09375,-78.61328125,-39.0625,-30.76171875,-11.71875,67.87109375,0.0
312.09765625,-32.71484375,-35.15625,-32.71484375,-34.66796875,3.90625,0.0
312.1015625,-34.1796875,-30.76171875,-28.80859375,-54.6875,-42.96875,0.0
312.10546875,-48.33984375,-33.203125,-31.25,-52.24609375,-26.85546875,0.0
312.109375,-46.38671875,-32.2265625,-27.83203125,-21.97265625,-28.3203125,0.0
312.11328125,-24.4140625,-29.78515625,-25.87890625,-8.30078125,-116.2109375,0.0
312.1171875,-20.5078125,-28.3203125,-28.80859375,-22.4609375,-103.02734375,0.0
312.12109375,-40.0390625,-27.83203125,-30.2734375,-43.45703125,6.8359375,0.0
312.125,-82.51953125,-39.55078125,-29.78515625,-50.29296875,-22.94921875,0.0
312.12890625,-92.7734375,-39.0625,-24.90234375,-35.64453125,-10.25390625,0.0
312.1328125,-32.71484375,-22.94921875,-14.6484375,-15.625,34.1796875,0.0
312.13671875,-6.34765625,-18.5546875,-15.13671875,-27.83203125,-9.27734375,0.0
312.140625,-34.1796875,-25.390625,-25.390625,-62.5,-38.0859375,0.0
312.14453125,-55.17578125,-32.71484375,-33.69140625,-66.40625,25.87890625,0.0
312.1484375,-49.8046875,-40.52734375,-32.2265625,-44.921875,-1.46484375,0.0
312.15234375,-40.0390625,-42.48046875,-22.4609375,-26.85546875,-131.8359375,0.0
312.15625,-22.4609375,-37.59765625,-18.5546875,-10.25390625,-201.66015625,0.0
312.16015625,-26.3671875,-39.0625,-21.97265625,-41.9921875,-152.83203125,0.0
312.1640625,-66.89453125,-43.45703125,-24.90234375,-81.54296875,41.015625,0.0
312.16796875,-68.84765625,-43.45703125,-23.92578125,-52.734375,76.66015625,0.0
312.171875,-27.34375,-35.64453125,-20.5078125,-26.85546875,81.54296875,0.0
312.17578125,-15.13671875,-33.203125,-23.92578125,-41.9921875,68.84765625,0.0
312.1796875,-45.41015625,-33.203125,-33.203125,-61.5234375,35.64453125,0.0
312.18359375,-44.43359375,-39.0625,-38.0859375,-68.359375,92.28515625,0.0
312.1875,-33.203125,-34.1796875,-35.15625,-46.38671875,109.375,0.0
312.19140625,-40.0390625,-26.3671875,-26.85546875,-14.6484375,5.37109375,0.0
312.1953125,-12.20703125,-24.90234375,-24.90234375,-19.53125,-4.8828125,0.0
312.19921875,11.71875,-25.87890625,-35.64453125,-45.41015625,6.34765625,0.0
312.203125,-26.3671875,-29.296875,-41.50390625,-54.19921875,-21.484375,0.0
312.20703125,-51.7578125,-25.390625,-39.55078125,-22.94921875,-75.68359375,0.0
312.2109375,-21.97265625,-20.5078125,-31.25,6.8359375,-109.375,0.0
312.21484375,6.34765625,-26.85546875,-30.2734375,-12.6953125,-29.296875,0.0
312.21875,19.04296875,-33.69140625,-35.64453125,-35.64453125,98.6328125,0.0
312.22265625,8.30078125,-30.76171875,-35.64453125,-48.828125,83.984375,0.0
312.2265625,-53.22265625,-25.390625,-34.66796875,-36.62109375,15.625,0.0
312.23046875,-61.03515625,-22.94921875,-38.0859375,-28.3203125,-6.8359375,0.0
312.234375,0.48828125,-14.6484375,-35.15625,-31.73828125,20.01953125,0.0
312.23828125,0.48828125,-8.7890625,-29.296875,-36.1328125,85.44921875,0.0
312.2421875,2.44140625,-13.671875,-28.80859375,-39.0625,86.42578125,0.0
312.24609375,-13.671875,-23.92578125,-25.87890625,-40.0390625,32.2265625,0.0
312.25,-42.48046875,-22.4609375,-20.99609375,-10.25390625,-5.859375,0.0
312.25390625,-11.71875,-17.578125,-21.484375,6.34765625,-0.48828125,0.0
312.2578125,5.859375,-20.5078125,-27.34375,-26.3671875,-16.11328125,0.0
312.26171875,-32.2265625,-23.4375,-34.66796875,-53.7109375,2.44140625,0.0
312.265625,-55.17578125,-25.390625,-40.52734375,-61.03515625,17.578125,0.0
312.26953125,-54.6875,-22.94921875,-28.80859375,-29.78515625,-8.7890625,0.0
312.2734375,-36.62109375,-21.97265625,-21.484375,2.44140625,28.80859375,0.0
312.27734375,-9.27734375,-22.4609375,-30.2734375,-43.45703125,-40.0390625,0.0
312.28125,11.23046875,-20.01953125,-38.0859375,-78.61328125,-32.2265625,0.0
312.28515625,-30.2734375,-29.78515625,-39.55078125,-74.70703125,0.9765625,0.0
312.2890625,-78.125,-39.55078125,-36.62109375,-54.19921875,-36.1328125,0.0
312.29296875,-55.17578125,-38.0859375,-34.66796875,-29.296875,-25.390625,0.0
312.296875,-12.6953125,-31.73828125,-39.0625,-38.57421875,-12.6953125,0.0
312.30078125,-10.7421875,-28.3203125,-47.36328125,-65.4296875,5.37109375,0.0
312.3046875,-37.109375,-32.71484375,-49.31640625,-71.2890625,-2.9296875,0.0
312.30859375,-33.69140625,-31.25,-33.69140625,-31.25,0.0,0.0
312.3125,-3.90625,-36.1328125,-24.4140625,-1.46484375,-14.16015625,0.0
312.31640625,13.671875,-37.59765625,-37.59765625,-34.1796875,-90.8203125,0.0
312.3203125,-11.23046875,-29.296875,-37.59765625,-62.98828125,-97.65625,0.0
312.32421875,-62.5,-34.1796875,-33.69140625,-76.66015625,-115.72265625,0.0
312.328125,-73.73046875,-39.55078125,-37.59765625,-80.078125,-159.1796875,0.0
312.33203125,-29.296875,-41.50390625,-35.64453125,-38.0859375,-165.0390625,0.0
312.3359375,0.48828125,-37.59765625,-38.57421875,-28.3203125,-173.828125,0.0
312.33984375,0.48828125,-32.71484375,-44.43359375,-48.33984375,-196.2890625,0.0
312.34375,-36.1328125,-33.69140625,-39.55078125,-42.48046875,-189.453125,0.0
312.34765625,-43.9453125,-27.83203125,-31.25,-26.85546875,-104.98046875,0.0
312.3515625,-15.13671875,-31.25,-36.62109375,-9.27734375,-101.5625,0.0
312.35546875,1.953125,-32.2265625,-43.9453125,4.8828125,-34.1796875,0.0
312.359375,-6.8359375,-25.87890625,-41.50390625,-36.1328125,64.94140625,0.0
312.36328125,-18.06640625,-26.85546875,-35.64453125,-50.29296875,125.48828125,0.0
312.3671875,-4.8828125,-35.64453125,-31.25,-18.06640625,113.28125,0.0
312.37109375,-12.6953125,-37.59765625,-25.390625,-0.48828125,55.17578125,0.0
312.375,-36.1328125,-28.80859375,-26.3671875,-1.46484375,62.5,0.0
312.37890625,-35.15625,-19.53125,-30.2734375,-28.3203125,83.49609375,0.0
312.3828125,-39.55078125,-21.97265625,-31.73828125,-57.12890625,63.96484375,0.0
312.38671875,-54.19921875,-26.85546875,-31.25,-52.24609375,63.96484375,0.0
312.390625,-32.71484375,-26.85546875,-27.34375,-18.5546875,76.66015625,0.0
312.39453125,6.8359375,-20.99609375,-20.99609375,6.34765625,34.66796875,0.0
312.3984375,1.953125,-20.99609375,-21.484375,-11.71875,24.4140625,0.0
312.40234375,-40.52734375,-30.2734375,-29.78515625,-30.76171875,53.22265625,0.0
312.40625,-53.22265625,-35.15625,-30.2734375,-24.90234375,11.71875,0.0
312.41015625,-32.2265625,-37.59765625,-24.90234375,-8.7890625,-4.8828125,0.0
312.4140625,-23.4375,-41.015625,-23.4375,0.48828125,33.203125,0.0
312.41796875,-42.48046875,-39.0625,-24.90234375,-28.3203125,36.1328125,0.0
312.421875,-50.78125,-34.66796875,-27.83203125,-65.91796875,45.41015625,0.0
312.42578125,-66.40625,-36.1328125,-28.3203125,-54.19921875,30.2734375,0.0
312.4296875,-55.6640625,-40.0390625,-28.3203125,-13.671875,-36.62109375,0.0
312.43359375,-30.2734375,-31.73828125,-24.90234375,7.8125,22.4609375,0.0
312.4375,-32.2265625,-35.15625,-32.2265625,-4.8828125,52.24609375,0.0
312.44140625,-50.29296875,-39.55078125,-45.41015625,-20.99609375,43.45703125,0.0
312.4453125,-39.0625,-33.203125,-46.38671875,-29.78515625,14.16015625,0.0
312.44921875,-3.41796875,-26.3671875,-35.15625,-14.16015625,-66.89453125,0.0
312.453125,-7.32421875,-19.04296875,-30.2734375,37.59765625,-68.84765625,0.0
312.45703125,-29.78515625,-26.3671875,-32.71484375,13.18359375,-38.0859375,0.0
312.4609375,-29.78515625,-31.73828125,-34.1796875,-34.66796875,57.6171875,0.0
312.46484375,-31.73828125,-30.2734375,-36.62109375,-48.828125,79.1015625,0.0
312.46875,-34.66796875,-27.34375,-38.57421875,-37.109375,16.11328125,0.0
312.47265625,-42.48046875,-25.390625,-39.55078125,-5.859375,-48.828125,0.0
312.4765625,-37.59765625,-25.390625,-31.73828125,-8.7890625,-73.73046875,0.0
312.48046875,-19.04296875,-25.87890625,-26.3671875,-35.64453125,-35.64453125,0.0
312.484375,-38.0859375,-29.296875,-30.76171875,-42.48046875,9.27734375,0.0
312.48828125,-80.078125,-28.3203125,-38.57421875,-24.4140625,-10.7421875,0.0
312.4921875,-76.171875,-26.85546875,-35.64453125,-2.9296875,-20.5078125,0.0
312.49609375,-40.0390625,-30.76171875,-25.87890625,-10.25390625,40.0390625,0.0
312.5,-36.62109375,-27.34375,-24.90234375,-36.62109375,70.3125,0.0
312.50390625,-56.15234375,-28.3203125,-28.80859375,-53.7109375,-4.39453125,0.0
312.5078125,-62.5,-27.83203125,-32.71484375,-38.0859375,-81.54296875,0.0
312.51171875,-57.6171875,-27.34375,-33.69140625,-23.4375,-15.625,0.0
312.515625,-52.734375,-42.96875,-32.71484375,-25.87890625,18.5546875,0.0
312.51953125,-45.8984375,-46.38671875,-32.71484375,-46.38671875,-49.31640625,0.0
312.5234375,-48.33984375,-38.57421875,-40.52734375,-63.96484375,-72.75390625,0.0
312.52734375,-51.26953125,-34.1796875,-38.57421875,-47.8515625,-46.875,0.0
312.53125,-39.0625,-29.296875,-26.85546875,-15.625,-36.1328125,0.0
312.53515625,-41.50390625,-25.87890625,-31.25,-23.4375,15.625,0.0
312.5390625,-55.17578125,-31.25,-34.66796875,-67.3828125,52.24609375,0.0
312.54296875,-57.6171875,-35.64453125,-33.203125,-83.0078125,86.42578125,0.0
312.546875,-70.3125,-36.62109375,-33.69140625,-56.15234375,102.05078125,0.0
312.55078125,-71.2890625,-38.57421875,-31.25,-24.4140625,52.24609375,0.0
312.5546875,-49.8046875,-38.57421875,-32.2265625,-16.6015625,22.94921875,0.0
312.55859375,-32.71484375,-28.80859375,-25.87890625,-39.0625,41.50390625,0.0
312.5625,-40.52734375,-22.94921875,-26.3671875,-62.98828125,58.10546875,0.0
312.56640625,-56.15234375,-33.203125,-29.296875,-40.0390625,55.17578125,0.0
312.5703125,-43.45703125,-45.41015625,-22.4609375,3.41796875,3.90625,0.0
312.57421875,-34.66796875,-46.875,-26.3671875,5.859375,23.92578125,0.0
312.578125,-45.8984375,-41.9921875,-36.1328125,-48.33984375,18.06640625,0.0
312.58203125,-54.6875,-38.57421875,-36.1328125,-68.84765625,-20.5078125,0.0
312.5859375,-77.1484375,-36.62109375,-34.66796875,-55.17578125,39.55078125,0.0
312.58984375,-73.73046875,-40.0390625,-34.66796875,-34.1796875,31.73828125,0.0
312.59375,-60.05859375,-36.62109375,-32.71484375,-14.16015625,8.30078125,0.0
312.59765625,-44.921875,-31.73828125,-30.76171875,-20.99609375,-11.23046875,0.0
312.6015625,-41.50390625,-32.71484375,-33.69140625,-26.85546875,-75.1953125,0.0
312.60546875,-64.94140625,-36.1328125,-40.0390625,-29.296875,-136.71875,0.0
312.609375,-76.66015625,-38.57421875,-37.59765625,-23.92578125,-145.5078125,0.0
312.61328125,-50.78125,-32.71484375,-30.76171875,-23.4375,-112.79296875,0.0
312.6171875,-41.9921875,-27.83203125,-26.85546875,-37.109375,-66.89453125,0.0
312.62109375,-42.96875,-33.203125,-27.83203125,-48.33984375,-59.08203125,0.0
312.625,-63.4765625,-35.64453125,-36.62109375,-34.66796875,-75.68359375,0.0
312.62890625,-61.03515625,-34.1796875,-33.69140625,-20.5078125,-85.9375,0.0
312.6328125,-44.43359375,-32.71484375,-24.4140625,-12.6953125,-11.23046875,0.0
312.63671875,-32.71484375,-33.69140625,-31.25,-12.20703125,13.18359375,0.0
312.640625,-32.2265625,-35.15625,-41.9921875,-40.0390625,-20.5078125,0.0
312.64453125,-47.36328125,-32.71484375,-47.36328125,-62.98828125,-63.4765625,0.0
312.6484375,-48.828125,-30.2734375,-45.8984375,-45.8984375,-19.53125,0.0
312.65234375,-32.71484375,-25.87890625,-38.57421875,-11.71875,60.05859375,0.0
312.65625,-10.7421875,-22.94921875,-41.015625,-10.7421875,-24.90234375,0.0
312.66015625,-7.32421875,-31.25,-41.015625,-44.43359375,-41.50390625,0.0
312.6640625,-35.15625,-38.0859375,-30.76171875,-52.24609375,-43.9453125,0.0
312.66796875,-50.29296875,-46.38671875,-23.4375,-26.85546875,-71.2890625,0.0
312.671875,-38.57421875,-41.015625,-24.90234375,-2.44140625,-100.09765625,0.0
312.67578125,-9.27734375,-28.3203125,-25.87890625,-15.625,-77.1484375,0.0
312.6796875,-5.37109375,-22.4609375,-25.390625,-50.78125,-23.92578125,0.0
312.68359375,-43.45703125,-32.71484375,-26.85546875,-63.4765625,-30.76171875,0.0
312.6875,-36.1328125,-37.59765625,-28.3203125,-43.9453125,-21.97265625,0.0
312.69140625,-14.16015625,-31.73828125,-28.80859375,-20.99609375,-7.32421875,0.0
312.6953125,-40.52734375,-35.15625,-31.25,-20.5078125,-75.1953125,0.0
312.69921875,-37.109375,-38.57421875,-35.64453125,-42.48046875,-80.56640625,0.0
312.703125,-33.69140625,-43.9453125,-38.0859375,-72.75390625,-41.50390625,0.0
312.70703125,-44.43359375,-45.8984375,-36.1328125,-51.7578125,-28.80859375,0.0
312.7109375,-21.484375,-39.0625,-25.87890625,1.46484375,-9.27734375,0.0
312.71484375,-15.625,-38.0859375,-22.94921875,4.39453125,-55.6640625,0.0
312.71875,-28.80859375,-41.50390625,-28.80859375,-27.34375,-95.21484375,0.0
312.72265625,-38.0859375,-40.52734375,-29.78515625,-52.734375,-151.85546875,0.0
312.7265625,-53.22265625,-39.55078125,-26.3671875,-46.38671875,-213.8671875,0.0
312.73046875,-69.3359375,-42.48046875,-20.99609375,-4.39453125,-38.0859375,0.0
312.734375,-59.08203125,-46.875,-18.06640625,-1.46484375,108.3984375,0.0
312.73828125,-50.78125,-44.921875,-20.01953125,-34.66796875,15.13671875,0.0
312.7421875,-67.87109375,-40.52734375,-21.97265625,-50.78125,-4.39453125,0.0
312.74609375,-76.171875,-39.55078125,-23.4375,-45.41015625,-0.48828125,0.0
312.75,-69.82421875,-31.25,-26.85546875,-24.90234375,-19.53125,0.0
312.75390625,-37.59765625,-20.99609375,-30.2734375,-14.16015625,-3.90625,0.0
312.7578125,-5.859375,-13.671875,-29.78515625,-31.73828125,71.2890625,0.0
312.76171875,-40.52734375,-14.6484375,-33.203125,-50.78125,34.1796875,0.0
312.765625,-93.26171875,-21.97265625,-30.76171875,-51.7578125,-29.296875,0.0
312.76953125,-83.0078125,-29.296875,-24.90234375,0.0,4.8828125,0.0
312.7734375,-21.97265625,-34.1796875,-24.4140625,37.59765625,59.08203125,0.0
312.77734375,-26.85546875,-28.3203125,-28.3203125,-18.06640625,76.66015625,0.0
312.78125,-61.03515625,-19.53125,-27.34375,-71.77734375,23.92578125,0.0
312.78515625,-73.2421875,-25.390625,-29.296875,-71.2890625,54.19921875,0.0
312.7890625,-83.984375,-30.2734375,-37.109375,-44.43359375,84.9609375,0.0
312.79296875,-72.75390625,-30.2734375,-33.203125,-30.76171875,50.29296875,0.0
312.796875,-49.31640625,-35.15625,-35.64453125,-52.24609375,35.64453125,0.0
312.80078125,-56.15234375,-38.0859375,-39.0625,-78.125,26.3671875,0.0
312.8046875,-103.02734375,-41.015625,-34.66796875,-69.3359375,56.640625,0.0
312.80859375,-112.79296875,-39.55078125,-26.85546875,-41.015625,19.04296875,0.0
312.8125,-69.3359375,-41.50390625,-27.34375,-24.4140625,-46.38671875,0.0
312.81640625,-39.55078125,-43.9453125,-32.2265625,-39.0625,13.671875,0.0
312.8203125,-46.875,-31.73828125,-32.71484375,-71.77734375,6.8359375,0.0
312.82421875,-52.734375,-23.4375,-30.2734375,-63.96484375,-13.18359375,0.0
312.828125,-66.89453125,-24.90234375,-28.80859375,-39.0625,21.484375,0.0
312.83203125,-58.10546875,-23.92578125,-19.04296875,-13.18359375,63.4765625,0.0
312.8359375,-32.2265625,-27.83203125,-19.53125,-0.48828125,44.921875,0.0
312.83984375,-20.99609375,-30.76171875,-29.78515625,-34.66796875,-10.25390625,0.0
312.84375,-33.203125,-29.296875,-33.69140625,-58.59375,-1.46484375,0.0
312.84765625,-62.98828125,-34.66796875,-31.25,-32.2265625,39.0625,0.0
312.8515625,-57.6171875,-32.71484375,-18.06640625,-3.41796875,33.203125,0.0
312.85546875,-33.203125,-33.203125,-18.5546875,-12.20703125,-41.50390625,0.0
312.859375,-46.38671875,-29.296875,-31.73828125,-61.5234375,-42.48046875,0.0
312.86328125,-52.734375,-27.34375,-39.55078125,-92.7734375,-102.05078125,0.0
312.8671875,-46.38671875,-27.34375,-35.64453125,-61.03515625,-187.98828125,0.0
312.87109375,-47.36328125,-25.87890625,-33.203125,-12.6953125,-93.26171875,0.0
312.875,-46.38671875,-23.92578125,-35.15625,-7.32421875,37.109375,0.0
312.87890625,-30.2734375,-24.90234375,-35.64453125,-33.69140625,75.68359375,0.0
312.8828125,-48.33984375,-28.3203125,-39.55078125,-50.29296875,43.45703125,0.0
312.88671875,-62.5,-25.390625,-40.52734375,-40.0390625,7.8125,0.0
312.890625,-56.15234375,-27.83203125,-41.50390625,-29.78515625,11.23046875,0.0
312.89453125,-51.7578125,-24.4140625,-38.57421875,-20.5078125,2.44140625,0.0
312.8984375,-29.296875,-21.484375,-41.015625,-35.15625,12.6953125,0.0
312.90234375,-38.0859375,-27.83203125,-45.8984375,-73.2421875,15.625,0.0
312.90625,-71.77734375,-32.71484375,-42.48046875,-69.3359375,47.8515625,0.0
312.91015625,-63.4765625,-30.2734375,-30.2734375,-17.578125,-38.0859375,0.0
312.9140625,-20.5078125,-30.2734375,-22.94921875,4.39453125,-90.8203125,0.0
312.91796875,-13.18359375,-36.1328125,-29.78515625,-18.5546875,-27.34375,0.0
312.921875,-32.2265625,-38.0859375,-34.66796875,-31.73828125,-53.7109375,0.0
312.92578125,-22.4609375,-33.69140625,-33.69140625,-44.921875,-18.5546875,0.0
312.9296875,-26.3671875,-30.2734375,-25.87890625,-26.85546875,72.265625,0.0
312.93359375,-50.29296875,-40.52734375,-18.5546875,-1.953125,88.37890625,0.0
312.9375,-38.57421875,-41.50390625,-18.06640625,-26.85546875,-20.99609375,0.0
312.94140625,-51.26953125,-35.15625,-22.4609375,-44.921875,-22.4609375,0.0
312.9453125,-67.87109375,-36.1328125,-22.94921875,-48.828125,93.26171875,0.0
312.94921875,-63.4765625,-40.52734375,-18.06640625,-29.78515625,42.48046875,0.0
312.953125,-43.9453125,-40.0390625,-20.99609375,-10.7421875,39.55078125,0.0
312.95703125,-5.37109375,-29.296875,-23.4375,-17.08984375,95.703125,0.0
312.9609375,-11.71875,-25.390625,-27.83203125,-40.0390625,41.50390625,0.0
312.96484375,-45.41015625,-38.57421875,-32.71484375,-39.55078125,38.0859375,0.0
312.96875,-51.26953125,-46.875,-33.69140625,-20.5078125,78.61328125,0.0
312.97265625,-32.71484375,-41.9921875,-36.1328125,-0.48828125,-27.83203125,0.0
312.9765625,-14.6484375,-43.9453125,-39.55078125,-17.578125,-91.30859375,0.0
312.98046875,-21.97265625,-46.38671875,-41.015625,-66.89453125,-64.453125,0.0
312.984375,-23.92578125,-42.48046875,-39.55078125,-55.6640625,-53.7109375,0.0
312.98828125,-41.015625,-39.55078125,-33.203125,-12.6953125,-63.96484375,0.0
312.9921875,-54.6875,-41.9921875,-29.296875,-7.8125,-62.5,0.0
312.99609375,-60.546875,-49.8046875,-31.73828125,-31.73828125,-27.83203125,0.0
313.0,-59.08203125,-50.29296875,-36.62109375,-60.546875,-38.0859375,0.0
313.00390625,-55.6640625,-39.0625,-31.25,-64.94140625,-17.578125,0.0
313.0078125,-59.5703125,-32.71484375,-25.87890625,-43.9453125,-29.296875,0.0
313.01171875,-55.6640625,-29.296875,-34.1796875,-11.23046875,-52.734375,0.0
313.015625,-29.296875,-24.4140625,-28.3203125,3.90625,-6.34765625,0.0
313.01953125,-14.16015625,-27.83203125,-23.92578125,-33.69140625,-72.75390625,0.0
313.0234375,-68.359375,-39.55078125,-34.1796875,-76.171875,-102.05078125,0.0
313.02734375,-100.09765625,-48.33984375,-28.80859375,-68.84765625,-28.3203125,0.0
313.03125,-66.40625,-43.45703125,-26.3671875,-27.83203125,-11.71875,0.0
313.03515625,-33.203125,-41.015625,-28.3203125,-7.32421875,-79.1015625,0.0
313.0390625,-28.3203125,-42.48046875,-33.203125,-45.8984375,-20.99609375,0.0
313.04296875,-67.87109375,-41.015625,-40.52734375,-94.7265625,25.390625,0.0
313.046875,-76.66015625,-37.59765625,-35.64453125,-71.77734375,9.27734375,0.0
313.05078125,-61.5234375,-34.1796875,-26.3671875,-19.04296875,5.859375,0.0
313.0546875,-14.6484375,-25.87890625,-30.76171875,-19.53125,-73.73046875,0.0
313.05859375,19.53125,-24.90234375,-42.48046875,-33.69140625,-56.15234375,0.0
313.0625,-40.52734375,-36.62109375,-45.8984375,-51.7578125,-46.875,0.0
313.06640625,-60.05859375,-35.15625,-36.1328125,-47.8515625,-65.4296875,0.0
313.0703125,-47.36328125,-29.78515625,-26.85546875,-5.859375,-23.4375,0.0
313.07421875,-39.55078125,-34.1796875,-26.85546875,-10.25390625,-16.11328125,0.0
313.078125,-19.04296875,-24.4140625,-31.73828125,-22.4609375,-31.25,0.0
313.08203125,-14.6484375,-20.99609375,-41.015625,-33.203125,-20.01953125,0.0
313.0859375,-51.7578125,-32.2265625,-42.48046875,-39.0625,-59.08203125,0.0
313.08984375,-62.98828125,-31.25,-39.55078125,-29.296875,-67.3828125,0.0
313.09375,-37.59765625,-22.4609375,-35.15625,-26.3671875,-10.25390625,0.0
313.09765625,-29.78515625,-22.4609375,-35.64453125,-36.62109375,-51.7578125,0.0
313.1015625,-38.57421875,-28.3203125,-39.0625,-44.921875,-64.94140625,0.0
313.10546875,-82.51953125,-42.48046875,-42.48046875,-34.1796875,-32.2265625,0.0
313.109375,-105.46875,-49.8046875,-40.0390625,-33.203125,-31.25,0.0
313.11328125,-60.546875,-36.1328125,-32.71484375,-21.97265625,5.37109375,0.0
313.1171875,-28.3203125,-30.2734375,-29.296875,-6.8359375,-0.9765625,0.0
313.12109375,-41.9921875,-40.0390625,-31.25,-29.296875,-19.04296875,0.0
313.125,-52.24609375,-42.96875,-28.3203125,-27.83203125,-49.8046875,0.0
313.12890625,-35.15625,-35.15625,-24.4140625,-1.46484375,-20.5078125,0.0
313.1328125,-14.6484375,-30.76171875,-19.04296875,7.32421875,28.3203125,0.0
313.13671875,-24.90234375,-33.69140625,-22.94921875,-7.32421875,10.7421875,0.0
313.140625,-53.22265625,-36.62109375,-34.1796875,-21.97265625,7.32421875,0.0
313.14453125,-67.87109375,-38.57421875,-32.71484375,-9.765625,4.8828125,0.0
313.1484375,-71.77734375,-33.203125,-27.83203125,4.39453125,25.390625,0.0
313.15234375,-41.50390625,-28.80859375,-25.87890625,-3.41796875,14.6484375,0.0
313.15625,2.44140625,-34.66796875,-28.80859375,-11.23046875,-59.08203125,0.0
313.16015625,-9.27734375,-40.0390625,-32.71484375,-21.484375,-37.109375,0.0
313.1640625,-25.87890625,-40.0390625,-26.3671875,-26.3671875,12.6953125,0.0
313.16796875,-35.15625,-46.38671875,-23.92578125,-31.25,-64.94140625,0.0
313.171875,-14.6484375,-43.9453125,-30.76171875,-25.390625,-120.1171875,0.0
313.17578125,11.71875,-29.78515625,-30.76171875,-8.7890625,-72.265625,0.0
313.1796875,-1.953125,-28.3203125,-30.2734375,-9.27734375,-53.22265625,0.0
313.18359375,-54.6875,-43.9453125,-29.78515625,-24.4140625,-50.78125,0.0
313.1875,-78.61328125,-49.31640625,-32.71484375,-24.90234375,7.32421875,0.0
313.19140625,-48.828125,-39.0625,-29.78515625,-16.6015625,-39.55078125,0.0
313.1953125,-15.625,-29.78515625,-22.4609375,-24.4140625,-41.50390625,0.0
313.19921875,11.71875,-26.85546875,-23.92578125,-16.6015625,104.00390625,0.0
313.203125,-1.46484375,-25.87890625,-26.3671875,-10.25390625,182.6171875,0.0
313.20703125,-39.0625,-26.85546875,-29.296875,-30.76171875,64.94140625,0.0
313.2109375,-51.26953125,-33.203125,-31.73828125,-24.4140625,-7.8125,0.0
