timestamp,TP9,AF7,AF8,TP10,AUX,Marker,
4.00390625,-40.0390625,-8.30078125,-48.828125,-106.93359375,-199.21875,0.0
4.0078125,4.8828125,-99.609375,-17.578125,-0.9765625,374.51171875,0.0
4.01171875,-4.39453125,-25.390625,-5.37109375,33.203125,383.7890625,0.0
4.015625,-47.36328125,10.25390625,-46.38671875,-62.01171875,-187.01171875,0.0
4.01953125,-70.80078125,-97.16796875,-125.0,-137.6953125,-531.73828125,0.0
4.0234375,-69.3359375,-80.078125,-82.03125,-81.0546875,-320.3125,0.0
4.02734375,-44.921875,-68.84765625,0.48828125,-17.08984375,299.8046875,0.0
4.03125,2.44140625,-59.5703125,11.23046875,-10.25390625,454.58984375,0.0
4.03515625,-42.96875,10.25390625,-2.9296875,-73.2421875,-55.6640625,0.0
4.0390625,-93.75,75.1953125,-37.109375,-136.23046875,-466.796875,0.0
4.04296875,-57.6171875,59.08203125,-69.3359375,-71.77734375,-338.37890625,0.0
4.046875,-41.015625,25.87890625,-61.03515625,-49.8046875,287.59765625,0.0
4.05078125,-42.48046875,-95.21484375,-14.6484375,-70.80078125,442.87109375,0.0
4.0546875,-38.57421875,-112.79296875,3.41796875,-66.40625,-80.56640625,0.0
4.05859375,-45.41015625,-9.765625,-9.27734375,-23.4375,-501.953125,0.0
4.0625,-32.71484375,5.859375,-22.94921875,8.7890625,-413.0859375,0.0
4.06640625,-13.18359375,-19.53125,-22.4609375,-48.33984375,110.83984375,0.0
4.0703125,-17.08984375,-23.4375,1.46484375,-61.03515625,416.015625,0.0
4.07421875,-53.22265625,-55.17578125,9.27734375,-44.43359375,89.35546875,0.0
4.078125,-56.640625,-6.34765625,-26.3671875,-29.78515625,-373.53515625,0.0
4.08203125,-70.3125,22.4609375,-123.046875,-60.05859375,-340.8203125,0.0
4.0859375,-70.80078125,-109.86328125,-91.30859375,-108.3984375,135.25390625,0.0
4.08984375,-46.38671875,-55.6640625,-3.90625,-13.18359375,416.9921875,0.0
4.09375,-41.9921875,40.0390625,-14.16015625,-29.78515625,110.3515625,0.0
4.09765625,-32.2265625,43.9453125,-24.90234375,-70.3125,-391.6015625,0.0
4.1015625,-64.94140625,66.40625,-71.2890625,-81.54296875,-405.2734375,0.0
4.10546875,-88.8671875,7.8125,-67.87109375,-34.1796875,44.921875,0.0
4.109375,-55.17578125,-20.5078125,-4.8828125,-42.48046875,444.3359375,0.0
4.11328125,-49.31640625,-19.04296875,-14.6484375,-46.875,175.78125,0.0
4.1171875,-27.83203125,-46.875,-41.015625,-20.01953125,-418.9453125,0.0
4.12109375,3.90625,-111.328125,2.44140625,-24.90234375,-488.76953125,0.0
4.125,-42.96875,-160.64453125,-16.11328125,-63.4765625,-8.30078125,0.0
4.12890625,-81.0546875,-82.03125,-103.02734375,-105.46875,39.0625,0.0
4.1328125,-49.8046875,-1.953125,-105.46875,-109.86328125,33.203125,0.0
4.13671875,-32.71484375,38.0859375,-104.4921875,-58.59375,28.3203125,0.0
4.140625,-47.8515625,-25.87890625,-59.5703125,-70.3125,3.90625,0.0
4.14453125,-68.359375,-46.38671875,-13.671875,-139.16015625,-39.0625,0.0
4.1484375,-71.77734375,-18.06640625,-50.29296875,-85.44921875,-142.08984375,0.0
4.15234375,-38.0859375,1.46484375,-30.76171875,-12.6953125,-61.5234375,0.0
4.15625,-8.7890625,54.6875,-7.8125,28.3203125,9.27734375,0.0
4.16015625,-17.578125,49.31640625,-26.85546875,-28.80859375,-3.90625,0.0
4.1640625,-35.64453125,-11.23046875,-7.8125,-39.55078125,6.34765625,0.0
4.16796875,-63.96484375,-18.06640625,-19.04296875,-75.68359375,-31.25,0.0
4.171875,-55.17578125,53.22265625,-56.640625,-100.09765625,-3.90625,0.0
4.17578125,-28.80859375,92.7734375,-107.421875,-45.41015625,-224.609375,0.0
4.1796875,-22.94921875,77.1484375,-74.70703125,-88.37890625,-521.484375,0.0
4.18359375,-25.87890625,93.26171875,12.6953125,-72.75390625,-273.4375,0.0
4.1875,-47.36328125,93.26171875,2.9296875,-43.9453125,269.04296875,0.0
4.19140625,-48.828125,41.015625,-94.7265625,-80.56640625,378.90625,0.0
4.1953125,-55.17578125,69.82421875,-104.98046875,-156.73828125,-115.72265625,0.0
4.19921875,-55.17578125,95.703125,-93.75,-65.91796875,-444.3359375,0.0
4.203125,-66.40625,60.546875,-41.015625,26.3671875,-213.8671875,0.0
4.20703125,-65.4296875,32.71484375,45.41015625,-73.2421875,371.58203125,0.0
4.2109375,-48.33984375,32.71484375,9.765625,-110.3515625,536.62109375,0.0
4.21484375,-46.875,22.4609375,-35.64453125,-75.1953125,36.1328125,0.0
4.21875,-18.5546875,37.59765625,-31.73828125,-54.6875,-479.00390625,0.0
4.22265625,-4.39453125,79.1015625,-48.828125,-51.7578125,-366.2109375,0.0
4.2265625,-45.41015625,72.265625,-61.5234375,-68.359375,258.7890625,0.0
4.23046875,-72.75390625,17.578125,-73.73046875,-70.80078125,558.10546875,0.0
4.234375,-67.3828125,29.78515625,-101.5625,-79.58984375,94.7265625,0.0
4.23828125,-56.15234375,51.7578125,-26.85546875,-122.0703125,-447.265625,0.0
4.2421875,-54.6875,-10.25390625,12.20703125,-165.52734375,-403.3203125,0.0
4.24609375,-27.34375,17.578125,4.8828125,-61.03515625,97.16796875,0.0
4.25,1.953125,51.26953125,-23.4375,25.87890625,357.421875,0.0
4.25390625,-13.671875,0.9765625,-52.24609375,-39.0625,23.4375,0.0
4.2578125,-45.8984375,96.19140625,-90.33203125,-92.28515625,-480.46875,0.0
4.26171875,-40.52734375,206.0546875,-60.546875,-89.35546875,-473.6328125,0.0
4.265625,-26.85546875,177.24609375,11.23046875,-41.9921875,-5.37109375,0.0
4.26953125,-53.7109375,64.453125,-20.99609375,-45.8984375,362.3046875,0.0
4.2734375,-15.625,45.41015625,-67.87109375,-27.34375,24.90234375,0.0
4.27734375,-15.625,112.79296875,-44.43359375,-68.359375,-443.359375,0.0
4.28125,-84.47265625,110.83984375,-24.90234375,-153.80859375,-238.76953125,0.0
4.28515625,-70.3125,27.83203125,-11.71875,-92.7734375,131.8359375,0.0
4.2890625,-62.01171875,19.53125,-18.06640625,-86.42578125,378.41796875,0.0
4.29296875,-59.08203125,92.28515625,-28.3203125,-79.58984375,187.01171875,0.0
4.296875,-4.8828125,75.1953125,-13.18359375,-58.59375,-324.70703125,0.0
4.30078125,-50.29296875,57.6171875,-46.875,-121.58203125,-513.18359375,0.0
4.3046875,-104.98046875,131.8359375,-83.984375,-131.34765625,-150.87890625,0.0
4.30859375,-56.640625,118.1640625,-53.22265625,-75.68359375,349.609375,0.0
4.3125,3.90625,50.78125,-71.77734375,-54.6875,295.41015625,0.0
4.31640625,-10.25390625,51.7578125,-89.84375,-119.62890625,-295.41015625,0.0
4.3203125,-42.48046875,13.18359375,-9.765625,-68.359375,-493.65234375,0.0
4.32421875,-13.671875,-10.25390625,24.90234375,6.34765625,-62.98828125,0.0
4.328125,-4.39453125,25.390625,-6.34765625,-43.9453125,411.62109375,0.0
4.33203125,-64.94140625,78.61328125,-41.9921875,-79.58984375,342.7734375,0.0
4.3359375,-61.03515625,84.9609375,-34.1796875,-50.29296875,-284.66796875,0.0
4.33984375,1.953125,-42.48046875,13.18359375,-21.484375,-565.91796875,0.0
4.34375,-23.4375,17.578125,-14.6484375,-80.56640625,-222.65625,0.0
4.34765625,-50.29296875,135.7421875,-58.59375,-122.55859375,262.20703125,0.0
4.3515625,-28.80859375,94.7265625,-38.0859375,-95.703125,307.6171875,0.0
4.35546875,-54.6875,83.49609375,-27.83203125,-104.98046875,-140.625,0.0
4.359375,-54.6875,4.39453125,-20.5078125,-79.58984375,-489.74609375,0.0
4.36328125,-14.16015625,-103.515625,-38.57421875,-0.48828125,-271.97265625,0.0
4.3671875,-19.53125,20.01953125,-73.2421875,-25.87890625,305.6640625,0.0
4.37109375,-20.01953125,99.12109375,-47.8515625,-100.5859375,482.421875,0.0
4.375,-37.59765625,41.9921875,-41.50390625,-68.359375,-16.11328125,0.0
4.37890625,-35.64453125,38.57421875,-32.71484375,-19.04296875,-489.74609375,0.0
4.3828125,6.34765625,-35.15625,10.7421875,-34.1796875,-396.484375,0.0
4.38671875,-31.73828125,-55.17578125,2.9296875,-99.609375,181.15234375,0.0
4.390625,-70.3125,31.25,-32.2265625,-100.5859375,440.4296875,0.0
4.39453125,-48.828125,75.1953125,-56.15234375,-102.5390625,30.2734375,0.0
4.3984375,-16.6015625,30.76171875,-65.91796875,-88.37890625,-451.171875,0.0
4.40234375,6.8359375,-95.21484375,-41.015625,16.6015625,-333.0078125,0.0
4.40625,49.31640625,-2.9296875,31.73828125,38.57421875,206.54296875,0.0
4.41015625,30.2734375,111.328125,-45.8984375,-52.734375,502.44140625,0.0
4.4140625,-62.01171875,16.11328125,-141.11328125,-139.16015625,194.82421875,0.0
4.41796875,-40.0390625,-120.1171875,-27.83203125,-82.51953125,-372.0703125,0.0
4.421875,-35.15625,-53.7109375,-40.0390625,-39.55078125,-399.90234375,0.0
4.42578125,-71.77734375,48.33984375,-100.5859375,-93.75,88.37890625,0.0
4.4296875,-56.15234375,74.70703125,-5.859375,-112.79296875,417.96875,0.0
4.43359375,-41.9921875,3.90625,59.08203125,-81.54296875,145.01953125,0.0
4.4375,-25.87890625,-61.5234375,16.11328125,-57.12890625,-332.51953125,0.0
4.44140625,-23.4375,-26.3671875,-5.37109375,-41.9921875,-409.1796875,0.0
4.4453125,-55.6640625,-35.15625,-29.78515625,-71.2890625,18.5546875,0.0
4.44921875,-45.8984375,-106.4453125,-164.55078125,-116.2109375,405.2734375,0.0
4.453125,-19.53125,-41.9921875,-114.74609375,-95.21484375,137.6953125,0.0
4.45703125,-18.5546875,34.66796875,32.71484375,-152.83203125,-373.53515625,0.0
4.4609375,-33.203125,15.13671875,21.97265625,-112.3046875,-453.61328125,0.0
4.46484375,-62.5,-71.2890625,9.765625,-41.015625,-58.10546875,0.0
4.46875,-34.1796875,-30.76171875,8.30078125,-34.66796875,437.98828125,0.0
4.47265625,3.90625,-81.0546875,-62.01171875,-36.1328125,281.73828125,0.0
4.4765625,-25.390625,-138.18359375,-74.21875,-80.078125,-291.9921875,0.0
4.48046875,-28.3203125,67.3828125,3.41796875,-94.23828125,-412.59765625,0.0
4.484375,-11.23046875,139.6484375,-11.71875,-79.58984375,-129.8828125,0.0
4.48828125,-67.87109375,39.55078125,-52.734375,-76.171875,332.51953125,0.0
4.4921875,-100.09765625,-34.66796875,-75.68359375,-125.9765625,390.13671875,0.0
4.49609375,-78.61328125,-73.2421875,-51.26953125,-166.9921875,-137.20703125,0.0
4.5,-25.390625,-86.9140625,1.46484375,-85.44921875,-458.0078125,0.0
4.50390625,3.41796875,-42.48046875,14.6484375,-38.0859375,-128.90625,0.0
4.5078125,-34.66796875,4.39453125,-64.94140625,-71.77734375,432.12890625,0.0
4.51171875,-48.828125,-28.80859375,-118.65234375,-53.22265625,433.10546875,0.0
4.515625,-58.10546875,-29.296875,-61.03515625,-89.35546875,-57.6171875,0.0
4.51953125,-10.25390625,2.44140625,-12.20703125,-91.30859375,-363.76953125,0.0
4.5234375,69.3359375,-54.19921875,2.44140625,0.0,-197.265625,0.0
4.52734375,-3.41796875,-121.09375,-28.80859375,-62.01171875,301.7578125,0.0
4.53125,-61.03515625,-24.4140625,-24.4140625,-101.07421875,372.0703125,0.0
4.53515625,-16.11328125,-25.390625,-26.3671875,-118.1640625,-111.328125,0.0
4.5390625,-6.34765625,-108.88671875,-28.80859375,-124.0234375,-416.015625,0.0
4.54296875,-44.43359375,5.859375,-33.203125,-35.15625,-247.55859375,0.0
4.546875,-66.89453125,124.0234375,-84.47265625,-68.359375,304.6875,0.0
4.55078125,-52.24609375,59.5703125,-114.74609375,-92.28515625,444.82421875,0.0
4.5546875,-44.43359375,-44.921875,-50.78125,-123.046875,-59.5703125,0.0
4.55859375,0.48828125,-62.98828125,42.48046875,-54.6875,-474.609375,0.0
4.5625,-1.46484375,-111.328125,39.55078125,-5.37109375,-395.5078125,0.0
4.56640625,-70.80078125,-46.875,-26.3671875,-83.984375,183.59375,0.0
4.5703125,-68.84765625,29.78515625,-53.7109375,-145.99609375,384.765625,0.0
4.57421875,-52.24609375,8.30078125,-96.19140625,-119.62890625,-79.58984375,0.0
4.578125,-41.50390625,24.90234375,-105.46875,-66.89453125,-542.48046875,0.0
4.58203125,29.296875,51.26953125,34.66796875,21.97265625,-497.55859375,0.0
4.5859375,53.7109375,-52.734375,79.58984375,66.89453125,19.04296875,0.0
4.58984375,-22.94921875,-133.30078125,-37.109375,-49.31640625,416.015625,0.0
4.59375,-52.24609375,-59.08203125,-67.87109375,-73.73046875,198.73046875,0.0
4.59765625,-62.01171875,1.953125,-76.171875,-88.8671875,-321.2890625,0.0
4.6015625,-65.4296875,19.04296875,-46.38671875,-104.98046875,-358.88671875,0.0
4.60546875,-77.63671875,-18.06640625,-14.16015625,-83.49609375,64.453125,0.0
4.609375,-46.38671875,-19.53125,-27.83203125,-102.05078125,405.76171875,0.0
4.61328125,11.71875,-62.98828125,-29.78515625,-32.71484375,188.96484375,0.0
4.6171875,7.32421875,-11.71875,-8.30078125,-17.08984375,-382.8125,0.0
4.62109375,-50.78125,70.3125,-45.41015625,-74.21875,-496.58203125,0.0
4.625,-80.078125,-35.15625,-73.2421875,-44.921875,-67.87109375,0.0
4.62890625,-47.36328125,-48.33984375,-35.15625,-59.08203125,415.52734375,0.0
4.6328125,-30.76171875,20.99609375,-22.4609375,-58.10546875,253.90625,0.0
4.63671875,-45.8984375,-32.71484375,-89.84375,-62.5,-291.015625,0.0
4.640625,-2.9296875,-79.58984375,-103.515625,-54.19921875,-467.28515625,0.0
4.64453125,18.06640625,-1.46484375,33.69140625,-40.52734375,-156.25,0.0
4.6484375,-29.78515625,-0.48828125,59.08203125,-47.36328125,304.6875,0.0
4.65234375,-18.06640625,-86.9140625,-5.859375,-20.99609375,227.05078125,0.0
4.65625,-26.3671875,-102.05078125,-40.52734375,-59.5703125,-250.9765625,0.0
4.66015625,-58.10546875,-86.42578125,-30.76171875,-86.9140625,-417.48046875,0.0
4.6640625,-71.2890625,-45.8984375,-30.76171875,-65.91796875,-142.578125,0.0
4.66796875,-51.26953125,74.70703125,-38.0859375,-39.55078125,382.8125,0.0
4.671875,-20.5078125,146.484375,-55.6640625,-28.80859375,325.1953125,0.0
4.67578125,-41.015625,53.22265625,-94.7265625,-48.828125,-228.02734375,0.0
4.6796875,-27.83203125,-7.32421875,-54.19921875,-68.84765625,-395.5078125,0.0
4.68359375,3.90625,-48.828125,4.8828125,-23.4375,-162.109375,0.0
4.6875,-4.39453125,-72.265625,8.7890625,5.37109375,358.3984375,0.0
4.69140625,-31.25,51.26953125,-18.06640625,-29.296875,410.64453125,0.0
4.6953125,-30.2734375,84.9609375,-87.890625,-61.5234375,-148.92578125,0.0
4.69921875,-59.08203125,62.01171875,-62.01171875,-99.609375,-494.62890625,0.0
4.703125,-45.8984375,21.484375,11.71875,-62.01171875,-318.84765625,0.0
4.70703125,-19.53125,15.13671875,20.5078125,21.97265625,263.671875,0.0
4.7109375,-34.66796875,41.015625,23.92578125,-10.25390625,409.66796875,0.0
4.71484375,-8.30078125,-1.953125,-13.671875,-22.94921875,-176.7578125,0.0
4.71875,-4.39453125,33.69140625,-106.93359375,-44.43359375,-526.85546875,0.0
4.72265625,-13.671875,82.03125,-88.8671875,-50.29296875,-293.9453125,0.0
4.7265625,24.4140625,29.78515625,46.38671875,3.90625,263.671875,0.0
4.73046875,17.08984375,47.8515625,72.75390625,-11.23046875,526.85546875,0.0
4.734375,-35.15625,34.66796875,-10.7421875,-44.921875,73.2421875,0.0
4.73828125,-53.7109375,-27.83203125,-85.9375,-84.47265625,-457.03125,0.0
4.7421875,-73.2421875,30.2734375,-132.32421875,-101.07421875,-463.37890625,0.0
4.74609375,-31.73828125,88.8671875,-56.15234375,-63.4765625,12.6953125,0.0
4.75,40.52734375,57.12890625,32.71484375,30.2734375,359.86328125,0.0
4.75390625,-10.7421875,45.41015625,8.7890625,16.11328125,31.25,0.0
4.7578125,-33.203125,46.875,22.4609375,-31.73828125,-518.5546875,0.0
4.76171875,-34.1796875,4.39453125,14.16015625,-85.9375,-492.1875,0.0
4.765625,-61.5234375,-11.23046875,-29.296875,-33.203125,48.828125,0.0
4.76953125,-37.59765625,-2.44140625,-24.4140625,-18.5546875,388.18359375,0.0
4.7734375,-45.41015625,44.43359375,-53.7109375,-94.23828125,142.08984375,0.0
4.77734375,-32.2265625,44.921875,-88.37890625,-51.26953125,-304.19921875,0.0
4.78125,6.34765625,-32.71484375,-47.36328125,2.9296875,-408.203125,0.0
4.78515625,-37.59765625,-24.90234375,-55.17578125,-42.96875,-92.28515625,0.0
4.7890625,-67.3828125,62.01171875,-60.546875,-43.9453125,407.2265625,0.0
4.79296875,-60.05859375,70.80078125,-41.9921875,-19.53125,339.35546875,0.0
4.796875,-52.734375,33.203125,-47.36328125,-21.484375,-182.12890625,0.0
4.80078125,-13.18359375,-3.90625,-6.34765625,-47.8515625,-374.0234375,0.0
4.8046875,-7.8125,-21.97265625,25.87890625,-44.921875,-20.5078125,0.0
4.80859375,-39.0625,-20.99609375,5.859375,-5.859375,478.515625,0.0
4.8125,-33.203125,-77.63671875,-44.921875,-29.78515625,351.5625,0.0
4.81640625,-26.85546875,-45.8984375,-58.59375,-60.05859375,-214.84375,0.0
4.8203125,-31.73828125,42.96875,-26.85546875,-31.73828125,-447.265625,0.0
4.82421875,-59.08203125,55.6640625,-51.26953125,-58.59375,-126.46484375,0.0
4.828125,-75.68359375,41.015625,-61.5234375,-96.6796875,354.98046875,0.0
4.83203125,-30.2734375,10.25390625,-38.57421875,-94.7265625,350.09765625,0.0
4.8359375,25.87890625,-55.17578125,-21.97265625,-0.48828125,-195.3125,0.0
4.83984375,-16.6015625,-113.76953125,-49.31640625,-4.8828125,-458.984375,0.0
4.84375,-75.1953125,-40.0390625,-79.58984375,-42.96875,-160.64453125,0.0
4.84765625,-63.96484375,60.05859375,-28.3203125,-49.8046875,365.72265625,0.0
4.8515625,-10.7421875,27.34375,-37.109375,-23.4375,278.3203125,0.0
4.85546875,2.44140625,-42.48046875,-28.80859375,-20.01953125,-353.02734375,0.0
4.859375,-50.78125,-29.296875,26.3671875,-52.734375,-625.0,0.0
4.86328125,-89.35546875,-23.4375,-4.39453125,-78.61328125,-391.11328125,0.0
4.8671875,-72.75390625,-41.9921875,-28.80859375,-69.3359375,101.07421875,0.0
4.87109375,-3.90625,-71.77734375,-24.90234375,-42.48046875,221.19140625,0.0
4.875,28.80859375,-8.7890625,-17.08984375,-18.06640625,-272.4609375,0.0
4.87890625,8.7890625,42.48046875,-5.37109375,-20.99609375,-523.4375,0.0
4.8828125,-31.25,-51.26953125,-10.7421875,-15.625,-235.3515625,0.0
4.88671875,-48.33984375,-175.29296875,-48.33984375,-37.109375,229.4921875,0.0
4.890625,-77.1484375,-44.43359375,-129.8828125,-70.3125,370.1171875,0.0
4.89453125,-77.63671875,100.09765625,-84.9609375,-85.44921875,-146.97265625,0.0
4.8984375,11.71875,-48.33984375,37.109375,-50.29296875,-595.21484375,0.0
4.90234375,-29.296875,-90.8203125,-24.4140625,-34.66796875,-424.8046875,0.0
4.90625,-98.6328125,60.546875,-75.68359375,-92.7734375,119.62890625,0.0
4.91015625,-46.38671875,23.92578125,-86.9140625,-78.125,531.25,0.0
4.9140625,-58.59375,-21.484375,-63.4765625,-36.62109375,255.859375,0.0
4.91796875,-81.54296875,22.94921875,-4.39453125,-85.44921875,-354.98046875,0.0
4.921875,-44.921875,-49.8046875,-23.4375,-74.21875,-392.08984375,0.0
4.92578125,6.8359375,-126.46484375,-30.76171875,5.859375,115.72265625,0.0
4.9296875,62.01171875,-80.078125,27.83203125,32.2265625,485.3515625,0.0
4.93359375,31.73828125,0.48828125,-6.34765625,-9.27734375,184.5703125,0.0
4.9375,-47.36328125,67.87109375,-72.265625,-85.9375,-394.04296875,0.0
4.94140625,-81.0546875,27.83203125,-26.3671875,-78.125,-373.53515625,0.0
4.9453125,-53.7109375,-40.0390625,-0.9765625,-52.734375,85.44921875,0.0
4.94921875,-23.4375,-28.80859375,-41.9921875,-70.3125,449.70703125,0.0
4.953125,-41.50390625,-11.23046875,-77.63671875,-88.8671875,251.953125,0.0
4.95703125,-58.59375,-37.109375,-86.42578125,-69.3359375,-300.78125,0.0
4.9609375,-40.0390625,-15.13671875,-81.54296875,-79.1015625,-401.85546875,0.0
4.96484375,13.671875,-62.01171875,-10.25390625,-33.203125,18.06640625,0.0
4.96875,38.57421875,-211.9140625,70.3125,60.05859375,548.33984375,0.0
4.97265625,-21.484375,-30.76171875,28.3203125,-18.5546875,432.6171875,0.0
4.9765625,-71.2890625,203.61328125,-60.546875,-149.4140625,-180.17578125,0.0
4.98046875,-57.12890625,76.66015625,-68.84765625,-91.30859375,-362.79296875,0.0
4.984375,-38.57421875,-20.01953125,-48.828125,8.7890625,-49.31640625,0.0
4.98828125,0.48828125,27.34375,-23.4375,-14.6484375,428.22265625,0.0
4.9921875,47.36328125,11.71875,6.34765625,16.6015625,295.41015625,0.0
4.99609375,20.01953125,-40.0390625,11.71875,1.953125,-271.97265625,0.0
5.0,-13.18359375,-87.40234375,-0.48828125,-64.94140625,-416.015625,0.0
5.00390625,-69.82421875,-72.265625,-44.43359375,-90.33203125,-136.71875,0.0
5.0078125,-105.95703125,-84.47265625,-102.05078125,-125.0,317.3828125,0.0
5.01171875,17.08984375,-126.953125,-35.64453125,-14.16015625,411.62109375,0.0
5.015625,85.9375,75.68359375,46.875,90.33203125,-97.65625,0.0
5.01953125,-25.390625,167.96875,-6.8359375,-48.828125,-404.78515625,0.0
5.0234375,-116.2109375,33.69140625,-125.0,-142.578125,-185.546875,0.0
5.02734375,-136.71875,39.55078125,-106.4453125,-116.69921875,235.3515625,0.0
5.03125,-89.35546875,78.125,-8.7890625,-116.2109375,354.98046875,0.0
5.03515625,-28.3203125,76.66015625,-64.453125,-84.9609375,-70.80078125,0.0
5.0390625,46.38671875,-28.3203125,-22.94921875,-27.34375,-441.40625,0.0
5.04296875,64.94140625,-105.46875,11.71875,-11.71875,-296.875,0.0
5.046875,1.953125,31.73828125,-4.8828125,-16.6015625,217.28515625,0.0
5.05078125,-112.3046875,156.25,-8.30078125,-146.97265625,495.1171875,0.0
5.0546875,-186.5234375,164.55078125,-78.125,-230.95703125,20.5078125,0.0
5.05859375,-110.3515625,80.56640625,-97.65625,-120.1171875,-467.28515625,0.0
5.0625,28.80859375,4.8828125,-6.34765625,-29.78515625,-317.3828125,0.0
5.06640625,10.25390625,-53.7109375,-106.93359375,-59.5703125,221.6796875,0.0
5.0703125,-111.328125,-20.5078125,-189.94140625,-166.9921875,424.8046875,0.0
5.07421875,-89.84375,189.453125,-23.92578125,-142.08984375,-3.41796875,0.0
5.078125,-95.703125,262.6953125,-15.625,-137.20703125,-474.12109375,0.0
5.08203125,-167.96875,170.8984375,-50.78125,-132.8125,-384.27734375,0.0
5.0859375,-104.00390625,90.33203125,-100.09765625,-50.29296875,142.578125,0.0
5.08984375,20.99609375,82.03125,-119.62890625,-62.98828125,429.6875,0.0
5.09375,-41.015625,39.55078125,-122.0703125,-211.9140625,106.93359375,0.0
5.09765625,-120.1171875,76.66015625,-112.79296875,-141.11328125,-416.50390625,0.0
5.1015625,-52.24609375,60.546875,-0.48828125,5.859375,-364.2578125,0.0
5.10546875,-52.24609375,15.625,37.59765625,-66.89453125,154.296875,0.0
5.109375,-129.39453125,114.74609375,-91.796875,-194.82421875,497.55859375,0.0
5.11328125,-199.21875,100.5859375,-221.6796875,-251.953125,235.83984375,0.0
5.1171875,-194.3359375,5.859375,-180.17578125,-216.30859375,-373.046875,0.0
5.12109375,-142.578125,-75.1953125,-138.18359375,-190.4296875,-442.87109375,0.0
5.125,-69.82421875,-72.75390625,-78.61328125,-106.4453125,6.8359375,0.0
5.12890625,-123.53515625,-45.41015625,-83.49609375,-120.60546875,395.01953125,0.0
5.1328125,-51.26953125,19.04296875,0.9765625,-94.7265625,264.6484375,0.0
5.13671875,-90.8203125,40.52734375,-20.5078125,-173.828125,-271.97265625,0.0
5.140625,-234.375,-68.359375,-91.30859375,-298.828125,-509.27734375,0.0
5.14453125,-226.07421875,-101.07421875,-207.51953125,-253.90625,-177.24609375,0.0
5.1484375,-218.26171875,-64.94140625,-305.17578125,-258.30078125,324.70703125,0.0
5.15234375,-210.9375,36.1328125,-22.94921875,-251.46484375,226.5625,0.0
5.15625,-164.55078125,19.53125,15.625,-204.1015625,-295.8984375,0.0
5.16015625,-140.625,-121.09375,-89.84375,-201.171875,-469.7265625,0.0
5.1640625,-237.3046875,-49.31640625,-104.4921875,-313.96484375,-231.93359375,0.0
5.16796875,-273.92578125,34.1796875,-99.609375,-360.83984375,243.1640625,0.0
5.171875,-220.21484375,-115.234375,-135.7421875,-252.44140625,254.39453125,0.0
5.17578125,-184.5703125,-219.7265625,-108.88671875,-234.375,-245.60546875,0.0
5.1796875,-198.2421875,-77.1484375,-131.34765625,-245.1171875,-499.51171875,0.0
5.18359375,-174.8046875,-76.171875,-78.125,-195.3125,-278.80859375,0.0
5.1875,-222.16796875,-19.53125,-109.86328125,-279.296875,261.23046875,0.0
5.19140625,-163.0859375,15.625,-118.1640625,-291.50390625,410.64453125,0.0
5.1953125,-145.99609375,65.4296875,-18.5546875,-278.3203125,-97.65625,0.0
5.19921875,-280.2734375,101.07421875,-97.16796875,-356.93359375,-406.73828125,0.0
5.203125,-302.24609375,-41.9921875,-256.8359375,-341.30859375,-276.85546875,0.0
5.20703125,-280.2734375,-38.57421875,-314.453125,-326.66015625,156.25,0.0
5.2109375,-208.0078125,-127.9296875,-70.3125,-293.45703125,353.02734375,0.0
5.21484375,-105.46875,-339.84375,93.26171875,-184.5703125,-41.9921875,0.0
5.21875,-225.5859375,-115.234375,-12.6953125,-253.41796875,-458.984375,0.0
5.22265625,-336.9140625,-28.80859375,-166.50390625,-357.91015625,-366.69921875,0.0
5.2265625,-260.7421875,-60.546875,-171.875,-277.83203125,141.11328125,0.0
5.23046875,-210.44921875,42.96875,-56.640625,-256.8359375,367.1875,0.0
5.234375,-251.46484375,-24.4140625,-148.92578125,-329.58984375,-72.265625,0.0
5.23828125,-270.99609375,-87.890625,-215.33203125,-291.50390625,-485.83984375,0.0
5.2421875,-231.4453125,-14.6484375,-116.2109375,-238.76953125,-313.96484375,0.0
5.24609375,-179.19921875,-52.24609375,-121.58203125,-215.8203125,123.53515625,0.0
5.25,-167.48046875,-54.19921875,-112.79296875,-201.171875,358.3984375,0.0
5.25390625,-195.80078125,47.8515625,-21.97265625,-271.97265625,190.91796875,0.0
5.2578125,-217.28515625,106.4453125,-10.25390625,-265.625,-237.3046875,0.0
5.26171875,-229.98046875,148.92578125,-116.2109375,-227.05078125,-418.45703125,0.0
5.265625,-181.640625,24.90234375,-97.65625,-182.6171875,-112.3046875,0.0
5.26953125,-99.609375,-251.46484375,-27.83203125,-142.578125,300.29296875,0.0
5.2734375,-131.34765625,-57.6171875,-84.9609375,-202.63671875,144.04296875,0.0
5.27734375,-160.64453125,212.40234375,-93.26171875,-184.5703125,-443.84765625,0.0
5.28125,-218.75,93.75,-130.37109375,-235.3515625,-456.0546875,0.0
5.28515625,-203.125,26.85546875,-72.265625,-244.140625,-25.390625,0.0
5.2890625,-80.078125,-3.41796875,12.6953125,-146.484375,381.34765625,0.0
5.29296875,-33.203125,3.90625,-4.39453125,-115.234375,254.39453125,0.0
5.296875,-114.74609375,47.8515625,-99.609375,-215.33203125,-284.66796875,0.0
5.30078125,-112.3046875,37.59765625,-125.0,-181.640625,-401.3671875,0.0
5.3046875,-15.13671875,19.53125,-0.9765625,8.30078125,-47.8515625,0.0
5.30859375,-90.33203125,-2.44140625,-23.4375,-74.70703125,437.98828125,0.0
5.3125,-126.953125,26.85546875,-24.4140625,-187.98828125,375.9765625,0.0
5.31640625,-88.8671875,133.7890625,-3.90625,-150.390625,-189.94140625,0.0
5.3203125,-133.7890625,125.48828125,-59.08203125,-163.57421875,-471.19140625,0.0
5.32421875,-81.0546875,47.8515625,-58.10546875,-128.41796875,-161.62109375,0.0
5.328125,-39.0625,119.62890625,-42.48046875,-83.49609375,310.546875,0.0
5.33203125,-127.44140625,188.4765625,-42.96875,-134.765625,272.94921875,0.0
5.3359375,-92.28515625,110.3515625,-83.984375,-124.0234375,-257.32421875,0.0
5.33984375,-35.64453125,-67.87109375,-207.03125,-113.76953125,-510.25390625,0.0
5.34375,-81.54296875,-25.87890625,-12.20703125,-109.375,-178.22265625,0.0
5.34765625,-131.34765625,152.34375,103.515625,-128.41796875,308.10546875,0.0
5.3515625,-99.609375,114.2578125,47.8515625,-102.05078125,344.7265625,0.0
5.35546875,-67.87109375,-53.22265625,15.625,-82.03125,-124.51171875,0.0
5.359375,-91.796875,20.5078125,-104.98046875,-120.60546875,-431.640625,0.0
5.36328125,-143.5546875,139.6484375,-136.23046875,-209.47265625,-261.23046875,0.0
5.3671875,-111.81640625,44.921875,-38.57421875,-193.84765625,249.51171875,0.0
5.37109375,-92.7734375,55.17578125,51.7578125,-77.63671875,390.625,0.0
5.375,-183.59375,166.015625,-4.39453125,-145.99609375,-59.5703125,0.0
5.37890625,-23.4375,-50.78125,18.06640625,-31.73828125,-416.015625,0.0
5.3828125,127.44140625,-48.828125,140.625,120.1171875,-271.97265625,0.0
5.38671875,-162.59765625,227.5390625,-75.1953125,-189.453125,243.65234375,0.0
5.390625,-302.734375,245.60546875,-336.42578125,-352.05078125,476.5625,0.0
5.39453125,-158.203125,95.703125,-178.22265625,-232.421875,50.29296875,0.0
5.3984375,-84.9609375,51.26953125,56.15234375,-166.015625,-475.09765625,0.0
5.40234375,-120.60546875,96.6796875,53.7109375,-114.2578125,-423.33984375,0.0
5.40625,-109.86328125,25.390625,-0.9765625,-80.078125,104.00390625,0.0
5.41015625,24.90234375,-86.9140625,-45.8984375,-8.7890625,378.90625,0.0
5.4140625,-4.39453125,41.015625,-42.48046875,-49.8046875,57.6171875,0.0
5.41796875,-130.859375,236.81640625,-80.56640625,-149.4140625,-420.8984375,0.0
5.421875,-155.2734375,179.19921875,-104.00390625,-205.078125,-377.44140625,0.0
5.42578125,-143.06640625,70.80078125,-78.125,-184.08203125,71.77734375,0.0
5.4296875,-94.7265625,86.42578125,-30.76171875,-110.3515625,408.69140625,0.0
5.43359375,-55.17578125,-63.96484375,-19.53125,-80.56640625,211.9140625,0.0
5.4375,15.625,-166.50390625,-43.9453125,-15.625,-353.02734375,0.0
5.44140625,-3.41796875,101.5625,-123.046875,-24.4140625,-334.47265625,0.0
5.4453125,-124.51171875,203.61328125,-134.765625,-107.421875,152.34375,0.0
5.44921875,-101.5625,210.44921875,21.484375,-115.234375,452.63671875,0.0
5.453125,-71.77734375,162.59765625,27.34375,-119.140625,259.27734375,0.0
5.45703125,-91.796875,29.78515625,-42.48046875,-111.328125,-312.01171875,0.0
5.4609375,-27.34375,-68.84765625,-18.06640625,-72.75390625,-488.76953125,0.0
5.46484375,22.94921875,-11.71875,-28.3203125,-47.8515625,-14.16015625,0.0
5.46875,-22.4609375,96.19140625,-148.92578125,-104.98046875,439.453125,0.0
5.47265625,-52.24609375,114.2578125,-143.5546875,-122.55859375,340.8203125,0.0
5.4765625,-39.55078125,68.359375,-59.08203125,-69.82421875,-175.78125,0.0
5.48046875,-34.1796875,15.13671875,-56.640625,-85.44921875,-407.2265625,0.0
5.484375,-57.6171875,61.03515625,-31.73828125,-92.7734375,-101.5625,0.0
5.48828125,-71.2890625,201.171875,-13.18359375,-103.515625,335.9375,0.0
5.4921875,-14.6484375,223.14453125,-3.90625,-62.01171875,288.0859375,0.0
5.49609375,50.29296875,150.87890625,39.0625,18.5546875,-379.39453125,0.0
5.5,26.85546875,81.54296875,-63.96484375,-5.37109375,-407.2265625,0.0
5.50390625,-13.18359375,-35.15625,-110.83984375,-56.640625,10.25390625,0.0
5.5078125,42.96875,-156.73828125,31.73828125,-8.7890625,203.125,0.0
5.51171875,91.30859375,-69.3359375,65.4296875,27.34375,231.93359375,0.0
5.515625,-0.9765625,111.81640625,-73.2421875,-62.01171875,-104.4921875,0.0
5.51953125,-127.44140625,139.16015625,-160.64453125,-172.36328125,-418.45703125,0.0
5.5234375,-141.11328125,133.30078125,-84.9609375,-187.01171875,-230.46875,0.0
5.52734375,-101.5625,153.3203125,-18.5546875,-85.9375,305.17578125,0.0
5.53125,-42.48046875,124.0234375,-8.30078125,-15.13671875,449.21875,0.0
5.53515625,5.37109375,20.5078125,-65.4296875,0.0,19.53125,0.0
5.5390625,-9.27734375,-75.68359375,-177.24609375,-21.97265625,-365.72265625,0.0
5.54296875,7.8125,31.25,-29.296875,-26.85546875,-230.95703125,0.0
5.546875,48.33984375,98.14453125,121.09375,-11.23046875,248.046875,0.0
5.55078125,0.0,98.14453125,0.9765625,-50.29296875,382.32421875,0.0
5.5546875,-18.5546875,120.60546875,-1.953125,-14.16015625,56.15234375,0.0
5.55859375,80.078125,-158.203125,85.9375,36.62109375,-340.8203125,0.0
5.5625,-48.33984375,-8.30078125,-32.71484375,-86.9140625,-273.4375,0.0
5.56640625,-140.13671875,292.96875,-132.8125,-103.515625,193.84765625,0.0
5.5703125,-81.54296875,189.94140625,-129.8828125,-80.56640625,358.88671875,0.0
5.57421875,-13.671875,86.42578125,-73.73046875,-53.7109375,73.2421875,0.0
5.578125,31.73828125,-10.25390625,-26.3671875,-18.5546875,-362.79296875,0.0
5.58203125,-77.1484375,15.13671875,-56.15234375,-81.0546875,-35.15625,0.0
5.5859375,-103.02734375,137.6953125,-38.57421875,-83.984375,-35.15625,0.0
5.58984375,-33.69140625,21.97265625,-45.41015625,-23.92578125,-29.296875,0.0
5.59375,-17.08984375,-141.11328125,-73.2421875,-23.4375,-63.4765625,0.0
5.59765625,-19.53125,56.15234375,-40.0390625,-78.125,-53.7109375,0.0
5.6015625,-24.90234375,175.78125,-46.875,-99.12109375,-71.77734375,0.0
5.60546875,-22.94921875,29.296875,-127.44140625,-80.56640625,-125.48828125,0.0
5.609375,-46.38671875,-10.25390625,-114.2578125,-90.8203125,-129.39453125,0.0
5.61328125,-55.17578125,143.5546875,-46.875,-93.26171875,-98.6328125,0.0
5.6171875,-38.57421875,167.96875,-16.6015625,-21.484375,3.90625,0.0
5.62109375,9.27734375,41.50390625,32.2265625,33.203125,-42.96875,0.0
5.625,20.99609375,-83.984375,40.0390625,-7.32421875,-99.12109375,0.0
5.62890625,-11.23046875,-34.66796875,-83.984375,-33.203125,385.7421875,0.0
5.6328125,-55.6640625,102.05078125,-179.6875,-98.6328125,265.625,0.0
5.63671875,22.4609375,67.3828125,-15.625,-50.29296875,-278.3203125,0.0
5.640625,37.109375,72.265625,42.48046875,-3.41796875,-391.11328125,0.0
5.64453125,-103.02734375,135.25390625,-38.0859375,-87.40234375,-91.796875,0.0
5.6484375,-99.609375,35.64453125,-80.56640625,-94.23828125,319.82421875,0.0
5.65234375,-3.41796875,-121.58203125,-73.2421875,-58.10546875,285.64453125,0.0
5.65625,-6.8359375,-20.5078125,-42.48046875,-80.078125,-228.515625,0.0
5.66015625,-47.8515625,175.78125,-46.875,-121.58203125,-408.69140625,0.0
5.6640625,-26.3671875,173.33984375,-46.875,-95.21484375,-123.046875,0.0
5.66796875,-12.6953125,104.98046875,-87.890625,-95.21484375,361.328125,0.0
5.671875,-32.71484375,14.6484375,-137.20703125,-114.74609375,408.69140625,0.0
5.67578125,-31.73828125,-68.84765625,-73.73046875,-128.41796875,-44.43359375,0.0
5.6796875,-25.390625,12.20703125,5.859375,-126.46484375,-400.390625,0.0
5.68359375,-42.48046875,69.3359375,-20.01953125,-63.4765625,-242.67578125,0.0
5.6875,5.859375,-65.91796875,10.7421875,-50.29296875,265.625,0.0
5.69140625,30.76171875,-19.53125,22.94921875,-52.734375,310.05859375,0.0
5.6953125,-37.109375,131.8359375,-55.6640625,-69.82421875,-169.43359375,0.0
5.69921875,-96.6796875,185.05859375,-98.14453125,-163.0859375,-503.41796875,0.0
5.703125,-68.359375,92.28515625,-62.5,-129.39453125,-361.81640625,0.0
5.70703125,-1.46484375,20.01953125,-89.35546875,-12.6953125,173.828125,0.0
5.7109375,-3.41796875,52.24609375,-159.1796875,-50.29296875,355.46875,0.0
5.71484375,-23.92578125,15.625,-64.453125,-76.66015625,-67.3828125,0.0
5.71875,-58.59375,-3.41796875,-74.70703125,-100.5859375,-425.29296875,0.0
5.72265625,-42.96875,-9.27734375,-42.96875,-82.03125,-245.1171875,0.0
5.7265625,-16.6015625,-9.27734375,1.46484375,-78.61328125,210.44921875,0.0
5.73046875,-33.69140625,92.28515625,-41.015625,-130.859375,410.64453125,0.0
5.734375,39.0625,-65.4296875,-13.18359375,0.48828125,93.26171875,0.0
5.73828125,99.609375,-108.3984375,25.87890625,72.75390625,-369.140625,0.0
5.7421875,-58.59375,106.93359375,-86.42578125,-77.1484375,-324.70703125,0.0
5.74609375,-138.671875,142.08984375,-109.375,-129.8828125,83.0078125,0.0
5.75,-73.2421875,117.67578125,-11.71875,-84.47265625,349.609375,0.0
5.75390625,-38.57421875,106.4453125,-30.2734375,-65.4296875,90.8203125,0.0
5.7578125,-47.36328125,54.19921875,-84.47265625,-66.89453125,-320.80078125,0.0
5.76171875,-46.875,40.0390625,-70.3125,-82.03125,-327.1484375,0.0
5.765625,-34.1796875,-11.23046875,-27.83203125,-53.7109375,35.64453125,0.0
5.76953125,-33.203125,-72.75390625,6.34765625,-23.4375,408.69140625,0.0
5.7734375,-7.32421875,-20.01953125,12.6953125,-3.41796875,160.64453125,0.0
5.77734375,9.765625,83.984375,-38.57421875,2.9296875,-306.640625,0.0
5.78125,-52.734375,111.81640625,-166.015625,-78.125,-334.9609375,0.0
5.78515625,-28.80859375,-11.71875,-102.05078125,-76.171875,4.8828125,0.0
5.7890625,75.1953125,-104.4921875,62.5,11.71875,419.43359375,0.0
5.79296875,69.82421875,-26.3671875,58.59375,-10.25390625,255.37109375,0.0
5.796875,-81.0546875,121.58203125,-83.984375,-96.19140625,-231.93359375,0.0
5.80078125,-160.15625,183.59375,-135.25390625,-114.2578125,-302.24609375,0.0
5.8046875,-114.2578125,119.62890625,-78.125,-77.63671875,-67.87109375,0.0
5.80859375,-43.9453125,50.78125,-62.98828125,-59.08203125,165.52734375,0.0
5.8125,-23.4375,79.1015625,-103.515625,-60.05859375,53.7109375,0.0
5.81640625,2.9296875,46.38671875,-38.0859375,-21.484375,-329.58984375,0.0
5.8203125,40.52734375,-81.54296875,80.56640625,2.9296875,-483.88671875,0.0
5.82421875,28.3203125,-32.2265625,95.21484375,29.296875,-211.42578125,0.0
5.828125,-11.23046875,115.234375,20.01953125,0.0,252.9296875,0.0
5.83203125,-32.2265625,165.52734375,-42.48046875,-33.69140625,233.88671875,0.0
5.8359375,-51.26953125,129.8828125,-98.6328125,-56.640625,-204.58984375,0.0
5.83984375,-25.87890625,79.58984375,-76.66015625,-54.19921875,-389.6484375,0.0
5.84375,26.3671875,-8.7890625,-15.625,0.0,-170.41015625,0.0
5.84765625,19.53125,-81.0546875,-50.29296875,15.13671875,271.484375,0.0
5.8515625,7.32421875,0.9765625,-86.42578125,-13.671875,300.29296875,0.0
5.85546875,32.2265625,103.02734375,-89.35546875,-5.859375,-114.2578125,0.0
5.859375,4.8828125,94.7265625,-51.7578125,24.4140625,-385.7421875,0.0
5.86328125,-15.625,-134.27734375,-10.7421875,8.30078125,-266.6015625,0.0
5.8671875,-3.90625,5.37109375,17.578125,35.15625,223.14453125,0.0
5.87109375,-49.8046875,221.6796875,10.25390625,-17.08984375,325.1953125,0.0
5.875,-36.1328125,151.3671875,-3.41796875,-14.6484375,-46.875,0.0
5.87890625,56.15234375,81.0546875,31.25,62.01171875,-321.77734375,0.0
5.8828125,-20.99609375,43.45703125,-90.8203125,-31.25,-309.5703125,0.0
5.88671875,-68.359375,37.109375,-103.02734375,-28.80859375,21.97265625,0.0
5.890625,-10.25390625,15.13671875,-21.97265625,41.015625,261.71875,0.0
5.89453125,-37.109375,44.43359375,-42.96875,8.7890625,-22.4609375,0.0
5.8984375,-42.48046875,55.6640625,-30.76171875,-16.11328125,-399.4140625,0.0
5.90234375,9.765625,-3.41796875,-15.13671875,-0.9765625,-285.64453125,0.0
5.90625,36.62109375,-24.90234375,3.41796875,15.13671875,140.13671875,0.0
5.91015625,27.83203125,31.25,-59.08203125,-11.71875,-21.484375,0.0
5.9140625,21.97265625,30.2734375,-49.8046875,13.18359375,-55.17578125,0.0
5.91796875,-48.828125,94.23828125,-0.9765625,-9.765625,-60.546875,0.0
5.921875,-79.1015625,175.29296875,-105.95703125,-51.26953125,48.33984375,0.0
5.92578125,-15.625,105.46875,-136.23046875,-13.671875,52.24609375,0.0
5.9296875,-7.32421875,18.06640625,-38.57421875,-4.8828125,-0.9765625,0.0
5.93359375,-15.625,50.78125,-6.8359375,18.5546875,-3.41796875,0.0
5.9375,-5.859375,27.34375,37.109375,44.43359375,6.8359375,0.0
5.94140625,40.0390625,-16.11328125,65.91796875,99.609375,-29.296875,0.0
5.9453125,30.2734375,1.953125,1.953125,81.0546875,-36.62109375,0.0
5.94921875,-55.6640625,98.14453125,-143.5546875,-58.10546875,-11.71875,0.0
5.953125,1.46484375,63.96484375,-109.375,-19.04296875,1.953125,0.0
5.95703125,14.16015625,-3.90625,-74.70703125,14.6484375,-198.2421875,0.0
5.9609375,-22.4609375,33.69140625,-169.43359375,-23.92578125,-275.390625,0.0
5.96484375,5.37109375,15.13671875,-40.52734375,33.69140625,23.4375,0.0
5.96875,9.27734375,-44.921875,151.3671875,61.5234375,384.765625,0.0
5.97265625,40.52734375,-44.921875,122.0703125,83.49609375,287.109375,0.0
5.9765625,-0.48828125,120.60546875,-30.2734375,54.6875,-174.31640625,0.0
5.98046875,-77.1484375,162.59765625,-147.4609375,-56.640625,-338.37890625,0.0
5.984375,-83.984375,87.40234375,-107.421875,-51.26953125,-92.7734375,0.0
5.98828125,-52.734375,32.2265625,-45.41015625,29.296875,250.0,0.0
5.9921875,6.8359375,26.3671875,-44.921875,68.359375,204.1015625,0.0
5.99609375,137.20703125,26.85546875,57.6171875,184.08203125,-186.5234375,0.0
6.0,36.1328125,-52.734375,87.890625,75.1953125,-306.15234375,0.0
6.00390625,-128.41796875,4.8828125,-18.06640625,-86.42578125,-65.4296875,0.0
6.0078125,-40.0390625,86.9140625,-113.28125,5.859375,278.80859375,0.0
6.01171875,-1.953125,42.48046875,-233.88671875,67.3828125,335.9375,0.0
6.015625,-40.0390625,89.35546875,-140.625,20.5078125,-97.16796875,0.0
6.01953125,-21.97265625,109.86328125,42.96875,20.01953125,-411.1328125,0.0
6.0234375,-6.34765625,10.25390625,95.703125,77.1484375,-242.1875,0.0
6.02734375,-15.625,-12.6953125,43.9453125,77.63671875,166.50390625,0.0
6.03125,17.578125,13.18359375,20.5078125,90.8203125,254.8828125,0.0
6.03515625,-1.953125,41.015625,-51.7578125,54.6875,-92.7734375,0.0
6.0390625,-11.23046875,46.875,-94.23828125,47.36328125,-306.15234375,0.0
6.04296875,-21.97265625,67.3828125,-21.484375,49.8046875,-225.09765625,0.0
6.046875,-103.02734375,53.22265625,-47.36328125,-17.578125,127.44140625,0.0
6.05078125,-86.9140625,-80.078125,-79.58984375,-12.20703125,333.0078125,0.0
6.0546875,77.63671875,-130.37109375,-59.5703125,154.78515625,11.23046875,0.0
6.05859375,100.5859375,30.76171875,81.54296875,162.59765625,-339.84375,0.0
6.0625,-107.91015625,142.08984375,-16.6015625,-21.484375,-300.78125,0.0
6.06640625,-182.12890625,88.8671875,-242.67578125,-49.31640625,87.40234375,0.0
6.0703125,-72.75390625,61.5234375,-106.93359375,11.71875,293.45703125,0.0
6.07421875,20.01953125,84.9609375,41.9921875,38.57421875,50.29296875,0.0
6.078125,12.6953125,-33.203125,10.25390625,58.10546875,-294.43359375,0.0
6.08203125,-6.34765625,-107.421875,-10.7421875,61.03515625,-370.60546875,0.0
6.0859375,-57.6171875,-36.62109375,-33.203125,61.03515625,-44.921875,0.0
6.08984375,-95.21484375,-4.39453125,-38.57421875,55.17578125,306.15234375,0.0
6.09375,-62.5,38.57421875,-40.0390625,12.20703125,35.64453125,0.0
6.09765625,-51.7578125,63.96484375,-62.5,-2.9296875,-528.80859375,0.0
6.1015625,-42.96875,15.625,-150.390625,23.92578125,-370.1171875,0.0
6.10546875,-0.9765625,-57.6171875,-150.87890625,78.61328125,104.00390625,0.0
6.109375,-14.6484375,-27.83203125,-0.48828125,70.80078125,345.703125,0.0
6.11328125,-36.1328125,-64.94140625,50.78125,63.96484375,173.828125,0.0
6.1171875,-16.11328125,-137.6953125,-59.08203125,70.3125,-244.62890625,0.0
6.12109375,-26.85546875,37.109375,-134.27734375,46.875,-334.47265625,0.0
6.125,-58.10546875,64.453125,-116.2109375,21.484375,-64.453125,0.0
6.12890625,-36.62109375,-1.953125,-70.3125,17.08984375,303.22265625,0.0
6.1328125,-45.41015625,1.46484375,-63.4765625,0.48828125,220.703125,0.0
6.13671875,-61.03515625,-23.4375,-18.06640625,14.6484375,-216.30859375,0.0
6.140625,-39.0625,2.44140625,25.390625,49.31640625,-281.25,0.0
6.14453125,-20.5078125,-10.25390625,-37.109375,65.4296875,-35.15625,0.0
6.1484375,0.9765625,-22.94921875,-100.5859375,66.40625,251.953125,0.0
6.15234375,-30.76171875,-93.75,-85.44921875,50.29296875,271.484375,0.0
6.15625,-15.625,-81.0546875,-16.6015625,75.1953125,-131.8359375,0.0
6.16015625,-16.6015625,39.0625,-13.18359375,62.01171875,-384.27734375,0.0
6.1640625,-70.80078125,53.22265625,-108.88671875,-1.46484375,-83.984375,0.0
6.16796875,-42.96875,-24.90234375,-106.4453125,11.71875,291.50390625,0.0
6.171875,8.7890625,-31.73828125,24.90234375,56.15234375,91.30859375,0.0
6.17578125,-78.125,-62.5,-7.32421875,-5.37109375,-333.984375,0.0
6.1796875,-132.32421875,-129.8828125,-83.0078125,-45.41015625,-533.203125,0.0
6.18359375,-93.75,-4.39453125,-89.84375,-5.859375,-352.05078125,0.0
6.1875,-68.359375,83.49609375,-143.5546875,1.953125,85.44921875,0.0
6.19140625,0.9765625,-39.0625,-145.5078125,11.71875,206.54296875,0.0
6.1953125,19.04296875,-96.19140625,-40.0390625,19.53125,-46.38671875,0.0
6.19921875,-38.57421875,33.203125,37.109375,16.11328125,-336.9140625,0.0
6.203125,-60.05859375,107.421875,14.6484375,41.9921875,-137.20703125,0.0
6.20703125,18.06640625,-13.671875,3.41796875,105.95703125,291.015625,0.0
6.2109375,31.73828125,-102.05078125,-40.52734375,95.703125,377.44140625,0.0
6.21484375,-44.921875,-103.515625,-93.26171875,-30.76171875,76.171875,0.0
6.21875,-15.625,41.50390625,-69.3359375,-17.578125,-257.32421875,0.0
6.22265625,-60.546875,117.1875,-95.21484375,21.484375,-215.8203125,0.0
6.2265625,-114.2578125,22.94921875,-102.5390625,8.7890625,184.08203125,0.0
6.23046875,-4.8828125,-101.5625,-8.7890625,83.0078125,393.06640625,0.0
6.234375,32.2265625,-81.54296875,-104.00390625,74.70703125,110.83984375,0.0
6.23828125,3.41796875,52.734375,-148.92578125,32.71484375,-322.265625,0.0
6.2421875,18.06640625,43.45703125,47.8515625,42.96875,-291.50390625,0.0
6.24609375,-32.71484375,1.953125,19.04296875,-6.8359375,87.890625,0.0
6.25,-4.8828125,10.7421875,-50.78125,7.8125,364.2578125,0.0
6.25390625,-6.8359375,42.96875,-49.31640625,82.51953125,225.5859375,0.0
6.2578125,-69.3359375,41.50390625,-86.42578125,20.01953125,-201.171875,0.0
6.26171875,-8.7890625,-43.45703125,-66.40625,41.50390625,-281.73828125,0.0
6.265625,38.0859375,-103.02734375,-30.2734375,120.1171875,44.43359375,0.0
6.26953125,45.41015625,-101.5625,15.13671875,108.3984375,337.40234375,0.0
6.2734375,-0.9765625,-12.20703125,-64.94140625,41.015625,153.80859375,0.0
6.27734375,-66.40625,38.57421875,-160.15625,-36.1328125,-250.0,0.0
6.28125,-52.24609375,73.2421875,-81.54296875,-38.0859375,-380.37109375,0.0
6.28515625,-81.0546875,130.37109375,-29.78515625,-15.13671875,-110.83984375,0.0
6.2890625,-54.6875,76.171875,-57.6171875,10.25390625,236.328125,0.0
6.29296875,5.37109375,-41.015625,-36.62109375,31.25,165.0390625,0.0
6.296875,31.25,-25.87890625,-7.8125,78.61328125,-199.21875,0.0
6.30078125,-2.9296875,-19.04296875,-53.22265625,55.6640625,-373.53515625,0.0
6.3046875,-3.41796875,-160.64453125,-62.5,58.59375,-144.53125,0.0
6.30859375,34.1796875,-73.2421875,-20.01953125,93.26171875,260.7421875,0.0
6.3125,-11.71875,108.3984375,-39.55078125,25.390625,241.2109375,0.0
6.31640625,-69.82421875,83.984375,-99.12109375,-23.4375,-183.10546875,0.0
6.3203125,-70.80078125,-23.4375,-78.125,26.85546875,-398.92578125,0.0
6.32421875,-39.0625,-113.76953125,-83.984375,72.75390625,-169.43359375,0.0
6.328125,-49.31640625,-18.06640625,-135.25390625,22.4609375,188.4765625,0.0
6.33203125,15.625,-25.87890625,-95.21484375,38.57421875,191.89453125,0.0
6.3359375,62.01171875,-116.69921875,-51.7578125,86.9140625,-135.7421875,0.0
6.33984375,-48.828125,-14.16015625,-31.73828125,0.48828125,-341.796875,0.0
6.34375,-81.54296875,6.34765625,-60.546875,2.9296875,-178.7109375,0.0
6.34765625,-33.69140625,-85.44921875,-65.4296875,28.3203125,325.68359375,0.0
6.3515625,22.94921875,-71.77734375,-19.53125,36.1328125,437.01171875,0.0
6.35546875,61.03515625,17.08984375,-49.8046875,97.16796875,-59.08203125,0.0
6.359375,12.6953125,93.26171875,-60.05859375,72.75390625,-427.24609375,0.0
6.36328125,-63.96484375,68.359375,-43.45703125,6.34765625,-224.12109375,0.0
6.3671875,-34.66796875,-29.78515625,-89.84375,28.3203125,208.0078125,0.0
6.37109375,-0.48828125,-80.56640625,-145.01953125,40.0390625,241.2109375,0.0
6.375,-8.30078125,-51.7578125,-59.5703125,38.57421875,-87.40234375,0.0
6.37890625,54.6875,-183.59375,51.26953125,99.12109375,-400.87890625,0.0
6.3828125,37.109375,-98.14453125,10.25390625,70.3125,-295.41015625,0.0
6.38671875,-37.59765625,81.0546875,-84.9609375,44.921875,132.32421875,0.0
6.390625,-71.2890625,54.19921875,-194.3359375,-2.9296875,223.14453125,0.0
6.39453125,-28.80859375,12.20703125,-142.578125,-3.90625,-55.6640625,0.0
6.3984375,20.5078125,-71.2890625,22.4609375,60.05859375,-334.9609375,0.0
6.40234375,-32.71484375,-56.640625,-41.9921875,29.296875,-237.3046875,0.0
6.40625,-34.1796875,-22.4609375,-73.2421875,41.015625,121.09375,0.0
6.41015625,25.87890625,-42.96875,-13.671875,120.60546875,395.99609375,0.0
6.4140625,13.671875,-65.4296875,-53.7109375,94.23828125,224.12109375,0.0
6.41796875,-13.671875,-56.640625,-85.44921875,54.6875,-246.58203125,0.0
6.421875,3.41796875,22.94921875,-40.52734375,85.44921875,-299.8046875,0.0
6.42578125,31.73828125,1.46484375,-18.06640625,127.44140625,50.78125,0.0
6.4296875,18.5546875,-71.77734375,-87.890625,79.1015625,347.65625,0.0
6.43359375,-40.52734375,-92.7734375,-144.53125,10.7421875,137.6953125,0.0
6.4375,-39.55078125,-52.24609375,-107.421875,37.109375,-331.0546875,0.0
6.44140625,-12.6953125,22.94921875,-62.01171875,58.59375,-360.83984375,0.0
6.4453125,-30.76171875,-25.87890625,-21.484375,64.94140625,-14.16015625,0.0
6.44921875,-24.90234375,-27.83203125,-14.6484375,69.3359375,326.171875,0.0
6.453125,-7.32421875,8.30078125,-73.73046875,90.8203125,224.609375,0.0
6.45703125,39.0625,-2.9296875,-72.265625,138.18359375,-229.98046875,0.0
6.4609375,89.84375,-54.19921875,-21.484375,174.8046875,-374.0234375,0.0
6.46484375,-3.90625,-67.87109375,-62.01171875,115.72265625,-101.5625,0.0
6.46875,-54.6875,-97.65625,-44.43359375,70.80078125,284.1796875,0.0
6.47265625,11.23046875,-106.4453125,16.11328125,97.16796875,185.546875,0.0
6.4765625,-28.3203125,-15.625,-71.77734375,80.078125,-260.25390625,0.0
6.48046875,-83.0078125,46.38671875,-163.57421875,46.875,-431.640625,0.0
6.484375,-52.24609375,-0.48828125,-86.9140625,81.0546875,-161.1328125,0.0
6.48828125,-72.265625,-50.29296875,-67.87109375,68.359375,334.9609375,0.0
6.4921875,-41.9921875,-48.33984375,-78.61328125,75.68359375,305.6640625,0.0
6.49609375,45.8984375,-92.7734375,16.11328125,160.64453125,-242.67578125,0.0
6.5,8.30078125,-58.10546875,-17.08984375,117.1875,-413.57421875,0.0
6.50390625,-43.45703125,-46.875,-119.140625,65.91796875,-136.71875,0.0
6.5078125,-26.85546875,-62.98828125,-114.74609375,92.28515625,309.08203125,0.0
6.51171875,-35.15625,-41.9921875,-13.671875,88.37890625,363.28125,0.0
6.515625,-53.22265625,-9.765625,20.99609375,79.1015625,-103.02734375,0.0
6.51953125,-18.06640625,-93.75,-22.94921875,106.4453125,-395.99609375,0.0
6.5234375,-17.08984375,-182.6171875,7.8125,109.375,-207.03125,0.0
6.52734375,-17.08984375,-78.61328125,46.875,115.234375,253.90625,0.0
6.53125,-37.59765625,42.48046875,-29.296875,67.3828125,341.30859375,0.0
6.53515625,-52.734375,53.7109375,-38.57421875,75.1953125,-68.84765625,0.0
6.5390625,-17.08984375,-67.87109375,-26.85546875,122.55859375,-462.40234375,0.0
6.54296875,-61.5234375,-150.87890625,-105.95703125,90.33203125,-370.60546875,0.0
6.546875,-104.4921875,-169.921875,-92.7734375,38.57421875,134.765625,0.0
6.55078125,-61.03515625,-132.8125,-0.9765625,30.76171875,363.76953125,0.0
6.5546875,-56.15234375,-18.5546875,-2.44140625,42.48046875,36.62109375,0.0
6.55859375,-63.96484375,19.53125,-57.6171875,77.1484375,-358.88671875,0.0
6.5625,-63.96484375,-13.671875,-69.3359375,78.125,-281.25,0.0
6.56640625,-51.7578125,-14.16015625,7.32421875,107.91015625,141.11328125,0.0
6.5703125,-50.29296875,-85.9375,37.109375,78.125,354.4921875,0.0
6.57421875,-18.06640625,-153.3203125,20.5078125,49.31640625,105.46875,0.0
6.578125,16.11328125,-166.9921875,-8.7890625,104.00390625,-268.5546875,0.0
6.58203125,-54.6875,-92.7734375,-92.28515625,66.40625,-305.6640625,0.0
6.5859375,-64.94140625,-19.53125,-78.125,54.6875,8.7890625,0.0
6.58984375,-41.015625,-36.62109375,-34.1796875,78.61328125,315.91796875,0.0
6.59375,-103.515625,-91.796875,-89.84375,-4.39453125,169.43359375,0.0
6.59765625,-112.3046875,-79.58984375,-103.02734375,-30.2734375,-274.4140625,0.0
6.6015625,-34.1796875,-46.875,-36.1328125,48.33984375,-485.83984375,0.0
6.60546875,6.34765625,-136.71875,26.3671875,71.2890625,-177.24609375,0.0
6.609375,-17.08984375,-75.68359375,-18.5546875,46.38671875,270.5078125,0.0
6.61328125,-25.390625,-16.6015625,-70.3125,60.546875,189.453125,0.0
6.6171875,-2.9296875,-38.57421875,-12.6953125,74.21875,-272.94921875,0.0
6.62109375,-27.34375,-42.96875,-22.94921875,61.03515625,-482.421875,0.0
6.625,-44.43359375,-57.6171875,-93.26171875,54.6875,-282.71484375,0.0
6.62890625,-9.765625,-77.1484375,-74.70703125,127.44140625,169.43359375,0.0
6.6328125,13.18359375,-82.03125,-20.01953125,145.5078125,170.41015625,0.0
6.63671875,50.29296875,-84.9609375,-23.92578125,127.9296875,-395.01953125,0.0
6.640625,5.859375,-41.9921875,-92.28515625,83.0078125,-590.33203125,0.0
6.64453125,-39.0625,-40.0390625,-101.07421875,42.48046875,-263.18359375,0.0
6.6484375,-1.953125,-133.7890625,-59.5703125,98.14453125,193.84765625,0.0
6.65234375,14.6484375,-74.70703125,-6.8359375,157.71484375,219.7265625,0.0
6.65625,-8.30078125,-15.625,6.8359375,93.26171875,-236.81640625,0.0
6.66015625,5.859375,6.8359375,-20.5078125,93.75,-507.32421875,0.0
6.6640625,23.4375,-15.625,-38.57421875,138.671875,-269.04296875,0.0
6.66796875,20.5078125,-88.37890625,-62.98828125,137.20703125,275.87890625,0.0
6.671875,27.83203125,-72.265625,-60.546875,164.0625,400.87890625,0.0
6.67578125,42.48046875,-80.56640625,-79.58984375,158.69140625,-21.484375,0.0
6.6796875,45.8984375,-169.43359375,-73.73046875,143.5546875,-289.0625,0.0
6.68359375,-17.578125,-77.63671875,-73.2421875,108.88671875,-126.953125,0.0
6.6875,-22.94921875,125.9765625,-104.00390625,82.03125,352.5390625,0.0
6.69140625,58.59375,54.19921875,-79.58984375,101.07421875,389.6484375,0.0
6.6953125,72.265625,-103.02734375,-25.87890625,122.55859375,-68.84765625,0.0
6.69921875,9.27734375,-97.65625,-54.19921875,101.5625,-335.44921875,0.0
6.703125,-29.296875,-24.4140625,-55.6640625,114.74609375,-218.75,0.0
6.70703125,-55.17578125,-55.6640625,-50.29296875,111.81640625,236.328125,0.0
6.7109375,-20.5078125,-79.1015625,-63.4765625,119.62890625,429.6875,0.0
6.71484375,15.13671875,-6.34765625,-63.96484375,116.69921875,-62.01171875,0.0
6.71875,19.04296875,16.11328125,-38.57421875,122.0703125,-411.1328125,0.0
6.72265625,67.3828125,9.765625,1.953125,193.359375,-143.5546875,0.0
6.7265625,36.1328125,1.953125,-36.62109375,162.59765625,215.8203125,0.0
6.73046875,-4.8828125,-17.08984375,-65.4296875,112.3046875,351.5625,0.0
6.734375,4.39453125,-95.703125,-60.05859375,106.4453125,28.3203125,0.0
6.73828125,3.41796875,-181.640625,-90.33203125,111.328125,-410.64453125,0.0
6.7421875,-14.16015625,-69.3359375,-90.33203125,101.07421875,-291.015625,0.0
6.74609375,-19.53125,57.6171875,-72.265625,137.6953125,201.66015625,0.0
6.75,16.6015625,-119.62890625,-13.18359375,200.1953125,493.65234375,0.0
6.75390625,52.24609375,-134.765625,-2.9296875,180.6640625,219.7265625,0.0
6.7578125,35.15625,67.3828125,-125.0,95.21484375,-283.69140625,0.0
6.76171875,-26.3671875,89.84375,-114.2578125,71.2890625,-318.84765625,0.0
6.765625,-11.71875,39.0625,-36.62109375,128.41796875,-23.92578125,0.0
6.76953125,87.40234375,-37.59765625,1.46484375,209.9609375,364.2578125,0.0
6.7734375,96.19140625,-141.11328125,18.5546875,235.3515625,249.0234375,0.0
6.77734375,38.57421875,-175.29296875,12.20703125,200.1953125,-217.28515625,0.0
6.78125,-0.48828125,-52.24609375,-14.6484375,129.39453125,-354.4921875,0.0
6.78515625,-37.109375,74.21875,-85.44921875,85.44921875,-35.64453125,0.0
6.7890625,-33.69140625,89.35546875,-103.02734375,142.578125,356.93359375,0.0
6.79296875,2.44140625,32.2265625,-83.49609375,198.73046875,232.91015625,0.0
6.796875,24.90234375,-42.96875,-12.20703125,222.16796875,-225.5859375,0.0
6.80078125,0.9765625,-8.30078125,-14.16015625,208.0078125,-418.45703125,0.0
6.8046875,12.20703125,-12.6953125,-49.31640625,214.35546875,-145.01953125,0.0
6.80859375,0.0,-0.9765625,-4.8828125,216.796875,336.9140625,0.0
6.8125,-41.50390625,-2.44140625,-58.10546875,166.50390625,218.75,0.0
6.81640625,0.48828125,-50.29296875,-70.3125,187.01171875,-268.5546875,0.0
6.8203125,34.66796875,18.06640625,41.50390625,270.01953125,-390.13671875,0.0
6.82421875,-2.9296875,40.52734375,29.296875,245.1171875,-197.265625,0.0
6.828125,5.37109375,8.30078125,-23.4375,204.58984375,187.01171875,0.0
6.83203125,59.5703125,-11.23046875,0.48828125,241.2109375,335.9375,0.0
6.8359375,7.8125,-15.625,-42.96875,220.703125,-46.38671875,0.0
6.83984375,-47.8515625,28.3203125,-132.32421875,197.75390625,-417.48046875,0.0
6.84375,-21.484375,-16.11328125,-103.515625,213.8671875,-171.38671875,0.0
6.84765625,-38.57421875,-83.984375,-39.55078125,172.8515625,304.6875,0.0
6.8515625,-1.953125,-41.015625,-14.16015625,209.9609375,301.7578125,0.0
6.85546875,90.8203125,103.515625,19.53125,275.390625,-56.640625,0.0
6.859375,59.5703125,197.75390625,-12.20703125,234.86328125,-425.29296875,0.0
6.86328125,-44.43359375,126.953125,-76.171875,171.875,-290.0390625,0.0
6.8671875,5.859375,-20.01953125,1.46484375,235.3515625,248.046875,0.0
6.87109375,106.93359375,-134.765625,60.546875,318.84765625,319.3359375,0.0
6.875,5.37109375,61.5234375,-25.390625,225.09765625,-110.3515625,0.0
6.87890625,-71.77734375,169.43359375,-83.984375,175.78125,-463.37890625,0.0
6.8828125,6.8359375,1.953125,-59.5703125,196.77734375,-343.75,0.0
6.88671875,37.109375,-6.34765625,-42.96875,205.56640625,182.6171875,0.0
6.890625,11.71875,122.55859375,-63.4765625,224.609375,442.87109375,0.0
6.89453125,-3.41796875,127.9296875,-41.50390625,216.30859375,56.15234375,0.0
6.8984375,13.671875,11.71875,-1.46484375,211.42578125,-406.73828125,0.0
6.90234375,41.50390625,-41.50390625,18.5546875,252.9296875,-349.609375,0.0
6.90625,56.15234375,32.71484375,11.23046875,305.17578125,74.21875,0.0
6.91015625,48.828125,6.34765625,2.9296875,268.5546875,297.8515625,0.0
6.9140625,-16.6015625,18.06640625,-62.5,180.17578125,91.30859375,0.0
6.91796875,-62.01171875,180.17578125,-121.09375,167.48046875,-309.5703125,0.0
6.921875,-7.32421875,140.625,-66.40625,230.46875,-387.20703125,0.0
6.92578125,8.30078125,62.5,3.41796875,236.328125,39.55078125,0.0
6.9296875,-9.27734375,41.9921875,-5.859375,190.4296875,359.375,0.0
6.93359375,63.4765625,-0.9765625,12.20703125,249.0234375,89.35546875,0.0
6.9375,70.80078125,-7.8125,-5.37109375,304.19921875,-405.76171875,0.0
6.94140625,-86.9140625,3.41796875,-127.44140625,179.19921875,-395.99609375,0.0
6.9453125,-105.46875,87.890625,-104.4921875,154.78515625,26.85546875,0.0
6.94921875,-9.27734375,88.37890625,-17.578125,242.67578125,344.7265625,0.0
6.953125,11.23046875,69.3359375,-2.44140625,244.62890625,215.8203125,0.0
6.95703125,-3.41796875,53.22265625,-14.16015625,229.98046875,-207.03125,0.0
6.9609375,-6.34765625,80.56640625,8.7890625,215.8203125,-426.7578125,0.0
6.96484375,8.30078125,82.51953125,30.2734375,205.56640625,-172.8515625,0.0
6.96875,25.87890625,33.203125,-10.25390625,258.7890625,316.40625,0.0
6.97265625,-1.953125,17.578125,-51.7578125,250.48828125,322.265625,0.0
6.9765625,-36.1328125,47.36328125,-41.015625,202.63671875,-126.46484375,0.0
6.98046875,11.23046875,-14.16015625,-17.578125,231.4453125,-327.1484375,0.0
6.984375,28.80859375,-107.91015625,25.87890625,249.51171875,-78.61328125,0.0
6.98828125,-24.90234375,88.8671875,-4.8828125,185.05859375,305.6640625,0.0
6.9921875,-5.37109375,229.98046875,-56.640625,210.44921875,280.2734375,0.0
6.99609375,49.31640625,25.87890625,0.48828125,298.33984375,-102.05078125,0.0
7.0,22.4609375,-36.1328125,18.5546875,265.625,-397.94921875,0.0
7.00390625,-51.7578125,78.125,-47.36328125,188.96484375,-187.98828125,0.0
7.0078125,-67.3828125,165.0390625,-58.10546875,168.9453125,264.6484375,0.0
7.01171875,-10.7421875,195.3125,13.18359375,212.890625,309.08203125,0.0
7.015625,6.34765625,145.99609375,27.34375,247.55859375,9.27734375,0.0
7.01953125,12.20703125,61.5234375,12.6953125,250.9765625,-353.515625,0.0
7.0234375,50.78125,77.1484375,35.64453125,267.578125,-325.68359375,0.0
7.02734375,49.8046875,68.359375,21.97265625,265.625,196.2890625,0.0
7.03125,42.48046875,4.39453125,-7.8125,233.88671875,358.88671875,0.0
7.03515625,61.03515625,53.7109375,0.9765625,243.65234375,-10.25390625,0.0
7.0390625,96.6796875,58.59375,14.16015625,268.5546875,-383.30078125,0.0
7.04296875,65.4296875,-7.32421875,-99.12109375,215.33203125,-279.78515625,0.0
7.046875,-0.48828125,144.04296875,-82.51953125,136.23046875,187.01171875,0.0
7.05078125,25.87890625,218.75,63.4765625,160.15625,297.36328125,0.0
7.0546875,15.625,176.7578125,51.26953125,197.75390625,-44.921875,0.0
7.05859375,5.859375,104.4921875,22.4609375,201.66015625,-420.41015625,0.0
7.0625,71.2890625,-32.2265625,67.87109375,223.14453125,-306.15234375,0.0
7.06640625,42.48046875,-6.34765625,21.97265625,173.33984375,147.94921875,0.0
7.0703125,26.85546875,82.03125,-31.25,129.39453125,362.3046875,0.0
7.07421875,19.53125,96.19140625,-17.08984375,127.9296875,41.015625,0.0
7.078125,-21.484375,149.90234375,-9.765625,105.46875,-375.48828125,0.0
7.08203125,-13.18359375,144.04296875,-9.27734375,88.37890625,-380.859375,0.0
7.0859375,-11.71875,79.1015625,-33.203125,101.5625,44.43359375,0.0
7.08984375,-55.6640625,25.87890625,-34.1796875,80.56640625,443.359375,0.0
7.09375,-66.40625,39.55078125,-14.6484375,63.96484375,167.48046875,0.0
7.09765625,-45.8984375,35.15625,16.11328125,58.10546875,-408.203125,0.0
7.1015625,-60.546875,4.8828125,33.69140625,35.15625,-492.1875,0.0
7.10546875,-69.3359375,-15.13671875,8.7890625,43.9453125,-86.9140625,0.0
7.109375,-35.64453125,1.46484375,1.953125,78.125,272.4609375,0.0
7.11328125,-9.765625,54.19921875,-15.625,85.9375,114.74609375,0.0
7.1171875,-71.77734375,187.01171875,-53.7109375,19.53125,-318.359375,0.0
7.12109375,-104.4921875,142.578125,-49.31640625,-4.8828125,-449.21875,0.0
7.125,-47.8515625,62.01171875,-57.12890625,48.33984375,-112.3046875,0.0
7.12890625,-41.50390625,61.03515625,2.9296875,92.7734375,306.15234375,0.0
7.1328125,-108.88671875,47.36328125,36.1328125,35.15625,270.5078125,0.0
7.13671875,-80.078125,81.54296875,21.97265625,27.34375,-169.921875,0.0
7.140625,-5.37109375,47.8515625,41.50390625,99.609375,-314.453125,0.0
7.14453125,40.0390625,-50.78125,72.265625,168.9453125,-59.08203125,0.0
7.1484375,4.39453125,-22.4609375,28.80859375,140.13671875,279.296875,0.0
7.15234375,-82.03125,105.95703125,-40.0390625,48.828125,234.86328125,0.0
7.15625,-62.5,179.19921875,-28.80859375,72.75390625,-176.26953125,0.0
7.16015625,-12.6953125,67.87109375,0.9765625,100.5859375,-352.05078125,0.0
7.1640625,-1.953125,-70.80078125,-30.76171875,99.12109375,-134.27734375,0.0
7.16796875,-6.34765625,21.97265625,-70.80078125,110.83984375,282.2265625,0.0
7.171875,57.6171875,81.0546875,-18.5546875,149.90234375,357.421875,0.0
7.17578125,73.2421875,63.96484375,21.97265625,186.03515625,-36.1328125,0.0
7.1796875,-0.9765625,129.8828125,-34.1796875,139.6484375,-379.8828125,0.0
7.18359375,-15.13671875,89.35546875,-140.13671875,125.9765625,-270.01953125,0.0
7.1875,-33.203125,-16.6015625,-110.3515625,129.8828125,166.50390625,0.0
7.19140625,10.7421875,-29.78515625,46.38671875,153.3203125,217.7734375,0.0
7.1953125,71.2890625,2.9296875,84.9609375,163.57421875,-126.46484375,0.0
7.19921875,44.43359375,188.96484375,45.41015625,115.72265625,-265.625,0.0
7.203125,4.8828125,204.1015625,6.34765625,85.44921875,-125.48828125,0.0
7.20703125,9.27734375,84.9609375,-12.20703125,93.75,231.93359375,0.0
7.2109375,35.15625,77.1484375,-31.25,110.83984375,358.3984375,0.0
7.21484375,73.2421875,14.6484375,-18.06640625,123.046875,-70.80078125,0.0
7.21875,91.796875,-37.59765625,-14.16015625,146.484375,-425.78125,0.0
7.22265625,91.796875,11.23046875,0.9765625,158.69140625,-44.43359375,0.0
7.2265625,87.890625,29.78515625,23.92578125,176.26953125,-66.89453125,0.0
7.23046875,-1.46484375,59.5703125,-86.42578125,79.58984375,-35.15625,0.0
7.234375,-6.34765625,60.546875,-82.51953125,74.70703125,60.05859375,0.0
7.23828125,48.33984375,42.48046875,-47.8515625,160.64453125,16.11328125,0.0
7.2421875,11.71875,76.171875,-45.41015625,110.3515625,-11.23046875,0.0
7.24609375,-11.71875,128.90625,2.44140625,92.7734375,0.0,0.0
7.25,33.69140625,97.65625,14.16015625,147.4609375,23.4375,0.0
7.25390625,37.109375,-38.0859375,7.8125,169.43359375,9.765625,0.0
7.2578125,1.953125,-81.0546875,10.7421875,158.203125,-0.9765625,0.0
7.26171875,-13.18359375,75.1953125,-28.3203125,136.71875,39.0625,0.0
7.265625,-41.015625,142.08984375,-82.51953125,122.0703125,-0.9765625,0.0
7.26953125,-20.01953125,90.8203125,-90.33203125,152.83203125,348.14453125,0.0
7.2734375,12.6953125,99.12109375,-5.37109375,180.17578125,233.88671875,0.0
7.27734375,16.6015625,50.78125,20.01953125,176.7578125,-235.3515625,0.0
7.28125,-33.69140625,-11.71875,-33.203125,135.25390625,-289.55078125,0.0
7.28515625,-35.15625,-42.48046875,10.7421875,163.0859375,-58.10546875,0.0
7.2890625,-32.2265625,-9.765625,36.62109375,151.3671875,193.84765625,0.0
7.29296875,-20.99609375,131.8359375,28.3203125,143.5546875,110.83984375,0.0
7.296875,-38.57421875,95.703125,-18.5546875,130.859375,-326.171875,0.0
7.30078125,-32.2265625,29.78515625,-41.015625,135.25390625,-391.11328125,0.0
7.3046875,-7.8125,72.75390625,-11.71875,185.546875,-136.23046875,0.0
7.30859375,-47.36328125,36.62109375,-47.8515625,131.34765625,231.93359375,0.0
7.3125,-36.62109375,35.64453125,-64.94140625,84.9609375,258.7890625,0.0
7.31640625,23.92578125,58.10546875,16.11328125,114.2578125,-192.3828125,0.0
7.3203125,2.44140625,0.0,33.203125,111.81640625,-379.39453125,0.0
7.32421875,-53.7109375,-8.7890625,2.44140625,99.12109375,-96.6796875,0.0
7.328125,-67.87109375,86.9140625,-72.75390625,85.9375,299.8046875,0.0
7.33203125,-28.80859375,56.640625,-110.83984375,110.3515625,266.6015625,0.0
7.3359375,19.04296875,39.0625,-6.34765625,145.99609375,-137.6953125,0.0
7.33984375,29.78515625,95.21484375,32.2265625,149.4140625,-395.01953125,0.0
7.34375,-24.90234375,87.40234375,17.578125,114.2578125,-225.09765625,0.0
7.34765625,-45.8984375,74.21875,21.484375,97.16796875,204.58984375,0.0
7.3515625,-17.08984375,27.83203125,-45.8984375,103.515625,275.390625,0.0
7.35546875,-1.46484375,-87.890625,-5.859375,133.7890625,-121.09375,0.0
7.359375,-27.34375,27.83203125,5.37109375,115.72265625,-474.12109375,0.0
7.36328125,-40.52734375,84.47265625,-87.40234375,94.7265625,-288.57421875,0.0
7.3671875,-34.66796875,1.953125,-28.3203125,124.0234375,203.61328125,0.0
7.37109375,5.859375,43.9453125,49.8046875,164.0625,293.9453125,0.0
7.375,3.41796875,112.79296875,-76.171875,130.859375,-126.46484375,0.0
7.37890625,-31.73828125,120.60546875,-106.4453125,89.35546875,-452.63671875,0.0
7.3828125,-41.50390625,48.33984375,8.7890625,107.91015625,-288.0859375,0.0
7.38671875,-87.890625,-63.4765625,2.44140625,91.30859375,97.16796875,0.0
7.390625,-34.66796875,-83.0078125,-2.9296875,125.48828125,308.59375,0.0
7.39453125,40.52734375,71.2890625,0.48828125,166.50390625,51.7578125,0.0
7.3984375,-28.80859375,128.41796875,-24.90234375,105.46875,-330.078125,0.0
7.40234375,-71.2890625,81.54296875,-23.4375,83.0078125,-275.390625,0.0
7.40625,-28.3203125,41.015625,-47.36328125,95.21484375,25.87890625,0.0
7.41015625,-3.90625,-21.484375,-27.83203125,116.69921875,223.14453125,0.0
7.4140625,-34.66796875,50.78125,-23.4375,108.3984375,-26.3671875,0.0
7.41796875,-26.85546875,99.12109375,-5.37109375,97.16796875,-433.59375,0.0
7.421875,20.99609375,-9.765625,16.6015625,110.83984375,-303.22265625,0.0
7.42578125,-54.19921875,-76.66015625,-29.296875,77.63671875,16.6015625,0.0
7.4296875,-88.8671875,13.671875,-91.30859375,85.44921875,242.67578125,0.0
7.43359375,-39.55078125,91.796875,-101.07421875,117.1875,113.76953125,0.0
7.4375,2.9296875,41.015625,10.7421875,130.37109375,-265.13671875,0.0
7.44140625,-4.39453125,27.34375,60.546875,90.8203125,-266.6015625,0.0
7.4453125,-47.8515625,68.84765625,5.859375,41.015625,24.90234375,0.0
7.44921875,-40.0390625,68.359375,-18.06640625,57.6171875,254.8828125,0.0
7.453125,5.859375,46.38671875,-29.78515625,92.28515625,137.20703125,0.0
7.45703125,67.3828125,-86.42578125,-27.83203125,151.85546875,-298.828125,0.0
7.4609375,-22.4609375,-43.45703125,-63.4765625,77.63671875,-427.734375,0.0
7.46484375,-79.1015625,56.15234375,-28.3203125,28.3203125,-125.48828125,0.0
7.46875,-5.859375,-13.671875,31.25,75.1953125,262.20703125,0.0
7.47265625,0.48828125,35.15625,-0.48828125,57.6171875,204.1015625,0.0
7.4765625,-22.4609375,101.07421875,-36.62109375,54.6875,-180.17578125,0.0
7.48046875,-46.38671875,75.68359375,-29.296875,82.03125,-257.32421875,0.0
7.484375,-48.828125,0.48828125,-34.66796875,71.2890625,-30.76171875,0.0
7.48828125,19.04296875,-19.53125,18.06640625,107.421875,273.92578125,0.0
7.4921875,86.42578125,-51.26953125,50.29296875,180.17578125,254.8828125,0.0
7.49609375,-17.08984375,-22.94921875,-66.40625,84.9609375,-129.39453125,0.0
7.5,-102.05078125,122.55859375,-89.84375,10.7421875,-337.40234375,0.0
7.50390625,-85.44921875,75.68359375,-11.23046875,64.94140625,-141.11328125,0.0
7.5078125,-44.43359375,1.953125,21.97265625,96.6796875,227.05078125,0.0
7.51171875,-52.24609375,29.78515625,-77.63671875,35.15625,261.23046875,0.0
7.515625,-41.9921875,24.4140625,-62.5,24.90234375,-174.8046875,0.0
7.51953125,21.484375,-70.80078125,78.61328125,89.35546875,-437.5,0.0
7.5234375,-58.10546875,-53.22265625,51.26953125,61.5234375,-286.62109375,0.0
7.52734375,-111.81640625,102.05078125,-23.92578125,27.34375,95.21484375,0.0
7.53125,-9.27734375,77.1484375,13.18359375,93.26171875,300.78125,0.0
7.53515625,18.5546875,-37.59765625,-10.25390625,107.91015625,-17.08984375,0.0
7.5390625,-45.8984375,-16.6015625,-33.203125,42.48046875,-371.09375,0.0
7.54296875,-91.30859375,-5.37109375,-4.8828125,40.0390625,-286.1328125,0.0
7.546875,-117.1875,-4.8828125,-11.71875,40.52734375,107.421875,0.0
7.55078125,-95.703125,61.03515625,-53.22265625,37.59765625,296.875,0.0
7.5546875,-62.5,36.62109375,-90.8203125,54.19921875,3.41796875,0.0
7.55859375,-35.64453125,-33.203125,-55.17578125,42.96875,-422.36328125,0.0
7.5625,-57.12890625,-1.46484375,-25.390625,15.13671875,-345.21484375,0.0
7.56640625,-59.08203125,2.9296875,14.6484375,47.8515625,146.97265625,0.0
7.5703125,-24.4140625,-34.1796875,24.90234375,65.91796875,435.05859375,0.0
7.57421875,-47.8515625,26.85546875,-5.37109375,38.0859375,210.9375,0.0
7.578125,-52.24609375,-3.41796875,1.46484375,57.12890625,-187.5,0.0
7.58203125,-44.921875,-49.8046875,-55.6640625,56.15234375,-220.703125,0.0
7.5859375,-83.0078125,-1.46484375,-77.1484375,20.99609375,65.91796875,0.0
7.58984375,-77.63671875,-60.546875,-4.39453125,34.1796875,311.5234375,0.0
7.59375,-22.94921875,8.7890625,15.625,37.59765625,134.27734375,0.0
7.59765625,-12.20703125,78.61328125,-3.90625,18.06640625,-280.2734375,0.0
7.6015625,-46.875,3.90625,-16.6015625,44.43359375,-321.2890625,0.0
7.60546875,-99.609375,61.03515625,-41.015625,39.55078125,10.7421875,0.0
7.609375,-78.61328125,67.87109375,-68.84765625,42.48046875,324.70703125,0.0
7.61328125,-22.94921875,-2.44140625,-19.04296875,53.7109375,185.546875,0.0
7.6171875,-19.53125,-61.03515625,15.625,39.55078125,-313.96484375,0.0
7.62109375,46.875,-188.96484375,20.99609375,98.6328125,-436.03515625,0.0
7.625,-8.7890625,-41.50390625,-17.08984375,47.36328125,-123.53515625,0.0
7.62890625,-81.0546875,168.9453125,-43.45703125,-32.2265625,226.07421875,0.0
7.6328125,-64.453125,137.6953125,-32.71484375,-6.34765625,166.015625,0.0
7.63671875,-98.14453125,52.24609375,-45.8984375,10.25390625,-275.390625,0.0
7.640625,-74.21875,26.3671875,-0.9765625,11.23046875,-349.12109375,0.0
7.64453125,-49.8046875,46.38671875,27.34375,23.4375,13.18359375,0.0
7.6484375,-54.6875,-7.8125,-0.9765625,14.16015625,340.33203125,0.0
7.65234375,-16.11328125,-140.13671875,-20.01953125,13.671875,286.1328125,0.0
7.65625,-36.62109375,-137.20703125,-53.22265625,-15.13671875,-147.4609375,0.0
7.66015625,-19.53125,2.44140625,-45.41015625,-15.625,-324.70703125,0.0
7.6640625,16.11328125,70.3125,-47.36328125,13.671875,-80.56640625,0.0
7.66796875,-37.59765625,39.55078125,-18.06640625,43.9453125,256.34765625,0.0
7.671875,-59.08203125,59.5703125,34.66796875,24.90234375,320.80078125,0.0
7.67578125,-17.08984375,78.125,36.1328125,18.5546875,-59.08203125,0.0
7.6796875,-4.8828125,6.8359375,2.44140625,14.16015625,-391.6015625,0.0
7.68359375,-16.11328125,-51.7578125,-6.34765625,12.20703125,-236.81640625,0.0
7.6875,-45.8984375,-35.64453125,-5.37109375,0.9765625,266.6015625,0.0
7.69140625,-33.69140625,-12.6953125,-12.6953125,-22.4609375,382.32421875,0.0
7.6953125,69.82421875,-29.78515625,-13.18359375,39.0625,-6.8359375,0.0
7.69921875,60.546875,-55.6640625,-68.84765625,39.0625,-292.48046875,0.0
7.703125,-90.8203125,66.89453125,-89.35546875,-75.1953125,-149.4140625,0.0
7.70703125,-118.65234375,138.671875,-66.40625,-98.14453125,260.25390625,0.0
7.7109375,-43.9453125,101.5625,-6.8359375,-49.31640625,351.07421875,0.0
7.71484375,-47.36328125,45.8984375,4.8828125,-14.16015625,10.7421875,0.0
7.71875,-74.21875,-41.9921875,4.39453125,-4.8828125,-326.171875,0.0
7.72265625,-20.01953125,-77.63671875,21.484375,2.44140625,-343.26171875,0.0
7.7265625,-30.2734375,-59.5703125,-45.8984375,-21.484375,64.453125,0.0
7.73046875,-59.08203125,48.828125,-53.7109375,-43.45703125,342.7734375,0.0
7.734375,44.43359375,55.17578125,93.26171875,20.5078125,74.70703125,0.0
7.73828125,7.8125,-6.34765625,49.31640625,-11.71875,-328.125,0.0
7.7421875,-102.05078125,25.87890625,-80.078125,-114.74609375,-237.79296875,0.0
7.74609375,-93.26171875,80.56640625,-109.86328125,-130.37109375,73.73046875,0.0
7.75,-39.55078125,-34.1796875,-65.4296875,-90.8203125,153.80859375,0.0
7.75390625,-12.6953125,-132.8125,-18.06640625,-69.3359375,-15.13671875,0.0
7.7578125,-44.921875,28.3203125,-7.32421875,-70.80078125,-378.90625,0.0
7.76171875,-48.33984375,52.24609375,1.953125,-59.08203125,-353.515625,0.0
7.765625,-30.76171875,-34.1796875,-31.73828125,-42.96875,27.83203125,0.0
7.76953125,-59.08203125,43.9453125,-41.015625,-61.5234375,305.17578125,0.0
7.7734375,-97.65625,96.19140625,-0.9765625,-73.2421875,164.55078125,0.0
7.77734375,-64.453125,74.70703125,22.4609375,-46.38671875,-216.796875,0.0
7.78125,-18.06640625,17.578125,4.39453125,-65.4296875,-375.0,0.0
7.78515625,5.37109375,-83.49609375,8.7890625,-32.2265625,-133.7890625,0.0
7.7890625,4.8828125,-57.6171875,8.7890625,-5.859375,302.734375,0.0
7.79296875,-43.9453125,44.921875,-42.96875,-64.94140625,270.5078125,0.0
7.796875,-99.609375,94.23828125,-30.76171875,-93.75,-189.453125,0.0
7.80078125,-76.171875,86.42578125,-9.765625,-93.26171875,-335.44921875,0.0
7.8046875,-24.90234375,12.20703125,-2.9296875,-102.5390625,0.48828125,0.0
7.80859375,-3.41796875,-26.85546875,16.11328125,-101.07421875,363.28125,0.0
7.8125,-26.85546875,-37.59765625,-0.48828125,-97.65625,265.13671875,0.0
7.81640625,-51.7578125,-55.17578125,-41.50390625,-83.0078125,-172.36328125,0.0
7.8203125,-9.765625,-77.63671875,-20.99609375,-25.87890625,-372.55859375,0.0
7.82421875,7.32421875,-51.7578125,4.8828125,-3.90625,-134.27734375,0.0
7.828125,-41.9921875,4.39453125,-4.8828125,-58.10546875,250.9765625,0.0
7.83203125,-51.26953125,49.31640625,-4.39453125,-73.2421875,258.30078125,0.0
7.8359375,-41.015625,49.31640625,-37.59765625,-60.546875,-109.86328125,0.0
7.83984375,-25.390625,33.69140625,-48.33984375,-48.33984375,-345.21484375,0.0
7.84375,-16.6015625,-18.5546875,-15.625,-45.8984375,-194.3359375,0.0
7.84765625,-37.59765625,-1.953125,-15.13671875,-41.9921875,210.9375,0.0
7.8515625,-25.87890625,30.76171875,0.0,-8.30078125,288.0859375,0.0
7.85546875,0.0,-11.23046875,5.37109375,-5.859375,-27.34375,0.0
7.859375,16.11328125,-86.42578125,34.1796875,10.25390625,-303.22265625,0.0
7.86328125,1.953125,-42.96875,-6.34765625,-2.44140625,-202.1484375,0.0
7.8671875,-50.78125,-0.9765625,-57.6171875,-47.8515625,172.8515625,0.0
7.87109375,-44.43359375,-42.96875,4.8828125,-39.0625,281.25,0.0
7.875,-28.80859375,-11.71875,-23.92578125,-33.203125,-65.4296875,0.0
7.87890625,-36.1328125,13.671875,-42.48046875,-12.20703125,-413.57421875,0.0
7.8828125,-9.27734375,-18.5546875,-15.13671875,11.23046875,-285.15625,0.0
7.88671875,-35.15625,-24.90234375,-74.70703125,-58.10546875,114.2578125,0.0
7.890625,-27.34375,-20.01953125,-54.19921875,-72.75390625,296.875,0.0
7.89453125,4.39453125,-27.83203125,-39.55078125,-20.99609375,52.734375,0.0
7.8984375,-14.6484375,-1.46484375,-95.21484375,-43.9453125,-328.125,0.0
7.90234375,-6.34765625,32.2265625,-122.0703125,-65.4296875,-213.37890625,0.0
7.90625,-24.90234375,-14.6484375,-17.578125,-29.78515625,215.8203125,0.0
7.91015625,-50.29296875,-44.43359375,42.48046875,-29.296875,342.28515625,0.0
7.9140625,-18.06640625,2.44140625,-27.34375,-28.3203125,51.26953125,0.0
7.91796875,-39.55078125,-45.8984375,-75.1953125,-85.44921875,-338.8671875,0.0
7.921875,-75.1953125,-55.17578125,-55.17578125,-103.515625,-335.9375,0.0
7.92578125,-41.015625,6.34765625,-2.9296875,-32.2265625,31.25,0.0
7.9296875,-21.484375,-2.9296875,-20.01953125,-26.3671875,283.69140625,0.0
7.93359375,-41.50390625,27.34375,-123.53515625,-56.15234375,115.72265625,0.0
7.9375,-21.484375,2.44140625,-58.59375,-57.6171875,-229.00390625,0.0
7.94140625,-27.34375,-92.28515625,16.11328125,-41.9921875,-309.08203125,0.0
7.9453125,-85.9375,-60.05859375,-49.8046875,-66.89453125,-62.5,0.0
7.94921875,-72.75390625,-33.69140625,-28.80859375,-63.96484375,247.0703125,0.0
7.953125,-45.41015625,-27.83203125,-5.37109375,-42.48046875,68.359375,0.0
7.95703125,-37.59765625,6.34765625,-6.8359375,-33.203125,-341.796875,0.0
7.9609375,-14.6484375,4.39453125,-15.625,-18.06640625,-345.703125,0.0
7.96484375,-43.45703125,-42.96875,-33.69140625,-30.76171875,5.37109375,0.0
7.96875,-40.52734375,-40.0390625,-19.04296875,-19.53125,368.1640625,0.0
7.97265625,-16.6015625,38.57421875,-35.15625,-7.8125,237.79296875,0.0
7.9765625,-48.33984375,45.8984375,-37.109375,-43.45703125,-214.84375,0.0
7.98046875,-42.48046875,-68.84765625,-29.296875,-39.0625,-350.09765625,0.0
7.984375,-17.578125,-116.69921875,-49.8046875,-29.296875,-102.05078125,0.0
7.98828125,-13.18359375,-148.92578125,-45.8984375,-22.94921875,302.24609375,0.0
7.9921875,2.9296875,-151.3671875,-34.1796875,-11.71875,238.76953125,0.0
7.99609375,-53.7109375,28.3203125,-23.4375,-52.734375,-189.453125,0.0
8.0,-86.42578125,97.65625,-51.7578125,-66.40625,-313.4765625,0.0
8.00390625,-36.62109375,33.203125,-31.73828125,-21.484375,-89.84375,0.0
8.0078125,-31.73828125,15.13671875,-19.53125,-57.12890625,343.75,0.0
8.01171875,-52.734375,-41.9921875,-34.1796875,-82.51953125,333.984375,0.0
8.015625,-20.99609375,-161.62109375,47.36328125,-4.39453125,-110.83984375,0.0
8.01953125,-32.2265625,-114.74609375,46.38671875,8.30078125,-340.33203125,0.0
8.0234375,-83.0078125,38.57421875,-38.57421875,-31.73828125,-216.30859375,0.0
8.02734375,-52.24609375,54.19921875,-23.4375,-35.15625,162.59765625,0.0
8.03125,-22.4609375,-2.9296875,-3.90625,-68.359375,240.72265625,0.0
8.03515625,-17.08984375,-17.578125,-26.3671875,-82.51953125,-103.02734375,0.0
8.0390625,-34.66796875,-0.9765625,-62.01171875,-79.58984375,-355.95703125,0.0
8.04296875,-33.203125,-62.5,-28.80859375,-41.015625,-218.75,0.0
8.046875,3.90625,-132.8125,-18.5546875,-15.625,188.96484375,0.0
8.05078125,-72.265625,-82.51953125,-107.91015625,-85.44921875,364.2578125,0.0
8.0546875,-88.37890625,8.7890625,-56.15234375,-92.7734375,22.94921875,0.0
8.05859375,-52.734375,-22.94921875,40.0390625,-47.8515625,-293.9453125,0.0
8.0625,-42.48046875,-7.8125,4.39453125,-59.08203125,-260.7421875,0.0
8.06640625,-13.18359375,8.7890625,-13.18359375,-64.453125,28.80859375,0.0
8.0703125,-46.875,-12.6953125,-9.27734375,-57.12890625,283.69140625,0.0
8.07421875,-93.75,-29.78515625,-41.50390625,-71.77734375,64.453125,0.0
8.078125,-83.0078125,-17.08984375,-37.59765625,-87.890625,-384.27734375,0.0
8.08203125,-48.33984375,5.859375,-14.16015625,-69.3359375,-374.0234375,0.0
8.0859375,27.34375,-125.48828125,3.41796875,-33.69140625,-18.5546875,0.0
8.08984375,66.40625,-141.6015625,41.9921875,-9.765625,244.62890625,0.0
8.09375,1.46484375,-60.546875,22.4609375,-36.62109375,59.08203125,0.0
8.09765625,-62.5,-39.0625,-78.125,-89.84375,-374.51171875,0.0
8.1015625,-71.77734375,57.12890625,-91.30859375,-110.83984375,-425.29296875,0.0
8.10546875,-82.03125,106.4453125,-50.29296875,-112.79296875,-110.3515625,0.0
8.109375,-95.21484375,39.55078125,-104.4921875,-116.69921875,217.7734375,0.0
8.11328125,-72.265625,0.48828125,-54.19921875,-87.40234375,116.69921875,0.0
8.1171875,-30.76171875,-49.8046875,34.1796875,-66.40625,-279.296875,0.0
8.12109375,-7.32421875,-61.5234375,22.4609375,-45.41015625,-347.65625,0.0
8.125,-51.7578125,5.37109375,10.7421875,-77.1484375,-39.55078125,0.0
8.12890625,-69.82421875,-62.98828125,14.6484375,-89.84375,248.046875,0.0
8.1328125,-29.296875,-93.75,0.9765625,-77.63671875,182.6171875,0.0
8.13671875,-17.578125,4.39453125,-15.13671875,-115.72265625,-224.609375,0.0
8.140625,-22.94921875,35.15625,-22.4609375,-100.5859375,-378.41796875,0.0
8.14453125,-70.3125,11.71875,-26.85546875,-69.82421875,-148.4375,0.0
8.1484375,-88.8671875,-29.296875,-21.484375,-104.00390625,216.796875,0.0
8.15234375,-9.765625,-74.21875,17.578125,-84.9609375,226.5625,0.0
8.15625,-17.08984375,-47.36328125,7.32421875,-90.33203125,-123.53515625,0.0
8.16015625,-80.078125,1.46484375,-72.75390625,-125.0,-304.19921875,0.0
8.1640625,-86.9140625,2.44140625,-84.47265625,-124.51171875,-184.5703125,0.0
8.16796875,-64.94140625,-32.71484375,-21.484375,-96.19140625,247.55859375,0.0
8.171875,-0.48828125,-77.1484375,12.6953125,-42.48046875,336.42578125,0.0
8.17578125,35.15625,-23.92578125,38.0859375,-35.15625,-96.6796875,0.0
8.1796875,-42.48046875,40.52734375,-12.6953125,-108.3984375,-382.32421875,0.0
8.18359375,-90.8203125,20.01953125,-63.96484375,-127.9296875,-166.9921875,0.0
8.1875,-44.921875,8.30078125,-36.1328125,-93.26171875,233.88671875,0.0
8.19140625,-23.92578125,13.671875,-11.71875,-89.84375,252.9296875,0.0
8.1953125,-53.7109375,-1.953125,-18.06640625,-96.19140625,-72.75390625,0.0
8.19921875,-27.34375,-41.015625,-0.9765625,-76.66015625,-320.3125,0.0
8.203125,-7.8125,-77.63671875,0.0,-72.265625,-175.29296875,0.0
8.20703125,-1.953125,-79.1015625,3.90625,-56.15234375,225.09765625,0.0
8.2109375,-21.484375,-61.03515625,-26.3671875,-61.03515625,363.76953125,0.0
8.21484375,-46.875,11.71875,-90.33203125,-89.35546875,78.61328125,0.0
8.21875,-20.01953125,51.7578125,-85.9375,-63.96484375,-250.0,0.0
8.22265625,-6.8359375,-30.76171875,-24.4140625,-61.5234375,-263.671875,0.0
8.2265625,-70.3125,-77.1484375,0.48828125,-130.37109375,99.609375,0.0
8.23046875,-67.87109375,-106.93359375,15.13671875,-101.5625,341.30859375,0.0
8.234375,-22.94921875,-103.02734375,-42.96875,-89.84375,113.28125,0.0
8.23828125,-62.5,15.13671875,-64.453125,-165.0390625,-296.875,0.0
8.2421875,-159.1796875,100.5859375,-21.484375,-227.5390625,-321.77734375,0.0
8.24609375,-183.59375,114.74609375,-32.71484375,-219.7265625,71.2890625,0.0
8.25,-86.9140625,82.03125,-38.0859375,-144.53125,316.89453125,0.0
8.25390625,-74.21875,3.90625,-50.29296875,-146.97265625,125.0,0.0
8.2578125,-110.3515625,-58.10546875,-40.0390625,-185.546875,-246.58203125,0.0
8.26171875,-61.5234375,-83.984375,-29.78515625,-178.22265625,-339.84375,0.0
8.265625,-76.171875,-74.70703125,-57.12890625,-190.4296875,-33.69140625,0.0
8.26953125,-115.234375,-52.734375,-29.296875,-207.51953125,349.12109375,0.0
8.2734375,-121.58203125,-44.921875,-6.34765625,-188.4765625,201.66015625,0.0
8.27734375,-122.0703125,58.59375,-52.24609375,-195.80078125,-230.46875,0.0
8.28125,-89.35546875,59.08203125,-104.4921875,-183.59375,-361.81640625,0.0
8.28515625,-78.125,-4.39453125,-84.9609375,-176.26953125,-26.85546875,0.0
8.2890625,-84.47265625,-17.578125,-37.109375,-200.1953125,372.55859375,0.0
8.29296875,-57.6171875,-23.92578125,9.765625,-164.55078125,243.65234375,0.0
8.296875,-49.8046875,-31.25,27.83203125,-127.44140625,-151.3671875,0.0
8.30078125,-91.30859375,-36.1328125,-22.4609375,-157.2265625,-287.59765625,0.0
8.3046875,-95.21484375,-12.20703125,-52.24609375,-154.296875,-111.81640625,0.0
8.30859375,-78.125,-41.50390625,-58.59375,-113.28125,199.21875,0.0
8.3125,-46.38671875,-31.73828125,-52.734375,-96.6796875,167.96875,0.0
8.31640625,-27.83203125,25.87890625,-13.671875,-127.9296875,-237.79296875,0.0
8.3203125,-62.5,-7.8125,-14.16015625,-163.0859375,-471.19140625,0.0
8.32421875,-103.515625,-48.33984375,-41.9921875,-157.71484375,-203.61328125,0.0
8.328125,-99.12109375,-13.671875,-41.9921875,-129.39453125,237.79296875,0.0
8.33203125,-70.3125,50.78125,-55.17578125,-119.62890625,317.87109375,0.0
8.3359375,-20.99609375,-2.44140625,-42.48046875,-90.33203125,-121.58203125,0.0
8.33984375,-22.94921875,-193.84765625,-76.171875,-98.14453125,-466.796875,0.0
8.34375,-38.57421875,-102.5390625,-100.09765625,-97.65625,-172.36328125,0.0
8.34765625,54.6875,26.85546875,12.20703125,-14.16015625,436.03515625,0.0
8.3515625,-5.859375,50.78125,30.76171875,-89.84375,675.29296875,0.0
8.35546875,-123.53515625,59.5703125,-18.06640625,-162.59765625,261.23046875,0.0
8.359375,-104.98046875,-27.34375,-19.04296875,-132.32421875,-28.3203125,0.0
8.36328125,-68.359375,-40.0390625,-36.62109375,-108.3984375,68.84765625,0.0
8.3671875,-13.671875,-114.2578125,-17.08984375,-56.640625,416.9921875,0.0
8.37109375,-3.90625,-133.7890625,-16.6015625,-66.89453125,570.80078125,0.0
8.375,-31.25,43.45703125,-83.984375,-133.7890625,165.52734375,0.0
8.37890625,20.5078125,52.734375,-72.265625,-100.09765625,-249.51171875,0.0
8.3828125,11.71875,5.37109375,-43.9453125,-55.6640625,-218.75,0.0
8.38671875,-81.54296875,9.765625,-10.25390625,-108.88671875,181.15234375,0.0
8.390625,-118.1640625,-38.0859375,-10.25390625,-131.8359375,426.26953125,0.0
8.39453125,-62.5,-39.55078125,-24.90234375,-73.73046875,110.3515625,0.0
8.3984375,0.48828125,-20.5078125,-40.0390625,-59.5703125,-308.10546875,0.0
8.40234375,-1.46484375,20.5078125,-99.609375,-116.2109375,-300.78125,0.0
8.40625,-24.90234375,-38.0859375,-51.7578125,-125.0,47.36328125,0.0
8.41015625,29.296875,-181.640625,64.94140625,-44.921875,260.7421875,0.0
8.4140625,13.18359375,-82.51953125,46.875,-45.8984375,74.21875,0.0
8.41796875,-61.03515625,56.15234375,-41.9921875,-125.48828125,-311.5234375,0.0
8.421875,-57.12890625,26.85546875,-72.265625,-136.71875,-333.0078125,0.0
8.42578125,-74.70703125,19.04296875,-105.46875,-134.765625,21.484375,0.0
8.4296875,-68.359375,-15.625,-89.84375,-111.81640625,289.0625,0.0
8.43359375,-34.1796875,-45.41015625,-18.5546875,-80.56640625,5.859375,0.0
8.4375,-5.37109375,-69.3359375,-31.73828125,-81.0546875,-374.51171875,0.0
8.44140625,13.18359375,-99.609375,-75.1953125,-75.68359375,-387.20703125,0.0
8.4453125,2.9296875,-152.34375,-13.18359375,-45.41015625,-228.515625,0.0
8.44921875,-34.1796875,-122.55859375,34.66796875,-47.8515625,46.875,0.0
8.453125,-5.37109375,33.203125,-11.23046875,-54.19921875,6.8359375,0.0
8.45703125,-7.8125,38.57421875,-2.9296875,-59.08203125,-349.609375,0.0
8.4609375,-79.1015625,-20.5078125,10.25390625,-97.65625,-446.77734375,0.0
8.46484375,-56.640625,4.39453125,-36.62109375,-127.9296875,-200.1953125,0.0
8.46875,-40.0390625,-39.0625,-52.734375,-118.1640625,230.95703125,0.0
8.47265625,32.71484375,-83.49609375,-3.90625,-41.015625,275.87890625,0.0
8.4765625,68.84765625,-14.6484375,0.0,-6.8359375,-186.03515625,0.0
8.48046875,-57.12890625,45.8984375,-72.75390625,-122.0703125,-363.76953125,0.0
8.484375,-125.0,28.80859375,-100.5859375,-166.50390625,-97.16796875,0.0
8.48828125,-75.1953125,-8.7890625,-36.1328125,-106.93359375,380.859375,0.0
8.4921875,-32.2265625,-54.19921875,-0.9765625,-94.23828125,317.87109375,0.0
8.49609375,4.39453125,-88.37890625,7.32421875,-70.80078125,-183.10546875,0.0
8.5,28.3203125,-91.796875,3.41796875,-34.1796875,-379.39453125,0.0
8.50390625,-25.390625,-27.34375,-76.171875,-76.171875,-197.265625,0.0
8.5078125,-41.9921875,10.7421875,-81.0546875,-99.12109375,245.60546875,0.0
8.51171875,-10.25390625,-86.42578125,-70.80078125,-107.91015625,375.0,0.0
8.515625,8.30078125,-82.03125,-30.76171875,-98.6328125,-41.015625,0.0
8.51953125,-18.06640625,-60.05859375,25.87890625,-56.640625,-316.89453125,0.0
8.5234375,-60.546875,-73.2421875,5.859375,-56.640625,-226.5625,0.0
8.52734375,-55.6640625,-20.99609375,-32.2265625,-81.54296875,151.85546875,0.0
8.53125,-33.69140625,-5.859375,-58.59375,-88.37890625,377.44140625,0.0
8.53515625,-19.53125,-89.84375,-55.6640625,-62.01171875,18.5546875,0.0
8.5390625,-21.97265625,-120.60546875,-63.4765625,-58.59375,-389.16015625,0.0
8.54296875,-45.8984375,-19.04296875,-95.703125,-90.33203125,-352.05078125,0.0
8.546875,-35.64453125,20.01953125,-36.62109375,-71.2890625,101.5625,0.0
8.55078125,10.7421875,21.484375,57.6171875,-35.64453125,356.4453125,0.0
8.5546875,-11.71875,-5.859375,37.59765625,-81.0546875,10.7421875,0.0
8.55859375,-50.29296875,-44.43359375,-35.15625,-117.67578125,-312.98828125,0.0
8.5625,-37.109375,-48.33984375,-42.48046875,-93.26171875,-251.46484375,0.0
8.56640625,-16.11328125,-150.87890625,1.953125,-76.66015625,25.87890625,0.0
8.5703125,-45.8984375,-102.5390625,-36.1328125,-104.00390625,308.10546875,0.0
8.57421875,-57.6171875,31.25,-112.3046875,-113.28125,142.08984375,0.0
8.578125,-30.76171875,-27.83203125,-56.15234375,-92.28515625,-283.203125,0.0
8.58203125,-39.55078125,-124.0234375,15.13671875,-104.00390625,-267.578125,0.0
8.5859375,-100.09765625,-69.3359375,9.765625,-139.6484375,62.01171875,0.0
8.58984375,-87.890625,9.27734375,-0.9765625,-139.6484375,285.15625,0.0
8.59375,-41.9921875,-8.7890625,-32.2265625,-105.95703125,146.97265625,0.0
8.59765625,-45.8984375,-29.78515625,-71.2890625,-101.07421875,-309.5703125,0.0
8.6015625,12.20703125,-175.78125,-55.17578125,-55.6640625,-470.703125,0.0
8.60546875,75.68359375,-275.87890625,30.2734375,6.8359375,-171.875,0.0
8.609375,-32.71484375,-27.83203125,25.87890625,-104.4921875,293.45703125,0.0
8.61328125,-129.39453125,164.0625,-65.4296875,-190.91796875,229.00390625,0.0
8.6171875,-115.234375,103.515625,-105.95703125,-151.85546875,-191.40625,0.0
8.62109375,-50.29296875,-16.6015625,-122.0703125,-105.95703125,-286.62109375,0.0
8.625,-2.44140625,-70.3125,-126.953125,-58.10546875,-102.5390625,0.0
8.62890625,10.7421875,-110.3515625,-20.99609375,-50.29296875,292.96875,0.0
8.6328125,16.6015625,-61.5234375,104.4921875,-62.5,202.63671875,0.0
8.63671875,-1.953125,32.2265625,73.2421875,-92.7734375,-387.20703125,0.0
8.640625,-20.99609375,4.39453125,26.85546875,-125.9765625,-584.47265625,0.0
8.64453125,-36.62109375,-74.70703125,-4.8828125,-112.79296875,-290.52734375,0.0
8.6484375,-19.53125,-66.89453125,-14.6484375,-75.1953125,208.49609375,0.0
8.65234375,3.90625,-67.3828125,-43.45703125,-55.17578125,245.1171875,0.0
8.65625,0.48828125,-97.16796875,-116.2109375,-94.7265625,-148.92578125,0.0
8.66015625,-14.16015625,-95.703125,-95.703125,-84.9609375,-326.66015625,0.0
8.6640625,25.390625,-96.6796875,58.10546875,2.9296875,-131.8359375,0.0
8.66796875,-14.6484375,-54.19921875,69.82421875,-32.2265625,241.69921875,0.0
8.671875,-84.9609375,-34.66796875,-39.55078125,-108.3984375,265.13671875,0.0
8.67578125,-30.76171875,-68.84765625,-96.6796875,-105.46875,-101.5625,0.0
8.6796875,-2.44140625,-42.96875,-24.4140625,-98.6328125,-380.859375,0.0
8.68359375,-67.3828125,-12.20703125,22.4609375,-111.328125,-314.94140625,0.0
8.6875,-54.6875,-91.30859375,4.39453125,-77.1484375,120.1171875,0.0
8.69140625,48.33984375,-75.1953125,35.64453125,17.578125,330.56640625,0.0
8.6953125,25.87890625,-35.15625,8.7890625,10.25390625,17.08984375,0.0
8.69921875,-54.6875,-131.34765625,-101.07421875,-60.05859375,-268.5546875,0.0
8.703125,-45.41015625,-202.63671875,-93.26171875,-73.2421875,-169.43359375,0.0
8.70703125,-78.61328125,-64.94140625,-32.71484375,-125.0,183.10546875,0.0
8.7109375,-105.95703125,30.2734375,-20.5078125,-114.2578125,360.3515625,0.0
8.71484375,-61.03515625,-0.48828125,-51.7578125,-59.5703125,-45.41015625,0.0
8.71875,-31.25,-64.94140625,-95.703125,-52.734375,-396.97265625,0.0
8.72265625,-53.22265625,-91.796875,-61.03515625,-72.75390625,-153.3203125,0.0
8.7265625,-51.26953125,-46.875,-50.78125,-91.30859375,170.8984375,0.0
8.73046875,-5.859375,-142.08984375,-7.32421875,-60.546875,227.5390625,0.0
8.734375,-11.71875,-197.265625,28.80859375,-44.921875,20.01953125,0.0
8.73828125,-33.203125,-72.75390625,-54.6875,-45.8984375,-362.79296875,0.0
8.7421875,11.23046875,-38.57421875,2.9296875,-22.94921875,-332.03125,0.0
8.74609375,-24.90234375,-62.01171875,60.546875,-57.12890625,33.203125,0.0
8.75,-84.9609375,-89.84375,-8.30078125,-121.09375,259.765625,0.0
8.75390625,-52.24609375,-91.796875,-28.80859375,-100.5859375,62.5,0.0
8.7578125,-9.27734375,-84.9609375,-45.41015625,-76.171875,-343.26171875,0.0
8.76171875,-25.390625,-43.9453125,-25.87890625,-99.609375,-360.3515625,0.0
8.765625,-21.97265625,-48.828125,-33.69140625,-65.91796875,-55.6640625,0.0
8.76953125,2.9296875,-212.40234375,-97.16796875,-28.80859375,252.44140625,0.0
8.7734375,-26.85546875,-151.3671875,-27.83203125,-76.66015625,163.57421875,0.0
8.77734375,-38.57421875,22.4609375,31.73828125,-104.4921875,-255.859375,0.0
8.78125,-80.56640625,12.20703125,-19.04296875,-110.83984375,-295.8984375,0.0
8.78515625,-58.59375,-10.25390625,-27.34375,-66.40625,-117.67578125,0.0
8.7890625,34.1796875,-58.10546875,17.08984375,16.6015625,186.03515625,0.0
8.79296875,-1.46484375,-101.5625,20.5078125,-23.92578125,218.75,0.0
8.796875,-67.87109375,-41.9921875,-26.85546875,-105.46875,-182.12890625,0.0
8.80078125,-33.69140625,-117.67578125,-37.109375,-78.61328125,-338.8671875,0.0
8.8046875,18.06640625,-196.77734375,-65.91796875,-32.71484375,-160.64453125,0.0
8.80859375,-49.8046875,-21.484375,-47.36328125,-79.58984375,213.8671875,0.0
8.8125,-71.77734375,21.484375,-14.16015625,-67.3828125,219.7265625,0.0
8.81640625,-29.78515625,-124.51171875,-53.7109375,-30.2734375,-155.2734375,0.0
8.8203125,-34.66796875,-40.0390625,-52.24609375,-57.12890625,-366.69921875,0.0
8.82421875,-59.08203125,58.59375,12.6953125,-70.80078125,-239.2578125,0.0
8.828125,-41.9921875,-21.484375,25.390625,-46.875,80.078125,0.0
8.83203125,46.875,-129.8828125,26.3671875,-0.9765625,104.00390625,0.0
8.8359375,26.3671875,-120.1171875,17.578125,-38.0859375,-282.71484375,0.0
8.83984375,-25.390625,2.44140625,-29.296875,-83.984375,-528.3203125,0.0
8.84375,-9.765625,3.41796875,-54.6875,-59.5703125,-298.828125,0.0
8.84765625,-29.296875,-63.96484375,-44.921875,-65.4296875,90.8203125,0.0
8.8515625,-58.10546875,-41.015625,-23.4375,-107.421875,238.76953125,0.0
8.85546875,-53.22265625,1.953125,-46.875,-81.0546875,-32.2265625,0.0
8.859375,-49.31640625,-12.20703125,-49.8046875,-40.52734375,-415.52734375,0.0
8.86328125,-29.296875,-83.984375,-18.06640625,-46.38671875,-402.34375,0.0
8.8671875,7.8125,-136.23046875,39.55078125,-30.76171875,68.84765625,0.0
8.87109375,12.20703125,-176.7578125,38.0859375,-32.2265625,302.24609375,0.0
8.875,3.90625,-136.23046875,-65.91796875,-67.3828125,-22.4609375,0.0
8.87890625,-20.5078125,20.99609375,-59.5703125,-69.82421875,-383.7890625,0.0
8.8828125,-45.41015625,70.80078125,10.25390625,-67.87109375,-350.09765625,0.0
8.88671875,-68.84765625,22.94921875,-59.5703125,-108.3984375,-33.69140625,0.0
8.890625,-44.43359375,-85.44921875,-58.10546875,-64.453125,308.59375,0.0
8.89453125,37.109375,-264.16015625,94.23828125,33.203125,151.3671875,0.0
8.8984375,-42.96875,-120.1171875,24.4140625,-67.87109375,-348.6328125,0.0
8.90234375,-110.83984375,107.421875,-50.29296875,-100.5859375,-360.83984375,0.0
8.90625,-58.59375,67.3828125,-14.6484375,-64.453125,-28.80859375,0.0
8.91015625,-37.59765625,-12.6953125,-40.0390625,-114.2578125,205.078125,0.0
8.9140625,-58.59375,-45.8984375,-50.29296875,-110.3515625,112.79296875,0.0
8.91796875,-44.921875,-74.70703125,-143.06640625,-65.4296875,-203.125,0.0
8.921875,27.34375,-115.72265625,-75.1953125,-7.32421875,-198.73046875,0.0
8.92578125,18.5546875,-159.66796875,96.6796875,-7.32421875,95.21484375,0.0
8.9296875,-51.7578125,-131.8359375,70.80078125,-82.51953125,358.3984375,0.0
8.93359375,-73.73046875,-11.71875,-6.8359375,-125.0,304.19921875,0.0
8.9375,-62.98828125,58.10546875,-67.3828125,-120.60546875,-84.9609375,0.0
8.94140625,-48.828125,34.1796875,-85.44921875,-118.1640625,-268.06640625,0.0
8.9453125,-23.92578125,-72.75390625,-23.4375,-65.4296875,-45.41015625,0.0
8.94921875,43.9453125,-164.0625,87.890625,43.9453125,380.37109375,0.0
8.953125,5.859375,-63.96484375,63.96484375,7.32421875,335.44921875,0.0
8.95703125,-61.03515625,14.6484375,-47.8515625,-104.4921875,-189.94140625,0.0
8.9609375,-34.1796875,-68.84765625,-84.47265625,-77.63671875,-420.8984375,0.0
8.96484375,-32.71484375,-73.73046875,-126.46484375,-59.5703125,-118.65234375,0.0
8.96875,-50.78125,-56.15234375,-114.2578125,-77.1484375,358.88671875,0.0
8.97265625,-11.23046875,-88.37890625,27.83203125,-23.4375,335.44921875,0.0
8.9765625,25.87890625,-56.640625,38.57421875,-9.765625,-104.98046875,0.0
8.98046875,1.953125,7.32421875,-41.015625,-49.31640625,-321.2890625,0.0
8.984375,50.29296875,-112.79296875,52.24609375,24.90234375,-238.76953125,0.0
8.98828125,72.75390625,-193.359375,79.1015625,53.22265625,128.90625,0.0
8.9921875,-31.25,9.765625,-31.25,-49.8046875,227.05078125,0.0
8.99609375,-68.359375,93.26171875,-49.8046875,-99.12109375,-183.59375,0.0
9.0,-33.69140625,-38.0859375,-63.4765625,-90.33203125,-438.96484375,0.0
9.00390625,-0.48828125,-132.8125,-179.6875,-73.2421875,-271.484375,0.0
9.0078125,18.5546875,-81.54296875,-77.63671875,-36.62109375,131.8359375,0.0
9.01171875,-20.99609375,2.9296875,65.91796875,-43.9453125,223.6328125,0.0
9.015625,-25.87890625,10.25390625,45.41015625,-81.54296875,-128.90625,0.0
9.01953125,-7.32421875,-97.65625,10.7421875,-41.015625,-458.49609375,0.0
9.0234375,-14.6484375,-93.75,8.7890625,12.20703125,-338.8671875,0.0
9.02734375,11.23046875,-67.3828125,39.0625,5.859375,146.484375,0.0
9.03125,7.32421875,-131.8359375,-31.73828125,-25.87890625,261.23046875,0.0
9.03515625,-1.953125,-65.4296875,-85.9375,-71.77734375,0.9765625,0.0
9.0390625,1.46484375,25.390625,-37.59765625,-66.40625,-256.34765625,0.0
9.04296875,-59.5703125,5.37109375,-23.92578125,-58.59375,-254.8828125,0.0
9.046875,-82.03125,-27.83203125,-35.64453125,-43.9453125,191.40625,0.0
9.05078125,-11.23046875,-94.23828125,-88.8671875,-10.25390625,471.6796875,0.0
9.0546875,9.765625,-62.98828125,-77.1484375,6.34765625,119.62890625,0.0
9.05859375,-22.4609375,-62.98828125,9.765625,-8.30078125,-343.75,0.0
9.0625,26.85546875,-224.12109375,61.5234375,5.37109375,-304.6875,0.0
9.06640625,36.1328125,-165.52734375,9.27734375,-12.20703125,77.1484375,0.0
9.0703125,-13.18359375,50.29296875,-102.05078125,-24.90234375,289.0625,0.0
9.07421875,-22.4609375,43.9453125,-116.69921875,-3.90625,120.1171875,0.0
9.078125,-21.97265625,-66.40625,-34.1796875,-2.9296875,-331.54296875,0.0
9.08203125,-14.16015625,-141.6015625,52.24609375,26.3671875,-487.79296875,0.0
9.0859375,-12.20703125,-83.49609375,31.25,22.4609375,-46.38671875,0.0
9.08984375,-35.15625,-86.42578125,-12.6953125,-19.04296875,406.25,0.0
9.09375,45.41015625,-198.2421875,34.1796875,29.78515625,193.359375,0.0
9.09765625,91.30859375,-133.7890625,13.671875,71.2890625,-266.6015625,0.0
9.1015625,-32.71484375,-14.16015625,-131.34765625,-37.59765625,-396.97265625,0.0
9.10546875,-92.7734375,-41.9921875,-108.3984375,-63.4765625,-27.34375,0.0
9.109375,-64.94140625,-62.98828125,-32.2265625,0.48828125,441.40625,0.0
9.11328125,-35.15625,-22.94921875,-51.7578125,-0.48828125,310.546875,0.0
9.1171875,-15.13671875,-34.66796875,-126.46484375,-34.66796875,-166.50390625,0.0
9.12109375,-10.7421875,-72.265625,-82.51953125,-41.50390625,-335.9375,0.0
9.125,12.20703125,-55.17578125,61.5234375,16.11328125,-17.08984375,0.0
9.12890625,12.6953125,-88.8671875,85.9375,55.17578125,362.79296875,0.0
9.1328125,-3.90625,-187.01171875,21.97265625,35.15625,258.30078125,0.0
9.13671875,-22.94921875,-161.1328125,-65.4296875,1.46484375,-115.234375,0.0
9.140625,-46.38671875,-38.0859375,-89.84375,1.46484375,-354.4921875,0.0
9.14453125,-36.1328125,-1.953125,-41.9921875,15.625,-153.3203125,0.0
9.1484375,-13.18359375,-43.45703125,20.01953125,33.203125,319.3359375,0.0
9.15234375,-9.27734375,-61.5234375,10.25390625,42.96875,324.21875,0.0
9.15625,-20.99609375,-77.63671875,-46.38671875,34.1796875,-89.84375,0.0
9.16015625,-39.55078125,-105.46875,-66.40625,10.7421875,-397.94921875,0.0
9.1640625,-27.83203125,-154.78515625,-79.1015625,21.484375,-243.1640625,0.0
9.16796875,-17.578125,-190.4296875,-96.6796875,45.41015625,245.60546875,0.0
9.171875,-17.08984375,-71.2890625,-67.3828125,46.38671875,316.89453125,0.0
9.17578125,40.0390625,-57.12890625,37.109375,106.4453125,-50.78125,0.0
9.1796875,19.53125,-125.48828125,54.6875,101.07421875,-289.0625,0.0
9.18359375,-57.6171875,-13.18359375,-57.6171875,6.8359375,-153.3203125,0.0
9.1875,-76.171875,-5.859375,-57.12890625,-6.8359375,246.58203125,0.0
9.19140625,-73.2421875,-75.68359375,-62.98828125,32.71484375,359.375,0.0
9.1953125,-67.3828125,-74.70703125,-158.69140625,42.96875,13.671875,0.0
9.19921875,-43.45703125,-47.8515625,-52.24609375,49.31640625,-290.52734375,0.0
9.203125,41.9921875,-138.18359375,66.89453125,104.4921875,-189.94140625,0.0
9.20703125,51.26953125,-258.30078125,65.4296875,148.92578125,177.24609375,0.0
9.2109375,-33.69140625,-110.3515625,46.875,128.90625,341.30859375,0.0
9.21484375,-19.53125,-54.19921875,29.78515625,118.65234375,80.078125,0.0
9.21875,-41.015625,-91.30859375,-62.01171875,45.8984375,-279.78515625,0.0
9.22265625,-79.58984375,-26.85546875,-140.625,6.34765625,-257.32421875,0.0
9.2265625,-43.9453125,13.18359375,-94.7265625,49.8046875,86.9140625,0.0
9.23046875,-23.4375,-18.06640625,-27.34375,66.89453125,353.515625,0.0
9.234375,-53.22265625,-82.51953125,-55.6640625,58.59375,106.4453125,0.0
9.23828125,-41.50390625,-108.88671875,-95.703125,51.26953125,-383.7890625,0.0
9.2421875,3.90625,-119.140625,-57.6171875,81.0546875,-408.69140625,0.0
9.24609375,20.01953125,-237.3046875,24.4140625,139.16015625,25.390625,0.0
9.25,-11.23046875,-156.73828125,6.8359375,110.3515625,370.60546875,0.0
9.25390625,-48.828125,24.90234375,-77.1484375,43.45703125,198.2421875,0.0
9.2578125,-28.3203125,-34.1796875,-62.98828125,71.2890625,-375.48828125,0.0
9.26171875,-20.5078125,-92.28515625,-53.7109375,83.984375,-412.59765625,0.0
9.265625,-55.17578125,-46.875,-63.96484375,55.17578125,30.76171875,0.0
9.26953125,-34.66796875,-48.828125,-30.76171875,100.09765625,313.96484375,0.0
9.2734375,44.921875,-142.578125,-50.78125,160.64453125,162.109375,0.0
9.27734375,45.41015625,-174.31640625,-3.41796875,152.83203125,-211.9140625,0.0
9.28125,-30.76171875,-122.55859375,-4.8828125,118.1640625,-298.33984375,0.0
9.28515625,-71.77734375,-14.6484375,-63.4765625,66.40625,-52.734375,0.0
9.2890625,-22.4609375,24.90234375,-77.63671875,56.640625,325.1953125,0.0
9.29296875,-13.671875,-34.66796875,-91.796875,71.2890625,288.0859375,0.0
9.296875,-67.3828125,-41.50390625,-83.984375,82.03125,-142.578125,0.0
9.30078125,-37.59765625,-58.10546875,-73.73046875,114.74609375,-393.06640625,0.0
9.3046875,11.71875,-136.71875,-73.73046875,136.71875,-174.8046875,0.0
9.30859375,34.1796875,-217.28515625,-70.80078125,139.16015625,275.87890625,0.0
9.3125,4.8828125,-117.67578125,-48.33984375,116.69921875,270.99609375,0.0
9.31640625,-37.109375,-27.83203125,-3.90625,99.12109375,-117.1875,0.0
9.3203125,-53.22265625,-37.59765625,-23.92578125,92.7734375,-334.47265625,0.0
9.32421875,-18.06640625,-78.125,-94.7265625,102.05078125,-95.21484375,0.0
9.328125,18.06640625,-110.83984375,-50.78125,130.859375,362.79296875,0.0
9.33203125,-0.9765625,-112.3046875,-4.39453125,125.0,332.51953125,0.0
9.3359375,21.484375,-93.26171875,-25.87890625,153.80859375,-155.76171875,0.0
9.33984375,36.1328125,-18.06640625,-59.08203125,172.8515625,-464.35546875,0.0
9.34375,27.34375,-83.0078125,-89.84375,186.5234375,-339.35546875,0.0
9.34765625,16.6015625,-181.15234375,-42.48046875,186.5234375,153.3203125,0.0
9.3515625,-51.26953125,-4.8828125,-31.73828125,102.5390625,326.66015625,0.0
9.35546875,-29.78515625,57.12890625,-66.89453125,114.74609375,-84.9609375,0.0
9.359375,9.27734375,-12.6953125,-41.015625,125.48828125,-352.05078125,0.0
9.36328125,5.859375,-34.66796875,-20.01953125,133.30078125,-170.8984375,0.0
9.3671875,-3.90625,-33.203125,-59.08203125,165.0390625,211.9140625,0.0
9.37109375,16.11328125,-91.796875,-42.48046875,168.9453125,321.2890625,0.0
9.375,7.8125,-127.44140625,-17.578125,178.22265625,-62.01171875,0.0
9.37890625,-23.92578125,-49.31640625,-147.4609375,179.6875,-461.42578125,0.0
9.3828125,-10.25390625,-21.97265625,-144.04296875,145.5078125,-338.37890625,0.0
9.38671875,36.1328125,-74.70703125,26.3671875,168.9453125,77.63671875,0.0
9.390625,30.2734375,-38.57421875,54.19921875,186.5234375,338.37890625,0.0
9.39453125,3.41796875,-12.6953125,-36.1328125,168.9453125,4.8828125,0.0
9.3984375,15.625,-64.94140625,-51.7578125,175.78125,-425.78125,0.0
9.40234375,2.44140625,-51.7578125,-11.71875,171.875,-231.93359375,0.0
9.40625,-12.20703125,2.44140625,-90.8203125,171.875,110.83984375,0.0
9.41015625,-46.38671875,-20.01953125,-198.73046875,140.625,317.3828125,0.0
9.4140625,-2.44140625,-107.91015625,-42.48046875,164.0625,92.7734375,0.0
9.41796875,90.33203125,-139.16015625,64.94140625,188.4765625,-366.2109375,0.0
9.421875,30.76171875,23.92578125,-27.83203125,117.67578125,-373.046875,0.0
9.42578125,-26.3671875,99.609375,-18.06640625,121.58203125,-16.6015625,0.0
9.4296875,-3.90625,-18.06640625,-26.3671875,181.640625,302.24609375,0.0
9.43359375,36.1328125,-109.86328125,-107.91015625,202.1484375,93.26171875,0.0
9.4375,19.04296875,-51.26953125,-44.43359375,187.98828125,-370.60546875,0.0
9.44140625,0.48828125,-24.90234375,26.3671875,181.15234375,-414.55078125,0.0
9.4453125,9.27734375,-80.078125,-29.78515625,154.78515625,-88.8671875,0.0
9.44921875,7.8125,-1.953125,-62.98828125,129.8828125,372.0703125,0.0
9.453125,16.11328125,69.3359375,-49.31640625,152.83203125,311.5234375,0.0
9.45703125,32.2265625,68.84765625,-24.4140625,165.52734375,-242.67578125,0.0
9.4609375,32.71484375,57.6171875,-44.43359375,174.31640625,-365.234375,0.0
9.46484375,27.34375,16.6015625,-65.91796875,206.0546875,-75.1953125,0.0
9.46875,29.78515625,-41.50390625,2.44140625,209.47265625,297.8515625,0.0
9.47265625,51.26953125,-140.13671875,2.44140625,162.109375,233.88671875,0.0
9.4765625,101.5625,-151.85546875,18.5546875,197.265625,-175.78125,0.0
9.48046875,50.29296875,1.46484375,21.484375,224.12109375,-353.515625,0.0
9.484375,-77.63671875,104.98046875,-129.39453125,128.41796875,-152.83203125,0.0
9.48828125,-51.26953125,82.03125,-160.15625,119.62890625,288.0859375,0.0
9.4921875,-2.9296875,44.921875,-25.87890625,151.85546875,324.70703125,0.0
9.49609375,3.90625,31.25,27.34375,130.37109375,-45.8984375,0.0
9.5,56.15234375,-4.39453125,57.6171875,200.68359375,-317.87109375,0.0
9.50390625,52.24609375,10.25390625,41.50390625,244.62890625,-250.48828125,0.0
9.5078125,-5.37109375,-23.92578125,3.41796875,186.5234375,205.56640625,0.0
9.51171875,-4.8828125,2.44140625,19.04296875,161.62109375,384.27734375,0.0
9.515625,26.85546875,-32.71484375,30.76171875,196.77734375,-44.43359375,0.0
9.51953125,60.546875,-103.515625,-18.5546875,213.8671875,-418.45703125,0.0
9.5234375,-29.296875,42.96875,-152.83203125,130.859375,-198.73046875,0.0
9.52734375,-54.19921875,86.9140625,-39.0625,151.85546875,211.9140625,0.0
9.53125,42.96875,51.7578125,127.9296875,234.86328125,229.4921875,0.0
9.53515625,18.06640625,40.0390625,62.01171875,206.54296875,-15.13671875,0.0
9.5390625,-24.90234375,0.9765625,-10.25390625,166.9921875,-339.35546875,0.0
9.54296875,-41.015625,12.20703125,-33.203125,140.625,-240.234375,0.0
9.546875,-42.96875,31.73828125,-35.64453125,133.30078125,218.26171875,0.0
9.55078125,5.37109375,-26.85546875,-11.23046875,182.6171875,388.671875,0.0
9.5546875,72.265625,-82.51953125,25.87890625,250.9765625,25.390625,0.0
9.55859375,10.25390625,5.859375,-18.06640625,179.6875,-458.49609375,0.0
9.5625,-70.3125,101.07421875,-49.31640625,103.02734375,-369.140625,0.0
9.56640625,-42.48046875,115.72265625,-21.97265625,137.20703125,0.48828125,0.0
9.5703125,17.08984375,50.78125,15.13671875,169.921875,191.89453125,0.0
9.57421875,32.71484375,6.34765625,-4.39453125,173.828125,4.8828125,0.0
9.578125,-36.62109375,37.59765625,-26.85546875,148.92578125,-366.2109375,0.0
9.58203125,-73.2421875,69.3359375,-13.18359375,139.16015625,-374.51171875,0.0
9.5859375,-44.43359375,42.48046875,-4.39453125,138.671875,-42.96875,0.0
9.58984375,24.90234375,-66.40625,21.484375,189.453125,255.37109375,0.0
9.59375,51.26953125,-53.22265625,-9.27734375,222.16796875,165.0390625,0.0
9.59765625,-21.484375,136.23046875,-102.5390625,164.55078125,-246.09375,0.0
9.6015625,-6.8359375,149.4140625,-80.56640625,156.73828125,-387.20703125,0.0
9.60546875,47.8515625,60.546875,104.00390625,184.5703125,-125.0,0.0
9.609375,-36.1328125,94.23828125,88.8671875,136.23046875,210.9375,0.0
9.61328125,-99.609375,122.0703125,2.44140625,120.60546875,142.578125,0.0
9.6171875,-63.96484375,66.40625,-6.8359375,136.71875,-358.88671875,0.0
9.62109375,-19.04296875,13.18359375,-6.8359375,152.34375,-552.24609375,0.0
9.625,-21.484375,91.796875,-21.484375,155.76171875,-204.58984375,0.0
9.62890625,-56.640625,138.671875,-98.14453125,129.39453125,199.70703125,0.0
9.6328125,-78.61328125,90.33203125,-106.4453125,144.04296875,108.3984375,0.0
9.63671875,-18.06640625,75.68359375,-14.6484375,155.2734375,-276.85546875,0.0
9.640625,49.31640625,34.66796875,8.7890625,167.48046875,-424.31640625,0.0
9.64453125,8.30078125,32.71484375,-9.765625,178.22265625,-128.90625,0.0
9.6484375,-38.57421875,57.12890625,32.71484375,139.16015625,327.1484375,0.0
9.65234375,-54.6875,83.49609375,20.5078125,122.0703125,365.72265625,0.0
9.65625,-56.640625,92.7734375,-23.92578125,139.6484375,-124.0234375,0.0
9.66015625,-25.390625,53.22265625,-16.11328125,159.1796875,-375.9765625,0.0
9.6640625,-48.33984375,69.82421875,-72.75390625,126.46484375,-135.25390625,0.0
9.66796875,-23.4375,48.828125,-35.64453125,128.90625,340.33203125,0.0
9.671875,-3.90625,90.33203125,52.734375,134.765625,435.05859375,0.0
9.67578125,-47.36328125,198.73046875,44.921875,106.93359375,-71.77734375,0.0
9.6796875,1.46484375,78.61328125,55.6640625,134.765625,-481.93359375,0.0
9.68359375,-8.30078125,7.32421875,-22.94921875,141.6015625,-334.9609375,0.0
9.6875,-84.47265625,161.1328125,-84.9609375,89.35546875,197.265625,0.0
9.69140625,-82.03125,195.80078125,-53.7109375,45.8984375,372.0703125,0.0
9.6953125,-77.1484375,145.5078125,-17.578125,67.87109375,-32.71484375,0.0
9.69921875,-80.078125,83.49609375,9.765625,75.68359375,-368.65234375,0.0
9.703125,-69.3359375,128.41796875,17.578125,60.05859375,-204.58984375,0.0
9.70703125,-43.45703125,134.27734375,32.71484375,104.4921875,206.54296875,0.0
9.7109375,-8.30078125,-3.41796875,21.484375,132.8125,361.81640625,0.0
9.71484375,-58.59375,17.578125,-1.953125,90.33203125,18.06640625,0.0
9.71875,-87.890625,154.78515625,-20.01953125,70.3125,-355.46875,0.0
9.72265625,-50.78125,75.68359375,10.7421875,110.83984375,-290.52734375,0.0
9.7265625,-43.9453125,31.73828125,22.4609375,149.90234375,158.203125,0.0
9.73046875,-89.35546875,130.859375,0.9765625,124.0234375,420.8984375,0.0
9.734375,-104.98046875,184.08203125,15.625,98.14453125,104.00390625,0.0
9.73828125,-65.4296875,168.9453125,20.99609375,96.6796875,-387.20703125,0.0
9.7421875,-61.5234375,136.71875,-45.41015625,85.9375,-367.1875,0.0
9.74609375,-55.17578125,56.15234375,-38.57421875,134.27734375,74.21875,0.0
9.75,-31.25,-24.90234375,45.41015625,181.640625,310.546875,0.0
9.75390625,-66.89453125,25.87890625,43.45703125,142.08984375,143.5546875,0.0
9.7578125,-114.2578125,143.5546875,-23.4375,102.5390625,-212.40234375,0.0
9.76171875,-100.5859375,243.1640625,-60.546875,121.58203125,-302.734375,0.0
9.765625,-40.0390625,178.7109375,-27.83203125,161.1328125,-33.203125,0.0
9.76953125,-62.5,62.5,-48.828125,104.00390625,327.63671875,0.0
9.7734375,-92.7734375,127.44140625,-32.2265625,43.45703125,243.65234375,0.0
9.77734375,-64.94140625,104.4921875,22.94921875,65.4296875,-257.8125,0.0
9.78125,-89.35546875,71.77734375,-41.015625,69.3359375,-432.6171875,0.0
9.78515625,-124.51171875,116.69921875,-91.30859375,42.96875,-159.1796875,0.0
9.7890625,-85.44921875,72.265625,22.4609375,95.703125,327.63671875,0.0
9.79296875,-32.2265625,124.51171875,78.125,125.48828125,262.6953125,0.0
9.796875,-41.50390625,226.5625,4.8828125,79.1015625,-225.09765625,0.0
9.80078125,-104.98046875,204.1015625,-40.0390625,82.03125,-402.83203125,0.0
9.8046875,-96.6796875,169.921875,-48.828125,131.8359375,-125.9765625,0.0
9.80859375,-14.6484375,110.83984375,-20.01953125,172.8515625,329.58984375,0.0
9.8125,-22.4609375,30.2734375,33.69140625,178.7109375,321.2890625,0.0
9.81640625,-59.5703125,89.84375,33.203125,162.59765625,-80.56640625,0.0
9.8203125,-127.9296875,181.15234375,-111.328125,69.3359375,-348.6328125,0.0
9.82421875,-131.34765625,125.0,-130.859375,83.984375,-180.6640625,0.0
9.828125,-95.21484375,88.37890625,16.6015625,173.828125,261.71875,0.0
9.83203125,-112.3046875,195.80078125,50.78125,181.640625,365.234375,0.0
9.8359375,-101.5625,222.65625,19.04296875,166.50390625,-90.33203125,0.0
9.83984375,-56.640625,158.203125,45.8984375,204.58984375,-351.5625,0.0
9.84375,-23.4375,94.23828125,47.36328125,223.14453125,-203.61328125,0.0
9.84765625,-39.0625,97.65625,-27.34375,181.640625,182.12890625,0.0
9.8515625,-71.2890625,112.79296875,-32.2265625,178.22265625,386.23046875,0.0
9.85546875,-84.9609375,185.05859375,15.13671875,198.2421875,49.8046875,0.0
9.859375,-66.40625,216.796875,-1.953125,166.9921875,-378.90625,0.0
9.86328125,-80.56640625,174.8046875,-58.59375,135.7421875,-381.8359375,0.0
9.8671875,-67.3828125,96.19140625,-54.19921875,205.56640625,108.88671875,0.0
9.87109375,-41.9921875,85.9375,40.0390625,256.8359375,395.99609375,0.0
9.875,-48.828125,146.97265625,55.17578125,210.9375,66.89453125,0.0
9.87890625,-49.31640625,154.78515625,28.3203125,197.75390625,-373.53515625,0.0
9.8828125,-92.7734375,122.55859375,4.39453125,183.10546875,-314.94140625,0.0
9.88671875,-104.98046875,129.8828125,8.30078125,197.265625,160.15625,0.0
9.890625,-21.484375,7.8125,59.5703125,290.0390625,432.12890625,0.0
9.89453125,32.71484375,-12.6953125,89.84375,320.3125,112.3046875,0.0
9.8984375,-72.75390625,225.5859375,-26.85546875,194.3359375,-335.9375,0.0
9.90234375,-191.40625,247.55859375,-108.3984375,98.6328125,-269.04296875,0.0
9.90625,-151.3671875,164.0625,-43.45703125,127.9296875,91.796875,0.0
9.91015625,-115.234375,144.53125,-34.66796875,165.52734375,359.86328125,0.0
9.9140625,-83.984375,104.4921875,-21.97265625,210.44921875,102.05078125,0.0
9.91796875,-56.15234375,43.45703125,22.94921875,228.02734375,-379.8828125,0.0
9.921875,-69.82421875,8.30078125,20.5078125,218.75,-375.48828125,0.0
9.92578125,-68.84765625,115.72265625,11.23046875,214.84375,32.2265625,0.0
9.9296875,-74.21875,217.28515625,-70.3125,224.12109375,305.17578125,0.0
9.93359375,-34.1796875,156.25,-64.453125,264.16015625,159.1796875,0.0
9.9375,-3.41796875,104.98046875,69.82421875,272.4609375,-223.6328125,0.0
9.94140625,-83.0078125,96.6796875,-88.37890625,168.9453125,-415.0390625,0.0
9.9453125,-131.8359375,84.47265625,-145.99609375,154.78515625,-153.3203125,0.0
9.94921875,-107.91015625,106.4453125,44.43359375,208.984375,349.609375,0.0
9.953125,-107.91015625,131.34765625,80.56640625,200.68359375,249.51171875,0.0
9.95703125,-116.2109375,126.953125,34.1796875,216.796875,-301.26953125,0.0
9.9609375,-116.69921875,90.8203125,-5.37109375,195.80078125,-387.6953125,0.0
9.96484375,-70.3125,51.7578125,9.765625,217.7734375,-94.7265625,0.0
9.96875,-21.484375,-4.39453125,13.18359375,266.11328125,262.6953125,0.0
9.97265625,-76.66015625,55.6640625,-44.43359375,195.3125,199.70703125,0.0
9.9765625,-141.6015625,194.3359375,-67.3828125,156.73828125,-188.4765625,0.0
9.98046875,-122.55859375,181.640625,-29.296875,198.73046875,-373.53515625,0.0
9.984375,-84.47265625,120.1171875,-2.44140625,232.421875,-172.36328125,0.0
9.98828125,-114.2578125,99.609375,-27.83203125,186.5234375,208.0078125,0.0
9.9921875,-106.93359375,93.75,-42.48046875,157.71484375,237.3046875,0.0
9.99609375,-64.453125,57.6171875,9.27734375,224.609375,-143.06640625,0.0
10.0,-61.5234375,15.625,6.34765625,257.32421875,-371.58203125,0.0
10.00390625,-166.015625,150.87890625,-116.69921875,143.06640625,-226.07421875,1.0
10.0078125,-197.75390625,171.38671875,-132.32421875,115.234375,228.02734375,1.0
10.01171875,-105.46875,-2.9296875,-4.8828125,188.4765625,383.7890625,1.0
10.015625,-78.61328125,-11.71875,33.69140625,176.7578125,-18.06640625,1.0
10.01953125,-123.53515625,129.39453125,-17.08984375,140.625,-331.54296875,1.0
10.0234375,-170.8984375,217.28515625,-50.78125,142.578125,-241.2109375,1.0
10.02734375,-182.12890625,179.19921875,-88.8671875,147.4609375,162.109375,1.0
10.03125,-104.4921875,120.60546875,-38.0859375,179.6875,275.87890625,1.0
10.03515625,-61.5234375,43.45703125,33.203125,170.41015625,-75.1953125,1.0
10.0390625,-86.9140625,70.80078125,-23.4375,164.0625,-450.68359375,1.0
10.04296875,-91.30859375,37.109375,-82.51953125,183.10546875,-420.41015625,1.0
10.046875,-56.640625,25.87890625,-9.27734375,203.125,57.12890625,1.0
10.05078125,-95.21484375,164.0625,12.20703125,160.64453125,454.58984375,1.0
10.0546875,-147.4609375,218.26171875,-28.3203125,104.98046875,182.6171875,1.0
10.05859375,-125.9765625,136.23046875,-29.296875,118.1640625,-288.57421875,1.0
10.0625,-132.8125,49.31640625,-37.59765625,133.30078125,-244.140625,1.0
10.06640625,-153.80859375,51.7578125,-74.70703125,101.07421875,112.3046875,1.0
10.0703125,-115.234375,84.9609375,-78.125,83.49609375,382.32421875,1.0
10.07421875,-89.84375,27.83203125,-13.18359375,132.8125,137.6953125,1.0
10.078125,-130.37109375,3.90625,-10.7421875,135.25390625,-381.34765625,1.0
10.08203125,-116.69921875,96.6796875,-56.640625,130.37109375,-315.91796875,1.0
10.0859375,-95.21484375,82.51953125,-106.93359375,135.25390625,65.91796875,1.0
10.08984375,-131.8359375,121.09375,-103.02734375,100.09765625,265.13671875,1.0
10.09375,-134.27734375,187.01171875,-41.50390625,83.984375,142.08984375,1.0
10.09765625,-119.140625,149.4140625,-11.23046875,105.95703125,-289.55078125,1.0
10.1015625,-150.87890625,107.91015625,-11.23046875,104.98046875,-414.55078125,1.0
10.10546875,-130.859375,55.17578125,0.9765625,115.234375,-92.7734375,1.0
10.109375,-97.65625,14.16015625,-34.66796875,114.74609375,276.3671875,1.0
10.11328125,-133.7890625,15.13671875,-78.125,94.7265625,123.046875,1.0
10.1171875,-144.53125,0.0,-80.078125,92.28515625,-273.92578125,1.0
10.12109375,-110.83984375,-20.99609375,-87.890625,98.6328125,-357.91015625,1.0
10.125,-61.03515625,74.21875,-32.2265625,137.20703125,-106.4453125,1.0
10.12890625,-112.3046875,75.68359375,-49.8046875,100.5859375,333.49609375,1.0
10.1328125,-150.87890625,15.625,-69.82421875,68.84765625,266.11328125,1.0
10.13671875,-168.45703125,56.640625,-35.15625,72.75390625,-265.625,1.0
10.140625,-205.56640625,107.91015625,-51.26953125,53.7109375,-467.28515625,1.0
10.14453125,-148.4375,82.03125,-136.71875,98.6328125,-242.67578125,1.0
10.1484375,-114.2578125,-17.578125,-124.0234375,124.0234375,192.3828125,1.0
10.15234375,-164.0625,-1.953125,-24.90234375,58.10546875,252.44140625,1.0
10.15625,-152.34375,69.82421875,-24.4140625,27.34375,-178.7109375,1.0
10.16015625,-178.7109375,7.8125,-57.12890625,35.15625,-405.76171875,1.0
10.1640625,-224.609375,57.12890625,-73.2421875,46.875,-125.9765625,1.0
10.16796875,-195.80078125,11.23046875,-62.01171875,51.7578125,334.47265625,1.0
10.171875,-180.17578125,-53.7109375,-31.25,41.015625,369.140625,1.0
10.17578125,-153.3203125,-53.22265625,-77.1484375,68.84765625,-14.16015625,1.0
10.1796875,-134.27734375,-44.43359375,-108.3984375,80.56640625,-280.2734375,1.0
10.18359375,-185.546875,81.54296875,-55.17578125,50.29296875,-197.75390625,1.0
10.1875,-201.66015625,95.703125,-31.73828125,26.85546875,180.6640625,1.0
10.19140625,-207.51953125,103.02734375,-51.26953125,16.11328125,323.73046875,1.0
10.1953125,-198.73046875,99.609375,-81.0546875,9.27734375,-67.3828125,1.0
10.19921875,-156.73828125,42.48046875,-66.89453125,15.13671875,-383.7890625,1.0
10.203125,-188.4765625,-91.30859375,-140.13671875,2.44140625,-271.97265625,1.0
10.20703125,-242.67578125,-64.453125,-163.57421875,-22.4609375,58.59375,1.0
10.2109375,-269.53125,70.3125,-56.15234375,-38.0859375,261.71875,1.0
10.21484375,-228.515625,57.12890625,-24.90234375,-20.5078125,42.48046875,1.0
10.21875,-186.5234375,22.4609375,-67.3828125,-1.953125,-342.28515625,1.0
10.22265625,-188.96484375,-45.8984375,-100.5859375,-3.90625,-280.2734375,1.0
10.2265625,-173.33984375,-49.31640625,-83.0078125,23.92578125,84.47265625,1.0
10.23046875,-146.484375,5.37109375,-74.70703125,45.8984375,267.578125,1.0
10.234375,-144.04296875,-61.03515625,-97.16796875,26.3671875,72.75390625,1.0
10.23828125,-145.01953125,36.62109375,-72.265625,16.11328125,-314.453125,1.0
10.2421875,-175.29296875,60.546875,-42.96875,-10.7421875,-312.01171875,1.0
10.24609375,-229.98046875,15.625,-103.515625,-20.01953125,90.33203125,1.0
10.25,-225.09765625,46.38671875,-144.53125,0.48828125,372.0703125,1.0
10.25390625,-132.32421875,-47.36328125,20.5078125,56.640625,173.828125,1.0
10.2578125,-124.51171875,-42.48046875,24.4140625,31.25,-290.52734375,1.0
10.26171875,-171.38671875,90.33203125,-79.1015625,-1.953125,-406.73828125,1.0
10.265625,-180.6640625,49.8046875,-87.890625,6.8359375,-63.4765625,1.0
10.26953125,-161.62109375,-10.7421875,-80.078125,25.390625,256.8359375,1.0
10.2734375,-111.81640625,70.80078125,-76.171875,20.01953125,179.19921875,1.0
10.27734375,-121.09375,68.84765625,-108.3984375,23.4375,-171.875,1.0
10.28125,-143.5546875,-17.08984375,-65.91796875,25.390625,-307.12890625,1.0
10.28515625,-165.0390625,11.71875,-95.21484375,-20.01953125,-130.859375,1.0
10.2890625,-163.57421875,58.10546875,-108.3984375,4.39453125,226.07421875,1.0
10.29296875,-123.046875,29.296875,-28.80859375,33.203125,233.3984375,1.0
10.296875,-123.53515625,20.5078125,-48.33984375,22.94921875,-208.49609375,1.0
10.30078125,-116.2109375,49.31640625,-71.77734375,29.78515625,-367.1875,1.0
10.3046875,-94.7265625,-61.5234375,-85.9375,36.62109375,-229.98046875,1.0
10.30859375,-120.60546875,-35.64453125,-46.38671875,21.97265625,168.9453125,1.0
10.3125,-127.44140625,100.09765625,-25.87890625,9.27734375,331.0546875,1.0
10.31640625,-121.09375,46.38671875,-36.1328125,6.8359375,-98.14453125,1.0
10.3203125,-129.8828125,63.4765625,-60.546875,21.97265625,-356.4453125,1.0
10.32421875,-97.65625,72.265625,-89.35546875,41.9921875,-178.7109375,1.0
10.328125,-81.0546875,-17.578125,-65.4296875,-3.41796875,244.62890625,1.0
10.33203125,-129.8828125,45.8984375,-67.3828125,-2.9296875,277.83203125,1.0
10.3359375,-156.25,66.40625,-100.5859375,10.7421875,-129.39453125,1.0
10.33984375,-127.9296875,16.6015625,-61.5234375,16.6015625,-379.39453125,1.0
10.34375,-126.46484375,6.34765625,-33.69140625,24.90234375,-311.5234375,1.0
10.34765625,-152.83203125,36.1328125,-44.921875,20.99609375,76.171875,1.0
10.3515625,-121.09375,50.78125,-67.3828125,10.7421875,303.22265625,1.0
10.35546875,-121.09375,53.22265625,-77.63671875,-5.37109375,-19.53125,1.0
10.359375,-158.69140625,43.45703125,-51.7578125,-17.08984375,-459.47265625,1.0
10.36328125,-146.484375,3.41796875,-53.22265625,-7.8125,-359.375,1.0
10.3671875,-131.34765625,25.87890625,-49.8046875,5.37109375,12.20703125,1.0
10.37109375,-135.7421875,87.890625,-32.2265625,12.20703125,167.48046875,1.0
10.375,-102.5390625,67.87109375,-6.8359375,24.90234375,-14.6484375,1.0
10.37890625,-86.9140625,-9.765625,-26.85546875,12.20703125,-447.75390625,1.0
10.3828125,-117.1875,20.01953125,-69.82421875,-1.953125,-457.03125,1.0
10.38671875,-119.62890625,0.0,-82.51953125,9.27734375,18.5546875,1.0
