timestamp,TP9,AF7,AF8,TP10,AUX,Marker,
324.00390625,-79.58984375,-42.48046875,-22.94921875,-76.171875,-46.875,0.0
324.0078125,-98.6328125,-27.34375,-28.3203125,-86.9140625,-121.58203125,0.0
324.01171875,-124.0234375,-42.96875,-22.4609375,-78.125,-114.74609375,0.0
324.015625,-82.51953125,-83.49609375,-5.37109375,-63.4765625,-83.0078125,0.0
324.01953125,-57.12890625,-70.3125,-0.9765625,-43.9453125,-52.24609375,0.0
324.0234375,-48.33984375,-47.8515625,-9.27734375,-39.55078125,-43.45703125,0.0
324.02734375,-61.03515625,-59.08203125,-8.30078125,-45.8984375,-21.97265625,0.0
324.03125,-62.98828125,-45.41015625,-4.8828125,-55.6640625,25.390625,0.0
324.03515625,-61.03515625,-40.52734375,-14.16015625,-68.84765625,38.57421875,0.0
324.0390625,-70.3125,-56.640625,-21.484375,-59.5703125,-4.39453125,0.0
324.04296875,-68.84765625,-56.640625,-17.08984375,-49.31640625,-44.921875,0.0
324.046875,-59.5703125,-61.5234375,-28.80859375,-47.8515625,-45.41015625,0.0
324.05078125,-60.546875,-55.6640625,-37.109375,-40.52734375,-17.578125,0.0
324.0546875,-62.01171875,-57.12890625,-29.296875,-40.52734375,58.10546875,0.0
324.05859375,-65.4296875,-73.73046875,-23.92578125,-53.7109375,21.484375,0.0
324.0625,-71.77734375,-60.546875,-23.92578125,-46.875,-45.8984375,0.0
324.06640625,-48.33984375,-57.12890625,-25.390625,-27.34375,-79.58984375,0.0
324.0703125,-54.19921875,-67.87109375,-34.1796875,-47.36328125,-120.1171875,0.0
324.07421875,-77.63671875,-53.22265625,-33.203125,-47.8515625,-34.66796875,0.0
324.078125,-62.98828125,-51.7578125,-26.85546875,-43.9453125,-0.9765625,0.0
324.08203125,-54.19921875,-61.5234375,-38.57421875,-67.87109375,8.30078125,0.0
324.0859375,-64.94140625,-65.91796875,-38.0859375,-58.59375,40.52734375,0.0
324.08984375,-65.4296875,-58.59375,-36.62109375,-52.24609375,6.34765625,0.0
324.09375,-59.5703125,-55.17578125,-36.1328125,-68.359375,-34.1796875,0.0
324.09765625,-54.19921875,-58.10546875,-29.296875,-59.5703125,-45.8984375,0.0
324.1015625,-52.24609375,-62.98828125,-26.3671875,-44.43359375,-9.765625,0.0
324.10546875,-48.33984375,-45.41015625,-18.5546875,-49.31640625,13.671875,0.0
324.109375,-46.38671875,-35.15625,-20.01953125,-48.828125,-32.2265625,0.0
324.11328125,-46.38671875,-53.22265625,-31.73828125,-37.59765625,-37.59765625,0.0
324.1171875,-19.04296875,-56.640625,-25.390625,-29.78515625,-6.8359375,0.0
324.12109375,-5.37109375,-64.94140625,-16.11328125,-35.64453125,-16.6015625,0.0
324.125,-75.68359375,-67.3828125,-21.97265625,-59.08203125,32.71484375,0.0
324.12890625,-75.68359375,-49.31640625,-31.25,-57.12890625,58.59375,0.0
324.1328125,-39.55078125,-51.7578125,-26.85546875,-55.6640625,-6.8359375,0.0
324.13671875,-54.19921875,-75.1953125,-16.11328125,-59.5703125,-44.43359375,0.0
324.140625,-42.48046875,-64.453125,-10.7421875,-47.36328125,-69.82421875,0.0
324.14453125,-39.55078125,-39.0625,-18.06640625,-60.546875,-31.25,0.0
324.1484375,-47.36328125,-30.76171875,-28.3203125,-46.875,-50.29296875,0.0
324.15234375,-50.78125,-35.64453125,-36.62109375,-33.69140625,-25.87890625,0.0
324.15625,-37.109375,-34.66796875,-39.55078125,-51.7578125,49.31640625,0.0
324.16015625,-33.203125,-35.64453125,-42.96875,-48.33984375,-6.8359375,0.0
324.1640625,-58.59375,-33.203125,-48.828125,-64.94140625,-164.55078125,0.0
324.16796875,-41.50390625,-13.18359375,-41.9921875,-63.4765625,-106.93359375,0.0
324.171875,-32.2265625,-18.06640625,-40.52734375,-49.31640625,-27.34375,0.0
324.17578125,-42.48046875,-42.96875,-45.41015625,-38.0859375,-58.59375,0.0
324.1796875,-39.0625,-24.90234375,-51.26953125,-30.2734375,-31.73828125,0.0
324.18359375,-45.41015625,-24.90234375,-50.78125,-28.3203125,-53.22265625,0.0
324.1875,-46.875,-54.19921875,-48.33984375,-40.52734375,-98.6328125,0.0
324.19140625,-49.31640625,-63.96484375,-49.8046875,-37.109375,-150.87890625,0.0
324.1953125,-51.7578125,-41.50390625,-45.8984375,-29.296875,-103.02734375,0.0
324.19921875,-50.29296875,-26.3671875,-37.59765625,-31.73828125,-24.4140625,0.0
324.203125,-38.0859375,-27.83203125,-40.0390625,-38.0859375,12.20703125,0.0
324.20703125,-45.41015625,-23.92578125,-42.96875,-39.0625,-2.9296875,0.0
324.2109375,-61.03515625,-19.53125,-42.48046875,-44.921875,-33.69140625,0.0
324.21484375,-53.22265625,-15.625,-42.96875,-55.6640625,-51.26953125,0.0
324.21875,-55.6640625,-5.37109375,-42.48046875,-46.38671875,11.71875,0.0
324.22265625,-57.12890625,-13.18359375,-31.73828125,-34.1796875,23.92578125,0.0
324.2265625,-49.31640625,-17.578125,-20.99609375,-37.59765625,-59.08203125,0.0
324.23046875,-48.33984375,-13.671875,-25.390625,-43.9453125,-68.359375,0.0
324.234375,-40.0390625,-30.76171875,-29.296875,-37.59765625,-25.87890625,0.0
324.23828125,-44.43359375,-44.43359375,-23.92578125,-40.0390625,-40.52734375,0.0
324.2421875,-29.296875,-31.73828125,-14.16015625,-38.0859375,-70.80078125,0.0
324.24609375,-43.9453125,-27.34375,-19.53125,-23.92578125,21.97265625,0.0
324.25,-81.0546875,-14.6484375,-29.296875,-39.55078125,13.18359375,0.0
324.25390625,-51.7578125,5.37109375,-26.3671875,-53.22265625,-44.921875,0.0
324.2578125,-44.43359375,4.39453125,-26.85546875,-41.9921875,-17.578125,0.0
324.26171875,-36.62109375,-17.08984375,-30.76171875,-24.90234375,-60.546875,0.0
324.265625,-22.94921875,-36.1328125,-16.6015625,-10.7421875,-96.6796875,0.0
324.26953125,-38.0859375,-24.4140625,-14.6484375,-14.16015625,-80.56640625,0.0
324.2734375,-38.0859375,-25.390625,-13.671875,-21.97265625,-80.56640625,0.0
324.27734375,-34.1796875,-45.8984375,-4.8828125,-24.4140625,-104.00390625,0.0
324.28125,-30.2734375,-62.01171875,-9.27734375,-22.4609375,-95.21484375,0.0
324.28515625,-17.08984375,-49.31640625,-11.71875,-32.71484375,-74.70703125,0.0
324.2890625,-22.94921875,-33.203125,-17.08984375,-27.83203125,-75.68359375,0.0
324.29296875,-15.625,-38.0859375,-8.7890625,-22.94921875,-108.3984375,0.0
324.296875,-11.23046875,-32.71484375,-6.8359375,-32.71484375,-91.30859375,0.0
324.30078125,-31.73828125,-37.59765625,-15.625,-37.59765625,6.8359375,0.0
324.3046875,15.13671875,-41.015625,10.7421875,6.8359375,11.23046875,0.0
324.30859375,16.11328125,-35.64453125,19.53125,1.953125,-33.203125,0.0
324.3125,-14.6484375,-27.34375,17.08984375,0.9765625,39.0625,0.0
324.31640625,10.7421875,-33.203125,20.99609375,24.4140625,64.94140625,0.0
324.3203125,-4.8828125,-34.1796875,6.34765625,-3.90625,25.87890625,0.0
324.32421875,-14.16015625,-8.7890625,-1.953125,-16.6015625,-21.484375,0.0
324.328125,-21.97265625,-9.765625,-9.27734375,-29.296875,-18.5546875,0.0
324.33203125,-36.1328125,-12.6953125,-27.83203125,-23.92578125,27.83203125,0.0
324.3359375,-35.15625,-14.6484375,-32.2265625,-25.390625,32.2265625,0.0
324.33984375,-36.62109375,-37.109375,-34.1796875,-36.62109375,-14.6484375,0.0
324.34375,-40.52734375,-45.8984375,-29.78515625,-14.6484375,-22.4609375,0.0
324.34765625,-44.921875,-17.08984375,-19.04296875,-21.97265625,29.78515625,0.0
324.3515625,-40.0390625,-9.765625,-21.484375,-51.7578125,-29.78515625,0.0
324.35546875,-43.9453125,-27.34375,-32.2265625,-59.5703125,-141.11328125,0.0
324.359375,-51.7578125,-35.64453125,-39.0625,-50.29296875,-80.56640625,0.0
324.36328125,-39.55078125,-47.36328125,-39.55078125,-37.59765625,20.99609375,0.0
324.3671875,-49.31640625,-57.12890625,-32.71484375,-28.80859375,-7.32421875,0.0
324.37109375,-43.45703125,-55.17578125,-27.83203125,-21.484375,43.9453125,0.0
324.375,-32.2265625,-60.546875,-35.15625,-23.4375,15.625,0.0
324.37890625,-47.8515625,-67.3828125,-28.3203125,-38.0859375,-102.5390625,0.0
324.3828125,-47.8515625,-63.4765625,-15.625,-40.0390625,-90.33203125,0.0
324.38671875,-41.50390625,-62.01171875,-9.765625,-24.90234375,-44.921875,0.0
324.390625,-43.9453125,-66.89453125,-10.7421875,-28.80859375,-14.6484375,0.0
324.39453125,-39.55078125,-65.4296875,-9.765625,-18.06640625,12.6953125,0.0
324.3984375,-35.15625,-68.84765625,-8.30078125,5.37109375,-56.15234375,0.0
324.40234375,-40.0390625,-67.3828125,-4.8828125,4.39453125,-95.703125,0.0
324.40625,-25.87890625,-57.12890625,9.27734375,7.32421875,-146.484375,0.0
324.41015625,-25.390625,-62.01171875,8.30078125,-19.04296875,-285.15625,0.0
324.4140625,-45.8984375,-48.828125,-10.7421875,-25.390625,-222.16796875,0.0
324.41796875,-43.9453125,-40.0390625,-13.18359375,-14.16015625,-128.41796875,0.0
324.421875,-32.2265625,-63.96484375,7.32421875,-1.953125,-116.2109375,0.0
324.42578125,-32.2265625,-56.640625,5.37109375,8.30078125,-129.8828125,0.0
324.4296875,-29.296875,-34.66796875,-7.8125,-0.9765625,-52.734375,0.0
324.43359375,-48.828125,-30.76171875,-5.859375,-7.8125,87.40234375,0.0
324.4375,-56.15234375,-28.80859375,-7.32421875,-10.25390625,38.0859375,0.0
324.44140625,-34.66796875,-32.71484375,-1.953125,-7.8125,-58.10546875,0.0
324.4453125,-36.1328125,-25.390625,2.44140625,-9.765625,-74.70703125,0.0
324.44921875,-59.08203125,-13.671875,-5.37109375,-16.6015625,-58.10546875,0.0
324.453125,-48.33984375,-19.53125,-10.25390625,-17.08984375,-65.91796875,0.0
324.45703125,-34.66796875,-44.921875,-13.18359375,-18.06640625,-6.34765625,0.0
324.4609375,-65.91796875,-57.12890625,-15.13671875,-35.64453125,-2.9296875,0.0
324.46484375,-72.265625,-44.43359375,-14.16015625,-16.11328125,45.8984375,0.0
324.46875,-57.12890625,-41.9921875,-15.625,-10.25390625,155.76171875,0.0
324.47265625,-51.26953125,-60.05859375,-13.18359375,-28.3203125,107.91015625,0.0
324.4765625,-55.17578125,-73.73046875,-9.765625,-8.7890625,21.484375,0.0
324.48046875,-56.640625,-63.96484375,-6.34765625,-23.4375,-12.6953125,0.0
324.484375,-54.6875,-26.85546875,-3.90625,-41.50390625,-36.1328125,0.0
324.48828125,-49.31640625,2.9296875,-2.9296875,-16.11328125,-88.8671875,0.0
324.4921875,-37.59765625,-4.39453125,0.0,-5.37109375,-133.7890625,0.0
324.49609375,-38.0859375,-17.08984375,1.953125,3.90625,-132.32421875,0.0
324.5,-37.109375,-8.30078125,0.0,4.39453125,-64.453125,0.0
324.50390625,-34.1796875,-14.16015625,-13.671875,-16.6015625,-79.58984375,0.0
324.5078125,-20.99609375,-13.671875,-10.7421875,-18.5546875,-50.29296875,0.0
324.51171875,-25.87890625,6.8359375,-5.37109375,-28.80859375,-13.18359375,0.0
324.515625,-29.78515625,-1.46484375,-8.7890625,-29.78515625,-49.8046875,0.0
324.51953125,0.9765625,-37.109375,-12.20703125,-20.99609375,-69.3359375,0.0
324.5234375,-27.83203125,-35.64453125,-17.08984375,-22.4609375,-66.89453125,0.0
324.52734375,-48.828125,-21.97265625,-19.04296875,-15.13671875,-63.4765625,0.0
324.53125,-22.94921875,-21.97265625,-7.8125,-4.39453125,-8.7890625,0.0
324.53515625,-41.50390625,-14.6484375,-4.8828125,-18.5546875,6.8359375,0.0
324.5390625,-54.19921875,-8.7890625,-15.625,-30.2734375,-27.34375,0.0
324.54296875,-47.36328125,-29.78515625,-11.71875,-21.484375,-26.3671875,0.0
324.546875,-37.109375,-27.83203125,-2.9296875,-18.5546875,-33.69140625,0.0
324.55078125,-43.45703125,-10.7421875,-1.46484375,-9.27734375,-68.359375,0.0
324.5546875,-53.22265625,-12.6953125,-14.6484375,-8.30078125,-114.74609375,0.0
324.55859375,-45.41015625,-12.20703125,-15.13671875,-12.6953125,-96.19140625,0.0
324.5625,-30.76171875,5.37109375,2.44140625,-1.953125,-36.62109375,0.0
324.56640625,-29.296875,5.37109375,0.9765625,1.46484375,-49.31640625,0.0
324.5703125,-29.296875,-5.37109375,-2.9296875,1.46484375,-81.54296875,0.0
324.57421875,-30.76171875,-24.4140625,-13.671875,5.859375,-49.31640625,0.0
324.578125,-17.578125,-39.55078125,-31.73828125,-4.8828125,4.39453125,0.0
324.58203125,-32.71484375,-21.484375,-11.23046875,-16.11328125,10.7421875,0.0
324.5859375,-50.78125,-1.46484375,4.39453125,-4.8828125,-29.78515625,0.0
324.58984375,-38.0859375,-19.53125,-7.32421875,10.7421875,-7.8125,0.0
324.59375,-38.0859375,-33.203125,1.953125,-2.44140625,-40.0390625,0.0
324.59765625,-24.90234375,-34.66796875,17.08984375,-6.8359375,-6.34765625,0.0
324.6015625,-21.97265625,-50.29296875,3.90625,4.39453125,5.859375,0.0
324.60546875,-21.97265625,-34.66796875,3.41796875,6.8359375,24.90234375,0.0
324.609375,-30.76171875,-26.3671875,6.8359375,13.671875,-3.90625,0.0
324.61328125,-32.71484375,-52.734375,1.46484375,12.20703125,-46.875,0.0
324.6171875,-31.73828125,-33.69140625,-0.9765625,21.97265625,20.99609375,0.0
324.62109375,-44.921875,-31.25,1.953125,17.08984375,44.43359375,0.0
324.625,-51.26953125,-41.015625,4.8828125,2.9296875,-28.80859375,0.0
324.62890625,-47.36328125,-46.875,-2.44140625,-0.9765625,-28.80859375,0.0
324.6328125,-40.52734375,-65.91796875,-1.46484375,12.20703125,79.1015625,0.0
324.63671875,-36.62109375,-68.84765625,5.37109375,17.578125,23.92578125,0.0
324.640625,-34.1796875,-78.61328125,7.32421875,13.18359375,-3.41796875,0.0
324.64453125,-36.1328125,-86.42578125,10.25390625,13.671875,62.5,0.0
324.6484375,-47.36328125,-104.4921875,11.71875,7.8125,52.734375,0.0
324.65234375,-43.45703125,-97.16796875,17.08984375,17.08984375,-24.90234375,0.0
324.65625,-41.50390625,-99.609375,17.578125,10.25390625,-75.1953125,0.0
324.66015625,-33.203125,-124.51171875,16.11328125,-4.39453125,33.203125,0.0
324.6640625,-20.99609375,-124.51171875,20.99609375,7.8125,65.4296875,0.0
324.66796875,-36.62109375,-121.58203125,7.8125,15.625,26.85546875,0.0
324.671875,-58.59375,-137.20703125,6.34765625,6.8359375,1.46484375,0.0
324.67578125,-44.43359375,-146.97265625,20.99609375,13.671875,-67.3828125,0.0
324.6796875,-24.4140625,-125.0,20.01953125,13.671875,-52.24609375,0.0
324.68359375,-31.25,-128.41796875,20.99609375,20.5078125,30.76171875,0.0
324.6875,-38.0859375,-157.2265625,16.6015625,25.390625,75.1953125,0.0
324.69140625,-33.69140625,-151.3671875,13.18359375,18.06640625,-9.765625,0.0
324.6953125,-35.64453125,-138.18359375,8.7890625,18.5546875,-90.33203125,0.0
324.69921875,-39.0625,-128.90625,7.8125,9.27734375,-84.9609375,0.0
324.703125,-39.55078125,-115.72265625,3.41796875,17.08984375,-52.24609375,0.0
324.70703125,-46.875,-107.91015625,-0.48828125,19.04296875,-89.84375,0.0
324.7109375,-49.31640625,-112.3046875,1.953125,8.7890625,-91.30859375,0.0
324.71484375,-51.26953125,-115.234375,-4.8828125,18.06640625,-76.171875,0.0
324.71875,-52.734375,-103.02734375,-13.18359375,14.6484375,-106.4453125,0.0
324.72265625,-50.78125,-88.37890625,-13.671875,-1.46484375,-53.7109375,0.0
324.7265625,-47.36328125,-84.47265625,-6.34765625,4.8828125,2.44140625,0.0
324.73046875,-27.83203125,-90.33203125,4.8828125,16.11328125,-34.1796875,0.0
324.734375,-23.4375,-89.35546875,10.25390625,17.578125,-74.70703125,0.0
324.73828125,-49.31640625,-82.03125,9.765625,-5.37109375,-20.99609375,0.0
324.7421875,-37.59765625,-84.9609375,12.6953125,-4.39453125,11.71875,0.0
324.74609375,-36.1328125,-86.42578125,8.30078125,8.30078125,-57.12890625,0.0
324.75,-75.68359375,-84.9609375,15.13671875,-5.37109375,-34.66796875,0.0
324.75390625,-50.29296875,-81.0546875,18.5546875,7.8125,-54.6875,0.0
324.7578125,-17.578125,-79.1015625,20.01953125,11.71875,-44.43359375,0.0
324.76171875,-26.85546875,-80.56640625,27.34375,-5.859375,-19.53125,0.0
324.765625,-21.484375,-81.0546875,24.90234375,9.765625,-66.89453125,0.0
324.76953125,-24.90234375,-62.01171875,29.78515625,21.484375,-21.97265625,0.0
324.7734375,-44.921875,-56.15234375,40.52734375,15.625,-62.01171875,0.0
324.77734375,-27.83203125,-68.359375,41.9921875,30.2734375,-199.21875,0.0
324.78125,-26.85546875,-56.15234375,26.85546875,27.34375,-147.94921875,0.0
324.78515625,-44.921875,-43.45703125,23.92578125,10.25390625,-27.34375,0.0
324.7890625,-46.38671875,-62.98828125,24.90234375,14.16015625,-60.546875,0.0
324.79296875,-56.640625,-74.21875,20.5078125,21.97265625,-69.3359375,0.0
324.796875,-52.734375,-49.8046875,30.2734375,34.66796875,-16.11328125,0.0
324.80078125,-46.875,-42.48046875,25.390625,33.69140625,-38.57421875,0.0
324.8046875,-39.55078125,-57.6171875,17.08984375,12.20703125,-55.6640625,0.0
324.80859375,-39.0625,-62.01171875,14.6484375,-1.46484375,-10.7421875,0.0
324.8125,-43.9453125,-61.5234375,3.41796875,1.46484375,-31.25,0.0
324.81640625,-49.31640625,-55.6640625,0.9765625,10.25390625,-66.89453125,0.0
324.8203125,-24.4140625,-42.48046875,10.25390625,25.390625,-26.3671875,0.0
324.82421875,-34.66796875,-46.38671875,14.6484375,15.625,-26.85546875,0.0
324.828125,-47.36328125,-55.6640625,14.16015625,5.859375,-59.08203125,0.0
324.83203125,-17.08984375,-52.24609375,20.99609375,32.2265625,-78.125,0.0
324.8359375,-32.71484375,-50.29296875,20.01953125,23.4375,-50.29296875,0.0
324.83984375,-47.8515625,-42.48046875,6.8359375,-0.48828125,4.8828125,0.0
324.84375,-64.94140625,-31.73828125,-4.8828125,-15.13671875,-26.85546875,0.0
324.84765625,-62.98828125,-45.8984375,-10.25390625,-24.90234375,-44.921875,0.0
324.8515625,-61.5234375,-51.7578125,-0.9765625,-1.953125,8.7890625,0.0
324.85546875,-74.21875,-45.8984375,6.34765625,-3.41796875,66.40625,0.0
324.859375,-55.17578125,-40.52734375,11.23046875,-17.08984375,-41.50390625,0.0
324.86328125,-48.828125,-50.29296875,10.7421875,-8.30078125,-148.4375,0.0
324.8671875,-37.109375,-68.359375,15.625,16.6015625,-164.0625,0.0
324.87109375,-25.87890625,-63.96484375,20.01953125,13.18359375,-166.9921875,0.0
324.875,-60.05859375,-47.8515625,19.53125,-23.92578125,-189.453125,0.0
324.87890625,-55.17578125,-33.69140625,16.11328125,-13.18359375,-234.86328125,0.0
324.8828125,-47.36328125,-46.38671875,2.44140625,-4.39453125,-182.12890625,0.0
324.88671875,-38.57421875,-50.29296875,6.8359375,-1.953125,-94.7265625,0.0
324.890625,-37.59765625,-23.92578125,5.37109375,10.7421875,57.12890625,0.0
324.89453125,-48.33984375,-18.5546875,6.8359375,15.625,123.53515625,0.0
324.8984375,-32.2265625,-2.9296875,18.5546875,14.16015625,74.70703125,0.0
324.90234375,-41.015625,12.20703125,9.765625,6.34765625,-8.30078125,0.0
324.90625,-51.26953125,5.37109375,14.6484375,17.578125,9.27734375,0.0
324.91015625,-37.109375,0.48828125,22.4609375,12.20703125,147.4609375,0.0
324.9140625,-50.78125,-10.7421875,5.37109375,-21.97265625,227.5390625,0.0
324.91796875,-67.3828125,-40.52734375,-12.6953125,-18.06640625,84.9609375,0.0
324.921875,-65.91796875,-33.203125,-8.30078125,-11.23046875,-21.97265625,0.0
324.92578125,-41.9921875,-16.11328125,-3.90625,-3.90625,19.04296875,0.0
324.9296875,-49.31640625,-29.78515625,-6.34765625,10.7421875,-0.48828125,0.0
324.93359375,-96.6796875,-21.97265625,-15.13671875,-13.18359375,11.23046875,0.0
324.9375,-68.84765625,-1.953125,-16.6015625,-22.94921875,-0.9765625,0.0
324.94140625,-51.26953125,0.9765625,-12.6953125,-11.23046875,9.27734375,0.0
324.9453125,-63.96484375,-17.08984375,-15.13671875,-2.44140625,61.03515625,0.0
324.94921875,-52.734375,-27.34375,-9.765625,11.71875,18.5546875,0.0
324.953125,-52.24609375,-24.90234375,-7.32421875,20.5078125,-78.125,0.0
324.95703125,-51.26953125,-10.7421875,-7.8125,5.37109375,-81.54296875,0.0
324.9609375,-57.12890625,-2.9296875,-18.5546875,-22.94921875,-26.3671875,0.0
324.96484375,-58.10546875,-18.5546875,-19.53125,-18.5546875,-62.5,0.0
324.96875,-43.45703125,-39.55078125,-8.30078125,-2.44140625,-104.4921875,0.0
324.97265625,-42.96875,-47.36328125,-12.6953125,-9.27734375,-48.33984375,0.0
324.9765625,-47.36328125,-45.8984375,-17.08984375,-3.41796875,-89.35546875,0.0
324.98046875,-60.546875,-28.80859375,-15.625,-11.71875,-155.2734375,0.0
324.984375,-37.109375,-35.15625,-13.18359375,-19.04296875,-92.28515625,0.0
324.98828125,-36.62109375,-55.17578125,-7.8125,-0.9765625,-56.15234375,0.0
324.9921875,-39.55078125,-58.10546875,4.8828125,15.625,-55.17578125,0.0
324.99609375,-26.3671875,-42.48046875,0.0,7.32421875,-55.6640625,0.0
325.0,-54.6875,-37.59765625,-17.578125,-3.90625,-101.07421875,0.0
325.00390625,-61.5234375,-34.66796875,-16.6015625,7.32421875,-34.1796875,0.0
325.0078125,-67.3828125,-16.11328125,-16.11328125,-2.9296875,64.94140625,0.0
325.01171875,-69.3359375,-13.18359375,-17.578125,-13.18359375,-29.296875,0.0
325.015625,-58.59375,-33.203125,-11.71875,-7.8125,-62.01171875,0.0
325.01953125,-59.08203125,-50.78125,-16.6015625,-3.90625,69.82421875,0.0
325.0234375,-55.6640625,-41.9921875,-23.4375,5.37109375,61.5234375,0.0
325.02734375,-61.03515625,-35.15625,-6.8359375,-12.20703125,-17.08984375,0.0
325.03125,-84.9609375,-44.43359375,-5.37109375,-41.50390625,-42.48046875,0.0
325.03515625,-93.26171875,-52.24609375,-33.203125,-21.97265625,-175.29296875,0.0
325.0390625,-85.44921875,-47.8515625,-37.59765625,-4.39453125,-177.734375,0.0
325.04296875,-92.7734375,-36.62109375,-23.4375,-18.06640625,-40.52734375,0.0
325.046875,-64.94140625,-28.3203125,-16.11328125,-10.7421875,-4.39453125,0.0
325.05078125,-75.1953125,-34.66796875,-15.13671875,-9.27734375,-30.2734375,0.0
325.0546875,-103.515625,-42.96875,-17.578125,-12.20703125,-30.2734375,0.0
325.05859375,-67.3828125,-31.25,-15.13671875,-14.16015625,55.6640625,0.0
325.0625,-50.78125,-33.69140625,-13.671875,-8.7890625,58.10546875,0.0
325.06640625,-41.50390625,-36.62109375,-17.578125,-8.7890625,28.3203125,0.0
325.0703125,-49.8046875,-35.15625,-14.6484375,-11.71875,-21.484375,0.0
325.07421875,-42.96875,-34.66796875,-2.9296875,11.71875,-20.01953125,0.0
325.078125,-37.109375,-29.296875,0.0,5.859375,-29.78515625,0.0
325.08203125,-45.8984375,-33.69140625,-5.859375,-11.71875,-75.68359375,0.0
325.0859375,-36.62109375,-37.109375,0.48828125,6.34765625,-123.53515625,0.0
325.08984375,-37.59765625,-43.9453125,11.23046875,39.55078125,-186.03515625,0.0
325.09375,-23.92578125,-34.66796875,20.99609375,42.48046875,-34.1796875,0.0
325.09765625,-17.578125,-31.25,21.97265625,31.73828125,-2.9296875,0.0
325.1015625,-26.85546875,-38.57421875,27.34375,33.69140625,-61.5234375,0.0
325.10546875,-17.08984375,-47.8515625,35.15625,44.921875,6.8359375,0.0
325.109375,-5.37109375,-59.08203125,29.296875,36.62109375,-22.4609375,0.0
325.11328125,-20.99609375,-59.08203125,29.78515625,24.4140625,-129.39453125,0.0
325.1171875,-8.7890625,-53.7109375,30.76171875,19.04296875,-164.55078125,0.0
325.12109375,15.13671875,-52.24609375,29.296875,15.625,-100.5859375,0.0
325.125,-4.39453125,-56.15234375,20.5078125,13.18359375,-0.48828125,0.0
325.12890625,-11.71875,-52.24609375,14.16015625,22.4609375,14.16015625,0.0
325.1328125,-14.6484375,-40.52734375,13.18359375,15.13671875,-17.08984375,0.0
325.13671875,-20.5078125,-39.55078125,21.484375,17.08984375,41.015625,0.0
325.140625,-19.04296875,-33.203125,31.73828125,24.90234375,38.57421875,0.0
325.14453125,-27.34375,-30.2734375,26.85546875,39.55078125,24.90234375,0.0
325.1484375,-34.66796875,-22.94921875,22.94921875,24.4140625,69.3359375,0.0
325.15234375,-42.48046875,-20.99609375,3.90625,-3.90625,0.0,0.0
325.15625,-61.03515625,-37.109375,-16.11328125,-0.9765625,-15.625,0.0
325.16015625,-54.6875,-35.15625,-11.71875,-16.11328125,-3.90625,0.0
325.1640625,-56.640625,-19.04296875,-5.37109375,-24.90234375,40.52734375,0.0
325.16796875,-71.2890625,-12.6953125,-14.6484375,-19.53125,3.90625,0.0
325.171875,-70.80078125,-4.39453125,-23.92578125,-35.64453125,-82.51953125,0.0
325.17578125,-53.7109375,8.30078125,-15.625,-24.90234375,-74.70703125,0.0
325.1796875,-72.265625,-1.46484375,-10.7421875,-13.671875,-94.23828125,0.0
325.18359375,-67.3828125,-15.13671875,3.90625,-14.16015625,15.13671875,0.0
325.1875,-35.15625,-6.8359375,21.484375,12.6953125,72.75390625,0.0
325.19140625,-28.80859375,-1.953125,18.5546875,4.8828125,21.97265625,0.0
325.1953125,-34.1796875,-17.578125,11.23046875,-7.8125,-54.6875,0.0
325.19921875,-35.15625,-29.78515625,23.92578125,-2.9296875,-107.421875,0.0
325.203125,-34.66796875,-22.4609375,26.3671875,-4.8828125,-33.69140625,0.0
325.20703125,-37.59765625,-7.8125,11.71875,-7.32421875,18.5546875,0.0
325.2109375,-32.2265625,-3.41796875,2.44140625,-12.20703125,7.8125,0.0
325.21484375,-20.99609375,6.8359375,0.9765625,-0.9765625,10.7421875,0.0
325.21875,-27.34375,15.625,5.859375,-5.859375,30.76171875,0.0
325.22265625,-43.9453125,-7.8125,9.27734375,-20.01953125,-38.57421875,0.0
325.2265625,-31.25,-20.99609375,15.625,-4.39453125,-58.10546875,0.0
325.23046875,-25.390625,-3.41796875,13.671875,6.34765625,-78.125,0.0
325.234375,-41.015625,9.27734375,8.30078125,-6.34765625,-125.48828125,0.0
325.23828125,-31.73828125,-1.46484375,-3.41796875,-12.20703125,-67.87109375,0.0
325.2421875,-41.9921875,-13.18359375,-18.06640625,-14.6484375,-16.6015625,0.0
325.24609375,-74.21875,-2.9296875,-21.484375,-39.0625,20.99609375,0.0
325.25,-65.4296875,-16.11328125,-27.83203125,-43.9453125,13.18359375,0.0
325.25390625,-68.84765625,-45.8984375,-45.41015625,-52.734375,23.92578125,0.0
325.2578125,-79.58984375,-30.2734375,-47.8515625,-61.03515625,33.203125,0.0
325.26171875,-70.80078125,0.0,-40.0390625,-42.96875,-84.47265625,0.0
325.265625,-59.5703125,6.8359375,-36.62109375,-40.52734375,-87.40234375,0.0
325.26953125,-57.6171875,5.859375,-29.78515625,-38.0859375,-20.5078125,0.0
325.2734375,-45.41015625,-17.08984375,-13.671875,-19.04296875,-23.92578125,0.0
325.27734375,-43.45703125,-31.73828125,-12.20703125,-16.6015625,-5.37109375,0.0
325.28125,-56.640625,-20.99609375,-26.85546875,-25.87890625,2.9296875,0.0
325.28515625,-58.59375,-15.625,-30.2734375,-36.62109375,-77.1484375,0.0
325.2890625,-56.15234375,-10.25390625,-33.203125,-33.203125,-69.3359375,0.0
325.29296875,-56.15234375,-16.11328125,-31.25,-30.2734375,-47.36328125,0.0
325.296875,-36.1328125,-39.0625,-28.80859375,-27.83203125,-58.59375,0.0
325.30078125,-26.3671875,-49.31640625,-21.97265625,-22.94921875,-99.609375,0.0
325.3046875,-46.875,-40.0390625,-3.41796875,-1.46484375,-122.0703125,0.0
325.30859375,-26.85546875,-23.4375,4.39453125,12.20703125,-141.11328125,0.0
325.3125,-27.34375,-19.53125,-1.46484375,-12.20703125,-105.46875,0.0
325.31640625,-38.57421875,-25.390625,1.46484375,-28.3203125,-45.8984375,0.0
325.3203125,-40.52734375,-35.64453125,0.9765625,-24.90234375,-116.2109375,0.0
325.32421875,-43.9453125,-47.8515625,-6.8359375,-11.71875,-129.39453125,0.0
325.328125,-44.921875,-41.015625,-11.71875,-21.484375,-79.1015625,0.0
325.33203125,-45.8984375,-30.76171875,-19.53125,-30.2734375,-92.7734375,0.0
325.3359375,-44.921875,-24.90234375,-21.97265625,-17.578125,-135.25390625,0.0
325.33984375,-37.59765625,-28.80859375,-12.20703125,-3.41796875,-136.71875,0.0
325.34375,-37.59765625,-29.78515625,-15.13671875,-36.62109375,-85.9375,0.0
325.34765625,-37.109375,-27.34375,-24.4140625,-45.8984375,-18.5546875,0.0
325.3515625,-29.78515625,-29.296875,-13.18359375,-21.97265625,33.69140625,0.0
325.35546875,-21.484375,-20.01953125,-2.9296875,-1.953125,1.46484375,0.0
325.359375,-17.08984375,-17.578125,2.44140625,-13.18359375,-53.22265625,0.0
325.36328125,-16.6015625,-27.83203125,9.27734375,-22.94921875,-73.73046875,0.0
325.3671875,-18.5546875,-29.296875,-7.32421875,-8.30078125,-73.73046875,0.0
325.37109375,-22.94921875,-24.90234375,-13.671875,-5.859375,-49.31640625,0.0
325.375,-19.04296875,-10.25390625,5.859375,0.0,-11.71875,0.0
325.37890625,-33.69140625,-8.30078125,10.7421875,-6.34765625,-37.109375,0.0
325.3828125,-58.59375,-22.94921875,-1.953125,-19.04296875,-117.1875,0.0
325.38671875,-43.45703125,-28.80859375,-3.90625,-20.01953125,-75.68359375,0.0
325.390625,-34.66796875,-22.94921875,-6.8359375,-9.765625,-39.0625,0.0
325.39453125,-60.546875,-32.71484375,-19.53125,-10.7421875,-111.328125,0.0
325.3984375,-54.19921875,-34.1796875,-18.5546875,-21.97265625,-94.7265625,0.0
325.40234375,-47.36328125,-26.85546875,-12.6953125,-10.7421875,-7.32421875,0.0
325.40625,-45.8984375,-36.62109375,-12.20703125,-3.41796875,-28.80859375,0.0
325.41015625,-42.96875,-35.64453125,-13.18359375,-14.6484375,37.109375,0.0
325.4140625,-57.12890625,-44.921875,-21.97265625,-24.4140625,86.9140625,0.0
325.41796875,-61.5234375,-51.26953125,-28.3203125,-44.921875,29.78515625,0.0
325.421875,-53.22265625,-39.0625,-27.83203125,-50.29296875,-16.6015625,0.0
325.42578125,-55.6640625,-29.296875,-25.87890625,-42.96875,-59.08203125,0.0
325.4296875,-71.2890625,-29.296875,-28.3203125,-41.9921875,-13.18359375,0.0
325.43359375,-63.96484375,-48.828125,-28.80859375,-30.76171875,-41.015625,0.0
325.4375,-51.7578125,-33.69140625,-26.3671875,-26.3671875,-2.44140625,0.0
325.44140625,-59.08203125,-17.08984375,-30.76171875,-25.390625,48.828125,0.0
325.4453125,-52.24609375,-21.97265625,-24.90234375,-26.85546875,19.53125,0.0
325.44921875,-58.10546875,-22.94921875,-16.11328125,-37.59765625,33.203125,0.0
325.453125,-66.89453125,-25.390625,-17.08984375,-40.52734375,14.6484375,0.0
325.45703125,-54.6875,-17.578125,-12.20703125,-26.3671875,45.8984375,0.0
325.4609375,-62.5,-17.578125,-14.6484375,-12.20703125,83.49609375,0.0
325.46484375,-67.3828125,-33.69140625,-17.08984375,-20.01953125,54.6875,0.0
325.46875,-53.7109375,-26.85546875,-15.625,-31.73828125,35.64453125,0.0
325.47265625,-51.7578125,-23.4375,-7.32421875,-23.4375,-21.97265625,0.0
325.4765625,-46.38671875,-18.06640625,2.44140625,-11.71875,-81.54296875,0.0
325.48046875,-42.48046875,-10.25390625,3.41796875,-17.08984375,-36.62109375,0.0
325.484375,-40.52734375,-28.3203125,6.34765625,-24.90234375,-85.44921875,0.0
325.48828125,-44.43359375,-52.24609375,1.953125,-15.625,-171.38671875,0.0
325.4921875,-48.828125,-49.8046875,-9.765625,-7.8125,-165.0390625,0.0
325.49609375,-34.1796875,-33.203125,-1.46484375,-2.44140625,-167.96875,0.0
325.5,-38.0859375,-24.90234375,0.48828125,-16.11328125,-166.015625,0.0
325.50390625,-41.015625,-22.94921875,-3.90625,-26.3671875,-157.71484375,0.0
325.5078125,-37.59765625,-11.71875,0.48828125,-7.32421875,-158.203125,0.0
325.51171875,-25.87890625,-8.7890625,8.7890625,12.6953125,-152.83203125,0.0
325.515625,-1.953125,-20.5078125,11.23046875,-8.7890625,-10.25390625,0.0
325.51953125,-26.85546875,-24.4140625,6.8359375,-9.765625,114.2578125,0.0
325.5234375,-34.1796875,-30.76171875,6.8359375,8.30078125,39.0625,0.0
325.52734375,2.44140625,-42.96875,9.765625,10.7421875,-15.625,0.0
325.53125,5.37109375,-39.0625,7.32421875,4.8828125,21.484375,0.0
325.53515625,-21.97265625,-36.62109375,6.8359375,4.8828125,70.3125,0.0
325.5390625,-36.1328125,-49.8046875,2.9296875,-0.9765625,45.8984375,0.0
325.54296875,-31.73828125,-43.45703125,-2.9296875,-6.34765625,105.46875,0.0
325.546875,-44.43359375,-58.59375,-0.9765625,-7.32421875,122.0703125,0.0
325.55078125,-48.828125,-76.66015625,-5.37109375,-20.01953125,-27.83203125,0.0
325.5546875,-54.19921875,-51.26953125,-7.32421875,-22.94921875,-95.21484375,0.0
325.55859375,-52.24609375,-37.109375,-0.48828125,-12.6953125,-32.2265625,0.0
325.5625,-55.6640625,-25.87890625,7.8125,-10.25390625,6.8359375,0.0
325.56640625,-54.6875,-22.4609375,5.859375,-2.9296875,-7.32421875,0.0
325.5703125,-47.8515625,-40.52734375,-12.6953125,-2.9296875,22.94921875,0.0
325.57421875,-50.29296875,-49.31640625,-27.83203125,-16.11328125,53.22265625,0.0
325.578125,-49.8046875,-42.48046875,-24.4140625,-29.296875,15.13671875,0.0
325.58203125,-65.91796875,-33.203125,-41.015625,-40.52734375,-12.6953125,0.0
325.5859375,-84.47265625,-42.48046875,-64.94140625,-65.4296875,-18.5546875,0.0
325.58984375,-69.3359375,-37.59765625,-40.0390625,-53.7109375,-8.30078125,0.0
325.59375,-49.31640625,-5.859375,-27.34375,-23.4375,-19.53125,0.0
325.59765625,-39.0625,-5.37109375,-25.390625,-29.78515625,-34.1796875,0.0
325.6015625,-42.48046875,-24.90234375,-18.5546875,-30.2734375,5.37109375,0.0
325.60546875,-62.01171875,-28.80859375,-24.4140625,-31.25,-15.625,0.0
325.609375,-37.109375,-23.92578125,-27.34375,-46.875,-70.80078125,0.0
325.61328125,-53.22265625,-28.80859375,-36.62109375,-44.43359375,-19.04296875,0.0
325.6171875,-88.8671875,-35.15625,-40.0390625,-37.59765625,55.17578125,0.0
325.62109375,-80.078125,-37.59765625,-41.9921875,-64.453125,38.0859375,0.0
325.625,-91.796875,-33.69140625,-47.36328125,-86.42578125,5.37109375,0.0
325.62890625,-81.54296875,-42.48046875,-38.57421875,-79.1015625,-41.50390625,0.0
325.6328125,-62.98828125,-44.43359375,-34.1796875,-58.10546875,-83.49609375,0.0
325.63671875,-59.5703125,-20.5078125,-39.55078125,-52.24609375,-25.390625,0.0
325.640625,-65.91796875,-13.18359375,-28.80859375,-55.6640625,-22.94921875,0.0
325.64453125,-70.3125,-32.71484375,-21.484375,-58.59375,-86.9140625,0.0
325.6484375,-64.94140625,-47.36328125,-23.4375,-39.55078125,6.8359375,0.0
325.65234375,-71.77734375,-36.1328125,-20.01953125,-44.43359375,62.01171875,0.0
325.65625,-69.3359375,-29.296875,-19.04296875,-48.828125,-40.0390625,0.0
325.66015625,-57.6171875,-34.1796875,-14.16015625,-18.06640625,-81.0546875,0.0
325.6640625,-60.546875,-31.73828125,-11.23046875,-28.80859375,-74.70703125,0.0
325.66796875,-51.26953125,-24.4140625,-7.8125,-26.3671875,-114.74609375,0.0
325.671875,-53.22265625,-26.85546875,-6.8359375,-7.8125,-113.28125,0.0
325.67578125,-35.15625,-37.109375,-15.625,-37.109375,-90.8203125,0.0
325.6796875,-41.9921875,-39.55078125,-21.484375,-39.0625,-83.49609375,0.0
325.68359375,-73.73046875,-37.59765625,-20.5078125,-26.85546875,-106.93359375,0.0
325.6875,-44.921875,-36.1328125,-10.7421875,-28.80859375,-109.375,0.0
325.69140625,-40.52734375,-38.0859375,0.48828125,-16.11328125,14.6484375,0.0
325.6953125,-44.921875,-36.62109375,-0.9765625,-9.765625,52.734375,0.0
325.69921875,-41.50390625,-27.34375,-2.9296875,-14.16015625,-4.8828125,0.0
325.703125,-38.57421875,-21.484375,-6.8359375,-16.6015625,-32.71484375,0.0
325.70703125,-36.62109375,-25.87890625,-29.78515625,-38.0859375,-74.70703125,0.0
325.7109375,-48.828125,-26.85546875,-38.57421875,-47.8515625,-45.41015625,0.0
325.71484375,-60.05859375,-39.55078125,-29.78515625,-41.9921875,13.671875,0.0
325.71875,-51.26953125,-59.5703125,-26.3671875,-50.78125,27.83203125,0.0
325.72265625,-36.1328125,-40.52734375,-24.4140625,-41.9921875,20.99609375,0.0
325.7265625,-36.62109375,-12.20703125,-31.25,-44.921875,-41.50390625,0.0
325.73046875,-47.8515625,-0.48828125,-47.8515625,-68.84765625,-81.0546875,0.0
325.734375,-47.8515625,-2.9296875,-41.015625,-70.3125,-54.6875,0.0
325.73828125,-43.9453125,-31.73828125,-41.015625,-60.05859375,-38.0859375,0.0
325.7421875,-43.9453125,-40.52734375,-45.8984375,-35.64453125,-55.17578125,0.0
325.74609375,-53.22265625,-20.99609375,-46.875,-41.50390625,-57.12890625,0.0
325.75,-54.19921875,-23.92578125,-37.109375,-44.921875,-49.8046875,0.0
325.75390625,-54.19921875,-33.203125,-20.01953125,-28.80859375,-6.8359375,0.0
325.7578125,-68.359375,-18.5546875,-20.99609375,-37.59765625,13.671875,0.0
325.76171875,-61.03515625,-16.11328125,-20.99609375,-32.71484375,-53.22265625,0.0
325.765625,-47.36328125,-31.25,-13.671875,-35.64453125,-34.66796875,0.0
325.76953125,-50.29296875,-39.55078125,-19.53125,-47.36328125,7.8125,0.0
325.7734375,-58.10546875,-31.73828125,-29.296875,-46.875,30.76171875,0.0
325.77734375,-47.8515625,-30.76171875,-28.3203125,-31.73828125,78.125,0.0
325.78125,-47.8515625,-37.59765625,-30.2734375,-34.1796875,20.01953125,0.0
325.78515625,-62.5,-40.52734375,-43.45703125,-46.875,4.8828125,0.0
325.7890625,-58.59375,-45.8984375,-52.734375,-31.73828125,37.109375,0.0
325.79296875,-47.8515625,-38.0859375,-42.48046875,-15.625,1.953125,0.0
325.796875,-68.359375,-34.66796875,-51.26953125,-78.125,0.9765625,0.0
325.80078125,-101.5625,-34.1796875,-55.17578125,-106.4453125,-79.58984375,0.0
325.8046875,-53.7109375,-18.5546875,-40.52734375,-59.08203125,-180.6640625,0.0
325.80859375,-39.0625,-13.671875,-33.69140625,-15.625,-172.8515625,0.0
325.8125,-57.6171875,-18.5546875,-23.92578125,-33.69140625,-78.125,0.0
325.81640625,-27.34375,-3.90625,-22.4609375,-56.640625,8.7890625,0.0
325.8203125,-33.69140625,-0.9765625,-23.92578125,-46.38671875,30.76171875,0.0
325.82421875,-50.78125,-14.6484375,-46.38671875,-57.12890625,-28.80859375,0.0
325.828125,-56.15234375,-30.76171875,-69.82421875,-55.17578125,-105.95703125,0.0
325.83203125,-53.7109375,-36.1328125,-51.7578125,-39.0625,-44.43359375,0.0
325.8359375,-36.1328125,-37.59765625,-22.94921875,-13.671875,23.92578125,0.0
325.83984375,-24.4140625,-33.203125,-10.25390625,1.46484375,-123.046875,0.0
325.84375,-30.76171875,-30.2734375,-12.6953125,-21.97265625,-232.91015625,0.0
325.84765625,-24.90234375,-34.66796875,-15.625,-20.01953125,-208.0078125,0.0
325.8515625,-21.97265625,-20.5078125,-13.18359375,-8.30078125,-145.99609375,0.0
325.85546875,-32.2265625,-10.25390625,-14.6484375,-37.109375,-55.6640625,0.0
325.859375,-34.1796875,-3.90625,-17.08984375,-21.484375,-20.01953125,0.0
325.86328125,-29.296875,4.39453125,-15.13671875,-17.578125,-2.9296875,0.0
325.8671875,-22.94921875,5.859375,-17.578125,-40.52734375,9.765625,0.0
325.87109375,-26.85546875,-14.16015625,-21.484375,-46.875,28.80859375,0.0
325.875,-31.25,-29.78515625,-20.5078125,-46.38671875,8.30078125,0.0
325.87890625,-24.90234375,-25.390625,-16.6015625,-38.57421875,-1.953125,0.0
325.8828125,-48.33984375,-32.71484375,-20.5078125,-46.38671875,-33.69140625,0.0
325.88671875,-55.17578125,-28.3203125,-21.97265625,-72.75390625,-56.15234375,0.0
325.890625,-45.41015625,-21.97265625,-25.87890625,-73.2421875,-41.50390625,0.0
325.89453125,-55.17578125,-15.625,-21.484375,-56.640625,-62.98828125,0.0
325.8984375,-63.96484375,0.48828125,-16.6015625,-68.359375,-85.44921875,0.0
325.90234375,-66.40625,-10.25390625,-29.296875,-89.35546875,-24.90234375,0.0
325.90625,-67.87109375,-33.203125,-31.73828125,-94.23828125,-9.765625,0.0
325.91015625,-66.40625,-47.36328125,-30.76171875,-103.515625,-2.44140625,0.0
325.9140625,-76.66015625,-47.36328125,-33.69140625,-94.7265625,72.75390625,0.0
325.91796875,-68.359375,-22.4609375,-33.203125,-93.26171875,26.85546875,0.0
325.921875,-72.265625,-2.9296875,-41.015625,-104.98046875,-41.50390625,0.0
325.92578125,-78.61328125,-9.765625,-48.828125,-80.56640625,-74.70703125,0.0
325.9296875,-70.3125,-8.30078125,-45.41015625,-76.171875,-22.94921875,0.0
325.93359375,-72.75390625,-5.37109375,-39.0625,-98.6328125,35.15625,0.0
325.9375,-69.82421875,-8.30078125,-39.55078125,-94.7265625,13.671875,0.0
325.94140625,-65.91796875,-32.2265625,-37.109375,-86.42578125,-31.25,0.0
325.9453125,-49.8046875,-45.8984375,-16.6015625,-69.82421875,-20.5078125,0.0
325.94921875,-50.78125,-39.0625,-10.7421875,-62.01171875,-1.46484375,0.0
325.953125,-34.1796875,-42.96875,-5.37109375,-67.87109375,-53.7109375,0.0
325.95703125,-49.31640625,-35.64453125,-7.32421875,-64.453125,-41.9921875,0.0
325.9609375,-80.56640625,-28.3203125,-15.625,-71.2890625,-34.1796875,0.0
325.96484375,-44.921875,-24.4140625,-11.71875,-50.29296875,16.11328125,0.0
325.96875,-51.7578125,-26.3671875,-21.484375,-49.8046875,28.3203125,0.0
325.97265625,-49.31640625,-30.76171875,-13.671875,-55.17578125,16.11328125,0.0
325.9765625,-47.36328125,-36.62109375,-10.7421875,-62.5,51.26953125,0.0
325.98046875,-53.22265625,-45.8984375,-11.23046875,-60.05859375,17.08984375,0.0
325.984375,-56.15234375,-38.0859375,-11.71875,-57.6171875,-49.8046875,0.0
325.98828125,-65.4296875,-22.94921875,-27.34375,-61.03515625,-57.12890625,0.0
325.9921875,-75.1953125,-21.484375,-31.73828125,-54.6875,-59.5703125,0.0
325.99609375,-93.75,-29.296875,-34.1796875,-72.75390625,-100.09765625,0.0
326.0,-94.7265625,-33.69140625,-37.59765625,-63.96484375,-122.55859375,0.0
326.00390625,-82.03125,-43.45703125,-38.57421875,-75.1953125,-193.84765625,0.0
326.0078125,-84.47265625,-40.0390625,-47.8515625,-94.7265625,-254.8828125,0.0
326.01171875,-80.078125,-14.6484375,-49.31640625,-56.640625,-229.00390625,0.0
326.015625,-70.80078125,-18.5546875,-44.43359375,-46.38671875,-160.64453125,0.0
326.01953125,-70.3125,-37.109375,-32.2265625,-45.8984375,-155.2734375,0.0
326.0234375,-79.58984375,-32.2265625,-35.15625,-62.01171875,-156.25,0.0
326.02734375,-89.35546875,-26.3671875,-45.41015625,-57.6171875,-148.4375,0.0
326.03125,-90.33203125,-23.4375,-44.43359375,-48.33984375,-140.625,0.0
326.03515625,-62.5,-18.5546875,-42.48046875,-61.5234375,-101.07421875,0.0
326.0390625,-76.171875,-23.4375,-40.52734375,-42.48046875,-142.578125,0.0
326.04296875,-74.21875,-22.4609375,-37.59765625,-31.73828125,-114.74609375,0.0
326.046875,-51.7578125,-20.99609375,-26.85546875,-33.203125,7.32421875,0.0
326.05078125,-55.6640625,-32.71484375,-22.94921875,-24.4140625,45.41015625,0.0
326.0546875,-57.12890625,-35.15625,-23.4375,-19.53125,63.96484375,0.0
326.05859375,-61.03515625,-31.73828125,-15.625,-26.85546875,94.23828125,0.0
326.0625,-61.03515625,-30.2734375,-27.83203125,-28.80859375,94.23828125,0.0
326.06640625,-67.87109375,-37.59765625,-45.41015625,-25.390625,90.8203125,0.0
326.0703125,-65.91796875,-35.15625,-40.52734375,-24.90234375,80.078125,0.0
326.07421875,-68.359375,-30.76171875,-31.73828125,-20.99609375,76.66015625,0.0
326.078125,-73.73046875,-35.64453125,-29.296875,-28.3203125,83.0078125,0.0
326.08203125,-81.54296875,-40.52734375,-35.64453125,-33.203125,42.96875,0.0
326.0859375,-76.66015625,-34.1796875,-32.71484375,-20.5078125,-6.8359375,0.0
326.08984375,-59.08203125,-24.4140625,-22.94921875,-24.90234375,24.4140625,0.0
326.09375,-51.26953125,-29.296875,-16.6015625,-25.390625,10.25390625,0.0
326.09765625,-34.66796875,-26.85546875,-19.04296875,-4.8828125,-33.69140625,0.0
326.1015625,-23.4375,-24.4140625,-19.04296875,-2.9296875,42.96875,0.0
326.10546875,-27.34375,-33.69140625,-3.90625,-0.48828125,-27.34375,0.0
326.109375,-23.92578125,0.0,-4.39453125,17.578125,-113.28125,0.0
326.11328125,-33.203125,7.32421875,-23.4375,4.8828125,-46.875,0.0
326.1171875,-43.9453125,-13.671875,-23.4375,-19.53125,19.53125,0.0
326.12109375,-35.15625,-4.39453125,-15.625,-19.53125,-53.7109375,0.0
326.125,-47.8515625,-8.7890625,-22.94921875,-22.4609375,-94.7265625,0.0
326.12890625,-28.80859375,-2.44140625,-25.87890625,-36.1328125,-82.51953125,0.0
326.1328125,-36.62109375,-3.90625,-24.4140625,-26.3671875,-85.9375,0.0
326.13671875,-65.91796875,-17.578125,-21.484375,-25.390625,-74.21875,0.0
326.140625,-41.9921875,-13.671875,-22.94921875,-26.85546875,-83.984375,0.0
326.14453125,-42.96875,-37.109375,-24.90234375,-18.5546875,-8.30078125,0.0
326.1484375,-47.8515625,-76.66015625,-27.83203125,-26.85546875,-30.2734375,0.0
326.15234375,-44.921875,-57.12890625,-30.76171875,-38.57421875,-59.08203125,0.0
326.15625,-50.78125,-24.90234375,-28.80859375,-36.62109375,-47.36328125,0.0
326.16015625,-52.734375,-36.62109375,-35.64453125,-43.9453125,-60.05859375,0.0
326.1640625,-64.453125,-43.9453125,-49.31640625,-45.8984375,-99.609375,0.0
326.16796875,-51.7578125,-38.0859375,-41.015625,-40.52734375,-82.51953125,0.0
326.171875,-29.78515625,-26.3671875,-25.390625,-35.15625,-11.71875,0.0
326.17578125,-30.2734375,-14.6484375,-21.97265625,-17.578125,-8.7890625,0.0
326.1796875,-37.59765625,-12.6953125,-13.671875,-12.6953125,3.90625,0.0
326.18359375,-41.015625,-23.4375,-19.53125,-20.99609375,-9.765625,0.0
326.1875,-28.80859375,-41.015625,-14.16015625,-13.18359375,-51.26953125,0.0
326.19140625,-40.52734375,-32.71484375,-15.13671875,-14.6484375,-13.671875,0.0
326.1953125,-38.57421875,-19.04296875,-22.94921875,-22.4609375,-0.48828125,0.0
326.19921875,-44.921875,-9.765625,-22.4609375,-23.4375,2.9296875,0.0
326.203125,-68.359375,-20.99609375,-36.62109375,-40.52734375,0.0,0.0
326.20703125,-62.98828125,-33.203125,-40.52734375,-31.73828125,16.11328125,0.0
326.2109375,-52.734375,-32.71484375,-30.2734375,-23.4375,-18.06640625,0.0
326.21484375,-53.22265625,-25.87890625,-24.90234375,-42.96875,-47.8515625,0.0
326.21875,-52.24609375,-17.08984375,-31.25,-29.296875,-61.5234375,0.0
326.22265625,-36.1328125,-15.625,-21.97265625,-10.25390625,-77.63671875,0.0
326.2265625,-55.17578125,-2.9296875,-24.90234375,-16.6015625,-42.96875,0.0
326.23046875,-64.94140625,-5.37109375,-29.78515625,-27.83203125,-68.84765625,0.0
326.234375,-37.109375,-19.04296875,-20.5078125,-27.83203125,-49.31640625,0.0
326.23828125,-30.2734375,-20.99609375,-26.3671875,-3.41796875,-24.90234375,0.0
326.2421875,-40.0390625,-39.55078125,-35.64453125,-9.765625,-63.96484375,0.0
326.24609375,-46.875,-53.7109375,-23.4375,-47.36328125,-78.125,0.0
326.25,-56.640625,-51.26953125,-34.1796875,-58.10546875,41.015625,0.0
326.25390625,-74.21875,-42.48046875,-53.7109375,-52.24609375,68.359375,0.0
326.2578125,-85.44921875,-55.6640625,-47.36328125,-81.0546875,54.19921875,0.0
326.26171875,-92.7734375,-64.453125,-48.828125,-81.0546875,12.20703125,0.0
326.265625,-84.9609375,-30.2734375,-49.8046875,-45.8984375,-52.24609375,0.0
326.26953125,-83.984375,-23.4375,-46.875,-55.17578125,-2.44140625,0.0
326.2734375,-77.63671875,-49.8046875,-45.41015625,-59.5703125,-44.921875,0.0
326.27734375,-66.89453125,-61.03515625,-33.203125,-47.8515625,-22.94921875,0.0
326.28125,-73.2421875,-58.59375,-35.64453125,-48.828125,-15.625,0.0
326.28515625,-66.89453125,-47.8515625,-38.0859375,-35.64453125,-41.50390625,0.0
326.2890625,-61.5234375,-46.875,-37.109375,-24.90234375,-32.71484375,0.0
326.29296875,-43.45703125,-52.734375,-35.15625,-21.484375,-15.625,0.0
326.296875,-32.71484375,-41.50390625,-22.94921875,-17.08984375,-7.8125,0.0
326.30078125,-66.40625,-48.828125,-41.015625,-41.9921875,-104.4921875,0.0
326.3046875,-75.68359375,-65.4296875,-53.7109375,-59.08203125,-181.15234375,0.0
326.30859375,-62.98828125,-72.75390625,-49.8046875,-55.6640625,-168.45703125,0.0
326.3125,-69.3359375,-71.2890625,-64.453125,-63.96484375,-86.42578125,0.0
326.31640625,-80.078125,-75.1953125,-72.75390625,-68.84765625,-36.62109375,0.0
326.3203125,-77.63671875,-66.40625,-65.91796875,-62.01171875,-45.41015625,0.0
326.32421875,-71.77734375,-58.10546875,-63.96484375,-62.5,23.92578125,0.0
326.328125,-69.3359375,-69.82421875,-61.03515625,-56.640625,82.03125,0.0
326.33203125,-49.8046875,-75.1953125,-48.828125,-45.8984375,28.80859375,0.0
326.3359375,-59.5703125,-76.66015625,-55.6640625,-66.40625,-7.32421875,0.0
326.33984375,-64.453125,-66.89453125,-52.24609375,-69.82421875,17.578125,0.0
326.34375,-53.7109375,-52.734375,-52.24609375,-69.3359375,0.0,0.0
326.34765625,-35.64453125,-59.5703125,-63.96484375,-74.21875,-62.01171875,0.0
326.3515625,-36.1328125,-72.75390625,-59.08203125,-52.734375,-53.7109375,0.0
326.35546875,-64.94140625,-77.63671875,-46.875,-69.3359375,-30.76171875,0.0
326.359375,-47.8515625,-68.84765625,-45.8984375,-73.73046875,63.96484375,0.0
326.36328125,-55.17578125,-60.05859375,-56.640625,-66.40625,38.0859375,0.0
326.3671875,-63.4765625,-46.875,-45.8984375,-50.29296875,-54.19921875,0.0
326.37109375,-58.59375,-45.8984375,-37.59765625,-27.83203125,-33.203125,0.0
326.375,-41.9921875,-51.26953125,-20.5078125,-9.27734375,-0.9765625,0.0
326.37890625,-31.73828125,-53.7109375,-13.671875,-13.671875,-2.9296875,0.0
326.3828125,-41.50390625,-48.33984375,-23.92578125,-29.296875,25.390625,0.0
326.38671875,-38.57421875,-38.0859375,-24.4140625,-25.390625,-20.01953125,0.0
326.390625,-45.41015625,-42.48046875,-39.55078125,-24.4140625,-56.640625,0.0
326.39453125,-61.03515625,-40.52734375,-60.546875,-44.43359375,-62.98828125,0.0
326.3984375,-66.40625,-39.55078125,-58.10546875,-43.9453125,-56.15234375,0.0
326.40234375,-62.01171875,-39.0625,-44.43359375,-27.34375,-36.1328125,0.0
326.40625,-61.5234375,-31.25,-33.203125,-33.203125,-42.96875,0.0
326.41015625,-65.91796875,-26.85546875,-40.0390625,-58.10546875,-14.6484375,0.0
326.4140625,-64.453125,-25.390625,-44.43359375,-50.78125,-60.546875,0.0
326.41796875,-48.33984375,-25.390625,-38.0859375,-44.921875,-48.33984375,0.0
326.421875,-53.22265625,-43.45703125,-36.62109375,-30.2734375,-29.78515625,0.0
326.42578125,-27.83203125,-50.29296875,-37.109375,1.953125,-25.87890625,0.0
326.4296875,-21.484375,-32.2265625,-43.9453125,-32.71484375,86.9140625,0.0
326.43359375,-85.44921875,-25.390625,-49.31640625,-84.9609375,41.50390625,0.0
326.4375,-87.40234375,-20.99609375,-42.48046875,-76.171875,-10.25390625,0.0
326.44140625,-66.89453125,-30.76171875,-36.1328125,-63.96484375,16.6015625,0.0
326.4453125,-62.01171875,-37.59765625,-45.41015625,-70.3125,-17.578125,0.0
326.44921875,-59.5703125,-29.296875,-60.546875,-70.80078125,-144.53125,0.0
326.453125,-63.96484375,-17.08984375,-62.01171875,-69.3359375,-241.2109375,0.0
326.45703125,-66.89453125,-20.99609375,-62.01171875,-69.3359375,-229.00390625,0.0
326.4609375,-67.3828125,-19.53125,-70.3125,-61.03515625,-168.45703125,0.0
326.46484375,-57.12890625,-31.25,-75.1953125,-61.5234375,-177.734375,0.0
326.46875,-76.171875,-41.9921875,-75.68359375,-85.44921875,-131.34765625,0.0
326.47265625,-104.00390625,-26.3671875,-86.9140625,-91.30859375,-31.73828125,0.0
326.4765625,-92.28515625,-27.83203125,-78.125,-76.66015625,-40.52734375,0.0
326.48046875,-74.70703125,-25.87890625,-58.10546875,-71.2890625,-2.9296875,0.0
326.484375,-56.640625,-24.90234375,-48.33984375,-58.59375,21.484375,0.0
326.48828125,-39.0625,-34.66796875,-35.15625,-28.80859375,-2.44140625,0.0
326.4921875,-40.0390625,-35.15625,-36.1328125,-45.8984375,49.8046875,0.0
326.49609375,-41.9921875,-34.66796875,-43.45703125,-64.94140625,117.1875,0.0
326.5,-53.22265625,-31.73828125,-41.9921875,-60.05859375,73.2421875,0.0
326.50390625,-69.82421875,-42.48046875,-54.19921875,-74.21875,-0.48828125,0.0
326.5078125,-79.58984375,-48.828125,-65.91796875,-68.84765625,-45.41015625,0.0
326.51171875,-79.1015625,-40.0390625,-63.4765625,-57.12890625,-116.2109375,0.0
326.515625,-70.80078125,-38.57421875,-60.05859375,-63.96484375,-82.03125,0.0
326.51953125,-52.734375,-41.9921875,-65.91796875,-64.94140625,-46.875,0.0
326.5234375,-54.6875,-48.33984375,-73.73046875,-53.22265625,-48.828125,0.0
326.52734375,-85.44921875,-41.9921875,-67.3828125,-49.31640625,-65.91796875,0.0
326.53125,-65.91796875,-28.3203125,-58.59375,-43.45703125,-92.7734375,0.0
326.53515625,-51.7578125,-26.3671875,-69.3359375,-41.9921875,-3.90625,0.0
326.5390625,-48.33984375,-21.97265625,-72.75390625,-46.38671875,27.83203125,0.0
326.54296875,-39.55078125,-12.6953125,-64.94140625,-52.734375,0.48828125,0.0
326.546875,-37.59765625,-27.34375,-56.640625,-50.78125,-20.99609375,0.0
326.55078125,-34.1796875,-36.1328125,-48.33984375,-36.1328125,-59.08203125,0.0
326.5546875,-44.921875,-20.99609375,-55.6640625,-29.78515625,-75.68359375,0.0
326.55859375,-50.29296875,-13.671875,-49.31640625,-30.76171875,-68.359375,0.0
326.5625,-41.015625,-26.3671875,-44.43359375,-52.734375,-68.359375,0.0
326.56640625,-30.2734375,-27.34375,-39.55078125,-34.66796875,-78.125,0.0
326.5703125,-27.34375,-22.94921875,-28.3203125,-10.7421875,-51.7578125,0.0
326.57421875,-38.0859375,-24.4140625,-38.0859375,-26.85546875,-62.01171875,0.0
326.578125,-53.7109375,-11.71875,-49.31640625,-52.734375,-35.15625,0.0
326.58203125,-63.96484375,-14.16015625,-45.8984375,-53.7109375,65.91796875,0.0
326.5859375,-58.10546875,-37.109375,-31.73828125,-41.9921875,33.203125,0.0
326.58984375,-34.66796875,-45.8984375,-17.578125,-27.83203125,21.484375,0.0
326.59375,-23.92578125,-42.96875,-7.32421875,-14.16015625,19.04296875,0.0
326.59765625,-24.4140625,-40.52734375,-1.46484375,-31.25,3.41796875,0.0
326.6015625,-13.671875,-32.2265625,7.8125,-24.4140625,46.875,0.0
326.60546875,-26.3671875,-28.3203125,1.953125,-24.90234375,49.8046875,0.0
326.609375,-43.45703125,-31.25,-7.32421875,-41.50390625,32.71484375,0.0
326.61328125,-57.12890625,-33.69140625,-17.08984375,-48.33984375,-17.578125,0.0
326.6171875,-66.89453125,-37.59765625,-19.04296875,-32.71484375,-42.96875,0.0
326.62109375,-41.015625,-41.50390625,-7.8125,-24.4140625,-73.73046875,0.0
326.625,-13.18359375,-39.0625,-2.44140625,-26.3671875,-83.984375,0.0
326.62890625,-20.01953125,-34.66796875,-12.20703125,-30.76171875,-83.0078125,0.0
326.6328125,-11.71875,-38.57421875,-4.8828125,-40.0390625,-72.75390625,0.0
326.63671875,-9.27734375,-37.109375,5.37109375,-37.59765625,-18.5546875,0.0
326.640625,-32.71484375,-35.64453125,-2.44140625,-34.66796875,21.484375,0.0
326.64453125,-29.296875,-24.90234375,6.8359375,-32.2265625,6.34765625,0.0
326.6484375,-19.53125,-4.39453125,12.20703125,-26.3671875,-41.9921875,0.0
326.65234375,-18.06640625,-3.90625,-4.8828125,-29.78515625,-48.33984375,0.0
326.65625,-26.85546875,-1.953125,-24.90234375,-28.3203125,-45.41015625,0.0
326.66015625,-25.87890625,0.9765625,-21.484375,-17.578125,-84.47265625,0.0
326.6640625,-28.80859375,8.30078125,-8.30078125,-40.0390625,-29.296875,0.0
326.66796875,-31.25,7.32421875,-15.625,-56.640625,6.34765625,0.0
326.671875,-30.76171875,-4.39453125,-6.8359375,-40.52734375,18.06640625,0.0
326.67578125,-0.9765625,-2.9296875,-1.953125,-32.2265625,40.52734375,0.0
326.6796875,-7.8125,0.0,-20.01953125,-41.9921875,2.44140625,0.0
326.68359375,-42.48046875,-6.34765625,-33.203125,-32.71484375,35.64453125,0.0
326.6875,-22.94921875,-11.23046875,-33.69140625,-31.25,2.9296875,0.0
326.69140625,-33.203125,-11.23046875,-32.2265625,-58.10546875,-44.921875,0.0
326.6953125,-29.78515625,-11.71875,-14.16015625,-60.05859375,-49.31640625,0.0
326.69921875,-31.73828125,-26.85546875,-25.390625,-53.22265625,-46.875,0.0
326.703125,-59.5703125,-19.04296875,-54.6875,-66.40625,-26.3671875,0.0
326.70703125,-62.98828125,-2.44140625,-55.6640625,-74.70703125,-79.1015625,0.0
326.7109375,-41.9921875,-8.7890625,-51.26953125,-52.734375,-95.703125,0.0
326.71484375,-27.83203125,-3.90625,-40.0390625,-36.62109375,-74.70703125,0.0
326.71875,-24.90234375,3.90625,-39.55078125,-55.17578125,-64.453125,0.0
326.72265625,-22.4609375,11.23046875,-46.875,-49.8046875,-72.265625,0.0
326.7265625,4.8828125,5.37109375,-42.48046875,-29.296875,-113.76953125,0.0
326.73046875,1.46484375,2.44140625,-30.2734375,-36.62109375,-134.27734375,0.0
326.734375,-22.4609375,8.30078125,-38.57421875,-64.453125,-145.01953125,0.0
326.73828125,-15.13671875,15.625,-63.96484375,-65.4296875,-138.671875,0.0
326.7421875,-4.39453125,11.23046875,-57.12890625,-59.08203125,-16.6015625,0.0
326.74609375,-19.04296875,3.90625,-40.52734375,-58.10546875,32.71484375,0.0
326.75,-27.34375,13.18359375,-35.15625,-48.828125,-27.83203125,0.0
326.75390625,-5.37109375,18.5546875,-20.99609375,-30.2734375,-99.609375,0.0
326.7578125,23.92578125,20.99609375,-6.8359375,-23.92578125,-104.00390625,0.0
326.76171875,32.71484375,26.3671875,9.27734375,-30.76171875,-16.11328125,0.0
326.765625,31.25,15.625,18.5546875,-7.8125,-6.34765625,0.0
326.76953125,39.0625,16.6015625,13.671875,14.6484375,-100.09765625,0.0
326.7734375,36.1328125,20.5078125,2.9296875,8.7890625,-162.109375,0.0
326.77734375,21.484375,12.6953125,0.0,-12.6953125,-181.640625,0.0
326.78125,21.97265625,12.6953125,-1.953125,-4.39453125,-112.3046875,0.0
326.78515625,20.99609375,1.46484375,-12.20703125,-1.46484375,-135.25390625,0.0
326.7890625,15.625,0.9765625,-6.8359375,1.46484375,-227.5390625,0.0
326.79296875,5.37109375,20.99609375,-18.5546875,4.8828125,-182.12890625,0.0
326.796875,-2.9296875,55.6640625,-26.85546875,-19.53125,-135.7421875,0.0
326.80078125,-5.859375,55.6640625,-28.3203125,-36.62109375,-117.1875,0.0
326.8046875,-5.859375,35.64453125,-35.15625,-36.1328125,-11.71875,0.0
326.80859375,11.71875,42.96875,-35.64453125,-57.6171875,-62.01171875,0.0
326.8125,-0.9765625,48.33984375,-41.9921875,-69.3359375,-149.90234375,0.0
326.81640625,-3.41796875,42.48046875,-42.96875,-49.31640625,-110.83984375,0.0
326.8203125,17.578125,41.9921875,-41.015625,-32.71484375,-13.671875,0.0
326.82421875,18.5546875,41.50390625,-28.80859375,-26.3671875,-37.109375,0.0
326.828125,19.04296875,36.1328125,-25.87890625,-29.296875,-53.7109375,0.0
326.83203125,18.06640625,29.296875,-18.06640625,-18.06640625,-13.671875,0.0
326.8359375,30.2734375,20.01953125,-8.7890625,-2.44140625,-68.84765625,0.0
326.83984375,20.01953125,14.6484375,-9.27734375,-17.578125,-62.98828125,0.0
326.84375,10.25390625,20.99609375,-6.34765625,-23.92578125,-103.02734375,0.0
326.84765625,7.8125,19.53125,-17.578125,-8.30078125,-101.07421875,0.0
326.8515625,-4.8828125,12.20703125,-22.94921875,-9.27734375,-47.8515625,0.0
326.85546875,-2.44140625,18.5546875,-19.04296875,-31.25,-30.2734375,0.0
326.859375,15.625,12.6953125,-11.23046875,-20.5078125,-40.0390625,0.0
326.86328125,14.16015625,-3.90625,-6.8359375,-14.16015625,-48.33984375,0.0
326.8671875,11.23046875,-0.48828125,0.0,-7.8125,24.90234375,0.0
326.87109375,9.27734375,3.90625,-0.48828125,-7.8125,97.16796875,0.0
326.875,17.578125,0.48828125,3.41796875,-10.25390625,127.44140625,0.0
326.87890625,29.296875,-4.39453125,14.16015625,0.0,166.50390625,0.0
326.8828125,25.390625,0.48828125,5.37109375,-7.32421875,132.32421875,0.0
326.88671875,3.90625,6.8359375,-9.27734375,-16.6015625,69.3359375,0.0
326.890625,-7.8125,-0.9765625,-6.8359375,-24.4140625,28.3203125,0.0
326.89453125,-3.41796875,-12.6953125,7.32421875,-35.15625,11.71875,0.0
326.8984375,1.953125,-11.71875,9.765625,-29.78515625,49.31640625,0.0
326.90234375,-13.671875,-16.11328125,-0.9765625,-24.90234375,125.0,0.0
326.90625,-16.6015625,-27.83203125,-6.8359375,-33.69140625,106.4453125,0.0
326.91015625,-2.44140625,-26.3671875,-13.18359375,-28.3203125,39.55078125,0.0
326.9140625,-32.71484375,-25.390625,-18.06640625,-38.57421875,26.3671875,0.0
326.91796875,-38.57421875,-29.78515625,-35.64453125,-70.3125,48.828125,0.0
326.921875,-35.64453125,-31.73828125,-39.55078125,-66.89453125,30.2734375,0.0
326.92578125,-37.109375,-26.85546875,-33.203125,-45.41015625,12.6953125,0.0
326.9296875,-28.80859375,-29.78515625,-31.25,-50.78125,-7.32421875,0.0
326.93359375,-17.08984375,-38.57421875,-39.55078125,-61.03515625,-22.4609375,0.0
326.9375,-24.90234375,-38.57421875,-63.4765625,-88.37890625,-23.92578125,0.0
326.94140625,-21.484375,-25.390625,-50.29296875,-83.984375,-40.52734375,0.0
326.9453125,-11.23046875,-10.7421875,-33.69140625,-61.5234375,-85.44921875,0.0
326.94921875,-8.30078125,-8.7890625,-34.66796875,-64.453125,-91.30859375,0.0
326.953125,-10.25390625,-22.4609375,-28.80859375,-59.08203125,-49.31640625,0.0
326.95703125,-21.97265625,-31.73828125,-22.4609375,-50.78125,-52.24609375,0.0
326.9609375,-24.4140625,-33.69140625,-25.390625,-58.59375,-57.6171875,0.0
326.96484375,-33.69140625,-48.33984375,-25.87890625,-54.19921875,-55.6640625,0.0
326.96875,-46.38671875,-47.36328125,-27.83203125,-46.38671875,-74.21875,0.0
326.97265625,-57.6171875,-33.203125,-30.76171875,-52.24609375,-31.73828125,0.0
326.9765625,-65.4296875,1.46484375,-34.1796875,-62.98828125,19.04296875,0.0
326.98046875,-75.68359375,-1.46484375,-50.29296875,-80.078125,-17.08984375,0.0
326.984375,-82.51953125,-24.90234375,-50.78125,-92.7734375,-30.2734375,0.0
326.98828125,-61.5234375,-26.85546875,-36.62109375,-68.359375,-20.99609375,0.0
326.9921875,-64.94140625,-38.57421875,-43.45703125,-57.12890625,-23.92578125,0.0
326.99609375,-58.10546875,-19.04296875,-44.43359375,-70.3125,-41.50390625,0.0
327.0,-52.24609375,-2.9296875,-34.66796875,-72.265625,-99.609375,0.0
327.00390625,-60.05859375,-19.53125,-38.57421875,-57.6171875,-58.10546875,0.0
327.0078125,-52.24609375,-39.55078125,-44.43359375,-52.24609375,45.8984375,0.0
327.01171875,-71.77734375,-44.43359375,-49.8046875,-80.56640625,87.890625,0.0
327.015625,-64.453125,-35.15625,-41.9921875,-80.078125,45.8984375,0.0
327.01953125,-62.5,-43.45703125,-34.66796875,-66.89453125,-13.671875,0.0
327.0234375,-64.94140625,-48.33984375,-32.2265625,-71.2890625,0.9765625,0.0
327.02734375,-53.22265625,-56.15234375,-27.83203125,-64.94140625,-19.04296875,0.0
327.03125,-42.48046875,-61.03515625,-21.484375,-50.78125,-8.7890625,0.0
327.03515625,-56.15234375,-44.921875,-27.83203125,-71.2890625,84.47265625,0.0
327.0390625,-69.82421875,-50.78125,-43.45703125,-98.6328125,57.6171875,0.0
327.04296875,-66.40625,-54.19921875,-38.0859375,-77.63671875,-17.08984375,0.0
327.046875,-69.3359375,-53.7109375,-42.96875,-75.68359375,-2.9296875,0.0
327.05078125,-57.12890625,-67.87109375,-49.31640625,-68.359375,-125.9765625,0.0
327.0546875,-55.17578125,-68.359375,-41.50390625,-55.6640625,-243.1640625,0.0
327.05859375,-83.984375,-67.87109375,-39.55078125,-53.7109375,-156.25,0.0
327.0625,-85.9375,-71.77734375,-35.64453125,-53.22265625,-55.6640625,0.0
327.06640625,-60.05859375,-75.68359375,-22.94921875,-54.6875,-73.2421875,0.0
327.0703125,-57.6171875,-87.40234375,-20.5078125,-38.57421875,-50.29296875,0.0
327.07421875,-47.36328125,-93.75,-16.11328125,-42.96875,-49.8046875,0.0
327.078125,-30.76171875,-91.796875,-8.7890625,-47.8515625,-109.86328125,0.0
327.08203125,-30.76171875,-87.890625,-2.44140625,-29.78515625,-96.6796875,0.0
327.0859375,-24.4140625,-85.44921875,-7.8125,-23.4375,-42.96875,0.0
327.08984375,-19.04296875,-80.56640625,-0.9765625,-18.06640625,-26.85546875,0.0
327.09375,-15.13671875,-67.87109375,14.16015625,-2.9296875,47.36328125,0.0
327.09765625,-14.16015625,-59.5703125,4.8828125,0.9765625,77.1484375,0.0
327.1015625,-24.4140625,-68.359375,-13.18359375,-24.4140625,19.04296875,0.0
327.10546875,-43.9453125,-71.77734375,-31.25,-38.0859375,18.5546875,0.0
327.109375,-39.55078125,-56.15234375,-24.4140625,-36.62109375,-41.9921875,0.0
327.11328125,-2.44140625,-53.22265625,-0.48828125,-39.0625,-32.71484375,0.0
327.1171875,6.8359375,-64.94140625,0.9765625,-21.97265625,-11.71875,0.0
327.12109375,-19.04296875,-56.15234375,-7.8125,-16.6015625,-12.6953125,0.0
327.125,-20.5078125,-59.08203125,-6.8359375,-22.4609375,74.21875,0.0
327.12890625,-21.484375,-70.80078125,-17.08984375,-37.109375,-37.59765625,0.0
327.1328125,-46.38671875,-60.05859375,-22.4609375,-40.52734375,-187.01171875,0.0
327.13671875,-36.1328125,-35.15625,-31.73828125,-40.52734375,-143.5546875,0.0
327.140625,-31.73828125,-37.59765625,-29.78515625,-43.45703125,-109.86328125,0.0
327.14453125,-34.1796875,-51.7578125,-21.97265625,-28.80859375,-67.87109375,0.0
327.1484375,-41.9921875,-45.8984375,-48.828125,-25.87890625,-43.9453125,0.0
327.15234375,-46.38671875,-43.45703125,-44.921875,-33.203125,-66.89453125,0.0
327.15625,-33.203125,-36.1328125,-28.3203125,-38.0859375,-97.16796875,0.0
327.16015625,-23.92578125,-38.57421875,-38.57421875,-43.9453125,-84.47265625,0.0
327.1640625,-29.296875,-51.26953125,-48.828125,-48.33984375,-36.1328125,0.0
327.16796875,-31.73828125,-47.36328125,-48.828125,-52.734375,-11.71875,0.0
327.171875,-24.90234375,-34.1796875,-41.015625,-54.6875,-10.25390625,0.0
327.17578125,-34.1796875,-32.2265625,-40.0390625,-49.31640625,-2.44140625,0.0
327.1796875,-46.875,-20.5078125,-48.828125,-62.01171875,87.890625,0.0
327.18359375,-37.109375,-19.04296875,-39.0625,-62.5,93.75,0.0
327.1875,-32.2265625,-37.59765625,-30.2734375,-42.48046875,-18.5546875,0.0
327.19140625,-40.0390625,-52.734375,-39.0625,-49.31640625,-55.6640625,0.0
327.1953125,-42.96875,-63.4765625,-44.921875,-49.8046875,-66.89453125,0.0
327.19921875,-52.24609375,-44.43359375,-53.7109375,-54.6875,-27.83203125,0.0
327.203125,-44.43359375,-2.44140625,-43.9453125,-51.26953125,15.13671875,0.0
327.20703125,-38.57421875,14.6484375,-38.0859375,-32.71484375,-2.44140625,0.0
327.2109375,-47.36328125,10.7421875,-48.33984375,-29.78515625,-4.39453125,0.0
327.21484375,-42.48046875,5.859375,-40.52734375,-39.0625,-32.71484375,0.0
327.21875,-43.9453125,4.39453125,-28.80859375,-34.66796875,-55.6640625,0.0
327.22265625,-43.9453125,5.37109375,-28.3203125,-22.4609375,2.9296875,0.0
327.2265625,-41.50390625,10.7421875,-30.2734375,-34.1796875,10.7421875,0.0
327.23046875,-30.2734375,3.41796875,-22.4609375,-35.15625,-39.0625,0.0
327.234375,-32.71484375,-11.71875,-23.92578125,-38.0859375,-28.80859375,0.0
327.23828125,-37.59765625,-7.8125,-23.92578125,-43.45703125,19.04296875,0.0
327.2421875,-18.06640625,-12.20703125,-16.11328125,-32.2265625,-10.25390625,0.0
327.24609375,-19.04296875,-32.71484375,-16.11328125,-31.73828125,-78.61328125,0.0
327.25,-34.1796875,-35.15625,-3.41796875,-31.25,-104.98046875,0.0
327.25390625,-5.37109375,-26.85546875,5.37109375,-21.97265625,-70.3125,0.0
327.2578125,-24.4140625,-21.484375,-4.39453125,-24.4140625,20.01953125,0.0
327.26171875,-45.8984375,-36.1328125,-11.71875,-8.30078125,28.3203125,0.0
327.265625,-25.390625,-48.828125,-11.23046875,-5.859375,-31.73828125,0.0
327.26953125,-30.2734375,-50.78125,-2.44140625,-20.01953125,-27.83203125,0.0
327.2734375,-17.578125,-60.546875,-3.90625,-25.390625,-121.58203125,0.0
327.27734375,-30.76171875,-58.10546875,-18.06640625,-42.96875,-160.15625,0.0
327.28125,-41.50390625,-30.76171875,-21.97265625,-38.57421875,-43.9453125,0.0
327.28515625,-46.38671875,-12.6953125,-26.3671875,-39.0625,-58.10546875,0.0
327.2890625,-54.19921875,-25.87890625,-29.78515625,-50.78125,-118.1640625,0.0
327.29296875,-46.38671875,-39.55078125,-25.390625,-19.04296875,-122.55859375,0.0
327.296875,-28.80859375,-32.71484375,-22.94921875,-11.23046875,-11.23046875,0.0
327.30078125,-19.04296875,-23.92578125,-17.578125,-18.5546875,-16.6015625,0.0
327.3046875,-20.01953125,-26.85546875,-13.671875,-20.5078125,-150.87890625,0.0
327.30859375,-15.625,-41.50390625,-32.71484375,-30.76171875,-152.83203125,0.0
327.3125,-9.27734375,-44.43359375,-28.80859375,-18.5546875,-119.62890625,0.0
327.31640625,-14.6484375,-36.62109375,-18.5546875,-10.7421875,-109.86328125,0.0
327.3203125,-26.85546875,-29.296875,-34.1796875,-19.53125,-57.12890625,0.0
327.32421875,-29.78515625,-32.2265625,-30.2734375,-17.08984375,-46.875,0.0
327.328125,3.90625,-32.2265625,-15.13671875,-14.16015625,-64.94140625,0.0
327.33203125,-3.90625,-36.62109375,-9.27734375,-8.7890625,-78.61328125,0.0
327.3359375,-28.3203125,-48.828125,-9.27734375,-4.39453125,-30.76171875,0.0
327.33984375,-12.20703125,-41.9921875,-9.27734375,-8.7890625,-66.89453125,0.0
327.34375,-9.27734375,-35.64453125,-12.6953125,-7.32421875,-173.828125,0.0
327.34765625,-8.30078125,-35.64453125,-12.20703125,-10.7421875,-201.66015625,0.0
327.3515625,-6.34765625,-41.015625,-10.25390625,-10.7421875,-196.77734375,0.0
327.35546875,-21.97265625,-57.6171875,-15.13671875,8.7890625,-100.5859375,0.0
327.359375,-29.296875,-49.31640625,-15.13671875,18.5546875,-2.44140625,0.0
327.36328125,7.32421875,-40.0390625,3.41796875,16.6015625,-2.44140625,0.0
327.3671875,11.71875,-40.52734375,3.41796875,-0.48828125,13.671875,0.0
327.37109375,-13.18359375,-34.66796875,-28.3203125,-12.20703125,40.52734375,0.0
327.375,-20.5078125,-37.59765625,-30.2734375,-4.39453125,60.05859375,0.0
327.37890625,-20.01953125,-43.45703125,-22.4609375,0.48828125,34.1796875,0.0
327.3828125,-28.80859375,-40.52734375,-37.59765625,-23.92578125,39.0625,0.0
327.38671875,-23.92578125,-36.1328125,-32.71484375,-33.69140625,86.42578125,0.0
327.390625,-23.92578125,-42.96875,-17.08984375,-13.18359375,97.65625,0.0
327.39453125,-41.015625,-44.921875,-21.97265625,-19.53125,68.359375,0.0
327.3984375,-52.24609375,-33.69140625,-43.9453125,-44.43359375,12.20703125,0.0
327.40234375,-50.29296875,-41.015625,-52.734375,-41.015625,12.20703125,0.0
327.40625,-45.41015625,-46.38671875,-35.15625,-38.57421875,-34.1796875,0.0
327.41015625,-56.640625,-36.1328125,-33.69140625,-44.921875,-18.06640625,0.0
327.4140625,-65.4296875,-22.4609375,-44.43359375,-42.96875,52.734375,0.0
327.41796875,-51.7578125,-15.625,-41.9921875,-57.6171875,120.60546875,0.0
327.421875,-37.109375,-31.25,-38.0859375,-57.12890625,106.4453125,0.0
327.42578125,-28.80859375,-41.9921875,-30.2734375,-42.96875,53.7109375,0.0
327.4296875,-17.08984375,-42.48046875,-16.11328125,-25.87890625,-16.6015625,0.0
327.43359375,-12.6953125,-38.0859375,-14.16015625,-28.3203125,-16.11328125,0.0
327.4375,-30.76171875,-37.109375,-20.5078125,-26.3671875,38.57421875,0.0
327.44140625,-39.55078125,-37.59765625,-20.01953125,-20.01953125,1.46484375,0.0
327.4453125,-29.296875,-27.83203125,-28.3203125,-20.99609375,64.453125,0.0
327.44921875,-17.578125,-30.76171875,-30.2734375,-20.5078125,124.51171875,0.0
327.453125,-25.390625,-40.0390625,-13.18359375,-31.73828125,3.90625,0.0
327.45703125,-25.87890625,-42.96875,-5.859375,-26.85546875,-91.30859375,0.0
327.4609375,-18.06640625,-46.875,-2.9296875,-9.27734375,-91.30859375,0.0
327.46484375,-8.30078125,-47.36328125,6.8359375,-10.25390625,-35.64453125,0.0
327.46875,-0.48828125,-45.41015625,6.8359375,-10.25390625,-36.62109375,0.0
327.47265625,-15.13671875,-39.0625,7.32421875,2.44140625,-34.1796875,0.0
327.4765625,0.0,-31.25,12.20703125,35.15625,42.96875,0.0
327.48046875,-19.04296875,-32.2265625,11.23046875,-13.18359375,10.25390625,0.0
327.484375,-57.6171875,-31.73828125,4.39453125,-62.01171875,-19.53125,0.0
327.48828125,-42.48046875,-32.2265625,-4.39453125,-39.55078125,-14.16015625,0.0
327.4921875,-29.78515625,-34.1796875,-12.20703125,-36.62109375,-58.59375,0.0
327.49609375,-44.921875,-37.59765625,-20.01953125,-24.4140625,-51.26953125,0.0
327.5,-43.9453125,-38.57421875,-15.13671875,-29.78515625,39.55078125,0.0
327.50390625,-42.96875,-42.48046875,-13.671875,-43.9453125,-7.32421875,0.0
327.5078125,-44.921875,-37.109375,-5.859375,-25.390625,-30.76171875,0.0
327.51171875,-30.2734375,-11.71875,-2.44140625,-30.76171875,61.03515625,0.0
327.515625,-35.64453125,-10.25390625,-3.41796875,-54.19921875,-12.6953125,0.0
327.51953125,-42.48046875,-38.57421875,-0.9765625,-41.50390625,-99.609375,0.0
327.5234375,-36.62109375,-38.57421875,-12.6953125,-40.52734375,-73.2421875,0.0
327.52734375,-37.109375,-10.25390625,-15.13671875,-53.22265625,-64.453125,0.0
327.53125,-50.29296875,-3.41796875,-23.4375,-43.9453125,-34.66796875,0.0
327.53515625,-47.36328125,-35.64453125,-21.484375,-43.9453125,-14.16015625,0.0
327.5390625,-29.78515625,-54.6875,-15.625,-56.640625,5.37109375,0.0
327.54296875,-24.90234375,-41.9921875,-22.94921875,-66.40625,-16.6015625,0.0
327.546875,-9.27734375,-26.85546875,-26.85546875,-63.96484375,-44.921875,0.0
327.55078125,-25.87890625,-20.5078125,-26.85546875,-52.734375,-40.52734375,0.0
327.5546875,-37.109375,-24.4140625,-31.25,-59.08203125,26.3671875,0.0
327.55859375,-34.1796875,-37.109375,-29.78515625,-47.36328125,80.078125,0.0
327.5625,-64.453125,-46.875,-19.04296875,-39.0625,33.69140625,0.0
327.56640625,-52.734375,-47.8515625,-21.484375,-53.22265625,-1.46484375,0.0
327.5703125,-36.1328125,-34.66796875,-23.92578125,-35.15625,-28.3203125,0.0
327.57421875,-43.45703125,-27.83203125,-21.484375,-32.2265625,-57.12890625,0.0
327.578125,-48.33984375,-40.52734375,-18.5546875,-49.31640625,21.97265625,0.0
327.58203125,-48.33984375,-31.25,-20.01953125,-41.015625,25.390625,0.0
327.5859375,-54.6875,-23.4375,-33.203125,-43.45703125,-34.1796875,0.0
327.58984375,-57.12890625,-27.83203125,-41.50390625,-47.8515625,7.8125,0.0
327.59375,-44.921875,-23.92578125,-32.71484375,-27.34375,20.99609375,0.0
327.59765625,-45.8984375,-34.66796875,-29.78515625,-34.1796875,-26.3671875,0.0
327.6015625,-27.83203125,-29.78515625,-32.71484375,-38.0859375,-12.6953125,0.0
327.60546875,-26.85546875,-41.50390625,-23.4375,-6.8359375,-115.234375,0.0
327.609375,-32.2265625,-58.10546875,-15.625,-13.671875,-199.70703125,0.0
327.61328125,-27.34375,-31.73828125,-16.6015625,-12.20703125,-29.78515625,0.0
327.6171875,-12.20703125,-21.484375,-8.7890625,-14.6484375,33.203125,0.0
327.62109375,-32.71484375,-26.85546875,-6.34765625,-40.0390625,-79.1015625,0.0
327.625,-54.19921875,-29.78515625,-8.30078125,-12.6953125,-78.61328125,0.0
327.62890625,-12.20703125,-28.3203125,6.34765625,33.69140625,-31.25,0.0
327.6328125,-17.08984375,-14.6484375,18.06640625,35.15625,-11.71875,0.0
327.63671875,-26.85546875,-55.17578125,8.7890625,4.8828125,-43.9453125,0.0
327.640625,-30.76171875,-87.890625,-15.625,-41.50390625,-88.8671875,0.0
327.64453125,-23.4375,-43.45703125,-15.625,-73.2421875,-64.453125,0.0
327.6484375,-35.64453125,-36.1328125,-25.87890625,-75.68359375,-152.34375,0.0
327.65234375,-40.0390625,-51.7578125,-35.64453125,-69.3359375,-174.8046875,0.0
327.65625,-28.3203125,-33.203125,-27.34375,-41.9921875,-75.68359375,0.0
327.66015625,-44.921875,-29.78515625,-48.828125,-62.01171875,-46.875,0.0
327.6640625,-59.08203125,-34.66796875,-45.41015625,5.859375,-77.63671875,0.0
327.66796875,-87.890625,-43.45703125,-56.15234375,-21.484375,-100.5859375,0.0
327.671875,-87.890625,-33.203125,-72.75390625,-107.91015625,-93.75,0.0
327.67578125,-48.33984375,-18.5546875,-52.734375,-61.03515625,-195.80078125,0.0
327.6796875,-92.7734375,-22.4609375,-84.9609375,-78.125,-246.09375,0.0
327.68359375,-120.60546875,-53.22265625,-121.09375,-99.12109375,-176.7578125,0.0
327.6875,-90.33203125,-49.8046875,-97.16796875,-47.36328125,-103.02734375,0.0
327.69140625,-73.2421875,-20.01953125,-96.19140625,-28.80859375,-22.4609375,0.0
327.6953125,-73.73046875,-35.15625,-115.234375,-80.56640625,-7.32421875,0.0
327.69921875,-51.7578125,-26.85546875,-96.19140625,-30.2734375,-56.640625,0.0
327.703125,-61.5234375,-20.5078125,-69.82421875,7.8125,-35.15625,0.0
327.70703125,-81.54296875,-24.4140625,-86.42578125,-48.828125,-6.8359375,0.0
327.7109375,-67.3828125,-31.25,-92.7734375,-32.71484375,-102.5390625,0.0
327.71484375,-40.52734375,-57.6171875,-85.44921875,-31.25,-61.03515625,0.0
327.71875,-48.33984375,-79.58984375,-115.72265625,-46.38671875,37.59765625,0.0
327.72265625,-44.921875,-81.54296875,-98.6328125,-20.01953125,25.87890625,0.0
327.7265625,-6.34765625,-65.4296875,-57.12890625,10.25390625,-48.828125,0.0
327.73046875,-6.34765625,-49.8046875,-55.6640625,15.13671875,-40.52734375,0.0
327.734375,-32.2265625,-59.5703125,-72.75390625,-14.6484375,41.015625,0.0
327.73828125,-36.62109375,-56.640625,-80.078125,-42.96875,24.4140625,0.0
327.7421875,-10.25390625,-44.43359375,-49.8046875,-28.80859375,17.08984375,0.0
327.74609375,-16.6015625,-54.19921875,-33.69140625,-21.97265625,-43.9453125,0.0
327.75,-26.3671875,-57.6171875,-35.15625,-27.34375,-76.66015625,0.0
327.75390625,-38.57421875,-48.33984375,-42.96875,-38.0859375,-59.08203125,0.0
327.7578125,-47.36328125,-43.9453125,-49.31640625,-54.6875,-45.8984375,0.0
327.76171875,-45.8984375,-53.22265625,-45.8984375,-52.24609375,30.76171875,0.0
327.765625,-50.29296875,-46.875,-31.73828125,-21.484375,57.12890625,0.0
327.76953125,-32.2265625,-32.2265625,-22.4609375,-12.20703125,49.31640625,0.0
327.7734375,-42.48046875,-22.4609375,-24.4140625,-27.34375,-13.18359375,0.0
327.77734375,-30.76171875,-18.5546875,-5.859375,-3.41796875,-91.796875,0.0
327.78125,-2.44140625,-27.83203125,7.8125,8.7890625,-127.9296875,0.0
327.78515625,-21.484375,-43.9453125,-11.23046875,-22.94921875,-147.4609375,0.0
327.7890625,-29.296875,-44.921875,-26.3671875,-30.2734375,-31.73828125,0.0
327.79296875,3.90625,-46.875,-5.859375,-14.16015625,0.0,0.0
327.796875,-27.83203125,-57.12890625,-8.30078125,-18.5546875,-72.265625,0.0
327.80078125,-51.7578125,-79.1015625,-15.13671875,-16.11328125,-37.59765625,0.0
327.8046875,-20.5078125,-91.796875,-10.25390625,-1.953125,-39.55078125,0.0
327.80859375,-15.13671875,-67.87109375,-5.37109375,4.39453125,-24.4140625,0.0
327.8125,-6.34765625,-35.64453125,15.13671875,24.4140625,20.5078125,0.0
327.81640625,12.20703125,-34.1796875,36.62109375,52.24609375,5.859375,0.0
327.8203125,-10.25390625,-33.69140625,20.01953125,30.76171875,-49.8046875,0.0
327.82421875,-36.62109375,-41.50390625,11.71875,12.20703125,-19.04296875,0.0
327.828125,-45.8984375,-51.26953125,0.48828125,-2.9296875,-13.18359375,0.0
327.83203125,-35.15625,-39.55078125,-6.34765625,-0.48828125,-134.765625,0.0
327.8359375,-41.015625,-35.64453125,-2.44140625,-2.9296875,-140.625,0.0
327.83984375,-68.84765625,-30.2734375,-14.16015625,-26.85546875,-57.12890625,0.0
327.84375,-92.7734375,-21.97265625,-37.59765625,-55.17578125,-18.5546875,0.0
327.84765625,-97.65625,-35.15625,-45.41015625,-47.36328125,-46.875,0.0
327.8515625,-90.33203125,-28.80859375,-48.33984375,-39.0625,-6.8359375,0.0
327.85546875,-92.7734375,-18.06640625,-58.59375,-56.15234375,22.4609375,0.0
327.859375,-96.6796875,-28.3203125,-59.08203125,-52.734375,58.59375,0.0
327.86328125,-99.12109375,-35.15625,-67.3828125,-51.26953125,104.00390625,0.0
327.8671875,-79.58984375,-31.73828125,-61.5234375,-50.29296875,22.4609375,0.0
327.87109375,-70.80078125,-34.66796875,-45.41015625,-59.08203125,-37.109375,0.0
327.875,-71.77734375,-17.578125,-33.203125,-37.109375,-34.66796875,0.0
327.87890625,-49.31640625,-7.32421875,-39.0625,-4.39453125,-123.53515625,0.0
327.8828125,-25.87890625,-38.0859375,-32.71484375,-5.859375,-133.30078125,0.0
327.88671875,-73.73046875,-58.10546875,-24.4140625,-47.36328125,-53.22265625,0.0
327.890625,-100.09765625,-41.9921875,-27.83203125,-52.24609375,-37.109375,0.0
327.89453125,-48.33984375,-17.08984375,-21.97265625,-32.2265625,2.9296875,0.0
327.8984375,-57.6171875,-6.34765625,-29.296875,-30.76171875,56.640625,0.0
327.90234375,-48.33984375,-19.04296875,-22.94921875,-3.41796875,-5.37109375,0.0
327.90625,-17.578125,-42.96875,-4.39453125,11.71875,-66.40625,0.0
327.91015625,-37.109375,-41.50390625,-9.765625,1.46484375,-27.83203125,0.0
327.9140625,-42.96875,-32.71484375,-17.08984375,-3.41796875,-47.36328125,0.0
327.91796875,-20.5078125,-28.3203125,1.46484375,-6.34765625,-23.92578125,0.0
327.921875,7.8125,-29.78515625,13.671875,17.578125,9.765625,0.0
327.92578125,4.8828125,-33.203125,1.953125,15.13671875,-71.77734375,0.0
327.9296875,-17.578125,-30.76171875,-5.859375,1.46484375,-113.76953125,0.0
327.93359375,-2.9296875,-34.1796875,-0.9765625,20.01953125,-83.0078125,0.0
327.9375,-9.27734375,-28.80859375,-1.46484375,14.6484375,-19.53125,0.0
327.94140625,-23.4375,-21.484375,-18.5546875,6.34765625,12.6953125,0.0
327.9453125,-29.296875,-21.484375,-31.73828125,-5.37109375,3.41796875,0.0
327.94921875,-57.6171875,-41.015625,-38.0859375,-34.66796875,-41.9921875,0.0
327.953125,-66.40625,-28.3203125,-43.9453125,-48.33984375,-54.19921875,0.0
327.95703125,-65.4296875,-25.390625,-55.6640625,-61.03515625,-3.90625,0.0
327.9609375,-90.33203125,-27.34375,-60.05859375,-63.4765625,-39.0625,0.0
327.96484375,-77.63671875,-31.25,-67.3828125,-32.2265625,-59.5703125,0.0
327.96875,-62.5,-47.8515625,-66.40625,-11.23046875,-22.4609375,0.0
327.97265625,-54.6875,-38.0859375,-47.36328125,-3.90625,-43.45703125,0.0
327.9765625,-48.33984375,-42.96875,-44.43359375,19.04296875,-22.94921875,0.0
327.98046875,-52.24609375,-46.38671875,-46.38671875,25.390625,-62.5,0.0
327.984375,-62.98828125,-26.3671875,-47.36328125,10.7421875,-138.18359375,0.0
327.98828125,-59.5703125,-12.6953125,-39.55078125,1.953125,-134.765625,0.0
327.9921875,-49.31640625,-19.04296875,-27.34375,17.08984375,-83.0078125,0.0
327.99609375,-55.6640625,-36.62109375,-33.203125,27.83203125,-47.8515625,0.0
328.0,-43.9453125,-29.78515625,-24.90234375,40.52734375,9.27734375,0.0
328.00390625,-37.59765625,-40.0390625,-22.94921875,34.1796875,23.92578125,0.0
328.0078125,-42.48046875,-77.1484375,-23.92578125,20.5078125,-30.76171875,0.0
328.01171875,-50.29296875,-88.8671875,-23.92578125,31.73828125,-56.15234375,0.0
328.015625,-57.12890625,-55.6640625,-34.1796875,33.69140625,-54.19921875,0.0
328.01953125,-42.48046875,-40.0390625,-24.90234375,23.92578125,-12.6953125,0.0
328.0234375,-36.1328125,-63.96484375,-17.08984375,26.3671875,-25.87890625,0.0
328.02734375,-40.52734375,-62.01171875,-14.6484375,13.18359375,-1.46484375,0.0
328.03125,-31.73828125,-34.1796875,-13.18359375,18.06640625,4.8828125,0.0
328.03515625,-20.5078125,-31.73828125,-2.44140625,34.1796875,-12.20703125,0.0
328.0390625,-25.390625,-45.41015625,4.39453125,27.34375,-25.87890625,0.0
328.04296875,-48.828125,-57.12890625,-17.578125,-1.953125,-101.07421875,0.0
328.046875,-66.89453125,-47.8515625,-32.71484375,-25.390625,-90.33203125,0.0
328.05078125,-51.7578125,-28.3203125,-39.0625,-30.2734375,-135.7421875,0.0
328.0546875,-70.80078125,-14.16015625,-48.33984375,-17.578125,-170.41015625,0.0
328.05859375,-84.9609375,-20.5078125,-49.8046875,-8.30078125,-159.66796875,0.0
328.0625,-70.3125,-40.0390625,-66.40625,-29.78515625,-165.52734375,0.0
328.06640625,-76.66015625,-54.19921875,-61.03515625,-41.9921875,-166.015625,0.0
328.0703125,-62.01171875,-50.78125,-34.66796875,-26.85546875,-263.671875,0.0
328.07421875,-63.4765625,-30.76171875,-38.0859375,-19.53125,-196.77734375,0.0
328.078125,-66.89453125,-29.296875,-58.10546875,-32.2265625,20.5078125,0.0
328.08203125,-79.58984375,-40.0390625,-71.2890625,-35.15625,53.7109375,0.0
328.0859375,-68.359375,-39.0625,-71.77734375,-25.87890625,34.66796875,0.0
328.08984375,-56.15234375,-31.25,-62.01171875,-31.25,30.2734375,0.0
328.09375,-80.56640625,-29.78515625,-62.98828125,-33.69140625,16.6015625,0.0
328.09765625,-64.453125,-32.71484375,-50.78125,-10.7421875,72.75390625,0.0
328.1015625,-39.0625,-37.109375,-41.015625,3.90625,73.73046875,0.0
328.10546875,-28.3203125,-49.8046875,-36.62109375,2.9296875,2.44140625,0.0
328.109375,-26.85546875,-44.43359375,-35.64453125,-0.9765625,16.11328125,0.0
328.11328125,-43.9453125,-29.78515625,-47.8515625,-9.27734375,43.9453125,0.0
328.1171875,-43.45703125,-22.4609375,-42.96875,-21.484375,-26.85546875,0.0
328.12109375,-44.921875,-8.7890625,-45.8984375,-28.3203125,-98.14453125,0.0
328.125,-49.8046875,-3.90625,-48.33984375,-7.8125,-47.36328125,0.0
328.12890625,-21.484375,-10.7421875,-28.3203125,6.34765625,-9.765625,0.0
328.1328125,-0.48828125,-8.7890625,-9.765625,14.6484375,6.8359375,0.0
328.13671875,-27.83203125,-17.08984375,-10.25390625,12.20703125,40.0390625,0.0
328.140625,-3.90625,-20.99609375,-9.765625,10.25390625,10.7421875,0.0
328.14453125,25.87890625,-10.25390625,3.41796875,15.625,-11.23046875,0.0
328.1484375,9.765625,-22.94921875,0.9765625,1.46484375,4.39453125,0.0
328.15234375,-15.625,-38.57421875,-21.484375,-10.7421875,-62.98828125,0.0
328.15625,-18.06640625,-40.52734375,-38.57421875,-9.765625,-39.55078125,0.0
328.16015625,-33.69140625,-41.50390625,-49.31640625,-26.3671875,14.6484375,0.0
328.1640625,-55.6640625,-24.90234375,-47.36328125,-32.2265625,32.2265625,0.0
328.16796875,-68.84765625,-17.08984375,-43.45703125,-26.85546875,45.8984375,0.0
328.171875,-71.2890625,-38.57421875,-40.0390625,-26.3671875,-8.30078125,0.0
328.17578125,-57.6171875,-34.1796875,-33.69140625,5.37109375,-17.578125,0.0
328.1796875,-69.82421875,-14.16015625,-36.62109375,0.9765625,45.41015625,0.0
328.18359375,-38.57421875,-14.16015625,-21.484375,-7.32421875,96.6796875,0.0
328.1875,-18.5546875,-13.18359375,0.0,11.23046875,88.8671875,0.0
328.19140625,-39.55078125,-24.4140625,-10.25390625,6.34765625,72.75390625,0.0
328.1953125,-22.94921875,-37.59765625,-13.671875,9.765625,55.6640625,0.0
328.19921875,-41.015625,-44.43359375,-16.6015625,-10.25390625,-63.4765625,0.0
328.203125,-49.8046875,-53.7109375,-14.16015625,-25.390625,-179.6875,0.0
328.20703125,-42.48046875,-33.69140625,-4.39453125,-17.578125,-249.0234375,0.0
328.2109375,-47.8515625,-12.20703125,-17.08984375,-18.5546875,-163.57421875,0.0
328.21484375,-45.8984375,-21.484375,-30.2734375,-11.71875,-101.07421875,0.0
328.21875,-37.109375,-24.90234375,-30.76171875,-15.13671875,-166.015625,0.0
328.22265625,-29.78515625,-12.20703125,-24.90234375,-16.11328125,-199.21875,0.0
328.2265625,-34.66796875,-12.6953125,-18.06640625,0.0,-108.3984375,0.0
328.23046875,-28.3203125,-38.0859375,-9.27734375,3.41796875,-41.50390625,0.0
328.234375,-24.90234375,-51.26953125,-4.39453125,4.39453125,-124.51171875,0.0
328.23828125,-37.109375,-38.0859375,-0.9765625,-5.37109375,-181.15234375,0.0
328.2421875,-41.9921875,-20.01953125,-2.44140625,-13.671875,-140.13671875,0.0
328.24609375,-34.1796875,-18.06640625,0.48828125,-10.7421875,-108.3984375,0.0
328.25,-32.2265625,-20.01953125,-10.25390625,-8.30078125,-46.38671875,0.0
328.25390625,-37.109375,-25.87890625,-29.78515625,-4.39453125,-12.20703125,0.0
328.2578125,-47.8515625,-33.203125,-31.73828125,-6.8359375,-20.01953125,0.0
328.26171875,-41.015625,-34.1796875,-25.390625,-9.765625,-33.203125,0.0
328.265625,-42.96875,-33.203125,-20.99609375,-4.39453125,7.32421875,0.0
328.26953125,-34.66796875,-38.0859375,-20.5078125,-23.4375,-1.953125,0.0
328.2734375,-34.1796875,-43.9453125,-19.53125,-30.76171875,-14.16015625,0.0
328.27734375,-65.91796875,-48.828125,-20.5078125,-19.53125,54.19921875,0.0
328.28125,-36.62109375,-46.875,-14.16015625,-33.203125,96.19140625,0.0
328.28515625,-23.92578125,-42.96875,-14.16015625,-34.1796875,40.52734375,0.0
328.2890625,-34.66796875,-22.4609375,-15.625,-21.484375,21.97265625,0.0
328.29296875,-26.3671875,-29.296875,-10.7421875,-16.11328125,41.50390625,0.0
328.296875,-28.3203125,-59.5703125,-13.18359375,-9.765625,-40.0390625,0.0
328.30078125,-50.78125,-52.734375,-24.4140625,-25.87890625,-5.859375,0.0
328.3046875,-56.640625,-21.97265625,-20.01953125,-41.015625,83.49609375,0.0
328.30859375,-37.109375,-4.8828125,-16.6015625,-23.4375,94.7265625,0.0
328.3125,-26.3671875,-5.859375,-25.390625,-21.484375,41.9921875,0.0
328.31640625,-53.7109375,-19.53125,-21.484375,-39.0625,-32.71484375,0.0
328.3203125,-56.15234375,-29.78515625,-20.5078125,-37.109375,-93.26171875,0.0
328.32421875,-37.59765625,-21.97265625,-23.92578125,-19.04296875,-10.7421875,0.0
328.328125,-33.203125,-23.4375,-38.0859375,-49.31640625,111.328125,0.0
328.33203125,-70.80078125,-35.15625,-41.50390625,-67.3828125,25.390625,0.0
328.3359375,-83.984375,-22.94921875,-28.3203125,-48.828125,-88.37890625,0.0
328.33984375,-52.24609375,-20.5078125,-19.04296875,-29.78515625,-42.48046875,0.0
328.34375,-43.45703125,-45.8984375,-14.6484375,-20.5078125,-13.18359375,0.0
328.34765625,-36.62109375,-61.03515625,-21.97265625,-32.2265625,-4.8828125,0.0
328.3515625,-39.55078125,-59.08203125,-36.1328125,-38.57421875,16.11328125,0.0
328.35546875,-47.8515625,-54.19921875,-44.43359375,-40.52734375,-20.5078125,0.0
328.359375,-58.10546875,-62.98828125,-45.41015625,-42.96875,-9.765625,0.0
328.36328125,-58.10546875,-59.08203125,-41.50390625,-34.1796875,4.39453125,0.0
328.3671875,-57.6171875,-45.8984375,-46.38671875,-44.921875,-84.47265625,0.0
328.37109375,-66.40625,-60.05859375,-61.03515625,-63.4765625,-174.31640625,0.0
328.375,-74.21875,-62.5,-59.08203125,-51.26953125,-118.65234375,0.0
328.37890625,-64.94140625,-63.4765625,-47.8515625,-47.8515625,-91.796875,0.0
328.3828125,-63.4765625,-40.52734375,-45.8984375,-63.96484375,-76.66015625,0.0
328.38671875,-58.10546875,-11.71875,-37.59765625,-57.6171875,-56.640625,0.0
328.390625,-42.96875,-32.2265625,-28.3203125,-37.59765625,-54.19921875,0.0
328.39453125,-41.015625,-35.15625,-20.01953125,-34.66796875,-83.0078125,0.0
328.3984375,-57.6171875,-20.01953125,-18.5546875,-30.2734375,-147.94921875,0.0
328.40234375,-49.8046875,-19.04296875,-24.90234375,-34.66796875,-52.734375,0.0
328.40625,-31.73828125,-20.99609375,-25.390625,-49.31640625,16.11328125,0.0
328.41015625,-28.3203125,-28.3203125,-15.625,-29.296875,-67.3828125,0.0
328.4140625,-21.97265625,-42.96875,-2.44140625,0.48828125,-132.32421875,0.0
328.41796875,-13.18359375,-37.59765625,9.765625,17.08984375,-91.30859375,0.0
328.421875,18.5546875,-25.87890625,40.52734375,47.8515625,-31.25,0.0
328.42578125,20.5078125,-23.4375,43.9453125,29.78515625,-9.27734375,0.0
328.4296875,-0.9765625,-19.53125,22.94921875,-6.8359375,-49.8046875,0.0
328.43359375,-6.34765625,-24.4140625,25.390625,-3.41796875,-14.6484375,0.0
328.4375,-0.9765625,-44.43359375,25.87890625,-7.8125,5.859375,0.0
328.44140625,-7.32421875,-46.875,12.6953125,1.46484375,16.6015625,0.0
328.4453125,-5.859375,-20.5078125,1.953125,-7.32421875,6.34765625,0.0
328.44921875,-29.78515625,-11.23046875,0.0,-18.06640625,-45.8984375,0.0
328.453125,-42.48046875,-30.76171875,-13.18359375,-13.18359375,40.52734375,0.0
328.45703125,-13.18359375,-48.828125,-19.53125,-13.18359375,53.22265625,0.0
328.4609375,-19.04296875,-45.8984375,-22.4609375,-26.85546875,17.08984375,0.0
328.46484375,-37.109375,-24.90234375,-37.109375,-32.2265625,-44.43359375,0.0
328.46875,-35.64453125,-13.671875,-41.50390625,-43.9453125,-54.19921875,0.0
328.47265625,-45.41015625,-22.4609375,-45.8984375,-66.89453125,-23.4375,0.0
328.4765625,-53.22265625,-28.80859375,-47.36328125,-44.921875,9.765625,0.0
328.48046875,-42.96875,-29.78515625,-39.0625,-28.3203125,47.8515625,0.0
328.484375,-37.109375,-23.4375,-32.71484375,-32.2265625,20.5078125,0.0
328.48828125,-39.55078125,-37.59765625,-39.55078125,-28.80859375,-45.8984375,0.0
328.4921875,-40.0390625,-48.33984375,-36.1328125,-25.390625,-82.51953125,0.0
328.49609375,-25.390625,-50.78125,-17.578125,-41.015625,-111.81640625,0.0
328.5,-32.71484375,-36.1328125,-26.85546875,-40.52734375,-82.51953125,0.0
328.50390625,-25.87890625,-12.20703125,-41.015625,-20.5078125,-12.20703125,0.0
328.5078125,-41.50390625,-21.484375,-34.66796875,-41.015625,-44.921875,0.0
328.51171875,-85.9375,-22.94921875,-34.66796875,-71.77734375,-94.23828125,0.0
328.515625,-80.56640625,-32.2265625,-50.29296875,-54.19921875,-79.1015625,0.0
328.51953125,-67.87109375,-42.96875,-64.94140625,-61.03515625,-68.359375,0.0
328.5234375,-53.7109375,-40.52734375,-54.6875,-56.15234375,-120.1171875,0.0
328.52734375,-62.5,-53.22265625,-41.9921875,-46.875,-176.7578125,0.0
328.53125,-80.56640625,-59.08203125,-48.33984375,-77.63671875,-70.3125,0.0
328.53515625,-75.68359375,-56.640625,-47.36328125,-48.33984375,34.66796875,0.0
328.5390625,-59.5703125,-64.94140625,-52.24609375,-29.296875,89.84375,0.0
328.54296875,-46.875,-66.89453125,-60.05859375,-62.5,35.15625,0.0
328.546875,-56.15234375,-54.6875,-60.546875,-62.01171875,-81.0546875,0.0
328.55078125,-66.89453125,-42.96875,-60.05859375,-72.75390625,-22.4609375,0.0
328.5546875,-59.08203125,-50.78125,-62.98828125,-63.96484375,30.2734375,0.0
328.55859375,-56.640625,-69.3359375,-66.89453125,-35.15625,-18.5546875,0.0
328.5625,-49.31640625,-57.12890625,-57.6171875,-37.109375,-59.5703125,0.0
328.56640625,-42.48046875,-34.66796875,-47.8515625,-40.0390625,8.30078125,0.0
328.5703125,-54.6875,-45.41015625,-54.6875,-35.15625,-29.296875,0.0
328.57421875,-62.01171875,-44.43359375,-49.8046875,-45.41015625,-79.1015625,0.0
328.578125,-51.7578125,-37.109375,-39.0625,-48.33984375,-18.06640625,0.0
328.58203125,-52.734375,-51.26953125,-41.015625,-14.6484375,32.71484375,0.0
328.5859375,-58.10546875,-52.734375,-44.43359375,-23.4375,5.859375,0.0
328.58984375,-41.015625,-41.50390625,-47.36328125,-47.8515625,-40.52734375,0.0
328.59375,-26.85546875,-30.76171875,-49.8046875,-51.26953125,30.76171875,0.0
328.59765625,-39.0625,-39.0625,-53.22265625,-40.0390625,67.87109375,0.0
328.6015625,-53.22265625,-45.41015625,-41.015625,-25.87890625,61.03515625,0.0
328.60546875,-10.7421875,-33.203125,-36.62109375,-30.2734375,174.8046875,0.0
328.609375,-7.8125,-47.8515625,-42.48046875,-10.25390625,162.59765625,0.0
328.61328125,-26.85546875,-49.8046875,-29.296875,-7.32421875,-40.0390625,0.0
328.6171875,-11.23046875,-22.4609375,-24.90234375,-1.46484375,-84.47265625,0.0
328.62109375,-18.06640625,-23.4375,-29.78515625,-18.5546875,7.32421875,0.0
328.625,-21.97265625,-32.2265625,-32.2265625,-40.52734375,5.37109375,0.0
328.62890625,-34.66796875,-36.62109375,-32.2265625,-30.76171875,-48.828125,0.0
328.6328125,-40.52734375,-21.97265625,-24.90234375,-36.1328125,-14.16015625,0.0
328.63671875,-29.296875,9.27734375,-33.203125,-35.64453125,-26.3671875,0.0
328.640625,-17.08984375,2.44140625,-36.62109375,-26.85546875,-91.30859375,0.0
328.64453125,-19.53125,-14.16015625,-40.0390625,-37.109375,-74.21875,0.0
328.6484375,-45.8984375,-16.6015625,-58.59375,-46.38671875,-55.17578125,0.0
328.65234375,-59.5703125,-26.85546875,-64.94140625,-34.1796875,-41.50390625,0.0
328.65625,-58.10546875,-28.3203125,-59.5703125,-33.203125,-54.19921875,0.0
328.66015625,-45.8984375,-28.3203125,-55.17578125,-47.8515625,-18.5546875,0.0
328.6640625,-41.9921875,-37.109375,-45.8984375,-49.31640625,0.0,0.0
328.66796875,-52.24609375,-44.921875,-37.59765625,-23.92578125,-74.70703125,0.0
328.671875,-23.92578125,-37.109375,-33.69140625,-16.11328125,-112.79296875,0.0
328.67578125,-36.62109375,-28.3203125,-46.38671875,-39.0625,-111.81640625,0.0
328.6796875,-76.171875,-19.04296875,-57.6171875,-57.12890625,-36.62109375,0.0
328.68359375,-73.2421875,-10.25390625,-51.26953125,-35.64453125,20.5078125,0.0
328.6875,-66.40625,-17.08984375,-47.36328125,-33.69140625,-13.671875,0.0
328.69140625,-42.96875,-35.15625,-45.41015625,-63.4765625,-44.921875,0.0
328.6953125,-36.62109375,-38.0859375,-38.57421875,-41.015625,-22.4609375,0.0
328.69921875,-48.828125,-41.9921875,-46.875,-19.04296875,-8.7890625,0.0
328.703125,-62.98828125,-37.109375,-61.5234375,-27.83203125,-1.953125,0.0
328.70703125,-61.5234375,-8.30078125,-63.96484375,-57.12890625,11.71875,0.0
328.7109375,-54.6875,-0.9765625,-58.59375,-45.8984375,17.578125,0.0
328.71484375,-49.31640625,-16.11328125,-54.6875,-36.62109375,-10.25390625,0.0
328.71875,-44.921875,-23.92578125,-60.05859375,-37.59765625,-32.2265625,0.0
328.72265625,-44.921875,-26.85546875,-62.98828125,-48.828125,-52.24609375,0.0
328.7265625,-46.875,-21.484375,-59.08203125,-74.21875,-30.76171875,0.0
328.73046875,-33.203125,-15.625,-50.29296875,-52.734375,-79.58984375,0.0
328.734375,-22.94921875,-29.296875,-45.8984375,-36.62109375,-106.4453125,0.0
328.73828125,-21.97265625,-26.3671875,-51.7578125,-47.36328125,-34.1796875,0.0
328.7421875,-19.04296875,-23.92578125,-45.41015625,-52.734375,-74.21875,0.0
328.74609375,-30.76171875,-37.59765625,-42.48046875,-55.17578125,-134.27734375,0.0
328.75,-43.45703125,-29.296875,-49.8046875,-63.4765625,-107.421875,0.0
328.75390625,-51.26953125,-11.71875,-49.8046875,-49.31640625,-57.6171875,0.0
328.7578125,-55.6640625,-4.8828125,-49.31640625,-43.9453125,16.11328125,0.0
328.76171875,-39.55078125,-21.484375,-45.41015625,-60.05859375,-21.484375,0.0
328.765625,-30.2734375,-25.390625,-40.0390625,-50.29296875,-79.58984375,0.0
328.76953125,-49.31640625,-12.6953125,-46.38671875,-48.828125,36.62109375,0.0
328.7734375,-54.6875,-27.83203125,-39.55078125,-61.03515625,-5.37109375,0.0
328.77734375,-68.84765625,-51.26953125,-27.34375,-40.0390625,-66.89453125,0.0
328.78125,-45.8984375,-32.2265625,-26.3671875,-26.85546875,-17.08984375,0.0
328.78515625,-30.2734375,-20.5078125,-29.296875,-35.15625,9.27734375,0.0
328.7890625,-41.50390625,-29.296875,-33.203125,-33.203125,-57.12890625,0.0
328.79296875,-47.8515625,-30.76171875,-41.50390625,-18.5546875,-98.6328125,0.0
328.796875,-43.45703125,-30.2734375,-43.45703125,-13.18359375,-73.2421875,0.0
328.80078125,-22.94921875,-20.5078125,-30.2734375,-25.390625,-14.16015625,0.0
328.8046875,-30.2734375,-9.27734375,-37.59765625,-39.0625,36.62109375,0.0
328.80859375,-33.203125,-30.2734375,-35.64453125,-36.62109375,-73.73046875,0.0
328.8125,-38.57421875,-41.9921875,-37.109375,-30.2734375,-71.77734375,0.0
328.81640625,-45.41015625,-41.50390625,-53.22265625,-30.2734375,1.953125,0.0
328.8203125,-3.41796875,-57.6171875,-34.66796875,-6.34765625,14.16015625,0.0
328.82421875,-12.20703125,-31.25,-11.23046875,33.203125,-21.484375,0.0
328.828125,-36.62109375,-2.44140625,-19.53125,17.08984375,-45.8984375,0.0
328.83203125,-15.13671875,1.46484375,-25.390625,-27.34375,-29.78515625,0.0
328.8359375,-15.13671875,1.46484375,-14.16015625,-39.55078125,-43.45703125,0.0
328.83984375,-8.7890625,-17.578125,-20.5078125,-24.90234375,-38.57421875,0.0
328.84375,-8.30078125,-22.94921875,-32.71484375,-5.859375,30.76171875,0.0
328.84765625,-7.8125,-20.99609375,-25.390625,-6.8359375,51.7578125,0.0
328.8515625,-5.859375,-32.2265625,-18.06640625,-17.08984375,38.57421875,0.0
328.85546875,-2.44140625,-31.25,-23.4375,-9.27734375,78.61328125,0.0
328.859375,-3.90625,-22.4609375,-27.83203125,-1.46484375,43.9453125,0.0
328.86328125,-4.8828125,-26.3671875,-24.90234375,0.0,-53.7109375,0.0
328.8671875,-6.34765625,-26.85546875,-13.18359375,2.44140625,-24.4140625,0.0
328.87109375,-10.7421875,-36.1328125,-16.11328125,-6.8359375,46.38671875,0.0
328.875,0.0,-54.19921875,-23.92578125,-10.7421875,-36.1328125,0.0
328.87890625,5.859375,-38.57421875,-27.83203125,-7.8125,-103.02734375,0.0
328.8828125,-8.30078125,-28.3203125,-29.296875,-20.01953125,-83.49609375,0.0
328.88671875,-18.06640625,-27.83203125,-23.92578125,-16.11328125,-38.0859375,0.0
328.890625,-20.01953125,-25.390625,-26.85546875,-5.859375,-5.859375,0.0
328.89453125,-14.16015625,-29.78515625,-26.85546875,-2.9296875,-10.7421875,0.0
328.8984375,-18.5546875,-40.0390625,-23.4375,-5.37109375,-52.24609375,0.0
328.90234375,-14.6484375,-49.8046875,-23.92578125,-17.578125,-40.52734375,0.0
328.90625,-18.06640625,-47.8515625,-33.203125,-16.6015625,-44.921875,0.0
328.91015625,-10.7421875,-27.83203125,-44.43359375,-21.97265625,-149.90234375,0.0
328.9140625,-38.57421875,-24.4140625,-45.8984375,-48.828125,-175.78125,0.0
328.91796875,-48.828125,-36.62109375,-39.0625,-27.34375,-119.62890625,0.0
328.921875,-28.3203125,-26.85546875,-49.31640625,-27.34375,-42.96875,0.0
328.92578125,-41.015625,-25.87890625,-60.05859375,-50.29296875,-14.6484375,0.0
328.9296875,-31.25,-32.2265625,-58.59375,-27.34375,-36.1328125,0.0
328.93359375,-29.296875,-36.62109375,-62.5,-24.4140625,-25.390625,0.0
328.9375,-27.83203125,-39.0625,-56.15234375,-31.73828125,11.23046875,0.0
328.94140625,-29.78515625,-45.8984375,-52.24609375,-21.484375,40.0390625,0.0
328.9453125,-29.78515625,-54.19921875,-52.734375,-13.18359375,-46.875,0.0
328.94921875,-30.2734375,-43.9453125,-47.36328125,-36.62109375,-41.9921875,0.0
328.953125,-22.94921875,-41.015625,-46.875,-45.8984375,4.8828125,0.0
328.95703125,-12.20703125,-44.43359375,-43.45703125,-30.76171875,-75.1953125,0.0
328.9609375,-17.578125,-36.62109375,-32.71484375,-29.296875,-96.6796875,0.0
328.96484375,-24.4140625,-28.80859375,-37.59765625,-37.109375,-152.34375,0.0
328.96875,-18.06640625,-24.90234375,-41.50390625,-20.01953125,-162.59765625,0.0
328.97265625,-16.6015625,-31.73828125,-42.48046875,-29.296875,-122.0703125,0.0
328.9765625,-41.015625,-55.6640625,-53.7109375,-37.59765625,-119.140625,0.0
328.98046875,-24.4140625,-71.77734375,-51.26953125,-25.87890625,-137.6953125,0.0
328.984375,-38.57421875,-53.22265625,-48.828125,-48.828125,-53.22265625,0.0
328.98828125,-50.78125,-51.26953125,-50.78125,-45.41015625,-72.265625,0.0
328.9921875,-20.5078125,-46.38671875,-43.45703125,-35.64453125,-152.34375,0.0
328.99609375,-43.9453125,-41.50390625,-47.36328125,-59.08203125,-154.78515625,0.0
329.0,-66.40625,-31.25,-59.5703125,-62.5,-83.984375,0.0
329.00390625,-57.6171875,-23.4375,-54.6875,-37.109375,-70.80078125,0.0
329.0078125,-36.62109375,-31.73828125,-39.55078125,-26.3671875,-128.41796875,0.0
329.01171875,-33.69140625,-38.0859375,-37.109375,-25.390625,-155.2734375,0.0
329.015625,-38.57421875,-36.1328125,-49.31640625,-23.92578125,-224.12109375,0.0
329.01953125,-40.0390625,-35.64453125,-50.29296875,-32.71484375,-130.37109375,0.0
329.0234375,-50.29296875,-42.48046875,-46.38671875,-46.38671875,12.6953125,0.0
329.02734375,-60.05859375,-37.59765625,-49.8046875,-58.59375,33.203125,0.0
329.03125,-65.4296875,-28.3203125,-42.48046875,-49.31640625,86.9140625,0.0
329.03515625,-25.87890625,-36.1328125,-36.1328125,-27.83203125,119.62890625,0.0
329.0390625,-35.64453125,-44.921875,-41.015625,-48.33984375,45.8984375,0.0
329.04296875,-61.03515625,-39.55078125,-47.8515625,-49.8046875,22.94921875,0.0
329.046875,-27.83203125,-35.64453125,-44.43359375,-39.0625,70.80078125,0.0
329.05078125,-37.59765625,-56.15234375,-36.62109375,-38.0859375,74.21875,0.0
329.0546875,-48.828125,-61.5234375,-37.109375,-21.484375,20.5078125,0.0
329.05859375,-43.45703125,-16.11328125,-38.57421875,-37.109375,15.13671875,0.0
329.0625,-33.203125,-3.90625,-35.15625,-46.38671875,23.4375,0.0
329.06640625,-21.97265625,-17.08984375,-32.2265625,-1.46484375,-9.27734375,0.0
329.0703125,-31.25,-19.04296875,-35.15625,-6.8359375,-31.73828125,0.0
329.07421875,-55.6640625,-40.0390625,-45.8984375,-54.19921875,-64.94140625,0.0
329.078125,-65.91796875,-56.640625,-50.29296875,-57.12890625,4.8828125,0.0
329.08203125,-72.265625,-44.921875,-47.8515625,-58.59375,74.70703125,0.0
329.0859375,-56.640625,-34.66796875,-53.22265625,-55.17578125,36.1328125,0.0
329.08984375,-49.31640625,-43.9453125,-51.26953125,-43.9453125,-11.71875,0.0
329.09375,-58.59375,-52.734375,-41.9921875,-56.640625,-46.875,0.0
329.09765625,-47.36328125,-41.50390625,-42.48046875,-52.24609375,22.4609375,0.0
329.1015625,-58.10546875,-33.69140625,-43.45703125,-37.109375,4.8828125,0.0
329.10546875,-68.359375,-34.66796875,-54.19921875,-53.7109375,-28.80859375,0.0
329.109375,-35.64453125,-24.90234375,-41.015625,-39.55078125,8.7890625,0.0
329.11328125,-21.484375,-22.94921875,-22.94921875,-18.5546875,-25.87890625,0.0
329.1171875,-29.78515625,-21.97265625,-20.99609375,-21.97265625,-18.5546875,0.0
329.12109375,-27.34375,-29.296875,-9.765625,-11.23046875,58.10546875,0.0
329.125,-12.6953125,-42.96875,-0.9765625,8.30078125,39.0625,0.0
329.12890625,1.46484375,-40.0390625,0.9765625,15.13671875,-2.9296875,0.0
329.1328125,-4.8828125,-32.2265625,-4.8828125,22.94921875,-10.7421875,0.0
329.13671875,-11.71875,-35.64453125,-10.7421875,19.53125,-33.203125,0.0
329.140625,-9.27734375,-34.1796875,-15.13671875,14.16015625,-75.1953125,0.0
329.14453125,-9.27734375,-27.83203125,-17.08984375,11.23046875,-85.44921875,0.0
329.1484375,0.48828125,-22.94921875,-9.765625,18.5546875,4.8828125,0.0
329.15234375,6.8359375,-16.6015625,-7.8125,21.97265625,-41.9921875,0.0
329.15625,-9.765625,-20.01953125,-15.625,6.8359375,-38.57421875,0.0
329.16015625,-0.9765625,-20.99609375,-6.8359375,0.9765625,90.33203125,0.0
329.1640625,2.9296875,-20.5078125,1.46484375,4.8828125,52.24609375,0.0
329.16796875,-25.87890625,-27.34375,-1.46484375,13.18359375,-0.9765625,0.0
329.171875,-5.859375,-34.1796875,4.8828125,12.6953125,-20.99609375,0.0
329.17578125,0.48828125,-28.3203125,2.44140625,11.71875,-85.9375,0.0
329.1796875,-13.671875,-29.296875,-14.6484375,12.6953125,-20.5078125,0.0
329.18359375,-16.6015625,-37.109375,-19.53125,3.90625,-2.9296875,0.0
329.1875,-13.671875,-41.50390625,-18.06640625,-5.37109375,-41.9921875,0.0
329.19140625,-17.578125,-45.41015625,-19.04296875,-5.859375,-5.37109375,0.0
329.1953125,-5.37109375,-42.96875,-9.765625,-11.23046875,-47.8515625,0.0
329.19921875,-2.9296875,-35.15625,-9.27734375,-11.23046875,-85.9375,0.0
329.203125,-5.859375,-21.484375,-8.7890625,8.7890625,-32.71484375,0.0
329.20703125,3.41796875,-3.90625,-1.46484375,11.23046875,-9.765625,0.0
329.2109375,-5.37109375,2.9296875,-13.18359375,-9.765625,-50.78125,0.0
329.21484375,-30.2734375,6.8359375,-36.62109375,-23.4375,-36.1328125,0.0
329.21875,-29.296875,25.87890625,-39.55078125,-17.578125,-11.23046875,0.0
329.22265625,-10.25390625,15.13671875,-22.94921875,-12.20703125,-50.29296875,0.0
329.2265625,-11.71875,-0.48828125,-8.7890625,-7.32421875,-19.04296875,0.0
329.23046875,-7.32421875,24.90234375,-1.46484375,9.765625,8.30078125,0.0
329.234375,11.71875,41.9921875,-12.6953125,24.90234375,-11.71875,0.0
329.23828125,-9.27734375,19.53125,-38.57421875,-7.32421875,-29.296875,0.0
329.2421875,-46.875,11.23046875,-36.62109375,-54.19921875,-54.6875,0.0
329.24609375,-51.7578125,11.23046875,-40.0390625,-49.8046875,-15.625,0.0
329.25,-57.12890625,0.9765625,-60.05859375,-56.640625,20.01953125,0.0
329.25390625,-77.1484375,0.9765625,-62.98828125,-69.3359375,-29.78515625,0.0
329.2578125,-67.87109375,-6.8359375,-61.03515625,-73.2421875,-37.109375,0.0
329.26171875,-85.9375,-26.3671875,-68.359375,-76.66015625,-15.625,0.0
329.265625,-78.125,-30.2734375,-74.70703125,-61.03515625,-62.01171875,0.0
329.26953125,-25.87890625,-15.625,-44.921875,-35.64453125,-90.33203125,0.0
329.2734375,-19.04296875,-5.37109375,-24.90234375,-45.8984375,-97.65625,0.0
329.27734375,-17.08984375,1.953125,-27.83203125,-40.0390625,-106.4453125,0.0
329.28125,-7.8125,-20.5078125,-25.87890625,-5.37109375,-91.796875,0.0
329.28515625,-14.16015625,-52.734375,-24.4140625,0.0,-104.98046875,0.0
329.2890625,-14.6484375,-34.66796875,-22.94921875,-7.8125,-104.98046875,0.0
329.29296875,-0.48828125,-5.37109375,-15.13671875,-11.23046875,-63.4765625,0.0
329.296875,-18.5546875,-6.34765625,-14.16015625,-15.625,-4.39453125,0.0
329.30078125,-33.69140625,-30.76171875,-27.83203125,-12.6953125,-26.85546875,0.0
329.3046875,-23.4375,-54.6875,-35.15625,-23.4375,-39.55078125,0.0
329.30859375,-29.296875,-42.96875,-29.78515625,-25.390625,2.9296875,0.0
329.3125,-41.9921875,-18.5546875,-34.1796875,-2.9296875,-5.37109375,0.0
329.31640625,-36.1328125,-32.71484375,-41.015625,-7.32421875,-68.84765625,0.0
329.3203125,-25.87890625,-34.66796875,-45.8984375,-24.90234375,-97.65625,0.0
329.32421875,-29.78515625,-20.99609375,-38.57421875,-15.625,-56.15234375,0.0
329.328125,-11.71875,-38.0859375,-44.43359375,-31.25,-32.2265625,0.0
329.33203125,6.34765625,-64.453125,-44.921875,-28.80859375,-94.23828125,0.0
329.3359375,11.23046875,-69.3359375,-29.296875,-37.59765625,-99.609375,0.0
329.33984375,-4.8828125,-68.84765625,-43.9453125,-36.1328125,-61.03515625,0.0
329.34375,-14.6484375,-61.03515625,-45.8984375,-16.11328125,-21.484375,0.0
329.34765625,-24.90234375,-54.6875,-36.1328125,-25.390625,62.01171875,0.0
329.3515625,-22.94921875,-61.5234375,-35.15625,-28.3203125,10.7421875,0.0
329.35546875,-31.73828125,-57.6171875,-29.78515625,-25.390625,-28.80859375,0.0
329.359375,-58.59375,-44.921875,-45.8984375,-41.9921875,63.96484375,0.0
329.36328125,-72.75390625,-37.109375,-61.5234375,-60.546875,112.79296875,0.0
329.3671875,-73.73046875,-36.1328125,-58.10546875,-49.8046875,65.4296875,0.0
329.37109375,-65.4296875,-44.43359375,-51.7578125,-42.48046875,-5.859375,0.0
329.375,-45.41015625,-58.59375,-37.59765625,-31.25,16.11328125,0.0
329.37890625,-40.52734375,-56.640625,-23.92578125,-10.25390625,41.015625,0.0
329.3828125,-38.0859375,-45.41015625,-31.73828125,-20.5078125,45.41015625,0.0
329.38671875,-58.10546875,-46.875,-39.0625,-31.73828125,-12.20703125,0.0
329.390625,-59.5703125,-52.24609375,-20.5078125,-31.73828125,-97.16796875,0.0
329.39453125,-36.62109375,-47.8515625,-17.08984375,-27.83203125,-72.75390625,0.0
329.3984375,-47.8515625,-34.66796875,-15.625,-4.39453125,30.2734375,0.0
329.40234375,-47.8515625,-28.3203125,-7.32421875,0.0,-2.44140625,0.0
329.40625,-29.296875,-35.15625,-14.6484375,-28.3203125,-110.3515625,0.0
329.41015625,-26.85546875,-27.83203125,-13.671875,-31.25,-78.61328125,0.0
329.4140625,-21.484375,-18.06640625,-1.953125,-22.94921875,-81.0546875,0.0
329.41796875,-16.6015625,-20.5078125,0.48828125,-13.671875,-119.62890625,0.0
329.421875,-32.2265625,-32.2265625,-7.8125,-10.25390625,-81.0546875,0.0
329.42578125,-28.80859375,-58.10546875,-9.27734375,-20.5078125,-114.74609375,0.0
329.4296875,-36.62109375,-82.03125,-17.578125,-33.69140625,-102.5390625,0.0
329.43359375,-29.78515625,-84.9609375,-16.11328125,-36.1328125,-2.9296875,0.0
329.4375,-16.11328125,-61.5234375,-9.27734375,-21.97265625,10.25390625,0.0
329.44140625,-12.20703125,-56.15234375,-12.20703125,-13.671875,3.90625,0.0
329.4453125,-16.11328125,-71.2890625,-14.6484375,1.46484375,6.8359375,0.0
329.44921875,-20.5078125,-72.265625,-12.20703125,-16.11328125,-28.80859375,0.0
329.453125,-26.85546875,-59.5703125,-22.4609375,-34.66796875,-97.65625,0.0
329.45703125,-36.62109375,-47.36328125,-35.15625,-22.4609375,-129.8828125,0.0
329.4609375,-33.203125,-41.50390625,-32.71484375,-20.99609375,-119.62890625,0.0
329.46484375,-41.9921875,-59.08203125,-29.78515625,-25.87890625,-56.15234375,0.0
329.46875,-51.7578125,-67.3828125,-40.0390625,-30.2734375,-3.41796875,0.0
329.47265625,-51.26953125,-64.453125,-48.33984375,-39.0625,11.23046875,0.0
329.4765625,-46.875,-68.359375,-38.57421875,-36.1328125,-13.671875,0.0
329.48046875,-16.11328125,-50.29296875,-30.2734375,-41.50390625,-7.8125,0.0
329.484375,-35.15625,-41.9921875,-41.015625,-46.38671875,-7.8125,0.0
329.48828125,-50.78125,-58.10546875,-45.8984375,-51.7578125,-46.38671875,0.0
329.4921875,-28.80859375,-53.7109375,-41.015625,-27.83203125,-89.35546875,0.0
329.49609375,-29.296875,-41.015625,-32.71484375,-16.6015625,-113.28125,0.0
329.5,-24.4140625,-40.0390625,-26.3671875,-24.90234375,-80.078125,0.0
329.50390625,-23.4375,-39.0625,-27.34375,-21.97265625,-54.6875,0.0
329.5078125,-17.578125,-33.69140625,-29.78515625,-27.34375,-47.36328125,0.0
329.51171875,-12.6953125,-38.57421875,-30.2734375,-27.83203125,-33.69140625,0.0
329.515625,-13.18359375,-54.19921875,-17.578125,-4.8828125,27.34375,0.0
329.51953125,-10.25390625,-60.05859375,-21.484375,2.44140625,31.73828125,0.0
329.5234375,-35.64453125,-57.6171875,-49.31640625,-44.921875,50.29296875,0.0
329.52734375,-42.96875,-59.5703125,-46.38671875,-55.17578125,37.109375,0.0
329.53125,-22.4609375,-51.26953125,-34.66796875,-38.57421875,21.97265625,0.0
329.53515625,-12.20703125,-41.015625,-40.52734375,-45.41015625,-6.34765625,0.0
329.5390625,-32.71484375,-56.15234375,-51.26953125,-62.5,-62.98828125,0.0
329.54296875,-60.546875,-61.03515625,-52.734375,-65.4296875,-86.42578125,0.0
329.546875,-28.80859375,-51.26953125,-46.38671875,-50.78125,-39.55078125,0.0
329.55078125,-12.6953125,-59.08203125,-38.0859375,-48.33984375,-38.57421875,0.0
329.5546875,-14.6484375,-51.26953125,-28.80859375,-26.3671875,-21.97265625,0.0
329.55859375,-14.16015625,-43.45703125,-27.83203125,-26.85546875,120.60546875,0.0
329.5625,-24.4140625,-56.15234375,-39.55078125,-34.66796875,83.49609375,0.0
329.56640625,-18.5546875,-22.94921875,-44.43359375,-27.83203125,-24.4140625,0.0
329.5703125,-32.2265625,-7.8125,-52.734375,-45.8984375,-22.4609375,0.0
329.57421875,-45.41015625,-33.203125,-49.8046875,-49.31640625,-37.109375,0.0
329.578125,-41.9921875,-39.55078125,-44.43359375,-51.26953125,-65.4296875,0.0
329.58203125,-18.5546875,-33.69140625,-45.41015625,-2.44140625,-55.6640625,0.0
329.5859375,9.27734375,-35.64453125,-37.109375,18.06640625,-63.96484375,0.0
329.58984375,-27.83203125,-30.76171875,-46.875,-52.24609375,-59.08203125,0.0
329.59375,-49.31640625,-20.99609375,-43.45703125,-62.5,-60.05859375,0.0
329.59765625,-23.92578125,-25.390625,-37.59765625,-41.015625,-93.75,0.0
329.6015625,4.39453125,-17.578125,-36.62109375,-17.08984375,-67.3828125,0.0
329.60546875,-20.5078125,-13.18359375,-30.2734375,-13.671875,-100.5859375,0.0
329.609375,-59.08203125,-16.11328125,-41.9921875,-39.0625,-49.8046875,0.0
329.61328125,-34.66796875,-13.18359375,-40.52734375,-36.1328125,-5.859375,0.0
329.6171875,-12.20703125,-26.85546875,-33.69140625,9.765625,-40.52734375,0.0
329.62109375,-31.25,-32.71484375,-50.29296875,-9.27734375,-32.71484375,0.0
329.625,-28.3203125,-16.11328125,-57.6171875,-23.92578125,-3.90625,0.0
329.62890625,-21.97265625,-4.8828125,-48.33984375,3.41796875,78.125,0.0
329.6328125,-39.0625,-10.7421875,-53.22265625,-17.578125,25.390625,0.0
329.63671875,-38.0859375,-22.4609375,-59.08203125,-30.2734375,-96.19140625,0.0
329.640625,-27.83203125,-15.625,-46.38671875,-19.53125,-91.30859375,0.0
329.64453125,-31.73828125,-2.44140625,-41.50390625,-21.484375,-26.85546875,0.0
329.6484375,-29.296875,-8.7890625,-54.19921875,-28.80859375,-56.640625,0.0
329.65234375,-31.25,-6.34765625,-55.17578125,-13.18359375,-2.9296875,0.0
329.65625,-34.1796875,-3.41796875,-37.59765625,-9.765625,20.5078125,0.0
329.66015625,-0.9765625,-24.90234375,-30.76171875,-37.59765625,-36.1328125,0.0
329.6640625,-26.3671875,-37.59765625,-41.9921875,-41.015625,-50.29296875,0.0
329.66796875,-62.01171875,-42.96875,-41.015625,-33.69140625,-56.15234375,0.0
329.671875,-36.1328125,-43.45703125,-39.0625,-34.1796875,-46.875,0.0
329.67578125,-35.64453125,-31.73828125,-35.64453125,-36.1328125,-117.67578125,0.0
329.6796875,-20.01953125,-26.85546875,-19.53125,-16.6015625,-121.09375,0.0
329.68359375,-9.27734375,-42.48046875,-17.578125,-17.08984375,-119.62890625,0.0
329.6875,-26.3671875,-51.26953125,-31.25,-36.62109375,-141.6015625,0.0
329.69140625,-37.59765625,-47.8515625,-39.55078125,-40.0390625,-164.55078125,0.0
329.6953125,-36.62109375,-44.921875,-37.109375,-18.06640625,-167.96875,0.0
329.69921875,-40.52734375,-43.9453125,-24.4140625,-11.71875,-127.44140625,0.0
329.703125,-41.015625,-27.83203125,-11.71875,-26.3671875,-134.765625,0.0
329.70703125,-24.90234375,-23.4375,-8.7890625,-23.4375,-151.3671875,0.0
329.7109375,-12.6953125,-26.3671875,-10.7421875,-18.06640625,-169.921875,0.0
329.71484375,-21.484375,-17.578125,-20.99609375,-12.6953125,-80.56640625,0.0
329.71875,-19.53125,-18.5546875,-20.99609375,3.41796875,-12.20703125,0.0
329.72265625,-18.06640625,-31.73828125,-27.34375,-11.71875,-30.2734375,0.0
329.7265625,-39.0625,-45.8984375,-41.9921875,-17.578125,-36.62109375,0.0
329.73046875,-38.57421875,-31.25,-38.57421875,-5.859375,-29.296875,0.0
329.734375,-20.99609375,-14.6484375,-23.92578125,-25.87890625,-28.80859375,0.0
329.73828125,-6.34765625,-20.01953125,-25.390625,-20.99609375,-10.25390625,0.0
329.7421875,-38.57421875,-14.6484375,-39.0625,-20.01953125,56.15234375,0.0
329.74609375,-35.15625,-17.08984375,-36.1328125,-30.76171875,77.1484375,0.0
329.75,-11.71875,-26.85546875,-28.80859375,-3.41796875,47.8515625,0.0
329.75390625,-20.99609375,-22.4609375,-31.73828125,-2.9296875,11.23046875,0.0
329.7578125,-12.20703125,-29.296875,-24.4140625,-22.4609375,-38.0859375,0.0
329.76171875,-21.97265625,-17.08984375,-23.92578125,-18.5546875,-34.66796875,0.0
329.765625,-27.34375,-9.27734375,-19.53125,-12.20703125,-0.48828125,0.0
329.76953125,-27.83203125,-22.94921875,-15.13671875,-11.71875,-56.15234375,0.0
329.7734375,-40.52734375,-26.85546875,-27.83203125,-12.20703125,-119.62890625,0.0
329.77734375,-37.59765625,-19.04296875,-31.25,-35.64453125,-79.58984375,0.0
329.78125,-19.04296875,-9.765625,-20.99609375,-10.25390625,-111.81640625,0.0
329.78515625,-14.16015625,-17.578125,-19.53125,8.30078125,-140.625,0.0
329.7890625,-20.99609375,-8.30078125,-26.85546875,-14.16015625,-15.625,0.0
329.79296875,-31.25,-6.8359375,-29.78515625,-25.87890625,92.7734375,0.0
329.796875,-43.45703125,-6.8359375,-33.69140625,-37.109375,125.9765625,0.0
329.80078125,-51.7578125,9.765625,-40.52734375,-30.2734375,139.6484375,0.0
329.8046875,-48.828125,17.08984375,-41.50390625,-41.9921875,90.8203125,0.0
329.80859375,-43.9453125,15.13671875,-45.8984375,-40.0390625,-0.9765625,0.0
329.8125,-53.7109375,16.11328125,-50.29296875,-45.41015625,-17.578125,0.0
329.81640625,-35.64453125,8.7890625,-44.43359375,-55.6640625,44.43359375,0.0
329.8203125,-44.43359375,10.7421875,-31.25,-39.0625,113.28125,0.0
329.82421875,-57.6171875,10.7421875,-27.83203125,-29.78515625,39.0625,0.0
329.828125,-31.73828125,-12.20703125,-33.69140625,-8.30078125,27.34375,0.0
329.83203125,-49.31640625,-25.390625,-35.64453125,-32.71484375,88.8671875,0.0
329.8359375,-52.24609375,-18.5546875,-33.203125,-81.54296875,16.11328125,0.0
329.83984375,-31.25,-19.04296875,-17.08984375,-37.109375,-42.96875,0.0
329.84375,-26.3671875,-37.59765625,-17.578125,-19.04296875,-65.91796875,0.0
329.84765625,-15.625,-40.52734375,-15.625,-17.08984375,-41.50390625,0.0
329.8515625,-27.83203125,-48.828125,-19.53125,-31.25,10.25390625,0.0
329.85546875,-69.3359375,-53.22265625,-34.1796875,-56.15234375,17.578125,0.0
329.859375,-49.8046875,-51.26953125,-25.87890625,-15.13671875,29.296875,0.0
329.86328125,-37.109375,-47.36328125,-22.94921875,-35.64453125,64.453125,0.0
329.8671875,-20.5078125,-36.1328125,-20.99609375,-42.48046875,31.25,0.0
329.87109375,-21.484375,-43.45703125,-12.6953125,-31.25,-55.17578125,0.0
329.875,-61.5234375,-46.875,-19.04296875,-37.109375,-61.03515625,0.0
329.87890625,-44.43359375,-47.8515625,-18.5546875,-40.0390625,-83.49609375,0.0
329.8828125,-37.59765625,-49.31640625,-12.20703125,-45.8984375,-156.25,0.0
329.88671875,-51.26953125,-44.43359375,-14.6484375,-34.66796875,-145.99609375,0.0
329.890625,-41.50390625,-37.109375,-13.18359375,-25.87890625,-150.87890625,0.0
329.89453125,-29.296875,-29.78515625,-9.27734375,-10.7421875,-86.42578125,0.0
329.8984375,-38.57421875,-38.0859375,-24.4140625,-27.83203125,10.7421875,0.0
329.90234375,-49.31640625,-48.828125,-41.015625,-42.96875,-108.88671875,0.0
329.90625,-59.08203125,-54.19921875,-33.69140625,-37.59765625,-119.140625,0.0
329.91015625,-61.03515625,-24.90234375,-22.4609375,-35.15625,-35.15625,0.0
329.9140625,-53.22265625,-1.953125,-27.83203125,-39.55078125,-36.62109375,0.0
329.91796875,-42.48046875,-12.20703125,-36.1328125,-35.15625,-65.91796875,0.0
329.921875,-36.62109375,-16.6015625,-39.55078125,-33.203125,-47.36328125,0.0
329.92578125,-33.203125,-11.71875,-38.0859375,-55.17578125,-41.015625,0.0
329.9296875,-22.94921875,-1.46484375,-31.73828125,-56.15234375,-35.64453125,0.0
329.93359375,-11.71875,0.9765625,-34.1796875,-32.71484375,-1.46484375,0.0
329.9375,4.8828125,-10.7421875,-33.203125,-36.62109375,-39.0625,0.0
329.94140625,9.765625,-15.625,-31.73828125,-40.52734375,-58.59375,0.0
329.9453125,-3.90625,-12.6953125,-33.203125,-27.83203125,-63.4765625,0.0
329.94921875,-17.578125,-18.06640625,-29.296875,-14.6484375,-73.73046875,0.0
329.953125,-28.3203125,-19.04296875,-28.3203125,-18.5546875,-14.6484375,0.0
329.95703125,-21.484375,-16.6015625,-24.4140625,-17.578125,60.546875,0.0
329.9609375,-20.99609375,-18.06640625,-23.92578125,-17.08984375,62.98828125,0.0
329.96484375,-29.296875,-24.4140625,-28.3203125,-35.15625,74.70703125,0.0
329.96875,-33.69140625,-33.69140625,-31.25,-22.94921875,91.30859375,0.0
329.97265625,-41.9921875,-43.45703125,-32.71484375,-19.04296875,81.0546875,0.0
329.9765625,-22.4609375,-41.015625,-25.87890625,-31.73828125,55.6640625,0.0
329.98046875,-41.50390625,-30.76171875,-30.76171875,-32.71484375,32.2265625,0.0
329.984375,-52.24609375,-20.5078125,-33.69140625,-33.69140625,40.52734375,0.0
329.98828125,-28.80859375,-15.625,-29.296875,-16.11328125,20.5078125,0.0
329.9921875,-38.0859375,-29.296875,-32.71484375,-3.90625,-1.953125,0.0
329.99609375,-28.3203125,-30.76171875,-22.4609375,-18.5546875,-12.20703125,0.0
330.0,-32.71484375,-29.296875,-21.484375,-30.76171875,-85.9375,0.0
330.00390625,-37.109375,-32.2265625,-20.5078125,-33.69140625,-146.97265625,0.0
330.0078125,-35.15625,-39.55078125,-23.92578125,-28.3203125,-117.1875,0.0
330.01171875,-39.55078125,-34.1796875,-29.296875,-22.4609375,-177.734375,0.0
330.015625,-36.62109375,-23.92578125,-27.83203125,-25.87890625,-140.625,0.0
330.01953125,-35.64453125,-34.66796875,-14.6484375,-28.80859375,-72.75390625,0.0
330.0234375,-39.55078125,-46.38671875,-18.5546875,-23.92578125,-134.27734375,0.0
330.02734375,-47.36328125,-48.33984375,-36.1328125,-28.80859375,-123.53515625,0.0
330.03125,-49.31640625,-44.921875,-32.71484375,-50.29296875,-46.875,0.0
330.03515625,-45.41015625,-30.76171875,-31.25,-49.31640625,-88.37890625,0.0
330.0390625,-37.59765625,-26.3671875,-30.76171875,-30.2734375,-83.984375,0.0
330.04296875,-32.71484375,-40.52734375,-31.25,-28.80859375,-48.33984375,0.0
330.046875,-37.59765625,-33.69140625,-27.34375,-22.4609375,-84.9609375,0.0
330.05078125,-35.15625,-27.34375,-13.18359375,-16.6015625,-26.3671875,0.0
330.0546875,-30.76171875,-26.3671875,-18.06640625,-42.96875,-33.69140625,0.0
330.05859375,-49.31640625,-30.76171875,-34.66796875,-39.0625,-65.91796875,0.0
330.0625,-37.109375,-42.48046875,-32.2265625,-27.83203125,34.1796875,0.0
330.06640625,-37.59765625,-40.52734375,-18.5546875,-24.4140625,79.1015625,0.0
330.0703125,-57.6171875,-35.64453125,-15.625,-19.53125,14.6484375,0.0
330.07421875,-31.73828125,-40.0390625,-15.625,-12.20703125,-13.671875,0.0
330.078125,-29.296875,-35.15625,-13.671875,-10.25390625,0.0,0.0
330.08203125,-39.55078125,-35.64453125,-20.99609375,-33.69140625,-40.52734375,0.0
330.0859375,-44.43359375,-50.29296875,-27.34375,-42.48046875,-47.8515625,0.0
330.08984375,-46.875,-52.734375,-37.59765625,-32.71484375,15.625,0.0
330.09375,-45.41015625,-41.015625,-44.43359375,-30.2734375,4.8828125,0.0
330.09765625,-34.66796875,-34.66796875,-35.15625,-30.76171875,-27.34375,0.0
330.1015625,-28.80859375,-48.33984375,-41.015625,-40.0390625,-10.7421875,0.0
330.10546875,-30.76171875,-70.80078125,-53.22265625,-46.38671875,19.53125,0.0
330.109375,-41.015625,-70.80078125,-53.7109375,-50.78125,27.34375,0.0
330.11328125,-51.26953125,-39.55078125,-62.01171875,-49.8046875,-32.2265625,0.0
330.1171875,-41.9921875,-41.015625,-62.01171875,-54.6875,-62.98828125,0.0
330.12109375,-43.45703125,-78.61328125,-58.59375,-50.29296875,-47.36328125,0.0
330.125,-49.31640625,-54.6875,-49.31640625,-40.0390625,-12.6953125,0.0
330.12890625,-39.0625,-6.8359375,-29.78515625,-33.203125,-14.16015625,0.0
330.1328125,-40.0390625,-5.37109375,-40.0390625,-36.62109375,-6.34765625,0.0
330.13671875,-60.546875,-25.87890625,-58.59375,-56.640625,-65.4296875,0.0
330.140625,-55.6640625,-33.203125,-57.12890625,-71.2890625,-100.09765625,0.0
330.14453125,-26.3671875,-34.66796875,-38.57421875,-49.31640625,-45.41015625,0.0
330.1484375,-38.57421875,-44.921875,-25.390625,-46.38671875,-23.92578125,0.0
330.15234375,-21.97265625,-63.96484375,-35.15625,-33.69140625,77.1484375,0.0
330.15625,-41.9921875,-71.77734375,-37.59765625,-31.25,-17.578125,0.0
330.16015625,-72.265625,-64.94140625,-42.96875,-54.6875,-142.578125,0.0
330.1640625,-43.45703125,-62.01171875,-54.19921875,-73.2421875,-57.12890625,0.0
330.16796875,-43.45703125,-64.94140625,-43.45703125,-46.875,-75.68359375,0.0
330.171875,-48.33984375,-69.3359375,-39.0625,-23.4375,-109.86328125,0.0
330.17578125,-42.48046875,-76.66015625,-36.62109375,-42.48046875,-120.1171875,0.0
330.1796875,-28.80859375,-79.58984375,-34.1796875,-39.0625,-63.96484375,0.0
330.18359375,-15.13671875,-76.171875,-31.73828125,-22.94921875,-21.484375,0.0
330.1875,-22.94921875,-77.1484375,-25.87890625,-23.92578125,-28.3203125,0.0
330.19140625,-30.2734375,-79.1015625,-31.73828125,-28.3203125,20.01953125,0.0
330.1953125,-4.8828125,-78.61328125,-36.62109375,-6.34765625,14.16015625,0.0
330.19921875,-11.23046875,-76.66015625,-29.78515625,-9.27734375,-24.4140625,0.0
330.203125,-32.2265625,-69.82421875,-36.1328125,-28.80859375,-82.51953125,0.0
330.20703125,-27.83203125,-60.05859375,-37.59765625,-36.1328125,-32.2265625,0.0
330.2109375,-20.01953125,-57.12890625,-22.4609375,-17.08984375,32.2265625,0.0
330.21484375,-38.0859375,-60.546875,-26.85546875,-16.6015625,-29.78515625,0.0
330.21875,-42.96875,-52.24609375,-33.203125,-20.99609375,-82.03125,0.0
330.22265625,-21.484375,-48.33984375,-26.85546875,-9.765625,-62.01171875,0.0
330.2265625,-10.25390625,-52.734375,-20.01953125,-12.20703125,-76.66015625,0.0
330.23046875,-4.8828125,-42.48046875,-20.01953125,-13.671875,-86.9140625,0.0
330.234375,2.44140625,-38.57421875,-16.11328125,-6.34765625,-24.90234375,0.0
330.23828125,1.953125,-42.48046875,-20.99609375,-5.859375,-31.25,0.0
