timestamp,TP9,AF7,AF8,TP10,AUX,Marker,
66.00390625,-53.7109375,-53.22265625,-38.57421875,-49.31640625,-42.48046875,0.0
66.0078125,-44.43359375,-62.01171875,-40.52734375,-42.96875,-67.3828125,0.0
66.01171875,-47.36328125,-65.91796875,-37.109375,-37.109375,-72.265625,0.0
66.015625,-56.640625,-53.22265625,-28.80859375,-28.3203125,-4.8828125,0.0
66.01953125,-52.24609375,-55.17578125,-28.80859375,-29.296875,46.875,0.0
66.0234375,-40.52734375,-52.734375,-26.3671875,-26.3671875,26.3671875,0.0
66.02734375,-35.15625,-51.7578125,-22.4609375,-20.99609375,36.1328125,0.0
66.03125,-31.25,-63.4765625,-19.53125,-24.4140625,41.50390625,0.0
66.03515625,-33.69140625,-58.10546875,-22.94921875,-35.15625,44.43359375,0.0
66.0390625,-50.78125,-47.36328125,-26.3671875,-41.50390625,55.6640625,0.0
66.04296875,-46.38671875,-42.96875,-24.90234375,-33.69140625,75.68359375,0.0
66.046875,-40.0390625,-56.15234375,-31.25,-35.15625,71.77734375,0.0
66.05078125,-45.41015625,-63.4765625,-37.109375,-41.50390625,-2.9296875,0.0
66.0546875,-51.26953125,-63.4765625,-38.0859375,-34.66796875,18.06640625,0.0
66.05859375,-48.33984375,-59.5703125,-39.0625,-27.34375,38.57421875,0.0
66.0625,-33.203125,-60.05859375,-35.15625,-31.25,-19.04296875,0.0
66.06640625,-33.203125,-61.03515625,-30.2734375,-32.71484375,-27.83203125,0.0
66.0703125,-35.64453125,-59.08203125,-33.69140625,-19.53125,25.390625,0.0
66.07421875,-34.1796875,-62.01171875,-32.2265625,-25.87890625,74.70703125,0.0
66.078125,-33.203125,-68.359375,-34.1796875,-52.734375,47.36328125,0.0
66.08203125,-23.92578125,-70.80078125,-35.15625,-41.015625,11.23046875,0.0
66.0859375,-21.484375,-71.77734375,-30.2734375,-31.25,38.0859375,0.0
66.08984375,-22.4609375,-74.70703125,-34.1796875,-29.78515625,15.625,0.0
66.09375,-26.3671875,-84.47265625,-36.1328125,-31.25,-84.9609375,0.0
66.09765625,-32.2265625,-61.03515625,-37.59765625,-41.015625,-58.59375,0.0
66.1015625,-38.0859375,-62.5,-36.1328125,-30.2734375,9.27734375,0.0
66.10546875,-24.4140625,-88.8671875,-27.83203125,-25.87890625,-28.80859375,0.0
66.109375,-21.484375,-74.70703125,-30.2734375,-35.15625,26.85546875,0.0
66.11328125,-41.015625,-73.73046875,-37.109375,-35.15625,-64.94140625,0.0
66.1171875,-43.9453125,-64.453125,-35.64453125,-36.62109375,-300.29296875,0.0
66.12109375,-35.64453125,-64.453125,-36.62109375,-44.43359375,-264.16015625,0.0
66.125,-34.1796875,-77.1484375,-38.57421875,-39.55078125,-98.14453125,0.0
66.12890625,-34.1796875,-74.21875,-37.59765625,-36.1328125,-42.48046875,0.0
66.1328125,-32.2265625,-91.30859375,-39.0625,-51.26953125,-43.9453125,0.0
66.13671875,-37.109375,-99.12109375,-41.9921875,-51.7578125,22.4609375,0.0
66.140625,-38.57421875,-76.66015625,-42.48046875,-49.31640625,5.859375,0.0
66.14453125,-25.87890625,-66.89453125,-41.50390625,-52.734375,-95.703125,0.0
66.1484375,-24.4140625,-51.26953125,-40.0390625,-38.0859375,-91.30859375,0.0
66.15234375,-26.3671875,-41.9921875,-41.015625,-39.55078125,-26.85546875,0.0
66.15625,-27.34375,-59.08203125,-40.52734375,-52.24609375,32.71484375,0.0
66.16015625,-40.52734375,-64.453125,-39.55078125,-39.55078125,31.73828125,0.0
66.1640625,-28.3203125,-55.6640625,-33.203125,-40.0390625,-22.94921875,0.0
66.16796875,-16.6015625,-55.17578125,-35.64453125,-50.78125,-56.15234375,0.0
66.171875,-29.296875,-65.91796875,-41.50390625,-40.0390625,0.0,0.0
66.17578125,-27.83203125,-81.54296875,-43.45703125,-28.80859375,29.78515625,0.0
66.1796875,-19.04296875,-72.75390625,-38.57421875,-21.97265625,-18.06640625,0.0
66.18359375,-27.83203125,-69.3359375,-32.71484375,-33.203125,-30.2734375,0.0
66.1875,-44.43359375,-62.01171875,-39.55078125,-47.36328125,0.0,0.0
66.19140625,-48.33984375,-46.875,-40.0390625,-36.1328125,25.390625,0.0
66.1953125,-45.8984375,-58.10546875,-34.1796875,-35.64453125,-3.41796875,0.0
66.19921875,-46.38671875,-58.10546875,-33.203125,-52.734375,96.19140625,0.0
66.203125,-34.66796875,-47.8515625,-35.15625,-41.50390625,178.7109375,0.0
66.20703125,-27.34375,-53.22265625,-39.55078125,-30.2734375,88.37890625,0.0
66.2109375,-34.1796875,-44.921875,-37.59765625,-41.015625,-8.7890625,0.0
66.21484375,-26.85546875,-59.08203125,-36.1328125,-41.9921875,-100.5859375,0.0
66.21875,-38.0859375,-70.3125,-40.0390625,-37.59765625,-37.109375,0.0
66.22265625,-56.640625,-59.08203125,-33.203125,-38.0859375,39.0625,0.0
66.2265625,-37.59765625,-56.640625,-26.3671875,-36.1328125,36.62109375,0.0
66.23046875,-28.3203125,-69.82421875,-36.62109375,-27.34375,-46.875,0.0
66.234375,-47.36328125,-69.3359375,-40.52734375,-35.64453125,-71.77734375,0.0
66.23828125,-51.7578125,-65.4296875,-39.55078125,-46.38671875,-13.18359375,0.0
66.2421875,-39.0625,-57.6171875,-40.0390625,-26.3671875,39.55078125,0.0
66.24609375,-33.203125,-48.828125,-40.0390625,-21.97265625,52.24609375,0.0
66.25,-35.15625,-60.05859375,-40.0390625,-34.66796875,48.33984375,0.0
66.25390625,-44.43359375,-70.80078125,-39.0625,-33.203125,36.1328125,0.0
66.2578125,-46.875,-69.82421875,-37.109375,-40.52734375,-59.08203125,0.0
66.26171875,-41.50390625,-69.3359375,-34.66796875,-41.9921875,-84.47265625,0.0
66.265625,-33.69140625,-61.5234375,-39.55078125,-40.52734375,-103.02734375,0.0
66.26953125,-40.0390625,-62.01171875,-39.55078125,-24.4140625,-37.59765625,0.0
66.2734375,-49.8046875,-77.1484375,-34.66796875,-28.3203125,20.01953125,0.0
66.27734375,-44.921875,-72.265625,-37.109375,-43.45703125,26.85546875,0.0
66.28125,-47.36328125,-55.17578125,-38.0859375,-37.59765625,103.515625,0.0
66.28515625,-41.9921875,-64.453125,-41.50390625,-34.66796875,52.734375,0.0
66.2890625,-36.1328125,-69.3359375,-42.96875,-22.94921875,-2.9296875,0.0
66.29296875,-42.48046875,-63.96484375,-42.96875,-26.3671875,-27.83203125,0.0
66.296875,-44.921875,-60.546875,-40.52734375,-27.83203125,-91.30859375,0.0
66.30078125,-43.9453125,-62.5,-34.66796875,-33.69140625,-128.41796875,0.0
66.3046875,-23.92578125,-50.78125,-35.64453125,-42.96875,-92.7734375,0.0
66.30859375,-22.4609375,-40.0390625,-40.52734375,-29.296875,-20.5078125,0.0
66.3125,-41.50390625,-52.24609375,-39.0625,-27.83203125,-18.06640625,0.0
66.31640625,-51.7578125,-56.640625,-32.2265625,-27.34375,-75.68359375,0.0
66.3203125,-51.26953125,-46.875,-32.2265625,-31.25,-31.73828125,0.0
66.32421875,-41.50390625,-62.01171875,-35.15625,-40.0390625,-8.30078125,0.0
66.328125,-41.015625,-59.5703125,-30.2734375,-38.0859375,-57.6171875,0.0
66.33203125,-36.1328125,-56.640625,-28.3203125,-30.2734375,-84.9609375,0.0
66.3359375,-37.59765625,-62.01171875,-32.2265625,-36.1328125,-61.5234375,0.0
66.33984375,-41.50390625,-52.24609375,-27.83203125,-24.4140625,-7.32421875,0.0
66.34375,-39.55078125,-43.45703125,-28.80859375,-22.4609375,19.53125,0.0
66.34765625,-40.52734375,-48.33984375,-32.71484375,-24.90234375,95.703125,0.0
66.3515625,-51.7578125,-49.8046875,-35.64453125,-28.3203125,38.0859375,0.0
66.35546875,-49.31640625,-48.33984375,-34.1796875,-37.109375,-67.3828125,0.0
66.359375,-47.36328125,-49.31640625,-26.85546875,-32.71484375,-59.08203125,0.0
66.36328125,-44.921875,-65.4296875,-27.34375,-28.80859375,-32.2265625,0.0
66.3671875,-41.9921875,-72.75390625,-33.69140625,-31.25,-4.8828125,0.0
66.37109375,-41.015625,-53.7109375,-34.66796875,-33.69140625,17.08984375,0.0
66.375,-34.1796875,-44.43359375,-32.71484375,-37.59765625,-40.52734375,0.0
66.37890625,-36.1328125,-48.828125,-26.85546875,-38.0859375,-86.42578125,0.0
66.3828125,-38.0859375,-54.6875,-32.71484375,-32.71484375,-86.9140625,0.0
66.38671875,-30.2734375,-56.15234375,-36.1328125,-39.55078125,-95.703125,0.0
66.390625,-25.87890625,-46.38671875,-33.203125,-35.64453125,-125.48828125,0.0
66.39453125,-40.0390625,-43.9453125,-30.2734375,-29.78515625,-73.2421875,0.0
66.3984375,-48.828125,-44.921875,-25.87890625,-40.52734375,-29.296875,0.0
66.40234375,-41.9921875,-43.9453125,-27.34375,-35.15625,-61.5234375,0.0
66.40625,-34.1796875,-52.734375,-23.4375,-37.59765625,-80.56640625,0.0
66.41015625,-35.15625,-52.734375,-27.34375,-51.26953125,-69.3359375,0.0
66.4140625,-51.26953125,-39.0625,-29.296875,-54.19921875,-1.953125,0.0
66.41796875,-65.4296875,-30.76171875,-25.87890625,-44.921875,25.87890625,0.0
66.421875,-51.26953125,-37.109375,-30.2734375,-43.9453125,-11.71875,0.0
66.42578125,-32.2265625,-47.8515625,-32.2265625,-52.734375,35.15625,0.0
66.4296875,-11.71875,-42.96875,-32.2265625,-52.734375,65.91796875,0.0
66.43359375,-20.01953125,-50.29296875,-33.203125,-51.7578125,56.15234375,0.0
66.4375,-42.96875,-60.05859375,-24.4140625,-40.0390625,34.66796875,0.0
66.44140625,-40.52734375,-51.7578125,-19.53125,-39.55078125,-27.34375,0.0
66.4453125,-18.5546875,-40.52734375,-17.578125,-42.96875,-84.47265625,0.0
66.44921875,-3.41796875,-39.55078125,-13.671875,-36.1328125,-79.1015625,0.0
66.453125,-20.5078125,-55.6640625,-16.6015625,-39.0625,-35.64453125,0.0
66.45703125,-39.0625,-62.01171875,-20.5078125,-49.8046875,1.46484375,0.0
66.4609375,-39.55078125,-62.5,-18.5546875,-50.29296875,-87.890625,0.0
66.46484375,-31.73828125,-50.29296875,-21.97265625,-53.7109375,-105.95703125,0.0
66.46875,-30.2734375,-36.62109375,-23.4375,-61.03515625,10.25390625,0.0
66.47265625,-43.45703125,-48.828125,-24.4140625,-54.6875,-9.27734375,0.0
66.4765625,-40.0390625,-53.22265625,-27.34375,-50.29296875,-55.6640625,0.0
66.48046875,-33.69140625,-44.43359375,-24.4140625,-55.6640625,39.55078125,0.0
66.484375,-28.3203125,-37.59765625,-24.90234375,-52.24609375,23.4375,0.0
66.48828125,-17.08984375,-34.1796875,-24.90234375,-45.8984375,-73.2421875,0.0
66.4921875,-25.87890625,-35.15625,-22.4609375,-55.17578125,-53.7109375,0.0
66.49609375,-36.1328125,-41.015625,-22.94921875,-55.6640625,-7.32421875,0.0
66.5,-39.0625,-45.41015625,-23.92578125,-60.546875,-9.765625,0.0
66.50390625,-38.57421875,-43.9453125,-22.94921875,-51.7578125,-52.24609375,0.0
66.5078125,-28.80859375,-47.8515625,-20.5078125,-38.57421875,-33.203125,0.0
66.51171875,-16.11328125,-49.31640625,-23.92578125,-35.64453125,-54.6875,0.0
66.515625,-23.4375,-37.109375,-27.83203125,-36.62109375,-82.03125,0.0
66.51953125,-31.25,-40.0390625,-23.4375,-41.50390625,-80.078125,0.0
66.5234375,-15.13671875,-44.43359375,-18.06640625,-34.66796875,-62.5,0.0
66.52734375,-2.9296875,-41.50390625,-15.13671875,-38.57421875,-17.08984375,0.0
66.53125,-25.390625,-42.96875,-21.484375,-49.31640625,48.828125,0.0
66.53515625,-49.31640625,-38.57421875,-24.90234375,-48.828125,45.8984375,0.0
66.5390625,-35.64453125,-31.73828125,-19.53125,-46.38671875,-80.078125,0.0
66.54296875,-25.390625,-44.43359375,-18.06640625,-42.96875,-106.4453125,0.0
66.546875,-26.85546875,-35.15625,-20.99609375,-40.0390625,-34.66796875,0.0
66.55078125,-22.4609375,-40.52734375,-18.06640625,-34.1796875,-10.7421875,0.0
66.5546875,-13.18359375,-59.5703125,-10.25390625,-42.48046875,-59.5703125,0.0
66.55859375,-16.11328125,-49.8046875,-11.23046875,-45.8984375,-102.05078125,0.0
66.5625,-33.69140625,-43.45703125,-14.6484375,-42.48046875,-34.66796875,0.0
66.56640625,-28.3203125,-37.59765625,-15.13671875,-48.33984375,101.5625,0.0
66.5703125,-22.94921875,-44.43359375,-23.4375,-51.26953125,201.66015625,0.0
66.57421875,-29.296875,-42.96875,-25.390625,-40.52734375,137.20703125,0.0
66.578125,-30.2734375,-33.203125,-25.87890625,-44.921875,65.91796875,0.0
66.58203125,-31.73828125,-46.875,-28.80859375,-49.8046875,45.41015625,0.0
66.5859375,-26.85546875,-45.41015625,-26.3671875,-42.96875,-2.44140625,0.0
66.58984375,-20.5078125,-40.52734375,-30.2734375,-41.9921875,58.10546875,0.0
66.59375,-40.52734375,-53.22265625,-40.0390625,-41.015625,44.921875,0.0
66.59765625,-48.828125,-56.640625,-38.0859375,-37.109375,-68.359375,0.0
66.6015625,-37.109375,-51.26953125,-32.2265625,-31.73828125,-85.44921875,0.0
66.60546875,-27.34375,-34.66796875,-32.2265625,-20.99609375,-3.90625,0.0
66.609375,-13.671875,-28.80859375,-31.73828125,-20.99609375,18.5546875,0.0
66.61328125,-30.2734375,-37.109375,-32.2265625,-48.33984375,-61.03515625,0.0
66.6171875,-44.921875,-35.64453125,-36.62109375,-48.828125,-25.87890625,0.0
66.62109375,-42.48046875,-37.59765625,-35.64453125,-40.0390625,26.3671875,0.0
66.625,-41.9921875,-41.015625,-29.78515625,-34.66796875,-29.78515625,0.0
66.62890625,-32.2265625,-36.62109375,-26.85546875,-28.80859375,-56.640625,0.0
66.6328125,-35.64453125,-35.15625,-32.2265625,-41.015625,-51.26953125,0.0
66.63671875,-39.0625,-48.33984375,-34.1796875,-50.29296875,-108.88671875,0.0
66.640625,-41.015625,-40.0390625,-34.1796875,-46.875,-59.08203125,0.0
66.64453125,-31.73828125,-43.9453125,-31.25,-31.73828125,51.7578125,0.0
66.6484375,-15.625,-61.5234375,-28.3203125,-31.25,32.2265625,0.0
66.65234375,-22.94921875,-50.78125,-35.15625,-50.29296875,33.203125,0.0
66.65625,-34.66796875,-52.734375,-31.25,-45.8984375,10.7421875,0.0
66.66015625,-40.0390625,-58.59375,-27.34375,-41.9921875,-0.9765625,0.0
66.6640625,-33.203125,-64.94140625,-34.66796875,-42.48046875,-66.89453125,0.0
66.66796875,-28.80859375,-63.4765625,-34.1796875,-36.62109375,-128.90625,0.0
66.671875,-39.0625,-48.33984375,-34.1796875,-46.875,-62.98828125,0.0
66.67578125,-45.41015625,-44.921875,-34.1796875,-52.734375,-75.1953125,0.0
66.6796875,-43.9453125,-39.0625,-32.2265625,-48.33984375,-137.6953125,0.0
66.68359375,-42.96875,-38.57421875,-33.69140625,-48.828125,-65.4296875,0.0
66.6875,-38.0859375,-47.36328125,-31.25,-31.25,4.8828125,0.0
66.69140625,-40.52734375,-52.24609375,-28.3203125,-25.390625,17.08984375,0.0
66.6953125,-43.45703125,-58.59375,-27.83203125,-41.9921875,75.1953125,0.0
66.69921875,-47.36328125,-56.640625,-27.83203125,-49.31640625,108.88671875,0.0
66.703125,-43.45703125,-48.33984375,-27.83203125,-43.9453125,50.29296875,0.0
66.70703125,-41.9921875,-40.0390625,-28.3203125,-34.66796875,-5.37109375,0.0
66.7109375,-41.9921875,-61.5234375,-30.76171875,-28.80859375,-68.359375,0.0
66.71484375,-41.9921875,-76.171875,-34.66796875,-39.0625,-99.609375,0.0
66.71875,-48.33984375,-53.7109375,-32.71484375,-37.109375,-122.55859375,0.0
66.72265625,-39.0625,-42.96875,-23.4375,-19.53125,-42.96875,0.0
66.7265625,-38.0859375,-35.64453125,-23.4375,-29.296875,30.76171875,0.0
66.73046875,-33.69140625,-43.45703125,-30.2734375,-40.52734375,-28.80859375,0.0
66.734375,-36.62109375,-45.41015625,-24.90234375,-44.43359375,-61.03515625,0.0
66.73828125,-45.41015625,-40.52734375,-24.4140625,-48.33984375,-44.921875,0.0
66.7421875,-48.828125,-48.33984375,-38.57421875,-46.38671875,-34.1796875,0.0
66.74609375,-35.64453125,-50.78125,-38.57421875,-33.203125,-47.8515625,0.0
66.75,-25.390625,-42.96875,-30.76171875,-15.13671875,-75.68359375,0.0
66.75390625,-36.1328125,-40.52734375,-33.203125,-26.3671875,-110.3515625,0.0
66.7578125,-33.203125,-44.921875,-34.1796875,-44.43359375,-109.86328125,0.0
66.76171875,-31.73828125,-33.203125,-32.2265625,-41.9921875,-92.7734375,0.0
66.765625,-23.92578125,-19.53125,-32.2265625,-37.59765625,-61.03515625,0.0
66.76953125,-23.92578125,-36.1328125,-31.25,-31.73828125,-100.5859375,0.0
66.7734375,-33.69140625,-31.73828125,-33.203125,-24.4140625,-166.50390625,0.0
66.77734375,-32.2265625,-36.1328125,-33.69140625,-22.4609375,-138.671875,0.0
66.78125,-30.2734375,-50.29296875,-29.296875,-21.484375,-92.7734375,0.0
66.78515625,-27.34375,-53.7109375,-30.76171875,-27.34375,-143.06640625,0.0
66.7890625,-22.94921875,-57.6171875,-31.25,-27.34375,-165.0390625,0.0
66.79296875,-33.203125,-49.8046875,-33.203125,-31.73828125,-183.59375,0.0
66.796875,-43.45703125,-35.64453125,-40.0390625,-41.015625,-179.6875,0.0
66.80078125,-28.80859375,-37.109375,-41.50390625,-50.29296875,-132.8125,0.0
66.8046875,-20.99609375,-37.59765625,-34.66796875,-28.80859375,-66.89453125,0.0
66.80859375,-25.390625,-39.55078125,-35.64453125,-15.625,0.9765625,0.0
66.8125,-19.53125,-51.7578125,-39.55078125,-25.390625,16.11328125,0.0
66.81640625,-20.5078125,-46.875,-39.55078125,-30.2734375,-44.921875,0.0
66.8203125,-24.4140625,-32.71484375,-35.15625,-25.390625,-7.8125,0.0
66.82421875,-26.3671875,-40.52734375,-28.80859375,-16.6015625,49.8046875,0.0
66.828125,-30.2734375,-33.69140625,-35.15625,-19.04296875,32.71484375,0.0
66.83203125,-40.52734375,-36.62109375,-39.0625,-23.4375,41.015625,0.0
66.8359375,-47.8515625,-63.4765625,-35.15625,-26.3671875,-20.5078125,0.0
66.83984375,-46.38671875,-70.3125,-30.76171875,-24.90234375,-10.25390625,0.0
66.84375,-48.828125,-42.96875,-23.92578125,-21.484375,-41.9921875,0.0
66.84765625,-51.26953125,-35.64453125,-27.83203125,-26.3671875,-111.328125,0.0
66.8515625,-45.41015625,-48.828125,-32.71484375,-19.53125,-103.515625,0.0
66.85546875,-38.0859375,-46.875,-35.15625,-31.25,6.34765625,0.0
66.859375,-34.66796875,-23.92578125,-35.15625,-48.828125,175.29296875,0.0
66.86328125,-22.94921875,-19.04296875,-29.296875,-30.76171875,139.16015625,0.0
66.8671875,-30.76171875,-41.9921875,-30.2734375,-30.76171875,16.6015625,0.0
66.87109375,-43.45703125,-64.94140625,-36.62109375,-44.43359375,-60.05859375,0.0
66.875,-42.96875,-52.24609375,-40.0390625,-33.69140625,-45.8984375,0.0
66.87890625,-46.38671875,-49.8046875,-31.73828125,-20.01953125,-14.16015625,0.0
66.8828125,-31.73828125,-66.40625,-27.83203125,-20.01953125,-78.61328125,0.0
66.88671875,-23.92578125,-60.546875,-32.71484375,-24.4140625,-88.8671875,0.0
66.890625,-38.57421875,-34.1796875,-34.66796875,-15.625,-26.85546875,0.0
66.89453125,-44.43359375,-58.10546875,-37.109375,-12.6953125,-43.9453125,0.0
66.8984375,-38.57421875,-62.01171875,-32.2265625,-24.4140625,-34.1796875,0.0
66.90234375,-41.015625,-13.671875,-29.78515625,-19.04296875,92.28515625,0.0
66.90625,-29.78515625,-27.83203125,-36.1328125,-13.18359375,60.546875,0.0
66.91015625,-16.6015625,-38.57421875,-32.2265625,-13.18359375,-65.4296875,0.0
66.9140625,-32.2265625,-21.484375,-30.2734375,-14.16015625,-74.21875,0.0
66.91796875,-38.0859375,-35.64453125,-32.2265625,-11.23046875,-28.80859375,0.0
66.921875,-31.73828125,-41.015625,-27.34375,-8.30078125,-25.87890625,0.0
66.92578125,-26.85546875,-35.64453125,-25.87890625,-23.4375,-76.66015625,0.0
66.9296875,-0.9765625,-29.296875,-20.99609375,-15.625,-122.55859375,0.0
66.93359375,-5.37109375,-40.0390625,-20.5078125,-2.44140625,-104.4921875,0.0
66.9375,-24.90234375,-67.87109375,-29.296875,-17.08984375,-77.1484375,0.0
66.94140625,-20.99609375,-68.359375,-29.78515625,-13.671875,-98.14453125,0.0
66.9453125,-9.765625,-74.70703125,-21.484375,4.8828125,-53.22265625,0.0
66.94921875,-0.9765625,-71.77734375,-23.92578125,-3.90625,43.9453125,0.0
66.953125,-15.13671875,-63.96484375,-32.71484375,-8.7890625,-5.859375,0.0
66.95703125,-29.78515625,-68.359375,-30.76171875,-7.8125,-111.328125,0.0
66.9609375,-16.11328125,-70.80078125,-25.87890625,5.37109375,-97.65625,0.0
66.96484375,-2.9296875,-90.8203125,-25.390625,10.25390625,-62.01171875,0.0
66.96875,-5.37109375,-97.16796875,-29.78515625,-11.71875,-59.5703125,0.0
66.97265625,-12.20703125,-80.56640625,-30.76171875,-9.27734375,-15.13671875,0.0
66.9765625,-13.671875,-75.68359375,-26.85546875,-9.765625,9.27734375,0.0
66.98046875,-16.6015625,-76.171875,-31.25,-6.34765625,45.8984375,0.0
66.984375,-8.7890625,-69.82421875,-32.2265625,15.13671875,70.3125,0.0
66.98828125,0.0,-75.68359375,-30.2734375,9.27734375,47.36328125,0.0
66.9921875,-3.41796875,-95.703125,-35.64453125,-19.53125,18.06640625,0.0
66.99609375,-20.5078125,-90.8203125,-42.48046875,-16.6015625,26.85546875,0.0
67.0,-30.2734375,-63.4765625,-40.52734375,-17.578125,104.00390625,0.0
67.00390625,-13.671875,-50.29296875,-32.2265625,-13.671875,168.45703125,0.0
67.0078125,0.48828125,-47.8515625,-30.76171875,-0.9765625,145.99609375,0.0
67.01171875,-8.30078125,-54.19921875,-34.1796875,-12.6953125,54.6875,0.0
67.015625,-20.01953125,-49.31640625,-35.64453125,-24.90234375,31.25,0.0
67.01953125,-19.53125,-47.36328125,-30.2734375,-15.625,16.11328125,0.0
67.0234375,-19.04296875,-52.24609375,-27.83203125,-15.13671875,2.44140625,0.0
67.02734375,-21.97265625,-43.45703125,-31.25,-21.484375,9.765625,0.0
67.03125,-19.04296875,-43.45703125,-30.76171875,-19.53125,-56.15234375,0.0
67.03515625,-29.296875,-38.57421875,-24.4140625,-24.90234375,-100.09765625,0.0
67.0390625,-42.48046875,-38.57421875,-28.80859375,-34.1796875,-59.08203125,0.0
67.04296875,-24.90234375,-46.38671875,-33.203125,-29.296875,-51.7578125,0.0
67.046875,-8.7890625,-50.29296875,-26.3671875,-19.04296875,-52.734375,0.0
67.05078125,-20.5078125,-56.15234375,-29.296875,-20.5078125,-60.05859375,0.0
67.0546875,-24.90234375,-49.31640625,-36.1328125,-28.3203125,-66.40625,0.0
67.05859375,-23.4375,-48.828125,-30.76171875,-21.97265625,-13.671875,0.0
67.0625,-15.625,-56.15234375,-25.87890625,-26.85546875,-89.84375,0.0
67.06640625,-12.20703125,-48.828125,-25.390625,-25.87890625,-165.52734375,0.0
67.0703125,-23.92578125,-41.015625,-26.85546875,-19.53125,-110.83984375,0.0
67.07421875,-28.3203125,-45.41015625,-30.2734375,-15.625,-55.17578125,0.0
67.078125,-22.4609375,-30.2734375,-26.3671875,-18.06640625,-28.80859375,0.0
67.08203125,-20.99609375,-19.53125,-24.90234375,-22.4609375,29.78515625,0.0
67.0859375,-33.203125,-33.69140625,-24.90234375,-27.83203125,49.8046875,0.0
67.08984375,-31.73828125,-45.8984375,-27.83203125,-26.85546875,-2.9296875,0.0
67.09375,-26.3671875,-34.66796875,-32.71484375,-29.78515625,30.2734375,0.0
67.09765625,-40.52734375,-22.94921875,-38.0859375,-39.0625,-8.30078125,0.0
67.1015625,-23.92578125,-32.2265625,-15.13671875,-14.6484375,-38.57421875,0.0
67.10546875,8.7890625,-37.109375,14.6484375,-2.9296875,-40.52734375,0.0
67.109375,-2.9296875,-42.48046875,-1.953125,-10.25390625,-67.87109375,0.0
67.11328125,-34.1796875,-54.19921875,-18.5546875,-26.85546875,-106.4453125,0.0
67.1171875,-70.80078125,-52.24609375,-38.0859375,-70.80078125,-83.0078125,0.0
67.12109375,-70.80078125,-53.7109375,-28.3203125,-81.0546875,-37.109375,0.0
67.125,-68.84765625,-50.78125,-3.90625,-74.70703125,12.20703125,0.0
67.12890625,-99.609375,-54.6875,-11.23046875,-102.05078125,65.91796875,0.0
67.1328125,-141.11328125,-62.5,15.13671875,-161.1328125,84.47265625,0.0
67.13671875,-200.68359375,-65.4296875,21.484375,-208.0078125,15.625,0.0
67.140625,-237.79296875,-57.12890625,3.90625,-237.79296875,28.3203125,0.0
67.14453125,-252.9296875,-49.31640625,20.01953125,-254.8828125,103.515625,0.0
67.1484375,-265.13671875,-54.6875,48.33984375,-269.53125,-1.953125,0.0
67.15234375,-299.31640625,-56.640625,51.7578125,-298.33984375,-107.421875,0.0
67.15625,-345.703125,-50.78125,45.8984375,-325.1953125,-117.1875,0.0
67.16015625,-357.91015625,-51.26953125,62.5,-334.47265625,-49.31640625,0.0
67.1640625,-364.74609375,-53.7109375,67.87109375,-357.91015625,-4.39453125,0.0
67.16796875,-350.5859375,-51.26953125,64.453125,-355.46875,-50.29296875,0.0
67.171875,-331.0546875,-39.55078125,71.2890625,-325.68359375,-37.59765625,0.0
67.17578125,-354.98046875,-42.48046875,83.49609375,-318.84765625,20.5078125,0.0
67.1796875,-378.90625,-49.31640625,82.51953125,-330.078125,-5.37109375,0.0
67.18359375,-334.9609375,-43.45703125,84.47265625,-305.6640625,-71.2890625,0.0
67.1875,-300.78125,-36.62109375,91.30859375,-282.71484375,-108.88671875,0.0
67.19140625,-308.59375,-41.50390625,90.33203125,-276.3671875,-99.12109375,0.0
67.1953125,-308.10546875,-29.296875,88.8671875,-280.76171875,-85.9375,0.0
67.19921875,-278.80859375,-16.6015625,94.23828125,-254.39453125,-62.5,0.0
67.203125,-250.48828125,-26.85546875,102.05078125,-213.8671875,-46.875,0.0
67.20703125,-216.30859375,-33.69140625,96.6796875,-180.6640625,-51.26953125,0.0
67.2109375,-204.58984375,-39.0625,96.6796875,-163.57421875,12.6953125,0.0
67.21484375,-199.21875,-39.55078125,93.75,-157.71484375,26.85546875,0.0
67.21875,-154.78515625,-20.5078125,87.40234375,-114.2578125,51.26953125,0.0
67.22265625,-132.8125,-24.4140625,86.9140625,-86.42578125,-38.57421875,0.0
67.2265625,-88.8671875,-28.80859375,83.49609375,-53.22265625,-103.515625,0.0
67.23046875,-53.7109375,-25.87890625,92.28515625,-27.83203125,-53.7109375,0.0
67.234375,-46.38671875,-20.99609375,94.7265625,-3.41796875,-23.4375,0.0
67.23828125,-35.64453125,-31.73828125,98.14453125,25.87890625,-40.52734375,0.0
67.2421875,-4.8828125,-33.203125,108.3984375,37.109375,-80.56640625,0.0
67.24609375,41.9921875,-26.3671875,106.4453125,68.359375,-32.2265625,0.0
67.25,45.41015625,-41.015625,97.16796875,81.0546875,-7.8125,0.0
67.25390625,43.9453125,-48.828125,94.23828125,79.58984375,-41.015625,0.0
67.2578125,54.19921875,-35.15625,91.796875,95.703125,8.7890625,0.0
67.26171875,70.80078125,-28.3203125,83.0078125,116.2109375,17.578125,0.0
67.265625,88.37890625,-25.87890625,78.125,128.41796875,3.41796875,0.0
67.26953125,97.65625,-25.390625,71.2890625,126.46484375,57.12890625,0.0
67.2734375,98.14453125,-32.71484375,65.4296875,122.55859375,10.7421875,0.0
67.27734375,92.7734375,-31.73828125,55.6640625,113.28125,-30.2734375,0.0
67.28125,81.0546875,-23.92578125,45.41015625,111.81640625,-3.41796875,0.0
67.28515625,88.8671875,-22.4609375,47.36328125,124.51171875,19.53125,0.0
67.2890625,102.5390625,-7.32421875,41.50390625,132.32421875,44.921875,0.0
67.29296875,96.19140625,-10.25390625,33.69140625,126.46484375,0.48828125,0.0
67.296875,91.30859375,-36.1328125,26.3671875,107.421875,-36.1328125,0.0
67.30078125,97.65625,-36.62109375,20.5078125,99.12109375,11.23046875,0.0
67.3046875,98.6328125,-34.66796875,22.4609375,113.76953125,-12.20703125,0.0
67.30859375,99.12109375,-33.203125,19.04296875,122.0703125,-61.03515625,0.0
67.3125,92.7734375,-23.4375,8.7890625,108.3984375,5.37109375,0.0
67.31640625,86.42578125,-21.484375,6.34765625,99.609375,19.53125,0.0
67.3203125,89.35546875,-19.53125,14.16015625,98.6328125,-11.71875,0.0
67.32421875,81.0546875,-27.34375,12.6953125,102.05078125,14.16015625,0.0
67.328125,79.58984375,-30.76171875,4.8828125,102.5390625,108.3984375,0.0
67.33203125,81.0546875,-31.73828125,3.41796875,99.12109375,54.6875,0.0
67.3359375,75.68359375,-19.04296875,3.90625,91.796875,-11.71875,0.0
67.33984375,75.1953125,-24.90234375,3.41796875,91.796875,33.69140625,0.0
67.34375,81.54296875,-34.1796875,-2.44140625,92.7734375,-38.57421875,0.0
67.34765625,69.82421875,-23.4375,-6.8359375,91.30859375,-90.8203125,0.0
67.3515625,55.17578125,-29.296875,-11.23046875,80.078125,-87.40234375,0.0
67.35546875,54.6875,-31.73828125,-20.01953125,69.3359375,-67.87109375,0.0
67.359375,45.8984375,-16.6015625,-23.92578125,60.05859375,-89.35546875,0.0
67.36328125,54.6875,-6.34765625,-13.18359375,68.359375,-84.9609375,0.0
67.3671875,72.265625,-15.625,-6.34765625,81.54296875,-41.015625,0.0
67.37109375,65.91796875,-30.76171875,-14.6484375,59.08203125,-33.69140625,0.0
67.375,43.45703125,-14.6484375,-22.4609375,45.41015625,-45.8984375,0.0
67.37890625,21.484375,-9.27734375,-25.390625,46.38671875,-67.3828125,0.0
67.3828125,21.484375,-21.97265625,-25.87890625,52.24609375,-109.86328125,0.0
67.38671875,19.53125,-17.08984375,-31.25,60.546875,-104.98046875,0.0
67.390625,27.34375,-14.6484375,-32.71484375,49.31640625,-26.85546875,0.0
67.39453125,35.64453125,-23.92578125,-23.4375,33.203125,-32.2265625,0.0
67.3984375,35.15625,-32.71484375,-22.94921875,28.80859375,-61.5234375,0.0
67.40234375,36.1328125,-22.94921875,-36.1328125,39.55078125,8.30078125,0.0
67.40625,46.875,-12.6953125,-26.85546875,60.05859375,34.66796875,0.0
67.41015625,25.87890625,-21.484375,-5.37109375,35.64453125,-94.7265625,0.0
67.4140625,0.0,-21.97265625,-4.39453125,5.37109375,-126.46484375,0.0
67.41796875,1.46484375,-14.6484375,8.30078125,11.23046875,-21.484375,0.0
67.421875,-6.8359375,-16.11328125,25.87890625,17.08984375,-72.265625,0.0
67.42578125,-4.39453125,-15.13671875,34.1796875,10.7421875,-92.7734375,0.0
67.4296875,-11.71875,-14.16015625,47.8515625,5.37109375,-47.36328125,0.0
67.43359375,-11.71875,-19.53125,62.5,15.13671875,-39.55078125,0.0
67.4375,-10.25390625,-22.94921875,77.1484375,22.4609375,-6.8359375,0.0
67.44140625,-4.39453125,-28.80859375,83.49609375,25.87890625,-67.87109375,0.0
67.4453125,11.71875,-26.85546875,84.9609375,31.25,-23.4375,0.0
67.44921875,20.5078125,-27.83203125,87.40234375,41.50390625,0.9765625,0.0
67.453125,16.11328125,-21.97265625,80.56640625,42.48046875,-22.4609375,0.0
67.45703125,-3.90625,-23.4375,66.40625,33.69140625,-26.3671875,0.0
67.4609375,-3.41796875,-27.83203125,60.546875,36.1328125,-2.9296875,0.0
67.46484375,3.90625,-20.99609375,60.546875,28.80859375,83.0078125,0.0
67.46875,9.765625,-26.85546875,56.15234375,28.80859375,55.6640625,0.0
67.47265625,3.90625,-40.52734375,48.33984375,29.78515625,4.8828125,0.0
67.4765625,-20.99609375,-34.66796875,42.96875,11.71875,33.69140625,0.0
67.48046875,-20.01953125,-29.296875,37.59765625,7.8125,-20.5078125,0.0
67.484375,-3.90625,-26.85546875,37.59765625,27.83203125,-87.40234375,0.0
67.48828125,1.953125,-39.55078125,34.66796875,19.04296875,-12.6953125,0.0
67.4921875,-10.25390625,-54.19921875,17.08984375,-5.37109375,27.34375,0.0
67.49609375,-13.18359375,-60.546875,12.20703125,-4.8828125,-13.18359375,0.0
67.5,-12.20703125,-52.24609375,14.6484375,-3.41796875,-2.44140625,0.0
67.50390625,-10.7421875,-36.1328125,7.8125,-14.16015625,11.71875,0.0
67.5078125,5.859375,-46.875,3.41796875,0.9765625,-105.46875,0.0
67.51171875,-2.9296875,-47.8515625,0.0,5.859375,-174.31640625,0.0
67.515625,-26.85546875,-28.80859375,-0.48828125,-22.94921875,-22.4609375,0.0
67.51953125,-20.99609375,-30.2734375,-1.46484375,-25.87890625,33.69140625,0.0
67.5234375,-11.23046875,-32.2265625,-0.9765625,-11.71875,-14.6484375,0.0
67.52734375,-10.25390625,-30.2734375,-0.48828125,-11.71875,20.5078125,0.0
67.53125,-12.20703125,-45.8984375,3.90625,-0.48828125,-0.48828125,0.0
67.53515625,-17.578125,-47.36328125,-5.37109375,-5.859375,23.4375,0.0
67.5390625,-17.578125,-44.43359375,-15.13671875,-31.25,60.05859375,0.0
67.54296875,-1.953125,-33.69140625,-11.71875,-17.08984375,0.9765625,0.0
67.546875,8.30078125,-37.59765625,-9.27734375,-3.41796875,-14.16015625,0.0
67.55078125,-0.9765625,-52.734375,-13.671875,-8.30078125,-24.90234375,0.0
67.5546875,-17.578125,-49.31640625,-18.06640625,-10.7421875,-25.87890625,0.0
67.55859375,-20.99609375,-41.015625,-16.6015625,-14.16015625,-78.61328125,0.0
67.5625,-5.37109375,-22.4609375,-10.7421875,-4.39453125,-131.8359375,0.0
67.56640625,0.9765625,-27.34375,-7.8125,7.32421875,-47.36328125,0.0
67.5703125,-11.23046875,-20.99609375,-10.25390625,2.9296875,3.41796875,0.0
67.57421875,-9.27734375,-12.6953125,-12.6953125,-0.48828125,-35.64453125,0.0
67.578125,-12.20703125,-16.6015625,-18.5546875,-5.37109375,-81.0546875,0.0
67.58203125,-16.6015625,-26.3671875,-19.04296875,-10.25390625,-93.26171875,0.0
67.5859375,-7.8125,-38.57421875,-15.13671875,-11.23046875,-71.2890625,0.0
67.58984375,-2.9296875,-29.78515625,-9.765625,-7.8125,-81.0546875,0.0
67.59375,-12.6953125,-18.5546875,-6.34765625,-7.8125,-34.1796875,0.0
67.59765625,-23.92578125,-15.13671875,-14.6484375,-20.01953125,1.953125,0.0
67.6015625,-27.83203125,-22.4609375,-12.6953125,-9.27734375,-81.54296875,0.0
67.60546875,-22.4609375,-22.4609375,-11.23046875,-12.20703125,-98.6328125,0.0
67.609375,-20.99609375,-18.5546875,-21.484375,-21.484375,-63.4765625,0.0
67.61328125,-20.5078125,-32.2265625,-25.390625,-18.5546875,-101.07421875,0.0
67.6171875,-23.92578125,-11.23046875,-24.90234375,-38.0859375,-36.62109375,0.0
67.62109375,-24.90234375,-8.7890625,-26.3671875,-42.48046875,30.76171875,0.0
67.625,-22.4609375,-33.69140625,-30.2734375,-31.73828125,32.71484375,0.0
67.62890625,-24.90234375,-39.55078125,-33.69140625,-37.59765625,-30.2734375,0.0
67.6328125,-39.55078125,-38.0859375,-33.69140625,-43.9453125,-130.37109375,0.0
67.63671875,-50.78125,-26.3671875,-35.15625,-32.71484375,-119.140625,0.0
67.640625,-42.96875,-17.578125,-40.0390625,-31.73828125,-39.55078125,0.0
67.64453125,-32.2265625,-16.6015625,-38.0859375,-30.76171875,-4.8828125,0.0
67.6484375,-36.62109375,-28.80859375,-37.59765625,-35.64453125,-29.296875,0.0
67.65234375,-38.0859375,-32.2265625,-39.55078125,-50.29296875,-77.1484375,0.0
67.65625,-37.109375,-24.90234375,-41.015625,-51.26953125,-24.90234375,0.0
67.66015625,-40.0390625,-30.76171875,-35.15625,-46.38671875,19.04296875,0.0
67.6640625,-25.390625,-21.97265625,-25.87890625,-38.57421875,-37.109375,0.0
67.66796875,-22.94921875,-13.671875,-22.94921875,-35.15625,-1.46484375,0.0
67.671875,-23.92578125,-20.01953125,-29.296875,-43.45703125,65.4296875,0.0
67.67578125,-28.3203125,-32.2265625,-33.69140625,-39.0625,-18.5546875,0.0
67.6796875,-29.78515625,-37.59765625,-23.92578125,-25.87890625,-23.4375,0.0
67.68359375,-26.3671875,-35.15625,-23.92578125,-24.90234375,41.9921875,0.0
67.6875,-24.4140625,-27.83203125,-34.1796875,-19.53125,29.78515625,0.0
67.69140625,-36.1328125,-23.92578125,-40.52734375,-20.01953125,54.19921875,0.0
67.6953125,-48.33984375,-23.4375,-37.59765625,-34.1796875,-9.765625,0.0
67.69921875,-33.203125,-33.203125,-28.3203125,-37.59765625,-75.68359375,0.0
67.703125,-27.83203125,-35.15625,-31.73828125,-30.2734375,-52.24609375,0.0
67.70703125,-21.97265625,-20.5078125,-38.0859375,-15.625,-7.8125,0.0
67.7109375,-23.4375,-19.53125,-35.15625,-12.6953125,23.4375,0.0
67.71484375,-25.87890625,-26.3671875,-34.1796875,-24.4140625,27.34375,0.0
67.71875,-30.76171875,-24.4140625,-39.0625,-27.83203125,-1.46484375,0.0
67.72265625,-38.0859375,-24.90234375,-32.71484375,-25.390625,-68.359375,0.0
67.7265625,-23.4375,-17.08984375,-25.390625,-20.5078125,-71.77734375,0.0
67.73046875,-29.296875,-19.04296875,-32.2265625,-25.390625,15.625,0.0
67.734375,-46.875,-22.94921875,-38.57421875,-31.73828125,-46.38671875,0.0
67.73828125,-41.015625,-22.94921875,-41.9921875,-26.85546875,-103.515625,0.0
67.7421875,-39.0625,-23.92578125,-38.57421875,-23.92578125,-61.03515625,0.0
67.74609375,-33.203125,-22.4609375,-37.59765625,-26.3671875,-38.57421875,0.0
67.75,-30.76171875,-23.92578125,-39.55078125,-35.15625,-75.1953125,0.0
67.75390625,-28.80859375,-21.97265625,-37.109375,-35.15625,-101.5625,0.0
67.7578125,-35.15625,-17.578125,-35.15625,-34.66796875,-70.3125,0.0
67.76171875,-43.45703125,-16.6015625,-35.15625,-34.66796875,-41.015625,0.0
67.765625,-28.80859375,-10.25390625,-34.66796875,-27.83203125,-44.43359375,0.0
67.76953125,-23.4375,-16.6015625,-28.80859375,-15.13671875,-67.3828125,0.0
67.7734375,-40.0390625,-31.73828125,-26.3671875,-23.4375,-105.95703125,0.0
67.77734375,-48.33984375,-21.484375,-36.1328125,-37.59765625,-38.57421875,0.0
67.78125,-40.0390625,0.9765625,-40.52734375,-33.69140625,-7.32421875,0.0
67.78515625,-31.25,-2.9296875,-40.0390625,-21.97265625,-80.078125,0.0
67.7890625,-33.69140625,-19.04296875,-42.48046875,-19.04296875,-84.9609375,0.0
67.79296875,-43.9453125,-27.83203125,-45.8984375,-26.3671875,-86.42578125,0.0
67.796875,-54.19921875,-16.6015625,-49.31640625,-42.96875,-18.5546875,0.0
67.80078125,-51.26953125,-17.578125,-44.43359375,-41.9921875,-56.15234375,0.0
67.8046875,-34.66796875,-19.04296875,-35.64453125,-36.1328125,-104.4921875,0.0
67.80859375,-26.3671875,-21.484375,-39.0625,-43.45703125,-124.0234375,0.0
67.8125,-28.80859375,-28.80859375,-30.76171875,-29.296875,-136.23046875,0.0
67.81640625,-32.2265625,-32.71484375,-20.99609375,-24.4140625,-99.12109375,0.0
67.8203125,-45.41015625,-25.390625,-25.87890625,-41.50390625,-112.79296875,0.0
67.82421875,-31.73828125,-28.3203125,-22.4609375,-35.64453125,-132.32421875,0.0
67.828125,-20.5078125,-31.73828125,-21.97265625,-30.2734375,-124.0234375,0.0
67.83203125,-17.578125,-23.92578125,-27.83203125,-34.66796875,-71.2890625,0.0
67.8359375,-24.90234375,-32.2265625,-31.73828125,-36.1328125,-59.5703125,0.0
67.83984375,-40.0390625,-30.2734375,-28.80859375,-40.0390625,-32.2265625,0.0
67.84375,-20.99609375,-25.87890625,-25.87890625,-30.2734375,6.34765625,0.0
67.84765625,-7.32421875,-28.3203125,-28.3203125,-20.5078125,19.53125,0.0
67.8515625,-27.83203125,-25.390625,-28.3203125,-26.3671875,30.76171875,0.0
67.85546875,-35.15625,-25.87890625,-27.83203125,-38.57421875,-13.671875,0.0
67.859375,-27.34375,-30.76171875,-24.4140625,-36.1328125,-21.97265625,0.0
67.86328125,-18.06640625,-48.33984375,-23.92578125,-20.01953125,22.4609375,0.0
67.8671875,-0.9765625,-54.6875,-26.85546875,-21.97265625,-15.13671875,0.0
67.87109375,3.90625,-37.59765625,-24.4140625,-25.390625,-20.99609375,0.0
67.875,-9.765625,-21.484375,-29.296875,-20.01953125,-21.484375,0.0
67.87890625,-20.99609375,-25.390625,-32.71484375,-25.87890625,39.0625,0.0
67.8828125,-22.94921875,-31.73828125,-34.1796875,-38.0859375,83.0078125,0.0
67.88671875,-18.06640625,-35.64453125,-36.62109375,-28.3203125,-47.8515625,0.0
67.890625,-12.20703125,-31.73828125,-42.96875,-31.73828125,-72.265625,0.0
67.89453125,-23.92578125,-33.69140625,-41.50390625,-41.015625,41.9921875,0.0
67.8984375,-33.203125,-23.92578125,-34.1796875,-28.80859375,31.25,0.0
67.90234375,-33.203125,-16.6015625,-32.71484375,-28.80859375,-18.5546875,0.0
67.90625,-19.53125,-36.62109375,-30.76171875,-28.80859375,-56.15234375,0.0
67.91015625,-11.23046875,-41.9921875,-33.203125,-26.3671875,-70.3125,0.0
67.9140625,-21.97265625,-37.109375,-31.25,-32.71484375,-30.76171875,0.0
67.91796875,-23.92578125,-30.2734375,-23.4375,-29.296875,-46.875,0.0
67.921875,-16.11328125,-24.4140625,-20.01953125,-27.83203125,-31.73828125,0.0
67.92578125,-3.90625,-23.4375,-4.39453125,-23.4375,15.13671875,0.0
67.9296875,-15.625,-26.85546875,-1.953125,-22.94921875,54.6875,0.0
67.93359375,-41.015625,-30.76171875,-18.06640625,-29.78515625,48.33984375,0.0
67.9375,-34.1796875,-27.34375,-8.30078125,-32.2265625,47.8515625,0.0
67.94140625,-44.921875,-20.5078125,-8.30078125,-49.8046875,99.609375,0.0
67.9453125,-86.9140625,-19.04296875,-18.06640625,-90.8203125,30.2734375,0.0
67.94921875,-107.91015625,-20.01953125,-21.97265625,-129.39453125,-22.94921875,0.0
67.953125,-133.7890625,-20.01953125,-11.71875,-155.76171875,18.5546875,0.0
67.95703125,-193.359375,-31.73828125,-25.87890625,-219.7265625,-65.4296875,0.0
67.9609375,-241.2109375,-33.69140625,-61.5234375,-287.59765625,-33.203125,0.0
67.96484375,-271.484375,-31.25,-75.1953125,-318.84765625,3.41796875,0.0
67.96875,-295.8984375,-23.92578125,-114.2578125,-353.02734375,-30.2734375,0.0
67.97265625,-329.1015625,-24.90234375,-170.8984375,-399.4140625,-32.71484375,0.0
67.9765625,-361.81640625,-30.76171875,-211.9140625,-427.24609375,-2.44140625,0.0
67.98046875,-362.3046875,-21.484375,-241.69921875,-441.40625,52.734375,0.0
67.984375,-357.421875,-18.06640625,-263.671875,-452.1484375,64.453125,0.0
67.98828125,-361.81640625,-20.5078125,-291.50390625,-461.42578125,1.46484375,0.0
67.9921875,-364.2578125,-22.4609375,-315.4296875,-463.37890625,-39.0625,0.0
67.99609375,-354.4921875,-34.66796875,-334.47265625,-432.6171875,-113.28125,0.0
68.0,-336.9140625,-39.55078125,-351.5625,-418.45703125,-133.30078125,0.0
68.00390625,-304.6875,-30.76171875,-355.46875,-406.25,-122.55859375,0.0
68.0078125,-251.953125,-28.3203125,-349.609375,-377.9296875,-155.2734375,0.0
68.01171875,-208.984375,-33.203125,-341.796875,-327.1484375,-56.15234375,0.0
68.015625,-195.3125,-28.80859375,-333.0078125,-279.296875,41.015625,0.0
68.01953125,-187.01171875,-20.01953125,-317.3828125,-276.85546875,-24.4140625,0.0
68.0234375,-144.53125,-14.16015625,-306.640625,-236.328125,-28.3203125,0.0
68.02734375,-100.09765625,-23.4375,-287.59765625,-180.17578125,-17.578125,0.0
68.03125,-90.8203125,-28.3203125,-264.16015625,-167.96875,-25.87890625,0.0
68.03515625,-53.22265625,-32.2265625,-244.140625,-124.0234375,-52.734375,0.0
68.0390625,-9.765625,-29.78515625,-223.14453125,-71.2890625,-36.1328125,0.0
68.04296875,2.9296875,-28.3203125,-205.078125,-50.78125,8.30078125,0.0
68.046875,39.0625,-32.71484375,-188.96484375,-29.78515625,-8.30078125,0.0
68.05078125,76.66015625,-40.0390625,-176.7578125,4.39453125,16.6015625,0.0
68.0546875,89.35546875,-45.8984375,-157.2265625,33.203125,17.578125,0.0
68.05859375,100.5859375,-45.8984375,-140.13671875,43.9453125,11.23046875,0.0
68.0625,91.30859375,-30.76171875,-138.18359375,47.8515625,21.484375,0.0
68.06640625,109.86328125,-27.34375,-129.8828125,69.82421875,-2.9296875,0.0
68.0703125,130.37109375,-37.109375,-116.69921875,84.9609375,-40.52734375,0.0
68.07421875,117.1875,-33.69140625,-112.79296875,95.703125,7.8125,0.0
68.078125,109.86328125,-31.25,-107.91015625,100.5859375,42.48046875,0.0
68.08203125,122.55859375,-34.1796875,-101.5625,99.609375,-11.23046875,0.0
68.0859375,131.8359375,-30.76171875,-97.16796875,109.375,-38.0859375,0.0
68.08984375,116.69921875,-33.69140625,-94.7265625,108.3984375,-102.05078125,0.0
68.09375,97.65625,-38.0859375,-94.23828125,92.7734375,-131.8359375,0.0
68.09765625,104.4921875,-31.73828125,-84.9609375,82.51953125,-73.2421875,0.0
68.1015625,110.83984375,-31.73828125,-77.63671875,87.890625,-15.13671875,0.0
68.10546875,93.75,-36.62109375,-82.03125,85.44921875,62.01171875,0.0
68.109375,93.75,-31.25,-80.078125,85.9375,121.58203125,0.0
68.11328125,91.30859375,-32.2265625,-68.359375,86.42578125,97.65625,0.0
68.1171875,78.61328125,-39.0625,-62.98828125,75.68359375,36.1328125,0.0
68.12109375,79.58984375,-37.59765625,-64.94140625,67.87109375,-11.23046875,0.0
68.125,77.1484375,-33.69140625,-61.03515625,70.80078125,-42.96875,0.0
68.12890625,74.21875,-37.59765625,-60.546875,57.6171875,-122.0703125,0.0
68.1328125,72.75390625,-32.71484375,-61.03515625,53.7109375,-143.5546875,0.0
68.13671875,62.98828125,-31.73828125,-58.10546875,60.546875,-105.46875,0.0
68.140625,55.6640625,-35.64453125,-53.7109375,39.55078125,-141.6015625,0.0
68.14453125,54.6875,-42.48046875,-45.8984375,39.0625,-131.8359375,0.0
68.1484375,61.5234375,-40.52734375,-46.875,53.7109375,-45.41015625,0.0
68.15234375,61.03515625,-27.34375,-56.15234375,41.9921875,-28.80859375,0.0
68.15625,39.0625,-22.4609375,-52.24609375,28.80859375,0.9765625,0.0
68.16015625,31.73828125,-39.55078125,-46.38671875,33.203125,-49.31640625,0.0
68.1640625,30.2734375,-33.69140625,-46.875,33.203125,-88.37890625,0.0
68.16796875,25.390625,-18.5546875,-46.38671875,37.109375,-43.9453125,0.0
68.171875,25.390625,-25.87890625,-47.8515625,35.15625,-51.26953125,0.0
68.17578125,20.5078125,-25.87890625,-51.7578125,14.6484375,-37.109375,0.0
68.1796875,24.4140625,-7.8125,-47.36328125,13.18359375,-15.13671875,0.0
68.18359375,29.296875,-9.765625,-41.9921875,11.23046875,6.34765625,0.0
68.1875,23.92578125,-27.83203125,-38.57421875,14.16015625,28.3203125,0.0
68.19140625,28.80859375,-22.4609375,-33.203125,24.90234375,-33.203125,0.0
68.1953125,20.99609375,-30.76171875,-41.9921875,17.08984375,-50.78125,0.0
68.19921875,5.859375,-29.78515625,-45.8984375,5.37109375,55.17578125,0.0
68.203125,10.25390625,-18.06640625,-43.9453125,10.7421875,138.18359375,0.0
68.20703125,14.6484375,-24.90234375,-47.8515625,13.671875,64.453125,0.0
68.2109375,15.13671875,-37.59765625,-49.8046875,14.16015625,-10.25390625,0.0
68.21484375,14.6484375,-44.921875,-51.7578125,7.8125,5.37109375,0.0
68.21875,1.953125,-32.2265625,-50.29296875,3.41796875,-44.43359375,0.0
68.22265625,15.625,-20.5078125,-48.33984375,7.8125,-70.3125,0.0
68.2265625,20.99609375,-20.99609375,-48.33984375,-10.7421875,-62.01171875,0.0
68.23046875,0.0,-23.4375,-44.921875,-8.30078125,-54.6875,0.0
68.234375,-8.7890625,-15.13671875,-40.52734375,-5.37109375,-3.41796875,0.0
68.23828125,-0.9765625,-24.4140625,-40.52734375,-14.16015625,-7.8125,0.0
68.2421875,-13.671875,-33.69140625,-46.875,1.46484375,-34.66796875,0.0
68.24609375,-19.04296875,-33.69140625,-50.78125,11.23046875,-67.87109375,0.0
68.25,-8.7890625,-22.4609375,-57.6171875,-19.04296875,-67.3828125,0.0
68.25390625,-9.765625,-20.99609375,-64.94140625,-30.76171875,-5.859375,0.0
68.2578125,-11.71875,-44.43359375,-58.59375,-21.97265625,-64.453125,0.0
68.26171875,-14.16015625,-44.43359375,-45.8984375,-12.6953125,-109.375,0.0
68.265625,-11.71875,-20.01953125,-47.36328125,-20.01953125,-102.05078125,0.0
68.26953125,-11.71875,-25.390625,-44.921875,-18.5546875,-134.765625,0.0
68.2734375,-25.390625,-34.66796875,-50.78125,-1.953125,-87.890625,0.0
68.27734375,-27.83203125,-36.62109375,-50.29296875,-10.25390625,-62.01171875,0.0
68.28125,-20.99609375,-26.85546875,-40.0390625,-24.4140625,21.97265625,0.0
68.28515625,-24.90234375,-17.08984375,-43.9453125,-19.04296875,35.64453125,0.0
68.2890625,-20.5078125,-28.80859375,-43.9453125,-15.625,-50.78125,0.0
68.29296875,-20.5078125,-39.0625,-39.0625,-19.04296875,-62.98828125,0.0
68.296875,-29.296875,-33.69140625,-39.0625,-24.90234375,-136.71875,0.0
68.30078125,-21.97265625,-22.94921875,-43.45703125,-22.94921875,-109.375,0.0
68.3046875,-20.5078125,-15.625,-39.0625,-15.13671875,-32.2265625,0.0
68.30859375,-20.99609375,-21.484375,-39.0625,-12.6953125,-31.73828125,0.0
68.3125,-15.13671875,-22.94921875,-38.0859375,1.953125,-39.0625,0.0
68.31640625,-16.6015625,-25.87890625,-41.9921875,-9.765625,-1.46484375,0.0
68.3203125,-32.71484375,-18.06640625,-44.43359375,-40.0390625,-35.15625,0.0
68.32421875,-29.296875,-6.34765625,-29.296875,-31.73828125,-54.19921875,0.0
68.328125,-22.94921875,-10.25390625,-22.94921875,-24.90234375,34.1796875,0.0
68.33203125,-40.0390625,-32.71484375,-29.78515625,-36.62109375,37.59765625,0.0
68.3359375,-51.7578125,-41.9921875,-30.2734375,-44.921875,-24.4140625,0.0
68.33984375,-32.2265625,-29.296875,-25.390625,-30.76171875,-80.56640625,0.0
68.34375,-18.5546875,-26.85546875,-26.3671875,-11.71875,-93.26171875,0.0
68.34765625,-36.1328125,-33.69140625,-30.76171875,-15.13671875,-127.44140625,0.0
68.3515625,-42.48046875,-36.62109375,-27.34375,-22.4609375,-115.234375,0.0
68.35546875,-40.0390625,-30.2734375,-25.390625,-28.3203125,-103.02734375,0.0
68.359375,-32.71484375,-28.80859375,-21.97265625,-28.3203125,-72.265625,0.0
68.36328125,-25.390625,-23.92578125,-17.578125,-18.06640625,-33.203125,0.0
68.3671875,-20.99609375,-13.671875,-13.671875,-9.765625,-63.4765625,0.0
68.37109375,-18.06640625,-21.484375,-14.16015625,-13.671875,-10.25390625,0.0
68.375,-32.71484375,-22.4609375,-23.92578125,-31.25,15.625,0.0
68.37890625,-42.96875,-18.5546875,-30.76171875,-33.69140625,-69.3359375,0.0
68.3828125,-32.71484375,-29.78515625,-26.3671875,-24.4140625,-95.21484375,0.0
68.38671875,-26.3671875,-27.83203125,-23.4375,-20.5078125,-63.4765625,0.0
68.390625,-33.203125,-18.5546875,-25.390625,-20.01953125,-97.65625,0.0
68.39453125,-40.52734375,-26.3671875,-22.94921875,-28.80859375,-128.90625,0.0
68.3984375,-40.0390625,-27.34375,-21.484375,-27.83203125,-87.40234375,0.0
68.40234375,-44.921875,-32.71484375,-22.94921875,-30.2734375,-22.4609375,0.0
68.40625,-42.96875,-43.45703125,-27.34375,-23.92578125,39.55078125,0.0
68.41015625,-34.1796875,-47.36328125,-28.3203125,-27.34375,104.00390625,0.0
68.4140625,-41.015625,-41.50390625,-26.3671875,-36.1328125,110.83984375,0.0
68.41796875,-44.921875,-40.52734375,-23.92578125,-34.66796875,97.16796875,0.0
68.421875,-40.52734375,-49.8046875,-24.90234375,-27.83203125,19.53125,0.0
68.42578125,-29.78515625,-49.8046875,-26.3671875,-26.85546875,0.9765625,0.0
68.4296875,-24.90234375,-52.734375,-14.6484375,-16.6015625,31.73828125,0.0
68.43359375,-42.48046875,-57.12890625,-10.25390625,-19.04296875,-9.765625,0.0
68.4375,-61.5234375,-51.26953125,-18.5546875,-36.1328125,-1.46484375,0.0
68.44140625,-48.33984375,-38.57421875,-20.01953125,-35.64453125,-17.578125,0.0
68.4453125,-37.109375,-40.0390625,-19.53125,-23.92578125,-101.07421875,0.0
68.44921875,-43.9453125,-57.6171875,-23.4375,-19.04296875,-89.35546875,0.0
68.453125,-43.9453125,-61.03515625,-25.390625,-24.4140625,-82.03125,0.0
68.45703125,-45.41015625,-45.8984375,-24.4140625,-22.4609375,-24.4140625,0.0
68.4609375,-48.828125,-37.109375,-23.92578125,-18.5546875,54.19921875,0.0
68.46484375,-50.78125,-52.734375,-27.83203125,-20.99609375,12.6953125,0.0
68.46875,-34.66796875,-48.33984375,-28.3203125,-18.06640625,-3.90625,0.0
68.47265625,-23.92578125,-32.2265625,-26.3671875,-26.85546875,-8.7890625,0.0
68.4765625,-51.26953125,-35.15625,-24.4140625,-40.0390625,-12.20703125,0.0
68.48046875,-65.4296875,-40.0390625,-28.80859375,-43.9453125,-42.96875,0.0
68.484375,-54.6875,-34.1796875,-30.2734375,-43.9453125,-34.1796875,0.0
68.48828125,-56.15234375,-18.06640625,-29.78515625,-38.0859375,24.4140625,0.0
68.4921875,-49.31640625,-37.59765625,-33.69140625,-38.0859375,-86.42578125,0.0
68.49609375,-49.31640625,-49.8046875,-39.0625,-36.1328125,-112.79296875,0.0
68.5,-59.08203125,-30.76171875,-36.62109375,-34.1796875,24.90234375,0.0
68.50390625,-51.26953125,-26.3671875,-27.83203125,-31.73828125,27.34375,0.0
68.5078125,-37.59765625,-31.25,-34.1796875,-28.80859375,-0.9765625,0.0
68.51171875,-45.8984375,-41.50390625,-41.9921875,-37.59765625,-20.99609375,0.0
68.515625,-45.41015625,-35.64453125,-41.015625,-32.71484375,-47.36328125,0.0
68.51953125,-35.64453125,-39.0625,-28.3203125,-23.4375,73.2421875,0.0
68.5234375,-31.25,-36.1328125,-16.6015625,-7.8125,88.37890625,0.0
68.52734375,-20.5078125,-38.0859375,-30.2734375,-3.41796875,-38.57421875,0.0
68.53125,-19.04296875,-37.109375,-37.109375,-26.85546875,-67.3828125,0.0
68.53515625,-39.0625,-24.4140625,-33.203125,-27.83203125,-37.109375,0.0
68.5390625,-50.29296875,-32.2265625,-33.69140625,-31.25,-40.0390625,0.0
68.54296875,-44.921875,-22.94921875,-30.76171875,-44.921875,27.83203125,0.0
68.546875,-31.25,-20.5078125,-22.4609375,-32.2265625,89.84375,0.0
68.55078125,-36.1328125,-37.59765625,-21.484375,-21.484375,77.63671875,0.0
68.5546875,-35.64453125,-27.34375,-27.34375,-27.34375,53.22265625,0.0
68.55859375,-18.5546875,-23.4375,-22.94921875,-20.99609375,0.9765625,0.0
68.5625,-20.01953125,-20.01953125,-15.625,-14.16015625,52.24609375,0.0
68.56640625,-10.25390625,-20.99609375,-12.6953125,-20.5078125,57.12890625,0.0
68.5703125,-21.97265625,-29.78515625,-24.90234375,-29.296875,26.3671875,0.0
68.57421875,-41.015625,-35.15625,-35.64453125,-37.59765625,14.6484375,0.0
68.578125,-32.2265625,-33.203125,-34.66796875,-27.34375,-9.765625,0.0
68.58203125,-41.50390625,-30.2734375,-32.71484375,-23.92578125,-9.27734375,0.0
68.5859375,-40.0390625,-31.73828125,-31.73828125,-36.1328125,-12.20703125,0.0
68.58984375,-47.36328125,-28.3203125,-29.296875,-31.73828125,-36.62109375,0.0
68.59375,-55.6640625,-24.4140625,-31.73828125,-41.50390625,-29.296875,0.0
68.59765625,-47.36328125,-29.78515625,-31.25,-35.64453125,-64.453125,0.0
68.6015625,-52.24609375,-20.5078125,-28.80859375,-35.64453125,-87.40234375,0.0
68.60546875,-47.8515625,-17.08984375,-28.3203125,-28.80859375,-32.2265625,0.0
68.609375,-34.66796875,-21.484375,-22.94921875,-10.25390625,-42.96875,0.0
68.61328125,-38.0859375,-29.78515625,-25.87890625,-27.34375,-94.23828125,0.0
68.6171875,-52.24609375,-38.0859375,-35.64453125,-50.78125,-40.52734375,0.0
68.62109375,-47.36328125,-29.78515625,-35.15625,-40.0390625,57.6171875,0.0
68.625,-35.15625,-18.06640625,-28.3203125,-21.97265625,73.73046875,0.0
68.62890625,-27.83203125,-12.20703125,-28.80859375,-30.2734375,55.6640625,0.0
68.6328125,-31.25,-26.85546875,-30.76171875,-45.8984375,53.7109375,0.0
68.63671875,-40.0390625,-42.96875,-25.390625,-44.921875,31.25,0.0
68.640625,-49.8046875,-30.2734375,-24.90234375,-30.2734375,-12.20703125,0.0
68.64453125,-45.8984375,-29.78515625,-28.80859375,-35.64453125,-52.24609375,0.0
68.6484375,-35.64453125,-30.76171875,-32.71484375,-35.15625,-32.2265625,0.0
68.65234375,-26.85546875,-21.97265625,-27.34375,-21.97265625,4.8828125,0.0
68.65625,-23.92578125,-15.625,-21.97265625,-27.34375,32.2265625,0.0
68.66015625,-31.73828125,-17.578125,-27.83203125,-33.203125,-38.0859375,0.0
68.6640625,-28.80859375,-20.01953125,-25.87890625,-28.3203125,-37.109375,0.0
68.66796875,-12.20703125,-26.3671875,-22.4609375,-31.25,21.484375,0.0
68.671875,-19.04296875,-29.78515625,-29.78515625,-34.1796875,-79.58984375,0.0
68.67578125,-43.9453125,-23.92578125,-36.1328125,-32.71484375,-51.26953125,0.0
68.6796875,-46.875,-31.25,-31.25,-38.57421875,-7.32421875,0.0
68.68359375,-42.48046875,-30.2734375,-24.90234375,-36.1328125,-44.921875,0.0
68.6875,-35.15625,-23.92578125,-17.578125,-9.765625,-92.28515625,0.0
68.69140625,-46.875,-32.2265625,-17.578125,-9.765625,-49.8046875,0.0
68.6953125,-59.5703125,-29.296875,-25.390625,-31.25,5.37109375,0.0
68.69921875,-40.52734375,-26.85546875,-12.20703125,-30.2734375,-72.75390625,0.0
68.703125,-35.15625,-23.92578125,-11.23046875,-21.484375,-75.1953125,0.0
68.70703125,-49.8046875,-30.2734375,-29.296875,-24.90234375,-57.6171875,0.0
68.7109375,-51.26953125,-32.2265625,-29.296875,-41.015625,-25.390625,0.0
68.71484375,-48.828125,-26.3671875,-24.90234375,-45.41015625,8.7890625,0.0
68.71875,-51.7578125,-20.01953125,-24.90234375,-42.96875,-76.171875,0.0
68.72265625,-53.22265625,-19.04296875,-21.484375,-28.3203125,-47.36328125,0.0
68.7265625,-43.9453125,-30.76171875,-15.13671875,-10.7421875,44.921875,0.0
68.73046875,-46.38671875,-28.3203125,-14.6484375,-27.83203125,27.34375,0.0
68.734375,-49.8046875,-21.484375,-22.4609375,-42.96875,-32.71484375,0.0
68.73828125,-46.875,-28.3203125,-22.94921875,-32.71484375,-127.9296875,0.0
68.7421875,-39.0625,-17.578125,-12.20703125,-14.16015625,-114.74609375,0.0
68.74609375,-20.5078125,-21.97265625,-12.6953125,-17.08984375,-74.70703125,0.0
68.75,-25.390625,-30.2734375,-27.34375,-36.62109375,-51.7578125,0.0
68.75390625,-43.9453125,-38.0859375,-28.80859375,-31.73828125,-7.8125,0.0
68.7578125,-49.31640625,-28.3203125,-22.94921875,-22.94921875,35.64453125,0.0
68.76171875,-42.96875,-18.06640625,-15.625,-12.6953125,-3.90625,0.0
68.765625,-26.3671875,-12.6953125,-16.11328125,-10.7421875,-31.73828125,0.0
68.76953125,-27.34375,-19.53125,-18.06640625,-15.13671875,-28.3203125,0.0
68.7734375,-40.0390625,-33.69140625,-19.53125,-20.99609375,-45.41015625,0.0
68.77734375,-48.33984375,-34.66796875,-24.4140625,-37.59765625,-2.44140625,0.0
68.78125,-50.29296875,-34.1796875,-18.06640625,-24.4140625,54.19921875,0.0
68.78515625,-12.6953125,-28.80859375,-18.5546875,-17.578125,15.13671875,0.0
68.7890625,-8.7890625,-0.9765625,-24.4140625,-31.73828125,-34.66796875,0.0
68.79296875,-42.96875,16.11328125,-26.3671875,-26.3671875,-35.15625,0.0
68.796875,-47.36328125,7.32421875,-27.34375,-22.4609375,-49.8046875,0.0
68.80078125,-42.96875,1.46484375,-25.390625,-23.92578125,-85.44921875,0.0
68.8046875,-35.64453125,-1.46484375,-29.296875,-20.5078125,-165.0390625,0.0
68.80859375,-38.57421875,4.39453125,-30.2734375,-22.4609375,-215.33203125,0.0
68.8125,-39.55078125,7.8125,-31.73828125,-24.4140625,-209.47265625,0.0
68.81640625,-34.66796875,6.34765625,-31.73828125,-23.92578125,-72.265625,0.0
68.8203125,-28.80859375,18.06640625,-20.01953125,-19.04296875,18.5546875,0.0
68.82421875,-27.83203125,22.4609375,-22.4609375,-25.87890625,51.7578125,0.0
68.828125,-26.85546875,2.44140625,-31.25,-31.25,88.37890625,0.0
68.83203125,-45.41015625,-5.37109375,-41.50390625,-47.36328125,52.24609375,0.0
68.8359375,-69.3359375,7.8125,-39.0625,-66.40625,2.44140625,0.0
68.83984375,-41.50390625,12.6953125,-38.0859375,-45.41015625,-40.52734375,0.0
68.84375,-29.296875,0.9765625,-37.59765625,-26.85546875,-2.44140625,0.0
68.84765625,-16.6015625,-9.765625,-19.04296875,-15.625,27.83203125,0.0
68.8515625,-20.01953125,3.41796875,-12.6953125,-26.3671875,12.20703125,0.0
68.85546875,-59.08203125,4.8828125,-27.83203125,-59.5703125,22.4609375,0.0
68.859375,-92.28515625,-8.7890625,-72.265625,-97.16796875,-3.90625,0.0
68.86328125,-67.87109375,-7.8125,-36.62109375,-79.58984375,-97.16796875,0.0
68.8671875,-20.5078125,-8.30078125,10.7421875,-32.2265625,-80.078125,0.0
68.87109375,-26.85546875,-6.8359375,5.859375,-43.9453125,27.83203125,0.0
68.875,-44.921875,-3.90625,0.9765625,-68.359375,8.7890625,0.0
68.87890625,-50.78125,5.37109375,-0.9765625,-73.2421875,2.44140625,0.0
68.8828125,-41.9921875,6.8359375,-2.44140625,-57.6171875,-106.4453125,0.0
68.88671875,-43.45703125,-11.71875,-6.34765625,-53.22265625,-151.85546875,0.0
68.890625,-70.80078125,-25.87890625,-12.6953125,-92.28515625,17.08984375,0.0
68.89453125,-63.4765625,-31.25,-2.9296875,-84.47265625,-1.953125,0.0
68.8984375,-34.1796875,-28.80859375,13.18359375,-57.12890625,-95.703125,0.0
68.90234375,-43.45703125,-25.87890625,0.0,-69.3359375,-22.94921875,0.0
68.90625,-56.640625,-36.62109375,-10.7421875,-85.44921875,13.18359375,0.0
68.91015625,-64.453125,-48.33984375,-22.94921875,-95.21484375,-70.3125,0.0
68.9140625,-73.2421875,-63.4765625,-33.203125,-84.47265625,-67.3828125,0.0
68.91796875,-58.10546875,-78.125,-8.7890625,-72.75390625,41.50390625,0.0
68.921875,-54.19921875,-74.21875,11.71875,-74.21875,134.765625,0.0
68.92578125,-66.40625,-69.82421875,-3.90625,-86.42578125,142.08984375,0.0
68.9296875,-71.2890625,-65.91796875,-16.11328125,-106.93359375,49.31640625,0.0
68.93359375,-71.2890625,-70.3125,-14.6484375,-106.4453125,-46.875,0.0
68.9375,-83.984375,-77.1484375,-13.671875,-93.26171875,-36.1328125,0.0
68.94140625,-97.16796875,-80.56640625,-23.4375,-116.2109375,-26.3671875,0.0
68.9453125,-85.44921875,-80.56640625,-16.6015625,-115.72265625,-61.03515625,0.0
68.94921875,-92.28515625,-85.44921875,-11.71875,-107.421875,-102.5390625,0.0
68.953125,-106.93359375,-87.890625,-18.06640625,-122.0703125,-10.7421875,0.0
68.95703125,-103.515625,-89.84375,-15.625,-119.140625,75.1953125,0.0
68.9609375,-106.4453125,-89.84375,-30.76171875,-126.46484375,4.8828125,0.0
68.96484375,-127.44140625,-83.0078125,-53.22265625,-140.625,13.671875,0.0
68.96875,-134.765625,-85.9375,-43.45703125,-133.30078125,-30.2734375,0.0
68.97265625,-133.7890625,-88.8671875,-38.0859375,-136.23046875,-58.10546875,0.0
68.9765625,-139.16015625,-88.37890625,-45.41015625,-154.296875,-43.9453125,0.0
68.98046875,-141.6015625,-83.0078125,-45.41015625,-140.625,-73.73046875,0.0
68.984375,-139.6484375,-79.58984375,-47.8515625,-130.859375,-23.92578125,0.0
68.98828125,-122.55859375,-94.7265625,-44.921875,-141.6015625,-28.3203125,0.0
68.9921875,-120.60546875,-105.95703125,-41.9921875,-142.08984375,-51.7578125,0.0
68.99609375,-144.53125,-104.4921875,-47.36328125,-144.53125,-29.78515625,0.0
69.0,-152.83203125,-82.51953125,-53.22265625,-146.97265625,-41.9921875,0.0
69.00390625,-141.11328125,-72.265625,-56.640625,-134.27734375,-29.78515625,0.0
69.0078125,-133.7890625,-77.63671875,-68.84765625,-130.37109375,-11.71875,0.0
69.01171875,-115.72265625,-75.68359375,-64.453125,-114.2578125,-11.71875,0.0
69.015625,-98.6328125,-70.3125,-40.52734375,-97.65625,-31.25,0.0
69.01953125,-96.19140625,-65.91796875,-36.62109375,-124.51171875,-50.29296875,0.0
69.0234375,-106.93359375,-47.8515625,-37.59765625,-114.74609375,-74.70703125,0.0
69.02734375,-114.74609375,-41.50390625,-36.62109375,-98.6328125,-28.80859375,0.0
69.03125,-126.46484375,-61.5234375,-38.57421875,-117.1875,8.30078125,0.0
69.03515625,-150.87890625,-68.84765625,-49.31640625,-126.46484375,-34.66796875,0.0
69.0390625,-153.3203125,-60.546875,-47.36328125,-122.55859375,17.08984375,0.0
69.04296875,-136.23046875,-44.921875,-43.9453125,-122.0703125,44.921875,0.0
69.046875,-118.1640625,-37.109375,-45.8984375,-98.6328125,29.296875,0.0
69.05078125,-117.1875,-58.59375,-42.48046875,-90.33203125,0.9765625,0.0
69.0546875,-131.34765625,-72.75390625,-42.96875,-106.93359375,-41.50390625,0.0
69.05859375,-125.0,-54.6875,-36.1328125,-93.75,-49.31640625,0.0
69.0625,-123.53515625,-39.55078125,-34.66796875,-85.44921875,43.45703125,0.0
69.06640625,-128.90625,-52.24609375,-37.109375,-73.73046875,15.13671875,0.0
69.0703125,-125.9765625,-45.41015625,-40.0390625,-82.51953125,-74.21875,0.0
69.07421875,-126.46484375,-33.69140625,-50.29296875,-111.81640625,21.484375,0.0
69.078125,-112.79296875,-55.6640625,-45.8984375,-84.47265625,0.9765625,0.0
69.08203125,-104.98046875,-49.31640625,-36.1328125,-66.40625,3.90625,0.0
69.0859375,-112.79296875,-42.48046875,-33.203125,-98.6328125,88.37890625,0.0
69.08984375,-121.09375,-54.6875,-32.2265625,-98.14453125,42.96875,0.0
69.09375,-133.7890625,-56.15234375,-47.36328125,-91.796875,-16.6015625,0.0
69.09765625,-135.25390625,-54.6875,-64.453125,-105.95703125,-31.25,0.0
69.1015625,-104.00390625,-44.43359375,-60.546875,-86.42578125,-59.5703125,0.0
69.10546875,-94.23828125,-37.59765625,-54.6875,-63.96484375,-93.75,0.0
69.109375,-89.35546875,-41.9921875,-52.734375,-61.5234375,-101.07421875,0.0
69.11328125,-84.9609375,-51.7578125,-54.19921875,-67.3828125,-97.65625,0.0
69.1171875,-80.078125,-25.87890625,-37.109375,-53.22265625,-57.6171875,0.0
69.12109375,-68.359375,-7.32421875,-21.97265625,-33.203125,-64.94140625,0.0
69.125,-73.2421875,-25.87890625,-27.83203125,-42.96875,-88.8671875,0.0
69.12890625,-88.8671875,-34.1796875,-31.73828125,-72.75390625,-54.19921875,0.0
69.1328125,-90.8203125,-36.1328125,-30.76171875,-73.73046875,-23.4375,0.0
69.13671875,-59.08203125,-35.15625,-22.94921875,-59.08203125,-39.55078125,0.0
69.140625,-52.24609375,-27.83203125,-24.90234375,-53.22265625,-17.08984375,0.0
69.14453125,-74.70703125,-16.11328125,-30.2734375,-51.7578125,30.76171875,0.0
69.1484375,-86.9140625,-27.34375,-32.2265625,-49.31640625,-50.29296875,0.0
69.15234375,-87.40234375,-45.41015625,-30.76171875,-35.64453125,-60.546875,0.0
69.15625,-83.984375,-40.0390625,-24.90234375,-35.15625,27.83203125,0.0
69.16015625,-90.33203125,-37.109375,-30.2734375,-61.5234375,-34.66796875,0.0
69.1640625,-82.03125,-23.4375,-34.66796875,-59.08203125,-53.22265625,0.0
69.16796875,-63.4765625,-20.99609375,-30.2734375,-35.15625,42.96875,0.0
69.171875,-66.40625,-30.2734375,-37.109375,-41.50390625,42.96875,0.0
69.17578125,-86.42578125,-47.8515625,-43.9453125,-49.8046875,-8.30078125,0.0
69.1796875,-97.65625,-47.36328125,-38.57421875,-43.9453125,-11.23046875,0.0
69.18359375,-66.89453125,-30.2734375,-39.55078125,-37.109375,-63.4765625,0.0
69.1875,-61.5234375,-35.15625,-46.38671875,-24.4140625,-102.05078125,0.0
69.19140625,-99.609375,-46.875,-47.36328125,-28.80859375,-47.36328125,0.0
69.1953125,-109.375,-50.29296875,-50.78125,-55.17578125,-19.04296875,0.0
69.19921875,-110.83984375,-41.015625,-48.828125,-57.12890625,-55.6640625,0.0
69.203125,-98.14453125,-29.296875,-41.9921875,-42.96875,5.859375,0.0
69.20703125,-81.54296875,-29.78515625,-49.8046875,-35.15625,90.33203125,0.0
69.2109375,-90.33203125,-24.90234375,-59.08203125,-42.96875,110.83984375,0.0
69.21484375,-91.796875,-23.92578125,-58.10546875,-42.96875,47.8515625,0.0
69.21875,-86.9140625,-38.57421875,-56.15234375,-15.13671875,-11.23046875,0.0
69.22265625,-83.0078125,-47.36328125,-50.29296875,-15.625,-40.52734375,0.0
69.2265625,-73.73046875,-40.52734375,-37.59765625,-27.34375,-62.5,0.0
69.23046875,-71.2890625,-37.59765625,-46.875,-23.4375,-83.984375,0.0
69.234375,-84.47265625,-33.69140625,-66.89453125,-37.59765625,-1.953125,0.0
69.23828125,-99.12109375,-35.15625,-62.98828125,-40.52734375,-21.484375,0.0
69.2421875,-91.796875,-30.76171875,-59.5703125,-44.43359375,-151.3671875,0.0
69.24609375,-71.2890625,-18.06640625,-46.875,-35.15625,-97.65625,0.0
69.25,-74.21875,-28.3203125,12.6953125,-10.25390625,-108.88671875,0.0
69.25390625,-86.9140625,-30.2734375,46.875,0.48828125,-79.1015625,0.0
69.2578125,-88.37890625,-29.296875,39.55078125,-21.484375,-76.171875,0.0
69.26171875,-80.56640625,-32.2265625,39.0625,-21.484375,-82.03125,0.0
69.265625,-69.3359375,-15.625,33.203125,-1.953125,56.640625,0.0
69.26953125,-73.2421875,-10.7421875,26.3671875,3.41796875,54.19921875,0.0
69.2734375,-82.03125,-38.0859375,29.78515625,-2.44140625,0.9765625,0.0
69.27734375,-96.19140625,-62.5,14.16015625,-25.87890625,-42.48046875,0.0
69.28125,-87.40234375,-38.0859375,9.27734375,-17.578125,17.578125,0.0
69.28515625,-74.70703125,-23.92578125,7.8125,0.0,61.5234375,0.0
69.2890625,-78.61328125,-34.1796875,-0.9765625,-11.23046875,21.97265625,0.0
69.29296875,-81.54296875,-37.59765625,-1.46484375,-29.78515625,19.04296875,0.0
69.296875,-94.23828125,-31.73828125,1.46484375,-25.390625,16.6015625,0.0
69.30078125,-91.30859375,-19.53125,-1.46484375,-19.53125,-25.87890625,0.0
69.3046875,-82.51953125,-17.578125,-7.32421875,-21.484375,-66.40625,0.0
69.30859375,-85.9375,-30.76171875,-15.13671875,-10.7421875,-60.546875,0.0
69.3125,-84.9609375,-29.78515625,-14.6484375,-14.6484375,-55.17578125,0.0
69.31640625,-88.37890625,-36.62109375,-5.37109375,-37.59765625,-51.26953125,0.0
69.3203125,-84.47265625,-67.3828125,-4.8828125,-31.25,-31.73828125,0.0
69.32421875,-68.359375,-87.40234375,-4.39453125,-3.41796875,-40.52734375,0.0
69.328125,-44.43359375,-61.5234375,9.27734375,1.953125,-82.51953125,0.0
69.33203125,-36.1328125,-17.08984375,18.06640625,3.41796875,-103.515625,0.0
69.3359375,-60.546875,-3.41796875,13.671875,-15.13671875,-68.84765625,0.0
69.33984375,-81.54296875,-2.44140625,-1.46484375,-45.41015625,-53.7109375,0.0
69.34375,-99.12109375,-7.32421875,-41.9921875,-56.640625,-43.9453125,0.0
69.34765625,-107.421875,-25.87890625,-20.5078125,-52.734375,-63.96484375,0.0
69.3515625,-125.9765625,-28.3203125,-0.48828125,-89.84375,-105.46875,0.0
69.35546875,-146.484375,-22.4609375,-24.90234375,-148.4375,-78.61328125,0.0
69.359375,-194.82421875,-21.97265625,-21.97265625,-187.01171875,-23.92578125,0.0
69.36328125,-251.46484375,-27.83203125,-22.4609375,-211.42578125,33.69140625,0.0
69.3671875,-292.48046875,-20.5078125,-46.38671875,-262.6953125,59.5703125,0.0
69.37109375,-328.125,-39.0625,-62.5,-307.12890625,19.53125,0.0
69.375,-353.515625,-94.23828125,-65.4296875,-326.66015625,30.2734375,0.0
69.37890625,-386.23046875,-77.1484375,-72.75390625,-361.81640625,45.41015625,0.0
69.3828125,-404.296875,-22.94921875,-76.66015625,-391.11328125,35.15625,0.0
69.38671875,-397.4609375,-4.8828125,-72.75390625,-376.46484375,-20.01953125,0.0
69.390625,-404.78515625,12.20703125,-71.77734375,-366.69921875,-73.73046875,0.0
69.39453125,-377.9296875,1.46484375,-90.33203125,-362.3046875,-28.3203125,0.0
69.3984375,-345.21484375,-5.37109375,-92.7734375,-336.9140625,-42.48046875,0.0
69.40234375,-295.8984375,-8.30078125,-70.80078125,-296.875,-43.45703125,0.0
69.40625,-254.8828125,-25.87890625,-61.5234375,-250.48828125,-71.77734375,0.0
69.41015625,-258.7890625,-25.87890625,-67.3828125,-226.5625,-46.875,0.0
69.4140625,-210.9375,-34.1796875,-65.4296875,-181.640625,-39.55078125,0.0
69.41796875,-160.15625,-25.390625,-64.453125,-132.8125,-53.7109375,0.0
69.421875,-121.09375,-4.39453125,-63.4765625,-87.40234375,0.0,0.0
69.42578125,-82.51953125,-12.20703125,-53.7109375,-53.22265625,-28.3203125,0.0
69.4296875,-47.36328125,-18.5546875,-52.734375,-30.2734375,-20.5078125,0.0
69.43359375,-17.08984375,-8.7890625,-49.8046875,5.859375,6.34765625,0.0
69.4375,0.48828125,-20.5078125,-32.71484375,37.109375,10.25390625,0.0
69.44140625,14.16015625,-41.50390625,-26.85546875,48.33984375,30.76171875,0.0
69.4453125,42.48046875,-31.73828125,-28.80859375,76.171875,-13.671875,0.0
69.44921875,76.171875,-31.25,-20.01953125,114.2578125,15.13671875,0.0
69.453125,86.9140625,-40.0390625,-14.6484375,114.74609375,-7.8125,0.0
69.45703125,80.56640625,-47.36328125,-16.11328125,105.46875,-61.03515625,0.0
69.4609375,87.40234375,-53.22265625,-12.20703125,110.83984375,34.66796875,0.0
69.46484375,86.9140625,-50.78125,-12.20703125,111.81640625,5.859375,0.0
69.46875,95.703125,-48.33984375,-12.6953125,109.375,-27.83203125,0.0
69.47265625,101.07421875,-41.50390625,-7.32421875,102.5390625,23.4375,0.0
69.4765625,91.796875,-39.0625,-14.16015625,103.515625,6.8359375,0.0
69.48046875,101.07421875,-37.59765625,-12.6953125,105.95703125,25.390625,0.0
69.484375,104.4921875,-41.9921875,-10.7421875,98.14453125,58.59375,0.0
69.48828125,98.6328125,-49.31640625,-13.671875,110.3515625,18.5546875,0.0
69.4921875,100.09765625,-31.25,-13.671875,97.16796875,26.85546875,0.0
69.49609375,95.703125,-35.15625,-14.6484375,85.44921875,46.875,0.0
69.5,87.890625,-46.875,-18.5546875,82.03125,-31.25,0.0
69.50390625,86.9140625,-38.0859375,-22.94921875,82.51953125,-16.6015625,0.0
69.5078125,92.28515625,-36.62109375,-17.578125,77.63671875,0.0,0.0
69.51171875,92.28515625,-40.52734375,-14.6484375,62.5,-41.9921875,0.0
69.515625,70.80078125,-37.59765625,-22.94921875,54.19921875,39.55078125,0.0
69.51953125,64.94140625,-42.96875,-15.625,64.94140625,63.96484375,0.0
69.5234375,77.1484375,-44.921875,-10.7421875,66.40625,49.8046875,0.0
69.52734375,77.63671875,-43.9453125,-14.16015625,56.640625,14.6484375,0.0
69.53125,73.2421875,-51.26953125,-19.53125,64.94140625,-75.68359375,0.0
69.53515625,57.6171875,-43.45703125,-20.99609375,49.31640625,-24.90234375,0.0
69.5390625,48.33984375,-28.80859375,-18.5546875,48.33984375,-21.97265625,0.0
69.54296875,43.9453125,-28.3203125,-16.11328125,55.17578125,-88.8671875,0.0
69.546875,49.8046875,-34.66796875,-16.11328125,43.9453125,-101.07421875,0.0
69.55078125,58.59375,-29.296875,-18.5546875,37.59765625,-39.0625,0.0
69.5546875,60.05859375,-23.4375,-8.30078125,39.55078125,23.4375,0.0
69.55859375,52.24609375,-16.6015625,-2.44140625,53.7109375,-7.32421875,0.0
69.5625,41.50390625,-10.25390625,-19.53125,40.0390625,38.0859375,0.0
69.56640625,46.38671875,-13.671875,-26.3671875,20.99609375,58.59375,0.0
69.5703125,41.015625,-56.15234375,-25.390625,24.4140625,-16.11328125,0.0
69.57421875,28.3203125,-89.35546875,-29.296875,11.23046875,-108.3984375,0.0
69.578125,17.578125,-73.73046875,-25.87890625,9.27734375,-85.9375,0.0
69.58203125,22.4609375,-51.26953125,-23.92578125,16.11328125,-68.359375,0.0
69.5859375,35.64453125,-60.546875,-25.390625,6.8359375,-56.640625,0.0
69.58984375,24.90234375,-20.5078125,-18.5546875,5.37109375,10.25390625,0.0
69.59375,9.27734375,3.41796875,-24.4140625,-4.8828125,-19.04296875,0.0
69.59765625,11.71875,-143.06640625,-25.390625,-11.23046875,-6.8359375,0.0
69.6015625,23.4375,-221.19140625,-9.765625,1.46484375,4.8828125,0.0
69.60546875,27.83203125,-130.859375,-13.671875,-2.44140625,-19.04296875,0.0
69.609375,31.25,-9.27734375,-20.99609375,-11.71875,7.32421875,0.0
69.61328125,11.71875,45.41015625,-14.6484375,-1.953125,3.41796875,0.0
69.6171875,1.953125,18.06640625,-12.6953125,-4.39453125,-93.26171875,0.0
69.62109375,3.90625,-161.1328125,-17.08984375,-15.13671875,-66.40625,0.0
69.625,14.16015625,-235.3515625,-18.06640625,-0.9765625,-1.953125,0.0
69.62890625,16.6015625,-97.65625,-20.01953125,-11.71875,-57.6171875,0.0
69.6328125,6.8359375,68.84765625,-28.80859375,-29.78515625,-49.8046875,0.0
69.63671875,10.25390625,-43.45703125,-34.66796875,-21.97265625,-26.85546875,0.0
69.640625,10.7421875,-249.51171875,-30.2734375,-11.23046875,-26.3671875,0.0
69.64453125,15.13671875,-179.19921875,-17.578125,-11.71875,21.97265625,0.0
69.6484375,16.6015625,-67.3828125,-11.71875,-1.953125,4.8828125,0.0
69.65234375,7.32421875,-149.4140625,-25.87890625,-3.41796875,-29.296875,0.0
69.65625,0.0,-215.8203125,-35.64453125,-18.06640625,-1.953125,0.0
69.66015625,-4.8828125,-279.296875,-25.390625,-10.25390625,-12.20703125,0.0
69.6640625,-0.9765625,-383.30078125,-20.01953125,-8.30078125,-38.0859375,0.0
69.66796875,3.90625,-223.14453125,-23.4375,-23.4375,-62.01171875,0.0
69.671875,0.9765625,-65.4296875,-17.08984375,-33.203125,-42.48046875,0.0
69.67578125,-8.30078125,-118.1640625,-12.6953125,-23.92578125,-33.69140625,0.0
69.6796875,-9.765625,-221.19140625,-14.16015625,-28.3203125,-44.43359375,0.0
69.68359375,7.32421875,-175.29296875,-19.53125,-35.64453125,-45.8984375,0.0
69.6875,12.6953125,-312.5,-23.4375,-23.92578125,-36.62109375,0.0
69.69140625,10.25390625,-318.359375,-21.484375,-23.92578125,-73.2421875,0.0
69.6953125,-1.953125,-20.01953125,-30.76171875,-30.76171875,-96.19140625,0.0
69.69921875,-15.13671875,-61.03515625,-28.80859375,-32.71484375,-106.4453125,0.0
69.703125,-6.34765625,-0.9765625,-18.5546875,-27.83203125,-158.69140625,0.0
69.70703125,-2.9296875,96.19140625,-16.11328125,-13.671875,-115.234375,0.0
69.7109375,-6.34765625,10.7421875,-15.13671875,-18.5546875,-62.5,0.0
69.71484375,0.48828125,-140.625,-15.13671875,-29.78515625,-82.03125,0.0
69.71875,-7.32421875,-156.73828125,-13.671875,-31.25,-68.359375,0.0
69.72265625,-30.76171875,-35.15625,-11.23046875,-30.2734375,-31.25,0.0
69.7265625,-21.484375,-39.0625,-11.23046875,-27.83203125,-62.98828125,0.0
69.73046875,-9.765625,72.265625,-11.71875,-23.4375,-54.19921875,0.0
69.734375,-14.6484375,194.3359375,-4.8828125,-27.34375,-93.75,0.0
69.73828125,-20.99609375,33.69140625,-2.9296875,-32.71484375,-108.3984375,0.0
69.7421875,-22.94921875,-217.28515625,-15.13671875,-35.64453125,38.57421875,0.0
69.74609375,-13.671875,-57.12890625,-16.11328125,-20.99609375,41.015625,0.0
69.75,-5.37109375,133.30078125,-12.6953125,-3.41796875,-21.484375,0.0
69.75390625,-8.30078125,100.09765625,-16.11328125,-16.6015625,8.30078125,0.0
69.7578125,-15.625,101.5625,-13.18359375,-22.4609375,13.671875,0.0
69.76171875,-10.7421875,29.78515625,-9.27734375,-13.671875,9.27734375,0.0
69.765625,-11.71875,7.8125,-17.08984375,-22.94921875,-36.1328125,0.0
69.76953125,-15.625,-47.8515625,-22.4609375,-28.3203125,-98.6328125,0.0
69.7734375,-14.6484375,-177.734375,-27.34375,-23.92578125,-142.578125,0.0
69.77734375,-12.6953125,12.6953125,-29.78515625,-20.01953125,-56.15234375,0.0
69.78125,-3.41796875,84.9609375,-20.99609375,-16.6015625,6.8359375,0.0
69.78515625,-8.7890625,30.76171875,-25.87890625,-19.04296875,-71.2890625,0.0
69.7890625,-8.7890625,-34.1796875,-27.83203125,-21.97265625,-39.0625,0.0
69.79296875,-0.48828125,-6.34765625,-22.94921875,-18.5546875,13.671875,0.0
69.796875,-12.20703125,176.26953125,-26.3671875,-22.4609375,19.04296875,0.0
69.80078125,-21.97265625,119.62890625,-24.90234375,-29.296875,26.85546875,0.0
69.8046875,-11.23046875,-63.4765625,-26.85546875,-32.71484375,50.78125,0.0
69.80859375,-6.34765625,-69.82421875,-27.83203125,-18.5546875,47.8515625,0.0
69.8125,-9.765625,-0.48828125,-24.4140625,-25.390625,-4.8828125,0.0
69.81640625,-12.6953125,-9.765625,-24.90234375,-52.24609375,31.25,0.0
69.8203125,-10.7421875,104.98046875,-22.94921875,-46.38671875,-9.765625,0.0
69.82421875,1.953125,147.4609375,-13.18359375,-21.484375,-104.98046875,0.0
69.828125,5.859375,168.9453125,-17.578125,-15.13671875,-113.28125,0.0
69.83203125,-5.859375,364.2578125,-36.1328125,-41.015625,-43.9453125,0.0
69.8359375,-14.6484375,542.48046875,-35.15625,-45.8984375,4.39453125,0.0
69.83984375,-2.9296875,612.3046875,-25.87890625,-37.59765625,48.828125,0.0
69.84375,4.8828125,723.6328125,-31.73828125,-35.15625,21.484375,0.0
69.84765625,-6.34765625,814.94140625,-35.15625,-40.0390625,0.48828125,0.0
69.8515625,-13.671875,762.6953125,-35.15625,-49.8046875,64.94140625,0.0
69.85546875,-23.92578125,700.68359375,-37.59765625,-40.0390625,70.80078125,0.0
69.859375,-37.59765625,769.04296875,-36.62109375,-47.36328125,12.20703125,0.0
69.86328125,-26.85546875,880.37109375,-36.1328125,-45.8984375,-43.9453125,0.0
69.8671875,-10.7421875,894.04296875,-31.25,-36.62109375,-16.6015625,0.0
69.87109375,-8.30078125,841.30859375,-27.34375,-40.52734375,11.71875,0.0
69.875,-20.01953125,805.17578125,-35.64453125,-41.50390625,0.0,0.0
69.87890625,-23.4375,768.06640625,-35.15625,-41.015625,-16.11328125,0.0
69.8828125,-13.671875,604.4921875,-21.97265625,-27.34375,-73.2421875,0.0
69.88671875,-13.671875,496.09375,-19.53125,-17.578125,-143.06640625,0.0
69.890625,-3.90625,512.6953125,-29.296875,-31.73828125,-99.609375,0.0
69.89453125,-3.90625,521.97265625,-33.203125,-42.48046875,7.32421875,0.0
69.8984375,-23.92578125,486.328125,-35.15625,-43.9453125,23.4375,0.0
69.90234375,-19.53125,352.5390625,-37.59765625,-41.9921875,-31.25,0.0
69.90625,-4.8828125,304.19921875,-35.64453125,-38.57421875,10.25390625,0.0
69.91015625,0.9765625,324.21875,-36.62109375,-34.66796875,6.8359375,0.0
69.9140625,-8.7890625,235.83984375,-37.109375,-43.9453125,-3.41796875,0.0
69.91796875,-19.53125,152.83203125,-39.55078125,-44.43359375,41.50390625,0.0
69.921875,-14.6484375,203.61328125,-37.59765625,-44.43359375,-4.8828125,0.0
69.92578125,-8.30078125,142.08984375,-33.69140625,-42.96875,-39.55078125,0.0
69.9296875,-9.765625,162.59765625,-32.71484375,-33.69140625,-30.76171875,0.0
69.93359375,-12.6953125,246.58203125,-31.73828125,-42.96875,-34.66796875,0.0
69.9375,-23.92578125,165.52734375,-46.875,-54.6875,20.01953125,0.0
69.94140625,-20.99609375,149.4140625,-44.921875,-49.8046875,31.73828125,0.0
69.9453125,-5.37109375,175.29296875,-30.76171875,-34.1796875,-39.55078125,0.0
69.94921875,-8.7890625,82.51953125,-34.1796875,-32.71484375,-74.21875,0.0
69.953125,-16.6015625,-1.953125,-30.76171875,-31.73828125,-64.453125,0.0
69.95703125,-20.01953125,-11.23046875,-21.97265625,-26.3671875,-52.734375,0.0
69.9609375,-18.5546875,-1.46484375,-20.5078125,-43.45703125,-123.046875,0.0
69.96484375,-20.01953125,-4.39453125,-20.5078125,-51.26953125,-132.8125,0.0
69.96875,-16.11328125,-11.71875,-20.99609375,-38.57421875,-58.10546875,0.0
69.97265625,-13.671875,-17.578125,-15.625,-29.296875,-48.828125,0.0
69.9765625,-15.13671875,-16.6015625,-13.671875,-38.57421875,-32.2265625,0.0
69.98046875,-26.85546875,-10.25390625,-26.3671875,-43.9453125,-61.5234375,0.0
69.984375,-31.73828125,-34.66796875,-27.83203125,-27.83203125,-40.0390625,0.0
69.98828125,-12.20703125,-67.87109375,-24.4140625,-30.76171875,0.0,0.0
69.9921875,-12.6953125,-20.99609375,-21.484375,-39.0625,3.41796875,0.0
69.99609375,-31.73828125,22.4609375,-23.4375,-45.41015625,85.9375,0.0
70.0,-32.2265625,-5.37109375,-25.390625,-48.33984375,108.3984375,0.0
70.00390625,-15.13671875,-31.25,-16.11328125,-31.25,3.41796875,0.0
70.0078125,0.0,-14.16015625,-15.13671875,-25.87890625,-40.0390625,0.0
70.01171875,-3.41796875,10.25390625,-16.11328125,-27.83203125,-1.46484375,0.0
70.015625,-22.94921875,24.4140625,-18.5546875,-33.203125,27.34375,0.0
70.01953125,-20.5078125,16.11328125,-14.6484375,-31.73828125,0.0,0.0
70.0234375,-5.859375,10.7421875,-4.39453125,-22.4609375,-71.77734375,0.0
70.02734375,-6.34765625,25.87890625,-17.08984375,-20.5078125,-14.16015625,0.0
70.03125,-19.53125,23.4375,-23.92578125,-20.01953125,-61.5234375,0.0
70.03515625,-24.4140625,-8.30078125,-19.53125,-36.1328125,-165.0390625,0.0
70.0390625,-26.85546875,-11.71875,-20.01953125,-39.55078125,-36.62109375,0.0
70.04296875,-21.484375,6.8359375,-19.53125,-21.97265625,-5.37109375,0.0
70.046875,-8.7890625,-9.27734375,-22.4609375,-17.08984375,-94.23828125,0.0
70.05078125,-17.578125,-11.23046875,-27.34375,-23.4375,-90.33203125,0.0
70.0546875,-25.87890625,13.671875,-31.25,-28.80859375,-43.45703125,0.0
70.05859375,-30.2734375,9.765625,-32.71484375,-28.80859375,9.27734375,0.0
70.0625,-33.69140625,-39.0625,-24.4140625,-21.484375,45.41015625,0.0
70.06640625,-20.99609375,-70.80078125,-10.25390625,-15.13671875,-13.671875,0.0
70.0703125,-13.671875,-26.3671875,-21.97265625,-20.01953125,-118.1640625,0.0
70.07421875,-12.6953125,30.76171875,-25.87890625,-23.4375,-42.96875,0.0
70.078125,-22.4609375,84.9609375,-20.01953125,-30.76171875,9.765625,0.0
70.08203125,-31.73828125,92.28515625,-24.90234375,-27.34375,-48.33984375,0.0
70.0859375,-24.90234375,59.5703125,-28.80859375,-24.4140625,-80.078125,0.0
70.08984375,-12.20703125,48.33984375,-31.73828125,-30.2734375,-90.8203125,0.0
70.09375,-20.99609375,54.6875,-33.69140625,-24.90234375,-93.75,0.0
70.09765625,-35.15625,50.78125,-33.69140625,-33.69140625,-85.9375,0.0
70.1015625,-41.015625,60.546875,-30.2734375,-36.62109375,-77.1484375,0.0
70.10546875,-30.2734375,61.5234375,-25.390625,-25.390625,-95.21484375,0.0
70.109375,-19.53125,34.66796875,-25.390625,-22.94921875,-103.515625,0.0
70.11328125,-20.99609375,19.04296875,-22.4609375,-15.13671875,-80.078125,0.0
70.1171875,-30.76171875,25.390625,-26.3671875,-21.97265625,-40.52734375,0.0
70.12109375,-19.53125,51.7578125,-23.4375,-38.0859375,-35.15625,0.0
70.125,-17.08984375,54.6875,-23.92578125,-35.64453125,-42.48046875,0.0
70.12890625,-18.5546875,30.76171875,-30.2734375,-34.1796875,-18.06640625,0.0
70.1328125,-23.4375,20.5078125,-31.25,-34.1796875,12.6953125,0.0
70.13671875,-39.55078125,18.5546875,-34.66796875,-38.57421875,37.109375,0.0
70.140625,-30.76171875,19.04296875,-31.73828125,-57.12890625,26.85546875,0.0
70.14453125,-21.484375,12.6953125,-32.2265625,-47.8515625,54.6875,0.0
70.1484375,-22.94921875,18.5546875,-35.15625,-30.2734375,44.921875,0.0
70.15234375,-23.92578125,12.20703125,-31.25,-31.25,54.6875,0.0
70.15625,-22.94921875,15.13671875,-33.203125,-29.296875,55.17578125,0.0
70.16015625,-27.83203125,4.8828125,-35.64453125,-28.3203125,6.34765625,0.0
70.1640625,-28.3203125,-10.25390625,-35.64453125,-30.76171875,-73.2421875,0.0
70.16796875,-17.08984375,8.30078125,-30.2734375,-35.64453125,-83.984375,0.0
70.171875,-12.6953125,31.25,-28.3203125,-43.45703125,-20.99609375,0.0
70.17578125,-35.15625,30.2734375,-34.1796875,-49.8046875,10.25390625,0.0
70.1796875,-32.2265625,9.765625,-31.25,-40.52734375,-8.7890625,0.0
70.18359375,-15.625,-2.44140625,-24.90234375,-33.69140625,-4.8828125,0.0
70.1875,-6.8359375,4.8828125,-23.92578125,-27.34375,-5.37109375,0.0
70.19140625,-12.20703125,-2.44140625,-32.2265625,-26.85546875,-46.875,0.0
70.1953125,-27.83203125,-0.9765625,-38.0859375,-37.109375,-41.50390625,0.0
70.19921875,-26.85546875,1.46484375,-26.85546875,-26.3671875,-63.96484375,0.0
70.203125,-18.5546875,-5.859375,-23.4375,-31.25,-49.8046875,0.0
70.20703125,-16.6015625,-8.30078125,-35.15625,-50.29296875,13.18359375,0.0
70.2109375,-3.90625,-10.25390625,-33.203125,-38.57421875,28.3203125,0.0
70.21484375,2.44140625,-45.41015625,-35.15625,-22.94921875,-7.32421875,0.0
70.21875,-21.484375,-44.921875,-35.15625,-38.57421875,-49.8046875,0.0
70.22265625,-43.45703125,2.44140625,-21.97265625,-47.8515625,-6.8359375,0.0
70.2265625,-21.97265625,6.8359375,-16.6015625,-35.15625,-41.50390625,0.0
70.23046875,-14.16015625,-13.18359375,-14.16015625,-35.15625,-45.41015625,0.0
70.234375,-26.85546875,-16.11328125,-20.01953125,-37.59765625,-54.6875,0.0
70.23828125,-15.625,-14.6484375,-29.296875,-29.78515625,-124.51171875,0.0
70.2421875,-6.8359375,9.765625,-25.87890625,-26.85546875,-60.546875,0.0
70.24609375,-11.23046875,9.27734375,-24.90234375,-20.99609375,26.85546875,0.0
70.25,-5.37109375,-3.41796875,-27.83203125,-27.34375,72.75390625,0.0
70.25390625,-9.27734375,-15.625,-26.85546875,-40.52734375,80.56640625,0.0
70.2578125,-19.53125,-24.4140625,-29.78515625,-35.15625,97.16796875,0.0
70.26171875,-16.11328125,-3.41796875,-23.92578125,-37.109375,114.74609375,0.0
70.265625,-19.04296875,-4.8828125,-23.92578125,-48.828125,21.484375,0.0
70.26953125,-15.625,-45.41015625,-30.76171875,-36.1328125,1.46484375,0.0
70.2734375,-12.20703125,-42.96875,-30.2734375,-34.66796875,23.92578125,0.0
70.27734375,-15.625,-21.484375,-29.78515625,-39.0625,-8.7890625,0.0
70.28125,-7.32421875,-11.71875,-31.73828125,-29.296875,69.3359375,0.0
70.28515625,0.48828125,5.859375,-26.3671875,-21.97265625,83.984375,0.0
70.2890625,-10.7421875,-27.34375,-23.92578125,-24.90234375,-18.06640625,0.0
70.29296875,-23.4375,-62.01171875,-24.90234375,-32.71484375,-22.94921875,0.0
70.296875,-37.59765625,-36.62109375,-32.71484375,-42.96875,-19.04296875,0.0
70.30078125,-37.109375,15.13671875,-37.109375,-38.0859375,-31.73828125,0.0
70.3046875,-20.99609375,-22.4609375,-26.85546875,-33.69140625,-80.078125,0.0
70.30859375,-15.13671875,-82.03125,-30.2734375,-25.390625,-75.1953125,0.0
70.3125,-25.390625,-3.41796875,-41.015625,-29.78515625,7.8125,0.0
70.31640625,-46.38671875,24.90234375,-38.0859375,-49.8046875,11.23046875,0.0
70.3203125,-33.203125,-7.32421875,-38.57421875,-46.38671875,5.37109375,0.0
70.32421875,-24.4140625,12.6953125,-35.15625,-35.64453125,-37.109375,0.0
70.328125,-26.85546875,-4.39453125,-32.2265625,-43.9453125,-42.96875,0.0
70.33203125,-26.85546875,-52.24609375,-31.73828125,-42.96875,-51.7578125,0.0
70.3359375,-39.55078125,-70.3125,-24.4140625,-39.0625,-67.87109375,0.0
70.33984375,-45.41015625,-68.84765625,-21.97265625,-34.1796875,-27.83203125,0.0
70.34375,-38.57421875,-43.9453125,-22.94921875,-28.3203125,-31.73828125,0.0
70.34765625,-30.2734375,-38.0859375,-20.01953125,-31.25,-65.91796875,0.0
70.3515625,-28.3203125,-69.82421875,-19.04296875,-19.04296875,-29.78515625,0.0
70.35546875,-44.43359375,-117.1875,-25.87890625,-27.83203125,-15.625,0.0
70.359375,-46.875,-34.1796875,-22.94921875,-34.66796875,-65.4296875,0.0
70.36328125,-42.48046875,56.15234375,-19.04296875,-31.25,-60.546875,0.0
70.3671875,-41.9921875,20.5078125,-25.390625,-33.69140625,-42.96875,0.0
70.37109375,-33.69140625,-2.9296875,-27.34375,-21.484375,12.6953125,0.0
70.375,-34.1796875,-20.99609375,-25.390625,-23.4375,72.265625,0.0
70.37890625,-50.29296875,-48.33984375,-27.34375,-34.1796875,28.80859375,0.0
70.3828125,-47.8515625,-43.45703125,-24.90234375,-36.1328125,-42.48046875,0.0
70.38671875,-33.203125,-21.97265625,-23.4375,-38.0859375,-84.47265625,0.0
70.390625,-35.64453125,-6.8359375,-29.78515625,-32.2265625,-102.5390625,0.0
70.39453125,-26.85546875,-17.08984375,-27.83203125,-36.62109375,-51.7578125,0.0
70.3984375,-28.3203125,-64.453125,-22.94921875,-41.50390625,-52.734375,0.0
70.40234375,-45.41015625,-102.05078125,-26.3671875,-35.64453125,-101.5625,0.0
70.40625,-34.1796875,-70.3125,-34.66796875,-32.71484375,-115.72265625,0.0
70.41015625,-23.4375,-62.5,-36.62109375,-34.1796875,-136.23046875,0.0
70.4140625,-28.80859375,-109.375,-39.0625,-44.43359375,-82.51953125,0.0
70.41796875,-33.69140625,-192.3828125,-36.1328125,-57.12890625,-62.01171875,0.0
70.421875,-26.3671875,-85.44921875,-29.78515625,-44.921875,-113.76953125,0.0
70.42578125,-17.578125,70.3125,-33.69140625,-39.55078125,-54.6875,0.0
70.4296875,-5.37109375,19.04296875,-35.15625,-42.48046875,-0.9765625,0.0
70.43359375,-10.25390625,-16.11328125,-35.64453125,-40.0390625,-49.31640625,0.0
70.4375,-23.4375,-0.48828125,-38.0859375,-52.734375,-61.03515625,0.0
70.44140625,-20.01953125,-23.4375,-27.83203125,-33.69140625,-44.921875,0.0
70.4453125,-15.625,-51.26953125,-28.80859375,-24.90234375,-85.44921875,0.0
70.44921875,-11.23046875,-49.31640625,-31.73828125,-28.3203125,-33.203125,0.0
70.453125,-6.34765625,-36.1328125,-29.296875,-21.484375,-12.6953125,0.0
70.45703125,-14.6484375,-83.984375,-27.34375,-27.83203125,-54.6875,0.0
70.4609375,-20.99609375,-134.765625,-22.94921875,-25.87890625,-47.36328125,0.0
70.46484375,-20.99609375,-130.37109375,-20.99609375,-20.01953125,25.390625,0.0
70.46875,-7.8125,-109.86328125,-18.06640625,-19.53125,67.3828125,0.0
70.47265625,-7.32421875,-98.14453125,-18.06640625,-8.7890625,33.69140625,0.0
70.4765625,-25.390625,-41.015625,-18.5546875,-8.30078125,38.57421875,0.0
70.48046875,-21.97265625,17.578125,-14.16015625,-21.484375,-9.765625,0.0
70.484375,-1.46484375,17.578125,-12.6953125,-23.92578125,-47.36328125,0.0
70.48828125,0.0,-44.921875,-18.5546875,-24.4140625,-60.546875,0.0
70.4921875,-25.390625,-141.11328125,-24.4140625,-34.1796875,-105.46875,0.0
70.49609375,-31.73828125,-87.890625,-23.92578125,-32.71484375,-15.625,0.0
70.5,-34.1796875,25.87890625,-20.99609375,-40.52734375,72.75390625,0.0
70.50390625,-25.390625,63.4765625,-21.484375,-28.3203125,83.49609375,0.0
70.5078125,-12.6953125,57.12890625,-23.4375,-4.8828125,51.26953125,0.0
70.51171875,-18.06640625,30.76171875,-20.99609375,-11.23046875,-19.04296875,0.0
70.515625,-28.80859375,-6.34765625,-23.4375,-27.34375,-5.37109375,0.0
70.51953125,-37.59765625,-147.4609375,-21.97265625,-33.203125,-77.63671875,0.0
70.5234375,-23.4375,-157.71484375,-16.11328125,-32.71484375,-106.93359375,0.0
70.52734375,-7.32421875,-8.30078125,-18.06640625,-32.2265625,3.90625,0.0
70.53125,-9.27734375,45.41015625,-22.94921875,-15.625,-4.39453125,0.0
70.53515625,-22.94921875,-39.55078125,-31.73828125,-18.5546875,-13.671875,0.0
70.5390625,-30.2734375,-161.1328125,-41.50390625,-39.55078125,15.13671875,0.0
70.54296875,-22.4609375,-78.125,-46.38671875,-45.41015625,28.3203125,0.0
70.546875,-11.71875,49.31640625,-43.45703125,-33.203125,20.01953125,0.0
70.55078125,-5.859375,26.85546875,-36.1328125,-20.5078125,-16.11328125,0.0
70.5546875,-13.671875,28.80859375,-33.69140625,-17.08984375,1.953125,0.0
70.55859375,-34.1796875,28.3203125,-25.390625,-20.01953125,14.6484375,0.0
70.5625,-21.484375,-14.6484375,-22.94921875,-18.06640625,16.6015625,0.0
70.56640625,-3.41796875,11.23046875,-28.3203125,-17.578125,22.4609375,0.0
70.5703125,-8.7890625,-8.7890625,-21.484375,-13.18359375,-2.9296875,0.0
70.57421875,-13.18359375,-57.12890625,-16.11328125,-15.13671875,-8.7890625,0.0
70.578125,-14.6484375,-16.11328125,-18.5546875,-20.99609375,-20.01953125,0.0
70.58203125,-20.99609375,-0.9765625,-20.01953125,-20.01953125,-38.57421875,0.0
70.5859375,-20.5078125,-95.21484375,-20.5078125,-23.4375,-37.59765625,0.0
70.58984375,-16.6015625,-156.25,-14.6484375,-17.08984375,-34.1796875,0.0
70.59375,-19.53125,-138.18359375,-10.7421875,-18.5546875,-30.76171875,0.0
70.59765625,-23.4375,-198.2421875,-19.04296875,-31.73828125,-3.90625,0.0
70.6015625,-18.06640625,-154.78515625,-18.06640625,-17.08984375,-30.2734375,0.0
70.60546875,-14.16015625,20.01953125,-16.11328125,-20.01953125,-33.203125,0.0
70.609375,-20.5078125,73.2421875,-21.97265625,-31.73828125,-10.7421875,0.0
70.61328125,-23.4375,77.63671875,-27.34375,-20.5078125,-54.19921875,0.0
70.6171875,-28.80859375,28.80859375,-20.01953125,-28.3203125,-75.68359375,0.0
70.62109375,-28.80859375,-11.71875,-14.16015625,-34.1796875,-114.74609375,0.0
70.625,-30.2734375,-171.875,-20.5078125,-19.53125,-141.6015625,0.0
70.62890625,-28.80859375,-250.48828125,-26.3671875,-20.5078125,-74.70703125,0.0
70.6328125,-29.296875,-75.1953125,-33.203125,-35.15625,-79.1015625,0.0
70.63671875,-34.1796875,-48.33984375,-35.64453125,-35.64453125,-40.52734375,0.0
70.640625,-27.34375,24.90234375,-32.71484375,-31.73828125,-22.4609375,0.0
70.64453125,-21.97265625,86.9140625,-25.87890625,-24.4140625,-60.05859375,0.0
70.6484375,-12.6953125,-18.06640625,-29.78515625,-19.53125,-50.78125,0.0
70.65234375,-22.4609375,-63.96484375,-36.1328125,-29.296875,-21.484375,0.0
70.65625,-42.96875,-82.51953125,-37.59765625,-53.7109375,-3.90625,0.0
70.66015625,-54.6875,-147.94921875,-33.203125,-62.01171875,-52.734375,0.0
70.6640625,-40.0390625,-106.93359375,-28.3203125,-47.8515625,-79.1015625,0.0
70.66796875,-12.20703125,6.34765625,-29.78515625,-31.73828125,-17.578125,0.0
70.671875,-17.08984375,-113.76953125,-37.59765625,-30.76171875,-60.546875,0.0
70.67578125,-41.015625,-229.98046875,-38.57421875,-35.15625,-91.796875,0.0
70.6796875,-41.9921875,43.45703125,-27.83203125,-41.015625,-63.4765625,0.0
70.68359375,-38.0859375,185.546875,-24.90234375,-31.25,-34.66796875,0.0
70.6875,-23.92578125,43.9453125,-30.2734375,-23.4375,45.8984375,0.0
70.69140625,-26.3671875,-22.94921875,-37.59765625,-41.015625,13.671875,0.0
70.6953125,-42.96875,-125.48828125,-41.9921875,-60.546875,-34.66796875,0.0
70.69921875,-28.3203125,-154.296875,-39.55078125,-37.109375,-7.8125,0.0
70.703125,-18.06640625,-105.46875,-31.73828125,-30.76171875,2.44140625,0.0
70.70703125,-32.71484375,-172.8515625,-28.3203125,-52.734375,0.9765625,0.0
70.7109375,-46.875,-114.2578125,-36.1328125,-66.89453125,15.13671875,0.0
70.71484375,-43.9453125,-43.9453125,-37.109375,-59.08203125,-50.29296875,0.0
70.71875,-42.48046875,-99.12109375,-34.66796875,-48.33984375,-111.328125,0.0
70.72265625,-29.78515625,-45.41015625,-29.78515625,-37.109375,-25.87890625,0.0
70.7265625,-16.6015625,23.4375,-27.34375,-20.99609375,29.78515625,0.0
70.73046875,-25.87890625,-17.08984375,-31.25,-23.92578125,-81.0546875,0.0
70.734375,-29.296875,-17.08984375,-32.71484375,-39.55078125,-101.07421875,0.0
70.73828125,-28.3203125,-73.2421875,-33.203125,-50.78125,-17.08984375,0.0
70.7421875,-14.6484375,-92.28515625,-29.78515625,-35.15625,-9.27734375,0.0
70.74609375,-14.6484375,-12.6953125,-21.484375,-22.94921875,-44.921875,0.0
70.75,-9.765625,-3.41796875,-21.484375,-19.04296875,-9.27734375,0.0
70.75390625,-11.71875,-146.97265625,-15.13671875,-20.01953125,-20.01953125,0.0
70.7578125,-30.76171875,-119.62890625,-18.5546875,-46.38671875,-123.046875,0.0
70.76171875,-35.64453125,22.94921875,-30.2734375,-62.5,-110.83984375,0.0
70.765625,-57.12890625,3.90625,-35.64453125,-79.1015625,-45.8984375,0.0
70.76953125,-91.30859375,66.40625,-52.24609375,-102.05078125,-59.08203125,0.0
70.7734375,-114.2578125,62.5,-37.109375,-136.71875,-137.20703125,0.0
70.77734375,-162.59765625,6.34765625,-22.94921875,-182.6171875,-127.44140625,0.0
70.78125,-211.42578125,21.484375,-29.296875,-229.4921875,-28.3203125,0.0
70.78515625,-269.04296875,16.11328125,-29.296875,-302.24609375,11.23046875,0.0
70.7890625,-315.4296875,-35.64453125,-60.05859375,-350.5859375,-16.6015625,0.0
70.79296875,-341.30859375,-40.0390625,-88.37890625,-376.953125,-23.92578125,0.0
70.796875,-391.6015625,-65.4296875,-100.09765625,-426.26953125,-10.7421875,0.0
70.80078125,-396.484375,-125.0,-104.98046875,-433.59375,-61.03515625,0.0
70.8046875,-393.06640625,-12.20703125,-115.234375,-439.94140625,-28.3203125,0.0
70.80859375,-411.1328125,28.3203125,-126.46484375,-452.63671875,30.2734375,0.0
70.8125,-420.41015625,-97.16796875,-125.48828125,-452.63671875,5.859375,0.0
70.81640625,-410.64453125,-30.76171875,-122.55859375,-439.453125,-6.8359375,0.0
70.8203125,-401.85546875,-41.015625,-118.65234375,-423.33984375,28.3203125,0.0
70.82421875,-382.8125,-1.953125,-107.421875,-394.53125,3.90625,0.0
70.828125,-346.19140625,158.203125,-100.5859375,-347.16796875,-24.90234375,0.0
70.83203125,-311.03515625,30.76171875,-102.05078125,-331.0546875,9.27734375,0.0
70.8359375,-275.390625,-26.85546875,-98.6328125,-303.7109375,-32.2265625,0.0
70.83984375,-241.69921875,88.37890625,-85.44921875,-255.37109375,-61.03515625,0.0
70.84375,-195.80078125,52.734375,-82.51953125,-213.8671875,-43.45703125,0.0
70.84765625,-150.390625,-8.30078125,-82.03125,-165.52734375,-21.97265625,0.0
70.8515625,-130.859375,4.39453125,-77.1484375,-131.8359375,-49.31640625,0.0
70.85546875,-93.75,24.90234375,-72.75390625,-97.65625,-149.4140625,0.0
70.859375,-61.5234375,-14.16015625,-60.546875,-60.05859375,-130.859375,0.0
70.86328125,-33.203125,-50.29296875,-45.8984375,-29.78515625,-8.30078125,0.0
70.8671875,2.44140625,5.859375,-36.62109375,3.41796875,46.875,0.0
70.87109375,22.4609375,66.40625,-33.203125,26.3671875,14.16015625,0.0
70.875,36.1328125,94.7265625,-29.78515625,26.85546875,-6.34765625,0.0
70.87890625,59.5703125,62.5,-15.625,53.22265625,-46.38671875,0.0
70.8828125,88.37890625,-42.96875,-0.9765625,92.28515625,-9.765625,0.0
70.88671875,114.74609375,-13.18359375,0.9765625,106.4453125,-24.4140625,0.0
70.890625,136.23046875,92.28515625,-1.46484375,116.2109375,-36.62109375,0.0
70.89453125,128.41796875,62.98828125,-4.8828125,124.51171875,40.52734375,0.0
70.8984375,117.67578125,20.01953125,0.48828125,131.8359375,25.390625,0.0
70.90234375,127.44140625,33.69140625,13.671875,149.90234375,62.01171875,0.0
70.90625,141.6015625,48.33984375,16.11328125,148.92578125,63.4765625,0.0
70.91015625,139.16015625,12.20703125,9.27734375,132.32421875,-17.578125,0.0
70.9140625,123.046875,7.32421875,7.8125,131.8359375,2.9296875,0.0
70.91796875,116.2109375,39.55078125,10.25390625,141.11328125,-18.06640625,0.0
70.921875,115.234375,12.20703125,9.765625,134.27734375,-48.33984375,0.0
70.92578125,126.46484375,-10.25390625,2.9296875,136.71875,-41.50390625,0.0
70.9296875,125.48828125,42.48046875,-5.37109375,135.25390625,-20.99609375,0.0
70.93359375,115.234375,70.80078125,-5.37109375,123.046875,-22.4609375,0.0
70.9375,113.28125,39.0625,0.0,117.67578125,-50.29296875,0.0
70.94140625,108.88671875,32.71484375,2.44140625,114.74609375,-6.34765625,0.0
70.9453125,104.4921875,55.17578125,0.0,112.3046875,39.0625,0.0
70.94921875,104.98046875,69.3359375,-2.44140625,104.00390625,-21.97265625,0.0
70.953125,87.40234375,60.546875,-5.37109375,94.23828125,-84.9609375,0.0
70.95703125,68.84765625,21.484375,-14.16015625,93.26171875,-46.875,0.0
70.9609375,66.40625,24.4140625,-18.06640625,91.796875,51.7578125,0.0
70.96484375,69.3359375,73.2421875,-13.18359375,82.03125,90.8203125,0.0
70.96875,67.87109375,65.91796875,-6.8359375,77.63671875,60.05859375,0.0
70.97265625,69.3359375,64.453125,-5.859375,79.58984375,-75.1953125,0.0
70.9765625,62.98828125,101.07421875,-6.8359375,79.58984375,-110.3515625,0.0
70.98046875,46.875,90.33203125,-9.27734375,66.40625,-80.078125,0.0
70.984375,53.22265625,93.26171875,-9.27734375,56.640625,-46.875,0.0
70.98828125,59.5703125,114.74609375,-12.20703125,61.03515625,-49.31640625,0.0
70.9921875,41.50390625,118.65234375,-13.671875,50.78125,-20.99609375,0.0
70.99609375,29.78515625,131.34765625,-9.27734375,44.921875,40.52734375,0.0
71.0,24.90234375,125.48828125,-8.7890625,39.0625,-44.921875,0.0
71.00390625,23.4375,115.72265625,-6.8359375,39.55078125,0.0,0.0
71.0078125,26.3671875,106.4453125,-5.37109375,51.7578125,-17.08984375,0.0
71.01171875,33.203125,107.91015625,-4.8828125,51.26953125,-64.94140625,0.0
71.015625,26.3671875,110.3515625,-10.25390625,34.66796875,-74.70703125,0.0
71.01953125,10.7421875,93.26171875,-15.13671875,24.90234375,-113.28125,0.0
71.0234375,15.13671875,77.63671875,-18.5546875,33.203125,-83.49609375,0.0
71.02734375,27.34375,64.453125,-23.4375,26.85546875,-83.984375,0.0
71.03125,22.4609375,63.4765625,-23.92578125,15.13671875,-70.3125,0.0
71.03515625,1.953125,64.94140625,-22.4609375,10.7421875,-0.9765625,0.0
71.0390625,-2.9296875,80.56640625,-18.06640625,8.7890625,76.171875,0.0
71.04296875,-5.859375,63.4765625,-18.06640625,20.99609375,64.94140625,0.0
71.046875,-1.46484375,38.0859375,-23.92578125,23.4375,-27.34375,0.0
71.05078125,0.9765625,27.34375,-26.3671875,18.5546875,-35.64453125,0.0
71.0546875,-14.6484375,-5.859375,-26.3671875,9.27734375,-27.34375,0.0
71.05859375,-12.6953125,7.8125,-27.83203125,3.90625,-70.80078125,0.0
71.0625,4.39453125,35.15625,-29.296875,7.32421875,-120.1171875,0.0
71.06640625,0.0,38.0859375,-26.85546875,5.859375,-113.76953125,0.0
71.0703125,-6.8359375,39.0625,-26.3671875,-8.7890625,-38.57421875,0.0
71.07421875,-10.25390625,23.4375,-28.80859375,-11.23046875,-35.64453125,0.0
71.078125,-19.04296875,20.5078125,-29.296875,-13.18359375,-102.5390625,0.0
71.08203125,-16.11328125,33.69140625,-27.83203125,-18.06640625,-117.1875,0.0
71.0859375,3.41796875,41.50390625,-24.4140625,4.8828125,-87.890625,0.0
71.08984375,2.44140625,13.18359375,-27.83203125,10.25390625,-132.32421875,0.0
71.09375,-11.23046875,4.39453125,-33.69140625,-1.46484375,-118.1640625,0.0
71.09765625,-10.25390625,-0.9765625,-34.66796875,0.9765625,-2.9296875,0.0
71.1015625,-12.6953125,-50.29296875,-30.2734375,1.953125,32.2265625,0.0
71.10546875,-12.20703125,-70.80078125,-26.85546875,5.859375,-4.8828125,0.0
71.109375,-15.625,-1.953125,-31.73828125,-1.46484375,16.11328125,0.0
71.11328125,-32.71484375,33.203125,-38.0859375,-10.25390625,48.828125,0.0
71.1171875,-38.0859375,39.0625,-40.0390625,-12.6953125,17.578125,0.0
71.12109375,-22.94921875,57.12890625,-32.2265625,-10.25390625,-48.33984375,0.0
71.125,-10.7421875,47.8515625,-34.1796875,1.953125,-49.8046875,0.0
71.12890625,-10.7421875,52.734375,-39.0625,8.7890625,14.6484375,0.0
71.1328125,-15.13671875,37.109375,-36.1328125,-2.44140625,16.6015625,0.0
71.13671875,-16.11328125,28.3203125,-36.62109375,-15.13671875,-4.8828125,0.0
71.140625,-21.484375,30.2734375,-36.1328125,-8.7890625,-45.8984375,0.0
71.14453125,-24.90234375,24.4140625,-35.15625,-16.11328125,-101.5625,0.0
71.1484375,-14.16015625,-18.5546875,-37.109375,-21.484375,-67.87109375,0.0
71.15234375,-10.7421875,-68.84765625,-40.0390625,-9.27734375,24.4140625,0.0
71.15625,-6.34765625,-4.39453125,-38.57421875,-10.7421875,100.09765625,0.0
71.16015625,-2.9296875,24.4140625,-36.62109375,-8.7890625,-8.30078125,0.0
71.1640625,-3.41796875,46.38671875,-31.73828125,-6.8359375,-53.7109375,0.0
71.16796875,-4.39453125,67.3828125,-32.2265625,-20.99609375,27.34375,0.0
71.171875,-12.20703125,34.1796875,-36.62109375,-20.01953125,-0.48828125,0.0
71.17578125,-18.5546875,-6.34765625,-29.296875,-24.4140625,-10.25390625,0.0
71.1796875,-26.85546875,20.5078125,-21.97265625,-23.4375,-37.59765625,0.0
71.18359375,-33.69140625,76.171875,-24.90234375,-23.92578125,-93.75,0.0
71.1875,-18.5546875,72.75390625,-28.3203125,-15.625,-99.12109375,0.0
71.19140625,-17.578125,28.3203125,-32.2265625,-15.13671875,-34.1796875,0.0
71.1953125,-28.3203125,-60.05859375,-35.64453125,-17.578125,10.7421875,0.0
71.19921875,-24.4140625,-48.828125,-32.2265625,-15.625,-2.44140625,0.0
71.203125,-18.5546875,52.734375,-28.3203125,-20.5078125,-16.6015625,0.0
71.20703125,-9.27734375,62.01171875,-28.3203125,-8.7890625,-2.9296875,0.0
71.2109375,-20.99609375,50.78125,-29.296875,-13.671875,-4.8828125,0.0
71.21484375,-17.578125,30.2734375,-26.3671875,-26.85546875,13.18359375,0.0
71.21875,-12.20703125,-1.46484375,-24.90234375,-26.3671875,101.5625,0.0
71.22265625,-19.53125,-2.44140625,-32.71484375,-17.08984375,37.109375,0.0
71.2265625,-13.18359375,-4.8828125,-38.0859375,-15.13671875,-112.3046875,0.0
71.23046875,-10.25390625,-4.8828125,-37.59765625,-18.06640625,-190.4296875,0.0
71.234375,-17.578125,7.32421875,-36.1328125,-21.484375,-131.8359375,0.0
71.23828125,-35.64453125,1.46484375,-41.50390625,-35.64453125,-126.46484375,0.0
71.2421875,-38.57421875,3.41796875,-42.96875,-43.9453125,-120.60546875,0.0
71.24609375,-28.80859375,0.0,-39.55078125,-32.71484375,-60.05859375,0.0
71.25,-25.390625,-47.8515625,-41.015625,-20.01953125,-67.87109375,0.0
71.25390625,-28.80859375,-55.17578125,-41.50390625,-23.4375,-65.4296875,0.0
71.2578125,-27.83203125,-39.55078125,-40.0390625,-22.4609375,-42.48046875,0.0
71.26171875,-17.08984375,-41.50390625,-37.59765625,-21.484375,-107.421875,0.0
71.265625,-20.5078125,-8.7890625,-36.1328125,-17.08984375,-176.26953125,0.0
71.26953125,-21.484375,34.66796875,-41.015625,-22.94921875,-134.765625,0.0
71.2734375,-24.4140625,62.01171875,-48.33984375,-39.55078125,-96.19140625,0.0
71.27734375,-39.0625,44.43359375,-43.9453125,-42.48046875,-27.83203125,0.0
71.28125,-42.96875,-1.46484375,-38.0859375,-39.0625,-26.3671875,0.0
71.28515625,-24.90234375,-18.06640625,-38.0859375,-38.0859375,-2.9296875,0.0
71.2890625,-29.78515625,-8.7890625,-45.41015625,-38.57421875,52.24609375,0.0
71.29296875,-37.109375,-19.53125,-46.38671875,-42.96875,53.7109375,0.0
71.296875,-33.203125,-20.5078125,-43.45703125,-53.22265625,79.1015625,0.0
71.30078125,-40.52734375,-25.87890625,-44.43359375,-48.828125,73.2421875,0.0
71.3046875,-35.64453125,-38.0859375,-37.59765625,-39.0625,-48.828125,0.0
71.30859375,-24.4140625,-17.578125,-35.64453125,-44.921875,-22.4609375,0.0
71.3125,-20.99609375,-10.7421875,-34.66796875,-39.55078125,8.7890625,0.0
71.31640625,-33.69140625,-41.50390625,-32.71484375,-31.25,-41.50390625,0.0
71.3203125,-43.45703125,-26.85546875,-35.64453125,-41.9921875,-74.21875,0.0
71.32421875,-30.76171875,23.4375,-30.2734375,-37.59765625,-74.21875,0.0
71.328125,-14.6484375,34.66796875,-31.25,-21.484375,4.39453125,0.0
71.33203125,-15.13671875,-1.46484375,-36.62109375,-19.53125,70.3125,0.0
71.3359375,-39.0625,-62.01171875,-38.0859375,-32.2265625,38.57421875,0.0
71.33984375,-33.203125,-69.82421875,-30.2734375,-30.76171875,-59.08203125,0.0
71.34375,-23.4375,-31.25,-29.296875,-30.76171875,-63.4765625,0.0
71.34765625,-20.99609375,-10.25390625,-39.0625,-27.83203125,-16.11328125,0.0
71.3515625,-18.06640625,-30.2734375,-37.59765625,-20.99609375,28.3203125,0.0
71.35546875,-29.296875,-43.45703125,-33.69140625,-34.1796875,29.296875,0.0
71.359375,-28.80859375,-32.2265625,-32.2265625,-31.73828125,-38.0859375,0.0
71.36328125,-22.4609375,-48.828125,-35.64453125,-12.6953125,-91.30859375,0.0
71.3671875,-20.01953125,-32.71484375,-39.55078125,-27.34375,-83.49609375,0.0
71.37109375,-29.78515625,-57.6171875,-36.1328125,-35.64453125,-2.9296875,0.0
71.375,-39.0625,-98.6328125,-35.15625,-28.80859375,46.875,0.0
71.37890625,-39.55078125,-27.34375,-32.71484375,-30.76171875,53.22265625,0.0
71.3828125,-39.0625,29.78515625,-31.25,-33.203125,61.03515625,0.0
71.38671875,-36.1328125,10.7421875,-29.296875,-23.92578125,25.390625,0.0
71.390625,-34.66796875,-21.484375,-26.85546875,-22.94921875,19.04296875,0.0
71.39453125,-26.85546875,-23.92578125,-26.85546875,-29.78515625,12.6953125,0.0
71.3984375,-31.25,-5.859375,-29.296875,-24.4140625,-31.25,0.0
71.40234375,-37.109375,-20.5078125,-29.296875,-20.99609375,-20.01953125,0.0
71.40625,-29.78515625,-47.36328125,-32.2265625,-27.34375,-33.69140625,0.0
71.41015625,-25.390625,-43.9453125,-40.52734375,-31.73828125,-67.87109375,0.0
71.4140625,-31.25,-25.87890625,-43.45703125,-20.99609375,-34.66796875,0.0
71.41796875,-35.15625,-64.453125,-42.48046875,-28.80859375,-6.8359375,0.0
71.421875,-28.3203125,-110.3515625,-41.50390625,-42.96875,13.18359375,0.0
71.42578125,-31.25,-98.6328125,-39.0625,-42.48046875,58.10546875,0.0
71.4296875,-39.0625,-52.734375,-32.2265625,-39.55078125,28.3203125,0.0
71.43359375,-25.87890625,6.8359375,-25.390625,-27.34375,9.765625,0.0
71.4375,-26.3671875,-26.3671875,-27.83203125,-39.55078125,-26.3671875,0.0
71.44140625,-40.52734375,-47.8515625,-29.78515625,-61.03515625,3.41796875,0.0
71.4453125,-33.203125,-26.3671875,-31.73828125,-56.15234375,69.3359375,0.0
71.44921875,-19.04296875,-69.82421875,-29.78515625,-38.0859375,54.6875,0.0
71.453125,-27.83203125,-48.33984375,-33.69140625,-38.0859375,15.625,0.0
71.45703125,-37.109375,-23.4375,-34.1796875,-44.921875,4.8828125,0.0
71.4609375,-40.52734375,-18.5546875,-23.92578125,-42.48046875,21.484375,0.0
71.46484375,-35.64453125,-1.46484375,-25.390625,-41.015625,27.83203125,0.0
71.46875,-37.109375,-8.7890625,-28.80859375,-41.9921875,3.41796875,0.0
71.47265625,-52.734375,-30.2734375,-29.78515625,-48.828125,-49.8046875,0.0
71.4765625,-53.22265625,-43.45703125,-26.85546875,-40.52734375,-85.44921875,0.0
71.48046875,-48.33984375,-72.265625,-21.97265625,-39.55078125,-81.0546875,0.0
71.484375,-31.25,-72.265625,-21.97265625,-39.55078125,-12.6953125,0.0
71.48828125,-21.484375,-23.92578125,-26.3671875,-43.45703125,24.90234375,0.0
71.4921875,-37.109375,-44.921875,-28.80859375,-47.36328125,-55.17578125,0.0
71.49609375,-38.57421875,-85.9375,-24.4140625,-43.9453125,-143.5546875,0.0
71.5,-44.921875,-29.78515625,-23.4375,-41.9921875,-90.33203125,0.0
71.50390625,-43.9453125,-31.25,-26.85546875,-38.0859375,-23.92578125,0.0
71.5078125,-35.64453125,-44.921875,-34.66796875,-37.109375,-37.59765625,0.0
71.51171875,-29.78515625,-7.32421875,-40.52734375,-43.45703125,-33.203125,0.0
71.515625,-36.1328125,-10.7421875,-43.45703125,-41.9921875,-49.31640625,0.0
71.51953125,-29.296875,-25.87890625,-43.45703125,-33.69140625,-47.36328125,0.0
71.5234375,-12.20703125,-28.3203125,-31.25,-31.73828125,-54.19921875,0.0
71.52734375,-27.34375,-31.25,-20.01953125,-21.97265625,-42.96875,0.0
71.53125,-37.59765625,-20.5078125,-19.53125,-31.73828125,-39.0625,0.0
71.53515625,-48.33984375,-28.80859375,-23.4375,-56.15234375,-90.8203125,0.0
71.5390625,-47.8515625,-73.73046875,-23.92578125,-41.9921875,-33.69140625,0.0
71.54296875,-41.015625,-44.921875,-27.34375,-27.34375,15.625,0.0
71.546875,-28.80859375,-27.83203125,-28.80859375,-11.23046875,-13.18359375,0.0
71.55078125,-18.06640625,-9.765625,-30.76171875,-11.23046875,-23.92578125,0.0
71.5546875,-23.92578125,15.625,-30.2734375,-24.4140625,1.46484375,0.0
71.55859375,-33.69140625,-22.94921875,-23.92578125,-24.4140625,5.37109375,0.0
71.5625,-24.90234375,-24.4140625,-22.4609375,-32.2265625,-8.7890625,0.0
71.56640625,-28.80859375,-33.203125,-21.97265625,-29.78515625,23.4375,0.0
71.5703125,-39.55078125,-63.4765625,-25.390625,-27.34375,69.3359375,0.0
71.57421875,-27.34375,-64.453125,-24.4140625,-35.64453125,22.94921875,0.0
71.578125,-28.3203125,-50.29296875,-14.6484375,-20.99609375,-42.48046875,0.0
71.58203125,-41.015625,-50.78125,-14.16015625,-8.30078125,-64.94140625,0.0
71.5859375,-36.1328125,-104.00390625,-18.06640625,-22.94921875,-63.96484375,0.0
71.58984375,-17.578125,-102.05078125,-18.06640625,-18.5546875,-76.171875,0.0
71.59375,-23.4375,-47.8515625,-23.92578125,-8.30078125,-41.015625,0.0
71.59765625,-39.55078125,-52.24609375,-28.80859375,-18.5546875,-24.4140625,0.0
71.6015625,-43.45703125,-64.94140625,-31.25,-28.80859375,-117.1875,0.0
71.60546875,-43.45703125,-71.2890625,-31.25,-31.73828125,-73.2421875,0.0
71.609375,-36.1328125,-86.9140625,-28.3203125,-27.83203125,-44.921875,0.0
71.61328125,-36.1328125,-104.98046875,-24.90234375,-18.06640625,-261.71875,0.0
71.6171875,-33.203125,-100.09765625,-22.94921875,-20.5078125,-306.15234375,0.0
71.62109375,-25.87890625,-61.5234375,-16.6015625,-16.6015625,-101.5625,0.0
71.625,-20.01953125,-41.9921875,-17.08984375,-4.39453125,99.609375,0.0
71.62890625,-33.203125,-64.453125,-20.5078125,-19.53125,110.83984375,0.0
71.6328125,-44.43359375,-84.9609375,-20.01953125,-39.55078125,73.73046875,0.0
71.63671875,-39.0625,-98.6328125,-25.390625,-43.9453125,-8.30078125,0.0
71.640625,-42.48046875,-92.28515625,-23.4375,-41.015625,-89.35546875,0.0
71.64453125,-40.52734375,-70.3125,-20.99609375,-25.87890625,-28.80859375,0.0
71.6484375,-26.85546875,-87.890625,-23.4375,-35.64453125,-26.3671875,0.0
71.65234375,-21.484375,-113.28125,-19.04296875,-37.59765625,-62.01171875,0.0
71.65625,-29.296875,-75.68359375,-22.4609375,-33.69140625,-76.66015625,0.0
71.66015625,-38.57421875,-57.12890625,-28.80859375,-28.80859375,-68.359375,0.0
71.6640625,-27.34375,-59.5703125,-30.2734375,-35.64453125,-16.6015625,0.0
71.66796875,-20.5078125,-38.57421875,-35.15625,-38.0859375,27.83203125,0.0
71.671875,-34.66796875,-53.7109375,-34.1796875,-37.109375,23.4375,0.0
71.67578125,-38.0859375,-74.70703125,-36.62109375,-50.29296875,-51.26953125,0.0
71.6796875,-35.64453125,-62.98828125,-41.50390625,-51.26953125,-66.40625,0.0
71.68359375,-26.3671875,-61.03515625,-36.62109375,-39.0625,-43.45703125,0.0
71.6875,-24.4140625,-79.58984375,-37.109375,-31.73828125,-113.76953125,0.0
71.69140625,-15.625,-75.68359375,-37.59765625,-45.41015625,-225.09765625,0.0
71.6953125,-14.6484375,-34.66796875,-34.1796875,-51.7578125,-121.09375,0.0
71.69921875,-28.3203125,-34.1796875,-32.71484375,-38.0859375,91.30859375,0.0
71.703125,-32.2265625,-64.453125,-29.78515625,-42.48046875,82.03125,0.0
71.70703125,-26.3671875,-88.37890625,-30.2734375,-43.9453125,32.2265625,0.0
71.7109375,-23.4375,-74.70703125,-26.85546875,-29.78515625,47.36328125,0.0
71.71484375,-23.4375,-51.26953125,-25.390625,-36.1328125,-7.8125,0.0
71.71875,-25.87890625,-64.94140625,-31.25,-43.45703125,-8.7890625,0.0
71.72265625,-33.69140625,-88.37890625,-30.76171875,-41.50390625,-9.27734375,0.0
71.7265625,-19.04296875,-85.9375,-28.80859375,-29.78515625,-41.50390625,0.0
71.73046875,-8.30078125,-67.3828125,-29.296875,-19.53125,-14.16015625,0.0
71.734375,-17.08984375,-59.5703125,-31.73828125,-14.16015625,-3.41796875,0.0
71.73828125,-28.80859375,-54.6875,-41.9921875,-25.87890625,-52.24609375,0.0
71.7421875,-34.1796875,-38.57421875,-39.55078125,-31.73828125,-78.125,0.0
71.74609375,-21.484375,-13.18359375,-31.73828125,-15.625,-34.1796875,0.0
71.75,-27.34375,-19.53125,-35.15625,-15.625,-42.48046875,0.0
71.75390625,-27.83203125,-37.59765625,-31.25,-34.66796875,-57.6171875,0.0
71.7578125,-25.390625,-73.73046875,-26.85546875,-40.0390625,-36.1328125,0.0
71.76171875,-36.62109375,-76.171875,-25.390625,-28.80859375,-1.46484375,0.0
71.765625,-29.78515625,-29.296875,-23.92578125,-26.85546875,-15.625,0.0
71.76953125,-20.5078125,-22.4609375,-31.25,-42.48046875,-16.11328125,0.0
71.7734375,-28.80859375,-45.41015625,-41.015625,-46.38671875,-20.99609375,0.0
71.77734375,-39.0625,-46.38671875,-40.0390625,-38.0859375,-57.6171875,0.0
71.78125,-34.66796875,-57.6171875,-37.109375,-41.9921875,1.953125,0.0
71.78515625,-34.66796875,-83.49609375,-37.109375,-29.296875,-12.20703125,0.0
71.7890625,-28.3203125,-46.38671875,-24.90234375,-25.390625,0.9765625,0.0
71.79296875,-17.08984375,-24.4140625,-20.5078125,-26.85546875,59.08203125,0.0
71.796875,-29.296875,-40.0390625,-25.390625,-21.97265625,-3.41796875,0.0
71.80078125,-42.96875,-41.9921875,-29.78515625,-42.48046875,-5.859375,0.0
71.8046875,-26.3671875,-49.31640625,-31.73828125,-37.59765625,-33.203125,0.0
71.80859375,-11.71875,-39.55078125,-33.203125,-28.80859375,-66.89453125,0.0
71.8125,-26.3671875,-22.94921875,-30.2734375,-35.64453125,0.9765625,0.0
71.81640625,-29.78515625,-36.1328125,-24.4140625,-25.390625,-39.0625,0.0
71.8203125,-25.390625,-42.48046875,-27.83203125,-18.5546875,-110.83984375,0.0
71.82421875,-24.90234375,-36.1328125,-27.83203125,-15.625,-120.60546875,0.0
71.828125,-16.6015625,-38.57421875,-30.76171875,-13.671875,-115.72265625,0.0
71.83203125,-20.5078125,-49.8046875,-34.66796875,-20.5078125,-113.76953125,0.0
71.8359375,-31.73828125,-37.59765625,-35.15625,-18.5546875,-90.8203125,0.0
71.83984375,-30.76171875,-37.109375,-38.0859375,-24.90234375,-78.125,0.0
71.84375,-32.71484375,-51.7578125,-37.109375,-36.62109375,-69.3359375,0.0
71.84765625,-27.83203125,-52.24609375,-38.57421875,-28.3203125,-32.2265625,0.0
71.8515625,-21.97265625,-59.5703125,-38.0859375,-28.80859375,-0.9765625,0.0
71.85546875,-33.69140625,-112.3046875,-37.59765625,-44.43359375,12.6953125,0.0
71.859375,-36.1328125,-73.73046875,-38.0859375,-39.55078125,34.1796875,0.0
71.86328125,-23.92578125,-9.27734375,-32.2265625,-24.4140625,15.13671875,0.0
71.8671875,-17.08984375,-31.73828125,-33.203125,-15.13671875,-65.91796875,0.0
71.87109375,-20.01953125,-28.3203125,-35.15625,-17.08984375,-60.546875,0.0
71.875,-19.04296875,-34.66796875,-33.69140625,-29.296875,-47.8515625,0.0
71.87890625,-29.78515625,-41.015625,-32.71484375,-26.3671875,-28.80859375,0.0
71.8828125,-39.55078125,-33.69140625,-32.2265625,-28.3203125,-22.4609375,0.0
71.88671875,-30.2734375,-38.0859375,-36.1328125,-36.1328125,-82.03125,0.0
71.890625,-31.73828125,-19.53125,-39.55078125,-35.15625,-70.3125,0.0
71.89453125,-48.33984375,-20.5078125,-45.41015625,-39.55078125,-24.4140625,0.0
71.8984375,-57.12890625,-20.99609375,-45.8984375,-38.57421875,-39.0625,0.0
71.90234375,-52.24609375,-5.859375,-35.64453125,-40.52734375,9.765625,0.0
71.90625,-42.48046875,-15.13671875,-31.25,-34.66796875,62.5,0.0
71.91015625,-35.64453125,-16.6015625,-29.296875,-32.2265625,117.1875,0.0
71.9140625,-35.64453125,-34.66796875,-23.92578125,-26.3671875,153.3203125,0.0
71.91796875,-34.1796875,-9.765625,-23.4375,-6.34765625,57.12890625,0.0
71.921875,-42.96875,27.83203125,-24.90234375,-7.8125,0.0,0.0
71.92578125,-45.8984375,7.32421875,-29.296875,-20.5078125,-41.50390625,0.0
71.9296875,-29.78515625,2.9296875,-26.3671875,-19.53125,-99.609375,0.0
71.93359375,-23.4375,0.48828125,-21.484375,-20.99609375,-55.6640625,0.0
71.9375,-28.80859375,1.953125,-29.296875,-21.484375,17.578125,0.0
71.94140625,-42.48046875,4.39453125,-29.78515625,-27.83203125,-7.32421875,0.0
71.9453125,-40.52734375,5.859375,-26.85546875,-23.92578125,-44.921875,0.0
71.94921875,-20.99609375,4.8828125,-22.94921875,-10.7421875,-19.04296875,0.0
71.953125,-25.87890625,25.390625,-24.4140625,-12.20703125,42.48046875,0.0
71.95703125,-34.1796875,32.2265625,-28.80859375,-10.7421875,36.1328125,0.0
71.9609375,-35.64453125,8.30078125,-29.78515625,-16.11328125,-43.9453125,0.0
71.96484375,-27.34375,27.83203125,-30.2734375,-9.765625,-24.90234375,0.0
71.96875,-22.4609375,45.41015625,-31.25,-13.18359375,-39.55078125,0.0
71.97265625,-26.3671875,14.16015625,-33.203125,-23.92578125,-116.69921875,0.0
71.9765625,-20.5078125,-19.53125,-36.62109375,-29.78515625,-151.85546875,0.0
71.98046875,-21.97265625,13.18359375,-34.1796875,-25.390625,-137.6953125,0.0
71.984375,-24.90234375,59.08203125,-27.83203125,-22.94921875,-154.296875,0.0
71.98828125,-19.53125,51.26953125,-31.25,-31.73828125,-198.73046875,0.0
71.9921875,-19.53125,44.921875,-31.73828125,-30.2734375,-216.796875,0.0
71.99609375,-28.80859375,25.87890625,-31.25,-29.296875,-185.546875,0.0
72.0,-22.94921875,0.0,-32.71484375,-27.34375,-115.234375,0.0
72.00390625,-30.2734375,-7.32421875,-30.2734375,-29.78515625,-103.02734375,0.0
72.0078125,-25.87890625,-12.6953125,-30.76171875,-28.3203125,-144.53125,0.0
72.01171875,-25.390625,1.953125,-29.296875,-26.3671875,-148.4375,0.0
72.015625,-39.0625,20.99609375,-32.2265625,-33.203125,-153.80859375,0.0
72.01953125,-35.64453125,5.859375,-35.15625,-37.109375,-109.86328125,0.0
72.0234375,-32.2265625,9.765625,-30.76171875,-36.1328125,-16.11328125,0.0
72.02734375,-29.78515625,-4.39453125,-32.71484375,-31.25,3.90625,0.0
72.03125,-23.92578125,-18.5546875,-32.2265625,-26.85546875,47.8515625,0.0
72.03515625,-28.80859375,-20.99609375,-31.73828125,-39.0625,54.6875,0.0
72.0390625,-36.62109375,-61.5234375,-36.62109375,-42.96875,0.48828125,0.0
72.04296875,-39.0625,-77.63671875,-29.296875,-34.1796875,16.6015625,0.0
72.046875,-29.78515625,-41.9921875,-24.90234375,-36.62109375,57.12890625,0.0
72.05078125,-23.4375,-59.08203125,-30.76171875,-29.78515625,97.16796875,0.0
72.0546875,-26.85546875,-89.84375,-33.69140625,-34.1796875,-28.3203125,0.0
72.05859375,-28.80859375,-84.47265625,-33.203125,-41.9921875,-147.94921875,0.0
72.0625,-24.90234375,-61.5234375,-27.83203125,-34.66796875,-59.08203125,0.0
72.06640625,-17.578125,-43.9453125,-25.390625,-15.625,57.12890625,0.0
72.0703125,-18.06640625,-55.17578125,-27.34375,-12.6953125,68.359375,0.0
72.07421875,-24.4140625,-65.4296875,-27.83203125,-34.66796875,85.44921875,0.0
72.078125,-34.1796875,-69.3359375,-27.83203125,-42.48046875,89.35546875,0.0
72.08203125,-40.52734375,-71.77734375,-26.85546875,-35.15625,42.96875,0.0
72.0859375,-25.87890625,-75.68359375,-21.97265625,-31.73828125,-11.23046875,0.0
72.08984375,-10.7421875,-98.6328125,-22.94921875,-43.45703125,-55.17578125,0.0
72.09375,-18.5546875,-64.94140625,-27.34375,-36.62109375,56.640625,0.0
72.09765625,-20.5078125,-30.2734375,-29.78515625,-24.4140625,94.7265625,0.0
72.1015625,-23.92578125,-49.8046875,-29.78515625,-31.73828125,17.578125,0.0
72.10546875,-24.90234375,-47.8515625,-27.83203125,-26.3671875,18.5546875,0.0
72.109375,-16.11328125,-45.41015625,-23.92578125,-22.4609375,14.6484375,0.0
72.11328125,-6.8359375,-43.45703125,-20.99609375,-8.7890625,44.921875,0.0
72.1171875,-30.76171875,-51.7578125,-22.4609375,-18.06640625,97.65625,0.0
72.12109375,-35.15625,-72.75390625,-24.4140625,-38.57421875,51.26953125,0.0
72.125,-23.92578125,-81.0546875,-25.390625,-33.69140625,-63.4765625,0.0
72.12890625,-35.15625,-72.75390625,-31.25,-25.87890625,29.78515625,0.0
72.1328125,-41.015625,-63.96484375,-35.15625,-32.71484375,137.6953125,0.0
72.13671875,-36.62109375,-72.265625,-33.69140625,-33.69140625,12.20703125,0.0
72.140625,-27.34375,-57.6171875,-30.2734375,-24.90234375,-13.18359375,0.0
72.14453125,-28.3203125,-48.828125,-25.390625,-24.90234375,15.13671875,0.0
72.1484375,-27.34375,-58.59375,-24.4140625,-26.3671875,-63.96484375,0.0
72.15234375,-24.90234375,-69.82421875,-26.85546875,-35.15625,-131.8359375,0.0
72.15625,-26.3671875,-60.546875,-23.92578125,-32.71484375,-123.53515625,0.0
72.16015625,-35.15625,-50.29296875,-21.484375,-22.4609375,-104.98046875,0.0
72.1640625,-35.64453125,-46.875,-22.4609375,-15.13671875,-83.49609375,0.0
72.16796875,-20.99609375,-33.203125,-24.90234375,-9.765625,-59.08203125,0.0
72.171875,-26.3671875,-51.7578125,-19.04296875,-30.2734375,-101.5625,0.0
72.17578125,-37.109375,-73.2421875,-17.08984375,-37.109375,-101.07421875,0.0
72.1796875,-42.96875,-68.84765625,-19.53125,-19.53125,-115.234375,0.0
72.18359375,-42.48046875,-66.40625,-19.04296875,-24.4140625,-119.140625,0.0
72.1875,-25.87890625,-62.5,-25.390625,-26.3671875,-72.265625,0.0
72.19140625,-24.4140625,-59.08203125,-29.296875,-27.83203125,-44.43359375,0.0
72.1953125,-31.73828125,-63.4765625,-27.83203125,-27.34375,-55.6640625,0.0
72.19921875,-31.73828125,-63.4765625,-26.85546875,-34.1796875,-89.35546875,0.0
72.203125,-43.45703125,-57.6171875,-24.4140625,-49.31640625,-110.83984375,0.0
72.20703125,-49.31640625,-70.80078125,-21.484375,-46.38671875,-128.90625,0.0
72.2109375,-38.0859375,-63.96484375,-24.4140625,-36.62109375,-157.71484375,0.0
72.21484375,-34.66796875,-41.015625,-27.34375,-35.64453125,-71.77734375,0.0
72.21875,-40.0390625,-38.57421875,-23.92578125,-38.57421875,-27.34375,0.0
72.22265625,-48.828125,-57.6171875,-23.4375,-40.0390625,-243.1640625,0.0
72.2265625,-49.8046875,-94.7265625,-30.2734375,-43.45703125,-272.94921875,0.0
72.23046875,-31.25,-82.51953125,-29.78515625,-28.80859375,-73.2421875,0.0
72.234375,-31.25,-43.45703125,-26.85546875,-17.578125,41.9921875,0.0
72.23828125,-40.0390625,-49.31640625,-26.3671875,-31.25,33.203125,0.0
72.2421875,-46.38671875,-63.96484375,-22.4609375,-36.1328125,4.39453125,0.0
72.24609375,-50.29296875,-53.22265625,-24.4140625,-36.1328125,21.484375,0.0
72.25,-49.31640625,-35.64453125,-28.3203125,-25.390625,83.0078125,0.0
72.25390625,-53.7109375,-61.03515625,-30.76171875,-32.2265625,71.2890625,0.0
72.2578125,-56.15234375,-75.68359375,-33.203125,-48.33984375,-20.99609375,0.0
72.26171875,-50.29296875,-57.6171875,-27.83203125,-36.1328125,-47.8515625,0.0
72.265625,-41.9921875,-38.57421875,-25.390625,-36.1328125,-77.1484375,0.0
72.26953125,-42.96875,-45.41015625,-29.296875,-39.55078125,-23.92578125,0.0
72.2734375,-41.50390625,-43.9453125,-32.2265625,-39.55078125,-4.39453125,0.0
72.27734375,-41.50390625,-24.90234375,-27.83203125,-41.9921875,-84.9609375,0.0
72.28125,-39.55078125,-23.4375,-25.390625,-39.0625,43.9453125,0.0
72.28515625,-40.0390625,-34.1796875,-33.203125,-32.71484375,117.67578125,0.0
72.2890625,-41.50390625,-15.13671875,-37.109375,-31.25,126.953125,0.0
72.29296875,-43.9453125,-7.8125,-35.64453125,-39.0625,187.5,0.0
72.296875,-41.50390625,-24.90234375,-32.71484375,-38.0859375,157.2265625,0.0
72.30078125,-41.9921875,-24.4140625,-29.78515625,-33.203125,50.78125,0.0
72.3046875,-37.109375,-20.99609375,-27.83203125,-36.62109375,-58.10546875,0.0
72.30859375,-23.92578125,-40.52734375,-24.4140625,-31.73828125,-55.17578125,0.0
72.3125,-18.5546875,-80.56640625,-34.1796875,-23.4375,-49.31640625,0.0
72.31640625,-33.203125,-82.51953125,-35.15625,-39.0625,-56.640625,0.0
72.3203125,-31.73828125,-68.84765625,-26.85546875,-36.1328125,-65.91796875,0.0
72.32421875,-33.203125,-42.48046875,-25.87890625,-5.859375,-57.6171875,0.0
