timestamp,TP9,AF7,AF8,TP10,AUX,Marker,
291.00390625,-33.69140625,-29.78515625,-36.1328125,-36.1328125,65.4296875,0.0
291.0078125,-34.66796875,-29.78515625,-36.1328125,-29.78515625,85.44921875,0.0
291.01171875,-36.1328125,-38.0859375,-27.34375,-28.80859375,-123.53515625,0.0
291.015625,-45.41015625,-38.57421875,-30.2734375,-33.69140625,-186.03515625,0.0
291.01953125,-53.22265625,-30.76171875,-35.64453125,-35.64453125,-29.296875,0.0
291.0234375,-47.36328125,-29.78515625,-36.62109375,-36.62109375,20.99609375,0.0
291.02734375,-34.66796875,-31.73828125,-41.015625,-36.1328125,-35.64453125,0.0
291.03125,-43.45703125,-30.2734375,-41.015625,-41.015625,-77.63671875,0.0
291.03515625,-53.7109375,-34.66796875,-44.43359375,-47.36328125,-119.140625,0.0
291.0390625,-39.0625,-34.1796875,-38.57421875,-40.52734375,-123.53515625,0.0
291.04296875,-30.76171875,-20.5078125,-19.53125,-22.94921875,-70.80078125,0.0
291.046875,-47.8515625,-21.97265625,-18.5546875,-18.5546875,-22.94921875,0.0
291.05078125,-46.38671875,-25.87890625,-26.3671875,-25.390625,-64.453125,0.0
291.0546875,-35.15625,-27.34375,-24.4140625,-27.83203125,-30.76171875,0.0
291.05859375,-41.015625,-24.90234375,-27.83203125,-26.85546875,-8.30078125,0.0
291.0625,-40.52734375,-21.484375,-32.71484375,-30.76171875,-63.96484375,0.0
291.06640625,-31.73828125,-32.71484375,-33.69140625,-31.73828125,-35.64453125,0.0
291.0703125,-24.90234375,-39.0625,-31.73828125,-22.4609375,-75.68359375,0.0
291.07421875,-28.80859375,-33.203125,-36.1328125,-27.34375,-21.484375,0.0
291.078125,-44.43359375,-36.1328125,-59.08203125,-43.9453125,9.765625,0.0
291.08203125,-56.640625,-38.0859375,-79.58984375,-60.05859375,-34.1796875,0.0
291.0859375,-57.12890625,-35.15625,-72.265625,-59.5703125,52.24609375,0.0
291.08984375,-55.6640625,-46.875,-63.4765625,-52.24609375,-13.671875,0.0
291.09375,-52.24609375,-48.828125,-51.26953125,-39.55078125,-83.0078125,0.0
291.09765625,-42.96875,-41.50390625,-38.0859375,-25.87890625,-64.453125,0.0
291.1015625,-30.2734375,-44.921875,-40.52734375,-20.99609375,-46.38671875,0.0
291.10546875,-35.15625,-40.52734375,-45.8984375,-22.4609375,-25.87890625,0.0
291.109375,-41.50390625,-35.15625,-39.0625,-24.4140625,-88.8671875,0.0
291.11328125,-20.99609375,-33.69140625,-27.34375,-20.01953125,-87.890625,0.0
291.1171875,-14.16015625,-26.85546875,-22.4609375,-18.5546875,-72.75390625,0.0
291.12109375,-12.20703125,-35.15625,-19.53125,-14.16015625,-46.38671875,0.0
291.125,-23.4375,-41.015625,-13.671875,-16.6015625,22.94921875,0.0
291.12890625,-30.76171875,-40.0390625,-14.6484375,-26.3671875,-24.4140625,0.0
291.1328125,-19.53125,-37.59765625,-17.08984375,-25.87890625,-17.08984375,0.0
291.13671875,-29.296875,-30.76171875,-23.4375,-18.06640625,21.484375,0.0
291.140625,-32.2265625,-32.2265625,-29.296875,-18.5546875,46.38671875,0.0
291.14453125,-20.01953125,-32.2265625,-33.69140625,-18.06640625,47.8515625,0.0
291.1484375,-10.7421875,-30.76171875,-35.64453125,-14.6484375,-39.55078125,0.0
291.15234375,-3.41796875,-33.203125,-25.390625,-7.32421875,-33.69140625,0.0
291.15625,-9.765625,-27.83203125,-24.90234375,-13.671875,67.3828125,0.0
291.16015625,-14.6484375,-22.4609375,-26.85546875,-21.97265625,109.375,0.0
291.1640625,-11.23046875,-20.01953125,-19.53125,-18.06640625,15.625,0.0
291.16796875,-22.4609375,-29.296875,-24.90234375,-22.94921875,-69.82421875,0.0
291.171875,-39.55078125,-43.45703125,-31.73828125,-30.2734375,-87.40234375,0.0
291.17578125,-41.50390625,-48.33984375,-25.87890625,-27.34375,-39.0625,0.0
291.1796875,-34.66796875,-42.48046875,-24.90234375,-32.71484375,5.37109375,0.0
291.18359375,-29.296875,-36.62109375,-27.34375,-35.64453125,-45.41015625,0.0
291.1875,-27.83203125,-34.1796875,-19.53125,-25.87890625,-60.05859375,0.0
291.19140625,-19.04296875,-31.25,-12.6953125,-16.11328125,-40.52734375,0.0
291.1953125,-17.08984375,-34.66796875,-18.5546875,-16.11328125,-90.33203125,0.0
291.19921875,-29.296875,-30.2734375,-17.578125,-23.4375,-28.80859375,0.0
291.203125,-33.203125,-31.73828125,-18.06640625,-38.0859375,60.05859375,0.0
291.20703125,-27.34375,-37.59765625,-20.5078125,-41.015625,33.203125,0.0
291.2109375,-33.203125,-31.25,-20.99609375,-34.66796875,-3.90625,0.0
291.21484375,-42.96875,-37.59765625,-20.5078125,-41.9921875,-50.78125,0.0
291.21875,-43.9453125,-43.9453125,-24.4140625,-41.015625,-64.453125,0.0
291.22265625,-47.8515625,-41.015625,-32.71484375,-38.57421875,-111.81640625,0.0
291.2265625,-41.015625,-42.48046875,-17.578125,-35.15625,-168.9453125,0.0
291.23046875,-33.203125,-30.76171875,-7.32421875,-23.4375,-168.9453125,0.0
291.234375,-28.80859375,-26.3671875,-10.25390625,-24.4140625,-69.82421875,0.0
291.23828125,-38.0859375,-40.0390625,-21.484375,-35.64453125,-39.55078125,0.0
291.2421875,-63.4765625,-51.7578125,-32.2265625,-46.875,-92.7734375,0.0
291.24609375,-54.6875,-46.38671875,-34.1796875,-47.8515625,-43.45703125,0.0
291.25,-39.55078125,-40.52734375,-24.90234375,-34.1796875,-67.3828125,0.0
291.25390625,-35.15625,-35.64453125,-15.13671875,-25.390625,-136.71875,0.0
291.2578125,-29.78515625,-29.296875,-17.578125,-23.92578125,-117.1875,0.0
291.26171875,-37.109375,-38.57421875,-28.80859375,-33.203125,-104.4921875,0.0
291.265625,-44.43359375,-41.9921875,-30.2734375,-38.57421875,-62.01171875,0.0
291.26953125,-50.29296875,-34.66796875,-35.64453125,-43.45703125,-132.32421875,0.0
291.2734375,-59.08203125,-38.57421875,-52.24609375,-52.24609375,-194.82421875,0.0
291.27734375,-56.15234375,-41.9921875,-52.24609375,-47.8515625,-166.015625,0.0
291.28125,-53.7109375,-39.0625,-45.41015625,-46.38671875,-97.16796875,0.0
291.28515625,-46.38671875,-38.57421875,-43.45703125,-42.96875,-77.63671875,0.0
291.2890625,-40.0390625,-32.2265625,-45.8984375,-42.48046875,-96.19140625,0.0
291.29296875,-37.59765625,-22.94921875,-47.36328125,-43.9453125,-93.75,0.0
291.296875,-60.546875,-24.90234375,-61.03515625,-62.01171875,-151.85546875,0.0
291.30078125,-65.91796875,-32.71484375,-68.84765625,-68.359375,-86.9140625,0.0
291.3046875,-59.5703125,-27.83203125,-65.4296875,-66.40625,-40.0390625,0.0
291.30859375,-57.6171875,-28.3203125,-57.12890625,-67.3828125,-19.04296875,0.0
291.3125,-39.0625,-35.15625,-48.828125,-49.8046875,58.59375,0.0
291.31640625,-53.22265625,-32.71484375,-64.94140625,-56.15234375,68.359375,0.0
291.3203125,-69.3359375,-33.69140625,-72.265625,-66.40625,48.828125,0.0
291.32421875,-68.359375,-29.78515625,-68.84765625,-64.94140625,112.3046875,0.0
291.328125,-60.546875,-24.4140625,-61.03515625,-57.12890625,159.1796875,0.0
291.33203125,-60.05859375,-33.203125,-57.6171875,-57.6171875,90.33203125,0.0
291.3359375,-75.1953125,-44.43359375,-63.96484375,-63.4765625,5.37109375,0.0
291.33984375,-72.265625,-44.921875,-57.6171875,-56.640625,-17.578125,0.0
291.34375,-56.15234375,-37.109375,-42.48046875,-41.9921875,-51.7578125,0.0
291.34765625,-47.8515625,-35.64453125,-38.57421875,-41.015625,-105.95703125,0.0
291.3515625,-53.7109375,-32.71484375,-44.43359375,-45.41015625,-108.3984375,0.0
291.35546875,-50.29296875,-34.1796875,-50.29296875,-43.45703125,-72.265625,0.0
291.359375,-46.38671875,-36.62109375,-46.38671875,-46.875,-11.23046875,0.0
291.36328125,-26.85546875,-39.55078125,-31.25,-37.109375,27.34375,0.0
291.3671875,-23.4375,-41.50390625,-23.4375,-23.92578125,31.25,0.0
291.37109375,-43.9453125,-39.0625,-27.83203125,-27.34375,-5.859375,0.0
291.375,-46.875,-35.64453125,-40.0390625,-41.50390625,51.26953125,0.0
291.37890625,-47.8515625,-32.2265625,-42.48046875,-43.45703125,41.015625,0.0
291.3828125,-34.66796875,-39.0625,-26.85546875,-39.55078125,-44.43359375,0.0
291.38671875,-30.76171875,-45.41015625,-26.85546875,-42.48046875,-9.27734375,0.0
291.390625,-27.83203125,-40.52734375,-36.62109375,-42.96875,36.62109375,0.0
291.39453125,-30.2734375,-47.8515625,-35.15625,-42.96875,-28.80859375,0.0
291.3984375,-41.9921875,-42.96875,-38.0859375,-40.52734375,-52.24609375,0.0
291.40234375,-40.52734375,-35.64453125,-34.66796875,-41.015625,-2.44140625,0.0
291.40625,-30.2734375,-40.0390625,-31.73828125,-44.43359375,-7.32421875,0.0
291.41015625,-28.80859375,-44.921875,-45.41015625,-36.62109375,-42.48046875,0.0
291.4140625,-31.73828125,-44.921875,-41.50390625,-30.76171875,-20.5078125,0.0
291.41796875,-34.1796875,-41.015625,-18.06640625,-30.76171875,-40.0390625,0.0
291.421875,-51.7578125,-36.1328125,-20.5078125,-46.38671875,-78.125,0.0
291.42578125,-48.828125,-32.71484375,-16.6015625,-42.96875,-60.546875,0.0
291.4296875,-46.875,-38.0859375,-12.6953125,-32.2265625,-7.8125,0.0
291.43359375,-46.38671875,-31.73828125,-16.11328125,-26.3671875,60.546875,0.0
291.4375,-32.2265625,-26.3671875,-6.8359375,-14.6484375,67.3828125,0.0
291.44140625,-16.6015625,-35.64453125,0.0,-3.90625,11.71875,0.0
291.4453125,-13.671875,-33.69140625,1.953125,-10.25390625,-45.8984375,0.0
291.44921875,-22.4609375,-27.83203125,-6.8359375,-14.6484375,-78.61328125,0.0
291.453125,-32.71484375,-28.3203125,-21.484375,-13.18359375,-64.94140625,0.0
291.45703125,-29.78515625,-32.2265625,-12.20703125,-19.53125,-52.734375,0.0
291.4609375,-23.92578125,-32.2265625,-4.39453125,-20.5078125,-117.1875,0.0
291.46484375,-20.5078125,-25.390625,-11.23046875,-17.08984375,-141.11328125,0.0
291.46875,-18.06640625,-23.92578125,-11.71875,-10.25390625,-63.4765625,0.0
291.47265625,-24.4140625,-29.78515625,-19.53125,-20.99609375,-80.078125,0.0
291.4765625,-30.2734375,-30.76171875,-31.25,-32.71484375,-96.19140625,0.0
291.48046875,-25.390625,-29.78515625,-23.4375,-25.390625,-42.96875,0.0
291.484375,-25.87890625,-32.2265625,-27.34375,-28.80859375,-15.625,0.0
291.48828125,-29.296875,-27.83203125,-39.0625,-40.52734375,28.3203125,0.0
291.4921875,-30.76171875,-22.94921875,-33.69140625,-46.38671875,66.40625,0.0
291.49609375,-31.25,-25.87890625,-30.76171875,-40.0390625,40.52734375,0.0
291.5,-17.08984375,-24.4140625,-22.94921875,-28.3203125,-76.66015625,0.0
291.50390625,21.97265625,-22.94921875,-11.71875,-20.99609375,-104.00390625,0.0
291.5078125,25.390625,-20.99609375,-17.08984375,-24.90234375,-122.0703125,0.0
291.51171875,0.48828125,-19.53125,-20.5078125,-30.76171875,-119.62890625,0.0
291.515625,-6.34765625,-22.4609375,-24.4140625,-42.96875,-77.63671875,0.0
291.51953125,-21.484375,-21.97265625,-27.83203125,-47.36328125,-81.0546875,0.0
291.5234375,-34.66796875,-22.94921875,-28.80859375,-43.9453125,-57.12890625,0.0
291.52734375,-31.73828125,-26.85546875,-25.390625,-25.390625,-61.5234375,0.0
291.53125,-35.64453125,-22.94921875,-26.85546875,-25.390625,-61.03515625,0.0
291.53515625,-36.1328125,-28.80859375,-33.69140625,-33.203125,1.953125,0.0
291.5390625,-29.296875,-34.1796875,-25.390625,-16.6015625,28.3203125,0.0
291.54296875,-34.1796875,-41.50390625,-28.3203125,-22.94921875,24.90234375,0.0
291.546875,-39.55078125,-42.96875,-32.71484375,-35.64453125,42.96875,0.0
291.55078125,-32.71484375,-27.34375,-27.34375,-29.296875,32.2265625,0.0
291.5546875,-37.109375,-24.90234375,-26.85546875,-25.390625,-1.46484375,0.0
291.55859375,-47.36328125,-32.2265625,-23.92578125,-29.296875,-41.50390625,0.0
291.5625,-44.921875,-31.73828125,-15.625,-34.1796875,-18.5546875,0.0
291.56640625,-20.01953125,-33.69140625,-2.44140625,-16.6015625,53.7109375,0.0
291.5703125,-16.11328125,-29.78515625,0.9765625,-7.8125,29.78515625,0.0
291.57421875,-34.1796875,-28.3203125,-19.04296875,-28.3203125,-25.390625,0.0
291.578125,-38.0859375,-35.64453125,-31.73828125,-43.45703125,-10.25390625,0.0
291.58203125,-30.2734375,-30.76171875,-16.11328125,-31.25,-51.26953125,0.0
291.5859375,-31.25,-21.484375,-23.4375,-23.4375,-71.77734375,0.0
291.58984375,-50.29296875,-20.99609375,-45.8984375,-39.55078125,-19.04296875,0.0
291.59375,-51.26953125,-31.25,-38.0859375,-41.9921875,-7.8125,0.0
291.59765625,-31.73828125,-32.71484375,-23.4375,-35.64453125,12.6953125,0.0
291.6015625,-37.109375,-36.1328125,-27.83203125,-33.69140625,-10.25390625,0.0
291.60546875,-42.96875,-30.2734375,-37.59765625,-27.83203125,-51.26953125,0.0
291.609375,-41.015625,-13.671875,-37.109375,-25.87890625,-18.06640625,0.0
291.61328125,-40.0390625,-24.90234375,-32.71484375,-29.296875,-32.71484375,0.0
291.6171875,-30.76171875,-35.15625,-29.78515625,-32.71484375,18.06640625,0.0
291.62109375,-30.76171875,-30.2734375,-22.94921875,-31.25,21.484375,0.0
291.625,-27.83203125,-26.3671875,-20.99609375,-25.390625,28.80859375,0.0
291.62890625,-8.30078125,-32.2265625,-32.2265625,-25.87890625,17.08984375,0.0
291.6328125,-22.94921875,-39.0625,-44.43359375,-42.48046875,-77.63671875,0.0
291.63671875,-42.96875,-44.43359375,-52.734375,-53.7109375,-49.8046875,0.0
291.640625,-31.73828125,-48.828125,-50.29296875,-52.24609375,28.3203125,0.0
291.64453125,-41.9921875,-39.55078125,-55.17578125,-56.640625,79.58984375,0.0
291.6484375,-49.31640625,-35.15625,-53.22265625,-52.734375,23.92578125,0.0
291.65234375,-42.96875,-38.0859375,-53.22265625,-49.8046875,10.7421875,0.0
291.65625,-38.57421875,-40.0390625,-54.6875,-45.8984375,46.38671875,0.0
291.66015625,-46.875,-45.8984375,-47.8515625,-51.7578125,5.37109375,0.0
291.6640625,-51.26953125,-49.8046875,-48.828125,-54.19921875,0.48828125,0.0
291.66796875,-43.9453125,-44.921875,-48.33984375,-45.8984375,-15.625,0.0
291.671875,-31.25,-42.96875,-28.80859375,-34.66796875,-124.0234375,0.0
291.67578125,-38.0859375,-46.875,-27.34375,-35.15625,-87.40234375,0.0
291.6796875,-46.875,-43.45703125,-37.109375,-48.33984375,-36.1328125,0.0
291.68359375,-27.83203125,-34.66796875,-26.85546875,-44.43359375,-61.5234375,0.0
291.6875,-15.625,-35.64453125,-20.99609375,-35.64453125,-24.4140625,0.0
291.69140625,-28.80859375,-41.50390625,-35.15625,-37.59765625,41.015625,0.0
291.6953125,-28.3203125,-42.96875,-48.33984375,-50.78125,67.87109375,0.0
291.69921875,-23.4375,-40.0390625,-40.0390625,-50.29296875,35.15625,0.0
291.703125,-9.765625,-36.62109375,-29.296875,-29.78515625,6.8359375,0.0
291.70703125,-4.8828125,-42.48046875,-19.53125,-19.53125,-31.25,0.0
291.7109375,-24.90234375,-39.0625,-24.90234375,-32.71484375,-32.2265625,0.0
291.71484375,-20.99609375,-30.76171875,-33.203125,-38.57421875,-3.90625,0.0
291.71875,-18.06640625,-17.578125,-24.90234375,-28.3203125,-47.36328125,0.0
291.72265625,-28.3203125,-3.41796875,-24.4140625,-30.2734375,-78.125,0.0
291.7265625,-24.90234375,-8.7890625,-26.3671875,-34.1796875,-48.828125,0.0
291.73046875,-22.94921875,-2.9296875,-27.34375,-30.2734375,-124.0234375,0.0
291.734375,-26.3671875,-1.953125,-31.73828125,-33.69140625,-170.41015625,0.0
291.73828125,-27.34375,-8.7890625,-34.1796875,-31.73828125,-134.27734375,0.0
291.7421875,-15.625,-5.37109375,-31.73828125,-24.90234375,-142.08984375,0.0
291.74609375,2.9296875,-5.37109375,-37.59765625,-33.69140625,-36.62109375,0.0
291.75,-26.85546875,-1.46484375,-47.36328125,-36.1328125,-20.5078125,0.0
291.75390625,-55.6640625,5.859375,-45.8984375,-46.875,-66.40625,0.0
291.7578125,-43.9453125,15.13671875,-45.8984375,-56.640625,-44.43359375,0.0
291.76171875,-39.0625,15.13671875,-36.1328125,-47.8515625,-39.55078125,0.0
291.765625,-47.8515625,7.8125,-36.62109375,-45.8984375,2.9296875,0.0
291.76953125,-45.41015625,6.34765625,-37.59765625,-44.921875,-7.8125,0.0
291.7734375,-43.9453125,15.13671875,-26.85546875,-45.41015625,-73.2421875,0.0
291.77734375,-46.38671875,12.20703125,-35.64453125,-50.29296875,-87.890625,0.0
291.78125,-42.48046875,11.71875,-40.0390625,-51.7578125,-1.46484375,0.0
291.78515625,-36.62109375,8.7890625,-34.66796875,-39.55078125,13.18359375,0.0
291.7890625,-31.25,13.18359375,-30.2734375,-38.0859375,-43.9453125,0.0
291.79296875,-40.0390625,29.296875,-30.2734375,-44.43359375,-63.96484375,0.0
291.796875,-39.55078125,27.34375,-25.87890625,-39.0625,-33.203125,0.0
291.80078125,-37.109375,10.25390625,-28.80859375,-38.57421875,19.04296875,0.0
291.8046875,-41.015625,2.44140625,-37.59765625,-37.109375,106.4453125,0.0
291.80859375,-40.0390625,2.9296875,-38.57421875,-36.62109375,108.88671875,0.0
291.8125,-42.96875,0.0,-32.71484375,-41.9921875,80.078125,0.0
291.81640625,-38.57421875,-3.41796875,-28.80859375,-39.0625,114.74609375,0.0
291.8203125,-32.2265625,-2.9296875,-31.73828125,-33.203125,-25.87890625,0.0
291.82421875,-46.38671875,-15.13671875,-36.62109375,-35.64453125,-144.04296875,0.0
291.828125,-38.57421875,-21.484375,-26.3671875,-22.94921875,-136.71875,0.0
291.83203125,-24.90234375,-17.578125,-20.01953125,-26.85546875,-163.0859375,0.0
291.8359375,-35.15625,-25.87890625,-36.1328125,-46.875,-164.0625,0.0
291.83984375,-41.50390625,-30.2734375,-31.73828125,-47.8515625,-158.69140625,0.0
291.84375,-41.015625,-30.76171875,-22.94921875,-43.9453125,-197.75390625,0.0
291.84765625,-38.57421875,-32.71484375,-27.83203125,-45.41015625,-249.0234375,0.0
291.8515625,-27.83203125,-38.0859375,-30.2734375,-47.8515625,-200.68359375,0.0
291.85546875,-33.203125,-46.875,-29.296875,-40.52734375,-124.0234375,0.0
291.859375,-34.66796875,-50.78125,-24.4140625,-38.0859375,-175.29296875,0.0
291.86328125,-25.390625,-50.78125,-26.85546875,-37.59765625,-154.78515625,0.0
291.8671875,-29.296875,-49.31640625,-31.73828125,-31.73828125,-9.27734375,0.0
291.87109375,-23.4375,-54.19921875,-30.2734375,-30.2734375,-55.6640625,0.0
291.875,-22.4609375,-54.6875,-22.4609375,-24.4140625,-163.57421875,0.0
291.87890625,-23.92578125,-57.12890625,-27.34375,-26.85546875,-122.55859375,0.0
291.8828125,-32.2265625,-65.4296875,-30.76171875,-33.69140625,-88.8671875,0.0
291.88671875,-39.55078125,-54.6875,-34.66796875,-38.57421875,-138.18359375,0.0
291.890625,-32.2265625,-41.9921875,-37.59765625,-27.83203125,-22.94921875,0.0
291.89453125,-23.92578125,-52.24609375,-24.90234375,-22.94921875,183.59375,0.0
291.8984375,-26.3671875,-56.15234375,-14.6484375,-29.296875,115.72265625,0.0
291.90234375,-28.80859375,-55.6640625,-18.06640625,-22.94921875,63.4765625,0.0
291.90625,-20.01953125,-47.36328125,-17.578125,-21.484375,82.03125,0.0
291.91015625,-10.7421875,-37.109375,-17.578125,-24.4140625,47.8515625,0.0
291.9140625,-20.01953125,-41.50390625,-31.25,-30.76171875,34.1796875,0.0
291.91796875,-29.296875,-40.52734375,-39.55078125,-39.0625,61.03515625,0.0
291.921875,-24.4140625,-27.83203125,-40.52734375,-38.0859375,94.7265625,0.0
291.92578125,-20.01953125,-25.390625,-40.52734375,-34.1796875,103.515625,0.0
291.9296875,-30.76171875,-27.34375,-36.1328125,-36.62109375,141.11328125,0.0
291.93359375,-38.57421875,-14.6484375,-36.62109375,-37.59765625,111.81640625,0.0
291.9375,-24.4140625,0.9765625,-33.69140625,-28.80859375,67.87109375,0.0
291.94140625,-18.06640625,-1.953125,-22.94921875,-17.578125,83.984375,0.0
291.9453125,-22.4609375,-9.27734375,-22.4609375,-11.71875,87.40234375,0.0
291.94921875,-39.55078125,-10.25390625,-43.45703125,-31.25,98.14453125,0.0
291.953125,-40.0390625,-4.39453125,-47.36328125,-39.0625,49.31640625,0.0
291.95703125,-17.08984375,-3.41796875,-33.203125,-26.3671875,-41.50390625,0.0
291.9609375,-17.08984375,-12.20703125,-31.73828125,-29.78515625,-98.14453125,0.0
291.96484375,-28.3203125,-11.71875,-39.0625,-35.15625,-64.94140625,0.0
291.96875,-27.34375,-20.5078125,-36.62109375,-31.25,-54.6875,0.0
291.97265625,-31.25,-25.87890625,-37.59765625,-41.9921875,-15.625,0.0
291.9765625,-42.48046875,-21.97265625,-41.50390625,-54.19921875,28.80859375,0.0
291.98046875,-47.8515625,-25.390625,-47.36328125,-53.7109375,-58.10546875,0.0
291.984375,-43.9453125,-31.73828125,-53.7109375,-56.15234375,-77.63671875,0.0
291.98828125,-39.55078125,-32.2265625,-44.921875,-44.921875,-52.24609375,0.0
291.9921875,-31.25,-27.34375,-25.390625,-32.2265625,-93.75,0.0
291.99609375,-34.1796875,-28.3203125,-14.16015625,-43.45703125,-0.48828125,0.0
292.0,-34.1796875,-38.0859375,-18.06640625,-52.24609375,113.76953125,0.0
292.00390625,-24.90234375,-54.19921875,-26.85546875,-45.41015625,16.6015625,0.0
292.0078125,-36.62109375,-48.828125,-26.3671875,-44.921875,-137.20703125,0.0
292.01171875,-35.15625,-48.828125,-22.4609375,-37.59765625,-130.859375,0.0
292.015625,-27.34375,-57.12890625,-24.90234375,-31.25,-95.21484375,0.0
292.01953125,-34.1796875,-44.921875,-36.1328125,-31.25,-35.15625,0.0
292.0234375,-25.390625,-49.8046875,-34.66796875,-26.3671875,-20.5078125,0.0
292.02734375,-20.99609375,-57.12890625,-29.78515625,-31.25,-112.3046875,0.0
292.03125,-19.53125,-56.15234375,-32.2265625,-27.83203125,-65.4296875,0.0
292.03515625,-23.92578125,-52.24609375,-34.66796875,-37.59765625,-18.5546875,0.0
292.0390625,-26.3671875,-55.6640625,-33.203125,-37.109375,-61.03515625,0.0
292.04296875,-14.16015625,-56.15234375,-30.76171875,-26.3671875,17.08984375,0.0
292.046875,-0.48828125,-55.6640625,-31.73828125,-36.1328125,96.19140625,0.0
292.05078125,5.859375,-60.05859375,-41.9921875,-42.48046875,53.22265625,0.0
292.0546875,1.46484375,-56.640625,-42.48046875,-36.62109375,7.8125,0.0
292.05859375,0.0,-53.22265625,-38.0859375,-34.1796875,-71.77734375,0.0
292.0625,3.41796875,-60.546875,-40.0390625,-37.59765625,-13.18359375,0.0
292.06640625,1.953125,-56.15234375,-27.34375,-28.3203125,18.5546875,0.0
292.0703125,-7.8125,-44.43359375,-16.6015625,-18.5546875,-55.17578125,0.0
292.07421875,-16.11328125,-44.43359375,-19.04296875,-9.765625,-72.75390625,0.0
292.078125,-19.53125,-53.22265625,-17.578125,-1.953125,-81.0546875,0.0
292.08203125,-29.78515625,-61.5234375,-25.390625,-14.16015625,-184.5703125,0.0
292.0859375,-36.1328125,-62.98828125,-38.0859375,-16.11328125,-253.41796875,0.0
292.08984375,-36.1328125,-62.98828125,-41.50390625,-14.16015625,-206.54296875,0.0
292.09375,-30.2734375,-61.5234375,-39.55078125,-25.87890625,-142.08984375,0.0
292.09765625,-25.87890625,-54.19921875,-37.59765625,-20.99609375,-27.83203125,0.0
292.1015625,-21.97265625,-51.26953125,-36.1328125,-15.625,-8.30078125,0.0
292.10546875,-20.5078125,-56.640625,-36.1328125,-22.4609375,-53.7109375,0.0
292.109375,-18.5546875,-59.5703125,-28.3203125,-17.08984375,-39.55078125,0.0
292.11328125,-22.4609375,-53.7109375,-25.390625,-17.578125,-36.62109375,0.0
292.1171875,-34.1796875,-56.640625,-36.1328125,-34.1796875,-56.15234375,0.0
292.12109375,-30.2734375,-58.10546875,-27.83203125,-31.73828125,-46.875,0.0
292.125,-24.4140625,-44.921875,-16.11328125,-24.4140625,-57.12890625,0.0
292.12890625,-27.83203125,-41.50390625,-26.85546875,-35.64453125,-75.1953125,0.0
292.1328125,-30.76171875,-39.0625,-27.34375,-37.59765625,-66.89453125,0.0
292.13671875,-32.71484375,-39.55078125,-20.01953125,-33.69140625,-5.859375,0.0
292.140625,-33.69140625,-40.52734375,-30.76171875,-36.62109375,79.1015625,0.0
292.14453125,-32.71484375,-40.52734375,-29.78515625,-29.78515625,39.0625,0.0
292.1484375,-37.59765625,-47.36328125,-19.53125,-22.94921875,-86.9140625,0.0
292.15234375,-43.45703125,-44.921875,-27.83203125,-30.2734375,-84.9609375,0.0
292.15625,-37.109375,-41.9921875,-19.53125,-28.3203125,-43.9453125,0.0
292.16015625,-27.83203125,-50.78125,-16.11328125,-25.390625,-49.31640625,0.0
292.1640625,-31.25,-56.15234375,-27.83203125,-28.80859375,-74.70703125,0.0
292.16796875,-41.9921875,-50.29296875,-31.25,-32.71484375,-20.99609375,0.0
292.171875,-50.29296875,-46.38671875,-33.203125,-36.1328125,50.29296875,0.0
292.17578125,-62.01171875,-46.875,-38.0859375,-47.36328125,23.4375,0.0
292.1796875,-64.94140625,-49.31640625,-36.62109375,-54.19921875,-65.4296875,0.0
292.18359375,-46.875,-51.7578125,-45.8984375,-52.734375,-39.55078125,0.0
292.1875,-44.921875,-43.9453125,-59.08203125,-57.12890625,16.6015625,0.0
292.19140625,-53.22265625,-45.41015625,-46.875,-57.6171875,51.7578125,0.0
292.1953125,-47.8515625,-51.7578125,-41.50390625,-51.7578125,45.8984375,0.0
292.19921875,-48.33984375,-52.24609375,-41.50390625,-51.7578125,15.625,0.0
292.203125,-50.29296875,-43.9453125,-35.15625,-51.7578125,-26.85546875,0.0
292.20703125,-41.50390625,-41.50390625,-26.3671875,-40.0390625,-42.48046875,0.0
292.2109375,-40.52734375,-52.734375,-33.69140625,-42.96875,-16.11328125,0.0
292.21484375,-30.2734375,-56.640625,-55.17578125,-42.48046875,9.27734375,0.0
292.21875,-16.6015625,-50.29296875,-43.9453125,-21.97265625,17.578125,0.0
292.22265625,-66.40625,-49.8046875,-31.73828125,-50.29296875,-35.64453125,0.0
292.2265625,-82.03125,-60.05859375,-38.0859375,-70.80078125,28.80859375,0.0
292.23046875,-65.4296875,-66.89453125,-44.921875,-63.4765625,120.1171875,0.0
292.234375,-65.91796875,-75.1953125,-38.0859375,-57.6171875,80.078125,0.0
292.23828125,-53.22265625,-79.58984375,-22.94921875,-38.0859375,-4.39453125,0.0
292.2421875,-77.63671875,-80.078125,-24.90234375,-60.546875,1.953125,0.0
292.24609375,-97.16796875,-81.0546875,-29.78515625,-78.61328125,47.8515625,0.0
292.25,-86.42578125,-83.984375,-41.015625,-71.77734375,41.9921875,0.0
292.25390625,-71.77734375,-83.49609375,-32.2265625,-62.5,29.78515625,0.0
292.2578125,-64.453125,-78.125,-17.08984375,-51.26953125,23.4375,0.0
292.26171875,-74.70703125,-77.1484375,-30.2734375,-66.89453125,59.5703125,0.0
292.265625,-70.80078125,-75.1953125,-33.203125,-76.171875,32.2265625,0.0
292.26953125,-59.08203125,-82.51953125,-33.69140625,-61.03515625,-23.92578125,0.0
292.2734375,-66.40625,-87.40234375,-44.921875,-62.5,5.859375,0.0
292.27734375,-75.68359375,-85.44921875,-37.59765625,-65.91796875,44.43359375,0.0
292.28125,-63.4765625,-87.890625,-19.04296875,-52.24609375,-66.40625,0.0
292.28515625,-50.78125,-93.26171875,-18.5546875,-45.41015625,-205.56640625,0.0
292.2890625,-42.96875,-78.125,-14.6484375,-45.8984375,-184.5703125,0.0
292.29296875,-41.015625,-63.96484375,-15.13671875,-44.43359375,-125.9765625,0.0
292.296875,-55.17578125,-71.77734375,-30.76171875,-49.8046875,-90.8203125,0.0
292.30078125,-48.828125,-87.40234375,-32.71484375,-56.15234375,-60.05859375,0.0
292.3046875,-37.59765625,-94.23828125,-24.90234375,-47.8515625,-134.27734375,0.0
292.30859375,-39.0625,-89.35546875,-22.94921875,-47.8515625,-175.29296875,0.0
292.3125,-30.2734375,-79.58984375,-20.01953125,-43.9453125,-99.12109375,0.0
292.31640625,-28.80859375,-71.77734375,-26.3671875,-37.109375,-34.1796875,0.0
292.3203125,-47.36328125,-70.3125,-35.64453125,-37.109375,-14.6484375,0.0
292.32421875,-43.9453125,-69.82421875,-30.76171875,-25.390625,-77.1484375,0.0
292.328125,-41.015625,-61.5234375,-25.390625,-31.73828125,-116.69921875,0.0
292.33203125,-41.015625,-61.5234375,-23.92578125,-42.96875,-65.91796875,0.0
292.3359375,-49.31640625,-64.94140625,-31.73828125,-39.55078125,-85.44921875,0.0
292.33984375,-59.08203125,-64.94140625,-30.76171875,-35.64453125,-128.90625,0.0
292.34375,-55.17578125,-64.94140625,-23.4375,-40.52734375,-61.03515625,0.0
292.34765625,-59.5703125,-55.6640625,-32.71484375,-52.24609375,-72.265625,0.0
292.3515625,-59.5703125,-47.8515625,-45.41015625,-49.31640625,-103.515625,0.0
292.35546875,-54.19921875,-43.45703125,-42.48046875,-43.45703125,-54.6875,0.0
292.359375,-47.8515625,-49.31640625,-35.15625,-44.43359375,-7.32421875,0.0
292.36328125,-46.875,-58.10546875,-29.296875,-44.921875,-8.7890625,0.0
292.3671875,-55.17578125,-50.29296875,-29.296875,-51.26953125,-38.0859375,0.0
292.37109375,-58.10546875,-49.31640625,-35.64453125,-57.6171875,-79.1015625,0.0
292.375,-44.921875,-53.7109375,-30.2734375,-43.9453125,-86.9140625,0.0
292.37890625,-41.9921875,-58.59375,-32.2265625,-45.41015625,-26.3671875,0.0
292.3828125,-43.45703125,-56.15234375,-34.1796875,-45.41015625,-26.85546875,0.0
292.38671875,-42.48046875,-58.59375,-30.2734375,-35.15625,-53.22265625,0.0
292.390625,-43.45703125,-56.640625,-27.83203125,-36.62109375,-1.953125,0.0
292.39453125,-29.296875,-42.96875,-19.53125,-30.76171875,20.5078125,0.0
292.3984375,-36.62109375,-40.0390625,-19.04296875,-30.2734375,79.58984375,0.0
292.40234375,-49.31640625,-41.50390625,-20.5078125,-35.15625,111.328125,0.0
292.40625,-31.73828125,-37.109375,-12.20703125,-22.4609375,48.33984375,0.0
292.41015625,-25.390625,-37.109375,-21.97265625,-20.5078125,49.31640625,0.0
292.4140625,-31.25,-45.8984375,-25.390625,-26.85546875,24.90234375,0.0
292.41796875,-20.01953125,-49.8046875,-14.6484375,-23.4375,-17.578125,0.0
292.421875,-18.06640625,-48.828125,-21.97265625,-27.34375,4.8828125,0.0
292.42578125,-23.4375,-47.8515625,-32.2265625,-32.71484375,-32.71484375,0.0
292.4296875,-16.11328125,-42.96875,-27.34375,-23.92578125,-64.94140625,0.0
292.43359375,-18.5546875,-38.0859375,-16.6015625,-21.97265625,-5.37109375,0.0
292.4375,-24.4140625,-33.69140625,-16.6015625,-26.85546875,-20.5078125,0.0
292.44140625,-32.2265625,-36.62109375,-28.3203125,-36.62109375,-100.09765625,0.0
292.4453125,-35.15625,-38.0859375,-35.15625,-40.52734375,-107.91015625,0.0
292.44921875,-20.99609375,-31.73828125,-27.34375,-33.203125,-71.77734375,0.0
292.453125,-16.11328125,-25.87890625,-29.78515625,-22.4609375,-24.90234375,0.0
292.45703125,-19.04296875,-27.34375,-32.2265625,-19.53125,-125.48828125,0.0
292.4609375,-15.13671875,-21.97265625,-26.3671875,-25.87890625,-139.16015625,0.0
292.46484375,-25.87890625,-23.92578125,-39.0625,-30.2734375,-82.51953125,0.0
292.46875,-15.13671875,-27.34375,-47.36328125,-31.73828125,-32.2265625,0.0
292.47265625,-18.06640625,-26.3671875,-36.62109375,-35.64453125,17.08984375,0.0
292.4765625,-35.15625,-31.73828125,-30.76171875,-38.0859375,-66.40625,0.0
292.48046875,-36.62109375,-31.73828125,-36.1328125,-43.45703125,-53.22265625,0.0
292.484375,-37.59765625,-29.78515625,-38.57421875,-41.9921875,24.4140625,0.0
292.48828125,-40.52734375,-27.34375,-49.8046875,-56.15234375,24.4140625,0.0
292.4921875,-41.015625,-25.87890625,-44.921875,-61.03515625,11.23046875,0.0
292.49609375,-23.4375,-36.1328125,-29.296875,-36.62109375,-5.859375,0.0
292.5,-15.625,-31.73828125,-29.296875,-25.87890625,24.4140625,0.0
292.50390625,-23.4375,-30.2734375,-31.25,-30.76171875,26.85546875,0.0
292.5078125,-24.4140625,-41.015625,-24.90234375,-26.85546875,-23.92578125,0.0
292.51171875,-24.90234375,-36.62109375,-16.11328125,-14.6484375,-61.03515625,0.0
292.515625,-26.3671875,-29.296875,-21.97265625,-26.85546875,-34.1796875,0.0
292.51953125,-39.0625,-33.203125,-36.1328125,-43.45703125,-75.68359375,0.0
292.5234375,-39.55078125,-34.1796875,-40.52734375,-43.45703125,-141.6015625,0.0
292.52734375,-37.59765625,-29.296875,-36.1328125,-37.109375,-48.828125,0.0
292.53125,-30.76171875,-34.1796875,-32.2265625,-28.80859375,-0.9765625,0.0
292.53515625,-20.5078125,-35.64453125,-30.76171875,-25.87890625,-45.41015625,0.0
292.5390625,-15.625,-33.69140625,-25.87890625,-24.4140625,-46.38671875,0.0
292.54296875,-4.8828125,-32.2265625,-17.578125,-14.6484375,-70.80078125,0.0
292.546875,-8.7890625,-30.76171875,-20.01953125,-6.8359375,-86.42578125,0.0
292.55078125,-11.23046875,-24.4140625,-26.3671875,-13.18359375,-48.33984375,0.0
292.5546875,2.44140625,-26.85546875,-22.94921875,-0.9765625,-44.43359375,0.0
292.55859375,17.578125,-31.25,-23.92578125,15.13671875,-32.71484375,0.0
292.5625,-2.9296875,-25.87890625,-36.62109375,-12.20703125,5.37109375,0.0
292.56640625,-39.0625,-28.80859375,-55.6640625,-47.8515625,4.8828125,0.0
292.5703125,-47.36328125,-24.90234375,-66.40625,-62.98828125,-10.7421875,0.0
292.57421875,-27.83203125,-22.4609375,-63.96484375,-49.31640625,8.7890625,0.0
292.578125,-3.90625,-22.94921875,-57.6171875,-23.92578125,41.9921875,0.0
292.58203125,1.953125,-24.90234375,-43.45703125,-11.23046875,42.96875,0.0
292.5859375,8.7890625,-29.296875,-41.50390625,-11.23046875,25.390625,0.0
292.58984375,7.8125,-29.78515625,-55.6640625,-19.04296875,-9.27734375,0.0
292.59375,-1.953125,-23.4375,-71.2890625,-38.57421875,8.30078125,0.0
292.59765625,16.11328125,-24.90234375,-67.3828125,-29.78515625,10.25390625,0.0
292.6015625,12.20703125,-30.76171875,-58.10546875,-18.5546875,46.38671875,0.0
292.60546875,-4.39453125,-32.2265625,-56.640625,-20.5078125,2.9296875,0.0
292.609375,0.0,-32.2265625,-51.7578125,-12.6953125,-83.0078125,0.0
292.61328125,0.9765625,-26.3671875,-43.45703125,-7.32421875,-58.10546875,0.0
292.6171875,-13.671875,-16.6015625,-43.9453125,-12.6953125,-6.34765625,0.0
292.62109375,-18.06640625,-20.99609375,-43.9453125,-9.27734375,-0.9765625,0.0
292.625,-7.8125,-28.3203125,-46.875,0.48828125,40.0390625,0.0
292.62890625,-3.41796875,-22.4609375,-46.38671875,1.46484375,75.1953125,0.0
292.6328125,5.859375,-26.85546875,-37.59765625,10.7421875,-1.46484375,0.0
292.63671875,6.34765625,-13.18359375,-32.2265625,11.23046875,-60.05859375,0.0
292.640625,1.953125,2.44140625,-30.76171875,0.0,-145.99609375,0.0
292.64453125,-3.90625,-5.859375,-44.921875,-14.16015625,-196.2890625,0.0
292.6484375,-20.5078125,-12.6953125,-50.78125,-22.4609375,-211.42578125,0.0
292.65234375,-6.34765625,-11.71875,-36.62109375,-12.6953125,-174.31640625,0.0
292.65625,-6.34765625,-14.6484375,-43.45703125,-9.765625,-151.85546875,0.0
292.66015625,-20.01953125,-15.13671875,-58.59375,-17.578125,-50.78125,0.0
292.6640625,-7.32421875,-3.41796875,-53.7109375,-15.625,23.92578125,0.0
292.66796875,-5.37109375,9.27734375,-49.8046875,-20.99609375,-75.68359375,0.0
292.671875,-30.2734375,1.953125,-63.4765625,-33.69140625,-105.46875,0.0
292.67578125,-39.55078125,-10.7421875,-63.96484375,-36.62109375,-29.296875,0.0
292.6796875,-34.1796875,-13.18359375,-61.5234375,-39.0625,-13.18359375,0.0
292.68359375,-33.203125,-5.37109375,-60.546875,-35.15625,-37.59765625,0.0
292.6875,-32.71484375,-1.953125,-43.45703125,-27.34375,3.41796875,0.0
292.69140625,-23.92578125,-4.39453125,-35.64453125,-26.3671875,-22.4609375,0.0
292.6953125,-22.4609375,-4.8828125,-39.0625,-28.3203125,-14.6484375,0.0
292.69921875,-31.73828125,-9.765625,-43.45703125,-33.69140625,-45.8984375,0.0
292.703125,-31.25,-10.7421875,-47.36328125,-38.0859375,-84.47265625,0.0
292.70703125,-25.87890625,-14.6484375,-48.828125,-29.296875,-8.7890625,0.0
292.7109375,-23.4375,-15.13671875,-52.24609375,-23.92578125,46.38671875,0.0
292.71484375,-28.3203125,-8.30078125,-51.26953125,-25.87890625,83.984375,0.0
292.71875,-22.94921875,-9.765625,-39.55078125,-17.578125,24.90234375,0.0
292.72265625,-12.20703125,-16.11328125,-28.3203125,-10.25390625,17.08984375,0.0
292.7265625,-9.27734375,-20.99609375,-15.625,-3.41796875,5.859375,0.0
292.73046875,2.44140625,-21.484375,-10.7421875,3.41796875,-61.03515625,0.0
292.734375,27.83203125,-28.80859375,-22.4609375,13.18359375,-73.73046875,0.0
292.73828125,27.34375,-30.2734375,-13.18359375,16.11328125,-1.953125,0.0
292.7421875,-10.25390625,-24.4140625,-7.32421875,-15.625,3.90625,0.0
292.74609375,-44.921875,-28.3203125,-23.4375,-41.50390625,-49.31640625,0.0
292.75,-41.015625,-23.4375,-38.57421875,-26.85546875,-50.78125,0.0
292.75390625,-22.94921875,-15.13671875,-43.9453125,-14.16015625,-30.2734375,0.0
292.7578125,-7.8125,-16.6015625,-25.390625,-1.953125,-58.59375,0.0
292.76171875,-9.27734375,-20.01953125,-24.4140625,-3.41796875,-48.33984375,0.0
292.765625,-15.13671875,-19.04296875,-27.34375,-10.7421875,34.66796875,0.0
292.76953125,-16.6015625,-20.01953125,-23.4375,-7.32421875,39.0625,0.0
292.7734375,-4.39453125,-24.90234375,-15.13671875,6.34765625,-23.4375,0.0
292.77734375,-5.37109375,-32.2265625,-18.06640625,3.90625,-67.3828125,0.0
292.78125,-17.08984375,-28.80859375,-39.55078125,-17.08984375,-41.015625,0.0
292.78515625,-27.34375,-28.80859375,-56.15234375,-31.73828125,33.203125,0.0
292.7890625,-36.62109375,-32.71484375,-69.82421875,-41.50390625,67.87109375,0.0
292.79296875,-38.0859375,-28.80859375,-62.98828125,-46.875,-17.08984375,0.0
292.796875,-26.3671875,-30.76171875,-41.015625,-35.64453125,-17.578125,0.0
292.80078125,-17.578125,-39.55078125,-48.33984375,-34.66796875,27.34375,0.0
292.8046875,-19.04296875,-31.73828125,-44.921875,-34.1796875,11.71875,0.0
292.80859375,-20.01953125,-37.59765625,-37.109375,-37.59765625,-38.0859375,0.0
292.8125,-20.99609375,-48.828125,-41.50390625,-37.59765625,-75.1953125,0.0
292.81640625,-24.90234375,-38.0859375,-42.96875,-33.203125,-36.1328125,0.0
292.8203125,-39.55078125,-35.64453125,-52.734375,-47.36328125,7.32421875,0.0
292.82421875,-20.5078125,-33.69140625,-43.9453125,-36.62109375,-15.13671875,0.0
292.828125,-9.27734375,-27.34375,-26.85546875,-14.6484375,-37.109375,0.0
292.83203125,-27.83203125,-34.1796875,-26.3671875,-20.5078125,-58.59375,0.0
292.8359375,-13.18359375,-41.9921875,-40.52734375,-28.80859375,-128.90625,0.0
292.83984375,-15.13671875,-37.109375,-37.109375,-26.85546875,-116.2109375,0.0
292.84375,-33.203125,-29.78515625,-44.921875,-28.80859375,-65.91796875,0.0
292.84765625,-25.390625,-29.296875,-56.15234375,-29.78515625,-52.24609375,0.0
292.8515625,-24.90234375,-27.34375,-55.6640625,-32.2265625,-46.875,0.0
292.85546875,-34.1796875,-30.76171875,-60.546875,-36.62109375,-47.8515625,0.0
292.859375,-37.109375,-42.48046875,-55.6640625,-39.55078125,-40.52734375,0.0
292.86328125,-21.97265625,-45.8984375,-40.0390625,-38.57421875,-41.015625,0.0
292.8671875,-23.92578125,-44.43359375,-39.0625,-42.48046875,-91.30859375,0.0
292.87109375,-40.0390625,-47.36328125,-41.50390625,-46.38671875,-93.26171875,0.0
292.875,-38.57421875,-52.24609375,-34.1796875,-36.1328125,-31.73828125,0.0
292.87890625,-39.0625,-50.78125,-30.2734375,-25.390625,-15.625,0.0
292.8828125,-43.9453125,-46.38671875,-34.1796875,-26.3671875,-35.64453125,0.0
292.88671875,-56.15234375,-40.0390625,-43.45703125,-36.62109375,-17.08984375,0.0
292.890625,-62.01171875,-36.62109375,-53.22265625,-47.8515625,51.26953125,0.0
292.89453125,-41.50390625,-42.48046875,-42.96875,-39.0625,16.11328125,0.0
292.8984375,-30.2734375,-40.0390625,-38.0859375,-30.76171875,-16.6015625,0.0
292.90234375,-28.3203125,-41.9921875,-36.1328125,-27.83203125,-22.4609375,0.0
292.90625,-21.97265625,-42.48046875,-34.1796875,-31.25,-87.40234375,0.0
292.91015625,-20.01953125,-43.9453125,-47.8515625,-28.80859375,-47.8515625,0.0
292.9140625,-35.64453125,-42.48046875,-40.0390625,-37.59765625,4.8828125,0.0
292.91796875,-45.8984375,-34.66796875,-25.390625,-51.7578125,-71.2890625,0.0
292.921875,-33.203125,-37.59765625,-29.296875,-36.62109375,-111.81640625,0.0
292.92578125,-25.390625,-42.96875,-28.80859375,-25.87890625,-71.2890625,0.0
292.9296875,-30.2734375,-46.875,-44.43359375,-42.48046875,-21.97265625,0.0
292.93359375,-37.59765625,-44.921875,-56.640625,-45.8984375,-4.39453125,0.0
292.9375,-26.85546875,-19.53125,-39.55078125,-24.4140625,-19.53125,0.0
292.94140625,-19.53125,-25.87890625,-33.69140625,-28.80859375,-68.359375,0.0
292.9453125,-12.6953125,-52.734375,-32.71484375,-25.390625,-114.2578125,0.0
292.94921875,-17.578125,-43.45703125,-29.296875,-17.578125,-29.78515625,0.0
292.953125,-29.296875,-50.29296875,-25.390625,-30.2734375,-26.85546875,0.0
292.95703125,-23.4375,-46.38671875,-17.578125,-27.83203125,-65.4296875,0.0
292.9609375,-29.296875,-12.6953125,-23.92578125,-30.2734375,-34.1796875,0.0
292.96484375,-51.7578125,-16.6015625,-51.26953125,-58.59375,8.30078125,0.0
292.96875,-50.29296875,-34.1796875,-52.24609375,-57.6171875,0.9765625,0.0
292.97265625,-40.0390625,-42.96875,-41.015625,-50.78125,-58.59375,0.0
292.9765625,-64.453125,-47.36328125,-54.6875,-77.63671875,1.46484375,0.0
292.98046875,-44.43359375,-29.296875,-55.6640625,-59.5703125,28.80859375,0.0
292.984375,20.5078125,-20.5078125,-31.73828125,5.37109375,34.66796875,0.0
292.98828125,-2.44140625,-34.66796875,-11.23046875,-1.953125,72.75390625,0.0
292.9921875,-75.1953125,-37.59765625,-24.90234375,-63.96484375,67.87109375,0.0
292.99609375,-111.328125,-18.06640625,-48.33984375,-107.91015625,52.24609375,0.0
293.0,-124.0234375,-13.18359375,-51.26953125,-131.34765625,-8.30078125,0.0
293.00390625,-97.16796875,-44.921875,-37.59765625,-106.93359375,-82.03125,0.0
293.0078125,-91.30859375,-53.22265625,-26.85546875,-95.21484375,-58.59375,0.0
293.01171875,-105.46875,-39.55078125,-27.83203125,-109.375,-46.875,0.0
293.015625,-102.5390625,-29.296875,-23.92578125,-109.375,-76.171875,0.0
293.01953125,-110.3515625,-33.69140625,-11.23046875,-105.46875,-111.81640625,0.0
293.0234375,-105.95703125,-41.9921875,-14.6484375,-107.91015625,-43.9453125,0.0
293.02734375,-90.8203125,-42.48046875,-17.08984375,-89.35546875,10.7421875,0.0
293.03125,-80.56640625,-32.71484375,-20.01953125,-71.77734375,-35.64453125,0.0
293.03515625,-62.5,-26.3671875,-19.04296875,-55.6640625,-23.4375,0.0
293.0390625,-51.26953125,-21.484375,-11.71875,-45.8984375,-25.87890625,0.0
293.04296875,-61.5234375,-25.390625,-14.16015625,-60.546875,-72.75390625,0.0
293.046875,-57.6171875,-37.109375,-5.859375,-53.7109375,-128.90625,0.0
293.05078125,-50.78125,-37.59765625,-4.39453125,-53.7109375,-82.03125,0.0
293.0546875,-55.6640625,-36.62109375,-15.625,-65.4296875,-98.6328125,0.0
293.05859375,-64.453125,-30.2734375,-13.18359375,-56.640625,-140.13671875,0.0
293.0625,-65.91796875,-24.4140625,-17.578125,-53.22265625,-132.32421875,0.0
293.06640625,-56.640625,-27.34375,-30.76171875,-60.05859375,-113.28125,0.0
293.0703125,-54.6875,-23.4375,-23.92578125,-53.7109375,-61.5234375,0.0
293.07421875,-58.10546875,-23.92578125,-13.671875,-56.15234375,51.26953125,0.0
293.078125,-50.29296875,-36.1328125,-12.6953125,-60.546875,101.5625,0.0
293.08203125,-41.015625,-37.59765625,-10.25390625,-49.31640625,-11.71875,0.0
293.0859375,-38.57421875,-30.76171875,-15.13671875,-43.9453125,-5.37109375,0.0
293.08984375,-44.43359375,-36.62109375,-26.3671875,-50.78125,52.734375,0.0
293.09375,-50.78125,-39.0625,-34.66796875,-53.22265625,19.04296875,0.0
293.09765625,-45.8984375,-38.57421875,-24.90234375,-39.0625,18.5546875,0.0
293.1015625,-44.921875,-31.73828125,-21.484375,-25.390625,-13.671875,0.0
293.10546875,-42.48046875,-24.4140625,-25.390625,-30.76171875,-70.80078125,0.0
293.109375,-41.9921875,-27.83203125,-18.5546875,-43.45703125,-59.5703125,0.0
293.11328125,-29.296875,-27.83203125,-5.37109375,-30.76171875,-41.9921875,0.0
293.1171875,-17.08984375,-28.80859375,-1.953125,-20.5078125,-22.4609375,0.0
293.12109375,-16.11328125,-29.78515625,-1.953125,-21.484375,3.90625,0.0
293.125,-8.7890625,-31.25,1.46484375,-12.6953125,28.80859375,0.0
293.12890625,-20.5078125,-27.34375,-7.32421875,-17.578125,-82.03125,0.0
293.1328125,-22.94921875,-7.8125,-18.06640625,-26.85546875,-166.9921875,0.0
293.13671875,-14.6484375,-34.1796875,-20.99609375,-30.76171875,-209.9609375,0.0
293.140625,0.0,-63.96484375,-8.7890625,-29.296875,-267.578125,0.0
293.14453125,14.16015625,-57.12890625,-4.8828125,-20.99609375,-262.6953125,0.0
293.1484375,3.90625,-52.734375,-15.625,-16.6015625,-226.5625,0.0
293.15234375,-4.39453125,-50.29296875,-23.4375,-21.97265625,-143.5546875,0.0
293.15625,-15.625,-45.8984375,-20.99609375,-24.90234375,-80.078125,0.0
293.16015625,-30.2734375,-53.22265625,-16.11328125,-27.83203125,-120.1171875,0.0
293.1640625,-28.3203125,-15.13671875,-22.4609375,-32.2265625,-193.359375,0.0
293.16796875,-27.34375,-3.90625,-20.99609375,-28.3203125,-174.8046875,0.0
293.171875,-29.78515625,-55.6640625,-16.6015625,-24.90234375,-137.20703125,0.0
293.17578125,-30.76171875,-20.5078125,-21.97265625,-22.4609375,-58.59375,0.0
293.1796875,-23.4375,-23.4375,-17.08984375,-20.5078125,77.1484375,0.0
293.18359375,-13.671875,-37.59765625,-18.06640625,-25.87890625,43.9453125,0.0
293.1875,-28.80859375,-18.5546875,-20.99609375,-28.80859375,-83.49609375,0.0
293.19140625,-41.015625,-40.52734375,-20.99609375,-31.25,-35.64453125,0.0
293.1953125,-32.2265625,-22.4609375,-21.484375,-30.2734375,-15.13671875,0.0
293.19921875,-21.484375,-22.94921875,-22.4609375,-25.87890625,-54.19921875,0.0
293.203125,-7.32421875,-42.96875,-11.71875,-16.6015625,7.32421875,0.0
293.20703125,-10.7421875,-32.71484375,-12.20703125,-22.4609375,-28.3203125,0.0
293.2109375,-24.4140625,-39.55078125,-22.4609375,-39.55078125,-59.08203125,0.0
293.21484375,-30.2734375,-40.52734375,-21.97265625,-41.9921875,47.8515625,0.0
293.21875,-37.109375,-34.1796875,-36.62109375,-45.8984375,18.06640625,0.0
293.22265625,-34.1796875,-40.0390625,-41.50390625,-38.0859375,-35.64453125,0.0
293.2265625,-31.25,-38.57421875,-40.0390625,-33.203125,-85.9375,0.0
293.23046875,-30.2734375,-34.66796875,-35.64453125,-34.66796875,-62.5,0.0
293.234375,-14.16015625,-40.0390625,-28.3203125,-19.04296875,20.99609375,0.0
293.23828125,-18.5546875,-38.57421875,-32.2265625,-9.765625,51.26953125,0.0
293.2421875,-36.62109375,-37.109375,-43.9453125,-27.34375,55.6640625,0.0
293.24609375,-35.64453125,-41.015625,-41.015625,-32.2265625,51.26953125,0.0
293.25,0.0,-36.62109375,-13.18359375,16.6015625,25.87890625,0.0
293.25390625,34.1796875,-33.203125,-20.01953125,43.45703125,-20.99609375,0.0
293.2578125,-8.30078125,-35.64453125,-40.0390625,-5.859375,-0.9765625,0.0
293.26171875,-51.26953125,-38.57421875,-35.64453125,-49.8046875,23.92578125,0.0
293.265625,-52.24609375,-36.62109375,-39.55078125,-53.22265625,8.7890625,0.0
293.26953125,-56.15234375,-26.85546875,-41.9921875,-69.82421875,-29.78515625,0.0
293.2734375,-66.89453125,-21.97265625,-37.109375,-83.49609375,-55.17578125,0.0
293.27734375,-68.84765625,-23.4375,-42.48046875,-90.33203125,21.484375,0.0
293.28125,-56.640625,-34.1796875,-47.36328125,-82.51953125,59.5703125,0.0
293.28515625,-47.36328125,-37.59765625,-33.203125,-66.40625,-2.44140625,0.0
293.2890625,-64.453125,-42.96875,-31.25,-82.03125,-58.59375,0.0
293.29296875,-69.3359375,-37.109375,-33.69140625,-89.35546875,-76.171875,0.0
293.296875,-45.41015625,-27.34375,-26.3671875,-62.5,32.2265625,0.0
293.30078125,-34.1796875,-32.71484375,-31.25,-48.828125,121.58203125,0.0
293.3046875,-33.203125,-37.109375,-32.2265625,-49.31640625,38.57421875,0.0
293.30859375,-21.484375,-33.203125,-27.34375,-41.50390625,-64.94140625,0.0
293.3125,-22.4609375,-17.08984375,-34.1796875,-46.875,-51.7578125,0.0
293.31640625,-38.0859375,-26.85546875,-42.48046875,-59.5703125,-5.37109375,0.0
293.3203125,-44.921875,-35.64453125,-51.26953125,-69.3359375,1.46484375,0.0
293.32421875,-38.0859375,-33.69140625,-43.45703125,-69.82421875,21.484375,0.0
293.328125,-34.66796875,-35.64453125,-23.92578125,-53.22265625,-13.18359375,0.0
293.33203125,-39.55078125,-28.3203125,-26.85546875,-49.31640625,-51.7578125,0.0
293.3359375,-35.15625,-31.73828125,-32.2265625,-59.08203125,-3.41796875,0.0
293.33984375,-38.57421875,-23.92578125,-35.15625,-62.5,-38.0859375,0.0
293.34375,-44.921875,-20.01953125,-41.50390625,-62.01171875,-62.01171875,0.0
293.34765625,-52.734375,-42.96875,-44.43359375,-68.84765625,54.6875,0.0
293.3515625,-71.2890625,-38.0859375,-52.24609375,-72.265625,65.4296875,0.0
293.35546875,-74.21875,-16.11328125,-53.7109375,-77.1484375,-1.46484375,0.0
293.359375,-60.05859375,-20.01953125,-46.875,-81.0546875,20.5078125,0.0
293.36328125,-55.6640625,-32.71484375,-32.2265625,-69.82421875,19.53125,0.0
293.3671875,-46.875,-14.6484375,-26.85546875,-65.91796875,-28.80859375,0.0
293.37109375,-29.78515625,-5.859375,-19.53125,-50.78125,-141.6015625,0.0
293.375,-24.90234375,-19.53125,-7.8125,-33.69140625,-224.12109375,0.0
293.37890625,-25.87890625,-19.53125,-2.9296875,-36.1328125,-188.96484375,0.0
293.3828125,-29.296875,-26.85546875,2.44140625,-38.0859375,-140.13671875,0.0
293.38671875,-24.4140625,-31.25,-2.44140625,-28.80859375,-111.328125,0.0
293.390625,-19.53125,-38.57421875,-1.953125,-24.90234375,-31.25,0.0
293.39453125,-8.7890625,-29.296875,16.11328125,-20.99609375,-17.578125,0.0
293.3984375,-6.34765625,-19.53125,22.4609375,-13.18359375,34.66796875,0.0
293.40234375,-4.8828125,-3.90625,20.99609375,-10.25390625,46.38671875,0.0
293.40625,-11.23046875,29.78515625,17.578125,-10.7421875,-84.9609375,0.0
293.41015625,-25.390625,28.80859375,11.23046875,-20.01953125,-72.75390625,0.0
293.4140625,-35.15625,33.203125,3.90625,-28.80859375,-2.44140625,0.0
293.41796875,-33.69140625,27.83203125,-2.9296875,-26.3671875,-30.2734375,0.0
293.421875,-32.2265625,21.97265625,0.9765625,-24.4140625,-80.56640625,0.0
293.42578125,-24.4140625,40.0390625,6.34765625,-14.16015625,-46.38671875,0.0
293.4296875,-31.73828125,45.8984375,-8.30078125,-29.296875,-44.921875,0.0
293.43359375,-57.6171875,42.96875,-17.08984375,-46.38671875,-56.640625,0.0
293.4375,-62.01171875,44.921875,-10.25390625,-42.96875,-29.296875,0.0
293.44140625,-47.36328125,38.57421875,-10.7421875,-38.0859375,-96.19140625,0.0
293.4453125,-45.41015625,41.9921875,-24.90234375,-46.875,-51.7578125,0.0
293.44921875,-55.6640625,44.921875,-29.296875,-57.12890625,-3.90625,0.0
293.453125,-51.26953125,35.15625,-26.3671875,-64.453125,-41.015625,0.0
293.45703125,-40.0390625,26.85546875,-19.53125,-46.38671875,-17.08984375,0.0
293.4609375,-49.31640625,30.76171875,-12.6953125,-39.0625,-63.4765625,0.0
293.46484375,-69.3359375,40.0390625,-38.57421875,-65.91796875,-42.48046875,0.0
293.46875,-76.171875,27.34375,-47.8515625,-67.87109375,34.66796875,0.0
293.47265625,-31.25,15.625,-22.4609375,-25.87890625,-17.08984375,0.0
293.4765625,-36.1328125,20.01953125,-25.87890625,-33.69140625,-102.05078125,0.0
293.48046875,-63.4765625,21.484375,-48.33984375,-58.59375,-98.6328125,0.0
293.484375,-37.59765625,10.7421875,-37.59765625,-41.9921875,-104.98046875,0.0
293.48828125,-18.06640625,7.8125,-31.73828125,-19.04296875,-103.515625,0.0
293.4921875,-17.08984375,12.20703125,-37.109375,-7.8125,-52.734375,0.0
293.49609375,-55.6640625,0.0,-39.55078125,-54.6875,-21.484375,0.0
293.5,-69.82421875,-2.44140625,-47.36328125,-77.1484375,-3.90625,0.0
293.50390625,-45.41015625,-0.48828125,-48.33984375,-61.03515625,3.90625,0.0
293.5078125,-36.1328125,-9.27734375,-44.43359375,-51.7578125,-61.5234375,0.0
293.51171875,-37.59765625,-14.6484375,-38.0859375,-40.0390625,-121.58203125,0.0
293.515625,-25.390625,-16.11328125,-28.80859375,-27.34375,-118.1640625,0.0
293.51953125,-20.99609375,-9.27734375,-24.90234375,-21.484375,-40.52734375,0.0
293.5234375,-18.5546875,-13.18359375,-33.203125,-21.97265625,-14.6484375,0.0
293.52734375,-17.08984375,-20.5078125,-39.0625,-18.5546875,-33.69140625,0.0
293.53125,-21.97265625,-18.06640625,-41.9921875,-20.5078125,13.18359375,0.0
293.53515625,-28.3203125,-30.76171875,-50.29296875,-23.4375,-68.84765625,0.0
293.5390625,-26.85546875,-46.38671875,-48.828125,-21.484375,-91.30859375,0.0
293.54296875,-35.64453125,-45.41015625,-50.29296875,-35.15625,-6.8359375,0.0
293.546875,-34.1796875,-43.45703125,-49.31640625,-38.57421875,8.30078125,0.0
293.55078125,-19.53125,-50.29296875,-42.96875,-26.3671875,-54.19921875,0.0
293.5546875,-10.7421875,-50.29296875,-34.1796875,-14.16015625,-42.96875,0.0
293.55859375,-1.953125,-52.734375,-23.92578125,-2.44140625,-20.5078125,0.0
293.5625,-12.6953125,-66.40625,-31.25,-8.30078125,-26.85546875,0.0
293.56640625,-11.71875,-73.73046875,-41.015625,-19.04296875,-34.66796875,0.0
293.5703125,-21.484375,-70.80078125,-50.78125,-32.2265625,-69.3359375,0.0
293.57421875,-22.4609375,-69.3359375,-35.64453125,-28.80859375,-87.890625,0.0
293.578125,-0.9765625,-69.3359375,-7.32421875,-7.8125,-104.00390625,0.0
293.58203125,14.16015625,-67.3828125,2.9296875,5.37109375,-4.8828125,0.0
293.5859375,25.87890625,-68.84765625,14.16015625,21.484375,9.27734375,0.0
293.58984375,25.87890625,-66.40625,18.06640625,28.3203125,-37.109375,0.0
293.59375,31.25,-63.4765625,18.5546875,38.0859375,-27.83203125,0.0
293.59765625,26.3671875,-67.87109375,15.625,32.2265625,-26.3671875,0.0
293.6015625,17.578125,-66.89453125,17.08984375,24.90234375,-18.06640625,0.0
293.60546875,15.625,-61.5234375,8.30078125,10.7421875,14.16015625,0.0
293.609375,0.48828125,-59.08203125,-6.8359375,-8.30078125,40.0390625,0.0
293.61328125,17.08984375,-59.08203125,4.39453125,6.8359375,16.11328125,0.0
293.6171875,16.11328125,-62.98828125,4.39453125,8.30078125,-11.23046875,0.0
293.62109375,9.27734375,-64.453125,5.859375,10.25390625,13.18359375,0.0
293.625,16.6015625,-53.7109375,9.765625,18.06640625,52.734375,0.0
293.62890625,6.8359375,-45.41015625,-0.48828125,3.90625,60.546875,0.0
293.6328125,-3.41796875,-51.26953125,-12.20703125,-7.32421875,52.24609375,0.0
293.63671875,-19.04296875,-53.7109375,-25.87890625,-17.08984375,7.32421875,0.0
293.640625,-23.92578125,-40.0390625,-28.80859375,-18.06640625,34.66796875,0.0
293.64453125,-19.04296875,-47.8515625,-25.87890625,-9.27734375,37.109375,0.0
293.6484375,-13.671875,-58.59375,-35.15625,-14.6484375,19.04296875,0.0
293.65234375,-18.5546875,-57.6171875,-42.96875,-23.92578125,17.08984375,0.0
293.65625,-41.015625,-62.98828125,-51.7578125,-35.64453125,-30.2734375,0.0
293.66015625,-47.36328125,-40.52734375,-55.17578125,-36.1328125,-41.9921875,0.0
293.6640625,-44.43359375,-36.1328125,-55.6640625,-30.2734375,-87.890625,0.0
293.66796875,-43.9453125,-50.78125,-59.08203125,-39.0625,-106.93359375,0.0
293.671875,-55.6640625,-41.9921875,-65.91796875,-63.96484375,-71.2890625,0.0
293.67578125,-51.26953125,-39.0625,-72.265625,-61.03515625,-76.171875,0.0
293.6796875,-23.92578125,-59.08203125,-61.03515625,-28.3203125,-36.1328125,0.0
293.68359375,-29.296875,-61.5234375,-53.7109375,-38.57421875,12.6953125,0.0
293.6875,-35.64453125,-46.38671875,-52.734375,-54.19921875,-16.6015625,0.0
293.69140625,-21.484375,-56.15234375,-52.734375,-51.7578125,-36.62109375,0.0
293.6953125,-16.11328125,-52.24609375,-44.921875,-42.96875,-19.53125,0.0
293.69921875,-33.203125,-32.71484375,-41.50390625,-41.9921875,-47.36328125,0.0
293.703125,-34.66796875,-45.41015625,-38.57421875,-43.45703125,-35.64453125,0.0
293.70703125,-46.875,-65.4296875,-43.9453125,-54.6875,-17.08984375,0.0
293.7109375,-56.640625,-51.7578125,-54.19921875,-58.10546875,39.0625,0.0
293.71484375,-43.9453125,-31.73828125,-51.7578125,-43.9453125,45.41015625,0.0
293.71875,-33.69140625,-34.1796875,-42.48046875,-20.01953125,-41.9921875,0.0
293.72265625,-38.0859375,-38.0859375,-29.78515625,-9.27734375,-28.3203125,0.0
293.7265625,-43.45703125,-27.83203125,-29.78515625,-41.50390625,49.8046875,0.0
293.73046875,-37.109375,-30.2734375,-34.66796875,-53.22265625,57.6171875,0.0
293.734375,-35.64453125,-17.578125,-22.94921875,-12.20703125,15.625,0.0
293.73828125,-26.85546875,24.4140625,-10.25390625,-5.37109375,-30.2734375,0.0
293.7421875,-22.94921875,15.13671875,-18.06640625,-25.87890625,-25.390625,0.0
293.74609375,-30.2734375,8.30078125,-31.25,-24.90234375,-5.859375,0.0
293.75,-52.734375,14.16015625,-33.69140625,-32.2265625,-74.21875,0.0
293.75390625,-64.453125,-6.8359375,-37.59765625,-47.8515625,-66.89453125,0.0
293.7578125,-53.22265625,3.90625,-27.34375,-46.38671875,-84.9609375,0.0
293.76171875,-36.1328125,29.296875,-15.13671875,-25.390625,-143.5546875,0.0
293.765625,-36.1328125,17.08984375,-17.08984375,-16.6015625,-99.12109375,0.0
293.76953125,-50.29296875,9.765625,-23.92578125,-37.59765625,-15.625,0.0
293.7734375,-41.50390625,10.25390625,-33.69140625,-45.8984375,-7.32421875,0.0
293.77734375,-27.34375,0.48828125,-35.15625,-36.1328125,-40.52734375,0.0
293.78125,-28.80859375,-2.44140625,-33.69140625,-32.71484375,-87.890625,0.0
293.78515625,-20.99609375,-2.9296875,-34.66796875,-29.296875,-77.63671875,0.0
293.7890625,-18.5546875,2.9296875,-33.203125,-15.13671875,-54.19921875,0.0
293.79296875,-21.484375,2.9296875,-40.0390625,-13.18359375,-40.0390625,0.0
293.796875,-20.99609375,-2.44140625,-46.38671875,-32.71484375,-36.1328125,0.0
293.80078125,-19.04296875,-9.765625,-38.0859375,-30.76171875,-44.921875,0.0
293.8046875,1.953125,-12.20703125,-33.69140625,-5.37109375,-67.3828125,0.0
293.80859375,-9.765625,-4.39453125,-37.59765625,-7.8125,-73.73046875,0.0
293.8125,-25.87890625,-6.8359375,-44.43359375,-19.53125,-48.828125,0.0
293.81640625,-24.90234375,-7.32421875,-56.15234375,-25.87890625,-25.87890625,0.0
293.8203125,-27.34375,-4.8828125,-51.7578125,-28.3203125,41.50390625,0.0
293.82421875,-12.20703125,-5.859375,-42.48046875,-27.83203125,62.5,0.0
293.828125,-20.5078125,-7.8125,-45.41015625,-29.296875,4.39453125,0.0
293.83203125,-22.94921875,-13.671875,-46.875,-21.97265625,-94.23828125,0.0
293.8359375,-8.30078125,-9.765625,-39.0625,-14.6484375,-87.40234375,0.0
293.83984375,2.44140625,-5.37109375,-41.50390625,-22.94921875,0.9765625,0.0
293.84375,-16.6015625,-13.671875,-44.43359375,-25.390625,-21.484375,0.0
293.84765625,-35.15625,-18.5546875,-40.52734375,-22.4609375,-96.6796875,0.0
293.8515625,-31.73828125,-25.390625,-44.921875,-41.9921875,-95.21484375,0.0
293.85546875,-23.92578125,-32.2265625,-47.36328125,-35.15625,-36.62109375,0.0
293.859375,-16.11328125,-32.71484375,-36.62109375,-27.83203125,-51.7578125,0.0
293.86328125,-11.71875,-32.2265625,-30.76171875,-38.57421875,-35.64453125,0.0
293.8671875,-11.23046875,-37.109375,-27.34375,-17.08984375,-7.32421875,0.0
293.87109375,-1.953125,-41.9921875,-13.18359375,-2.9296875,-63.96484375,0.0
293.875,15.625,-42.48046875,-15.625,-8.30078125,-63.4765625,0.0
293.87890625,0.0,-49.8046875,-29.296875,-16.11328125,39.55078125,0.0
293.8828125,-2.9296875,-49.8046875,-20.5078125,-16.6015625,52.734375,0.0
293.88671875,7.32421875,-47.8515625,-17.08984375,-21.97265625,-20.99609375,0.0
293.890625,0.0,-47.36328125,-22.94921875,-26.3671875,-63.4765625,0.0
293.89453125,13.18359375,-48.33984375,-20.5078125,-12.6953125,-11.23046875,0.0
293.8984375,22.94921875,-54.6875,-22.4609375,-24.4140625,19.04296875,0.0
293.90234375,23.92578125,-59.5703125,-8.30078125,-24.90234375,-25.87890625,0.0
293.90625,38.57421875,-57.6171875,-5.37109375,3.41796875,-23.4375,0.0
293.91015625,41.50390625,-61.5234375,-18.5546875,11.71875,-15.625,0.0
293.9140625,44.921875,-73.73046875,-13.18359375,5.37109375,-56.15234375,0.0
293.91796875,29.78515625,-78.125,-3.41796875,-13.18359375,-99.609375,0.0
293.921875,11.71875,-79.58984375,-16.6015625,-29.296875,-41.50390625,0.0
293.92578125,20.99609375,-80.56640625,-22.4609375,-34.66796875,27.83203125,0.0
293.9296875,36.1328125,-73.73046875,-20.01953125,-32.2265625,-21.97265625,0.0
293.93359375,79.1015625,-83.0078125,-20.5078125,10.25390625,-72.265625,0.0
293.9375,72.75390625,-92.7734375,-7.8125,21.97265625,-13.671875,0.0
293.94140625,-10.7421875,-93.26171875,-16.11328125,-56.15234375,11.71875,0.0
293.9453125,-26.3671875,-94.23828125,-37.109375,-81.54296875,-47.36328125,0.0
293.94921875,15.625,-78.125,-33.203125,-25.390625,-108.3984375,0.0
293.953125,12.6953125,-84.47265625,-20.01953125,-28.3203125,-102.05078125,0.0
293.95703125,-9.27734375,-94.23828125,-14.16015625,-49.31640625,-122.55859375,0.0
293.9609375,6.34765625,-82.03125,-7.32421875,-30.2734375,-127.44140625,0.0
293.96484375,39.0625,-77.1484375,-11.23046875,-0.48828125,-63.96484375,0.0
293.96875,27.34375,-74.70703125,-19.04296875,0.0,-25.390625,0.0
293.97265625,-16.11328125,-69.82421875,-35.64453125,-43.9453125,-12.6953125,0.0
293.9765625,-37.109375,-66.40625,-42.96875,-58.10546875,27.83203125,0.0
293.98046875,-22.4609375,-70.80078125,-43.9453125,-39.55078125,93.75,0.0
293.984375,-21.97265625,-72.265625,-45.8984375,-31.25,109.375,0.0
293.98828125,-9.27734375,-69.82421875,-26.85546875,-8.30078125,3.41796875,0.0
293.9921875,-10.7421875,-66.89453125,-36.62109375,-35.64453125,-83.49609375,0.0
293.99609375,-38.0859375,-65.91796875,-62.5,-81.0546875,-47.36328125,0.0
294.0,-39.0625,-65.4296875,-52.24609375,-69.3359375,-35.15625,0.0
294.00390625,-23.4375,-55.6640625,-26.85546875,-23.4375,-18.06640625,0.0
294.0078125,3.90625,-59.5703125,-6.34765625,-2.9296875,0.9765625,0.0
294.01171875,4.8828125,-60.05859375,0.9765625,-6.34765625,3.90625,0.0
294.015625,-14.6484375,-51.26953125,4.8828125,-1.46484375,21.97265625,0.0
294.01953125,-19.04296875,-52.24609375,-8.30078125,-0.48828125,66.89453125,0.0
294.0234375,-25.87890625,-53.22265625,-27.34375,-27.83203125,45.41015625,0.0
294.02734375,-31.25,-60.05859375,-27.83203125,-41.015625,-45.8984375,0.0
294.03125,-25.390625,-60.05859375,-17.578125,-28.80859375,-72.265625,0.0
294.03515625,-24.90234375,-59.5703125,-20.5078125,-31.25,-99.609375,0.0
294.0390625,-21.97265625,-58.10546875,-31.73828125,-30.2734375,-87.890625,0.0
294.04296875,-28.80859375,-52.24609375,-38.0859375,-45.8984375,-67.87109375,0.0
294.046875,-35.64453125,-43.45703125,-37.59765625,-32.2265625,-20.99609375,0.0
294.05078125,-42.96875,-42.96875,-27.34375,-34.66796875,-22.94921875,0.0
294.0546875,-51.7578125,-48.33984375,-31.73828125,-48.828125,-95.703125,0.0
294.05859375,-41.50390625,-44.921875,-33.69140625,-28.3203125,-97.16796875,0.0
294.0625,-28.3203125,-39.55078125,-31.73828125,-30.2734375,-143.5546875,0.0
294.06640625,-19.53125,-38.0859375,-38.57421875,-23.92578125,-79.1015625,0.0
294.0703125,-14.6484375,-38.0859375,-20.01953125,7.8125,8.7890625,0.0
294.07421875,-39.0625,-38.57421875,-21.97265625,-13.18359375,16.6015625,0.0
294.078125,-53.22265625,-39.55078125,-47.36328125,-45.8984375,-92.28515625,0.0
294.08203125,-42.48046875,-45.41015625,-45.8984375,-43.45703125,-197.265625,0.0
294.0859375,-36.62109375,-42.48046875,-36.62109375,-30.76171875,-133.7890625,0.0
294.08984375,-34.66796875,-37.59765625,-42.96875,-12.6953125,-25.87890625,0.0
294.09375,-48.33984375,-40.0390625,-46.875,-27.83203125,-8.7890625,0.0
294.09765625,-53.7109375,-40.0390625,-44.921875,-24.90234375,-61.5234375,0.0
294.1015625,-50.29296875,-40.52734375,-46.38671875,-13.671875,-61.5234375,0.0
294.10546875,-44.43359375,-36.1328125,-42.48046875,-24.90234375,-90.8203125,0.0
294.109375,-40.52734375,-29.296875,-48.33984375,-42.48046875,-65.91796875,0.0
294.11328125,-26.3671875,-31.73828125,-41.015625,-40.0390625,-93.26171875,0.0
294.1171875,-26.85546875,-30.76171875,-28.80859375,-27.83203125,-45.41015625,0.0
294.12109375,-37.59765625,-29.78515625,-21.97265625,-21.484375,-21.484375,0.0
294.125,-30.76171875,-41.50390625,-20.5078125,-14.16015625,-141.6015625,0.0
294.12890625,-36.1328125,-40.52734375,-26.85546875,-36.62109375,-84.9609375,0.0
294.1328125,-36.1328125,-36.62109375,-39.55078125,-38.57421875,-20.99609375,0.0
294.13671875,-14.16015625,-33.69140625,-34.66796875,-6.34765625,-55.6640625,0.0
294.140625,-20.5078125,-40.52734375,-14.16015625,-5.859375,-80.078125,0.0
294.14453125,-57.12890625,-54.19921875,-16.11328125,-40.0390625,-64.453125,0.0
294.1484375,-54.19921875,-51.26953125,-19.04296875,-37.59765625,-31.73828125,0.0
294.15234375,-30.2734375,-49.31640625,-21.97265625,-16.11328125,-32.2265625,0.0
294.15625,-44.43359375,-53.22265625,-22.94921875,-14.16015625,-46.875,0.0
294.16015625,-40.0390625,-53.7109375,-23.4375,-22.94921875,-42.48046875,0.0
294.1640625,-20.01953125,-51.26953125,-24.4140625,-22.94921875,24.4140625,0.0
294.16796875,-37.109375,-53.22265625,-38.0859375,-20.5078125,63.96484375,0.0
294.171875,-41.9921875,-48.828125,-45.8984375,-19.53125,70.3125,0.0
294.17578125,-26.3671875,-42.48046875,-30.2734375,-20.5078125,56.15234375,0.0
294.1796875,-45.8984375,-51.7578125,-41.50390625,-38.57421875,79.58984375,0.0
294.18359375,-62.98828125,-59.08203125,-67.3828125,-45.8984375,-24.4140625,0.0
294.1875,-64.94140625,-51.26953125,-77.63671875,-50.78125,-187.98828125,0.0
294.19140625,-59.08203125,-43.9453125,-72.265625,-51.26953125,-146.97265625,0.0
294.1953125,-56.15234375,-40.0390625,-60.546875,-49.31640625,-110.83984375,0.0
294.19921875,-51.26953125,-38.57421875,-53.7109375,-41.50390625,-155.76171875,0.0
294.203125,-39.55078125,-39.0625,-46.38671875,-33.69140625,-142.578125,0.0
294.20703125,-57.6171875,-39.0625,-62.01171875,-50.78125,-110.83984375,0.0
294.2109375,-65.91796875,-32.2265625,-66.40625,-57.6171875,-78.125,0.0
294.21484375,-52.24609375,-31.25,-61.5234375,-47.8515625,-102.05078125,0.0
294.21875,-55.17578125,-43.45703125,-68.84765625,-47.8515625,-132.32421875,0.0
294.22265625,-65.4296875,-41.50390625,-61.03515625,-49.31640625,-97.16796875,0.0
294.2265625,-44.921875,-41.9921875,-49.8046875,-53.7109375,-111.328125,0.0
294.23046875,-42.96875,-41.9921875,-60.05859375,-62.5,-150.390625,0.0
294.234375,-48.33984375,-30.76171875,-65.4296875,-61.03515625,-86.42578125,0.0
294.23828125,-31.73828125,-34.1796875,-56.640625,-53.7109375,-11.71875,0.0
294.2421875,-19.04296875,-34.66796875,-48.828125,-50.29296875,73.2421875,0.0
294.24609375,-22.94921875,-36.1328125,-39.55078125,-45.41015625,62.5,0.0
294.25,-37.109375,-42.96875,-32.71484375,-40.0390625,-10.25390625,0.0
294.25390625,-43.45703125,-41.015625,-35.15625,-36.62109375,18.5546875,0.0
294.2578125,-55.6640625,-34.1796875,-47.8515625,-41.9921875,78.61328125,0.0
294.26171875,-63.4765625,-42.96875,-49.8046875,-45.41015625,97.16796875,0.0
294.265625,-53.22265625,-52.734375,-41.9921875,-33.69140625,46.875,0.0
294.26953125,-62.01171875,-42.48046875,-49.8046875,-41.015625,35.64453125,0.0
294.2734375,-71.77734375,-34.66796875,-60.546875,-49.8046875,-0.9765625,0.0
294.27734375,-53.7109375,-44.43359375,-62.01171875,-45.41015625,-19.53125,0.0
294.28125,-54.6875,-40.0390625,-56.15234375,-43.45703125,-14.16015625,0.0
294.28515625,-60.05859375,-25.390625,-58.10546875,-42.96875,38.57421875,0.0
294.2890625,-62.98828125,-19.53125,-63.96484375,-50.29296875,78.125,0.0
294.29296875,-54.19921875,-20.5078125,-52.24609375,-30.2734375,1.46484375,0.0
294.296875,-47.36328125,-22.4609375,-51.7578125,-28.3203125,-46.875,0.0
294.30078125,-67.87109375,-26.3671875,-67.3828125,-47.8515625,-18.06640625,0.0
294.3046875,-74.21875,-22.94921875,-70.80078125,-52.24609375,20.01953125,0.0
294.30859375,-61.5234375,-26.85546875,-59.08203125,-46.38671875,11.71875,0.0
294.3125,-61.03515625,-28.80859375,-43.9453125,-27.83203125,4.8828125,0.0
294.31640625,-57.6171875,-20.5078125,-43.45703125,-26.85546875,-39.0625,0.0
294.3203125,-49.8046875,-25.390625,-42.96875,-34.66796875,-35.15625,0.0
294.32421875,-49.8046875,-29.296875,-34.1796875,-39.55078125,-44.921875,0.0
294.328125,-54.19921875,-22.94921875,-41.015625,-43.45703125,-61.5234375,0.0
294.33203125,-58.10546875,-33.203125,-45.8984375,-41.50390625,-2.44140625,0.0
294.3359375,-60.05859375,-46.875,-37.109375,-36.62109375,-0.48828125,0.0
294.33984375,-67.3828125,-39.55078125,-36.1328125,-40.0390625,26.3671875,0.0
294.34375,-46.875,-31.25,-34.1796875,-39.0625,53.22265625,0.0
294.34765625,-48.33984375,-30.2734375,-40.52734375,-46.875,39.0625,0.0
294.3515625,-60.546875,-37.109375,-41.9921875,-56.15234375,-77.1484375,0.0
294.35546875,-47.8515625,-37.59765625,-33.69140625,-45.41015625,-128.90625,0.0
294.359375,-33.69140625,-29.296875,-31.25,-33.69140625,6.34765625,0.0
294.36328125,-41.9921875,-26.3671875,-37.59765625,-34.66796875,67.3828125,0.0
294.3671875,-58.59375,-18.5546875,-51.26953125,-43.45703125,-32.71484375,0.0
294.37109375,-48.33984375,-23.4375,-47.36328125,-54.19921875,-20.99609375,0.0
294.375,-38.57421875,-28.3203125,-39.55078125,-49.8046875,41.50390625,0.0
294.37890625,-38.57421875,-30.2734375,-35.64453125,-38.57421875,24.90234375,0.0
294.3828125,-32.71484375,-29.78515625,-24.90234375,-28.80859375,34.66796875,0.0
294.38671875,-26.85546875,-29.296875,-27.34375,-28.80859375,42.96875,0.0
294.390625,-38.57421875,-36.62109375,-37.109375,-38.0859375,-65.4296875,0.0
294.39453125,-44.43359375,-41.50390625,-38.57421875,-42.48046875,-155.76171875,0.0
294.3984375,-30.2734375,-42.96875,-39.0625,-37.109375,-17.578125,0.0
294.40234375,-25.87890625,-40.52734375,-27.34375,-28.80859375,9.765625,0.0
294.40625,-26.85546875,-31.73828125,-32.2265625,-21.97265625,-41.015625,0.0
294.41015625,-28.80859375,-26.3671875,-40.52734375,-23.4375,-68.359375,0.0
294.4140625,-30.2734375,-21.97265625,-31.25,-33.69140625,-71.77734375,0.0
294.41796875,-22.94921875,-9.765625,-32.2265625,-36.1328125,-22.94921875,0.0
294.421875,-23.4375,-27.34375,-30.2734375,-36.1328125,-27.83203125,0.0
294.42578125,-27.83203125,-41.9921875,-31.73828125,-45.41015625,-66.40625,0.0
294.4296875,-24.90234375,-19.04296875,-38.0859375,-41.9921875,-0.9765625,0.0
294.43359375,-36.62109375,-10.7421875,-38.0859375,-39.0625,55.17578125,0.0
294.4375,-49.31640625,-17.08984375,-34.1796875,-47.8515625,72.75390625,0.0
294.44140625,-46.875,-20.5078125,-35.15625,-45.41015625,63.96484375,0.0
294.4453125,-39.0625,-19.04296875,-40.0390625,-46.38671875,32.71484375,0.0
294.44921875,-30.2734375,-15.625,-37.59765625,-41.015625,-0.9765625,0.0
294.453125,-44.921875,-14.6484375,-49.8046875,-42.48046875,16.6015625,0.0
294.45703125,-58.10546875,-20.01953125,-60.05859375,-59.5703125,3.41796875,0.0
294.4609375,-51.26953125,-15.625,-54.6875,-54.19921875,-68.84765625,0.0
294.46484375,-32.2265625,-11.23046875,-42.48046875,-35.64453125,-60.05859375,0.0
294.46875,-42.48046875,-8.30078125,-41.50390625,-47.36328125,-14.16015625,0.0
294.47265625,-55.17578125,2.9296875,-46.875,-55.6640625,-4.8828125,0.0
294.4765625,-48.828125,4.39453125,-42.96875,-45.8984375,-35.64453125,0.0
294.48046875,-45.8984375,6.34765625,-39.55078125,-41.9921875,-67.87109375,0.0
294.484375,-36.62109375,7.8125,-32.71484375,-46.875,-77.63671875,0.0
294.48828125,-34.66796875,10.25390625,-30.2734375,-39.55078125,-73.2421875,0.0
294.4921875,-29.296875,9.765625,-37.59765625,-20.5078125,-59.08203125,0.0
294.49609375,-5.859375,-8.30078125,-58.59375,-5.859375,-58.59375,0.0
294.5,-20.5078125,-11.23046875,-66.40625,-35.64453125,-80.078125,0.0
294.50390625,-50.29296875,-5.37109375,-45.41015625,-73.2421875,-23.92578125,0.0
294.5078125,-39.0625,-3.41796875,-27.83203125,-60.05859375,6.34765625,0.0
294.51171875,-31.25,0.9765625,-26.85546875,-43.9453125,-62.5,0.0
294.515625,-36.62109375,-6.34765625,-28.80859375,-50.29296875,-99.12109375,0.0
294.51953125,-28.3203125,-12.20703125,-20.01953125,-42.48046875,-114.2578125,0.0
294.5234375,-19.04296875,-12.20703125,-8.30078125,-32.2265625,-67.87109375,0.0
294.52734375,-39.0625,-15.13671875,-0.9765625,-55.17578125,-52.24609375,0.0
294.53125,-56.640625,-7.8125,-16.6015625,-63.4765625,-44.43359375,0.0
294.53515625,-49.31640625,-5.859375,-27.34375,-58.10546875,-50.78125,0.0
294.5390625,-36.1328125,0.48828125,-20.5078125,-57.12890625,-36.62109375,0.0
294.54296875,-36.1328125,-0.9765625,-19.53125,-39.55078125,-30.2734375,0.0
294.546875,-39.55078125,-8.7890625,-23.4375,-41.015625,-88.37890625,0.0
294.55078125,-31.73828125,-2.9296875,-17.578125,-50.29296875,-97.16796875,0.0
294.5546875,-24.4140625,-10.25390625,-7.32421875,-32.71484375,-50.78125,0.0
294.55859375,-22.4609375,-11.23046875,-2.44140625,-35.15625,-47.8515625,0.0
294.5625,-23.92578125,-4.8828125,1.953125,-45.41015625,-50.29296875,0.0
294.56640625,-27.83203125,-11.71875,0.9765625,-32.2265625,37.109375,0.0
294.5703125,-20.01953125,-16.6015625,-1.46484375,-23.92578125,-6.8359375,0.0
294.57421875,-11.23046875,-4.39453125,7.32421875,-28.3203125,-35.64453125,0.0
294.578125,-13.18359375,-4.8828125,4.39453125,-32.2265625,27.83203125,0.0
294.58203125,-17.578125,-5.859375,2.44140625,-28.3203125,27.83203125,0.0
294.5859375,-14.16015625,5.37109375,3.90625,-19.53125,-24.90234375,0.0
294.58984375,-32.71484375,2.44140625,-15.625,-34.66796875,-104.00390625,0.0
294.59375,-49.8046875,4.8828125,-27.83203125,-44.43359375,-93.75,0.0
294.59765625,-35.15625,-0.9765625,-22.94921875,-36.1328125,-62.01171875,0.0
294.6015625,-28.3203125,-17.08984375,-20.01953125,-34.1796875,-53.22265625,0.0
294.60546875,-33.203125,-13.18359375,-27.34375,-46.38671875,-59.5703125,0.0
294.609375,-30.2734375,0.0,-31.25,-54.6875,-15.625,0.0
294.61328125,-37.59765625,-12.6953125,-30.2734375,-54.19921875,-8.7890625,0.0
294.6171875,-50.78125,-14.16015625,-38.57421875,-69.3359375,-101.5625,0.0
294.62109375,-51.26953125,-5.37109375,-46.875,-75.1953125,-41.50390625,0.0
294.625,-43.9453125,-10.7421875,-41.9921875,-44.921875,56.15234375,0.0
294.62890625,-32.2265625,-23.92578125,-30.76171875,-39.0625,6.34765625,0.0
294.6328125,-24.90234375,-23.92578125,-27.83203125,-44.921875,-82.03125,0.0
294.63671875,-18.5546875,-9.27734375,-26.3671875,-43.45703125,-80.56640625,0.0
294.640625,-11.23046875,-14.6484375,-18.5546875,-32.2265625,-26.3671875,0.0
294.64453125,-3.90625,-25.390625,-16.11328125,-17.08984375,-111.328125,0.0
294.6484375,-16.6015625,-28.3203125,-32.71484375,-42.96875,-131.8359375,0.0
294.65234375,-21.484375,-24.90234375,-40.0390625,-45.8984375,-85.9375,0.0
294.65625,-17.08984375,-19.04296875,-38.0859375,-22.94921875,-137.6953125,0.0
294.66015625,-19.53125,-19.53125,-39.55078125,-20.5078125,-84.9609375,0.0
294.6640625,-27.34375,-13.671875,-31.25,-31.25,-5.859375,0.0
294.66796875,-25.87890625,-20.01953125,-28.3203125,-29.296875,-12.20703125,0.0
294.671875,-27.34375,-26.85546875,-35.15625,-26.85546875,27.34375,0.0
294.67578125,-27.83203125,-30.2734375,-36.62109375,-28.3203125,52.734375,0.0
294.6796875,-22.4609375,-19.04296875,-36.62109375,-26.85546875,30.76171875,0.0
294.68359375,-16.11328125,-16.6015625,-33.203125,-23.92578125,13.671875,0.0
294.6875,-24.4140625,-33.203125,-41.015625,-27.83203125,100.09765625,0.0
294.69140625,-38.0859375,-34.1796875,-53.22265625,-41.9921875,60.05859375,0.0
294.6953125,-42.48046875,-21.97265625,-52.24609375,-40.0390625,-74.70703125,0.0
294.69921875,-41.9921875,-20.5078125,-47.8515625,-36.62109375,-60.546875,0.0
294.703125,-32.2265625,-27.83203125,-40.52734375,-22.4609375,-17.578125,0.0
294.70703125,-22.94921875,-26.3671875,-24.4140625,0.9765625,41.50390625,0.0
294.7109375,-7.8125,-28.80859375,-3.90625,11.71875,-31.73828125,0.0
294.71484375,3.41796875,-28.80859375,-3.41796875,11.23046875,-94.23828125,0.0
294.71875,-8.30078125,-25.87890625,-22.4609375,6.34765625,-72.75390625,0.0
294.72265625,-19.53125,-24.4140625,-18.06640625,10.7421875,-30.76171875,0.0
294.7265625,-30.2734375,-20.01953125,-13.671875,1.953125,-29.78515625,0.0
294.73046875,-30.76171875,-35.15625,-24.90234375,-8.30078125,-77.1484375,0.0
294.734375,-19.53125,-30.76171875,-26.3671875,-10.25390625,-56.15234375,0.0
294.73828125,-42.96875,-6.34765625,-35.15625,-29.78515625,4.8828125,0.0
294.7421875,-50.29296875,-14.6484375,-36.62109375,-28.80859375,-17.578125,0.0
294.74609375,-38.0859375,-26.3671875,-34.66796875,-24.90234375,13.18359375,0.0
294.75,-59.08203125,-29.296875,-54.6875,-49.31640625,27.34375,0.0
294.75390625,-53.7109375,-25.87890625,-62.5,-58.10546875,-98.6328125,0.0
294.7578125,-45.8984375,-15.13671875,-60.05859375,-61.03515625,-180.17578125,0.0
294.76171875,-45.41015625,-26.85546875,-55.6640625,-50.78125,-177.24609375,0.0
294.765625,-35.64453125,-32.71484375,-47.8515625,-39.0625,-105.95703125,0.0
294.76953125,-31.73828125,-32.71484375,-45.41015625,-47.8515625,20.99609375,0.0
294.7734375,-9.765625,-28.80859375,-42.48046875,-25.87890625,47.36328125,0.0
294.77734375,6.8359375,-24.90234375,-52.24609375,-11.23046875,39.0625,0.0
294.78125,-34.66796875,-38.0859375,-66.40625,-67.87109375,36.1328125,0.0
294.78515625,-66.40625,-37.109375,-59.08203125,-84.47265625,-70.80078125,0.0
294.7890625,-44.921875,-24.4140625,-60.05859375,-55.17578125,-33.69140625,0.0
294.79296875,-55.6640625,-20.5078125,-70.80078125,-72.265625,-10.7421875,0.0
294.796875,-56.640625,-21.484375,-63.96484375,-64.94140625,11.23046875,0.0
294.80078125,-48.33984375,-22.4609375,-59.5703125,-49.31640625,51.7578125,0.0
294.8046875,-75.68359375,-30.2734375,-68.359375,-71.2890625,25.390625,0.0
294.80859375,-74.70703125,-28.80859375,-61.5234375,-71.77734375,-2.44140625,0.0
294.8125,-49.8046875,-23.92578125,-46.875,-54.19921875,-41.015625,0.0
294.81640625,-48.33984375,-22.4609375,-59.5703125,-49.8046875,-73.2421875,0.0
294.8203125,-68.84765625,-19.53125,-77.63671875,-63.96484375,-51.7578125,0.0
294.82421875,-69.3359375,-15.625,-77.63671875,-64.94140625,-35.64453125,0.0
294.828125,-64.453125,-12.6953125,-67.3828125,-60.05859375,-15.625,0.0
294.83203125,-62.98828125,-23.4375,-64.453125,-62.5,-51.26953125,0.0
294.8359375,-55.6640625,-22.4609375,-51.7578125,-46.875,-8.7890625,0.0
294.83984375,-59.08203125,-6.8359375,-49.31640625,-47.8515625,7.32421875,0.0
294.84375,-48.828125,-7.8125,-61.03515625,-47.8515625,-77.1484375,0.0
294.84765625,-33.69140625,-13.18359375,-54.19921875,-35.15625,-11.23046875,0.0
294.8515625,-38.57421875,-15.13671875,-51.7578125,-41.9921875,-1.46484375,0.0
294.85546875,-51.7578125,-19.04296875,-61.03515625,-53.22265625,-73.2421875,0.0
294.859375,-55.17578125,-19.04296875,-61.03515625,-54.6875,-117.67578125,0.0
294.86328125,-51.7578125,-13.671875,-57.12890625,-53.7109375,-18.06640625,0.0
294.8671875,-38.57421875,-14.6484375,-53.22265625,-48.828125,21.97265625,0.0
294.87109375,-50.78125,-18.06640625,-67.3828125,-61.03515625,-70.80078125,0.0
294.875,-47.8515625,-9.27734375,-62.5,-59.5703125,-55.6640625,0.0
294.87890625,-33.203125,-18.06640625,-40.52734375,-45.41015625,-15.13671875,0.0
294.8828125,-33.203125,-27.34375,-39.55078125,-45.41015625,30.2734375,0.0
294.88671875,-33.69140625,-19.53125,-48.828125,-44.43359375,-16.11328125,0.0
294.890625,-36.62109375,-15.625,-49.8046875,-45.8984375,-80.56640625,0.0
294.89453125,-40.0390625,-19.04296875,-49.8046875,-50.29296875,-39.55078125,0.0
294.8984375,-39.0625,-17.08984375,-52.734375,-51.7578125,-71.77734375,0.0
294.90234375,-39.55078125,-13.18359375,-63.96484375,-52.734375,-67.87109375,0.0
294.90625,-47.8515625,-11.71875,-71.2890625,-64.94140625,-26.3671875,0.0
294.91015625,-53.7109375,-14.16015625,-59.5703125,-75.1953125,-50.78125,0.0
294.9140625,-48.828125,-11.23046875,-48.828125,-59.5703125,-10.25390625,0.0
294.91796875,-51.7578125,-11.23046875,-53.22265625,-50.29296875,26.85546875,0.0
294.921875,-48.33984375,-20.99609375,-50.78125,-51.26953125,-16.11328125,0.0
294.92578125,-46.38671875,-15.13671875,-50.78125,-47.8515625,4.8828125,0.0
294.9296875,-42.96875,-10.25390625,-40.0390625,-44.921875,32.2265625,0.0
294.93359375,-36.1328125,-21.484375,-25.87890625,-43.45703125,-28.3203125,0.0
294.9375,-37.109375,-18.06640625,-32.2265625,-43.45703125,-80.078125,0.0
294.94140625,-37.109375,-17.08984375,-36.62109375,-46.38671875,-16.11328125,0.0
294.9453125,-37.109375,-25.87890625,-33.69140625,-41.9921875,-10.25390625,0.0
294.94921875,-25.87890625,-22.94921875,-28.3203125,-30.76171875,-112.79296875,0.0
294.953125,-30.76171875,-16.11328125,-26.85546875,-34.66796875,-110.83984375,0.0
294.95703125,-33.203125,-15.625,-29.296875,-43.9453125,-65.4296875,0.0
294.9609375,-30.76171875,-16.6015625,-28.3203125,-42.48046875,-22.94921875,0.0
294.96484375,-28.3203125,-23.4375,-20.99609375,-25.87890625,-46.38671875,0.0
294.96875,-19.04296875,-28.80859375,-25.390625,-24.4140625,-92.7734375,0.0
294.97265625,-32.2265625,-31.73828125,-36.1328125,-36.62109375,-48.828125,0.0
294.9765625,-38.0859375,-38.57421875,-43.45703125,-43.45703125,-91.30859375,0.0
294.98046875,-33.203125,-28.3203125,-48.33984375,-52.734375,-98.6328125,0.0
294.984375,-27.34375,-16.11328125,-30.76171875,-41.015625,8.7890625,0.0
294.98828125,-38.0859375,-22.94921875,-30.76171875,-39.0625,54.19921875,0.0
294.9921875,-35.15625,-23.92578125,-29.296875,-37.109375,55.6640625,0.0
294.99609375,-36.1328125,-20.5078125,-31.25,-38.0859375,-3.41796875,0.0
295.0,-45.8984375,-18.06640625,-43.45703125,-48.828125,-29.296875,0.0
295.00390625,-36.1328125,-21.484375,-35.64453125,-46.38671875,-36.1328125,0.0
295.0078125,-41.50390625,-25.390625,-34.1796875,-55.17578125,-39.0625,0.0
295.01171875,-39.0625,-28.3203125,-28.3203125,-41.015625,18.5546875,0.0
295.015625,-28.80859375,-34.66796875,-20.99609375,-30.76171875,8.30078125,0.0
295.01953125,-31.73828125,-34.1796875,-28.3203125,-42.96875,-14.16015625,0.0
295.0234375,-46.38671875,-27.83203125,-41.9921875,-45.8984375,-0.48828125,0.0
295.02734375,-54.6875,-30.76171875,-50.78125,-59.5703125,-13.671875,0.0
295.03125,-48.33984375,-31.73828125,-51.7578125,-51.26953125,-23.4375,0.0
295.03515625,-42.96875,-20.5078125,-41.9921875,-37.59765625,-1.46484375,0.0
295.0390625,-38.0859375,-17.08984375,-31.73828125,-33.203125,-16.6015625,0.0
295.04296875,-45.8984375,-18.5546875,-30.76171875,-41.9921875,-20.01953125,0.0
295.046875,-49.8046875,-17.578125,-34.1796875,-48.33984375,-8.30078125,0.0
295.05078125,-51.26953125,-16.6015625,-41.50390625,-50.29296875,-45.8984375,0.0
295.0546875,-62.98828125,-14.6484375,-48.828125,-62.5,-14.6484375,0.0
295.05859375,-68.84765625,-30.76171875,-54.6875,-65.91796875,-20.99609375,0.0
295.0625,-61.03515625,-35.15625,-50.29296875,-56.15234375,-14.6484375,0.0
295.06640625,-62.5,-28.3203125,-36.1328125,-46.875,4.39453125,0.0
295.0703125,-58.59375,-23.92578125,-41.015625,-49.8046875,-26.85546875,0.0
295.07421875,-43.45703125,-22.4609375,-46.875,-50.29296875,-89.35546875,0.0
295.078125,-40.0390625,-20.01953125,-42.96875,-47.36328125,-95.21484375,0.0
295.08203125,-33.69140625,-24.4140625,-35.64453125,-44.43359375,-41.015625,0.0
295.0859375,-24.4140625,-30.2734375,-22.4609375,-25.390625,-33.203125,0.0
295.08984375,-38.0859375,-16.11328125,-30.76171875,-29.296875,-13.18359375,0.0
295.09375,-47.36328125,-7.8125,-49.31640625,-41.50390625,15.625,0.0
295.09765625,-39.55078125,-26.3671875,-36.62109375,-37.109375,15.13671875,0.0
295.1015625,-43.9453125,-29.78515625,-28.3203125,-50.78125,-36.62109375,0.0
295.10546875,-46.875,-23.4375,-33.69140625,-51.7578125,-48.828125,0.0
295.109375,-46.38671875,-20.99609375,-31.73828125,-46.38671875,4.39453125,0.0
295.11328125,-54.19921875,-22.4609375,-36.62109375,-55.17578125,-19.04296875,0.0
295.1171875,-59.5703125,-25.390625,-40.0390625,-54.6875,-96.6796875,0.0
295.12109375,-49.31640625,-26.85546875,-36.62109375,-47.8515625,-42.48046875,0.0
295.125,-44.921875,-36.1328125,-40.52734375,-47.36328125,-23.4375,0.0
295.12890625,-42.96875,-35.64453125,-38.0859375,-42.96875,-62.5,0.0
295.1328125,-28.3203125,-25.390625,-25.390625,-27.83203125,-30.2734375,0.0
295.13671875,-36.1328125,-26.3671875,-38.0859375,-38.57421875,-1.953125,0.0
295.140625,-55.6640625,-33.69140625,-54.6875,-53.22265625,-75.1953125,0.0
295.14453125,-43.45703125,-26.85546875,-51.26953125,-48.33984375,-83.0078125,0.0
295.1484375,-31.73828125,-26.3671875,-49.31640625,-50.78125,-58.59375,0.0
295.15234375,-43.9453125,-33.69140625,-50.78125,-66.89453125,-37.109375,0.0
295.15625,-40.0390625,-29.78515625,-36.62109375,-61.5234375,-25.87890625,0.0
295.16015625,-31.25,-40.52734375,-34.66796875,-46.38671875,-45.41015625,0.0
295.1640625,-44.43359375,-51.26953125,-45.8984375,-52.734375,-54.6875,0.0
295.16796875,-41.015625,-41.50390625,-44.921875,-48.828125,-105.95703125,0.0
295.171875,-38.57421875,-41.9921875,-38.0859375,-46.875,-104.4921875,0.0
295.17578125,-40.0390625,-48.33984375,-26.85546875,-40.52734375,-56.15234375,0.0
295.1796875,-24.90234375,-38.57421875,-20.01953125,-25.390625,-31.25,0.0
295.18359375,-23.92578125,-37.59765625,-19.53125,-24.90234375,-26.85546875,0.0
295.1875,-26.3671875,-37.109375,-24.90234375,-29.78515625,-34.66796875,0.0
295.19140625,-20.99609375,-30.76171875,-30.76171875,-29.78515625,-26.85546875,0.0
295.1953125,-15.13671875,-37.109375,-28.3203125,-23.4375,-1.953125,0.0
295.19921875,-25.87890625,-36.62109375,-35.64453125,-29.78515625,7.8125,0.0
295.203125,-21.97265625,-30.76171875,-29.296875,-28.3203125,4.8828125,0.0
295.20703125,-21.97265625,-29.296875,-25.390625,-26.3671875,-22.4609375,0.0
295.2109375,-19.53125,-31.25,-25.87890625,-24.90234375,-27.83203125,0.0
295.21484375,-20.01953125,-33.69140625,-20.5078125,-20.5078125,-81.0546875,0.0
295.21875,-24.90234375,-27.34375,-20.5078125,-22.4609375,-111.328125,0.0
295.22265625,-13.18359375,-27.34375,-17.08984375,-17.578125,-78.61328125,0.0
295.2265625,-25.87890625,-29.296875,-20.99609375,-27.83203125,-51.26953125,0.0
295.23046875,-32.2265625,-33.69140625,-21.97265625,-28.80859375,-67.87109375,0.0
295.234375,-17.578125,-36.62109375,-15.625,-17.08984375,-75.68359375,0.0
295.23828125,-15.13671875,-33.69140625,-17.578125,-16.6015625,-5.859375,0.0
295.2421875,-16.11328125,-29.78515625,-23.4375,-17.578125,-47.8515625,0.0
295.24609375,-18.5546875,-30.76171875,-19.53125,-18.5546875,-80.56640625,0.0
295.25,-31.25,-39.55078125,-21.484375,-25.87890625,-22.4609375,0.0
295.25390625,-39.0625,-42.48046875,-27.34375,-38.57421875,27.34375,0.0
295.2578125,-35.64453125,-37.59765625,-22.4609375,-44.921875,35.15625,0.0
295.26171875,-26.85546875,-29.78515625,-12.20703125,-26.3671875,-53.7109375,0.0
295.265625,-17.08984375,-32.71484375,-9.27734375,-12.20703125,-116.69921875,0.0
295.26953125,-17.08984375,-40.52734375,-8.7890625,-19.53125,-66.89453125,0.0
295.2734375,-19.53125,-42.96875,-5.859375,-23.4375,26.3671875,0.0
295.27734375,-23.92578125,-48.33984375,-7.8125,-19.04296875,35.64453125,0.0
295.28125,-29.296875,-49.31640625,-14.6484375,-26.85546875,11.71875,0.0
295.28515625,-32.2265625,-38.0859375,-23.92578125,-35.64453125,-74.70703125,0.0
295.2890625,-28.80859375,-25.390625,-22.94921875,-37.109375,-84.9609375,0.0
295.29296875,-27.34375,-37.109375,-18.5546875,-36.1328125,-40.52734375,0.0
295.296875,-35.64453125,-45.8984375,-41.015625,-42.96875,-56.640625,0.0
295.30078125,-34.1796875,-43.9453125,-54.6875,-48.828125,-25.87890625,0.0
295.3046875,-21.97265625,-45.41015625,-42.48046875,-41.50390625,-22.94921875,0.0
295.30859375,-20.99609375,-41.50390625,-49.31640625,-44.43359375,-55.17578125,0.0
295.3125,-35.64453125,-36.62109375,-57.12890625,-51.26953125,-38.0859375,0.0
295.31640625,-39.55078125,-39.0625,-55.17578125,-46.38671875,-40.52734375,0.0
295.3203125,-36.1328125,-47.36328125,-53.22265625,-43.9453125,-40.52734375,0.0
295.32421875,-39.0625,-44.921875,-41.9921875,-38.57421875,-40.52734375,0.0
295.328125,-45.8984375,-42.48046875,-39.0625,-40.52734375,-106.93359375,0.0
295.33203125,-41.9921875,-48.828125,-42.48046875,-45.8984375,-190.91796875,0.0
295.3359375,-40.52734375,-39.55078125,-41.50390625,-46.875,-180.6640625,0.0
295.33984375,-44.43359375,-31.73828125,-36.62109375,-45.41015625,-99.609375,0.0
295.34375,-35.64453125,-36.1328125,-39.55078125,-40.0390625,-84.9609375,0.0
295.34765625,-37.59765625,-28.80859375,-45.8984375,-44.43359375,-47.36328125,0.0
295.3515625,-52.24609375,-29.78515625,-46.38671875,-48.828125,-22.94921875,0.0
295.35546875,-61.03515625,-35.64453125,-49.31640625,-53.22265625,-31.73828125,0.0
295.359375,-55.6640625,-37.59765625,-42.96875,-50.29296875,-26.85546875,0.0
295.36328125,-49.31640625,-42.96875,-38.0859375,-47.8515625,13.671875,0.0
295.3671875,-45.8984375,-42.48046875,-36.62109375,-43.9453125,-27.34375,0.0
295.37109375,-42.48046875,-34.66796875,-30.2734375,-43.45703125,-64.94140625,0.0
295.375,-37.59765625,-30.2734375,-21.484375,-40.52734375,-58.10546875,0.0
295.37890625,-41.015625,-33.203125,-13.671875,-41.015625,-75.68359375,0.0
295.3828125,-42.96875,-25.87890625,-22.94921875,-44.43359375,-63.96484375,0.0
295.38671875,-41.50390625,-25.390625,-30.76171875,-44.921875,-48.828125,0.0
295.390625,-39.55078125,-30.2734375,-25.390625,-43.45703125,49.8046875,0.0
295.39453125,-31.25,-28.80859375,-22.4609375,-30.2734375,41.015625,0.0
295.3984375,-28.80859375,-27.83203125,-11.71875,-21.97265625,-2.44140625,0.0
295.40234375,-22.4609375,-27.34375,-5.859375,-15.13671875,35.64453125,0.0
295.40625,-23.4375,-24.4140625,-8.7890625,-14.6484375,-17.578125,0.0
295.41015625,-40.0390625,-24.90234375,-16.11328125,-26.3671875,-54.6875,0.0
295.4140625,-38.57421875,-35.15625,-16.6015625,-26.85546875,-91.796875,0.0
295.41796875,-25.390625,-37.109375,-7.32421875,-19.53125,-121.58203125,0.0
295.421875,-22.4609375,-33.69140625,-5.37109375,-15.625,-62.98828125,0.0
295.42578125,-31.25,-39.0625,-16.6015625,-21.484375,-33.69140625,0.0
295.4296875,-38.57421875,-37.109375,-32.71484375,-31.25,-33.69140625,0.0
295.43359375,-44.921875,-41.015625,-45.8984375,-46.875,-73.73046875,0.0
295.4375,-50.29296875,-38.57421875,-49.31640625,-53.22265625,-14.6484375,0.0
295.44140625,-41.015625,-28.80859375,-40.52734375,-41.50390625,8.30078125,0.0
295.4453125,-35.15625,-36.62109375,-41.9921875,-34.1796875,-54.19921875,0.0
295.44921875,-42.96875,-33.69140625,-55.17578125,-42.96875,-18.5546875,0.0
295.453125,-42.96875,-27.34375,-55.17578125,-51.26953125,-5.859375,0.0
295.45703125,-34.66796875,-36.1328125,-43.45703125,-43.9453125,-59.08203125,0.0
295.4609375,-38.0859375,-38.0859375,-46.38671875,-40.52734375,-206.0546875,0.0
295.46484375,-34.1796875,-29.296875,-50.78125,-48.33984375,-218.75,0.0
295.46875,-26.3671875,-27.83203125,-48.33984375,-38.0859375,-160.15625,0.0
295.47265625,-19.04296875,-27.83203125,-44.43359375,-26.3671875,-163.57421875,0.0
295.4765625,-20.01953125,-23.92578125,-40.52734375,-34.1796875,-152.83203125,0.0
295.48046875,-22.94921875,-34.1796875,-36.62109375,-40.0390625,-35.15625,0.0
295.484375,-20.5078125,-41.9921875,-39.0625,-36.62109375,23.4375,0.0
295.48828125,-16.11328125,-39.0625,-39.55078125,-27.83203125,40.0390625,0.0
295.4921875,-6.8359375,-42.96875,-28.3203125,-20.99609375,46.875,0.0
295.49609375,-5.859375,-43.45703125,-22.4609375,-22.4609375,27.83203125,0.0
295.5,-4.8828125,-37.59765625,-20.01953125,-16.11328125,-25.390625,0.0
295.50390625,-15.625,-36.1328125,-23.92578125,-22.4609375,-15.13671875,0.0
295.5078125,-9.765625,-39.0625,-14.16015625,-17.08984375,2.44140625,0.0
295.51171875,-5.37109375,-36.62109375,-9.765625,-13.18359375,51.26953125,0.0
295.515625,-20.01953125,-38.57421875,-20.01953125,-31.73828125,79.58984375,0.0
295.51953125,-20.5078125,-38.0859375,-17.08984375,-29.78515625,21.97265625,0.0
295.5234375,-5.859375,-29.296875,-8.30078125,-18.06640625,9.27734375,0.0
295.52734375,2.44140625,-30.76171875,-16.11328125,-13.671875,14.6484375,0.0
295.53125,20.01953125,-33.203125,-7.32421875,13.18359375,-40.0390625,0.0
295.53515625,-12.20703125,-37.109375,-3.41796875,-4.8828125,-108.3984375,0.0
295.5390625,-58.59375,-44.921875,-17.578125,-49.8046875,-66.89453125,0.0
295.54296875,-52.734375,-38.57421875,-19.04296875,-41.50390625,-28.3203125,0.0
295.546875,-65.4296875,-38.0859375,-38.57421875,-50.29296875,-46.38671875,0.0
295.55078125,-70.3125,-42.96875,-52.734375,-62.5,4.8828125,0.0
295.5546875,-55.17578125,-33.69140625,-35.64453125,-47.36328125,120.1171875,0.0
295.55859375,-41.9921875,-37.59765625,-21.484375,-30.76171875,115.234375,0.0
295.5625,-46.875,-41.015625,-19.04296875,-39.0625,15.13671875,0.0
295.56640625,-61.03515625,-36.1328125,-25.390625,-54.19921875,-13.18359375,0.0
295.5703125,-55.17578125,-32.71484375,-28.80859375,-48.828125,29.78515625,0.0
295.57421875,-46.38671875,-31.25,-35.64453125,-38.0859375,19.04296875,0.0
295.578125,-50.29296875,-33.69140625,-39.55078125,-38.0859375,23.4375,0.0
295.58203125,-55.17578125,-49.8046875,-44.43359375,-44.43359375,-24.4140625,0.0
295.5859375,-62.5,-46.875,-53.7109375,-41.015625,-50.29296875,0.0
295.58984375,-60.05859375,-28.80859375,-48.828125,-36.1328125,-36.1328125,0.0
295.59375,-46.38671875,-26.85546875,-44.921875,-39.55078125,-54.6875,0.0
295.59765625,-37.109375,-25.87890625,-37.109375,-34.1796875,-1.46484375,0.0
295.6015625,-45.41015625,-27.34375,-41.015625,-42.96875,10.25390625,0.0
295.60546875,-48.828125,-33.203125,-42.96875,-41.9921875,-37.109375,0.0
295.609375,-50.29296875,-31.73828125,-45.8984375,-40.0390625,-36.62109375,0.0
295.61328125,-44.43359375,-38.0859375,-48.33984375,-40.0390625,-10.7421875,0.0
295.6171875,-34.66796875,-41.015625,-38.0859375,-27.83203125,-52.24609375,0.0
295.62109375,-24.4140625,-35.64453125,-25.390625,-14.6484375,-82.51953125,0.0
295.625,-17.08984375,-31.25,-18.5546875,-8.7890625,-5.859375,0.0
295.62890625,-13.18359375,-26.85546875,-21.484375,-14.16015625,4.8828125,0.0
295.6328125,-20.01953125,-23.92578125,-34.1796875,-30.2734375,-70.80078125,0.0
295.63671875,-38.0859375,-20.99609375,-43.45703125,-50.29296875,-85.44921875,0.0
295.640625,-44.43359375,-20.99609375,-44.921875,-51.26953125,-76.66015625,0.0
295.64453125,-37.59765625,-25.390625,-40.0390625,-40.0390625,-49.8046875,0.0
295.6484375,-34.66796875,-32.71484375,-29.296875,-38.0859375,-81.54296875,0.0
295.65234375,-36.1328125,-38.57421875,-28.80859375,-42.48046875,-139.6484375,0.0
295.65625,-34.1796875,-34.1796875,-26.85546875,-26.85546875,-110.3515625,0.0
295.66015625,-35.15625,-40.0390625,-22.94921875,-25.87890625,-68.359375,0.0
295.6640625,-30.76171875,-37.109375,-27.83203125,-37.109375,-64.453125,0.0
295.66796875,-31.73828125,-30.2734375,-27.34375,-32.2265625,-53.7109375,0.0
295.671875,-32.71484375,-30.76171875,-31.73828125,-29.296875,-98.14453125,0.0
295.67578125,-30.2734375,-29.296875,-36.62109375,-26.85546875,-127.9296875,0.0
295.6796875,-34.66796875,-28.3203125,-37.109375,-28.3203125,-49.31640625,0.0
295.68359375,-44.921875,-31.25,-43.45703125,-42.96875,24.90234375,0.0
295.6875,-37.109375,-34.1796875,-40.52734375,-40.0390625,29.78515625,0.0
295.69140625,-32.71484375,-46.875,-39.55078125,-35.64453125,6.34765625,0.0
295.6953125,-30.2734375,-50.78125,-35.15625,-41.015625,-73.2421875,0.0
295.69921875,-28.80859375,-36.1328125,-27.83203125,-35.15625,-0.48828125,0.0
295.703125,-40.0390625,-26.3671875,-28.80859375,-37.109375,62.98828125,0.0
295.70703125,-37.109375,-25.87890625,-26.3671875,-43.9453125,55.17578125,0.0
295.7109375,-21.484375,-29.296875,-16.11328125,-34.66796875,82.03125,0.0
295.71484375,-6.34765625,-26.85546875,-0.48828125,-13.671875,18.06640625,0.0
295.71875,-9.27734375,-36.1328125,7.8125,-17.08984375,-26.85546875,0.0
295.72265625,-0.9765625,-38.0859375,18.06640625,-11.71875,-12.20703125,0.0
295.7265625,19.53125,-27.34375,23.92578125,12.20703125,10.7421875,0.0
295.73046875,27.34375,-28.3203125,25.87890625,23.92578125,5.859375,0.0
295.734375,41.50390625,-41.015625,25.390625,34.66796875,-8.30078125,0.0
295.73828125,39.55078125,-41.50390625,21.484375,19.53125,-82.51953125,0.0
295.7421875,10.25390625,-22.4609375,12.6953125,-13.671875,-98.6328125,0.0
295.74609375,23.4375,-20.5078125,7.32421875,3.90625,-79.58984375,0.0
295.75,34.66796875,-27.83203125,-4.8828125,19.04296875,-95.703125,0.0
295.75390625,18.06640625,-24.4140625,-22.94921875,-4.8828125,-59.5703125,0.0
295.7578125,-1.46484375,-19.04296875,-29.78515625,-22.4609375,20.99609375,0.0
295.76171875,-7.8125,-26.3671875,-30.76171875,-22.94921875,45.41015625,0.0
295.765625,-10.7421875,-32.2265625,-41.9921875,-28.3203125,-9.27734375,0.0
295.76953125,-21.484375,-25.87890625,-43.45703125,-32.2265625,-50.78125,0.0
295.7734375,-25.390625,-27.83203125,-38.57421875,-28.80859375,-96.19140625,0.0
295.77734375,-24.90234375,-33.69140625,-36.1328125,-35.15625,-61.03515625,0.0
295.78125,-21.484375,-32.2265625,-28.3203125,-32.71484375,42.48046875,0.0
295.78515625,-22.94921875,-31.73828125,-23.4375,-25.87890625,19.53125,0.0
295.7890625,-23.4375,-42.96875,-28.80859375,-33.69140625,-78.125,0.0
295.79296875,-15.13671875,-45.8984375,-27.83203125,-29.296875,-73.2421875,0.0
295.796875,-2.9296875,-31.25,-20.5078125,-20.99609375,-10.7421875,0.0
295.80078125,-22.4609375,-32.71484375,-34.66796875,-32.71484375,-59.5703125,0.0
295.8046875,-39.55078125,-39.0625,-47.36328125,-41.9921875,-65.4296875,0.0
295.80859375,-42.96875,-40.0390625,-47.8515625,-49.31640625,-4.8828125,0.0
295.8125,-47.8515625,-34.66796875,-42.48046875,-54.6875,6.34765625,0.0
295.81640625,-33.69140625,-23.4375,-41.015625,-48.33984375,38.0859375,0.0
295.8203125,-15.13671875,-25.390625,-41.50390625,-34.66796875,-14.16015625,0.0
295.82421875,1.46484375,-19.53125,-26.85546875,-31.25,-74.70703125,0.0
295.828125,10.25390625,-15.13671875,-21.484375,-35.64453125,5.859375,0.0
295.83203125,6.8359375,-29.78515625,-32.2265625,-38.57421875,39.0625,0.0
295.8359375,-6.8359375,-29.78515625,-38.0859375,-42.48046875,82.03125,0.0
295.83984375,-13.18359375,-21.484375,-34.66796875,-41.9921875,48.33984375,0.0
295.84375,0.9765625,-28.3203125,-29.78515625,-38.0859375,6.8359375,0.0
295.84765625,-12.20703125,-30.76171875,-26.85546875,-29.296875,11.71875,0.0
295.8515625,-6.34765625,-26.3671875,-4.8828125,0.48828125,-12.20703125,0.0
295.85546875,10.25390625,-22.94921875,5.37109375,5.37109375,-26.85546875,0.0
295.859375,-2.9296875,-20.99609375,-4.8828125,-6.8359375,-79.58984375,0.0
295.86328125,-7.8125,-22.94921875,-9.765625,-3.90625,-27.83203125,0.0
295.8671875,-22.94921875,-25.87890625,-18.5546875,-17.578125,-14.16015625,0.0
295.87109375,-32.2265625,-24.90234375,-20.01953125,-24.4140625,-63.4765625,0.0
295.875,-32.71484375,-21.484375,-23.4375,-26.85546875,-81.0546875,0.0
295.87890625,-36.1328125,-24.90234375,-28.3203125,-30.2734375,-58.10546875,0.0
295.8828125,-23.92578125,-29.296875,-17.578125,-20.99609375,3.41796875,0.0
295.88671875,-13.18359375,-33.203125,-14.16015625,-8.7890625,-64.453125,0.0
295.890625,-9.765625,-30.2734375,-13.671875,-3.41796875,-83.984375,0.0
295.89453125,-13.18359375,-27.83203125,-10.25390625,-0.48828125,-86.42578125,0.0
295.8984375,-24.4140625,-26.85546875,-20.01953125,-4.39453125,-89.84375,0.0
295.90234375,-21.97265625,-23.92578125,-25.87890625,-15.625,-72.75390625,0.0
295.90625,-17.578125,-17.08984375,-26.3671875,-13.18359375,-78.61328125,0.0
295.91015625,-8.7890625,-14.16015625,-17.08984375,-1.953125,-94.7265625,0.0
295.9140625,2.44140625,-23.92578125,-15.13671875,-5.859375,-90.33203125,0.0
295.91796875,-16.11328125,-23.92578125,-28.80859375,-21.484375,-33.69140625,0.0
295.921875,-14.16015625,-24.4140625,-25.390625,-13.18359375,-110.83984375,0.0
295.92578125,-17.08984375,-37.59765625,-24.90234375,-19.53125,-129.8828125,0.0
295.9296875,-41.9921875,-33.69140625,-37.109375,-32.71484375,-47.36328125,0.0
295.93359375,-41.50390625,-34.1796875,-40.0390625,-32.71484375,-46.875,0.0
295.9375,-51.26953125,-37.59765625,-44.921875,-40.0390625,-26.3671875,0.0
295.94140625,-41.9921875,-35.15625,-39.55078125,-37.59765625,22.4609375,0.0
295.9453125,-30.76171875,-35.15625,-29.296875,-33.69140625,-13.18359375,0.0
295.94921875,-44.921875,-32.2265625,-40.52734375,-35.15625,-27.83203125,0.0
295.953125,-63.4765625,-38.57421875,-56.15234375,-46.875,-100.09765625,0.0
295.95703125,-58.10546875,-45.8984375,-61.03515625,-53.7109375,-113.76953125,0.0
295.9609375,-42.96875,-47.36328125,-48.33984375,-50.78125,13.18359375,0.0
295.96484375,-44.921875,-36.62109375,-46.38671875,-47.36328125,41.9921875,0.0
295.96875,-46.38671875,-29.296875,-53.22265625,-41.015625,-23.4375,0.0
295.97265625,-40.52734375,-38.0859375,-50.29296875,-41.50390625,-44.43359375,0.0
295.9765625,-40.52734375,-40.52734375,-52.734375,-53.22265625,12.6953125,0.0
295.98046875,-44.921875,-30.76171875,-52.734375,-50.78125,-14.6484375,0.0
295.984375,-43.45703125,-30.76171875,-49.31640625,-42.96875,-91.796875,0.0
295.98828125,-50.29296875,-39.55078125,-60.05859375,-61.5234375,-113.28125,0.0
295.9921875,-59.5703125,-31.73828125,-71.2890625,-80.078125,-134.765625,0.0
295.99609375,-62.5,-22.94921875,-67.3828125,-72.265625,-178.22265625,0.0
296.0,-56.640625,-32.71484375,-57.12890625,-59.08203125,-150.87890625,0.0
296.00390625,-57.6171875,-40.52734375,-67.3828125,-72.265625,-122.0703125,0.0
296.0078125,-56.640625,-37.109375,-71.77734375,-68.359375,-144.04296875,0.0
296.01171875,-41.50390625,-25.87890625,-54.19921875,-49.8046875,-123.53515625,0.0
296.015625,-32.71484375,-30.2734375,-61.03515625,-45.8984375,-116.2109375,0.0
296.01953125,-32.71484375,-32.2265625,-67.87109375,-42.48046875,-61.5234375,0.0
296.0234375,-43.9453125,-26.85546875,-63.4765625,-47.36328125,-18.5546875,0.0
296.02734375,-63.96484375,-46.38671875,-63.96484375,-64.94140625,-145.5078125,0.0
296.03125,-59.5703125,-40.52734375,-65.4296875,-62.98828125,-116.69921875,0.0
296.03515625,-29.296875,-25.390625,-62.01171875,-28.80859375,-76.171875,0.0
296.0390625,-19.53125,-25.87890625,-47.36328125,-16.11328125,-138.18359375,0.0
296.04296875,-16.11328125,-30.76171875,-47.8515625,-12.6953125,-83.49609375,0.0
296.046875,-22.94921875,-36.62109375,-49.8046875,-21.484375,-72.75390625,0.0
296.05078125,-40.0390625,-35.15625,-51.26953125,-42.48046875,-43.45703125,0.0
296.0546875,-38.0859375,-31.25,-57.6171875,-38.0859375,60.05859375,0.0
296.05859375,-22.94921875,-27.83203125,-47.8515625,-14.6484375,131.8359375,0.0
296.0625,-15.625,-34.1796875,-37.109375,-3.90625,125.9765625,0.0
296.06640625,-22.4609375,-41.015625,-44.43359375,-10.25390625,122.0703125,0.0
296.0703125,-19.04296875,-37.59765625,-38.0859375,-10.25390625,116.69921875,0.0
296.07421875,-10.25390625,-34.66796875,-21.484375,-9.27734375,28.80859375,0.0
296.078125,-7.8125,-30.2734375,-25.87890625,-10.7421875,13.18359375,0.0
296.08203125,-6.34765625,-31.73828125,-27.34375,-8.30078125,31.25,0.0
296.0859375,-8.7890625,-28.3203125,-24.4140625,-8.7890625,-32.2265625,0.0
296.08984375,5.37109375,-25.390625,-11.71875,9.765625,-95.21484375,0.0
296.09375,21.97265625,-27.34375,14.16015625,29.296875,-125.48828125,0.0
296.09765625,31.73828125,-26.85546875,27.34375,36.1328125,-32.71484375,0.0
296.1015625,44.43359375,-21.97265625,23.4375,45.8984375,46.38671875,0.0
296.10546875,44.43359375,-17.08984375,19.04296875,41.015625,-49.31640625,0.0
296.109375,31.25,-30.2734375,19.53125,30.76171875,-12.6953125,0.0
296.11328125,25.87890625,-37.109375,6.8359375,20.5078125,75.1953125,0.0
296.1171875,37.109375,-23.4375,21.97265625,31.25,9.765625,0.0
296.12109375,73.73046875,-7.8125,63.4765625,75.1953125,2.9296875,0.0
296.125,55.17578125,-1.953125,41.50390625,61.03515625,33.203125,0.0
296.12890625,5.37109375,-8.7890625,0.9765625,9.27734375,67.87109375,0.0
296.1328125,7.8125,4.39453125,-4.8828125,7.32421875,98.6328125,0.0
296.13671875,-1.46484375,-0.9765625,-26.3671875,-5.859375,58.10546875,0.0
296.140625,-34.1796875,-13.671875,-49.31640625,-26.85546875,29.78515625,0.0
296.14453125,-40.52734375,-16.6015625,-44.921875,-27.34375,-20.99609375,0.0
296.1484375,-24.90234375,-3.41796875,-33.69140625,-27.83203125,-88.37890625,0.0
296.15234375,-23.4375,18.5546875,-36.1328125,-33.69140625,-38.57421875,0.0
296.15625,-18.06640625,24.4140625,-26.85546875,-18.06640625,38.0859375,0.0
296.16015625,7.32421875,20.01953125,-12.6953125,7.8125,32.2265625,0.0
296.1640625,-0.48828125,0.0,-12.20703125,4.39453125,53.22265625,0.0
296.16796875,-12.20703125,10.25390625,-18.5546875,-20.01953125,19.53125,0.0
296.171875,-16.11328125,27.34375,-30.2734375,-33.203125,-69.82421875,0.0
296.17578125,-16.6015625,25.390625,-33.203125,-25.390625,-34.1796875,0.0
296.1796875,-30.76171875,17.578125,-48.33984375,-37.109375,-77.1484375,0.0
296.18359375,-38.0859375,20.5078125,-56.15234375,-44.43359375,-129.39453125,0.0
296.1875,-19.04296875,35.15625,-36.62109375,-28.3203125,-86.9140625,0.0
296.19140625,-23.92578125,42.48046875,-38.57421875,-28.80859375,-100.09765625,0.0
296.1953125,-29.78515625,38.0859375,-42.48046875,-26.85546875,-62.98828125,0.0
296.19921875,-24.4140625,37.59765625,-25.390625,-19.53125,-52.734375,0.0
296.203125,-20.5078125,40.0390625,-19.04296875,-24.4140625,-83.49609375,0.0
296.20703125,-20.01953125,27.83203125,-34.66796875,-30.76171875,-49.31640625,0.0
296.2109375,-34.1796875,14.6484375,-41.9921875,-37.109375,-15.13671875,0.0
296.21484375,-39.0625,7.32421875,-37.59765625,-27.83203125,-6.34765625,0.0
296.21875,-32.71484375,6.8359375,-33.69140625,-15.625,-33.203125,0.0
296.22265625,-52.24609375,2.44140625,-42.48046875,-30.76171875,-21.484375,0.0
296.2265625,-59.08203125,0.0,-53.22265625,-52.734375,-22.94921875,0.0
296.23046875,-54.6875,-5.37109375,-49.31640625,-50.78125,-138.671875,0.0
296.234375,-62.5,-9.765625,-43.9453125,-42.96875,-218.26171875,0.0
296.23828125,-58.59375,-14.6484375,-44.43359375,-44.921875,-205.078125,0.0
296.2421875,-66.89453125,-14.16015625,-41.9921875,-43.45703125,-160.64453125,0.0
296.24609375,-90.33203125,-4.8828125,-42.48046875,-63.96484375,-59.5703125,0.0
296.25,-92.7734375,-6.34765625,-51.7578125,-71.77734375,-35.64453125,0.0
296.25390625,-72.265625,-10.25390625,-43.9453125,-53.22265625,-128.90625,0.0
296.2578125,-69.82421875,-7.8125,-46.38671875,-65.91796875,-180.17578125,0.0
296.26171875,-63.96484375,-10.7421875,-46.38671875,-64.453125,-136.23046875,0.0
296.265625,-65.91796875,-14.16015625,-41.50390625,-54.19921875,1.953125,0.0
296.26953125,-82.51953125,-14.16015625,-49.8046875,-68.359375,68.359375,0.0
296.2734375,-70.3125,-17.08984375,-49.8046875,-61.03515625,51.26953125,0.0
296.27734375,-45.8984375,-18.5546875,-38.57421875,-41.50390625,87.890625,0.0
296.28125,-19.04296875,-17.578125,-32.2265625,-11.23046875,86.42578125,0.0
296.28515625,-33.69140625,-16.6015625,-48.828125,-25.87890625,28.3203125,0.0
296.2890625,-75.1953125,-14.6484375,-50.29296875,-77.1484375,32.2265625,0.0
296.29296875,-101.5625,-16.6015625,-60.546875,-103.515625,19.53125,0.0
296.296875,-102.5390625,-23.4375,-73.2421875,-100.09765625,17.578125,0.0
296.30078125,-100.09765625,-17.08984375,-82.51953125,-104.00390625,48.828125,0.0
296.3046875,-110.3515625,-19.53125,-93.26171875,-120.1171875,-21.484375,0.0
296.30859375,-110.83984375,-23.4375,-97.16796875,-109.375,-61.03515625,0.0
296.3125,-104.00390625,-13.671875,-94.7265625,-96.19140625,-16.11328125,0.0
296.31640625,-99.12109375,-12.20703125,-78.125,-96.6796875,-2.9296875,0.0
296.3203125,-98.6328125,-2.44140625,-81.54296875,-97.16796875,-55.6640625,0.0
296.32421875,-83.0078125,7.32421875,-87.40234375,-83.0078125,12.20703125,0.0
296.328125,-78.61328125,1.46484375,-75.68359375,-80.078125,33.69140625,0.0
296.33203125,-96.19140625,6.8359375,-84.9609375,-89.84375,-12.6953125,0.0
296.3359375,-90.8203125,9.765625,-86.42578125,-94.7265625,45.8984375,0.0
296.33984375,-78.61328125,4.8828125,-71.77734375,-87.40234375,-31.25,0.0
296.34375,-77.1484375,18.5546875,-68.84765625,-74.70703125,-97.16796875,0.0
296.34765625,-51.26953125,20.5078125,-67.3828125,-56.640625,-38.57421875,0.0
296.3515625,-4.8828125,7.8125,-54.19921875,-17.08984375,-70.80078125,0.0
296.35546875,-21.484375,7.8125,-38.57421875,-27.34375,-95.703125,0.0
296.359375,-46.38671875,3.41796875,-33.203125,-54.19921875,-2.44140625,0.0
296.36328125,-17.08984375,0.48828125,-16.6015625,-38.0859375,47.36328125,0.0
296.3671875,10.25390625,8.7890625,1.953125,-17.08984375,-71.2890625,0.0
296.37109375,9.765625,21.97265625,-7.32421875,-14.6484375,-68.359375,0.0
296.375,-23.4375,25.87890625,-36.62109375,-51.26953125,-14.6484375,0.0
296.37890625,-41.9921875,15.625,-51.26953125,-63.4765625,-140.13671875,0.0
296.3828125,-49.8046875,-2.44140625,-45.41015625,-55.6640625,-135.7421875,0.0
296.38671875,-55.6640625,3.41796875,-36.62109375,-56.15234375,31.73828125,0.0
296.390625,-64.94140625,3.41796875,-40.52734375,-64.453125,11.23046875,0.0
296.39453125,-73.2421875,-4.39453125,-42.48046875,-60.546875,-19.53125,0.0
296.3984375,-41.015625,-6.8359375,-18.06640625,-32.2265625,13.18359375,0.0
296.40234375,10.7421875,-12.20703125,25.390625,9.765625,-85.9375,0.0
296.40625,6.34765625,-12.20703125,10.25390625,9.27734375,-78.125,0.0
296.41015625,-51.26953125,-12.6953125,-53.22265625,-52.24609375,-65.4296875,0.0
296.4140625,-74.21875,-10.25390625,-62.98828125,-65.91796875,-125.9765625,0.0
296.41796875,-72.75390625,-15.625,-59.08203125,-60.546875,-56.640625,0.0
296.421875,-58.59375,-20.5078125,-43.9453125,-45.8984375,-33.69140625,0.0
296.42578125,-30.2734375,-18.06640625,-14.16015625,-20.5078125,-33.203125,0.0
296.4296875,-45.8984375,-29.78515625,-25.390625,-42.48046875,14.6484375,0.0
296.43359375,-83.984375,-40.0390625,-62.01171875,-80.56640625,-27.83203125,0.0
296.4375,-90.33203125,-42.48046875,-60.05859375,-83.0078125,49.31640625,0.0
296.44140625,-74.70703125,-51.7578125,-55.17578125,-65.4296875,44.43359375,0.0
296.4453125,-46.875,-54.6875,-38.57421875,-39.55078125,-119.140625,0.0
296.44921875,-1.46484375,-58.10546875,2.44140625,5.859375,-197.265625,0.0
296.453125,-30.2734375,-64.453125,-26.3671875,-17.08984375,-214.35546875,0.0
296.45703125,-84.47265625,-62.98828125,-75.68359375,-74.70703125,-261.23046875,0.0
296.4609375,-83.49609375,-57.6171875,-65.91796875,-70.80078125,-256.8359375,0.0
296.46484375,-52.734375,-59.5703125,-47.8515625,-43.9453125,-193.84765625,0.0
296.46875,-28.80859375,-68.359375,-51.26953125,-25.87890625,-97.16796875,0.0
296.47265625,-71.77734375,-67.3828125,-74.21875,-66.40625,-39.55078125,0.0
296.4765625,-83.49609375,-64.453125,-75.68359375,-96.19140625,-71.2890625,0.0
296.48046875,-48.33984375,-65.91796875,-58.10546875,-55.6640625,-96.6796875,0.0
296.484375,-4.39453125,-56.640625,-15.13671875,1.46484375,-130.859375,0.0
296.48828125,18.06640625,-65.4296875,22.94921875,22.94921875,-73.2421875,0.0
296.4921875,-7.32421875,-75.68359375,0.48828125,1.46484375,-104.4921875,0.0
296.49609375,-23.4375,-72.265625,-32.71484375,-25.87890625,-174.8046875,0.0
296.5,-17.578125,-69.82421875,-28.3203125,-16.11328125,-122.0703125,0.0
296.50390625,-39.0625,-68.359375,-50.29296875,-33.69140625,-46.875,0.0
296.5078125,-28.80859375,-68.84765625,-44.43359375,-31.73828125,-17.578125,0.0
296.51171875,6.34765625,-70.80078125,-8.7890625,8.7890625,43.9453125,0.0
296.515625,12.6953125,-77.1484375,-1.953125,11.23046875,101.07421875,0.0
296.51953125,19.53125,-78.61328125,-7.8125,8.7890625,-23.92578125,0.0
296.5234375,18.06640625,-71.77734375,-11.71875,6.8359375,-150.87890625,0.0
296.52734375,16.11328125,-68.359375,-10.7421875,3.41796875,-128.90625,0.0
296.53125,34.66796875,-59.08203125,7.8125,21.97265625,-117.67578125,0.0
296.53515625,52.24609375,-59.08203125,41.50390625,54.6875,-78.61328125,0.0
296.5390625,34.66796875,-63.4765625,19.04296875,29.78515625,-101.07421875,0.0
296.54296875,10.7421875,-60.546875,-6.34765625,1.953125,-151.3671875,0.0
296.546875,22.94921875,-66.40625,5.37109375,12.6953125,-218.26171875,0.0
296.55078125,43.45703125,-62.01171875,22.94921875,30.76171875,-200.1953125,0.0
296.5546875,66.89453125,-41.015625,54.19921875,58.59375,-122.0703125,0.0
296.55859375,89.35546875,-38.57421875,80.56640625,80.56640625,-121.09375,0.0
296.5625,36.1328125,-44.43359375,31.25,27.83203125,-41.9921875,0.0
296.56640625,0.9765625,-44.43359375,-11.23046875,-11.71875,-2.9296875,0.0
296.5703125,-1.46484375,-47.36328125,-13.18359375,-16.11328125,31.73828125,0.0
296.57421875,-35.15625,-44.921875,-26.85546875,-34.1796875,111.328125,0.0
296.578125,-37.109375,-40.52734375,-33.203125,-41.015625,107.91015625,0.0
296.58203125,-34.66796875,-43.9453125,-36.1328125,-42.48046875,83.984375,0.0
296.5859375,-41.015625,-52.24609375,-38.0859375,-41.50390625,62.01171875,0.0
296.58984375,-35.64453125,-50.78125,-29.78515625,-33.69140625,96.19140625,0.0
296.59375,-29.78515625,-49.31640625,-29.296875,-35.15625,98.14453125,0.0
296.59765625,-42.48046875,-47.36328125,-37.109375,-42.96875,50.29296875,0.0
296.6015625,-41.9921875,-43.9453125,-33.203125,-33.69140625,19.04296875,0.0
296.60546875,-24.90234375,-47.36328125,-25.87890625,-28.3203125,-69.3359375,0.0
296.609375,-0.9765625,-42.48046875,-0.9765625,-3.90625,1.953125,0.0
296.61328125,13.671875,-43.45703125,12.20703125,15.625,51.26953125,0.0
296.6171875,20.01953125,-43.9453125,14.16015625,11.23046875,-9.765625,0.0
296.62109375,18.06640625,-41.015625,12.6953125,5.37109375,59.5703125,0.0
296.625,9.27734375,-44.921875,4.8828125,-3.90625,71.2890625,0.0
296.62890625,0.0,-45.8984375,0.9765625,-7.8125,-1.46484375,0.0
296.6328125,-2.9296875,-39.55078125,-5.859375,-6.34765625,-56.15234375,0.0
296.63671875,2.9296875,-40.0390625,-8.7890625,0.48828125,-65.91796875,0.0
296.640625,-6.8359375,-37.109375,-16.11328125,-0.9765625,0.48828125,0.0
296.64453125,7.8125,-40.0390625,-6.8359375,1.953125,0.9765625,0.0
296.6484375,44.921875,-37.59765625,21.484375,30.2734375,0.0,0.0
296.65234375,28.3203125,-31.73828125,25.87890625,19.53125,55.6640625,0.0
296.65625,9.27734375,-39.55078125,27.34375,10.25390625,65.4296875,0.0
296.66015625,9.27734375,-49.31640625,20.01953125,12.20703125,-21.484375,0.0
296.6640625,-3.41796875,-52.734375,4.39453125,-2.44140625,-9.27734375,0.0
296.66796875,1.46484375,-39.55078125,5.37109375,-0.48828125,28.80859375,0.0
296.671875,26.85546875,-31.25,19.04296875,17.08984375,10.7421875,0.0
296.67578125,31.25,-29.296875,29.296875,29.296875,6.8359375,0.0
296.6796875,7.8125,-36.1328125,15.13671875,18.5546875,-37.109375,0.0
296.68359375,17.08984375,-41.50390625,9.765625,12.20703125,-34.1796875,0.0
296.6875,29.296875,-36.1328125,23.4375,16.6015625,-87.890625,0.0
296.69140625,24.4140625,-29.296875,26.85546875,10.25390625,-126.953125,0.0
296.6953125,16.11328125,-38.0859375,22.4609375,4.8828125,-43.9453125,0.0
296.69921875,7.32421875,-52.24609375,19.53125,0.9765625,-13.671875,0.0
296.703125,6.34765625,-49.31640625,18.5546875,0.9765625,-35.64453125,0.0
296.70703125,-4.8828125,-45.8984375,11.71875,-1.46484375,-75.1953125,0.0
296.7109375,-7.32421875,-40.52734375,8.30078125,-3.41796875,-62.01171875,0.0
296.71484375,-12.6953125,-41.50390625,-4.39453125,-16.11328125,-42.48046875,0.0
296.71875,-42.48046875,-37.109375,-29.78515625,-46.38671875,-11.71875,0.0
296.72265625,-58.10546875,-41.015625,-38.0859375,-56.640625,45.8984375,0.0
296.7265625,-67.87109375,-51.26953125,-50.29296875,-65.4296875,-11.23046875,0.0
296.73046875,-84.47265625,-41.9921875,-62.98828125,-85.44921875,-44.43359375,0.0
296.734375,-88.8671875,-37.59765625,-66.89453125,-81.0546875,-18.5546875,0.0
296.73828125,-88.8671875,-37.109375,-72.75390625,-83.0078125,-18.06640625,0.0
296.7421875,-87.40234375,-33.203125,-66.89453125,-91.30859375,-78.61328125,0.0
296.74609375,-85.44921875,-39.0625,-60.05859375,-86.42578125,-101.5625,0.0
296.75,-84.9609375,-36.1328125,-60.546875,-84.47265625,-8.30078125,0.0
296.75390625,-86.42578125,-39.55078125,-60.546875,-93.26171875,-27.34375,0.0
296.7578125,-79.58984375,-40.52734375,-57.6171875,-89.35546875,-75.1953125,0.0
296.76171875,-76.66015625,-31.73828125,-60.546875,-87.890625,-102.5390625,0.0
296.765625,-94.7265625,-40.0390625,-69.3359375,-102.5390625,-179.6875,0.0
296.76953125,-79.58984375,-46.875,-44.43359375,-65.4296875,-151.3671875,0.0
296.7734375,-42.96875,-41.50390625,-27.83203125,-42.96875,-91.796875,0.0
296.77734375,-48.828125,-40.0390625,-39.0625,-65.4296875,-40.0390625,0.0
296.78125,-70.3125,-39.55078125,-39.55078125,-65.91796875,-3.41796875,0.0
296.78515625,-46.875,-36.1328125,-24.90234375,-43.9453125,-66.89453125,0.0
296.7890625,4.39453125,-29.78515625,18.06640625,1.953125,-24.4140625,0.0
296.79296875,22.94921875,-31.25,34.66796875,18.5546875,51.26953125,0.0
296.796875,21.484375,-36.62109375,36.62109375,16.11328125,53.7109375,0.0
296.80078125,33.203125,-38.0859375,41.015625,33.203125,-21.484375,0.0
296.8046875,30.76171875,-37.59765625,34.66796875,34.1796875,-59.08203125,0.0
296.80859375,20.99609375,-45.41015625,27.34375,11.71875,-1.46484375,0.0
296.8125,13.671875,-46.875,16.11328125,-5.859375,26.3671875,0.0
296.81640625,-9.765625,-38.0859375,-6.8359375,-25.87890625,51.26953125,0.0
296.8203125,-25.87890625,-40.0390625,-12.6953125,-32.2265625,100.5859375,0.0
296.82421875,-21.97265625,-41.015625,-2.44140625,-17.08984375,104.4921875,0.0
296.828125,-42.48046875,-40.52734375,-25.87890625,-41.9921875,76.66015625,0.0
296.83203125,-56.640625,-35.64453125,-49.8046875,-74.21875,45.8984375,0.0
296.8359375,-36.1328125,-22.4609375,-51.26953125,-63.96484375,50.78125,0.0
296.83984375,-29.78515625,-27.34375,-38.57421875,-41.9921875,33.69140625,0.0
296.84375,-41.9921875,-34.66796875,-33.69140625,-44.43359375,-38.57421875,0.0
296.84765625,-61.03515625,-33.69140625,-51.7578125,-67.3828125,-63.96484375,0.0
296.8515625,-77.1484375,-34.66796875,-63.4765625,-89.35546875,-61.03515625,0.0
296.85546875,-79.1015625,-28.3203125,-56.15234375,-84.47265625,-123.53515625,0.0
296.859375,-79.1015625,-35.15625,-48.33984375,-75.68359375,-78.61328125,0.0
296.86328125,-81.0546875,-41.50390625,-36.62109375,-61.5234375,-24.4140625,0.0
296.8671875,-69.3359375,-42.48046875,-33.69140625,-46.875,-58.10546875,0.0
296.87109375,-83.0078125,-28.3203125,-49.31640625,-66.40625,3.41796875,0.0
296.875,-93.26171875,-20.99609375,-58.59375,-79.58984375,52.734375,0.0
296.87890625,-91.30859375,-28.3203125,-69.3359375,-87.890625,-44.43359375,0.0
296.8828125,-93.75,-24.90234375,-64.94140625,-95.21484375,-90.8203125,0.0
296.88671875,-64.453125,-27.83203125,-37.109375,-72.265625,-31.25,0.0
296.890625,-61.03515625,-30.76171875,-37.59765625,-57.6171875,31.73828125,0.0
296.89453125,-83.0078125,-28.80859375,-56.640625,-73.73046875,-1.46484375,0.0
296.8984375,-78.125,-33.203125,-50.78125,-75.68359375,-76.171875,0.0
296.90234375,-51.7578125,-34.1796875,-36.1328125,-64.94140625,-74.70703125,0.0
296.90625,-30.76171875,-32.2265625,-36.1328125,-46.875,-61.03515625,0.0
296.91015625,-20.01953125,-30.2734375,-35.64453125,-32.71484375,-69.3359375,0.0
296.9140625,-12.6953125,-37.59765625,-25.390625,-22.4609375,-118.65234375,0.0
296.91796875,-21.97265625,-46.875,-42.48046875,-48.828125,-86.42578125,0.0
296.921875,-5.37109375,-40.52734375,-52.24609375,-60.05859375,-37.59765625,0.0
296.92578125,-0.9765625,-38.57421875,-31.25,-41.50390625,-97.65625,0.0
296.9296875,-6.34765625,-35.15625,-21.97265625,-38.0859375,-92.28515625,0.0
296.93359375,-11.23046875,-43.45703125,-37.109375,-38.57421875,-34.66796875,0.0
296.9375,-49.8046875,-47.36328125,-70.80078125,-70.3125,41.015625,0.0
296.94140625,-73.2421875,-39.55078125,-87.40234375,-91.30859375,72.75390625,0.0
296.9453125,-80.56640625,-43.45703125,-91.796875,-85.44921875,-6.8359375,0.0
296.94921875,-96.19140625,-44.43359375,-92.7734375,-85.44921875,-17.578125,0.0
296.953125,-85.44921875,-42.96875,-90.33203125,-85.44921875,-26.3671875,0.0
296.95703125,-66.40625,-43.9453125,-78.61328125,-78.125,-173.33984375,0.0
296.9609375,-54.6875,-43.45703125,-64.453125,-57.12890625,-118.65234375,0.0
296.96484375,-39.0625,-42.96875,-52.734375,-38.0859375,45.8984375,0.0
296.96875,-33.203125,-38.0859375,-46.875,-38.57421875,15.625,0.0
296.97265625,-41.50390625,-38.0859375,-42.96875,-33.69140625,24.90234375,0.0
296.9765625,-35.15625,-25.87890625,-33.203125,-35.15625,19.53125,0.0
296.98046875,-23.92578125,-28.3203125,-18.06640625,-40.0390625,-70.3125,0.0
296.984375,-38.0859375,-38.0859375,-22.94921875,-52.734375,-55.6640625,0.0
296.98828125,-65.91796875,-35.64453125,-51.26953125,-69.3359375,-56.15234375,0.0
296.9921875,-77.1484375,-36.1328125,-59.5703125,-64.94140625,-113.28125,0.0
296.99609375,-74.70703125,-36.62109375,-50.78125,-53.22265625,-85.44921875,0.0
297.0,-89.35546875,-38.57421875,-52.24609375,-63.4765625,0.48828125,0.0
297.00390625,-82.51953125,-38.0859375,-52.734375,-74.21875,-11.23046875,0.0
297.0078125,-81.54296875,-35.64453125,-53.7109375,-76.66015625,-107.91015625,0.0
297.01171875,-90.33203125,-33.69140625,-54.19921875,-70.80078125,-149.4140625,0.0
297.015625,-78.61328125,-29.296875,-46.38671875,-70.3125,-93.75,0.0
297.01953125,-68.84765625,-38.0859375,-45.8984375,-70.3125,-69.3359375,0.0
297.0234375,-47.8515625,-41.50390625,-25.87890625,-38.57421875,-148.92578125,0.0
297.02734375,-25.390625,-40.52734375,-1.953125,-17.08984375,-157.71484375,0.0
297.03125,-13.18359375,-42.96875,-0.48828125,-11.23046875,-142.08984375,0.0
297.03515625,-0.48828125,-42.48046875,0.0,1.46484375,-139.6484375,0.0
297.0390625,-14.6484375,-46.38671875,-5.859375,-3.90625,-140.13671875,0.0
297.04296875,-42.48046875,-34.66796875,-18.5546875,-7.32421875,-190.4296875,0.0
297.046875,-36.1328125,-29.296875,-27.83203125,-16.11328125,-161.62109375,0.0
297.05078125,-28.80859375,-37.59765625,-32.71484375,-27.34375,-119.62890625,0.0
297.0546875,-32.71484375,-36.1328125,-21.97265625,-20.5078125,-144.04296875,0.0
297.05859375,-45.8984375,-40.0390625,-26.3671875,-32.2265625,-158.69140625,0.0
297.0625,-46.38671875,-31.73828125,-49.31640625,-51.26953125,-54.6875,0.0
297.06640625,-44.43359375,-29.296875,-59.5703125,-54.19921875,-20.5078125,0.0
297.0703125,-48.828125,-37.109375,-61.03515625,-48.33984375,-2.9296875,0.0
297.07421875,-53.7109375,-42.48046875,-55.17578125,-49.31640625,106.93359375,0.0
297.078125,-55.6640625,-43.45703125,-37.59765625,-46.875,94.7265625,0.0
297.08203125,-43.9453125,-41.50390625,-28.80859375,-32.2265625,-11.23046875,0.0
297.0859375,-34.1796875,-42.48046875,-25.87890625,-35.64453125,-24.90234375,0.0
297.08984375,-32.71484375,-33.69140625,-20.5078125,-37.109375,49.31640625,0.0
297.09375,-25.390625,-25.87890625,-16.6015625,-20.5078125,62.01171875,0.0
297.09765625,-39.55078125,-31.73828125,-16.6015625,-24.4140625,28.80859375,0.0
297.1015625,-49.31640625,-34.1796875,-27.83203125,-36.1328125,62.5,0.0
297.10546875,-45.8984375,-30.76171875,-31.73828125,-36.1328125,103.515625,0.0
297.109375,-47.36328125,-32.71484375,-31.25,-28.3203125,79.58984375,0.0
297.11328125,-41.9921875,-31.25,-34.1796875,-36.62109375,88.8671875,0.0
297.1171875,-50.78125,-31.25,-30.2734375,-51.7578125,35.64453125,0.0
297.12109375,-40.52734375,-41.015625,-29.78515625,-42.96875,-35.15625,0.0
297.125,-51.26953125,-33.69140625,-33.69140625,-26.85546875,-14.16015625,0.0
297.12890625,-60.05859375,-20.5078125,-39.55078125,-36.1328125,60.546875,0.0
297.1328125,-27.83203125,-19.53125,-35.15625,-33.203125,62.01171875,0.0
297.13671875,-39.0625,-14.6484375,-44.43359375,-35.15625,-10.7421875,0.0
297.140625,-34.1796875,-11.71875,-38.0859375,-25.87890625,24.4140625,0.0
297.14453125,-1.46484375,-22.94921875,-13.671875,0.0,8.30078125,0.0
297.1484375,-28.80859375,-25.87890625,-27.83203125,-20.99609375,-48.828125,0.0
297.15234375,-37.59765625,-18.5546875,-36.1328125,-30.76171875,-77.63671875,0.0
297.15625,-39.55078125,-14.16015625,-36.1328125,-19.53125,-63.96484375,0.0
297.16015625,-60.05859375,-12.20703125,-54.19921875,-42.48046875,48.33984375,0.0
297.1640625,-43.45703125,-13.671875,-37.109375,-18.5546875,39.55078125,0.0
297.16796875,-5.859375,-22.94921875,-2.9296875,23.4375,-39.55078125,0.0
297.171875,16.6015625,-20.01953125,-17.08984375,12.20703125,-67.87109375,0.0
297.17578125,-8.7890625,-18.5546875,-47.8515625,-17.08984375,-9.27734375,0.0
297.1796875,-13.671875,-28.3203125,-22.94921875,-11.71875,37.109375,0.0
297.18359375,7.32421875,-28.80859375,22.4609375,20.01953125,-8.7890625,0.0
297.1875,3.90625,-27.83203125,18.5546875,15.13671875,-79.1015625,0.0
297.19140625,4.8828125,-31.25,8.30078125,-9.27734375,-88.37890625,0.0
297.1953125,-3.90625,-30.76171875,3.90625,-19.04296875,11.23046875,0.0
297.19921875,1.46484375,-28.80859375,12.6953125,9.765625,20.99609375,0.0
297.203125,32.2265625,-29.78515625,43.9453125,49.31640625,21.97265625,0.0
297.20703125,26.85546875,-33.69140625,44.921875,33.203125,17.08984375,0.0
297.2109375,-11.23046875,-30.2734375,19.04296875,-7.32421875,-57.6171875,0.0
297.21484375,-25.87890625,-31.73828125,-10.7421875,-23.92578125,-91.796875,0.0
297.21875,-24.4140625,-39.0625,-34.66796875,-44.921875,20.99609375,0.0
297.22265625,-48.33984375,-45.41015625,-46.38671875,-67.87109375,46.38671875,0.0
