timestamp,TP9,AF7,AF8,TP10,AUX,Marker,
2.00390625,-62.01171875,105.95703125,63.4765625,-481.93359375,98.14453125,0.0
2.0078125,-1000.0,112.3046875,73.73046875,-1000.0,52.734375,0.0
2.01171875,-738.28125,113.28125,76.66015625,-620.60546875,-19.53125,0.0
2.015625,624.0234375,119.62890625,82.03125,741.2109375,-12.20703125,0.0
2.01953125,-837.890625,122.55859375,81.0546875,-951.66015625,-75.68359375,0.0
2.0234375,472.65625,128.90625,74.21875,-196.2890625,-65.91796875,0.0
2.02734375,-955.078125,136.23046875,83.0078125,-1000.0,-20.99609375,0.0
2.03125,-916.015625,140.625,91.30859375,-784.66796875,-96.6796875,0.0
2.03515625,557.12890625,146.484375,101.07421875,573.2421875,-105.95703125,0.0
2.0390625,-886.71875,154.78515625,99.12109375,-866.2109375,-56.640625,0.0
2.04296875,829.1015625,141.6015625,79.58984375,525.390625,-59.5703125,0.0
2.046875,-649.4140625,128.90625,89.84375,-842.7734375,-115.234375,0.0
2.05078125,-994.62890625,139.16015625,111.328125,-956.0546875,-98.14453125,0.0
2.0546875,564.453125,144.04296875,114.2578125,577.1484375,-0.48828125,0.0
2.05859375,-856.93359375,152.83203125,112.79296875,-863.76953125,31.73828125,0.0
2.0625,708.0078125,155.2734375,123.046875,166.015625,8.30078125,0.0
2.06640625,-777.34375,148.4375,125.9765625,-1000.0,-51.7578125,0.0
2.0703125,-991.69921875,152.34375,121.09375,-906.73828125,-24.90234375,0.0
2.07421875,532.2265625,153.80859375,125.48828125,509.765625,88.37890625,0.0
2.078125,-874.51171875,151.3671875,135.25390625,-843.75,21.484375,0.0
2.08203125,793.45703125,156.25,146.484375,407.2265625,-88.37890625,0.0
2.0859375,-588.37890625,167.48046875,145.01953125,-855.46875,-19.04296875,0.0
2.08984375,-1000.0,167.96875,147.94921875,-1000.0,40.52734375,0.0
2.09375,186.03515625,169.921875,159.1796875,255.859375,0.9765625,0.0
2.09765625,-870.1171875,170.41015625,166.9921875,-851.07421875,73.2421875,0.0
2.1015625,802.734375,163.0859375,146.484375,576.171875,44.43359375,0.0
2.10546875,-546.38671875,154.78515625,131.34765625,-742.67578125,6.8359375,0.0
2.109375,-1000.0,159.1796875,149.4140625,-1000.0,-13.18359375,0.0
2.11328125,-197.265625,171.875,161.1328125,13.18359375,-1.46484375,0.0
2.1171875,-959.47265625,181.15234375,153.3203125,-901.3671875,87.890625,0.0
2.12109375,846.6796875,173.33984375,158.203125,680.17578125,72.265625,0.0
2.125,-565.91796875,161.62109375,175.29296875,-714.84375,23.4375,0.0
2.12890625,-1000.0,173.33984375,175.29296875,-1000.0,50.29296875,0.0
2.1328125,-308.10546875,170.8984375,170.41015625,-21.97265625,61.5234375,0.0
2.13671875,-995.60546875,165.52734375,172.36328125,-904.296875,18.06640625,0.0
2.140625,849.12109375,171.38671875,173.33984375,583.0078125,-85.9375,0.0
2.14453125,-564.453125,170.8984375,181.15234375,-740.234375,-173.33984375,0.0
2.1484375,-1000.0,179.6875,166.50390625,-1000.0,-158.203125,0.0
2.15234375,-686.5234375,192.87109375,155.76171875,-434.08203125,-113.76953125,0.0
2.15625,741.69921875,196.77734375,182.12890625,904.78515625,-93.26171875,0.0
2.16015625,-944.82421875,187.01171875,186.5234375,912.109375,-29.78515625,0.0
2.1640625,-356.4453125,170.41015625,167.48046875,-512.6953125,-31.25,0.0
2.16796875,-1000.0,172.8515625,167.48046875,-1000.0,-52.734375,0.0
2.171875,-822.265625,176.7578125,173.33984375,-751.46484375,-11.23046875,0.0
2.17578125,501.953125,170.8984375,175.29296875,624.0234375,-7.8125,0.0
2.1796875,-808.59375,169.43359375,175.29296875,-908.203125,-56.15234375,0.0
2.18359375,189.94140625,168.45703125,169.921875,-172.36328125,-163.57421875,0.0
2.1875,-1000.0,170.41015625,168.9453125,-1000.0,-242.1875,0.0
2.19140625,-997.55859375,173.828125,167.96875,-917.96875,-230.95703125,0.0
2.1953125,293.9453125,171.875,174.31640625,383.7890625,-232.91015625,0.0
2.19921875,-818.84765625,172.8515625,183.59375,-833.984375,-197.265625,0.0
2.203125,663.0859375,183.10546875,183.10546875,361.328125,-174.31640625,0.0
2.20703125,-771.97265625,179.19921875,175.78125,-917.48046875,-143.06640625,0.0
2.2109375,-1000.0,180.17578125,169.43359375,-998.046875,-76.171875,0.0
2.21484375,292.48046875,176.26953125,175.78125,420.41015625,-122.0703125,0.0
2.21875,-828.61328125,163.57421875,165.0390625,-845.21484375,-112.3046875,0.0
2.22265625,675.29296875,170.41015625,161.1328125,309.5703125,-30.76171875,0.0
2.2265625,-728.02734375,177.24609375,179.19921875,-914.55078125,-115.234375,0.0
2.23046875,-1000.0,182.6171875,176.26953125,-1000.0,-114.2578125,0.0
2.234375,131.34765625,190.91796875,161.1328125,296.875,-1.953125,0.0
2.23828125,-869.140625,194.82421875,158.203125,-848.14453125,-66.40625,0.0
2.2421875,782.2265625,178.7109375,169.921875,499.51171875,4.8828125,0.0
2.24609375,-590.33203125,168.9453125,186.03515625,-812.98828125,97.16796875,0.0
2.25,-1000.0,176.7578125,181.15234375,-1000.0,70.80078125,0.0
2.25390625,-133.30078125,180.6640625,168.9453125,217.7734375,104.98046875,0.0
2.2578125,-937.01171875,182.12890625,158.203125,-864.74609375,85.44921875,0.0
2.26171875,826.66015625,179.6875,172.36328125,607.421875,71.77734375,0.0
2.265625,-568.359375,177.734375,183.10546875,-747.55859375,12.6953125,0.0
2.26953125,-1000.0,185.546875,182.12890625,-1000.0,-55.6640625,0.0
2.2734375,-364.74609375,183.59375,183.10546875,112.3046875,-36.62109375,0.0
2.27734375,-989.2578125,180.6640625,172.8515625,-872.55859375,0.48828125,0.0
2.28125,767.578125,187.98828125,140.13671875,452.1484375,-35.64453125,0.0
2.28515625,-674.8046875,191.89453125,127.9296875,-843.75,-8.7890625,0.0
2.2890625,-1000.0,176.26953125,167.48046875,-1000.0,30.76171875,0.0
2.29296875,-588.8671875,170.8984375,191.89453125,-70.3125,0.9765625,0.0
2.296875,869.140625,184.08203125,187.01171875,-944.3359375,14.6484375,0.0
2.30078125,927.734375,191.40625,170.8984375,802.24609375,20.01953125,0.0
2.3046875,-550.78125,176.7578125,161.1328125,-574.21875,10.25390625,0.0
2.30859375,-1000.0,163.57421875,166.9921875,-1000.0,-44.43359375,0.0
2.3125,-836.42578125,162.109375,173.33984375,-574.21875,-66.89453125,0.0
2.31640625,568.359375,172.8515625,172.8515625,771.484375,-54.6875,0.0
2.3203125,-895.99609375,170.8984375,158.69140625,-998.046875,-34.66796875,0.0
2.32421875,-327.1484375,161.62109375,150.87890625,-392.08984375,-30.76171875,0.0
2.328125,-1000.0,155.2734375,149.90234375,-1000.0,73.73046875,0.0
2.33203125,-877.9296875,158.69140625,152.83203125,-798.828125,61.03515625,0.0
2.3359375,604.4921875,158.203125,161.62109375,687.98828125,-54.19921875,0.0
2.33984375,988.76953125,152.34375,163.57421875,930.6640625,-0.9765625,0.0
2.34375,-574.21875,150.87890625,145.01953125,-615.72265625,-5.37109375,0.0
2.34765625,-1000.0,147.94921875,135.25390625,-1000.0,-18.06640625,0.0
2.3515625,-874.0234375,145.99609375,137.6953125,-814.453125,44.43359375,0.0
2.35546875,522.94921875,141.6015625,134.765625,620.60546875,26.3671875,0.0
2.359375,-901.85546875,149.90234375,139.6484375,-974.12109375,65.4296875,0.0
2.36328125,-366.2109375,162.59765625,140.13671875,-461.9140625,72.265625,0.0
2.3671875,-1000.0,141.11328125,132.8125,-1000.0,38.57421875,0.0
2.37109375,-858.88671875,129.39453125,135.7421875,-765.625,76.171875,0.0
2.375,464.35546875,141.6015625,152.34375,599.12109375,109.375,0.0
2.37890625,-810.546875,157.71484375,156.73828125,-886.71875,73.73046875,0.0
2.3828125,75.68359375,153.3203125,148.92578125,-51.7578125,-7.32421875,0.0
2.38671875,-1000.0,126.46484375,139.16015625,-1000.0,-25.87890625,0.0
2.390625,-996.58203125,118.65234375,138.671875,-866.69921875,-11.71875,0.0
2.39453125,248.53515625,131.8359375,141.11328125,498.046875,36.1328125,0.0
2.3984375,-803.22265625,149.4140625,134.765625,-846.19140625,51.26953125,0.0
2.40234375,590.8203125,142.578125,131.34765625,468.75,-33.203125,0.0
2.40625,-788.0859375,135.25390625,127.44140625,-875.48828125,-94.23828125,0.0
2.41015625,-1000.0,145.99609375,127.9296875,-968.75,-88.37890625,0.0
2.4140625,56.640625,159.66796875,136.71875,481.93359375,-129.39453125,0.0
2.41796875,-888.671875,141.6015625,132.32421875,-870.60546875,-129.39453125,0.0
2.421875,799.8046875,125.9765625,120.60546875,767.08984375,-74.70703125,0.0
2.42578125,-556.640625,126.46484375,125.0,-646.484375,-54.6875,0.0
2.4296875,-1000.0,113.28125,127.9296875,-1000.0,-83.49609375,0.0
2.43359375,-344.23828125,110.3515625,122.0703125,396.484375,-76.66015625,0.0
2.4375,988.28125,127.9296875,119.140625,-894.04296875,-33.69140625,0.0
2.44140625,861.328125,127.44140625,131.34765625,874.0234375,-7.32421875,0.0
2.4453125,-568.359375,125.48828125,134.765625,-515.625,6.8359375,0.0
2.44921875,-1000.0,133.7890625,134.765625,-1000.0,67.3828125,0.0
2.453125,-500.0,125.0,141.11328125,337.890625,116.2109375,0.0
2.45703125,920.41015625,110.83984375,135.7421875,-873.53515625,95.703125,0.0
2.4609375,882.8125,112.3046875,129.8828125,795.8984375,38.0859375,0.0
2.46484375,-589.35546875,106.4453125,132.32421875,-520.99609375,92.28515625,0.0
2.46875,-1000.0,104.4921875,130.859375,-1000.0,65.4296875,0.0
2.47265625,-852.5390625,98.14453125,135.7421875,-423.33984375,-25.390625,0.0
2.4765625,632.32421875,107.421875,135.25390625,906.73828125,-44.43359375,0.0
2.48046875,951.171875,113.76953125,111.81640625,853.02734375,-58.10546875,0.0
2.484375,-605.95703125,97.16796875,105.46875,-662.59765625,-50.29296875,0.0
2.48828125,-1000.0,117.1875,106.4453125,-1000.0,-50.29296875,0.0
2.4921875,-686.5234375,117.1875,105.95703125,-88.37890625,-12.6953125,0.0
2.49609375,808.10546875,82.03125,103.02734375,-949.21875,81.0546875,0.0
2.5,917.96875,95.21484375,85.9375,792.96875,96.6796875,0.0
2.50390625,-595.703125,97.65625,88.37890625,-628.90625,-10.7421875,0.0
2.5078125,-1000.0,94.7265625,101.07421875,-1000.0,-38.0859375,0.0
2.51171875,-745.1171875,94.7265625,120.60546875,-208.0078125,-30.76171875,0.0
2.515625,723.14453125,87.890625,133.30078125,984.375,-110.3515625,0.0
2.51953125,994.62890625,87.40234375,132.8125,901.85546875,-156.25,0.0
2.5234375,-507.8125,96.19140625,134.27734375,-467.28515625,-71.2890625,0.0
2.52734375,-1000.0,98.6328125,116.2109375,-1000.0,44.43359375,0.0
2.53125,-848.6328125,101.5625,98.6328125,-616.2109375,117.67578125,0.0
2.53515625,544.43359375,105.95703125,107.421875,758.7890625,103.02734375,0.0
2.5390625,-879.8828125,98.14453125,104.4921875,-993.1640625,130.37109375,0.0
2.54296875,-285.64453125,98.6328125,106.4453125,-399.90234375,78.61328125,0.0
2.546875,-1000.0,100.09765625,109.86328125,-1000.0,-57.12890625,0.0
2.55078125,-871.09375,97.16796875,102.5390625,-816.40625,8.7890625,0.0
2.5546875,511.23046875,107.421875,99.12109375,631.34765625,75.1953125,0.0
2.55859375,-848.6328125,104.4921875,102.5390625,-963.37890625,0.0,0.0
2.5625,-199.21875,91.796875,101.5625,-452.1484375,-21.484375,0.0
2.56640625,-1000.0,84.9609375,93.75,-1000.0,24.90234375,0.0
2.5703125,-940.91796875,103.02734375,103.02734375,-899.4140625,-9.27734375,0.0
2.57421875,314.94140625,119.62890625,112.3046875,475.09765625,-45.8984375,0.0
2.578125,-785.15625,115.234375,105.46875,-901.85546875,-81.54296875,0.0
2.58203125,233.3984375,97.65625,97.65625,-352.05078125,-54.6875,0.0
2.5859375,-948.2421875,91.796875,93.26171875,-1000.0,-41.015625,0.0
2.58984375,-1000.0,101.5625,94.23828125,-1000.0,-83.49609375,0.0
2.59375,-92.28515625,102.05078125,80.078125,-29.78515625,-124.0234375,0.0
2.59765625,-870.1171875,90.33203125,73.2421875,-944.3359375,-160.15625,0.0
2.6015625,644.04296875,87.40234375,77.63671875,-183.10546875,-253.90625,0.0
2.60546875,-812.01171875,89.35546875,72.265625,-1000.0,-290.52734375,0.0
2.609375,-1000.0,84.47265625,77.63671875,-1000.0,-152.34375,0.0
2.61328125,176.7578125,85.44921875,89.84375,-10.25390625,-122.0703125,0.0
2.6171875,-865.234375,91.796875,90.33203125,-941.89453125,-188.96484375,0.0
2.62109375,783.69140625,91.30859375,102.5390625,-248.046875,-169.43359375,0.0
2.625,-628.41796875,87.40234375,110.83984375,-1000.0,-142.08984375,0.0
2.62890625,-1000.0,83.984375,101.5625,-1000.0,-138.18359375,0.0
2.6328125,210.9375,83.0078125,96.6796875,-274.90234375,-112.79296875,0.0
2.63671875,-970.21484375,83.49609375,82.03125,-945.3125,9.27734375,0.0
2.640625,-971.6796875,86.9140625,67.3828125,177.734375,47.36328125,0.0
2.64453125,46.875,87.40234375,58.59375,-988.28125,74.70703125,0.0
2.6484375,-1000.0,76.171875,56.15234375,-1000.0,126.953125,0.0
2.65234375,164.55078125,74.21875,72.265625,-207.03125,58.59375,0.0
2.65625,-894.04296875,78.61328125,94.23828125,-920.8984375,-7.8125,0.0
2.66015625,936.03515625,75.68359375,101.5625,349.12109375,-9.765625,0.0
2.6640625,-208.984375,75.68359375,98.6328125,-897.94921875,-8.30078125,0.0
2.66796875,-1000.0,85.9375,101.07421875,-1000.0,-78.125,0.0
2.671875,-216.796875,81.54296875,90.8203125,-416.50390625,18.5546875,0.0
2.67578125,-979.4921875,69.82421875,79.1015625,984.375,71.77734375,0.0
2.6796875,918.45703125,70.80078125,71.2890625,605.46875,36.1328125,0.0
2.68359375,-398.92578125,82.51953125,62.5,-779.296875,59.08203125,0.0
2.6875,-1000.0,76.66015625,52.734375,-1000.0,25.390625,0.0
2.69140625,-584.9609375,67.87109375,57.6171875,-598.14453125,0.0,0.0
2.6953125,819.82421875,72.75390625,64.453125,856.93359375,-58.10546875,0.0
2.69921875,-966.30859375,78.61328125,48.33984375,847.16796875,-84.47265625,0.0
2.703125,-321.77734375,71.77734375,31.25,-652.34375,-20.99609375,0.0
2.70703125,-1000.0,60.05859375,40.0390625,-1000.0,8.30078125,0.0
2.7109375,-778.3203125,59.08203125,65.4296875,-689.453125,-15.13671875,0.0
2.71484375,651.85546875,58.10546875,69.3359375,765.625,-20.5078125,0.0
2.71875,-907.71484375,48.33984375,56.640625,901.85546875,30.2734375,0.0
2.72265625,-300.78125,50.29296875,62.5,-617.1875,83.0078125,0.0
2.7265625,-1000.0,59.5703125,64.94140625,-1000.0,50.29296875,0.0
2.73046875,-853.02734375,60.05859375,61.03515625,-750.9765625,41.015625,0.0
2.734375,558.59375,59.5703125,60.05859375,704.58984375,31.73828125,0.0
2.73828125,-880.37109375,65.4296875,67.3828125,949.21875,53.22265625,0.0
2.7421875,-274.90234375,72.265625,58.59375,-576.171875,-33.203125,0.0
2.74609375,-1000.0,75.1953125,41.015625,-1000.0,-106.4453125,0.0
2.75,-867.1875,76.171875,53.22265625,-847.16796875,24.90234375,0.0
2.75390625,522.4609375,72.75390625,62.98828125,608.3984375,66.40625,0.0
2.7578125,-855.95703125,70.3125,63.4765625,-999.0234375,3.90625,0.0
2.76171875,-198.73046875,69.3359375,63.96484375,-532.71484375,31.25,0.0
2.765625,-1000.0,62.01171875,56.15234375,-1000.0,-44.43359375,0.0
2.76953125,-891.6015625,62.98828125,59.5703125,-861.81640625,-7.8125,0.0
2.7734375,463.8671875,70.80078125,75.68359375,557.6171875,35.15625,0.0
2.77734375,-822.75390625,70.3125,70.3125,-943.359375,-59.08203125,0.0
2.78125,-47.36328125,76.171875,58.10546875,-423.828125,-9.27734375,0.0
2.78515625,-1000.0,86.9140625,40.52734375,-1000.0,7.8125,0.0
2.7890625,-964.84375,78.125,23.4375,-895.01953125,-48.828125,0.0
2.79296875,295.8984375,66.89453125,46.38671875,454.1015625,-18.5546875,0.0
2.796875,-784.1796875,60.546875,70.3125,-872.0703125,-40.52734375,0.0
2.80078125,349.12109375,61.03515625,73.2421875,-169.921875,-94.23828125,0.0
2.8046875,-910.15625,60.546875,68.359375,-1000.0,-111.328125,0.0
2.80859375,-1000.0,60.546875,62.98828125,-965.8203125,-78.125,0.0
2.8125,-49.8046875,66.40625,58.10546875,237.3046875,-40.0390625,0.0
2.81640625,-871.58203125,72.265625,48.828125,-831.54296875,0.9765625,0.0
2.8203125,691.89453125,62.98828125,43.45703125,298.828125,38.57421875,0.0
2.82421875,-697.75390625,56.15234375,41.015625,-911.1328125,15.13671875,0.0
2.828125,-1000.0,56.640625,38.0859375,-1000.0,-7.8125,0.0
2.83203125,-354.4921875,58.10546875,41.015625,3.90625,-70.80078125,0.0
2.8359375,-994.140625,55.17578125,50.78125,-884.27734375,-27.34375,0.0
2.83984375,797.36328125,46.38671875,47.8515625,458.984375,-11.23046875,0.0
2.84375,-641.11328125,55.6640625,44.921875,-851.5625,-60.05859375,0.0
2.84765625,-1000.0,59.5703125,42.48046875,-1000.0,2.44140625,0.0
2.8515625,-552.24609375,57.12890625,27.83203125,-109.375,-18.06640625,0.0
2.85546875,898.92578125,63.4765625,35.64453125,-928.22265625,-7.8125,0.0
2.859375,889.6484375,67.87109375,52.24609375,639.16015625,43.9453125,0.0
2.86328125,-584.9609375,60.546875,47.36328125,-736.328125,-52.734375,0.0
2.8671875,-1000.0,58.59375,43.9453125,-1000.0,-114.74609375,0.0
2.87109375,-719.7265625,62.01171875,51.26953125,-284.66796875,-62.5,0.0
2.875,777.83203125,59.08203125,45.41015625,998.53515625,-31.25,0.0
2.87890625,926.26953125,60.546875,38.57421875,760.7421875,-36.1328125,0.0
2.8828125,-604.4921875,65.4296875,37.59765625,-666.50390625,-13.671875,0.0
2.88671875,-1000.0,56.15234375,36.62109375,-1000.0,14.16015625,0.0
2.890625,-842.28515625,53.22265625,39.0625,-494.62890625,-35.64453125,0.0
2.89453125,637.6953125,56.640625,41.9921875,890.13671875,-99.12109375,0.0
2.8984375,964.84375,49.31640625,35.15625,828.125,-119.140625,0.0
2.90234375,-596.19140625,54.6875,31.73828125,-655.2734375,-112.79296875,0.0
2.90625,-1000.0,52.734375,42.48046875,-1000.0,-75.1953125,0.0
2.91015625,-849.609375,48.828125,48.828125,-565.91796875,-46.875,0.0
2.9140625,574.21875,61.5234375,50.29296875,823.73046875,-70.3125,0.0
2.91796875,-929.6875,68.359375,54.6875,924.31640625,-116.2109375,0.0
2.921875,-412.59765625,68.359375,52.24609375,-551.26953125,-86.9140625,0.0
2.92578125,-1000.0,68.84765625,48.828125,-1000.0,-11.71875,0.0
2.9296875,-848.14453125,63.96484375,39.0625,-619.62890625,64.94140625,0.0
2.93359375,551.7578125,56.640625,24.90234375,773.92578125,40.52734375,0.0
2.9375,-876.46484375,58.59375,30.76171875,970.21484375,76.66015625,0.0
2.94140625,-295.8984375,59.5703125,29.296875,-498.53515625,49.31640625,0.0
2.9453125,-1000.0,60.546875,29.78515625,-1000.0,-73.2421875,0.0
2.94921875,-919.921875,60.546875,36.62109375,-877.44140625,-40.52734375,0.0
2.953125,371.09375,63.4765625,32.2265625,528.80859375,11.23046875,0.0
2.95703125,-801.7578125,68.359375,22.4609375,-928.7109375,-13.671875,0.0
2.9609375,31.25,71.77734375,23.92578125,-412.59765625,58.10546875,0.0
2.96484375,-1000.0,76.66015625,25.390625,-1000.0,133.30078125,0.0
2.96875,-1000.0,80.078125,10.25390625,-951.171875,65.4296875,0.0
2.97265625,108.3984375,80.56640625,12.6953125,276.3671875,68.84765625,0.0
2.9765625,-813.4765625,80.078125,31.25,-851.5625,42.48046875,0.0
2.98046875,592.28515625,70.80078125,41.9921875,-0.48828125,13.18359375,0.0
2.984375,-808.10546875,53.22265625,41.50390625,-1000.0,70.3125,0.0
2.98828125,-1000.0,43.9453125,36.62109375,-1000.0,18.06640625,0.0
2.9921875,63.4765625,56.640625,43.45703125,257.32421875,-88.8671875,0.0
2.99609375,-843.75,69.3359375,47.36328125,-852.5390625,-102.05078125,0.0
3.0,642.08984375,74.70703125,44.43359375,72.75390625,-104.00390625,0.0
3.00390625,-788.0859375,79.1015625,42.96875,-1000.0,-87.40234375,0.0
3.0078125,-1000.0,73.2421875,47.36328125,-980.46875,-134.765625,0.0
3.01171875,102.5390625,72.265625,43.45703125,295.41015625,-162.109375,0.0
3.015625,-877.9296875,71.2890625,42.48046875,-832.51953125,-123.53515625,0.0
3.01953125,799.8046875,72.265625,53.7109375,430.6640625,-162.109375,0.0
3.0234375,-569.3359375,72.265625,59.5703125,-860.3515625,-111.328125,0.0
3.02734375,-1000.0,65.4296875,36.62109375,-1000.0,-6.8359375,0.0
3.03125,-166.015625,63.4765625,18.06640625,207.51953125,-15.13671875,0.0
3.03515625,-949.21875,62.01171875,31.25,-862.3046875,-19.04296875,0.0
3.0390625,831.0546875,62.98828125,44.43359375,654.78515625,18.5546875,0.0
3.04296875,-552.24609375,63.96484375,49.8046875,-696.77734375,19.53125,0.0
3.046875,-1000.0,58.59375,46.875,-1000.0,-11.23046875,0.0
3.05078125,-547.36328125,58.10546875,47.36328125,-82.03125,-1.46484375,0.0
3.0546875,885.25390625,63.4765625,57.6171875,-939.453125,55.6640625,0.0
3.05859375,931.15234375,67.87109375,62.5,780.76171875,24.90234375,0.0
3.0625,-517.578125,65.91796875,52.24609375,-625.9765625,9.765625,0.0
3.06640625,-1000.0,60.546875,39.55078125,-1000.0,-3.41796875,0.0
3.0703125,-684.08203125,57.6171875,34.1796875,-319.82421875,-35.15625,0.0
3.07421875,748.046875,57.12890625,23.92578125,960.9375,-33.69140625,0.0
3.078125,-948.2421875,50.78125,24.4140625,863.76953125,24.90234375,0.0
3.08203125,-362.79296875,37.59765625,30.76171875,-556.15234375,84.47265625,0.0
3.0859375,-1000.0,39.55078125,26.85546875,-1000.0,-8.30078125,0.0
3.08984375,-827.63671875,44.43359375,22.94921875,-665.0390625,-116.2109375,0.0
3.09375,528.80859375,42.96875,34.1796875,733.88671875,-86.9140625,0.0
3.09765625,-833.984375,42.48046875,37.59765625,-992.1875,-54.6875,0.0
3.1015625,-11.23046875,43.45703125,27.83203125,-408.69140625,0.48828125,0.0
3.10546875,-1000.0,41.50390625,30.76171875,-1000.0,-5.859375,0.0
3.109375,-844.7265625,32.71484375,37.59765625,-724.12109375,-5.37109375,0.0
3.11328125,509.27734375,35.15625,48.828125,646.484375,-41.015625,0.0
3.1171875,-818.359375,42.48046875,43.45703125,-903.3203125,-62.01171875,0.0
3.12109375,507.8125,49.31640625,24.90234375,-59.5703125,39.55078125,0.0
3.125,-927.734375,48.33984375,25.390625,-1000.0,32.71484375,0.0
3.12890625,-947.75390625,44.43359375,27.83203125,-851.5625,-29.78515625,0.0
3.1328125,515.13671875,48.828125,22.94921875,584.47265625,-36.1328125,0.0
3.13671875,-824.70703125,44.43359375,28.80859375,-882.8125,-36.62109375,0.0
3.140625,513.671875,41.50390625,29.296875,-30.76171875,8.7890625,0.0
3.14453125,-917.48046875,43.45703125,19.04296875,-1000.0,98.6328125,0.0
3.1484375,-965.8203125,35.15625,24.4140625,-855.46875,78.61328125,0.0
3.15234375,487.79296875,35.15625,36.62109375,552.24609375,45.41015625,0.0
3.15625,-852.05078125,39.0625,51.26953125,-855.46875,34.66796875,0.0
3.16015625,727.05078125,42.48046875,54.19921875,220.21484375,-18.5546875,0.0
3.1640625,-674.31640625,49.31640625,39.55078125,-971.19140625,-20.5078125,0.0
3.16796875,-1000.0,47.8515625,31.73828125,-973.6328125,-38.0859375,0.0
3.171875,214.84375,51.26953125,35.64453125,403.80859375,7.32421875,0.0
3.17578125,-861.81640625,54.19921875,30.76171875,-834.9609375,32.71484375,0.0
3.1796875,791.9921875,41.50390625,24.4140625,401.85546875,9.765625,0.0
3.18359375,-600.09765625,30.2734375,33.69140625,-886.71875,-20.01953125,0.0
3.1875,-1000.0,28.80859375,46.38671875,-1000.0,-34.1796875,0.0
3.19140625,84.47265625,26.85546875,45.41015625,344.7265625,63.4765625,0.0
3.1953125,-879.8828125,28.80859375,31.25,-835.9375,40.0390625,0.0
3.19921875,798.33984375,35.15625,21.97265625,403.3203125,-85.9375,0.0
3.203125,-607.421875,34.66796875,25.87890625,-888.671875,-96.6796875,0.0
3.20703125,-1000.0,33.203125,25.390625,-1000.0,-76.171875,0.0
3.2109375,47.36328125,31.73828125,21.97265625,303.7109375,-20.01953125,0.0
3.21484375,-883.7890625,29.296875,21.484375,-832.03125,-56.640625,0.0
3.21875,798.828125,28.3203125,24.90234375,579.1015625,-129.39453125,0.0
3.22265625,-536.1328125,26.85546875,33.69140625,-728.515625,-88.8671875,0.0
3.2265625,-1000.0,15.13671875,16.6015625,-1000.0,-54.19921875,0.0
3.23046875,-537.109375,11.23046875,-7.32421875,-150.87890625,-5.859375,0.0
3.234375,876.953125,23.4375,0.9765625,-959.47265625,87.890625,0.0
3.23828125,962.40234375,25.87890625,11.71875,806.640625,150.87890625,0.0
3.2421875,-466.796875,13.671875,18.5546875,-594.7265625,58.10546875,0.0
3.24609375,-1000.0,8.7890625,32.2265625,-1000.0,-28.80859375,0.0
3.25,-791.9921875,10.25390625,29.296875,-546.875,-38.0859375,0.0
3.25390625,602.5390625,8.30078125,23.92578125,824.21875,4.8828125,0.0
3.2578125,-877.9296875,5.859375,23.4375,950.1953125,-22.4609375,0.0
3.26171875,-216.30859375,4.39453125,21.97265625,-499.0234375,-71.2890625,0.0
3.265625,-1000.0,15.625,31.25,-1000.0,-64.94140625,0.0
3.26953125,-825.68359375,17.08984375,33.69140625,-583.49609375,-21.97265625,0.0
3.2734375,618.65234375,11.71875,19.04296875,823.73046875,70.3125,0.0
3.27734375,-905.2734375,8.7890625,14.16015625,929.6875,45.8984375,0.0
3.28125,-332.03125,13.18359375,14.16015625,-542.96875,-57.12890625,0.0
3.28515625,-1000.0,17.578125,13.671875,-1000.0,-83.0078125,0.0
3.2890625,-820.80078125,14.6484375,27.83203125,-710.44921875,-26.3671875,0.0
3.29296875,499.51171875,12.20703125,28.80859375,683.59375,-35.64453125,0.0
3.296875,-813.4765625,8.7890625,9.765625,-948.73046875,-90.8203125,0.0
3.30078125,271.97265625,0.9765625,13.18359375,-298.828125,-71.2890625,0.0
3.3046875,-1000.0,1.46484375,28.3203125,-1000.0,-46.875,0.0
3.30859375,-891.11328125,8.30078125,24.90234375,-793.45703125,0.48828125,0.0
3.3125,535.15625,4.39453125,18.5546875,634.765625,20.5078125,0.0
3.31640625,-818.359375,-3.41796875,21.97265625,-921.875,25.87890625,0.0
3.3203125,378.41796875,-5.859375,26.85546875,-257.8125,30.2734375,0.0
3.32421875,-958.984375,-12.6953125,33.69140625,-1000.0,6.8359375,0.0
3.328125,-993.65234375,-17.08984375,29.78515625,-871.09375,-37.109375,0.0
3.33203125,380.859375,-9.27734375,30.2734375,509.765625,-55.6640625,0.0
3.3359375,-809.5703125,2.9296875,33.69140625,-864.74609375,16.11328125,0.0
3.33984375,548.828125,-3.41796875,23.4375,-41.015625,13.18359375,0.0
3.34375,-850.5859375,-15.13671875,12.6953125,-1000.0,-54.19921875,0.0
3.34765625,-1000.0,-16.6015625,7.8125,-934.08203125,-104.00390625,0.0
3.3515625,267.08984375,-12.6953125,15.13671875,430.6640625,-89.35546875,0.0
3.35546875,-820.80078125,-11.23046875,26.85546875,-835.9375,-43.9453125,0.0
3.359375,649.4140625,-8.30078125,23.4375,107.91015625,9.765625,0.0
3.36328125,-724.12109375,4.39453125,12.20703125,-999.0234375,-5.37109375,0.0
3.3671875,-1000.0,10.25390625,15.625,-1000.0,-47.8515625,0.0
3.37109375,-61.03515625,-0.48828125,25.390625,230.95703125,32.71484375,0.0
3.375,-894.53125,-11.71875,20.99609375,-838.37890625,47.36328125,0.0
3.37890625,739.2578125,-18.06640625,11.71875,280.76171875,29.78515625,0.0
3.3828125,-649.90234375,-8.30078125,12.6953125,-920.41015625,34.1796875,0.0
3.38671875,-1000.0,2.44140625,10.7421875,-1000.0,34.1796875,0.0
3.390625,-376.46484375,5.859375,3.90625,24.4140625,77.63671875,0.0
3.39453125,979.00390625,1.953125,3.90625,-883.30078125,40.52734375,0.0
3.3984375,860.83984375,-3.41796875,12.6953125,586.42578125,-20.99609375,0.0
3.40234375,-580.56640625,-8.30078125,15.625,-723.14453125,-55.17578125,0.0
3.40625,-1000.0,-11.23046875,18.06640625,-1000.0,-37.109375,0.0
3.41015625,-857.91015625,-4.39453125,21.484375,-633.30078125,15.625,0.0
3.4140625,602.05078125,0.0,16.11328125,809.08203125,124.51171875,0.0
3.41796875,-998.53515625,-3.90625,15.13671875,865.72265625,147.4609375,0.0
3.421875,-544.921875,-1.953125,15.625,-644.04296875,-22.4609375,0.0
3.42578125,-1000.0,6.34765625,14.6484375,-1000.0,-43.9453125,0.0
3.4296875,-855.46875,2.9296875,11.71875,-764.16015625,19.53125,0.0
3.43359375,558.10546875,-8.30078125,-3.41796875,692.87109375,-28.3203125,0.0
3.4375,-911.1328125,-8.7890625,-9.27734375,952.63671875,-22.4609375,0.0
3.44140625,-382.8125,-2.44140625,10.25390625,-573.73046875,12.20703125,0.0
3.4453125,-1000.0,-0.48828125,20.99609375,-1000.0,-11.71875,0.0
3.44921875,-894.53125,-8.7890625,12.20703125,-805.6640625,-65.4296875,0.0
3.453125,471.6796875,-13.671875,5.859375,645.01953125,-93.75,0.0
3.45703125,-862.3046875,-10.25390625,9.765625,993.1640625,-67.3828125,0.0
3.4609375,-251.46484375,-12.20703125,0.48828125,-522.4609375,-42.48046875,0.0
3.46484375,-1000.0,-12.20703125,-5.37109375,-1000.0,-130.37109375,0.0
3.46875,-881.8359375,-3.90625,3.41796875,-818.84765625,-90.8203125,0.0
3.47265625,485.83984375,-2.44140625,5.859375,626.46484375,-34.1796875,0.0
3.4765625,-834.47265625,-9.765625,-4.8828125,-973.14453125,-97.16796875,0.0
3.48046875,-121.58203125,-3.41796875,-4.8828125,-477.5390625,-114.2578125,0.0
3.484375,-1000.0,4.8828125,-2.44140625,-1000.0,-81.54296875,0.0
3.48828125,-771.484375,3.41796875,-6.34765625,-713.8671875,-8.7890625,0.0
3.4921875,525.390625,8.7890625,1.953125,649.90234375,29.296875,0.0
3.49609375,-829.58984375,-0.48828125,-2.9296875,-956.54296875,-22.94921875,0.0
3.5,115.234375,-19.53125,-20.5078125,-364.2578125,1.953125,0.0
3.50390625,-1000.0,-16.6015625,-4.8828125,-1000.0,41.9921875,0.0
3.5078125,-988.28125,-17.578125,12.6953125,-883.7890625,-25.390625,0.0
3.51171875,286.62109375,-22.94921875,10.7421875,474.609375,4.8828125,0.0
3.515625,-791.50390625,-15.625,5.859375,-866.69921875,-10.25390625,0.0
3.51953125,485.3515625,-11.23046875,6.34765625,-112.3046875,-27.83203125,0.0
3.5234375,-847.16796875,-12.6953125,4.8828125,-1000.0,-81.54296875,0.0
3.52734375,-1000.0,-17.578125,4.39453125,-986.81640625,-166.9921875,0.0
3.53125,-26.3671875,-22.4609375,16.11328125,272.4609375,-84.9609375,0.0
3.53515625,-857.421875,-17.578125,20.01953125,-859.86328125,-12.20703125,0.0
3.5390625,625.0,-11.71875,8.30078125,-29.78515625,-111.81640625,0.0
3.54296875,-750.0,-15.625,-2.9296875,-1000.0,-125.48828125,0.0
3.546875,-1000.0,-23.4375,0.9765625,-1000.0,-57.12890625,0.0
3.55078125,-445.3125,-18.5546875,3.41796875,-140.13671875,7.8125,0.0
3.5546875,996.58203125,-9.765625,4.39453125,-940.4296875,63.4765625,0.0
3.55859375,716.796875,-13.18359375,9.27734375,44.43359375,25.390625,0.0
3.5625,-743.1640625,-20.5078125,2.44140625,-1000.0,29.296875,0.0
3.56640625,-1000.0,-12.20703125,-5.859375,-1000.0,79.1015625,0.0
3.5703125,-634.765625,0.0,4.8828125,-294.43359375,94.23828125,0.0
3.57421875,869.140625,-9.765625,15.13671875,-968.26171875,65.4296875,0.0
3.578125,848.6328125,-19.04296875,14.16015625,355.95703125,31.25,0.0
3.58203125,-665.52734375,-25.390625,0.0,-913.57421875,27.34375,0.0
3.5859375,-1000.0,-27.34375,1.46484375,-1000.0,42.96875,0.0
3.58984375,-833.984375,-19.04296875,14.16015625,-475.5859375,22.4609375,0.0
3.59375,661.1328125,-15.13671875,15.625,930.6640625,35.15625,0.0
3.59765625,937.01171875,-16.11328125,11.23046875,571.77734375,5.37109375,0.0
3.6015625,-635.7421875,-17.08984375,8.7890625,-815.4296875,-2.9296875,0.0
3.60546875,-1000.0,-11.23046875,11.23046875,-1000.0,87.40234375,0.0
3.609375,-895.01953125,-10.25390625,4.8828125,-796.875,-12.6953125,0.0
3.61328125,556.15234375,-14.6484375,10.25390625,704.58984375,-93.75,0.0
3.6171875,994.62890625,-17.578125,17.08984375,907.71484375,-19.04296875,0.0
3.62109375,-579.1015625,-13.18359375,12.20703125,-639.6484375,60.05859375,0.0
3.625,-1000.0,-12.20703125,11.23046875,-1000.0,69.3359375,0.0
3.62890625,-921.875,-17.08984375,15.13671875,-791.50390625,-39.55078125,0.0
3.6328125,509.765625,-16.11328125,16.6015625,687.01171875,21.484375,0.0
3.63671875,-995.60546875,-15.13671875,18.06640625,928.22265625,97.16796875,0.0
3.640625,-593.26171875,0.48828125,5.859375,-620.60546875,40.52734375,0.0
3.64453125,-1000.0,-0.9765625,-4.8828125,-1000.0,31.25,0.0
3.6484375,-997.55859375,-28.3203125,-5.37109375,-836.42578125,-9.27734375,0.0
3.65234375,289.0625,-20.99609375,-6.34765625,614.74609375,-38.0859375,0.0
3.65625,-909.1796875,-18.5546875,1.46484375,-994.140625,19.53125,0.0
3.66015625,-432.12890625,-28.80859375,10.7421875,-514.16015625,-10.25390625,0.0
3.6640625,-1000.0,-26.85546875,5.859375,-1000.0,-73.73046875,0.0
3.66796875,-955.56640625,-20.99609375,-1.46484375,-815.4296875,-73.73046875,0.0
3.671875,288.0859375,-17.08984375,-4.8828125,583.984375,-64.453125,0.0
3.67578125,-808.59375,-11.23046875,4.39453125,-909.66796875,-157.2265625,0.0
3.6796875,-43.9453125,-8.30078125,9.27734375,-248.046875,-128.90625,0.0
3.68359375,-1000.0,-10.25390625,0.0,-1000.0,-122.55859375,0.0
3.6875,-992.67578125,-11.71875,-2.44140625,-843.26171875,-124.0234375,0.0
3.69140625,203.61328125,-9.27734375,3.90625,519.53125,-83.0078125,0.0
3.6953125,-798.828125,-13.671875,3.90625,-852.05078125,-92.28515625,0.0
3.69921875,491.69921875,-19.53125,0.48828125,176.7578125,-110.3515625,0.0
3.703125,-916.9921875,-25.87890625,-0.48828125,-1000.0,-117.1875,0.0
3.70703125,-1000.0,-23.4375,-1.46484375,-848.6328125,-31.25,0.0
3.7109375,375.9765625,-9.765625,-1.953125,579.58984375,3.90625,0.0
3.71484375,-851.07421875,-5.37109375,3.41796875,-859.86328125,-75.68359375,0.0
3.71875,758.7890625,-11.23046875,6.8359375,506.34765625,-62.98828125,0.0
3.72265625,-654.78515625,-18.5546875,12.20703125,-863.28125,-45.8984375,0.0
3.7265625,-1000.0,-18.5546875,12.6953125,-948.73046875,-23.4375,0.0
3.73046875,263.671875,-4.8828125,10.7421875,523.92578125,-39.55078125,0.0
3.734375,-860.83984375,2.9296875,8.7890625,-860.3515625,0.48828125,0.0
3.73828125,794.43359375,-10.7421875,4.39453125,701.66015625,18.06640625,0.0
3.7421875,-540.0390625,-17.578125,0.9765625,-693.84765625,-78.61328125,0.0
3.74609375,-1000.0,-7.32421875,0.0,-1000.0,-72.75390625,0.0
3.75,-193.84765625,-13.18359375,1.953125,312.01171875,-92.28515625,0.0
3.75390625,969.7265625,-13.18359375,1.46484375,-895.01953125,-114.2578125,0.0
3.7578125,-994.140625,-12.20703125,1.46484375,854.4921875,-21.97265625,0.0
3.76171875,-205.078125,-23.92578125,-2.44140625,-488.28125,41.50390625,0.0
3.765625,-1000.0,-19.53125,-3.41796875,-1000.0,32.2265625,0.0
3.76953125,-489.2578125,-19.53125,-5.859375,74.70703125,25.390625,0.0
3.7734375,914.55078125,-23.4375,-10.25390625,-906.25,29.78515625,0.0
3.77734375,966.796875,-16.11328125,-7.32421875,797.36328125,-45.8984375,0.0
3.78125,-422.8515625,-16.11328125,-5.859375,-598.6328125,-118.1640625,0.0
3.78515625,-1000.0,-18.06640625,-8.7890625,-1000.0,-83.49609375,0.0
3.7890625,-617.67578125,-14.6484375,-9.27734375,-134.27734375,-39.55078125,0.0
3.79296875,777.34375,-7.32421875,-6.34765625,-977.5390625,-127.44140625,0.0
3.796875,-921.38671875,-5.37109375,-11.23046875,844.23828125,-124.51171875,0.0
3.80078125,-218.75,-12.20703125,-8.7890625,-538.0859375,-2.9296875,0.0
3.8046875,-1000.0,-8.30078125,-5.37109375,-1000.0,7.32421875,0.0
3.80859375,-788.57421875,-4.39453125,-1.953125,-494.140625,-55.6640625,0.0
3.8125,598.6328125,-11.23046875,3.41796875,860.3515625,-39.55078125,0.0
3.81640625,-848.14453125,-16.11328125,-10.7421875,945.80078125,-34.1796875,0.0
3.8203125,-10.25390625,-7.8125,-14.16015625,-486.81640625,-56.15234375,0.0
3.82421875,-1000.0,1.953125,-22.4609375,-1000.0,-13.18359375,0.0
3.828125,-866.69921875,-8.30078125,-24.90234375,-587.890625,-2.9296875,0.0
3.83203125,563.96484375,-14.6484375,-5.37109375,791.015625,-19.04296875,0.0
3.8359375,-850.5859375,-17.578125,3.90625,968.75,-8.30078125,0.0
3.83984375,-95.21484375,-21.97265625,9.27734375,-473.14453125,44.43359375,0.0
3.84375,-1000.0,-17.578125,-0.48828125,-1000.0,62.98828125,0.0
3.84765625,-841.796875,-7.8125,-1.953125,-779.78515625,26.85546875,0.0
3.8515625,511.23046875,-4.39453125,8.30078125,617.67578125,52.24609375,0.0
3.85546875,-813.4765625,-6.34765625,1.46484375,-914.0625,73.73046875,0.0
3.859375,324.21875,-5.859375,-10.7421875,-222.65625,45.41015625,0.0
3.86328125,-1000.0,-10.25390625,-6.8359375,-1000.0,-53.7109375,0.0
3.8671875,-931.15234375,-10.25390625,-0.48828125,-825.1953125,-61.03515625,0.0
3.87109375,482.91015625,-11.23046875,-4.39453125,598.14453125,-19.04296875,0.0
3.875,-811.03515625,-15.13671875,-3.41796875,-899.4140625,-20.5078125,0.0
3.87890625,431.640625,-16.6015625,1.46484375,-165.52734375,-36.1328125,0.0
3.8828125,-916.015625,-18.5546875,-11.71875,-1000.0,-0.9765625,0.0
3.88671875,-1000.0,-25.390625,-17.578125,-890.625,20.99609375,0.0
3.890625,296.38671875,-25.390625,-8.30078125,447.75390625,-0.9765625,0.0
3.89453125,-842.28515625,-21.97265625,-10.25390625,-834.47265625,23.4375,0.0
3.8984375,743.1640625,-24.4140625,-16.11328125,274.4140625,-46.875,0.0
3.90234375,-656.73828125,-24.90234375,-16.6015625,-958.49609375,-110.3515625,0.0
3.90625,-1000.0,-27.34375,-10.25390625,-981.4453125,-26.3671875,0.0
3.91015625,157.71484375,-30.2734375,-3.41796875,389.16015625,3.90625,0.0
3.9140625,-873.046875,-29.296875,-1.953125,-833.984375,37.59765625,0.0
3.91796875,800.29296875,-35.15625,-10.25390625,526.3671875,-5.859375,0.0
3.921875,-541.50390625,-32.71484375,-12.20703125,-787.59765625,-48.33984375,0.0
3.92578125,-1000.0,-27.34375,-6.34765625,-1000.0,-29.78515625,0.0
3.9296875,-278.3203125,-35.64453125,-7.8125,125.9765625,-20.99609375,0.0
3.93359375,988.28125,-32.71484375,-12.6953125,-885.7421875,-40.52734375,0.0
3.9375,914.0625,-20.5078125,-10.7421875,726.07421875,-29.296875,0.0
3.94140625,-443.84765625,-25.87890625,-10.7421875,-636.23046875,-22.94921875,0.0
3.9453125,-1000.0,-30.2734375,-19.04296875,-1000.0,-90.8203125,0.0
3.94921875,-665.52734375,-25.87890625,-20.01953125,-285.15625,-55.17578125,0.0
3.953125,764.6484375,-21.484375,-17.08984375,983.3984375,25.390625,0.0
3.95703125,-948.73046875,-20.5078125,-8.7890625,821.2890625,2.9296875,0.0
3.9609375,-341.796875,-21.484375,-8.30078125,-616.2109375,-42.48046875,0.0
3.96484375,-1000.0,-22.94921875,-16.6015625,-1000.0,21.97265625,0.0
3.96875,-784.1796875,-17.578125,-20.99609375,-499.0234375,77.1484375,0.0
3.97265625,645.99609375,-12.6953125,-20.99609375,868.65234375,32.2265625,0.0
3.9765625,-910.64453125,-24.4140625,-15.625,883.7890625,1.46484375,0.0
3.98046875,-319.3359375,-29.78515625,-10.25390625,-593.26171875,-86.9140625,0.0
3.984375,-1000.0,-22.4609375,-12.6953125,-1000.0,-100.5859375,0.0
3.98828125,-795.8984375,-17.08984375,-5.37109375,-578.125,-69.3359375,0.0
3.9921875,558.59375,-16.11328125,0.9765625,791.50390625,-99.609375,0.0
3.99609375,-827.1484375,-20.5078125,-9.27734375,980.46875,-53.7109375,0.0
4.0,83.0078125,-25.87890625,-10.7421875,-466.30859375,-2.44140625,0.0
4.00390625,-1000.0,-25.87890625,-12.6953125,-1000.0,-28.80859375,0.0
4.0078125,-757.8125,-24.4140625,-16.11328125,-595.21484375,-62.01171875,0.0
4.01171875,556.15234375,-26.3671875,-13.671875,727.5390625,-34.1796875,0.0
4.015625,-837.890625,-26.85546875,-9.27734375,-970.21484375,-37.109375,0.0
4.01953125,479.98046875,-26.3671875,-2.9296875,-274.90234375,-37.59765625,0.0
4.0234375,-954.58984375,-24.90234375,-19.04296875,-1000.0,-62.01171875,0.0
4.02734375,-916.50390625,-23.4375,-24.90234375,-809.08203125,-45.41015625,0.0
4.03125,546.38671875,-25.87890625,-17.578125,586.9140625,-20.99609375,0.0
4.03515625,-846.6796875,-27.34375,-17.578125,-880.37109375,-58.10546875,0.0
4.0390625,664.0625,-30.2734375,-11.23046875,-7.32421875,-54.6875,0.0
4.04296875,-818.84765625,-27.83203125,-7.32421875,-1000.0,-28.80859375,0.0
4.046875,-980.46875,-24.4140625,-11.23046875,-851.07421875,-4.39453125,0.0
4.05078125,530.2734375,-23.92578125,-14.6484375,550.78125,28.3203125,0.0
4.0546875,-873.53515625,-15.625,-15.625,-849.609375,-29.296875,0.0
4.05859375,790.0390625,-14.16015625,-21.97265625,315.4296875,-35.15625,0.0
4.0625,-625.0,-18.06640625,-26.3671875,-953.125,-18.06640625,0.0
4.06640625,-1000.0,-19.53125,-22.94921875,-949.70703125,-56.15234375,0.0
4.0703125,322.75390625,-21.97265625,-20.01953125,478.02734375,8.30078125,0.0
4.07421875,-860.3515625,-16.11328125,-5.859375,-841.796875,28.3203125,0.0
4.078125,802.24609375,-9.27734375,4.8828125,418.9453125,18.06640625,0.0
4.08203125,-578.125,-6.8359375,-7.32421875,-885.25390625,67.87109375,0.0
4.0859375,-1000.0,-15.625,-12.6953125,-1000.0,52.24609375,0.0
4.08984375,120.1171875,-20.01953125,-15.625,392.08984375,122.0703125,0.0
4.09375,-877.9296875,-16.6015625,-17.578125,-837.40234375,163.0859375,0.0
4.09765625,803.22265625,-28.3203125,-6.8359375,547.8515625,62.98828125,0.0
4.1015625,-541.9921875,-40.0390625,-6.8359375,-784.66796875,8.7890625,0.0
4.10546875,-1000.0,-37.109375,-20.5078125,-1000.0,15.13671875,0.0
4.109375,-324.21875,-32.2265625,-25.390625,190.4296875,79.1015625,0.0
4.11328125,998.046875,-32.2265625,-20.5078125,-864.74609375,84.47265625,0.0
4.1171875,853.02734375,-30.76171875,-19.04296875,600.5859375,-10.7421875,0.0
4.12109375,-563.96484375,-24.90234375,-15.625,-726.07421875,-56.640625,0.0
4.125,-1000.0,-22.94921875,-12.6953125,-1000.0,-8.30078125,0.0
4.12890625,-630.859375,-18.5546875,-13.18359375,-188.4765625,50.78125,0.0
4.1328125,842.28515625,-14.6484375,-16.6015625,-965.33203125,35.64453125,0.0
4.13671875,924.8046875,-17.578125,-5.37109375,730.46875,29.78515625,0.0
4.140625,-568.359375,-29.296875,-3.41796875,-665.52734375,74.70703125,0.0
4.14453125,-1000.0,-32.71484375,-12.20703125,-1000.0,82.51953125,0.0
4.1484375,-812.5,-10.7421875,-8.7890625,-585.9375,59.08203125,0.0
4.15234375,658.69140625,-11.71875,-6.34765625,849.12109375,-6.8359375,0.0
4.15625,989.2578125,-25.390625,-7.32421875,798.828125,-75.1953125,0.0
4.16015625,-545.41015625,-19.04296875,-16.11328125,-687.5,-49.8046875,0.0
4.1640625,-1000.0,-24.4140625,-14.16015625,-1000.0,-56.15234375,0.0
4.16796875,-814.94140625,-16.6015625,-17.578125,-749.0234375,-126.46484375,0.0
4.171875,492.1875,-0.9765625,-21.97265625,662.59765625,-65.91796875,0.0
4.17578125,-813.4765625,-3.41796875,-13.18359375,-954.1015625,60.05859375,0.0
4.1796875,252.9296875,-16.11328125,-5.859375,-350.5859375,12.20703125,0.0
4.18359375,-1000.0,-20.99609375,-7.32421875,-1000.0,-81.54296875,0.0
4.1875,-900.87890625,-12.6953125,-14.16015625,-829.1015625,-61.03515625,0.0
4.19140625,496.58203125,-8.30078125,-18.06640625,560.546875,-61.5234375,0.0
4.1953125,-829.1015625,-20.99609375,-9.27734375,-882.8125,-94.23828125,0.0
4.19921875,610.3515625,-31.25,-7.8125,-82.51953125,-58.59375,0.0
4.203125,-827.1484375,-29.78515625,-14.16015625,-1000.0,-56.15234375,0.0
4.20703125,-1000.0,-25.87890625,-11.71875,-917.48046875,-114.2578125,0.0
4.2109375,387.6953125,-20.99609375,-9.765625,513.671875,-8.30078125,0.0
4.21484375,-810.546875,-25.87890625,-13.671875,-891.11328125,-8.7890625,0.0
4.21875,474.609375,-37.59765625,-19.53125,-203.61328125,-158.69140625,0.0
4.22265625,-909.1796875,-32.71484375,-20.99609375,-1000.0,-144.04296875,0.0
4.2265625,-1000.0,-25.87890625,-18.06640625,-881.34765625,-46.38671875,0.0
4.23046875,348.6328125,-22.94921875,-10.25390625,469.7265625,-93.26171875,0.0
4.234375,-843.75,-18.5546875,-20.99609375,-842.28515625,-163.0859375,0.0
4.23828125,737.79296875,-18.06640625,-24.90234375,178.22265625,-88.8671875,0.0
4.2421875,-621.09375,-18.06640625,-9.765625,-967.7734375,-23.4375,0.0
4.24609375,-1000.0,-26.3671875,-14.16015625,-1000.0,-62.98828125,0.0
4.25,-53.22265625,-24.90234375,-20.01953125,264.16015625,-81.54296875,0.0
4.25390625,-916.50390625,-22.94921875,-22.94921875,-847.65625,-66.89453125,0.0
4.2578125,829.1015625,-37.59765625,-24.90234375,346.19140625,-177.734375,0.0
4.26171875,-588.8671875,-45.8984375,-14.6484375,-917.48046875,-64.94140625,0.0
4.265625,-1000.0,-44.921875,-11.71875,-1000.0,59.08203125,0.0
4.26953125,-44.921875,-43.9453125,-14.6484375,279.78515625,31.25,0.0
4.2734375,-914.55078125,-45.41015625,-12.20703125,-842.7734375,18.06640625,0.0
4.27734375,820.3125,-45.41015625,-16.11328125,578.61328125,58.59375,0.0
4.28125,-549.31640625,-44.43359375,-28.3203125,-746.58203125,10.25390625,0.0
4.28515625,-1000.0,-41.9921875,-31.25,-1000.0,-58.10546875,0.0
4.2890625,-393.5546875,-43.45703125,-25.87890625,35.64453125,-38.57421875,0.0
4.29296875,964.35546875,-47.36328125,-31.73828125,-910.64453125,-29.78515625,0.0
4.296875,884.765625,-42.96875,-31.73828125,690.91796875,-31.25,0.0
4.30078125,-537.109375,-42.48046875,-25.390625,-686.5234375,-42.96875,0.0
4.3046875,-1000.0,-41.015625,-28.80859375,-1000.0,-61.03515625,0.0
4.30859375,-634.27734375,-35.64453125,-24.90234375,-210.9375,52.24609375,0.0
4.3125,786.62109375,-25.390625,-18.06640625,-994.62890625,17.08984375,0.0
4.31640625,-958.984375,-22.94921875,-20.01953125,844.23828125,-88.8671875,0.0
4.3203125,-352.05078125,-42.96875,-27.34375,-567.3828125,-31.25,0.0
4.32421875,-1000.0,-45.8984375,-27.34375,-1000.0,-2.9296875,0.0
4.328125,-757.32421875,-31.73828125,-27.34375,-427.734375,4.39453125,0.0
4.33203125,598.14453125,-28.3203125,-24.4140625,864.2578125,13.671875,0.0
4.3359375,-838.37890625,-30.76171875,-25.87890625,979.4921875,34.1796875,0.0
4.33984375,96.19140625,-36.62109375,-28.80859375,-363.76953125,-9.765625,0.0
4.34375,-1000.0,-36.62109375,-25.390625,-1000.0,-74.21875,0.0
4.34765625,-870.60546875,-31.73828125,-40.52734375,-698.73046875,-33.69140625,0.0
4.3515625,528.80859375,-30.2734375,-57.12890625,701.66015625,-20.99609375,0.0
4.35546875,-819.82421875,-38.0859375,-50.29296875,-950.68359375,-15.625,0.0
4.359375,258.30078125,-38.0859375,-35.15625,-293.45703125,-27.83203125,0.0
4.36328125,-1000.0,-31.25,-18.06640625,-1000.0,-62.01171875,0.0
4.3671875,-894.04296875,-29.296875,-8.7890625,-752.44140625,-69.82421875,0.0
4.37109375,539.55078125,-23.92578125,-14.6484375,682.6171875,7.32421875,0.0
4.375,-821.2890625,-25.87890625,-25.390625,-951.171875,41.015625,0.0
4.37890625,281.73828125,-22.94921875,-30.76171875,-350.5859375,-65.91796875,0.0
4.3828125,-1000.0,-22.94921875,-33.69140625,-1000.0,-49.31640625,0.0
4.38671875,-927.24609375,-27.83203125,-31.73828125,-814.94140625,-70.3125,0.0
4.390625,477.05078125,-17.08984375,-28.80859375,597.16796875,-155.2734375,0.0
4.39453125,-806.15234375,-11.71875,-32.2265625,-907.71484375,-200.1953125,0.0
4.3984375,395.99609375,-22.94921875,-40.52734375,-228.02734375,-106.4453125,0.0
4.40234375,-907.71484375,-31.73828125,-40.0390625,-1000.0,-55.6640625,0.0
4.40625,-1000.0,-27.34375,-25.390625,-894.04296875,-163.0859375,0.0
4.41015625,159.66796875,-22.94921875,-19.04296875,413.0859375,-146.97265625,0.0
4.4140625,-862.3046875,-23.4375,-14.16015625,-830.078125,29.78515625,0.0
4.41796875,792.48046875,-19.53125,-19.04296875,377.9296875,173.828125,0.0
4.421875,-597.16796875,-22.4609375,-26.85546875,-898.92578125,95.21484375,0.0
4.42578125,-1000.0,-27.34375,-31.73828125,-1000.0,-27.83203125,0.0
4.4296875,36.62109375,-28.3203125,-37.59765625,350.5859375,-24.4140625,0.0
4.43359375,-893.5546875,-29.296875,-33.69140625,-837.40234375,-34.66796875,0.0
4.4375,806.640625,-31.25,-20.5078125,415.0390625,-59.08203125,0.0
4.44140625,-568.359375,-29.78515625,-22.94921875,-856.93359375,-31.73828125,0.0
4.4453125,-1000.0,-25.87890625,-40.0390625,-1000.0,-51.26953125,0.0
4.44921875,-231.93359375,-21.97265625,-37.59765625,170.41015625,-66.89453125,0.0
4.453125,-968.75,-22.4609375,-31.25,-864.74609375,-9.765625,0.0
4.45703125,836.9140625,-21.484375,-28.3203125,658.203125,15.13671875,0.0
4.4609375,-562.5,-24.4140625,-20.01953125,-680.6640625,7.8125,0.0
4.46484375,-1000.0,-20.99609375,-17.578125,-1000.0,83.0078125,0.0
4.46875,-768.06640625,-18.06640625,-27.83203125,-294.43359375,52.24609375,0.0
4.47265625,712.890625,-22.4609375,-36.1328125,979.00390625,21.97265625,0.0
4.4765625,970.703125,-27.34375,-35.64453125,826.171875,29.78515625,0.0
4.48046875,-545.41015625,-28.3203125,-36.62109375,-629.8828125,40.52734375,0.0
4.484375,-1000.0,-20.5078125,-36.1328125,-1000.0,137.20703125,0.0
4.48828125,-734.86328125,-29.296875,-37.59765625,-301.26953125,90.33203125,0.0
4.4921875,746.09375,-39.55078125,-30.2734375,977.5390625,11.23046875,0.0
4.49609375,970.703125,-33.69140625,-18.5546875,829.58984375,76.66015625,0.0
4.5,-543.45703125,-31.25,-24.4140625,-605.95703125,51.7578125,0.0
4.50390625,-1000.0,-41.9921875,-27.83203125,-1000.0,-3.90625,0.0
4.5078125,-846.19140625,-41.9921875,-23.4375,-603.515625,3.41796875,0.0
4.51171875,545.41015625,-34.1796875,-27.83203125,798.828125,16.11328125,0.0
4.515625,-880.37109375,-33.69140625,-22.94921875,949.70703125,3.90625,0.0
4.51953125,-284.66796875,-31.73828125,-12.6953125,-517.578125,36.62109375,0.0
4.5234375,-1000.0,-25.390625,-32.71484375,-1000.0,12.6953125,0.0
4.52734375,-861.328125,-27.83203125,-39.55078125,-728.515625,-59.5703125,0.0
4.53125,560.05859375,-32.71484375,-41.50390625,718.75,-62.98828125,0.0
4.53515625,-888.671875,-31.25,-49.8046875,968.26171875,-26.3671875,0.0
4.5390625,-338.8671875,-27.34375,-50.78125,-537.59765625,-4.8828125,0.0
4.54296875,-1000.0,-30.2734375,-58.10546875,-1000.0,-20.5078125,0.0
4.546875,-916.50390625,-36.1328125,-50.29296875,-838.8671875,-51.26953125,0.0
4.55078125,340.8203125,-31.25,-37.109375,553.22265625,-103.02734375,0.0
4.5546875,-792.48046875,-22.4609375,-40.0390625,-901.85546875,9.765625,0.0
4.55859375,188.96484375,-20.99609375,-45.8984375,-248.046875,33.203125,0.0
4.5625,-1000.0,-28.3203125,-47.8515625,-1000.0,-100.5859375,0.0
4.56640625,-1000.0,-27.83203125,-46.875,-884.765625,-106.93359375,0.0
4.5703125,284.1796875,-20.5078125,-51.26953125,533.203125,-50.78125,0.0
4.57421875,-799.31640625,-22.4609375,-54.6875,-900.87890625,3.90625,0.0
4.578125,98.14453125,-26.85546875,-54.19921875,-266.6015625,-32.2265625,0.0
4.58203125,-1000.0,-25.87890625,-42.48046875,-1000.0,-90.33203125,0.0
4.5859375,-1000.0,-22.94921875,-29.296875,-887.20703125,-13.671875,0.0
4.58984375,45.41015625,-21.484375,-26.85546875,429.6875,3.41796875,0.0
4.59375,-827.63671875,-19.04296875,-31.25,-832.03125,1.953125,0.0
4.59765625,622.55859375,-11.71875,-45.8984375,216.796875,8.30078125,0.0
4.6015625,-771.97265625,-13.671875,-55.6640625,-983.88671875,-22.4609375,0.0
4.60546875,-1000.0,-17.08984375,-45.8984375,-976.07421875,-45.41015625,0.0
4.609375,-113.28125,-16.11328125,-32.2265625,359.375,-53.22265625,0.0
4.61328125,-934.08203125,-18.06640625,-22.4609375,-843.75,19.53125,0.0
4.6171875,832.51953125,-22.4609375,-23.92578125,629.8828125,31.73828125,0.0
4.62109375,-558.10546875,-26.85546875,-32.71484375,-730.95703125,-6.34765625,0.0
4.625,-1000.0,-21.484375,-35.15625,-1000.0,27.83203125,0.0
4.62890625,-318.359375,-5.859375,-30.76171875,195.80078125,44.921875,0.0
4.6328125,993.1640625,-5.37109375,-32.2265625,-874.0234375,-30.76171875,0.0
4.63671875,872.0703125,-12.20703125,-34.66796875,745.60546875,-6.8359375,0.0
4.640625,-533.203125,-33.69140625,-34.1796875,-640.625,26.85546875,0.0
4.64453125,-1000.0,-42.48046875,-38.0859375,-1000.0,-12.20703125,0.0
4.6484375,-604.4921875,-35.64453125,-39.0625,-36.62109375,-32.71484375,0.0
4.65234375,821.2890625,-31.73828125,-36.62109375,-942.87109375,20.99609375,0.0
4.65625,-991.69921875,-17.578125,-37.59765625,830.56640625,-30.2734375,0.0
4.66015625,-401.3671875,-1.46484375,-46.875,-579.58984375,-108.88671875,0.0
4.6640625,-1000.0,-4.8828125,-57.12890625,-1000.0,-85.44921875,0.0
4.66796875,-586.42578125,-20.99609375,-64.94140625,-127.9296875,-33.69140625,0.0
4.671875,782.71484375,-27.34375,-47.8515625,-987.79296875,23.4375,0.0
4.67578125,-902.83203125,-33.203125,-27.34375,895.01953125,40.52734375,0.0
4.6796875,-108.88671875,-34.66796875,-28.80859375,-447.265625,67.87109375,0.0
4.68359375,-1000.0,-19.53125,-25.87890625,-1000.0,58.10546875,0.0
4.6875,-823.2421875,-23.4375,-24.4140625,-578.61328125,-11.23046875,0.0
4.69140625,526.3671875,-27.83203125,-31.73828125,773.92578125,5.37109375,0.0
4.6953125,-817.3828125,-24.90234375,-34.66796875,-969.23828125,31.73828125,0.0
4.69921875,347.65625,-31.73828125,-31.25,-280.2734375,-0.48828125,0.0
4.703125,-1000.0,-33.203125,-29.296875,-1000.0,-29.296875,0.0
4.70703125,-907.71484375,-32.2265625,-29.296875,-706.0546875,-11.23046875,0.0
4.7109375,545.41015625,-26.3671875,-29.78515625,712.40234375,-80.56640625,0.0
4.71484375,-824.21875,-25.390625,-37.109375,-958.49609375,-148.92578125,0.0
4.71875,301.26953125,-33.203125,-43.9453125,-320.80078125,-83.984375,0.0
4.72265625,-1000.0,-29.78515625,-39.0625,-1000.0,-41.50390625,0.0
4.7265625,-901.3671875,-24.4140625,-35.15625,-828.61328125,0.48828125,0.0
4.73046875,543.9453125,-27.34375,-31.25,622.0703125,111.328125,0.0
4.734375,-822.265625,-31.25,-30.76171875,-943.84765625,42.48046875,0.0
4.73828125,268.06640625,-34.1796875,-33.203125,-386.23046875,-36.62109375,0.0
4.7421875,-1000.0,-31.73828125,-33.69140625,-1000.0,-47.36328125,0.0
4.74609375,-950.68359375,-25.390625,-33.69140625,-862.79296875,-42.48046875,0.0
4.75,420.41015625,-22.4609375,-25.390625,483.3984375,51.26953125,0.0
4.75390625,-832.51953125,-25.87890625,-23.4375,-849.609375,-6.8359375,0.0
4.7578125,683.59375,-22.4609375,-36.1328125,35.15625,-108.88671875,0.0
4.76171875,-722.65625,-22.4609375,-38.57421875,-1000.0,-20.99609375,0.0
4.765625,-1000.0,-19.04296875,-30.76171875,-965.8203125,38.57421875,0.0
4.76953125,216.30859375,-12.6953125,-25.390625,368.65234375,-36.62109375,0.0
4.7734375,-850.09765625,-24.4140625,-31.25,-829.1015625,-79.1015625,0.0
4.77734375,750.48828125,-30.2734375,-39.0625,239.2578125,-86.9140625,0.0
4.78125,-635.25390625,-35.15625,-34.1796875,-967.7734375,-13.18359375,0.0
4.78515625,-1000.0,-33.69140625,-26.85546875,-1000.0,-47.36328125,0.0
4.7890625,15.625,-27.34375,-29.296875,307.6171875,-84.47265625,0.0
4.79296875,-900.390625,-32.71484375,-30.76171875,-837.40234375,-37.59765625,0.0
4.796875,809.5703125,-33.69140625,-34.1796875,575.68359375,-2.9296875,0.0
4.80078125,-541.9921875,-31.73828125,-39.55078125,-751.46484375,-30.2734375,0.0
4.8046875,-1000.0,-31.73828125,-36.1328125,-1000.0,-101.07421875,0.0
4.80859375,-445.80078125,-18.5546875,-32.2265625,25.390625,-202.1484375,0.0
4.8125,935.05859375,-12.6953125,-41.015625,-902.83203125,-207.03125,0.0
4.81640625,916.9921875,-27.83203125,-37.109375,740.234375,-86.42578125,0.0
4.8203125,-500.9765625,-27.83203125,-32.2265625,-652.83203125,15.13671875,0.0
4.82421875,-1000.0,-21.97265625,-38.0859375,-1000.0,36.62109375,0.0
4.828125,-658.203125,-25.87890625,-37.59765625,-186.5234375,-12.6953125,0.0
4.83203125,795.8984375,-27.83203125,-43.9453125,-977.5390625,-21.97265625,0.0
4.8359375,997.0703125,-29.296875,-48.33984375,822.75390625,65.4296875,0.0
4.83984375,-454.58984375,-33.203125,-44.921875,-596.19140625,11.23046875,0.0
4.84375,-1000.0,-31.73828125,-49.8046875,-1000.0,-88.8671875,0.0
4.84765625,-784.66796875,-31.25,-44.43359375,-414.55078125,-13.18359375,0.0
4.8515625,633.7890625,-22.94921875,-33.203125,913.57421875,-12.6953125,0.0
4.85546875,-904.296875,-19.53125,-20.99609375,901.3671875,-72.75390625,0.0
4.859375,-318.84765625,-29.78515625,-26.3671875,-534.66796875,-67.87109375,0.0
4.86328125,-1000.0,-31.25,-37.109375,-1000.0,-73.73046875,0.0
4.8671875,-831.0546875,-26.85546875,-33.69140625,-671.38671875,-2.44140625,0.0
4.87109375,517.578125,-23.92578125,-31.73828125,735.83984375,45.8984375,0.0
4.875,-825.68359375,-24.4140625,-30.76171875,-993.65234375,-33.203125,0.0
4.87890625,63.96484375,-20.99609375,-32.71484375,-429.6875,-16.11328125,0.0
4.8828125,-1000.0,-13.671875,-34.66796875,-1000.0,36.1328125,0.0
4.88671875,-865.72265625,-9.27734375,-33.69140625,-735.83984375,104.98046875,0.0
4.890625,525.390625,-4.8828125,-38.0859375,666.50390625,140.13671875,0.0
4.89453125,-816.40625,-4.8828125,-36.1328125,-935.546875,87.890625,0.0
4.8984375,267.08984375,-10.7421875,-41.9921875,-275.390625,46.38671875,0.0
4.90234375,-1000.0,-18.5546875,-55.17578125,-1000.0,-63.96484375,0.0
4.90625,-947.75390625,-30.2734375,-50.78125,-844.7265625,-119.140625,0.0
4.91015625,425.29296875,-26.85546875,-41.50390625,542.48046875,-18.06640625,0.0
4.9140625,-810.546875,-24.4140625,-32.2265625,-867.1875,19.04296875,0.0
4.91796875,525.87890625,-33.203125,-26.3671875,-12.20703125,11.23046875,0.0
4.921875,-887.6953125,-32.71484375,-33.203125,-1000.0,-19.04296875,0.0
4.92578125,-1000.0,-33.69140625,-38.0859375,-878.90625,20.99609375,0.0
4.9296875,369.140625,-30.2734375,-37.59765625,517.08984375,59.5703125,0.0
4.93359375,-827.63671875,-8.7890625,-35.15625,-840.8203125,-23.4375,0.0
4.9375,663.0859375,-9.27734375,-41.015625,230.46875,0.0,0.0
4.94140625,-739.74609375,-25.87890625,-52.24609375,-988.28125,17.578125,0.0
4.9453125,-1000.0,-25.87890625,-44.43359375,-957.51953125,-32.71484375,0.0
4.94921875,167.96875,-20.99609375,-34.66796875,426.7578125,-81.54296875,0.0
4.953125,-864.74609375,-25.87890625,-33.69140625,-830.56640625,-61.5234375,0.0
4.95703125,777.34375,-24.4140625,-30.76171875,446.2890625,-24.90234375,0.0
4.9609375,-579.1015625,-26.3671875,-27.34375,-859.86328125,-48.828125,0.0
4.96484375,-1000.0,-25.390625,-34.66796875,-1000.0,-30.76171875,0.0
4.96875,-203.125,-24.4140625,-34.66796875,275.87890625,9.765625,0.0
4.97265625,-959.47265625,-25.87890625,-32.71484375,-842.28515625,-3.41796875,0.0
4.9765625,835.9375,-22.4609375,-35.64453125,564.453125,-29.296875,0.0
4.98046875,-561.03515625,-23.92578125,-34.66796875,-772.4609375,54.6875,0.0
4.984375,-1000.0,-25.390625,-31.25,-1000.0,68.84765625,0.0
4.98828125,-480.46875,-27.83203125,-35.15625,70.80078125,44.43359375,0.0
4.9921875,936.03515625,-18.5546875,-30.2734375,-884.27734375,74.70703125,0.0
4.99609375,877.9296875,-15.13671875,-30.76171875,668.9453125,-3.90625,0.0
5.0,-577.63671875,-35.15625,-39.0625,-693.84765625,-42.48046875,0.0
5.00390625,-1000.0,-34.66796875,-23.4375,-1000.0,-60.05859375,0.0
5.0078125,-702.1484375,-22.4609375,-17.578125,-228.515625,-62.5,0.0
5.01171875,776.3671875,-29.296875,-29.296875,-981.93359375,-19.53125,0.0
5.015625,962.40234375,-27.83203125,-32.2265625,807.6171875,15.13671875,0.0
5.01953125,-537.59765625,-25.87890625,-33.203125,-622.0703125,7.8125,0.0
5.0234375,-1000.0,-30.2734375,-40.52734375,-1000.0,-7.8125,0.0
5.02734375,-782.2265625,-28.3203125,-39.0625,-405.2734375,-28.3203125,0.0
5.03125,597.16796875,-25.390625,-31.73828125,900.390625,-55.17578125,0.0
5.03515625,-858.3984375,-24.4140625,-31.25,948.2421875,-59.08203125,0.0
5.0390625,-161.1328125,-22.4609375,-45.41015625,-452.63671875,-101.07421875,0.0
5.04296875,-1000.0,-32.71484375,-55.17578125,-1000.0,-49.8046875,0.0
5.046875,-739.2578125,-26.3671875,-48.33984375,-624.51171875,3.41796875,0.0
5.05078125,546.38671875,-17.578125,-38.57421875,709.47265625,-49.31640625,0.0
5.0546875,-831.54296875,-17.08984375,-26.3671875,-952.1484375,-111.81640625,0.0
5.05859375,241.2109375,-21.97265625,-34.1796875,-265.13671875,-102.05078125,0.0
5.0625,-1000.0,-31.73828125,-38.57421875,-1000.0,-81.54296875,0.0
5.06640625,-881.8359375,-28.80859375,-39.0625,-768.06640625,-45.41015625,0.0
5.0703125,528.80859375,-30.76171875,-39.0625,634.27734375,-7.32421875,0.0
5.07421875,-820.80078125,-36.1328125,-33.69140625,-894.53125,5.37109375,0.0
5.078125,452.63671875,-23.92578125,-37.59765625,-102.05078125,-24.4140625,0.0
5.08203125,-953.61328125,-21.97265625,-40.0390625,-1000.0,-62.5,0.0
5.0859375,-941.89453125,-28.80859375,-46.38671875,-840.8203125,-30.76171875,0.0
5.08984375,500.0,-29.78515625,-42.96875,575.68359375,-64.453125,0.0
5.09375,-827.63671875,-32.2265625,-33.69140625,-868.1640625,-53.7109375,0.0
5.09765625,595.703125,-34.66796875,-29.296875,25.87890625,45.8984375,0.0
5.1015625,-821.2890625,-36.62109375,-32.71484375,-1000.0,29.78515625,0.0
5.10546875,-1000.0,-35.64453125,-37.109375,-906.73828125,-71.2890625,0.0
5.109375,307.12890625,-39.55078125,-34.1796875,493.65234375,-32.2265625,0.0
5.11328125,-823.2421875,-41.015625,-40.52734375,-840.8203125,-58.10546875,0.0
5.1171875,650.390625,-37.59765625,-43.45703125,148.92578125,-171.38671875,0.0
5.12109375,-751.953125,-39.0625,-43.45703125,-1000.0,-83.984375,0.0
5.125,-1000.0,-39.0625,-49.31640625,-948.2421875,-20.01953125,0.0
5.12890625,144.04296875,-41.50390625,-45.41015625,404.296875,-39.0625,0.0
5.1328125,-872.0703125,-31.73828125,-40.0390625,-830.078125,-58.10546875,0.0
5.13671875,793.9453125,-23.4375,-30.76171875,537.109375,-81.0546875,0.0
5.140625,-547.8515625,-27.83203125,-27.34375,-794.921875,-20.5078125,0.0
5.14453125,-1000.0,-34.66796875,-40.0390625,-1000.0,94.23828125,0.0
5.1484375,-320.3125,-38.0859375,-57.12890625,184.5703125,44.921875,0.0
5.15234375,-1000.0,-25.87890625,-47.8515625,-862.3046875,-17.08984375,0.0
5.15625,854.4921875,-27.83203125,-30.76171875,647.4609375,5.37109375,0.0
5.16015625,-563.96484375,-38.0859375,-33.203125,-715.33203125,-12.20703125,0.0
5.1640625,-1000.0,-38.0859375,-38.0859375,-1000.0,-41.015625,0.0
5.16796875,-541.9921875,-33.69140625,-36.1328125,-14.6484375,22.4609375,0.0
5.171875,890.625,-28.3203125,-51.26953125,-914.0625,73.73046875,0.0
5.17578125,925.78125,-24.90234375,-70.3125,767.578125,53.7109375,0.0
5.1796875,-528.80859375,-29.78515625,-58.59375,-612.79296875,54.19921875,0.0
5.18359375,-1000.0,-35.64453125,-42.48046875,-1000.0,44.921875,0.0
5.1875,-758.30078125,-39.0625,-29.296875,-424.31640625,-28.3203125,0.0
5.19140625,688.96484375,-35.15625,-19.04296875,924.31640625,-21.97265625,0.0
5.1953125,-957.51953125,-38.57421875,-20.5078125,881.8359375,-19.53125,0.0
5.19921875,-418.45703125,-41.50390625,-26.3671875,-573.2421875,-26.3671875,0.0
5.203125,-1000.0,-32.71484375,-34.1796875,-1000.0,-8.7890625,0.0
5.20703125,-787.59765625,-25.390625,-36.1328125,-489.74609375,30.2734375,0.0
5.2109375,587.40234375,-24.4140625,-37.59765625,851.5625,-44.43359375,0.0
5.21484375,-853.02734375,-31.73828125,-38.0859375,978.02734375,-79.58984375,0.0
5.21875,-91.796875,-41.50390625,-33.203125,-407.2265625,-19.53125,0.0
5.22265625,-1000.0,-41.50390625,-35.64453125,-1000.0,-51.7578125,0.0
5.2265625,-848.6328125,-32.2265625,-32.71484375,-671.875,-63.4765625,0.0
5.23046875,519.04296875,-25.87890625,-36.1328125,716.796875,-93.75,0.0
5.234375,-816.89453125,-23.4375,-36.1328125,-947.75390625,-68.84765625,0.0
5.23828125,196.2890625,-28.3203125,-41.50390625,-270.01953125,-56.15234375,0.0
5.2421875,-1000.0,-34.66796875,-38.0859375,-1000.0,-83.0078125,0.0
5.24609375,-886.71875,-25.87890625,-40.0390625,-798.828125,-72.75390625,0.0
5.25,500.0,-27.34375,-48.828125,587.40234375,-112.3046875,0.0
5.25390625,-822.75390625,-38.0859375,-38.0859375,-870.60546875,3.90625,0.0
5.2578125,569.3359375,-32.71484375,-24.90234375,26.85546875,110.83984375,0.0
5.26171875,-866.69921875,-29.78515625,-23.92578125,-1000.0,25.87890625,0.0
5.265625,-1000.0,-37.109375,-23.4375,-867.67578125,-78.61328125,0.0
5.26953125,416.9921875,-35.64453125,-38.0859375,539.55078125,21.97265625,0.0
5.2734375,-838.8671875,-36.62109375,-49.8046875,-843.75,78.125,0.0
5.27734375,696.2890625,-41.9921875,-41.015625,253.41796875,-15.13671875,0.0
5.28125,-709.9609375,-39.55078125,-41.50390625,-983.3984375,-113.28125,0.0
5.28515625,-1000.0,-42.96875,-41.9921875,-950.1953125,-166.9921875,0.0
5.2890625,193.359375,-45.41015625,-36.1328125,446.77734375,-147.4609375,0.0
5.29296875,-863.28125,-43.45703125,-34.1796875,-832.03125,-58.10546875,0.0
5.296875,782.71484375,-42.48046875,-36.62109375,467.28515625,41.015625,0.0
5.30078125,-576.171875,-44.43359375,-42.96875,-851.07421875,82.51953125,0.0
5.3046875,-1000.0,-38.0859375,-46.38671875,-1000.0,101.5625,0.0
5.30859375,-154.296875,-39.55078125,-47.36328125,293.9453125,30.76171875,0.0
5.3125,-944.82421875,-44.43359375,-52.734375,-839.84375,-5.859375,0.0
5.31640625,830.078125,-42.48046875,-50.29296875,549.31640625,-19.04296875,0.0
5.3203125,-558.10546875,-40.0390625,-45.41015625,-770.01953125,17.578125,0.0
5.32421875,-1000.0,-41.50390625,-52.24609375,-1000.0,26.85546875,0.0
5.328125,-452.1484375,-36.1328125,-58.10546875,19.53125,-15.625,0.0
5.33203125,949.70703125,-29.78515625,-49.31640625,-887.20703125,-9.27734375,0.0
5.3359375,872.55859375,-38.0859375,-38.57421875,601.07421875,35.64453125,0.0
5.33984375,-575.1953125,-40.52734375,-37.109375,-732.421875,0.48828125,0.0
5.34375,-1000.0,-35.64453125,-34.1796875,-1000.0,-85.9375,0.0
5.34765625,-704.1015625,-43.9453125,-29.296875,-371.58203125,-76.171875,0.0
5.3515625,784.66796875,-45.41015625,-32.71484375,972.16796875,-30.2734375,0.0
5.35546875,942.3828125,-41.9921875,-39.0625,795.41015625,11.23046875,0.0
5.359375,-569.3359375,-43.45703125,-45.41015625,-653.3203125,33.69140625,0.0
5.36328125,-1000.0,-41.9921875,-55.17578125,-1000.0,44.43359375,0.0
5.3671875,-797.8515625,-39.0625,-56.15234375,-515.13671875,-58.59375,0.0
5.37109375,671.38671875,-33.203125,-56.15234375,891.11328125,-144.04296875,0.0
5.375,997.0703125,-43.45703125,-50.78125,850.5859375,-29.78515625,0.0
5.37890625,-525.390625,-53.22265625,-38.57421875,-632.32421875,1.953125,0.0
5.3828125,-1000.0,-44.43359375,-35.15625,-1000.0,-89.35546875,0.0
5.38671875,-833.0078125,-32.71484375,-43.9453125,-644.04296875,-131.34765625,0.0
5.390625,539.55078125,-24.90234375,-49.8046875,767.08984375,-70.3125,0.0
5.39453125,-855.46875,-28.3203125,-42.96875,982.421875,3.90625,0.0
5.3984375,-174.31640625,-38.57421875,-34.1796875,-469.7265625,41.9921875,0.0
5.40234375,-1000.0,-41.015625,-33.69140625,-1000.0,32.71484375,0.0
5.40625,-834.9609375,-32.71484375,-38.0859375,-751.46484375,40.52734375,0.0
5.41015625,509.27734375,-22.4609375,-36.1328125,656.73828125,32.71484375,0.0
5.4140625,-813.96484375,-29.78515625,-54.19921875,-933.10546875,-1.46484375,0.0
5.41796875,265.13671875,-44.43359375,-66.89453125,-284.66796875,-27.83203125,0.0
5.421875,-1000.0,-40.0390625,-49.31640625,-1000.0,-27.83203125,0.0
5.42578125,-898.4375,-29.296875,-30.76171875,-794.921875,-3.41796875,0.0
5.4296875,513.18359375,-27.34375,-20.5078125,607.421875,-46.875,0.0
5.43359375,-817.3828125,-33.69140625,-32.2265625,-887.6953125,-68.359375,0.0
5.4375,448.2421875,-40.52734375,-41.9921875,-104.98046875,-41.9921875,0.0
5.44140625,-936.5234375,-38.57421875,-33.69140625,-1000.0,-60.05859375,0.0
5.4453125,-988.28125,-37.59765625,-37.109375,-839.84375,5.37109375,0.0
5.44921875,425.29296875,-38.0859375,-43.9453125,534.66796875,22.4609375,0.0
5.453125,-849.609375,-29.78515625,-37.109375,-840.8203125,-21.484375,0.0
5.45703125,742.67578125,-21.97265625,-36.62109375,317.3828125,21.97265625,0.0
5.4609375,-640.625,-35.64453125,-42.96875,-942.87109375,19.53125,0.0
5.46484375,-1000.0,-45.8984375,-33.69140625,-986.328125,-50.78125,0.0
5.46875,121.58203125,-44.921875,-24.90234375,404.78515625,-62.98828125,0.0
5.47265625,-870.1171875,-46.875,-31.73828125,-828.61328125,-30.2734375,0.0
5.4765625,783.69140625,-47.36328125,-40.0390625,408.69140625,1.46484375,0.0
5.48046875,-609.86328125,-38.57421875,-40.0390625,-893.5546875,-20.5078125,0.0
5.484375,-1000.0,-39.55078125,-48.33984375,-1000.0,27.34375,0.0
5.48828125,-12.6953125,-47.36328125,-55.6640625,316.89453125,81.0546875,0.0
5.4921875,-905.76171875,-43.45703125,-53.22265625,-838.8671875,29.296875,0.0
5.49609375,817.3828125,-33.69140625,-58.10546875,563.96484375,39.0625,0.0
5.5,-562.98828125,-27.34375,-63.96484375,-785.15625,102.05078125,0.0
5.50390625,-1000.0,-31.73828125,-55.6640625,-1000.0,60.546875,0.0
5.5078125,-249.51171875,-34.1796875,-43.45703125,196.2890625,52.24609375,0.0
5.51171875,-972.65625,-28.3203125,-34.66796875,-850.5859375,10.7421875,0.0
5.515625,837.40234375,-31.73828125,-32.71484375,551.26953125,-37.109375,0.0
5.51953125,-562.98828125,-38.57421875,-30.76171875,-770.01953125,-23.4375,0.0
5.5234375,-1000.0,-45.41015625,-35.15625,-1000.0,-77.63671875,0.0
5.52734375,-583.0078125,-45.41015625,-37.109375,-74.70703125,-29.296875,0.0
5.53125,864.74609375,-47.8515625,-36.62109375,-933.10546875,-42.96875,0.0
5.53515625,941.89453125,-42.48046875,-36.62109375,800.29296875,-79.1015625,0.0
5.5390625,-516.6015625,-30.2734375,-41.015625,-592.7734375,-22.94921875,0.0
5.54296875,-1000.0,-26.3671875,-41.50390625,-1000.0,-46.875,0.0
5.546875,-743.65234375,-22.94921875,-36.62109375,-389.6484375,-49.31640625,0.0
5.55078125,676.26953125,-27.34375,-44.43359375,927.24609375,-62.98828125,0.0
5.5546875,-912.109375,-33.69140625,-42.48046875,909.1796875,-90.33203125,0.0
5.55859375,-313.4765625,-35.15625,-32.2265625,-512.6953125,-59.5703125,0.0
5.5625,-1000.0,-29.296875,-38.0859375,-1000.0,48.33984375,0.0
5.56640625,-840.33203125,-26.85546875,-45.41015625,-591.796875,48.33984375,0.0
5.5703125,554.6875,-27.34375,-50.78125,809.08203125,-39.55078125,0.0
5.57421875,-863.76953125,-29.78515625,-53.22265625,962.40234375,-53.7109375,0.0
5.578125,-206.54296875,-36.62109375,-45.41015625,-488.76953125,-18.5546875,0.0
5.58203125,-1000.0,-42.48046875,-34.1796875,-1000.0,42.48046875,0.0
5.5859375,-832.03125,-38.57421875,-34.1796875,-752.44140625,-2.44140625,0.0
5.58984375,507.32421875,-31.25,-41.9921875,649.90234375,-105.95703125,0.0
5.59375,-813.4765625,-32.2265625,-42.96875,-929.19921875,-22.4609375,0.0
5.59765625,262.6953125,-35.64453125,-37.109375,-272.94921875,77.63671875,0.0
5.6015625,-1000.0,-43.9453125,-37.59765625,-1000.0,2.9296875,0.0
5.60546875,-914.55078125,-41.50390625,-48.828125,-833.0078125,-72.75390625,0.0
5.609375,498.046875,-39.55078125,-57.6171875,593.26171875,-73.73046875,0.0
5.61328125,-812.98828125,-42.96875,-61.5234375,-902.34375,-46.38671875,0.0
5.6171875,360.3515625,-48.828125,-51.26953125,-224.12109375,-25.87890625,0.0
5.62109375,-973.14453125,-47.8515625,-32.2265625,-1000.0,-32.71484375,0.0
5.625,-980.46875,-41.9921875,-32.2265625,-851.5625,-28.3203125,0.0
5.62890625,396.97265625,-36.1328125,-38.0859375,520.99609375,3.41796875,0.0
5.6328125,-818.84765625,-31.25,-36.62109375,-847.16796875,12.20703125,0.0
5.63671875,609.375,-35.64453125,-34.66796875,111.81640625,-62.5,0.0
5.640625,-823.73046875,-44.43359375,-39.55078125,-1000.0,-189.94140625,0.0
5.64453125,-1000.0,-38.57421875,-42.96875,-910.15625,-118.1640625,0.0
5.6484375,342.7734375,-36.62109375,-43.45703125,485.3515625,67.87109375,0.0
5.65234375,-835.9375,-46.875,-35.64453125,-826.171875,145.99609375,0.0
5.65625,699.70703125,-48.828125,-32.2265625,313.96484375,77.63671875,0.0
5.66015625,-645.99609375,-42.48046875,-39.0625,-925.29296875,-60.05859375,0.0
5.6640625,-1000.0,-34.66796875,-37.59765625,-1000.0,-85.9375,0.0
5.66796875,-195.80078125,-32.71484375,-33.203125,220.21484375,-74.70703125,0.0
5.671875,-957.03125,-41.015625,-45.41015625,-852.5390625,-49.31640625,0.0
5.67578125,834.47265625,-46.38671875,-44.921875,666.9921875,17.578125,0.0
5.6796875,-553.7109375,-50.78125,-46.38671875,-689.94140625,83.49609375,0.0
5.68359375,-1000.0,-49.8046875,-60.546875,-1000.0,2.9296875,0.0
5.6875,-552.24609375,-48.33984375,-34.1796875,-74.21875,-38.0859375,0.0
5.69140625,866.69921875,-51.7578125,-18.06640625,-940.4296875,1.953125,0.0
5.6953125,972.65625,-49.8046875,-27.83203125,817.3828125,-91.796875,0.0
5.69921875,-444.82421875,-44.921875,-19.53125,-586.9140625,-110.83984375,0.0
5.703125,-1000.0,-44.921875,-31.25,-1000.0,-59.08203125,0.0
5.70703125,-687.5,-39.55078125,-54.19921875,-270.99609375,-54.6875,0.0
5.7109375,775.87890625,-33.203125,-47.8515625,998.53515625,-4.39453125,0.0
5.71484375,-997.55859375,-41.9921875,-41.9921875,829.58984375,1.46484375,0.0
5.71875,-461.9140625,-50.29296875,-32.71484375,-595.703125,-15.625,0.0
5.72265625,-1000.0,-43.9453125,-22.4609375,-1000.0,9.765625,0.0
5.7265625,-825.1953125,-33.69140625,-28.3203125,-563.4765625,-5.859375,0.0
5.73046875,577.1484375,-27.83203125,-38.0859375,833.49609375,-65.91796875,0.0
5.734375,-885.7421875,-35.15625,-38.57421875,938.96484375,-72.75390625,0.0
5.73828125,-285.64453125,-45.41015625,-34.1796875,-522.4609375,-27.83203125,0.0
5.7421875,-1000.0,-46.875,-34.1796875,-1000.0,7.32421875,0.0
5.74609375,-839.35546875,-44.921875,-35.64453125,-673.828125,-51.26953125,0.0
5.75,522.94921875,-38.57421875,-33.203125,733.3984375,-16.6015625,0.0
5.75390625,-830.56640625,-38.0859375,-26.3671875,-988.76953125,3.41796875,0.0
5.7578125,-4.39453125,-39.55078125,-33.69140625,-420.41015625,-85.44921875,0.0
5.76171875,-1000.0,-38.57421875,-39.0625,-1000.0,-102.05078125,0.0
5.765625,-845.21484375,-33.69140625,-32.2265625,-791.015625,-52.734375,0.0
5.76953125,508.7890625,-31.25,-31.73828125,590.8203125,-10.25390625,0.0
5.7734375,-816.89453125,-46.38671875,-40.0390625,-882.32421875,-59.08203125,0.0
5.77734375,503.41796875,-51.7578125,-50.29296875,-76.171875,-44.921875,0.0
5.78125,-912.109375,-52.24609375,-53.22265625,-1000.0,-20.99609375,0.0
5.78515625,-988.28125,-52.24609375,-36.62109375,-859.86328125,-47.36328125,0.0
5.7890625,441.40625,-40.52734375,-26.85546875,533.69140625,-20.99609375,0.0
5.79296875,-835.44921875,-33.69140625,-41.50390625,-844.7265625,-1.46484375,0.0
5.796875,675.29296875,-34.66796875,-40.0390625,182.6171875,57.12890625,0.0
5.80078125,-737.79296875,-42.48046875,-38.57421875,-1000.0,67.87109375,0.0
5.8046875,-1000.0,-54.6875,-49.8046875,-945.3125,-2.9296875,0.0
5.80859375,242.1875,-49.8046875,-61.5234375,430.17578125,10.25390625,0.0
5.8125,-858.88671875,-38.57421875,-47.8515625,-830.56640625,66.89453125,0.0
5.81640625,788.0859375,-41.015625,-26.85546875,478.02734375,98.14453125,0.0
5.8203125,-569.3359375,-43.9453125,-27.83203125,-843.75,65.4296875,0.0
5.82421875,-1000.0,-37.109375,-37.59765625,-1000.0,18.06640625,0.0
5.828125,-92.7734375,-38.57421875,-39.55078125,279.78515625,-14.6484375,0.0
5.83203125,-926.7578125,-36.62109375,-30.76171875,-849.12109375,-29.296875,0.0
5.8359375,820.80078125,-41.015625,-33.203125,677.24609375,-89.35546875,0.0
5.83984375,-547.36328125,-46.875,-34.1796875,-683.59375,-70.80078125,0.0
5.84375,-1000.0,-47.36328125,-28.80859375,-1000.0,-27.34375,0.0
5.84765625,-533.69140625,-55.17578125,-33.203125,-25.87890625,-89.35546875,0.0
5.8515625,904.78515625,-53.22265625,-36.1328125,-917.48046875,-145.01953125,0.0
5.85546875,900.390625,-47.36328125,-36.1328125,766.11328125,-93.75,0.0
5.859375,-562.5,-37.59765625,-36.62109375,-659.1796875,-48.33984375,0.0
5.86328125,-1000.0,-28.80859375,-33.203125,-1000.0,-32.2265625,0.0
5.8671875,-579.1015625,-35.15625,-33.203125,-50.29296875,9.765625,0.0
5.87109375,859.375,-41.50390625,-38.57421875,-931.640625,72.265625,0.0
5.875,960.44921875,-43.45703125,-42.48046875,797.8515625,101.07421875,0.0
5.87890625,-482.91015625,-40.52734375,-42.96875,-600.09765625,72.265625,0.0
5.8828125,-1000.0,-37.109375,-43.9453125,-1000.0,46.38671875,0.0
5.88671875,-735.3515625,-40.52734375,-43.45703125,-324.70703125,40.52734375,0.0
5.890625,705.56640625,-37.109375,-40.0390625,962.890625,52.24609375,0.0
5.89453125,-945.80078125,-39.55078125,-39.55078125,878.41796875,17.08984375,0.0
5.8984375,-387.6953125,-53.7109375,-46.875,-540.0390625,2.9296875,0.0
5.90234375,-1000.0,-54.19921875,-48.33984375,-1000.0,-16.11328125,0.0
5.90625,-838.8671875,-43.45703125,-33.203125,-662.59765625,-93.26171875,0.0
5.91015625,526.3671875,-35.64453125,-45.41015625,746.09375,-42.48046875,0.0
5.9140625,-842.28515625,-32.2265625,-67.87109375,-994.140625,18.5546875,0.0
5.91796875,-94.23828125,-41.015625,-59.5703125,-428.7109375,-15.625,0.0
5.921875,-1000.0,-50.78125,-52.734375,-1000.0,-28.3203125,0.0
5.92578125,-858.88671875,-48.33984375,-41.50390625,-754.8828125,-43.45703125,0.0
5.9296875,533.69140625,-41.015625,-30.2734375,677.24609375,-28.3203125,0.0
5.93359375,-828.61328125,-42.48046875,-30.2734375,-962.890625,-58.10546875,0.0
5.9375,6.34765625,-49.31640625,-31.25,-402.83203125,-137.20703125,0.0
5.94140625,-1000.0,-52.24609375,-38.57421875,-1000.0,-153.80859375,0.0
5.9453125,-916.9921875,-50.29296875,-40.52734375,-851.5625,-125.9765625,0.0
5.94921875,394.04296875,-39.0625,-31.25,522.94921875,-126.953125,0.0
5.953125,-801.26953125,-31.73828125,-29.78515625,-871.58203125,-221.6796875,0.0
5.95703125,493.1640625,-30.76171875,-35.15625,-108.3984375,-163.57421875,0.0
5.9609375,-889.16015625,-29.78515625,-41.015625,-1000.0,-40.52734375,0.0
5.96484375,-1000.0,-30.76171875,-41.9921875,-895.01953125,-92.28515625,0.0
5.96875,305.6640625,-37.109375,-46.38671875,449.70703125,-94.23828125,0.0
5.97265625,-847.16796875,-40.52734375,-31.73828125,-880.37109375,-44.921875,0.0
5.9765625,756.34765625,-38.0859375,-23.92578125,276.3671875,-78.125,0.0
5.98046875,-674.8046875,-29.296875,-39.0625,-961.42578125,-125.48828125,0.0
5.984375,-1000.0,-24.4140625,-34.66796875,-955.078125,-20.01953125,0.0
5.98828125,307.6171875,-36.62109375,-31.25,461.42578125,84.9609375,0.0
5.9921875,-854.4921875,-35.15625,-33.203125,-832.51953125,46.875,0.0
5.99609375,775.390625,-23.92578125,-31.73828125,477.05078125,82.51953125,0.0
6.0,-556.640625,-31.73828125,-36.1328125,-830.56640625,160.15625,0.0
6.00390625,-1000.0,-33.203125,-34.1796875,-1000.0,99.609375,0.0
6.0078125,-224.12109375,-25.87890625,-30.76171875,206.54296875,15.13671875,0.0
6.01171875,-967.28515625,-21.97265625,-26.3671875,-857.91015625,23.92578125,0.0
6.015625,850.09765625,-29.296875,-25.87890625,650.390625,31.25,0.0
6.01953125,-567.3828125,-30.2734375,-23.4375,-746.09375,46.38671875,0.0
6.0234375,-1000.0,-25.390625,-20.5078125,-1000.0,57.12890625,0.0
6.02734375,-313.4765625,-23.92578125,-27.34375,201.66015625,107.91015625,0.0
6.03125,-998.046875,-29.296875,-30.2734375,-865.72265625,61.03515625,0.0
6.03515625,852.05078125,-43.9453125,-31.73828125,703.125,15.625,0.0
6.0390625,-561.5234375,-44.43359375,-28.80859375,-645.99609375,77.63671875,0.0
6.04296875,-1000.0,-38.0859375,-22.94921875,-1000.0,47.8515625,0.0
6.046875,-700.68359375,-36.1328125,-29.296875,-259.27734375,-31.73828125,0.0
6.05078125,740.72265625,-25.87890625,-29.78515625,994.62890625,-78.125,0.0
6.0546875,-962.890625,-22.94921875,-27.83203125,854.00390625,-30.76171875,0.0
6.05859375,-402.83203125,-33.203125,-28.3203125,-563.96484375,2.44140625,0.0
6.0625,-1000.0,-36.1328125,-26.85546875,-1000.0,-24.90234375,0.0
6.06640625,-807.6171875,-34.66796875,-19.04296875,-483.3984375,-44.921875,0.0
6.0703125,589.84375,-28.3203125,-17.08984375,870.60546875,-48.33984375,0.0
6.07421875,-874.51171875,-20.5078125,-25.87890625,946.2890625,25.87890625,0.0
6.078125,-226.07421875,-24.4140625,-36.1328125,-478.02734375,21.484375,0.0
6.08203125,-1000.0,-34.1796875,-40.52734375,-1000.0,32.71484375,0.0
6.0859375,-841.30859375,-37.109375,-38.0859375,-690.4296875,95.703125,0.0
6.08984375,520.99609375,-36.1328125,-29.296875,715.8203125,30.76171875,0.0
6.09375,-825.68359375,-41.015625,-23.92578125,-966.796875,-58.59375,0.0
6.09765625,59.08203125,-34.1796875,-25.87890625,-361.328125,-33.203125,0.0
6.1015625,-1000.0,-35.15625,-31.25,-1000.0,-49.8046875,0.0
6.10546875,-855.46875,-34.66796875,-38.57421875,-760.25390625,-122.55859375,0.0
6.109375,515.13671875,-30.2734375,-53.7109375,632.8125,-82.03125,0.0
6.11328125,-816.89453125,-36.1328125,-57.12890625,-899.4140625,-63.4765625,0.0
6.1171875,461.9140625,-41.50390625,-46.38671875,-110.83984375,-63.96484375,0.0
6.12109375,-939.94140625,-42.48046875,-34.66796875,-1000.0,-19.04296875,0.0
6.125,-964.84375,-42.48046875,-27.83203125,-845.21484375,-1.953125,0.0
6.12890625,465.33203125,-32.71484375,-22.94921875,540.0390625,-2.9296875,0.0
6.1328125,-837.890625,-29.296875,-28.3203125,-843.26171875,-33.69140625,0.0
6.13671875,673.828125,-30.76171875,-38.0859375,231.4453125,-35.64453125,0.0
6.140625,-758.7890625,-32.71484375,-40.52734375,-1000.0,-39.0625,0.0
6.14453125,-1000.0,-31.25,-32.71484375,-928.22265625,-15.13671875,0.0
6.1484375,329.58984375,-29.78515625,-30.76171875,479.00390625,24.4140625,0.0
6.15234375,-859.375,-29.296875,-33.203125,-837.890625,38.57421875,0.0
6.15625,795.41015625,-28.80859375,-29.78515625,482.421875,68.359375,0.0
6.16015625,-587.890625,-27.83203125,-26.3671875,-864.2578125,9.765625,0.0
6.1640625,-1000.0,-23.4375,-35.64453125,-1000.0,-26.3671875,0.0
6.16796875,130.37109375,-31.73828125,-49.8046875,416.50390625,15.625,0.0
6.171875,-874.51171875,-40.0390625,-46.875,-835.44921875,47.36328125,0.0
6.17578125,793.9453125,-38.57421875,-37.109375,554.19921875,71.2890625,0.0
6.1796875,-543.9453125,-40.52734375,-43.45703125,-781.73828125,-53.22265625,0.0
6.18359375,-1000.0,-43.45703125,-49.8046875,-1000.0,-108.88671875,0.0
6.1875,-383.7890625,-43.45703125,-42.96875,163.57421875,0.9765625,0.0
6.19140625,976.5625,-38.0859375,-45.8984375,-869.140625,-27.34375,0.0
6.1953125,861.81640625,-37.109375,-43.45703125,679.19921875,-105.46875,0.0
6.19921875,-568.359375,-36.62109375,-33.203125,-672.36328125,-52.24609375,0.0
6.203125,-1000.0,-33.69140625,-30.2734375,-1000.0,-73.2421875,0.0
6.20703125,-649.90234375,-25.390625,-29.296875,-200.1953125,-88.37890625,0.0
6.2109375,802.24609375,-22.4609375,-36.62109375,-974.609375,-73.73046875,0.0
6.21484375,989.2578125,-26.3671875,-42.48046875,818.84765625,-101.5625,0.0
6.21875,-462.890625,-27.83203125,-38.0859375,-599.609375,-69.82421875,0.0
6.22265625,-1000.0,-18.5546875,-32.71484375,-1000.0,-85.9375,0.0
6.2265625,-760.25390625,-15.625,-40.52734375,-420.41015625,-80.078125,0.0
6.23046875,681.640625,-27.34375,-48.33984375,922.36328125,-28.80859375,0.0
6.234375,-942.3828125,-34.1796875,-37.59765625,887.6953125,-1.46484375,0.0
6.23828125,-392.08984375,-35.64453125,-27.34375,-555.6640625,-84.47265625,0.0
6.2421875,-1000.0,-37.109375,-26.3671875,-1000.0,-60.05859375,0.0
6.24609375,-817.87109375,-42.48046875,-33.69140625,-616.69921875,11.71875,0.0
6.25,530.76171875,-31.73828125,-36.62109375,769.04296875,-16.6015625,0.0
6.25390625,-830.078125,-23.4375,-36.62109375,-989.2578125,-62.01171875,0.0
6.2578125,32.71484375,-29.78515625,-41.50390625,-382.8125,-17.08984375,0.0
6.26171875,-1000.0,-31.25,-43.45703125,-1000.0,16.11328125,0.0
6.265625,-868.65234375,-33.69140625,-52.734375,-819.82421875,12.20703125,0.0
6.26953125,533.69140625,-35.15625,-56.640625,614.2578125,-26.3671875,0.0
6.2734375,-825.1953125,-34.1796875,-52.24609375,-935.546875,-99.12109375,0.0
6.27734375,127.44140625,-39.0625,-41.9921875,-343.26171875,-132.8125,0.0
6.28125,-1000.0,-44.921875,-26.85546875,-1000.0,-104.00390625,0.0
6.28515625,-869.140625,-38.0859375,-20.01953125,-800.78125,0.0,0.0
6.2890625,523.92578125,-31.73828125,-22.94921875,604.98046875,133.30078125,0.0
6.29296875,-815.4296875,-34.66796875,-36.1328125,-894.53125,63.4765625,0.0
6.296875,370.60546875,-32.71484375,-41.50390625,-161.62109375,-93.75,0.0
6.30078125,-979.4921875,-25.87890625,-37.109375,-1000.0,-146.97265625,0.0
6.3046875,-956.0546875,-27.34375,-33.69140625,-840.33203125,-148.4375,0.0
6.30859375,445.3125,-30.2734375,-23.4375,541.015625,-79.1015625,0.0
6.3125,-833.984375,-28.3203125,-26.3671875,-845.703125,18.5546875,0.0
6.31640625,673.33984375,-29.296875,-36.62109375,169.921875,-33.69140625,0.0
6.3203125,-745.1171875,-26.85546875,-35.15625,-1000.0,-87.890625,0.0
6.32421875,-1000.0,-27.83203125,-34.1796875,-926.7578125,3.90625,0.0
6.328125,272.4609375,-37.109375,-31.73828125,461.42578125,41.50390625,0.0
6.33203125,-857.421875,-38.57421875,-30.76171875,-833.49609375,20.99609375,0.0
6.3359375,787.59765625,-39.0625,-32.2265625,473.6328125,74.21875,0.0
6.33984375,-557.12890625,-37.109375,-27.34375,-839.35546875,45.41015625,0.0
6.34375,-1000.0,-33.69140625,-22.94921875,-1000.0,-107.421875,0.0
6.34765625,-146.97265625,-37.109375,-25.87890625,269.04296875,-119.140625,0.0
6.3515625,-942.87109375,-34.66796875,-35.64453125,-850.09765625,-69.82421875,0.0
6.35546875,827.1484375,-25.87890625,-41.015625,677.734375,-85.44921875,0.0
6.359375,-549.8046875,-23.4375,-28.80859375,-670.41015625,-89.35546875,0.0
6.36328125,-1000.0,-34.66796875,-31.25,-1000.0,-83.0078125,0.0
6.3671875,-574.70703125,-41.015625,-41.015625,-108.3984375,-60.546875,0.0
6.37109375,888.18359375,-34.1796875,-37.59765625,-932.6171875,23.4375,0.0
6.375,895.5078125,-33.203125,-35.15625,732.91015625,-26.3671875,0.0
6.37890625,-583.0078125,-35.64453125,-36.62109375,-676.7578125,-147.4609375,0.0
6.3828125,-1000.0,-31.25,-45.8984375,-1000.0,-197.265625,0.0
6.38671875,-648.92578125,-26.85546875,-53.22265625,-212.890625,-208.0078125,0.0
6.390625,828.125,-27.83203125,-53.22265625,-971.6796875,-70.80078125,0.0
6.39453125,937.98828125,-32.71484375,-41.9921875,788.57421875,-66.89453125,0.0
6.3984375,-557.12890625,-46.38671875,-28.3203125,-622.55859375,-135.7421875,0.0
6.40234375,-1000.0,-51.26953125,-20.99609375,-1000.0,-69.82421875,0.0
6.40625,-809.5703125,-52.734375,-23.4375,-570.80078125,-83.0078125,0.0
6.41015625,583.984375,-51.26953125,-27.83203125,826.171875,-143.06640625,0.0
6.4140625,-880.37109375,-40.52734375,-25.87890625,955.078125,-53.7109375,0.0
6.41796875,-253.90625,-42.48046875,-28.3203125,-493.65234375,40.0390625,0.0
6.421875,-1000.0,-45.8984375,-38.57421875,-1000.0,84.47265625,0.0
6.42578125,-841.30859375,-38.0859375,-36.62109375,-669.43359375,82.03125,0.0
6.4296875,530.2734375,-43.9453125,-35.64453125,739.2578125,90.33203125,0.0
6.43359375,-834.9609375,-53.22265625,-50.29296875,-983.3984375,79.58984375,0.0
6.4375,-25.390625,-46.38671875,-48.33984375,-401.3671875,24.4140625,0.0
6.44140625,-1000.0,-37.109375,-40.52734375,-1000.0,-13.671875,0.0
6.4453125,-842.7734375,-35.64453125,-37.59765625,-715.33203125,51.7578125,0.0
6.44921875,508.30078125,-36.62109375,-36.1328125,663.57421875,131.34765625,0.0
6.453125,-816.89453125,-43.45703125,-44.921875,-904.296875,108.3984375,0.0
6.45703125,500.48828125,-47.36328125,-44.43359375,-113.76953125,-4.39453125,0.0
6.4609375,-915.0390625,-41.015625,-32.2265625,-1000.0,73.73046875,0.0
6.46484375,-984.375,-26.85546875,-25.87890625,-844.7265625,104.00390625,0.0
6.46875,450.68359375,-31.73828125,-33.69140625,533.203125,-49.8046875,0.0
6.47265625,-851.07421875,-34.1796875,-42.96875,-841.796875,3.90625,0.0
6.4765625,735.83984375,-30.76171875,-48.33984375,261.71875,45.8984375,0.0
6.48046875,-696.77734375,-35.15625,-50.29296875,-991.2109375,-20.01953125,0.0
6.484375,-1000.0,-34.66796875,-39.55078125,-926.7578125,7.8125,0.0
6.48828125,341.796875,-39.55078125,-29.296875,487.3046875,3.41796875,0.0
6.4921875,-861.81640625,-36.62109375,-20.01953125,-839.84375,-68.359375,0.0
6.49609375,800.78125,-33.203125,-15.13671875,546.38671875,-13.671875,0.0
6.5,-551.7578125,-35.64453125,-25.390625,-803.22265625,0.0,0.0
6.50390625,-1000.0,-28.3203125,-34.66796875,-1000.0,-37.59765625,0.0
6.5078125,-22.4609375,-28.80859375,-40.52734375,311.5234375,-23.4375,0.0
6.51171875,-910.64453125,-31.25,-38.0859375,-838.8671875,11.71875,0.0
6.515625,832.51953125,-31.25,-31.25,537.59765625,37.109375,0.0
6.51953125,-567.3828125,-32.71484375,-24.4140625,-812.5,37.109375,0.0
6.5234375,-1000.0,-33.69140625,-23.92578125,-1000.0,9.765625,0.0
6.52734375,-107.421875,-37.59765625,-27.34375,237.3046875,54.19921875,0.0
6.53125,-930.6640625,-34.1796875,-36.1328125,-851.5625,59.5703125,0.0
6.53515625,821.77734375,-30.76171875,-41.015625,647.4609375,-49.31640625,0.0
6.5390625,-547.36328125,-36.1328125,-35.64453125,-695.3125,-127.44140625,0.0
6.54296875,-1000.0,-40.52734375,-42.48046875,-1000.0,-136.71875,0.0
6.546875,-553.22265625,-32.71484375,-42.96875,-133.7890625,1.953125,0.0
6.55078125,875.0,-20.99609375,-21.97265625,-947.75390625,18.5546875,0.0
6.5546875,953.125,-26.3671875,-20.01953125,793.9453125,-17.578125,0.0
6.55859375,-486.328125,-34.66796875,-37.109375,-605.46875,67.3828125,0.0
6.5625,-1000.0,-39.0625,-41.9921875,-1000.0,43.45703125,0.0
6.56640625,-764.6484375,-43.45703125,-37.109375,-518.06640625,22.94921875,0.0
6.5703125,690.91796875,-39.0625,-30.2734375,889.16015625,7.32421875,0.0
6.57421875,-970.703125,-29.78515625,-19.04296875,866.2109375,-16.6015625,0.0
6.578125,-449.21875,-39.0625,-14.16015625,-613.28125,9.27734375,0.0
6.58203125,-1000.0,-40.52734375,-20.5078125,-1000.0,-27.34375,0.0
6.5859375,-834.47265625,-34.1796875,-24.90234375,-657.71484375,-23.92578125,0.0
6.58984375,582.03125,-41.50390625,-26.85546875,790.52734375,-39.0625,0.0
6.59375,-905.2734375,-41.50390625,-35.64453125,916.9921875,0.0,0.0
6.59765625,-347.16796875,-38.57421875,-28.3203125,-587.40234375,58.59375,0.0
6.6015625,-1000.0,-33.69140625,-28.80859375,-1000.0,-2.9296875,0.0
6.60546875,-824.21875,-41.9921875,-34.1796875,-778.3203125,-73.73046875,0.0
6.609375,503.90625,-44.921875,-24.4140625,648.4375,-50.29296875,0.0
6.61328125,-816.40625,-30.2734375,-23.4375,-953.61328125,-2.44140625,0.0
6.6171875,194.82421875,-24.4140625,-24.90234375,-385.25390625,-37.109375,0.0
6.62109375,-1000.0,-24.90234375,-31.25,-1000.0,-63.96484375,0.0
6.625,-878.90625,-24.90234375,-28.80859375,-801.7578125,-108.88671875,0.0
6.62890625,513.671875,-21.484375,-15.625,549.8046875,-69.3359375,0.0
6.6328125,-843.75,-18.06640625,-8.30078125,-849.609375,35.15625,0.0
6.63671875,689.94140625,-22.4609375,-21.97265625,166.50390625,73.73046875,0.0
6.640625,-756.8359375,-29.296875,-33.203125,-1000.0,16.6015625,0.0
6.64453125,-1000.0,-32.71484375,-31.73828125,-905.76171875,-75.68359375,0.0
6.6484375,384.27734375,-34.66796875,-33.69140625,530.2734375,-154.296875,0.0
6.65234375,-838.8671875,-33.69140625,-29.296875,-847.16796875,-110.3515625,0.0
6.65625,700.1953125,-36.1328125,-22.4609375,189.94140625,1.46484375,0.0
6.66015625,-737.3046875,-43.45703125,-24.90234375,-1000.0,-41.9921875,0.0
6.6640625,-1000.0,-41.50390625,-25.87890625,-919.43359375,-51.26953125,0.0
6.66796875,324.21875,-35.64453125,-27.34375,496.58203125,22.94921875,0.0
6.671875,-852.05078125,-33.69140625,-32.71484375,-835.9375,-87.40234375,0.0
6.67578125,765.625,-33.69140625,-33.203125,325.68359375,-132.32421875,0.0
6.6796875,-598.6328125,-32.71484375,-27.83203125,-926.7578125,-51.26953125,0.0
6.68359375,-1000.0,-29.78515625,-29.296875,-1000.0,-58.59375,0.0
6.6875,-14.6484375,-26.3671875,-33.203125,320.80078125,-72.265625,0.0
6.69140625,-907.2265625,-28.3203125,-33.69140625,-843.75,4.39453125,0.0
6.6953125,816.89453125,-26.3671875,-29.296875,650.390625,78.61328125,0.0
6.69921875,-547.8515625,-26.85546875,-34.66796875,-713.8671875,3.41796875,0.0
6.703125,-1000.0,-27.34375,-52.734375,-1000.0,-26.85546875,0.0
6.70703125,-382.32421875,-22.4609375,-47.8515625,98.14453125,42.48046875,0.0
6.7109375,973.6328125,-20.01953125,-26.3671875,-885.25390625,-21.484375,0.0
6.71484375,872.0703125,-23.92578125,-21.97265625,724.12109375,-7.8125,0.0
6.71875,-553.22265625,-32.2265625,-28.3203125,-658.69140625,30.76171875,0.0
6.72265625,-1000.0,-33.69140625,-37.109375,-1000.0,-69.3359375,0.0
6.7265625,-592.7734375,-34.1796875,-41.015625,-125.0,-79.58984375,0.0
6.73046875,844.7265625,-33.203125,-25.87890625,-951.171875,-43.45703125,0.0
6.734375,978.02734375,-37.109375,-21.97265625,812.01171875,-3.90625,0.0
6.73828125,-457.51953125,-42.96875,-28.80859375,-589.84375,-61.03515625,0.0
6.7421875,-1000.0,-47.36328125,-26.3671875,-1000.0,-77.63671875,0.0
6.74609375,-734.86328125,-46.38671875,-18.5546875,-394.53125,-10.7421875,0.0
6.75,644.53125,-41.015625,-10.25390625,910.15625,-4.8828125,0.0
6.75390625,-865.234375,-51.26953125,-7.8125,946.77734375,30.2734375,0.0
6.7578125,-86.9140625,-56.15234375,-7.32421875,-438.96484375,23.92578125,0.0
6.76171875,-1000.0,-49.8046875,-6.8359375,-1000.0,40.0390625,0.0
6.765625,-837.890625,-41.50390625,-11.23046875,-620.60546875,31.73828125,0.0
6.76953125,520.5078125,-38.57421875,-19.53125,759.765625,-21.97265625,0.0
6.7734375,-816.40625,-44.921875,-19.04296875,-964.84375,-56.15234375,0.0
6.77734375,304.6875,-44.43359375,-17.578125,-287.109375,-48.828125,0.0
6.78125,-1000.0,-40.0390625,-25.390625,-1000.0,-37.59765625,0.0
6.78515625,-891.6015625,-40.52734375,-25.87890625,-765.13671875,-28.3203125,0.0
6.7890625,532.71484375,-42.48046875,-32.71484375,632.32421875,8.7890625,0.0
6.79296875,-824.21875,-45.41015625,-37.109375,-892.578125,-14.6484375,0.0
6.796875,501.953125,-50.78125,-37.59765625,-74.21875,-29.78515625,0.0
6.80078125,-924.31640625,-46.38671875,-34.1796875,-1000.0,-11.23046875,0.0
6.8046875,-959.47265625,-43.9453125,-31.73828125,-829.58984375,-24.90234375,0.0
6.80859375,491.2109375,-44.43359375,-19.04296875,571.77734375,-56.15234375,0.0
6.8125,-849.12109375,-43.45703125,-6.8359375,-853.02734375,5.859375,0.0
6.81640625,710.9375,-43.45703125,-7.8125,187.01171875,-4.8828125,0.0
6.8203125,-714.35546875,-48.33984375,-8.7890625,-1000.0,-53.7109375,0.0
6.82421875,-1000.0,-46.38671875,-20.5078125,-931.640625,-20.99609375,0.0
6.828125,306.640625,-39.0625,-34.66796875,471.6796875,-8.30078125,0.0
6.83203125,-849.12109375,-32.71484375,-34.1796875,-833.49609375,-12.20703125,0.0
6.8359375,758.30078125,-27.83203125,-35.15625,346.19140625,1.953125,0.0
6.83984375,-618.65234375,-29.296875,-36.62109375,-920.8984375,-29.78515625,0.0
6.84375,-1000.0,-34.1796875,-30.76171875,-1000.0,-60.546875,0.0
6.84765625,37.59765625,-36.62109375,-23.4375,336.9140625,-44.43359375,0.0
6.8515625,-896.484375,-34.66796875,-20.99609375,-838.37890625,-9.27734375,0.0
6.85546875,817.3828125,-38.0859375,-25.87890625,563.4765625,0.0,0.0
6.859375,-553.7109375,-42.48046875,-23.4375,-775.390625,32.2265625,0.0
6.86328125,-1000.0,-37.109375,-27.34375,-1000.0,5.859375,0.0
6.8671875,-231.4453125,-26.85546875,-39.55078125,183.59375,-55.17578125,0.0
6.87109375,-968.26171875,-26.3671875,-41.50390625,-851.5625,-6.34765625,0.0
6.875,841.796875,-37.109375,-40.0390625,557.12890625,-11.71875,0.0
6.87890625,-558.10546875,-39.0625,-31.25,-778.80859375,-56.640625,0.0
6.8828125,-1000.0,-38.57421875,-32.2265625,-1000.0,-23.4375,0.0
6.88671875,-509.27734375,-29.78515625,-38.57421875,-13.18359375,-100.09765625,0.0
6.890625,910.15625,-29.78515625,-40.52734375,-910.15625,-104.00390625,0.0
6.89453125,912.59765625,-31.73828125,-32.2265625,753.90625,-116.2109375,0.0
6.8984375,-536.1328125,-33.69140625,-27.34375,-631.34765625,-157.71484375,0.0
6.90234375,-1000.0,-41.50390625,-21.484375,-1000.0,-143.5546875,0.0
6.90625,-706.0546875,-41.50390625,-21.97265625,-331.54296875,-142.578125,0.0
6.91015625,639.16015625,-32.2265625,-22.94921875,923.828125,-145.5078125,0.0
6.9140625,-846.6796875,-31.25,-24.90234375,958.49609375,-83.49609375,0.0
6.91796875,124.51171875,-40.0390625,-33.69140625,-371.09375,71.2890625,0.0
6.921875,-1000.0,-43.9453125,-31.25,-1000.0,-3.90625,0.0
6.92578125,-886.23046875,-39.55078125,-27.34375,-617.67578125,-60.05859375,0.0
6.9296875,569.82421875,-40.0390625,-26.3671875,795.41015625,49.31640625,0.0
6.93359375,-850.5859375,-37.59765625,-29.78515625,983.88671875,5.859375,0.0
6.9375,-87.40234375,-38.0859375,-32.71484375,-454.1015625,-146.97265625,0.0
6.94140625,-1000.0,-35.15625,-23.92578125,-1000.0,-136.23046875,0.0
6.9453125,-839.35546875,-23.92578125,-18.06640625,-692.3828125,-50.78125,0.0
6.94921875,507.8125,-28.3203125,-18.5546875,696.77734375,-44.921875,0.0
6.953125,-813.4765625,-35.64453125,-26.85546875,-939.94140625,-38.57421875,0.0
6.95703125,396.484375,-27.34375,-35.64453125,-250.0,-47.36328125,0.0
6.9609375,-984.375,-24.4140625,-34.1796875,-1000.0,-77.63671875,0.0
6.96484375,-920.8984375,-28.3203125,-29.78515625,-803.7109375,-55.17578125,0.0
6.96875,516.11328125,-32.71484375,-34.66796875,603.515625,-71.2890625,0.0
6.97265625,-823.2421875,-34.1796875,-35.15625,-887.6953125,-78.125,0.0
6.9765625,518.06640625,-29.296875,-30.76171875,-79.1015625,-131.34765625,0.0
6.98046875,-900.87890625,-30.2734375,-29.296875,-1000.0,-198.73046875,0.0
6.984375,-1000.0,-25.87890625,-29.296875,-860.3515625,-132.32421875,0.0
6.98828125,432.12890625,-20.99609375,-28.80859375,528.3203125,-49.8046875,0.0
6.9921875,-852.05078125,-25.87890625,-28.3203125,-875.0,-54.6875,0.0
6.99609375,744.62890625,-29.296875,-30.2734375,224.12109375,-73.2421875,0.0
7.0,-682.12890625,-33.69140625,-28.80859375,-985.83984375,-57.12890625,0.0
7.00390625,-1000.0,-27.34375,-27.83203125,-936.03515625,-33.203125,0.0
7.0078125,320.80078125,-20.99609375,-27.83203125,487.79296875,-8.30078125,0.0
7.01171875,-853.515625,-25.87890625,-23.92578125,-834.47265625,-33.69140625,0.0
7.015625,772.4609375,-30.76171875,-26.3671875,361.328125,-9.765625,0.0
7.01953125,-581.54296875,-34.66796875,-38.0859375,-901.85546875,-54.19921875,0.0
7.0234375,-1000.0,-35.15625,-37.109375,-1000.0,-44.43359375,0.0
7.02734375,-70.3125,-34.66796875,-31.73828125,289.55078125,47.36328125,0.0
7.03125,-920.41015625,-36.1328125,-32.2265625,-846.6796875,54.19921875,0.0
7.03515625,817.3828125,-33.203125,-29.296875,662.109375,73.73046875,0.0
7.0390625,-545.41015625,-30.2734375,-30.2734375,-698.2421875,-2.9296875,0.0
7.04296875,-1000.0,-23.4375,-39.0625,-1000.0,-30.76171875,0.0
7.046875,-521.97265625,-25.390625,-46.875,42.48046875,78.125,0.0
7.05078125,873.046875,-35.64453125,-41.9921875,-910.15625,112.79296875,0.0
7.0546875,984.86328125,-43.45703125,-33.69140625,792.96875,78.125,0.0
7.05859375,-415.52734375,-40.52734375,-23.4375,-576.171875,37.109375,0.0
7.0625,-1000.0,-27.34375,-25.390625,-1000.0,25.390625,0.0
7.06640625,-785.15625,-28.3203125,-43.45703125,-415.52734375,-41.9921875,0.0
7.0703125,624.0234375,-33.69140625,-48.33984375,912.59765625,16.11328125,0.0
7.07421875,-891.6015625,-35.64453125,-31.73828125,912.109375,63.96484375,0.0
7.078125,-264.6484375,-27.34375,-26.85546875,-525.390625,46.875,0.0
7.08203125,-1000.0,-20.5078125,-32.2265625,-1000.0,68.359375,0.0
7.0859375,-808.59375,-23.92578125,-37.59765625,-458.49609375,102.05078125,0.0
7.08984375,567.3828125,-17.578125,-51.7578125,873.046875,79.58984375,0.0
7.09375,-840.33203125,-17.08984375,-56.640625,962.40234375,88.37890625,0.0
7.09765625,-14.16015625,-34.1796875,-51.26953125,-425.29296875,98.6328125,0.0
7.1015625,-1000.0,-44.43359375,-53.22265625,-1000.0,21.484375,0.0
7.10546875,-855.95703125,-45.8984375,-52.734375,-719.23828125,-63.4765625,0.0
7.109375,520.99609375,-31.73828125,-44.921875,686.5234375,12.6953125,0.0
7.11328125,-817.3828125,-29.78515625,-49.31640625,-944.3359375,32.71484375,0.0
7.1171875,248.53515625,-41.015625,-49.31640625,-291.9921875,-5.859375,0.0
7.12109375,-1000.0,-31.73828125,-43.45703125,-1000.0,26.3671875,0.0
7.125,-891.6015625,-20.01953125,-42.96875,-801.26953125,30.76171875,0.0
7.12890625,508.7890625,-26.3671875,-41.9921875,583.984375,27.34375,0.0
7.1328125,-828.125,-31.73828125,-48.33984375,-871.09375,33.203125,0.0
7.13671875,595.703125,-32.2265625,-52.734375,30.2734375,38.57421875,0.0
7.140625,-856.4453125,-30.76171875,-48.828125,-1000.0,1.953125,0.0
7.14453125,-1000.0,-25.87890625,-34.66796875,-875.9765625,7.8125,0.0
7.1484375,449.21875,-18.5546875,-25.87890625,560.05859375,30.76171875,0.0
7.15234375,-821.77734375,-14.16015625,-27.83203125,-861.328125,11.23046875,0.0
7.15625,585.44921875,-27.34375,-32.71484375,42.96875,20.5078125,0.0
7.16015625,-809.5703125,-34.66796875,-38.0859375,-1000.0,16.6015625,0.0
7.1640625,-1000.0,-28.80859375,-35.64453125,-925.29296875,-31.73828125,0.0
7.16796875,209.9609375,-26.85546875,-36.1328125,439.453125,5.859375,0.0
7.171875,-846.6796875,-25.390625,-39.55078125,-826.66015625,87.890625,0.0
7.17578125,731.93359375,-23.4375,-31.25,316.89453125,28.80859375,0.0
7.1796875,-616.69921875,-22.94921875,-35.64453125,-921.38671875,-30.2734375,0.0
7.18359375,-1000.0,-28.80859375,-50.78125,-1000.0,-89.35546875,0.0
7.1875,-257.8125,-34.1796875,-40.52734375,242.1875,-143.06640625,0.0
7.19140625,-977.05078125,-37.109375,-26.85546875,-845.703125,-116.2109375,0.0
7.1953125,843.26171875,-32.2265625,-25.390625,563.4765625,-30.2734375,0.0
7.19921875,-558.10546875,-25.390625,-27.34375,-750.0,-26.3671875,0.0
7.203125,-1000.0,-22.4609375,-33.203125,-1000.0,-74.21875,0.0
7.20703125,-583.0078125,-21.97265625,-34.1796875,-87.890625,-78.125,0.0
7.2109375,882.8125,-22.94921875,-25.87890625,-921.38671875,-62.5,0.0
7.21484375,897.94921875,-20.99609375,-33.203125,691.89453125,-11.71875,0.0
7.21875,-583.49609375,-20.99609375,-42.96875,-700.1953125,-57.12890625,0.0
7.22265625,-1000.0,-27.34375,-36.62109375,-1000.0,-132.32421875,0.0
7.2265625,-693.359375,-32.2265625,-33.69140625,-230.46875,-123.53515625,0.0
7.23046875,771.484375,-27.83203125,-35.64453125,-980.95703125,-59.08203125,0.0
7.234375,987.79296875,-28.3203125,-34.66796875,812.5,-42.48046875,0.0
7.23828125,-483.3984375,-25.87890625,-25.390625,-630.859375,-107.91015625,0.0
7.2421875,-1000.0,-18.06640625,-15.625,-1000.0,-138.671875,0.0
7.24609375,-696.2890625,-24.4140625,-17.08984375,-221.19140625,-18.5546875,0.0
7.25,685.546875,-28.3203125,-21.484375,984.375,99.609375,0.0
7.25390625,-876.46484375,-27.34375,-30.76171875,905.2734375,59.08203125,0.0
7.2578125,-106.93359375,-27.34375,-37.59765625,-449.21875,53.7109375,0.0
7.26171875,-1000.0,-29.296875,-30.2734375,-1000.0,28.80859375,0.0
7.265625,-842.28515625,-29.78515625,-29.296875,-669.43359375,-28.3203125,0.0
7.26953125,512.6953125,-27.83203125,-26.85546875,714.35546875,-5.859375,0.0
7.2734375,-815.4296875,-32.2265625,-25.390625,-944.82421875,40.52734375,0.0
7.27734375,275.87890625,-36.62109375,-37.109375,-256.34765625,-1.953125,0.0
7.28125,-1000.0,-33.69140625,-33.203125,-1000.0,-82.03125,0.0
7.28515625,-895.01953125,-27.83203125,-21.484375,-789.55078125,-72.75390625,0.0
7.2890625,539.0625,-27.34375,-22.94921875,641.11328125,-42.48046875,0.0
7.29296875,-821.2890625,-33.203125,-36.62109375,-919.43359375,-30.76171875,0.0
7.296875,314.94140625,-26.3671875,-38.0859375,-226.07421875,5.859375,0.0
7.30078125,-1000.0,-19.53125,-15.625,-1000.0,7.32421875,0.0
7.3046875,-916.50390625,-36.1328125,-12.6953125,-815.4296875,50.29296875,0.0
7.30859375,492.1875,-38.0859375,-28.80859375,578.125,59.08203125,0.0
7.3125,-826.66015625,-23.92578125,-23.92578125,-869.140625,27.34375,0.0
7.31640625,604.00390625,-20.99609375,-23.92578125,57.6171875,59.08203125,0.0
7.3203125,-825.68359375,-20.01953125,-27.34375,-1000.0,-9.765625,0.0
7.32421875,-1000.0,-12.6953125,-31.73828125,-890.625,-40.0390625,0.0
7.328125,359.375,-3.41796875,-45.8984375,502.9296875,-6.34765625,0.0
7.33203125,-852.5390625,-5.859375,-55.17578125,-839.35546875,-25.390625,0.0
7.3359375,764.16015625,-22.4609375,-57.6171875,385.25390625,-65.91796875,0.0
7.33984375,-603.02734375,-30.2734375,-57.6171875,-903.3203125,-160.15625,0.0
7.34375,-1000.0,-20.99609375,-55.6640625,-1000.0,-196.77734375,0.0
7.34765625,24.4140625,-14.16015625,-43.9453125,385.7421875,-119.140625,0.0
7.3515625,-898.92578125,-9.27734375,-34.1796875,-841.796875,-88.8671875,0.0
7.35546875,812.01171875,-11.23046875,-45.8984375,618.65234375,0.48828125,0.0
7.359375,-545.41015625,-14.6484375,-53.22265625,-735.83984375,136.23046875,0.0
7.36328125,-1000.0,-14.16015625,-48.33984375,-1000.0,78.61328125,0.0
7.3671875,-381.34765625,-14.6484375,-40.0390625,194.3359375,-22.94921875,0.0
7.37109375,974.12109375,-15.13671875,-43.45703125,-867.1875,16.11328125,0.0
7.375,872.55859375,-19.04296875,-43.45703125,691.89453125,-32.71484375,0.0
7.37890625,-560.546875,-27.83203125,-38.0859375,-695.80078125,-63.4765625,0.0
7.3828125,-1000.0,-30.2734375,-34.1796875,-1000.0,10.7421875,0.0
7.38671875,-502.9296875,-28.3203125,-32.71484375,68.84765625,29.78515625,0.0
7.390625,917.96875,-23.4375,-32.71484375,-893.06640625,-19.04296875,0.0
7.39453125,898.4375,-14.16015625,-33.203125,738.76953125,-101.07421875,0.0
7.3984375,-559.5703125,-14.6484375,-39.55078125,-629.8828125,-126.46484375,0.0
7.40234375,-1000.0,-27.34375,-46.875,-1000.0,-114.2578125,0.0
7.40625,-786.1328125,-24.90234375,-35.64453125,-372.55859375,-96.6796875,0.0
7.41015625,694.3359375,-17.578125,-24.90234375,962.890625,4.8828125,0.0
7.4140625,973.6328125,-21.484375,-25.87890625,826.171875,112.3046875,0.0
7.41796875,-561.5234375,-27.34375,-27.83203125,-625.9765625,45.41015625,0.0
7.421875,-1000.0,-24.4140625,-31.25,-1000.0,-16.6015625,0.0
7.42578125,-870.1171875,-17.578125,-29.296875,-584.9609375,29.78515625,0.0
7.4296875,592.28515625,-17.578125,-26.85546875,835.9375,12.6953125,0.0
7.43359375,996.09375,-21.484375,-29.296875,893.5546875,-5.37109375,0.0
7.4375,-561.03515625,-28.3203125,-32.71484375,-599.609375,-47.36328125,0.0
7.44140625,-1000.0,-24.90234375,-33.69140625,-1000.0,-32.2265625,0.0
7.4453125,-828.61328125,-14.6484375,-30.2734375,-729.98046875,-56.15234375,0.0
7.44921875,465.8203125,-11.23046875,-25.87890625,641.11328125,-101.5625,0.0
7.453125,-810.05859375,-17.578125,-35.15625,-904.296875,-47.36328125,0.0
7.45703125,287.109375,-23.92578125,-32.2265625,-124.0234375,-40.52734375,0.0
7.4609375,-1000.0,-19.53125,-22.4609375,-1000.0,-1.46484375,0.0
7.46484375,-885.25390625,-17.578125,-30.2734375,-613.28125,127.9296875,0.0
7.46875,553.22265625,-20.01953125,-35.15625,712.890625,211.42578125,0.0
7.47265625,-898.4375,-24.90234375,-23.4375,-904.296875,109.375,0.0
7.4765625,872.55859375,-29.296875,-13.671875,674.8046875,26.3671875,0.0
7.48046875,-519.04296875,-26.3671875,-24.4140625,-750.0,57.6171875,0.0
7.484375,-1000.0,-29.78515625,-40.0390625,-1000.0,77.1484375,0.0
7.48828125,373.046875,-27.83203125,-46.875,548.33984375,-8.7890625,0.0
7.4921875,-803.22265625,-19.04296875,-41.015625,-867.67578125,-51.26953125,0.0
7.49609375,531.73828125,-27.83203125,-34.1796875,-65.4296875,-51.7578125,0.0
7.5,-763.671875,-31.73828125,-28.3203125,-1000.0,-99.12109375,0.0
7.50390625,-1000.0,-27.34375,-33.69140625,-1000.0,-72.265625,0.0
7.5078125,-452.1484375,-25.390625,-43.45703125,224.609375,-3.41796875,0.0
7.51171875,998.53515625,-17.578125,-46.38671875,-898.4375,11.23046875,0.0
7.515625,106.93359375,-17.08984375,-40.0390625,-276.3671875,-53.7109375,0.0
7.51953125,-1000.0,-21.97265625,-25.87890625,-1000.0,-80.56640625,0.0
7.5234375,-1000.0,-29.78515625,-19.53125,-1000.0,-79.58984375,0.0
7.52734375,-922.8515625,-30.76171875,-17.08984375,-200.68359375,-65.4296875,0.0
7.53125,685.05859375,-27.34375,-28.3203125,-928.22265625,-0.48828125,0.0
7.53515625,391.6015625,-36.62109375,-32.2265625,142.578125,-21.484375,0.0
7.5390625,-1000.0,-36.1328125,-15.13671875,-1000.0,-73.2421875,0.0
7.54296875,-1000.0,-31.73828125,-12.20703125,-1000.0,-78.125,0.0
7.546875,-993.65234375,-35.64453125,-29.78515625,-174.8046875,5.37109375,0.0
7.55078125,482.91015625,-37.59765625,-29.296875,-942.87109375,24.90234375,0.0
7.5546875,935.05859375,-34.66796875,-24.90234375,762.6953125,-8.7890625,0.0
7.55859375,-662.59765625,-28.80859375,-37.109375,-682.6171875,-34.66796875,0.0
7.5625,-1000.0,-34.66796875,-47.8515625,-1000.0,-159.1796875,0.0
7.56640625,-865.72265625,-31.73828125,-47.8515625,-37.109375,-141.6015625,0.0
7.5703125,549.31640625,-27.34375,-41.015625,-975.09765625,-65.4296875,0.0
7.57421875,-924.31640625,-35.15625,-41.015625,932.12890625,-41.015625,0.0
7.578125,-402.34375,-41.50390625,-48.33984375,-379.8828125,-79.58984375,0.0
7.58203125,-1000.0,-38.0859375,-49.8046875,-1000.0,-63.96484375,0.0
7.5859375,-765.625,-36.1328125,-33.69140625,-191.40625,-24.4140625,0.0
7.58984375,538.57421875,-36.62109375,-19.53125,931.15234375,1.46484375,0.0
7.59375,-823.2421875,-28.80859375,-22.4609375,-982.91015625,68.84765625,0.0
7.59765625,469.7265625,-28.3203125,-28.3203125,83.49609375,47.36328125,0.0
7.6015625,-959.9609375,-29.78515625,-18.5546875,-1000.0,-32.71484375,0.0
7.60546875,-899.4140625,-22.4609375,-12.20703125,-531.73828125,-22.94921875,0.0
7.609375,573.73046875,-25.87890625,-17.08984375,820.80078125,-19.53125,0.0
7.61328125,-877.44140625,-39.55078125,-22.94921875,-937.98828125,-48.828125,0.0
7.6171875,781.25,-41.50390625,-28.3203125,285.64453125,1.46484375,0.0
7.62109375,-708.0078125,-42.48046875,-44.921875,-985.83984375,-69.82421875,0.0
7.625,-980.46875,-49.31640625,-53.7109375,-829.58984375,-71.77734375,0.0
7.62890625,576.66015625,-44.43359375,-42.96875,636.71875,-20.5078125,0.0
7.6328125,-885.25390625,-32.71484375,-58.10546875,-874.0234375,-23.4375,0.0
7.63671875,813.96484375,-32.2265625,-63.96484375,349.12109375,58.10546875,0.0
7.640625,-657.2265625,-29.78515625,-42.48046875,-954.1015625,14.16015625,0.0
7.64453125,-1000.0,-30.2734375,-37.59765625,-890.625,-80.56640625,0.0
7.6484375,536.1328125,-35.64453125,-39.55078125,594.7265625,-71.77734375,0.0
7.65234375,-873.53515625,-34.66796875,-32.71484375,-858.88671875,30.2734375,0.0
7.65625,790.52734375,-39.55078125,-30.2734375,277.34375,44.43359375,0.0
7.66015625,-674.8046875,-54.6875,-28.80859375,-990.72265625,-96.19140625,0.0
7.6640625,-1000.0,-52.734375,-31.73828125,-900.390625,-175.78125,0.0
7.66796875,495.60546875,-39.55078125,-40.52734375,565.4296875,-77.63671875,0.0
7.671875,-865.72265625,-31.25,-43.9453125,-852.5390625,-70.3125,0.0
7.67578125,779.78515625,-33.69140625,-49.8046875,260.7421875,-118.1640625,0.0
7.6796875,-628.90625,-32.71484375,-49.8046875,-976.07421875,-170.8984375,0.0
7.68359375,-1000.0,-27.83203125,-58.59375,-944.82421875,-145.5078125,0.0
7.6875,285.15625,-34.1796875,-64.453125,459.47265625,-16.6015625,0.0
7.69140625,-860.3515625,-39.0625,-51.26953125,-839.35546875,9.27734375,0.0
7.6953125,802.734375,-41.9921875,-36.62109375,533.203125,-49.31640625,0.0
7.69921875,-552.734375,-45.41015625,-36.1328125,-813.4765625,-77.1484375,0.0
7.703125,-1000.0,-43.9453125,-41.9921875,-1000.0,5.37109375,0.0
7.70703125,-37.109375,-50.78125,-45.8984375,333.984375,-31.25,0.0
7.7109375,-918.9453125,-56.15234375,-63.96484375,-852.05078125,-71.77734375,0.0
7.71484375,835.44921875,-55.17578125,-76.66015625,712.40234375,-36.62109375,0.0
7.71875,-517.08984375,-48.828125,-68.359375,-663.0859375,-64.453125,0.0
7.72265625,-1000.0,-44.921875,-53.7109375,-1000.0,-108.3984375,0.0
7.7265625,-441.40625,-54.19921875,-43.9453125,63.4765625,-81.54296875,0.0
7.73046875,927.734375,-52.24609375,-41.9921875,-902.83203125,-17.578125,0.0
7.734375,940.4296875,-44.43359375,-43.9453125,768.5546875,-41.9921875,0.0
7.73828125,-458.49609375,-48.33984375,-59.5703125,-620.1171875,-138.18359375,0.0
7.7421875,-1000.0,-60.05859375,-68.84765625,-1000.0,-96.19140625,0.0
7.74609375,-598.14453125,-64.94140625,-62.98828125,-189.453125,21.484375,0.0
7.75,738.76953125,-55.17578125,-48.33984375,986.81640625,115.234375,0.0
7.75390625,-871.09375,-62.5,-48.33984375,915.0390625,140.625,0.0
7.7578125,137.6953125,-80.078125,-51.7578125,-404.78515625,121.58203125,0.0
7.76171875,-1000.0,-79.58984375,-49.8046875,-1000.0,113.76953125,0.0
7.765625,-865.72265625,-77.63671875,-57.6171875,-659.1796875,55.17578125,0.0
7.76953125,544.921875,-79.58984375,-65.91796875,739.2578125,-20.5078125,0.0
7.7734375,-823.2421875,-88.8671875,-71.77734375,-970.21484375,-13.18359375,0.0
7.77734375,250.0,-96.6796875,-73.73046875,-342.28515625,62.01171875,0.0
7.78125,-1000.0,-93.75,-77.1484375,-1000.0,66.89453125,0.0
7.78515625,-908.203125,-97.16796875,-75.68359375,-745.1171875,83.49609375,0.0
7.7890625,560.05859375,-100.5859375,-65.91796875,717.7734375,92.7734375,0.0
7.79296875,-841.796875,-94.23828125,-76.171875,987.3046875,64.453125,0.0
7.796875,13.18359375,-84.47265625,-91.796875,-500.48828125,0.9765625,0.0
7.80078125,-1000.0,-85.44921875,-90.33203125,-1000.0,-26.85546875,0.0
7.8046875,-857.421875,-92.7734375,-76.66015625,-802.734375,34.66796875,0.0
7.80859375,520.5078125,-92.7734375,-61.5234375,641.6015625,40.0390625,0.0
7.8125,-818.84765625,-99.12109375,-66.40625,-972.16796875,-22.4609375,0.0
7.81640625,313.4765625,-107.421875,-68.84765625,-452.1484375,-17.08984375,0.0
7.8203125,-1000.0,-108.3984375,-81.0546875,-1000.0,-25.87890625,0.0
7.82421875,-929.19921875,-112.3046875,-93.75,-824.70703125,-20.5078125,0.0
7.828125,474.12109375,-106.93359375,-80.078125,532.2265625,-7.32421875,0.0
7.83203125,-837.890625,-99.609375,-73.73046875,-858.3984375,0.48828125,0.0
7.8359375,678.7109375,-99.609375,-74.21875,24.4140625,41.015625,0.0
7.83984375,-752.44140625,-106.4453125,-76.171875,-1000.0,84.47265625,0.0
7.84375,-1000.0,-107.91015625,-79.58984375,-910.64453125,66.89453125,0.0
7.84765625,333.49609375,-107.91015625,-73.2421875,450.1953125,20.01953125,0.0
7.8515625,-861.328125,-110.3515625,-72.265625,-833.49609375,80.078125,0.0
7.85546875,801.26953125,-109.375,-85.44921875,432.6171875,112.3046875,0.0
7.859375,-575.1953125,-113.76953125,-94.23828125,-879.39453125,14.6484375,0.0
7.86328125,-1000.0,-120.60546875,-100.5859375,-1000.0,-19.04296875,0.0
7.8671875,105.95703125,-128.90625,-100.09765625,376.953125,-32.71484375,0.0
7.87109375,-881.34765625,-131.34765625,-90.33203125,-834.9609375,-23.4375,0.0
7.875,811.5234375,-135.7421875,-99.12109375,492.67578125,20.99609375,0.0
7.87890625,-551.7578125,-140.625,-110.83984375,-818.359375,34.66796875,0.0
7.8828125,-1000.0,-141.6015625,-102.05078125,-1000.0,-10.25390625,0.0
7.88671875,-191.40625,-140.625,-107.91015625,192.3828125,-21.97265625,0.0
7.890625,-955.56640625,-140.625,-123.046875,-858.3984375,12.20703125,0.0
7.89453125,832.51953125,-147.94921875,-111.81640625,646.97265625,17.578125,0.0
7.8984375,-552.734375,-153.3203125,-110.83984375,-693.359375,-21.97265625,0.0
7.90234375,-1000.0,-147.94921875,-115.72265625,-1000.0,-61.5234375,0.0
7.90625,-630.859375,-142.08984375,-109.86328125,-187.01171875,-31.73828125,0.0
7.91015625,851.07421875,-140.625,-109.375,-954.58984375,-14.6484375,0.0
7.9140625,907.2265625,-140.625,-124.51171875,728.02734375,-59.08203125,0.0
7.91796875,-592.28515625,-147.94921875,-133.30078125,-679.19921875,-104.98046875,0.0
7.921875,-1000.0,-146.97265625,-116.69921875,-1000.0,-105.46875,0.0
7.92578125,-775.87890625,-143.06640625,-114.2578125,-393.06640625,-58.10546875,0.0
7.9296875,674.31640625,-150.390625,-113.76953125,942.3828125,-34.1796875,0.0
7.93359375,-967.7734375,-154.296875,-115.72265625,866.69921875,-63.4765625,0.0
7.9375,-447.265625,-154.78515625,-121.09375,-581.0546875,-45.41015625,0.0
7.94140625,-1000.0,-163.0859375,-132.32421875,-1000.0,21.97265625,0.0
7.9453125,-805.17578125,-173.828125,-144.53125,-520.01953125,62.5,0.0
7.94921875,582.51953125,-166.9921875,-143.06640625,855.95703125,59.08203125,0.0
7.953125,-867.1875,-160.64453125,-157.71484375,946.77734375,6.34765625,0.0
7.95703125,-191.40625,-173.33984375,-175.29296875,-486.81640625,11.23046875,0.0
7.9609375,-1000.0,-173.33984375,-153.80859375,-1000.0,-15.13671875,0.0
7.96484375,-824.21875,-172.8515625,-136.71875,-727.5390625,-72.75390625,0.0
7.96875,498.046875,-180.6640625,-143.06640625,656.25,-16.6015625,0.0
7.97265625,-813.96484375,-179.6875,-141.11328125,-917.96875,-2.9296875,0.0
7.9765625,467.28515625,-181.15234375,-139.6484375,-169.921875,6.34765625,0.0
7.98046875,-950.1953125,-186.03515625,-140.13671875,-1000.0,-34.66796875,0.0
7.984375,-931.640625,-188.4765625,-142.08984375,-812.01171875,-66.89453125,0.0
7.98828125,527.34375,-186.5234375,-141.6015625,570.3125,-69.3359375,0.0
7.9921875,-865.234375,-195.3125,-137.20703125,-857.421875,-84.47265625,0.0
7.99609375,760.7421875,-205.078125,-140.625,240.234375,-82.51953125,0.0
8.0,-674.8046875,-196.2890625,-155.2734375,-992.1875,-104.98046875,0.0
