timestamp,TP9,AF7,AF8,TP10,AUX,Marker,
486.00390625,-31.73828125,-34.1796875,-34.1796875,-33.203125,-6.8359375,0.0
486.0078125,-22.4609375,-39.0625,-23.4375,-23.92578125,-2.44140625,0.0
486.01171875,-18.5546875,-41.015625,-24.90234375,-27.34375,-13.671875,0.0
486.015625,-40.0390625,-34.1796875,-35.15625,-37.59765625,-20.99609375,0.0
486.01953125,-48.33984375,-39.0625,-36.1328125,-48.33984375,-1.953125,0.0
486.0234375,-40.0390625,-20.5078125,-23.4375,-49.8046875,-101.07421875,0.0
486.02734375,-48.33984375,-4.39453125,-27.83203125,-33.69140625,-218.26171875,0.0
486.03125,-50.29296875,-34.1796875,-41.9921875,-20.99609375,-119.140625,0.0
486.03515625,-49.8046875,-47.8515625,-43.45703125,-30.76171875,-133.7890625,0.0
486.0390625,-41.015625,-43.9453125,-28.3203125,-43.9453125,-51.7578125,0.0
486.04296875,-23.92578125,-45.41015625,-19.53125,-29.296875,51.26953125,0.0
486.046875,-38.57421875,-41.9921875,-29.296875,-39.55078125,40.0390625,0.0
486.05078125,-57.6171875,-50.78125,-30.76171875,-67.87109375,4.39453125,0.0
486.0546875,-49.8046875,-55.17578125,-30.76171875,-56.640625,-7.32421875,0.0
486.05859375,-31.25,-55.17578125,-30.76171875,-41.015625,101.07421875,0.0
486.0625,-33.69140625,-36.62109375,-19.04296875,-41.50390625,116.69921875,0.0
486.06640625,-44.43359375,-26.85546875,-17.578125,-37.59765625,45.41015625,0.0
486.0703125,-51.7578125,-27.83203125,-28.3203125,-45.8984375,-58.59375,0.0
486.07421875,-43.45703125,-28.3203125,-20.5078125,-46.38671875,-132.8125,0.0
486.078125,-32.2265625,-28.80859375,-13.18359375,-35.64453125,-58.10546875,0.0
486.08203125,-16.11328125,-21.484375,-20.01953125,-28.80859375,-38.0859375,0.0
486.0859375,-12.20703125,-23.92578125,-14.6484375,-35.15625,-41.015625,0.0
486.08984375,-41.015625,-35.15625,-14.16015625,-43.9453125,-39.0625,0.0
486.09375,-53.22265625,-54.6875,-28.80859375,-50.78125,-54.6875,0.0
486.09765625,-60.546875,-58.59375,-33.69140625,-49.31640625,-2.9296875,0.0
486.1015625,-53.7109375,-40.52734375,-32.2265625,-53.22265625,1.953125,0.0
486.10546875,-28.3203125,-36.1328125,-24.90234375,-48.33984375,-18.5546875,0.0
486.109375,-37.109375,-41.015625,-29.296875,-37.109375,-42.48046875,0.0
486.11328125,-49.8046875,-45.8984375,-55.6640625,-44.921875,-23.4375,0.0
486.1171875,-41.015625,-30.2734375,-52.24609375,-45.8984375,4.8828125,0.0
486.12109375,-20.99609375,-15.625,-12.20703125,-22.94921875,-40.52734375,0.0
486.125,-22.4609375,-20.99609375,6.34765625,-11.71875,-97.16796875,0.0
486.12890625,-55.6640625,-35.64453125,-12.6953125,-31.73828125,-49.8046875,0.0
486.1328125,-62.98828125,-56.640625,-27.83203125,-47.8515625,-75.68359375,0.0
486.13671875,-50.29296875,-57.12890625,-28.3203125,-41.9921875,-83.984375,0.0
486.140625,-32.71484375,-34.66796875,-21.484375,-35.15625,-51.26953125,0.0
486.14453125,-31.25,-25.87890625,-23.4375,-33.69140625,-89.84375,0.0
486.1484375,-41.50390625,-28.80859375,-38.0859375,-30.76171875,-66.89453125,0.0
486.15234375,-37.109375,-46.38671875,-43.9453125,-39.55078125,-32.71484375,0.0
486.15625,-53.7109375,-60.546875,-33.203125,-53.22265625,-44.43359375,0.0
486.16015625,-71.77734375,-52.24609375,-25.87890625,-43.9453125,-85.9375,0.0
486.1640625,-54.19921875,-23.92578125,-33.69140625,-22.4609375,-95.21484375,0.0
486.16796875,-44.921875,-22.94921875,-34.1796875,-22.4609375,-21.97265625,0.0
486.171875,-48.33984375,-59.5703125,-35.64453125,-42.48046875,1.46484375,0.0
486.17578125,-45.41015625,-67.3828125,-51.26953125,-37.59765625,-23.92578125,0.0
486.1796875,-24.90234375,-48.828125,-47.36328125,-33.203125,12.6953125,0.0
486.18359375,-32.2265625,-37.109375,-37.109375,-27.34375,41.015625,0.0
486.1875,-46.38671875,-32.2265625,-28.80859375,-20.99609375,59.08203125,0.0
486.19140625,-50.78125,-46.38671875,-16.6015625,-29.78515625,-12.20703125,0.0
486.1953125,-62.98828125,-62.01171875,-13.671875,-29.296875,-49.31640625,0.0
486.19921875,-35.64453125,-40.0390625,-18.06640625,-20.5078125,-50.29296875,0.0
486.203125,-28.3203125,-9.765625,-20.99609375,-19.04296875,-71.77734375,0.0
486.20703125,-46.38671875,-22.94921875,-18.5546875,-25.390625,-9.765625,0.0
486.2109375,-43.45703125,-44.43359375,-18.5546875,-21.97265625,-5.859375,0.0
486.21484375,-38.57421875,-56.640625,-33.203125,-18.06640625,-72.75390625,0.0
486.21875,-26.85546875,-49.8046875,-45.8984375,-27.83203125,-119.140625,0.0
486.22265625,-14.16015625,-31.25,-36.62109375,-38.57421875,-116.2109375,0.0
486.2265625,-32.2265625,-44.921875,-29.296875,-50.29296875,-20.5078125,0.0
486.23046875,-29.296875,-58.10546875,-25.87890625,-37.59765625,-29.78515625,0.0
486.234375,-19.04296875,-40.52734375,-21.97265625,-30.76171875,-107.91015625,0.0
486.23828125,-28.3203125,-34.66796875,-30.2734375,-30.76171875,-119.140625,0.0
486.2421875,-26.3671875,-30.76171875,-23.92578125,-13.671875,-45.8984375,0.0
486.24609375,-13.671875,-21.484375,-8.30078125,-4.39453125,0.0,0.0
486.25,-25.390625,-24.4140625,-14.6484375,-18.06640625,-28.3203125,0.0
486.25390625,-33.203125,-35.64453125,-29.296875,-31.73828125,-37.109375,0.0
486.2578125,-13.18359375,-14.6484375,-14.6484375,-21.97265625,-70.80078125,0.0
486.26171875,5.37109375,-7.8125,-2.44140625,-23.4375,-52.734375,0.0
486.265625,-4.39453125,-22.94921875,-15.625,-40.52734375,-9.27734375,0.0
486.26953125,-28.3203125,-39.0625,-27.83203125,-47.8515625,-4.39453125,0.0
486.2734375,-33.69140625,-50.29296875,-39.0625,-45.8984375,-13.671875,0.0
486.27734375,-25.87890625,-43.45703125,-34.66796875,-40.0390625,13.18359375,0.0
486.28125,-23.4375,-33.69140625,-16.6015625,-32.71484375,-1.46484375,0.0
486.28515625,-17.08984375,-21.484375,-28.80859375,-26.3671875,42.48046875,0.0
486.2890625,-26.85546875,-26.3671875,-46.38671875,-41.50390625,53.7109375,0.0
486.29296875,-37.59765625,-51.7578125,-33.69140625,-39.0625,13.18359375,0.0
486.296875,-21.484375,-41.9921875,-17.08984375,-35.15625,-16.6015625,0.0
486.30078125,-11.23046875,-21.97265625,-13.671875,-46.38671875,-101.07421875,0.0
486.3046875,-18.06640625,-8.30078125,-18.06640625,-46.875,-151.85546875,0.0
486.30859375,-38.57421875,-8.30078125,-20.5078125,-47.8515625,-146.484375,0.0
486.3125,-37.59765625,-18.5546875,-23.92578125,-51.7578125,-163.57421875,0.0
486.31640625,-45.41015625,-43.9453125,-32.71484375,-59.5703125,-21.97265625,0.0
486.3203125,-43.45703125,-67.3828125,-30.76171875,-58.59375,123.53515625,0.0
486.32421875,-26.85546875,-49.31640625,-24.90234375,-44.921875,79.58984375,0.0
486.328125,-22.94921875,-24.90234375,-22.94921875,-37.59765625,32.2265625,0.0
486.33203125,-25.87890625,-22.94921875,-27.34375,-32.71484375,41.015625,0.0
486.3359375,-32.2265625,-47.36328125,-33.203125,-24.4140625,-42.96875,0.0
486.33984375,-27.34375,-55.6640625,-24.4140625,-23.4375,-60.546875,0.0
486.34375,-31.73828125,-13.671875,-13.18359375,-34.66796875,-2.44140625,0.0
486.34765625,-26.85546875,5.859375,-7.32421875,-33.203125,-16.11328125,0.0
486.3515625,-19.04296875,-2.44140625,-16.11328125,-36.1328125,-39.0625,0.0
486.35546875,-25.87890625,-2.44140625,-21.97265625,-34.1796875,-112.3046875,0.0
486.359375,-28.80859375,-30.2734375,-29.78515625,-36.62109375,-119.62890625,0.0
486.36328125,-33.203125,-51.26953125,-38.0859375,-48.33984375,-65.91796875,0.0
486.3671875,-52.24609375,-35.64453125,-19.04296875,-38.0859375,-50.29296875,0.0
486.37109375,-64.453125,-48.33984375,-13.18359375,-32.71484375,-16.6015625,0.0
486.375,-50.78125,-59.5703125,-16.6015625,-33.69140625,-20.01953125,0.0
486.37890625,-39.0625,-34.66796875,-19.04296875,-29.78515625,-51.26953125,0.0
486.3828125,-34.66796875,-12.20703125,-14.16015625,-25.87890625,18.5546875,0.0
486.38671875,-29.78515625,-24.90234375,-19.53125,-40.52734375,22.94921875,0.0
486.390625,-37.109375,-49.31640625,-29.78515625,-29.78515625,0.0,0.0
486.39453125,-41.015625,-47.36328125,-31.25,-21.97265625,20.5078125,0.0
486.3984375,-33.69140625,-18.06640625,-32.71484375,-41.015625,85.9375,0.0
486.40234375,-23.92578125,-9.765625,-27.34375,-39.0625,-42.48046875,0.0
486.40625,-28.3203125,-21.97265625,-34.66796875,-38.57421875,-224.12109375,0.0
486.41015625,-41.015625,-46.875,-41.9921875,-34.66796875,-187.98828125,0.0
486.4140625,-44.921875,-56.15234375,-35.64453125,-23.4375,-97.16796875,0.0
486.41796875,-40.52734375,-31.73828125,-32.71484375,-28.80859375,-33.69140625,0.0
486.421875,-27.34375,-9.765625,-17.08984375,-24.4140625,-29.78515625,0.0
486.42578125,-35.15625,-7.8125,-18.5546875,-19.04296875,53.22265625,0.0
486.4296875,-42.96875,-20.5078125,-30.2734375,-14.16015625,55.17578125,0.0
486.43359375,-22.4609375,-31.25,-18.5546875,-3.41796875,21.97265625,0.0
486.4375,0.48828125,-31.25,-12.6953125,-5.37109375,-11.23046875,0.0
486.44140625,-19.04296875,-27.83203125,-30.76171875,-9.27734375,57.6171875,0.0
486.4453125,-16.6015625,-14.6484375,-33.203125,-9.27734375,36.62109375,0.0
486.44921875,-13.18359375,-33.203125,-21.97265625,-14.6484375,-43.45703125,0.0
486.453125,-32.2265625,-61.5234375,-17.08984375,-5.859375,-45.41015625,0.0
486.45703125,-18.06640625,-41.50390625,-22.4609375,3.41796875,-47.36328125,0.0
486.4609375,-2.9296875,-19.04296875,-20.5078125,9.27734375,27.83203125,0.0
486.46484375,-20.01953125,-10.7421875,-18.06640625,-1.46484375,77.1484375,0.0
486.46875,-24.90234375,-14.16015625,-19.04296875,-8.7890625,52.24609375,0.0
486.47265625,-0.9765625,-20.5078125,-22.4609375,-5.859375,-60.546875,0.0
486.4765625,-12.20703125,-18.5546875,-26.3671875,-2.9296875,-61.5234375,0.0
486.48046875,-18.06640625,-22.94921875,-23.4375,-7.32421875,-32.71484375,0.0
486.484375,-14.6484375,-24.90234375,-6.8359375,-25.87890625,-35.64453125,0.0
486.48828125,0.48828125,-20.01953125,-2.9296875,-4.8828125,-18.06640625,0.0
486.4921875,5.37109375,-20.01953125,-24.90234375,17.578125,-125.48828125,0.0
486.49609375,-3.41796875,-28.80859375,-34.1796875,-11.23046875,-164.55078125,0.0
486.5,-9.27734375,-29.296875,-26.3671875,-20.99609375,-67.3828125,0.0
486.50390625,-18.5546875,-29.78515625,-24.4140625,-4.8828125,-70.3125,0.0
486.5078125,-13.18359375,-26.85546875,-29.296875,-13.671875,-49.31640625,0.0
486.51171875,-30.76171875,-34.1796875,-37.59765625,-11.23046875,2.44140625,0.0
486.515625,-31.73828125,-34.1796875,-35.15625,-3.41796875,14.6484375,0.0
486.51953125,-8.7890625,-14.16015625,-22.94921875,-9.27734375,-61.03515625,0.0
486.5234375,-11.23046875,-19.53125,-14.6484375,-0.48828125,-55.6640625,0.0
486.52734375,-11.71875,-29.78515625,-20.5078125,-9.27734375,-24.90234375,0.0
486.53125,-13.18359375,-23.4375,-21.484375,-16.6015625,-17.08984375,0.0
486.53515625,-27.83203125,-28.80859375,-17.578125,-18.06640625,35.64453125,0.0
486.5390625,-13.18359375,-13.671875,-23.4375,-24.90234375,56.15234375,0.0
486.54296875,-8.30078125,-6.34765625,-28.80859375,-14.6484375,26.85546875,0.0
486.546875,-22.94921875,-21.484375,-23.4375,-5.37109375,-5.37109375,0.0
486.55078125,-19.53125,-30.2734375,-19.53125,-33.203125,0.48828125,0.0
486.5546875,-47.8515625,-39.0625,-30.2734375,-48.33984375,-51.7578125,0.0
486.55859375,-59.08203125,-30.76171875,-27.83203125,-31.73828125,-57.12890625,0.0
486.5625,-47.8515625,-18.5546875,-18.5546875,-41.015625,-51.7578125,0.0
486.56640625,-54.19921875,-39.0625,-39.55078125,-45.41015625,-75.1953125,0.0
486.5703125,-50.29296875,-47.36328125,-62.98828125,-32.2265625,58.10546875,0.0
486.57421875,-32.71484375,-33.69140625,-50.29296875,-19.04296875,43.45703125,0.0
486.578125,-21.484375,-28.80859375,-19.04296875,-16.11328125,-52.24609375,0.0
486.58203125,-9.765625,-16.6015625,-21.97265625,-26.85546875,17.08984375,0.0
486.5859375,-17.578125,2.44140625,-25.390625,-37.59765625,5.859375,0.0
486.58984375,-32.2265625,-5.37109375,-10.7421875,-42.48046875,-41.50390625,0.0
486.59375,-36.62109375,-9.27734375,-17.578125,-35.15625,-68.359375,0.0
486.59765625,-43.45703125,-24.4140625,-24.4140625,-38.0859375,-104.00390625,0.0
486.6015625,-43.45703125,-49.31640625,-20.99609375,-52.24609375,-66.40625,0.0
486.60546875,-43.45703125,-30.2734375,-19.04296875,-63.4765625,-75.1953125,0.0
486.609375,-46.875,-14.6484375,-24.4140625,-61.03515625,-88.37890625,0.0
486.61328125,-54.19921875,-23.4375,-37.59765625,-53.22265625,-119.62890625,0.0
486.6171875,-50.78125,-34.66796875,-30.76171875,-58.10546875,-73.73046875,0.0
486.62109375,-47.36328125,-41.015625,-29.296875,-77.63671875,-54.19921875,0.0
486.625,-45.41015625,-27.83203125,-27.34375,-75.68359375,-113.28125,0.0
486.62890625,-65.91796875,-28.3203125,-38.0859375,-66.40625,-145.5078125,0.0
486.6328125,-66.40625,-32.2265625,-60.05859375,-72.75390625,-159.1796875,0.0
486.63671875,-38.57421875,-31.25,-51.7578125,-67.3828125,-47.36328125,0.0
486.640625,-62.98828125,-34.66796875,-31.73828125,-62.98828125,-3.90625,0.0
486.64453125,-84.47265625,-38.57421875,-11.23046875,-67.3828125,-48.828125,0.0
486.6484375,-79.1015625,-36.1328125,-19.04296875,-77.63671875,-50.78125,0.0
486.65234375,-83.984375,-43.45703125,-20.99609375,-96.19140625,24.90234375,0.0
486.65625,-91.796875,-44.921875,-9.765625,-96.6796875,107.91015625,0.0
486.66015625,-121.09375,-36.62109375,-12.20703125,-111.328125,29.78515625,0.0
486.6640625,-140.13671875,-27.83203125,-12.20703125,-145.01953125,-61.03515625,0.0
486.66796875,-129.8828125,-34.66796875,1.46484375,-141.11328125,4.8828125,0.0
486.671875,-154.78515625,-61.5234375,3.90625,-147.4609375,-24.90234375,0.0
486.67578125,-185.05859375,-66.40625,-2.44140625,-179.19921875,-98.14453125,0.0
486.6796875,-197.265625,-56.15234375,6.34765625,-197.75390625,-61.5234375,0.0
486.68359375,-214.84375,-48.33984375,10.25390625,-207.51953125,-62.01171875,0.0
486.6875,-224.12109375,-29.296875,3.90625,-217.7734375,-81.54296875,0.0
486.69140625,-222.65625,-41.9921875,8.30078125,-221.19140625,38.0859375,0.0
486.6953125,-222.65625,-66.40625,20.01953125,-232.91015625,56.640625,0.0
486.69921875,-253.90625,-57.6171875,33.203125,-254.8828125,-2.44140625,0.0
486.703125,-265.625,-34.66796875,45.41015625,-270.01953125,44.921875,0.0
486.70703125,-237.79296875,-34.66796875,47.8515625,-259.27734375,85.44921875,0.0
486.7109375,-263.671875,-53.22265625,37.109375,-275.390625,63.96484375,0.0
486.71484375,-278.3203125,-69.82421875,27.34375,-284.66796875,-16.11328125,0.0
486.71875,-263.18359375,-51.7578125,40.52734375,-275.87890625,-47.36328125,0.0
486.72265625,-267.578125,-39.0625,53.22265625,-274.90234375,-1.46484375,0.0
486.7265625,-261.23046875,-42.96875,63.4765625,-250.48828125,8.7890625,0.0
486.73046875,-238.28125,-58.10546875,92.28515625,-238.76953125,-58.59375,0.0
486.734375,-230.95703125,-83.0078125,119.62890625,-231.4453125,-39.55078125,0.0
486.73828125,-222.16796875,-75.68359375,115.72265625,-233.88671875,5.37109375,0.0
486.7421875,-207.51953125,-43.45703125,111.328125,-221.19140625,-26.85546875,0.0
486.74609375,-190.4296875,-37.59765625,124.0234375,-181.15234375,-29.296875,0.0
486.75,-169.921875,-56.640625,122.0703125,-178.22265625,-16.6015625,0.0
486.75390625,-156.25,-48.33984375,110.83984375,-164.55078125,-67.3828125,0.0
486.7578125,-132.32421875,-36.1328125,101.07421875,-143.06640625,-103.02734375,0.0
486.76171875,-121.58203125,-44.43359375,102.5390625,-135.25390625,-105.46875,0.0
486.765625,-124.0234375,-44.921875,107.91015625,-127.44140625,-9.765625,0.0
486.76953125,-99.609375,-51.7578125,98.6328125,-137.6953125,8.30078125,0.0
486.7734375,-64.94140625,-47.8515625,105.46875,-92.28515625,-138.18359375,0.0
486.77734375,-53.7109375,-32.2265625,116.69921875,-48.828125,-150.87890625,0.0
486.78125,-39.55078125,-25.87890625,110.3515625,-44.43359375,-44.921875,0.0
486.78515625,-17.08984375,-33.203125,97.65625,-19.53125,8.30078125,0.0
486.7890625,-3.41796875,-54.19921875,84.47265625,-3.41796875,6.8359375,0.0
486.79296875,8.30078125,-68.84765625,87.40234375,-9.765625,-24.4140625,0.0
486.796875,15.13671875,-53.22265625,89.35546875,5.859375,-42.96875,0.0
486.80078125,27.83203125,-33.69140625,79.1015625,27.83203125,22.4609375,0.0
486.8046875,49.31640625,-15.13671875,81.0546875,43.45703125,50.29296875,0.0
486.80859375,62.5,0.0,87.890625,51.26953125,-22.4609375,0.0
486.8125,70.3125,-11.23046875,78.125,42.96875,-112.79296875,0.0
486.81640625,63.4765625,-30.2734375,58.10546875,37.109375,-114.74609375,0.0
486.8203125,54.6875,-12.6953125,52.24609375,43.45703125,-58.59375,0.0
486.82421875,66.40625,11.71875,57.6171875,78.125,-38.0859375,0.0
486.828125,81.0546875,-4.39453125,66.40625,81.0546875,41.015625,0.0
486.83203125,70.80078125,-18.06640625,47.8515625,58.59375,9.27734375,0.0
486.8359375,56.640625,-29.78515625,27.34375,63.96484375,-104.00390625,0.0
486.83984375,78.125,-23.4375,42.48046875,61.5234375,-75.1953125,0.0
486.84375,93.26171875,5.37109375,50.29296875,51.26953125,-11.71875,0.0
486.84765625,74.21875,-4.8828125,39.0625,62.5,-11.23046875,0.0
486.8515625,62.5,-17.08984375,30.2734375,81.0546875,-15.13671875,0.0
486.85546875,78.61328125,1.46484375,26.3671875,81.54296875,0.0,0.0
486.859375,76.171875,7.32421875,19.04296875,73.2421875,9.765625,0.0
486.86328125,78.125,0.0,9.765625,63.4765625,20.5078125,0.0
486.8671875,83.0078125,-3.90625,-3.41796875,52.24609375,38.0859375,0.0
486.87109375,75.68359375,-7.32421875,-1.46484375,67.3828125,-28.80859375,0.0
486.875,69.3359375,-11.23046875,17.578125,78.125,-45.8984375,0.0
486.87890625,48.33984375,-35.15625,21.97265625,70.80078125,-21.97265625,0.0
486.8828125,32.2265625,-35.15625,7.8125,40.52734375,-105.46875,0.0
486.88671875,36.1328125,-30.76171875,-4.39453125,11.71875,-157.71484375,0.0
486.890625,38.0859375,-41.9921875,-2.44140625,22.94921875,-141.6015625,0.0
486.89453125,37.109375,-26.85546875,11.23046875,33.203125,-169.43359375,0.0
486.8984375,45.41015625,-11.71875,19.53125,38.57421875,-126.46484375,0.0
486.90234375,41.015625,-13.671875,10.7421875,27.83203125,-20.5078125,0.0
486.90625,42.96875,-32.71484375,-2.44140625,16.6015625,-17.578125,0.0
486.91015625,37.109375,-45.8984375,-10.25390625,18.5546875,-68.84765625,0.0
486.9140625,24.4140625,-21.484375,-9.765625,5.859375,-68.359375,0.0
486.91796875,19.04296875,-26.85546875,-19.04296875,-6.34765625,-80.56640625,0.0
486.921875,20.01953125,-32.2265625,-18.06640625,7.32421875,-70.3125,0.0
486.92578125,19.04296875,-18.5546875,-10.25390625,41.50390625,-11.71875,0.0
486.9296875,0.9765625,-31.25,-2.44140625,42.96875,37.109375,0.0
486.93359375,1.46484375,-48.828125,-1.953125,14.16015625,15.625,0.0
486.9375,25.87890625,-32.2265625,-13.671875,12.20703125,5.859375,0.0
486.94140625,28.80859375,0.48828125,-18.06640625,18.5546875,31.25,0.0
486.9453125,10.7421875,2.44140625,-10.25390625,29.296875,18.06640625,0.0
486.94921875,8.7890625,-12.6953125,-10.7421875,40.0390625,7.8125,0.0
486.953125,13.18359375,-29.78515625,-6.8359375,34.66796875,-29.296875,0.0
486.95703125,21.484375,-35.15625,10.7421875,33.203125,-63.4765625,0.0
486.9609375,27.34375,-24.90234375,9.765625,31.25,-28.3203125,0.0
486.96484375,39.55078125,-24.90234375,5.859375,28.3203125,23.4375,0.0
486.96875,26.3671875,-35.64453125,-3.41796875,17.578125,-24.90234375,0.0
486.97265625,2.44140625,-48.33984375,-7.32421875,9.27734375,-32.71484375,0.0
486.9765625,-0.48828125,-52.734375,-2.9296875,13.671875,-16.11328125,0.0
486.98046875,-6.34765625,-57.12890625,-20.5078125,14.16015625,-8.7890625,0.0
486.984375,-14.6484375,-52.734375,-36.1328125,12.6953125,-15.13671875,0.0
486.98828125,-4.39453125,-41.50390625,-34.66796875,5.859375,-0.9765625,0.0
486.9921875,-6.8359375,-33.69140625,-30.76171875,-3.41796875,-10.25390625,0.0
486.99609375,-13.18359375,-54.19921875,-28.3203125,5.37109375,-98.14453125,0.0
487.0,-9.765625,-46.875,-18.5546875,6.8359375,-96.6796875,0.0
487.00390625,-24.90234375,-23.4375,-13.18359375,-5.37109375,-62.98828125,0.0
487.0078125,-22.4609375,-22.94921875,-24.4140625,-8.7890625,-75.68359375,0.0
487.01171875,-10.7421875,-20.99609375,-27.83203125,-8.7890625,-103.02734375,0.0
487.015625,-3.90625,-20.99609375,-24.4140625,9.27734375,-50.29296875,0.0
487.01953125,-12.20703125,-52.24609375,-44.921875,-2.44140625,61.03515625,0.0
487.0234375,2.9296875,-62.5,-55.17578125,-21.97265625,98.6328125,0.0
487.02734375,16.11328125,-33.203125,-28.3203125,-4.8828125,57.6171875,0.0
487.03125,-16.11328125,-50.29296875,-31.73828125,-10.7421875,-28.3203125,0.0
487.03515625,-26.3671875,-87.890625,-41.50390625,-23.92578125,41.9921875,0.0
487.0390625,-24.90234375,-61.5234375,-32.2265625,-22.94921875,-51.26953125,0.0
487.04296875,-19.04296875,-28.3203125,-29.78515625,-12.6953125,-74.21875,0.0
487.046875,-15.625,-35.64453125,-32.71484375,-13.18359375,104.98046875,0.0
487.05078125,-12.20703125,-19.53125,-35.64453125,-16.6015625,57.6171875,0.0
487.0546875,-9.27734375,-9.27734375,-36.62109375,-1.46484375,20.5078125,0.0
487.05859375,-4.39453125,-13.671875,-37.109375,14.6484375,-10.25390625,0.0
487.0625,-1.953125,-7.8125,-36.1328125,5.37109375,-23.92578125,0.0
487.06640625,-16.6015625,-32.2265625,-28.3203125,-12.6953125,-46.875,0.0
487.0703125,-24.4140625,-66.89453125,-29.296875,-8.30078125,-66.40625,0.0
487.07421875,-11.71875,-64.453125,-29.78515625,1.953125,-4.8828125,0.0
487.078125,-12.6953125,-39.0625,-34.1796875,-5.37109375,46.38671875,0.0
487.08203125,-17.578125,-28.80859375,-38.57421875,-6.34765625,95.703125,0.0
487.0859375,-8.30078125,-26.85546875,-14.16015625,9.765625,70.3125,0.0
487.08984375,-10.25390625,-30.76171875,-11.23046875,-0.9765625,4.39453125,0.0
487.09375,-13.18359375,-32.2265625,-30.2734375,-20.99609375,14.16015625,0.0
487.09765625,-5.37109375,-21.97265625,-27.83203125,-0.9765625,110.83984375,0.0
487.1015625,-2.9296875,-1.953125,-11.23046875,3.90625,122.0703125,0.0
487.10546875,-12.6953125,12.6953125,-3.90625,-6.34765625,-5.37109375,0.0
487.109375,-14.16015625,-5.37109375,-13.18359375,-16.6015625,-67.87109375,0.0
487.11328125,-11.71875,-31.73828125,-24.4140625,-17.578125,-112.3046875,0.0
487.1171875,-2.44140625,-39.0625,-23.92578125,-12.20703125,-104.98046875,0.0
487.12109375,10.7421875,-48.33984375,-27.34375,-16.11328125,-14.16015625,0.0
487.125,-0.9765625,-25.87890625,-28.3203125,-13.18359375,10.7421875,0.0
487.12890625,-27.83203125,-17.578125,-32.2265625,-20.5078125,31.25,0.0
487.1328125,-27.83203125,-37.59765625,-32.71484375,-18.06640625,31.73828125,0.0
487.13671875,-18.06640625,-40.0390625,-21.97265625,-20.99609375,1.953125,0.0
487.140625,-18.5546875,-36.62109375,-23.4375,-28.3203125,36.62109375,0.0
487.14453125,-14.16015625,-29.78515625,-27.34375,-22.4609375,47.36328125,0.0
487.1484375,-30.76171875,-22.4609375,-35.64453125,-23.92578125,25.87890625,0.0
487.15234375,-40.0390625,-21.484375,-52.734375,-25.87890625,-27.83203125,0.0
487.15625,-34.66796875,-30.76171875,-35.64453125,-28.80859375,0.9765625,0.0
487.16015625,-50.78125,-47.8515625,-17.08984375,-38.0859375,23.4375,0.0
487.1640625,-41.50390625,-30.76171875,-18.5546875,-43.9453125,-86.42578125,0.0
487.16796875,-23.92578125,-30.2734375,-29.78515625,-33.203125,-82.51953125,0.0
487.171875,-32.71484375,-46.875,-38.0859375,-24.4140625,-62.5,0.0
487.17578125,-31.73828125,-50.29296875,-21.97265625,-30.76171875,-77.63671875,0.0
487.1796875,-24.90234375,-50.29296875,-14.6484375,-32.2265625,-94.7265625,0.0
487.18359375,-23.92578125,-28.3203125,-27.83203125,-21.97265625,-115.72265625,0.0
487.1875,-27.34375,-27.83203125,-40.0390625,-21.484375,-87.890625,0.0
487.19140625,-15.13671875,-36.1328125,-43.45703125,-31.25,-68.84765625,0.0
487.1953125,-12.20703125,-13.18359375,-31.25,-26.3671875,-37.109375,0.0
487.19921875,-8.7890625,-3.41796875,-17.08984375,-25.390625,0.0,0.0
487.203125,-0.48828125,-15.625,-15.625,-14.6484375,47.8515625,0.0
487.20703125,-13.18359375,-24.4140625,-18.06640625,-19.04296875,-22.4609375,0.0
487.2109375,-23.92578125,-33.69140625,-21.97265625,-54.6875,-75.1953125,0.0
487.21484375,-22.4609375,-48.33984375,-18.06640625,-41.015625,-48.828125,0.0
487.21875,-10.7421875,-33.203125,-9.765625,-22.4609375,-107.421875,0.0
487.22265625,-12.20703125,-19.04296875,-23.4375,-35.64453125,-52.734375,0.0
487.2265625,-16.6015625,-15.625,-33.69140625,-30.76171875,11.71875,0.0
487.23046875,-31.25,-23.92578125,-32.71484375,-32.71484375,78.125,0.0
487.234375,-36.1328125,-29.296875,-19.04296875,-27.83203125,50.78125,0.0
487.23828125,0.0,-33.69140625,2.9296875,-14.6484375,-46.875,0.0
487.2421875,-2.9296875,-30.2734375,0.48828125,-20.5078125,-106.93359375,0.0
487.24609375,-52.24609375,-25.87890625,-24.4140625,-33.69140625,-163.0859375,0.0
487.25,-63.4765625,-33.203125,-42.96875,-35.15625,-145.5078125,0.0
487.25390625,-49.31640625,-45.8984375,-46.875,-20.5078125,-180.6640625,0.0
487.2578125,-44.921875,-55.6640625,-45.8984375,-18.5546875,-198.2421875,0.0
487.26171875,-36.1328125,-41.015625,-32.71484375,-24.4140625,-175.78125,0.0
487.265625,-29.296875,-26.85546875,-23.4375,-32.71484375,-121.09375,0.0
487.26953125,-27.34375,-32.71484375,-29.78515625,-38.57421875,-131.8359375,0.0
487.2734375,-40.52734375,-37.59765625,-39.0625,-38.0859375,-181.640625,0.0
487.27734375,-41.015625,-37.109375,-35.64453125,-30.2734375,-171.38671875,0.0
487.28125,-16.6015625,-34.66796875,-20.01953125,-25.390625,-113.76953125,0.0
487.28515625,-20.5078125,-42.48046875,-22.4609375,-37.59765625,-78.61328125,0.0
487.2890625,-45.41015625,-37.59765625,-34.1796875,-52.734375,-79.58984375,0.0
487.29296875,-44.921875,-26.3671875,-34.66796875,-51.7578125,-121.09375,0.0
487.296875,-29.296875,-40.52734375,-39.0625,-41.9921875,-194.3359375,0.0
487.30078125,-32.2265625,-42.48046875,-57.6171875,-39.55078125,-95.21484375,0.0
487.3046875,-27.34375,-42.96875,-55.17578125,-44.43359375,39.55078125,0.0
487.30859375,-23.92578125,-57.6171875,-28.80859375,-49.31640625,51.7578125,0.0
487.3125,-47.36328125,-48.828125,-22.94921875,-37.109375,14.6484375,0.0
487.31640625,-48.33984375,-35.64453125,-33.69140625,-36.1328125,50.29296875,0.0
487.3203125,-31.25,-41.50390625,-32.71484375,-44.43359375,70.80078125,0.0
487.32421875,-22.94921875,-40.0390625,-27.34375,-54.6875,30.2734375,0.0
487.328125,-28.3203125,-34.66796875,-26.3671875,-42.48046875,29.296875,0.0
487.33203125,-35.15625,-33.203125,-24.4140625,-22.94921875,3.41796875,0.0
487.3359375,-40.0390625,-29.296875,-22.94921875,-34.1796875,26.3671875,0.0
487.33984375,-41.50390625,-31.73828125,-36.62109375,-45.8984375,71.77734375,0.0
487.34375,-23.92578125,-37.109375,-38.57421875,-27.34375,42.96875,0.0
487.34765625,-20.99609375,-34.66796875,-24.4140625,-14.6484375,31.25,0.0
487.3515625,-48.33984375,-51.7578125,-36.1328125,-30.2734375,11.23046875,0.0
487.35546875,-54.6875,-69.3359375,-55.17578125,-32.2265625,-28.80859375,0.0
487.359375,-41.015625,-48.828125,-46.38671875,-40.0390625,-61.03515625,0.0
487.36328125,-36.62109375,-43.45703125,-33.69140625,-55.17578125,-22.4609375,0.0
487.3671875,-31.25,-56.640625,-35.15625,-41.015625,38.0859375,0.0
487.37109375,-41.50390625,-44.921875,-37.59765625,-39.55078125,-17.08984375,0.0
487.375,-48.33984375,-38.0859375,-32.71484375,-44.921875,21.484375,0.0
487.37890625,-35.64453125,-18.06640625,-24.4140625,-36.1328125,81.54296875,0.0
487.3828125,-42.48046875,5.859375,-38.0859375,-49.31640625,92.28515625,0.0
487.38671875,-49.31640625,-4.8828125,-51.26953125,-65.91796875,179.19921875,0.0
487.390625,-50.29296875,-30.2734375,-50.78125,-55.6640625,89.35546875,0.0
487.39453125,-54.6875,-41.9921875,-50.29296875,-66.40625,21.97265625,0.0
487.3984375,-42.96875,-29.78515625,-47.8515625,-81.0546875,13.18359375,0.0
487.40234375,-20.5078125,-17.578125,-42.96875,-60.546875,-14.16015625,0.0
487.40625,-24.4140625,-15.625,-40.0390625,-54.6875,35.15625,0.0
487.41015625,-40.52734375,-32.71484375,-44.43359375,-52.734375,10.7421875,0.0
487.4140625,-32.71484375,-54.6875,-41.50390625,-48.33984375,-51.26953125,0.0
487.41796875,-19.04296875,-68.84765625,-29.296875,-43.9453125,-149.90234375,0.0
487.421875,-12.6953125,-51.7578125,-32.71484375,-31.25,-199.70703125,0.0
487.42578125,-15.625,-34.1796875,-41.015625,-34.66796875,-144.53125,0.0
487.4296875,-32.71484375,-25.390625,-37.109375,-45.41015625,-58.10546875,0.0
487.43359375,-34.66796875,-17.08984375,-34.1796875,-30.76171875,-45.8984375,0.0
487.4375,-41.50390625,-18.06640625,-34.66796875,-43.45703125,17.578125,0.0
487.44140625,-31.25,-28.80859375,-38.57421875,-53.7109375,1.953125,0.0
487.4453125,-16.11328125,-39.55078125,-41.015625,-33.69140625,-107.91015625,0.0
487.44921875,-22.94921875,-50.29296875,-40.52734375,-28.3203125,-141.6015625,0.0
487.453125,-35.15625,-55.17578125,-41.50390625,-31.73828125,-68.84765625,0.0
487.45703125,-36.62109375,-42.96875,-38.57421875,-32.71484375,59.08203125,0.0
487.4609375,-24.90234375,-23.92578125,-24.4140625,-21.97265625,48.33984375,0.0
487.46484375,-25.390625,-18.06640625,-24.4140625,-16.11328125,0.0,0.0
487.46875,-26.3671875,-14.6484375,-38.0859375,-19.53125,-21.97265625,0.0
487.47265625,-16.11328125,-20.99609375,-23.4375,-13.18359375,-4.39453125,0.0
487.4765625,-0.9765625,-27.83203125,-11.23046875,-7.32421875,-0.9765625,0.0
487.48046875,5.37109375,-13.18359375,-24.90234375,-7.32421875,-31.73828125,0.0
487.484375,2.44140625,-19.04296875,-38.0859375,-15.13671875,-50.29296875,0.0
487.48828125,-7.32421875,-39.55078125,-35.15625,-30.2734375,-49.8046875,0.0
487.4921875,-11.23046875,-59.08203125,-38.0859375,-21.97265625,-108.88671875,0.0
487.49609375,-19.53125,-57.12890625,-43.9453125,-19.04296875,-121.09375,0.0
487.5,-43.9453125,-43.9453125,-41.9921875,-32.2265625,-58.10546875,0.0
487.50390625,-56.15234375,-31.73828125,-29.296875,-44.921875,-12.6953125,0.0
487.5078125,-25.390625,-21.484375,-24.90234375,-39.0625,-65.4296875,0.0
487.51171875,-11.71875,-22.94921875,-30.2734375,-32.71484375,-34.66796875,0.0
487.515625,-29.78515625,-17.578125,-30.2734375,-53.22265625,41.9921875,0.0
487.51953125,-37.59765625,-20.99609375,-36.1328125,-50.78125,30.2734375,0.0
487.5234375,-16.6015625,-10.25390625,-23.4375,-21.97265625,15.625,0.0
487.52734375,-27.34375,-9.765625,-16.11328125,-28.3203125,-17.578125,0.0
487.53125,-50.78125,-35.15625,-33.69140625,-59.5703125,-45.41015625,0.0
487.53515625,-35.15625,-50.78125,-50.78125,-60.546875,-0.9765625,0.0
487.5390625,-22.94921875,-35.15625,-45.41015625,-36.62109375,9.765625,0.0
487.54296875,-36.1328125,-16.6015625,-50.78125,-35.15625,13.671875,0.0
487.546875,-24.90234375,-11.71875,-66.89453125,-30.2734375,50.78125,0.0
487.55078125,-0.48828125,5.37109375,-68.359375,-19.53125,12.20703125,0.0
487.5546875,5.859375,3.41796875,-62.01171875,-16.11328125,-46.875,0.0
487.55859375,2.44140625,-44.43359375,-55.6640625,-23.4375,-71.2890625,0.0
487.5625,-4.39453125,-56.640625,-56.640625,-34.1796875,-10.25390625,0.0
487.56640625,-9.27734375,-25.87890625,-44.43359375,-20.99609375,-20.5078125,0.0
487.5703125,-8.7890625,10.7421875,-30.2734375,-17.08984375,-33.203125,0.0
487.57421875,-10.25390625,8.30078125,-40.0390625,-17.08984375,-48.33984375,0.0
487.578125,-1.953125,-24.90234375,-50.29296875,-1.953125,-73.73046875,0.0
487.58203125,9.765625,-20.01953125,-51.26953125,5.37109375,-45.8984375,0.0
487.5859375,-6.34765625,-4.8828125,-49.8046875,-6.34765625,11.71875,0.0
487.58984375,-34.66796875,-31.25,-54.6875,-36.62109375,-13.671875,0.0
487.59375,-28.80859375,-62.98828125,-57.6171875,-32.2265625,-49.8046875,0.0
487.59765625,-9.27734375,-62.5,-33.69140625,-5.37109375,24.4140625,0.0
487.6015625,-10.25390625,-40.52734375,-18.06640625,-6.34765625,15.625,0.0
487.60546875,-8.7890625,-29.296875,-24.4140625,-7.32421875,-11.23046875,0.0
487.609375,-9.27734375,-16.6015625,-33.69140625,-10.25390625,-64.94140625,0.0
487.61328125,-3.41796875,-7.8125,-48.828125,-15.625,-125.9765625,0.0
487.6171875,-1.953125,-2.9296875,-37.59765625,-9.27734375,-31.25,0.0
487.62109375,-18.5546875,-2.44140625,-36.62109375,-12.6953125,-44.921875,0.0
487.625,-28.80859375,-13.671875,-45.41015625,-29.78515625,-91.796875,0.0
487.62890625,-15.625,-48.828125,-37.59765625,-23.4375,-57.12890625,0.0
487.6328125,-5.37109375,-73.2421875,-38.57421875,-0.9765625,-60.05859375,0.0
487.63671875,-26.3671875,-65.91796875,-34.66796875,-11.23046875,-8.7890625,0.0
487.640625,-30.76171875,-48.828125,-24.4140625,-21.484375,71.77734375,0.0
487.64453125,-23.4375,-26.85546875,-29.296875,-17.08984375,-48.33984375,0.0
487.6484375,-23.4375,-23.92578125,-40.52734375,-31.25,-69.3359375,0.0
487.65234375,-14.16015625,-30.2734375,-34.66796875,-24.4140625,1.953125,0.0
487.65625,-4.39453125,-16.11328125,-30.76171875,-10.25390625,-70.3125,0.0
487.66015625,-3.41796875,-16.11328125,-25.390625,-3.41796875,-14.6484375,0.0
487.6640625,1.953125,-17.08984375,-27.83203125,2.44140625,-27.34375,0.0
487.66796875,3.90625,-24.4140625,-37.109375,-5.37109375,-97.16796875,0.0
487.671875,-9.765625,-50.29296875,-32.2265625,-22.94921875,-48.828125,0.0
487.67578125,-3.90625,-55.6640625,-30.2734375,-24.4140625,-94.23828125,0.0
487.6796875,15.625,-37.59765625,-42.48046875,-16.11328125,-68.359375,0.0
487.68359375,4.8828125,-30.76171875,-43.45703125,-23.92578125,6.34765625,0.0
487.6875,-16.11328125,-36.1328125,-31.73828125,-34.66796875,21.97265625,0.0
487.69140625,-20.99609375,-42.96875,-29.296875,-19.53125,-38.0859375,0.0
487.6953125,-25.390625,-49.8046875,-41.015625,-6.8359375,-71.77734375,0.0
487.69921875,-13.671875,-35.64453125,-43.9453125,-25.87890625,-41.015625,0.0
487.703125,-7.8125,-18.06640625,-23.92578125,-38.57421875,-26.85546875,0.0
487.70703125,-29.78515625,-42.96875,-13.671875,-33.69140625,-12.6953125,0.0
487.7109375,-27.83203125,-53.22265625,-20.01953125,-13.671875,-121.09375,0.0
487.71484375,-23.92578125,-35.64453125,-35.15625,-14.6484375,-139.16015625,0.0
487.71875,-28.3203125,-30.2734375,-39.55078125,-32.2265625,0.0,0.0
487.72265625,-25.390625,-18.5546875,-31.25,-32.2265625,-26.85546875,0.0
487.7265625,-31.73828125,-21.484375,-30.2734375,-31.73828125,-26.3671875,0.0
487.73046875,-26.3671875,-29.78515625,-29.78515625,-25.390625,32.71484375,0.0
487.734375,-19.04296875,-16.11328125,-25.390625,-5.37109375,0.0,0.0
487.73828125,-32.71484375,-41.50390625,-29.296875,-17.08984375,-35.64453125,0.0
487.7421875,-40.0390625,-57.12890625,-23.92578125,-21.97265625,26.85546875,0.0
487.74609375,-39.0625,-46.875,-20.5078125,-15.13671875,59.5703125,0.0
487.75,-34.66796875,-54.19921875,-27.34375,-23.4375,47.36328125,0.0
487.75390625,-35.64453125,-44.921875,-22.94921875,-28.3203125,30.76171875,0.0
487.7578125,-45.8984375,-28.80859375,-15.625,-34.1796875,18.06640625,0.0
487.76171875,-45.41015625,-29.296875,-15.625,-35.64453125,41.50390625,0.0
487.765625,-38.57421875,-45.8984375,-23.92578125,-47.36328125,21.97265625,0.0
487.76953125,-39.55078125,-47.36328125,-36.62109375,-64.94140625,24.4140625,0.0
487.7734375,-45.41015625,-27.83203125,-46.38671875,-54.19921875,8.30078125,0.0
487.77734375,-42.96875,-24.4140625,-61.03515625,-40.52734375,-5.859375,0.0
487.78125,-36.62109375,-38.0859375,-50.78125,-37.59765625,-5.37109375,0.0
487.78515625,-33.69140625,-46.38671875,-34.1796875,-42.48046875,37.109375,0.0
487.7890625,-38.0859375,-35.15625,-26.85546875,-40.0390625,-7.32421875,0.0
487.79296875,-31.73828125,-24.4140625,-16.6015625,-20.01953125,-80.56640625,0.0
487.796875,-28.3203125,-26.3671875,-20.01953125,-29.296875,-87.40234375,0.0
487.80078125,-39.0625,-23.4375,-31.73828125,-33.69140625,-76.66015625,0.0
487.8046875,-43.45703125,-13.671875,-32.2265625,-20.5078125,-22.94921875,0.0
487.80859375,-46.38671875,-21.484375,-24.90234375,-44.43359375,-70.3125,0.0
487.8125,-54.6875,-23.4375,-24.90234375,-59.5703125,-97.65625,0.0
487.81640625,-66.40625,-35.15625,-55.17578125,-64.94140625,-61.5234375,0.0
487.8203125,-53.7109375,-45.41015625,-67.3828125,-78.61328125,-101.07421875,0.0
487.82421875,-40.0390625,-40.52734375,-39.0625,-59.08203125,-59.08203125,0.0
487.828125,-36.1328125,-24.90234375,-42.96875,-43.45703125,36.1328125,0.0
487.83203125,-29.78515625,-29.296875,-51.26953125,-48.33984375,22.94921875,0.0
487.8359375,-15.625,-35.64453125,-43.45703125,-38.0859375,-18.5546875,0.0
487.83984375,-1.953125,-20.99609375,-44.921875,-19.53125,2.9296875,0.0
487.84375,-10.25390625,-29.78515625,-31.73828125,-16.11328125,-118.1640625,0.0
487.84765625,-20.99609375,-30.76171875,-5.37109375,-11.23046875,-213.8671875,0.0
487.8515625,-21.484375,-19.53125,-1.46484375,-8.30078125,-222.65625,0.0
487.85546875,-33.69140625,-39.55078125,-1.46484375,-14.6484375,-181.640625,0.0
487.859375,-38.0859375,-76.171875,-3.41796875,-36.1328125,67.87109375,0.0
487.86328125,-56.640625,-88.37890625,-11.23046875,-49.31640625,133.30078125,0.0
487.8671875,-55.6640625,-69.82421875,2.9296875,-26.85546875,43.45703125,0.0
487.87109375,-43.9453125,-43.45703125,15.625,-20.01953125,11.23046875,0.0
487.875,-50.78125,-46.38671875,8.7890625,-25.390625,-50.29296875,0.0
487.87890625,-45.41015625,-58.10546875,-7.8125,-7.32421875,-55.6640625,0.0
487.8828125,-40.52734375,-44.43359375,-18.06640625,-10.7421875,-35.64453125,0.0
487.88671875,-50.78125,-39.0625,-11.23046875,-15.625,-50.78125,0.0
487.890625,-64.453125,-67.3828125,-15.13671875,-33.203125,27.83203125,0.0
487.89453125,-64.453125,-74.70703125,-19.04296875,-38.0859375,46.875,0.0
487.8984375,-55.6640625,-40.52734375,-6.34765625,-33.203125,31.73828125,0.0
487.90234375,-48.33984375,-13.671875,7.32421875,-30.76171875,129.39453125,0.0
487.90625,-57.6171875,-50.29296875,-8.30078125,-39.55078125,84.47265625,0.0
487.91015625,-61.5234375,-83.49609375,-33.69140625,-55.6640625,-35.15625,0.0
487.9140625,-43.9453125,-69.82421875,-23.92578125,-53.22265625,-53.22265625,0.0
487.91796875,-41.9921875,-62.98828125,-16.11328125,-45.8984375,8.7890625,0.0
487.921875,-56.640625,-45.8984375,-14.6484375,-24.90234375,-6.34765625,0.0
487.92578125,-64.94140625,-42.96875,-4.8828125,-24.90234375,-113.76953125,0.0
487.9296875,-69.82421875,-56.15234375,-7.8125,-39.55078125,-142.578125,0.0
487.93359375,-76.171875,-57.12890625,-22.4609375,-45.8984375,-24.90234375,0.0
487.9375,-76.66015625,-50.78125,-27.83203125,-45.41015625,-70.3125,0.0
487.94140625,-77.63671875,-48.828125,-28.80859375,-30.2734375,-215.8203125,0.0
487.9453125,-55.17578125,-32.2265625,-29.296875,-23.92578125,-69.82421875,0.0
487.94921875,-36.62109375,-26.85546875,-26.85546875,-28.3203125,6.8359375,0.0
487.953125,-49.8046875,-51.26953125,-24.90234375,-38.0859375,-119.140625,0.0
487.95703125,-52.24609375,-65.91796875,-17.578125,-49.31640625,-105.95703125,0.0
487.9609375,-39.55078125,-64.94140625,-16.11328125,-44.43359375,-27.83203125,0.0
487.96484375,-29.296875,-57.12890625,-13.18359375,-41.015625,44.921875,0.0
487.96875,-24.90234375,-41.9921875,-12.20703125,-53.22265625,60.05859375,0.0
487.97265625,-27.34375,-42.48046875,-28.80859375,-41.015625,24.4140625,0.0
487.9765625,-22.94921875,-66.89453125,-36.62109375,-19.53125,-17.08984375,0.0
487.98046875,-27.34375,-62.5,-22.94921875,-26.3671875,-83.984375,0.0
487.984375,-25.87890625,-30.76171875,-14.6484375,-27.83203125,-35.15625,0.0
487.98828125,-12.20703125,-29.296875,-20.5078125,-13.671875,-20.01953125,0.0
487.9921875,-13.671875,-20.99609375,-26.85546875,5.37109375,-156.25,0.0
487.99609375,-29.296875,-23.92578125,-35.64453125,3.41796875,-129.8828125,0.0
488.0,-15.625,-23.4375,-29.296875,-12.20703125,-74.70703125,0.0
488.00390625,2.44140625,-23.92578125,-21.97265625,-16.6015625,-129.8828125,0.0
488.0078125,-8.7890625,-45.8984375,-22.4609375,-14.6484375,-80.078125,0.0
488.01171875,-31.25,-62.5,-17.578125,-22.94921875,-30.2734375,0.0
488.015625,-35.15625,-62.01171875,-17.578125,-41.015625,-30.76171875,0.0
488.01953125,-24.4140625,-41.50390625,-10.25390625,-38.57421875,16.6015625,0.0
488.0234375,-9.765625,-24.90234375,0.48828125,-24.4140625,16.11328125,0.0
488.02734375,-13.671875,-31.73828125,-3.41796875,-23.92578125,10.7421875,0.0
488.03125,-22.4609375,-29.296875,-16.6015625,-32.2265625,-9.765625,0.0
488.03515625,-19.04296875,-31.73828125,-23.92578125,-33.203125,-17.578125,0.0
488.0390625,-25.390625,-37.59765625,-25.87890625,-29.78515625,-21.97265625,0.0
488.04296875,-35.64453125,-35.15625,-24.90234375,-37.109375,-59.08203125,0.0
488.046875,-35.64453125,-42.96875,-32.71484375,-39.0625,0.48828125,0.0
488.05078125,-44.921875,-46.38671875,-46.38671875,-39.55078125,53.22265625,0.0
488.0546875,-50.29296875,-41.50390625,-47.8515625,-39.55078125,8.7890625,0.0
488.05859375,-54.6875,-52.734375,-50.29296875,-33.203125,-24.4140625,0.0
488.0625,-53.22265625,-42.48046875,-44.921875,-42.48046875,-22.4609375,0.0
488.06640625,-41.9921875,-16.6015625,-33.203125,-44.43359375,-31.73828125,0.0
488.0703125,-44.921875,-30.2734375,-23.4375,-31.73828125,-0.9765625,0.0
488.07421875,-49.8046875,-46.38671875,-16.6015625,-44.43359375,-42.96875,0.0
488.078125,-44.43359375,-41.015625,-15.625,-55.6640625,-37.59765625,0.0
488.08203125,-40.0390625,-35.64453125,-17.578125,-50.78125,47.8515625,0.0
488.0859375,-47.8515625,-23.92578125,-24.90234375,-45.8984375,-27.34375,0.0
488.08984375,-57.6171875,-22.94921875,-29.78515625,-32.71484375,-112.3046875,0.0
488.09375,-53.22265625,-41.9921875,-35.64453125,-22.94921875,-85.44921875,0.0
488.09765625,-41.50390625,-60.546875,-31.73828125,-25.87890625,-69.3359375,0.0
488.1015625,-45.41015625,-72.75390625,-27.83203125,-33.203125,-59.08203125,0.0
488.10546875,-37.59765625,-55.6640625,-26.85546875,-28.80859375,-58.10546875,0.0
488.109375,-21.97265625,-34.66796875,-32.2265625,-18.5546875,-120.60546875,0.0
488.11328125,-29.296875,-58.59375,-25.87890625,-14.6484375,-100.5859375,0.0
488.1171875,-32.71484375,-68.84765625,-7.32421875,-16.6015625,-18.5546875,0.0
488.12109375,-20.01953125,-57.12890625,-5.859375,-16.6015625,-28.80859375,0.0
488.125,-20.01953125,-44.921875,-4.39453125,-18.06640625,2.9296875,0.0
488.12890625,-33.69140625,-40.0390625,-21.484375,-27.34375,42.48046875,0.0
488.1328125,-32.2265625,-28.80859375,-30.76171875,-20.01953125,50.29296875,0.0
488.13671875,-39.0625,-43.9453125,-30.76171875,-17.578125,32.71484375,0.0
488.140625,-36.62109375,-64.453125,-35.64453125,-23.92578125,-55.6640625,0.0
488.14453125,-29.78515625,-52.734375,-29.78515625,-4.8828125,8.7890625,0.0
488.1484375,-44.43359375,-48.828125,-22.94921875,-2.9296875,35.15625,0.0
488.15234375,-46.38671875,-46.38671875,-32.2265625,-31.25,-6.34765625,0.0
488.15625,-38.0859375,-33.69140625,-40.0390625,-34.66796875,44.43359375,0.0
488.16015625,-23.4375,-32.71484375,-31.25,-19.04296875,77.63671875,0.0
488.1640625,-25.390625,-39.0625,-30.76171875,-23.92578125,0.48828125,0.0
488.16796875,-41.015625,-46.875,-38.57421875,-41.50390625,-87.40234375,0.0
488.171875,-37.59765625,-41.50390625,-33.203125,-36.1328125,-57.6171875,0.0
488.17578125,-24.90234375,-44.43359375,-35.15625,-42.96875,-62.01171875,0.0
488.1796875,-7.8125,-44.43359375,-39.55078125,-32.71484375,-106.93359375,0.0
488.18359375,-12.6953125,-31.25,-31.25,-26.85546875,-187.01171875,0.0
488.1875,-29.78515625,-27.83203125,-33.203125,-42.48046875,-229.4921875,0.0
488.19140625,-36.62109375,-41.50390625,-42.96875,-43.9453125,-134.765625,0.0
488.1953125,-28.80859375,-45.41015625,-42.96875,-54.19921875,-68.359375,0.0
488.19921875,-22.94921875,-34.66796875,-37.109375,-59.08203125,4.8828125,0.0
488.203125,-16.6015625,-26.85546875,-38.0859375,-43.45703125,-27.34375,0.0
488.20703125,-34.1796875,-20.01953125,-44.921875,-39.0625,-83.49609375,0.0
488.2109375,-43.45703125,-30.76171875,-40.0390625,-48.33984375,-109.86328125,0.0
488.21484375,-19.53125,-37.109375,-28.80859375,-56.640625,-52.734375,0.0
488.21875,-24.4140625,-23.92578125,-28.3203125,-45.41015625,36.62109375,0.0
488.22265625,-22.4609375,-8.7890625,-33.69140625,-36.1328125,-63.4765625,0.0
488.2265625,0.48828125,-11.71875,-35.15625,-29.296875,-40.52734375,0.0
488.23046875,-8.30078125,1.46484375,-30.2734375,-20.5078125,0.48828125,0.0
488.234375,-27.83203125,-6.8359375,-22.94921875,-26.3671875,-52.734375,0.0
488.23828125,-26.85546875,-24.4140625,-14.16015625,-35.15625,-92.7734375,0.0
488.2421875,-31.73828125,-24.4140625,-8.7890625,-46.875,-134.27734375,0.0
488.24609375,-44.43359375,-33.69140625,-16.6015625,-48.33984375,-111.81640625,0.0
488.25,-43.45703125,-26.85546875,-31.73828125,-53.22265625,-15.625,0.0
488.25390625,-40.52734375,-25.87890625,-48.828125,-61.5234375,-51.7578125,0.0
488.2578125,-41.9921875,-33.69140625,-40.0390625,-46.38671875,-151.3671875,0.0
488.26171875,-44.921875,-27.83203125,-30.76171875,-38.0859375,-34.1796875,0.0
488.265625,-48.33984375,-21.484375,-29.78515625,-46.38671875,132.8125,0.0
488.26953125,-44.921875,-38.0859375,-16.6015625,-53.22265625,74.21875,0.0
488.2734375,-44.43359375,-56.640625,-17.578125,-47.36328125,-15.13671875,0.0
488.27734375,-38.0859375,-43.9453125,-34.66796875,-39.55078125,-15.13671875,0.0
488.28125,-40.0390625,-13.18359375,-43.45703125,-45.41015625,10.25390625,0.0
488.28515625,-46.875,-19.04296875,-32.71484375,-41.015625,5.859375,0.0
488.2890625,-36.62109375,-49.8046875,-14.6484375,-32.2265625,21.97265625,0.0
488.29296875,-33.69140625,-57.6171875,-20.99609375,-24.90234375,-17.08984375,0.0
488.296875,-34.1796875,-47.8515625,-38.57421875,-25.87890625,-21.97265625,0.0
488.30078125,-32.71484375,-36.1328125,-29.78515625,-29.78515625,37.109375,0.0
488.3046875,-41.9921875,-30.2734375,-16.6015625,-23.4375,-30.2734375,0.0
488.30859375,-45.41015625,-31.73828125,-18.5546875,-16.11328125,-32.2265625,0.0
488.3125,-35.64453125,-30.76171875,-33.69140625,-20.99609375,32.71484375,0.0
488.31640625,-36.1328125,-48.33984375,-42.48046875,-34.66796875,28.3203125,0.0
488.3203125,-33.203125,-39.55078125,-27.83203125,-46.875,38.57421875,0.0
488.32421875,-29.78515625,-26.85546875,-22.4609375,-41.015625,-26.85546875,0.0
488.328125,-30.76171875,-51.7578125,-27.83203125,-28.3203125,-64.453125,0.0
488.33203125,-24.90234375,-55.6640625,-49.8046875,-30.76171875,-5.37109375,0.0
488.3359375,-22.4609375,-53.7109375,-73.2421875,-41.015625,-23.4375,0.0
488.33984375,-19.53125,-40.0390625,-51.7578125,-46.875,-57.6171875,0.0
488.34375,-15.13671875,-13.671875,-25.390625,-46.875,-5.859375,0.0
488.34765625,-13.671875,-10.25390625,-36.1328125,-36.62109375,-23.92578125,0.0
488.3515625,-15.625,-20.99609375,-35.64453125,-23.4375,-43.9453125,0.0
488.35546875,-20.01953125,-25.87890625,-14.6484375,-36.62109375,-13.18359375,0.0
488.359375,-16.11328125,-21.97265625,-5.859375,-37.109375,-27.34375,0.0
488.36328125,-24.4140625,-33.69140625,-31.25,-44.43359375,-67.3828125,0.0
488.3671875,-32.71484375,-29.78515625,-46.38671875,-46.875,-29.78515625,0.0
488.37109375,-17.578125,-11.23046875,-41.9921875,-30.2734375,11.71875,0.0
488.375,-30.2734375,-33.69140625,-53.22265625,-31.73828125,-38.57421875,0.0
488.37890625,-48.828125,-65.91796875,-51.26953125,-32.71484375,-37.109375,0.0
488.3828125,-34.66796875,-76.66015625,-36.1328125,-47.8515625,24.4140625,0.0
488.38671875,-30.2734375,-60.546875,-26.85546875,-53.7109375,20.01953125,0.0
488.390625,-55.17578125,-37.59765625,-31.25,-50.78125,-93.75,0.0
488.39453125,-57.6171875,-28.80859375,-34.1796875,-44.43359375,-127.44140625,0.0
488.3984375,-32.2265625,-21.97265625,-21.484375,-13.18359375,2.9296875,0.0
488.40234375,-30.2734375,-28.80859375,-16.11328125,-23.4375,91.796875,0.0
488.40625,-47.8515625,-41.50390625,-27.34375,-51.26953125,-14.16015625,0.0
488.41015625,-68.359375,-40.0390625,-35.64453125,-46.38671875,-67.87109375,0.0
488.4140625,-76.171875,-15.13671875,-31.25,-46.38671875,-60.05859375,0.0
488.41796875,-75.1953125,-17.578125,-28.3203125,-68.84765625,-28.80859375,0.0
488.421875,-86.42578125,-47.8515625,-29.296875,-87.890625,27.34375,0.0
488.42578125,-115.234375,-54.19921875,-36.62109375,-98.6328125,-40.0390625,0.0
488.4296875,-130.859375,-56.15234375,-35.64453125,-118.65234375,-123.53515625,0.0
488.43359375,-131.34765625,-51.26953125,-29.78515625,-131.34765625,-217.28515625,0.0
488.4375,-142.578125,-43.9453125,-32.71484375,-127.44140625,-269.04296875,0.0
488.44140625,-150.87890625,-30.76171875,-26.85546875,-127.44140625,-149.90234375,0.0
488.4453125,-146.97265625,-22.94921875,-26.3671875,-154.78515625,-43.45703125,0.0
488.44921875,-156.73828125,-34.1796875,-37.59765625,-181.640625,-30.76171875,0.0
488.453125,-160.15625,-26.85546875,-36.1328125,-185.546875,-64.453125,0.0
488.45703125,-158.69140625,-17.08984375,-46.38671875,-183.59375,-15.625,0.0
488.4609375,-171.38671875,-13.18359375,-62.01171875,-204.58984375,62.01171875,0.0
488.46484375,-178.22265625,-3.90625,-59.08203125,-202.63671875,31.25,0.0
488.46875,-186.03515625,3.90625,-51.26953125,-181.640625,-23.4375,0.0
488.47265625,-209.47265625,-28.80859375,-54.19921875,-209.9609375,6.8359375,0.0
488.4765625,-207.03125,-53.7109375,-52.734375,-236.328125,44.921875,0.0
488.48046875,-195.3125,-37.109375,-44.921875,-221.19140625,14.16015625,0.0
488.484375,-208.984375,-31.25,-41.015625,-215.8203125,42.48046875,0.0
488.48828125,-208.0078125,-41.9921875,-34.1796875,-231.4453125,82.51953125,0.0
488.4921875,-190.4296875,-57.12890625,-43.45703125,-229.4921875,14.6484375,0.0
488.49609375,-174.31640625,-56.640625,-43.9453125,-200.1953125,-82.03125,0.0
488.5,-176.7578125,-22.4609375,-26.3671875,-183.10546875,-111.81640625,0.0
488.50390625,-170.8984375,-12.20703125,-23.92578125,-180.6640625,-113.76953125,0.0
488.5078125,-151.3671875,-14.16015625,-43.45703125,-175.29296875,-79.1015625,0.0
488.51171875,-152.83203125,-32.71484375,-63.4765625,-162.109375,-24.90234375,0.0
488.515625,-136.23046875,-47.8515625,-44.43359375,-143.06640625,-61.5234375,0.0
488.51953125,-119.62890625,-56.15234375,-26.85546875,-125.0,-76.66015625,0.0
488.5234375,-110.83984375,-60.05859375,-28.80859375,-108.88671875,-27.34375,0.0
488.52734375,-112.3046875,-49.31640625,-29.78515625,-95.21484375,-62.01171875,0.0
488.53125,-105.95703125,-51.26953125,-26.85546875,-77.63671875,-125.9765625,0.0
488.53515625,-70.80078125,-62.01171875,-36.62109375,-49.8046875,-102.05078125,0.0
488.5390625,-50.78125,-68.359375,-41.015625,-44.43359375,-98.6328125,0.0
488.54296875,-32.71484375,-52.734375,-33.203125,-48.33984375,-55.6640625,0.0
488.546875,-19.04296875,-22.4609375,-26.3671875,-43.45703125,-76.171875,0.0
488.55078125,-10.25390625,-28.3203125,-25.87890625,-20.01953125,-115.72265625,0.0
488.5546875,5.37109375,-31.73828125,-30.76171875,0.48828125,-101.5625,0.0
488.55859375,21.484375,-11.23046875,-36.62109375,18.5546875,-34.66796875,0.0
488.5625,33.203125,-7.8125,-40.0390625,39.0625,57.12890625,0.0
488.56640625,42.96875,-20.5078125,-44.921875,32.71484375,72.75390625,0.0
488.5703125,44.921875,-48.33984375,-48.33984375,37.59765625,27.34375,0.0
488.57421875,40.0390625,-59.08203125,-45.41015625,49.31640625,-15.625,0.0
488.578125,46.875,-48.33984375,-43.45703125,48.33984375,-19.53125,0.0
488.58203125,49.31640625,-30.2734375,-34.1796875,41.015625,-26.3671875,0.0
488.5859375,43.45703125,-17.08984375,-22.94921875,31.25,-9.765625,0.0
488.58984375,44.43359375,-22.94921875,-23.4375,23.92578125,-25.87890625,0.0
488.59375,54.19921875,-32.2265625,-35.15625,37.59765625,-35.64453125,0.0
488.59765625,55.17578125,-33.69140625,-47.36328125,55.6640625,18.06640625,0.0
488.6015625,49.31640625,-17.578125,-35.15625,54.6875,16.6015625,0.0
488.60546875,52.734375,-17.08984375,-26.3671875,44.43359375,-20.99609375,0.0
488.609375,50.29296875,-20.5078125,-25.390625,43.45703125,-59.08203125,0.0
488.61328125,42.48046875,-36.62109375,-26.85546875,48.828125,-31.25,0.0
488.6171875,48.828125,-65.4296875,-30.76171875,60.546875,35.15625,0.0
488.62109375,58.59375,-63.4765625,-29.78515625,76.171875,27.83203125,0.0
488.625,65.91796875,-37.109375,-18.06640625,68.359375,2.44140625,0.0
488.62890625,61.03515625,-29.78515625,-13.671875,65.4296875,53.22265625,0.0
488.6328125,48.828125,-43.9453125,-18.5546875,64.453125,64.94140625,0.0
488.63671875,49.8046875,-48.828125,-10.7421875,45.8984375,-72.75390625,0.0
488.640625,55.17578125,-30.2734375,-9.27734375,47.8515625,-144.53125,0.0
488.64453125,49.8046875,-18.06640625,-23.4375,41.50390625,-112.79296875,0.0
488.6484375,43.45703125,-14.6484375,-26.85546875,34.66796875,-82.51953125,0.0
488.65234375,40.0390625,-14.16015625,-29.78515625,45.41015625,-88.8671875,0.0
488.65625,50.29296875,-17.578125,-39.55078125,46.38671875,-47.36328125,0.0
488.66015625,55.6640625,-27.83203125,-32.71484375,46.875,-27.34375,0.0
488.6640625,43.9453125,-23.4375,-18.06640625,44.43359375,-0.9765625,0.0
488.66796875,41.9921875,-17.08984375,-23.4375,34.1796875,-10.25390625,0.0
488.671875,38.57421875,-20.99609375,-24.4140625,40.52734375,-119.62890625,0.0
488.67578125,22.4609375,-29.78515625,-20.01953125,29.296875,-125.0,0.0
488.6796875,16.11328125,-32.71484375,-18.5546875,22.94921875,-26.85546875,0.0
488.68359375,27.83203125,-10.7421875,-28.3203125,36.1328125,64.94140625,0.0
488.6875,36.1328125,-10.25390625,-30.2734375,23.4375,60.05859375,0.0
488.69140625,33.203125,-24.4140625,-16.6015625,22.94921875,-12.20703125,0.0
488.6953125,37.109375,-19.53125,-19.04296875,31.73828125,-58.10546875,0.0
488.69921875,26.85546875,-19.53125,-31.73828125,19.53125,-91.796875,0.0
488.703125,8.30078125,-37.59765625,-31.25,-1.46484375,-29.78515625,0.0
488.70703125,27.34375,-17.08984375,-16.11328125,17.578125,5.37109375,0.0
488.7109375,27.34375,-12.6953125,-14.16015625,20.01953125,-33.69140625,0.0
488.71484375,13.18359375,-56.15234375,-22.94921875,10.25390625,-37.59765625,0.0
488.71875,22.4609375,-59.5703125,-19.04296875,32.2265625,-8.7890625,0.0
488.72265625,18.5546875,-36.62109375,-18.06640625,27.83203125,-1.953125,0.0
488.7265625,13.18359375,-29.296875,-30.2734375,5.859375,-1.953125,0.0
488.73046875,3.90625,-20.01953125,-31.73828125,-10.7421875,53.22265625,0.0
488.734375,-4.8828125,-19.04296875,-30.76171875,-14.16015625,10.7421875,0.0
488.73828125,-3.41796875,-35.15625,-29.78515625,-1.46484375,-40.0390625,0.0
488.7421875,-7.32421875,-28.3203125,-24.4140625,0.9765625,-12.6953125,0.0
488.74609375,9.765625,-5.859375,-13.671875,-4.8828125,14.16015625,0.0
488.75,30.76171875,-14.6484375,-14.6484375,-3.90625,0.48828125,0.0
488.75390625,27.34375,-46.875,-29.78515625,-3.90625,-103.02734375,0.0
488.7578125,30.76171875,-59.08203125,-25.87890625,7.32421875,-94.7265625,0.0
488.76171875,34.66796875,-33.203125,-14.6484375,28.80859375,-53.22265625,0.0
488.765625,30.2734375,-1.46484375,-4.8828125,27.34375,-46.875,0.0
488.76953125,27.34375,-13.671875,-0.9765625,8.30078125,-35.64453125,0.0
488.7734375,20.01953125,-31.25,-17.578125,0.48828125,-28.80859375,0.0
488.77734375,7.8125,-27.34375,-17.08984375,-10.7421875,-66.40625,0.0
488.78125,-10.7421875,-33.203125,-16.11328125,-23.92578125,-126.953125,0.0
488.78515625,-16.6015625,-31.73828125,-14.16015625,-14.16015625,-87.40234375,0.0
488.7890625,-28.3203125,-27.83203125,-15.625,-25.390625,-77.1484375,0.0
488.79296875,-38.0859375,-29.78515625,-39.55078125,-33.69140625,-127.9296875,0.0
488.796875,-25.390625,-44.43359375,-46.875,-19.53125,-106.4453125,0.0
488.80078125,-14.6484375,-48.828125,-31.73828125,-6.34765625,-74.21875,0.0
488.8046875,-20.99609375,-34.1796875,-23.4375,-22.4609375,-136.23046875,0.0
488.80859375,-20.01953125,-19.53125,-32.71484375,-39.0625,-194.3359375,0.0
488.8125,-8.7890625,-18.06640625,-29.78515625,-24.4140625,-125.0,0.0
488.81640625,-5.859375,-35.64453125,-18.06640625,-9.27734375,-55.6640625,0.0
488.8203125,-15.13671875,-45.41015625,-20.01953125,-7.32421875,-4.8828125,0.0
488.82421875,-15.13671875,-33.69140625,-17.08984375,-17.578125,94.7265625,0.0
488.828125,-17.578125,-31.73828125,-21.97265625,-18.06640625,79.58984375,0.0
488.83203125,-21.97265625,-35.15625,-30.2734375,-17.08984375,-46.875,0.0
488.8359375,-15.13671875,-25.87890625,-30.2734375,-21.97265625,-90.8203125,0.0
488.83984375,-10.7421875,-20.99609375,-37.109375,-31.73828125,-65.91796875,0.0
488.84375,-3.90625,-19.04296875,-46.38671875,-14.16015625,15.13671875,0.0
488.84765625,-10.25390625,-33.203125,-51.26953125,0.9765625,15.13671875,0.0
488.8515625,-24.90234375,-45.41015625,-55.17578125,-9.765625,-11.71875,0.0
488.85546875,-24.90234375,-51.26953125,-42.48046875,-14.6484375,7.32421875,0.0
488.859375,-14.6484375,-44.43359375,-19.04296875,-8.7890625,40.0390625,0.0
488.86328125,-12.6953125,-36.1328125,-17.08984375,-19.53125,-9.27734375,0.0
488.8671875,-22.94921875,-37.59765625,-32.71484375,-28.3203125,-63.4765625,0.0
488.87109375,-33.203125,-26.85546875,-33.69140625,-13.18359375,-8.30078125,0.0
488.875,-39.55078125,-19.53125,-32.71484375,-3.90625,21.97265625,0.0
488.87890625,-41.015625,-33.203125,-34.1796875,-10.7421875,10.25390625,0.0
488.8828125,-36.62109375,-42.48046875,-29.296875,-16.11328125,-28.80859375,0.0
488.88671875,-27.83203125,-32.2265625,-20.01953125,-18.5546875,-85.9375,0.0
488.890625,-21.97265625,-20.99609375,-16.6015625,-34.1796875,-81.0546875,0.0
488.89453125,-21.97265625,-28.80859375,-24.4140625,-23.4375,-52.734375,0.0
488.8984375,-22.4609375,-40.52734375,-27.83203125,-1.953125,-48.33984375,0.0
488.90234375,-29.78515625,-51.26953125,-27.34375,-14.16015625,12.6953125,0.0
488.90625,-33.69140625,-48.828125,-27.34375,-10.25390625,93.75,0.0
488.91015625,-33.203125,-37.59765625,-19.53125,-8.30078125,78.125,0.0
488.9140625,-38.0859375,-35.15625,-26.3671875,-20.5078125,33.203125,0.0
488.91796875,-36.1328125,-48.828125,-33.203125,-19.53125,58.10546875,0.0
488.921875,-27.83203125,-51.7578125,-34.1796875,-15.13671875,57.6171875,0.0
488.92578125,-25.87890625,-37.59765625,-45.8984375,-16.11328125,30.76171875,0.0
488.9296875,-19.04296875,-26.85546875,-46.875,-25.87890625,7.32421875,0.0
488.93359375,-27.83203125,-39.55078125,-42.48046875,-38.57421875,-41.015625,0.0
488.9375,-40.52734375,-40.0390625,-37.109375,-39.0625,-12.6953125,0.0
488.94140625,-32.71484375,-19.04296875,-31.73828125,-44.43359375,53.7109375,0.0
488.9453125,-35.15625,-23.92578125,-32.71484375,-44.43359375,-22.4609375,0.0
488.94921875,-35.64453125,-54.6875,-26.85546875,-34.66796875,-102.05078125,0.0
488.953125,-29.78515625,-56.15234375,-16.11328125,-44.921875,-105.95703125,0.0
488.95703125,-29.296875,-40.52734375,-12.6953125,-48.828125,-116.2109375,0.0
488.9609375,-29.78515625,-42.48046875,-17.08984375,-50.29296875,-152.83203125,0.0
488.96484375,-32.71484375,-34.1796875,-30.2734375,-55.17578125,-145.01953125,0.0
488.96875,-25.87890625,-23.4375,-38.0859375,-48.33984375,-109.375,0.0
488.97265625,-18.5546875,-40.0390625,-42.96875,-32.2265625,-121.58203125,0.0
488.9765625,-30.76171875,-44.921875,-37.109375,-32.71484375,-177.734375,0.0
488.98046875,-45.41015625,-42.96875,-25.87890625,-48.828125,-100.09765625,0.0
488.984375,-37.59765625,-46.38671875,-17.08984375,-40.0390625,20.99609375,0.0
488.98828125,-25.87890625,-31.25,-25.87890625,-26.85546875,-8.30078125,0.0
488.9921875,-27.83203125,-19.53125,-33.69140625,-30.76171875,-48.33984375,0.0
488.99609375,-37.109375,-33.203125,-28.3203125,-35.64453125,-69.82421875,0.0
489.0,-43.45703125,-37.109375,-20.99609375,-42.96875,-134.765625,0.0
489.00390625,-30.2734375,-28.80859375,-25.390625,-37.59765625,-86.42578125,0.0
489.0078125,-21.484375,-41.015625,-41.50390625,-33.69140625,-24.90234375,0.0
489.01171875,-30.2734375,-55.17578125,-37.59765625,-37.109375,11.71875,0.0
489.015625,-46.875,-45.8984375,-37.109375,-48.33984375,83.49609375,0.0
489.01953125,-32.71484375,-24.90234375,-41.50390625,-51.26953125,-54.6875,0.0
489.0234375,-25.87890625,-13.671875,-37.59765625,-50.29296875,-38.57421875,0.0
489.02734375,-39.55078125,-8.30078125,-30.76171875,-46.38671875,51.7578125,0.0
489.03125,-33.203125,-19.04296875,-23.92578125,-43.45703125,-9.27734375,0.0
489.03515625,-31.25,-45.41015625,-36.62109375,-52.24609375,19.04296875,0.0
489.0390625,-35.64453125,-55.17578125,-51.26953125,-51.26953125,39.0625,0.0
489.04296875,-32.2265625,-43.45703125,-43.45703125,-51.7578125,14.16015625,0.0
489.046875,-15.625,-25.87890625,-19.04296875,-41.9921875,31.25,0.0
489.05078125,-18.5546875,-31.25,-20.5078125,-30.2734375,6.34765625,0.0
489.0546875,-33.203125,-35.15625,-28.3203125,-38.0859375,-89.84375,0.0
489.05859375,-37.59765625,-27.34375,-22.4609375,-34.1796875,-202.63671875,0.0
489.0625,-41.50390625,-26.3671875,-15.625,-21.484375,-237.3046875,0.0
489.06640625,-37.109375,-33.203125,-10.25390625,-16.6015625,-108.88671875,0.0
489.0703125,-29.78515625,-27.83203125,-16.11328125,-13.671875,-16.6015625,0.0
489.07421875,-24.4140625,-31.73828125,-27.83203125,-16.6015625,-93.26171875,0.0
489.078125,-17.578125,-43.45703125,-21.97265625,-27.34375,-103.02734375,0.0
489.08203125,-21.484375,-36.1328125,-21.97265625,-19.53125,-110.83984375,0.0
489.0859375,-35.64453125,-35.15625,-24.4140625,-13.18359375,-81.0546875,0.0
489.08984375,-37.109375,-48.33984375,-36.1328125,-27.83203125,58.10546875,0.0
489.09375,-32.71484375,-43.45703125,-42.96875,-26.85546875,-56.15234375,0.0
489.09765625,-36.62109375,-30.2734375,-27.34375,-16.11328125,-180.17578125,0.0
489.1015625,-40.0390625,-30.2734375,-15.625,-26.85546875,-120.1171875,0.0
489.10546875,-37.109375,-19.04296875,-11.71875,-31.25,-140.13671875,0.0
489.109375,-30.76171875,-10.25390625,-16.6015625,-17.578125,-160.64453125,0.0
489.11328125,-30.76171875,-42.96875,-25.390625,-25.87890625,-108.3984375,0.0
489.1171875,-41.015625,-41.50390625,-22.94921875,-37.59765625,-84.9609375,0.0
489.12109375,-33.69140625,-6.34765625,-11.23046875,-33.69140625,-88.37890625,0.0
489.125,-22.4609375,-13.671875,-10.25390625,-13.671875,-37.59765625,0.0
489.12890625,-22.94921875,-27.83203125,-36.62109375,-25.87890625,-37.59765625,0.0
489.1328125,-28.80859375,-36.62109375,-52.24609375,-53.22265625,-44.43359375,0.0
489.13671875,-26.85546875,-37.109375,-35.64453125,-35.15625,-60.05859375,0.0
489.140625,-28.3203125,-24.4140625,-37.109375,-36.62109375,-123.046875,0.0
489.14453125,-39.0625,-26.85546875,-40.52734375,-59.08203125,-50.29296875,0.0
489.1484375,-28.3203125,-35.64453125,-34.1796875,-47.36328125,-12.20703125,0.0
489.15234375,-25.87890625,-34.66796875,-29.296875,-42.48046875,-92.28515625,0.0
489.15625,-34.66796875,-43.9453125,-30.2734375,-41.9921875,-61.5234375,0.0
489.16015625,-20.5078125,-43.9453125,-29.296875,-20.5078125,-37.109375,0.0
489.1640625,-12.6953125,-14.6484375,-12.20703125,-2.9296875,-50.78125,0.0
489.16796875,-27.83203125,-9.765625,-25.87890625,-16.11328125,-87.890625,0.0
489.171875,-37.59765625,-28.3203125,-40.0390625,-37.109375,-157.71484375,0.0
489.17578125,-42.48046875,-53.7109375,-40.0390625,-40.0390625,-160.64453125,0.0
489.1796875,-41.50390625,-63.96484375,-35.64453125,-35.15625,-104.98046875,0.0
489.18359375,-40.52734375,-42.48046875,-25.390625,-26.3671875,-53.7109375,0.0
489.1875,-45.41015625,-16.11328125,-26.85546875,-39.0625,3.41796875,0.0
489.19140625,-41.015625,-16.6015625,-24.90234375,-41.50390625,36.1328125,0.0
489.1953125,-42.96875,-31.25,-23.92578125,-40.0390625,-13.671875,0.0
489.19921875,-39.0625,-51.7578125,-35.15625,-39.0625,-76.171875,0.0
489.203125,-18.06640625,-43.9453125,-47.36328125,-16.11328125,-104.4921875,0.0
489.20703125,-20.01953125,-26.85546875,-46.38671875,-29.78515625,-87.40234375,0.0
489.2109375,-38.57421875,-19.04296875,-20.5078125,-42.48046875,-99.12109375,0.0
489.21484375,-46.875,-21.97265625,-9.765625,-30.2734375,-69.82421875,0.0
489.21875,-42.48046875,-37.59765625,-26.85546875,-21.97265625,-42.96875,0.0
489.22265625,-35.64453125,-47.8515625,-41.015625,-15.625,-131.8359375,0.0
489.2265625,-39.55078125,-43.45703125,-24.4140625,-24.90234375,-33.69140625,0.0
489.23046875,-32.2265625,-29.296875,3.41796875,-20.99609375,56.640625,0.0
489.234375,-26.3671875,-28.80859375,-14.16015625,-19.53125,-15.625,0.0
489.23828125,-27.34375,-30.76171875,-30.2734375,-22.94921875,33.203125,0.0
489.2421875,-15.13671875,-31.25,-17.578125,-27.83203125,108.88671875,0.0
489.24609375,-13.671875,-21.484375,-18.06640625,-18.06640625,124.0234375,0.0
489.25,-14.6484375,-22.94921875,-28.3203125,-6.34765625,108.3984375,0.0
489.25390625,-17.08984375,-38.0859375,-35.15625,-23.92578125,79.1015625,0.0
489.2578125,-19.53125,-28.80859375,-21.484375,-36.1328125,62.98828125,0.0
489.26171875,-13.671875,-28.80859375,-18.06640625,-33.69140625,124.0234375,0.0
489.265625,-13.18359375,-20.5078125,-33.203125,-26.3671875,105.46875,0.0
489.26953125,-18.5546875,-18.5546875,-50.78125,-25.87890625,37.109375,0.0
489.2734375,-25.390625,-49.8046875,-44.921875,-29.78515625,-25.87890625,0.0
489.27734375,-26.85546875,-48.33984375,-28.80859375,-23.92578125,-33.203125,0.0
489.28125,-31.73828125,-29.296875,-31.25,-30.2734375,0.48828125,0.0
489.28515625,-38.57421875,-29.296875,-15.13671875,-31.25,-7.32421875,0.0
489.2890625,-45.8984375,-29.78515625,-8.30078125,-18.06640625,-32.71484375,0.0
489.29296875,-41.015625,-29.78515625,-29.296875,-28.80859375,-16.6015625,0.0
489.296875,-42.48046875,-33.203125,-35.64453125,-56.640625,0.0,0.0
489.30078125,-56.640625,-30.76171875,-26.3671875,-44.43359375,-50.78125,0.0
489.3046875,-50.29296875,-20.01953125,-20.01953125,-28.80859375,-46.38671875,0.0
489.30859375,-48.33984375,-32.71484375,-14.6484375,-43.45703125,-53.22265625,0.0
489.3125,-42.96875,-33.203125,-24.90234375,-41.015625,-53.7109375,0.0
489.31640625,-60.546875,-50.78125,-55.17578125,-45.8984375,-43.9453125,0.0
489.3203125,-62.5,-59.08203125,-61.03515625,-45.41015625,-22.4609375,0.0
489.32421875,-35.15625,-32.2265625,-37.59765625,-28.3203125,45.41015625,0.0
489.328125,-27.83203125,-27.83203125,-28.80859375,-21.97265625,56.640625,0.0
489.33203125,-30.2734375,-31.73828125,-36.1328125,-24.4140625,-2.9296875,0.0
489.3359375,-33.203125,-54.19921875,-49.31640625,-36.62109375,-49.8046875,0.0
489.33984375,-39.0625,-69.82421875,-52.734375,-32.71484375,-40.0390625,0.0
489.34375,-39.55078125,-43.45703125,-46.875,-27.34375,-0.48828125,0.0
489.34765625,-25.390625,-29.78515625,-35.15625,-44.921875,-43.45703125,0.0
489.3515625,-26.85546875,-24.90234375,-22.94921875,-38.0859375,-132.32421875,0.0
489.35546875,-32.71484375,-27.34375,-18.06640625,-17.578125,-99.609375,0.0
489.359375,-27.83203125,-57.12890625,-33.69140625,-20.5078125,-26.85546875,0.0
489.36328125,-22.94921875,-51.7578125,-34.66796875,-29.296875,4.8828125,0.0
489.3671875,-21.97265625,-28.80859375,-22.94921875,-33.69140625,67.87109375,0.0
489.37109375,-21.97265625,-29.296875,-21.97265625,-34.1796875,59.5703125,0.0
489.375,-23.4375,-42.96875,-29.296875,-34.1796875,-30.76171875,0.0
489.37890625,-18.06640625,-45.41015625,-22.4609375,-18.5546875,-2.44140625,0.0
489.3828125,-0.48828125,-39.55078125,-11.71875,-3.90625,26.3671875,0.0
489.38671875,2.44140625,-28.80859375,-12.6953125,-5.859375,-15.13671875,0.0
489.390625,-6.34765625,-17.08984375,-20.99609375,-8.7890625,-38.57421875,0.0
489.39453125,-18.06640625,-25.390625,-35.64453125,-20.5078125,-40.0390625,0.0
489.3984375,-21.97265625,-23.92578125,-32.2265625,-39.0625,-69.3359375,0.0
489.40234375,-19.53125,-18.06640625,-25.87890625,-34.66796875,-16.11328125,0.0
489.40625,-18.5546875,-17.578125,-25.390625,-24.4140625,43.9453125,0.0
489.41015625,-22.4609375,-39.0625,-18.06640625,-27.34375,11.71875,0.0
489.4140625,-28.80859375,-69.82421875,-13.18359375,-23.4375,-39.0625,0.0
489.41796875,-27.83203125,-58.59375,-24.4140625,-23.92578125,-90.8203125,0.0
489.421875,-22.94921875,-41.50390625,-27.34375,-22.94921875,-35.64453125,0.0
489.42578125,-23.92578125,-41.015625,-10.7421875,-8.30078125,39.0625,0.0
489.4296875,-33.69140625,-45.8984375,-20.99609375,-24.4140625,-40.52734375,0.0
489.43359375,-38.0859375,-42.96875,-38.57421875,-47.8515625,-61.03515625,0.0
489.4375,-35.15625,-37.109375,-38.0859375,-28.80859375,-5.37109375,0.0
489.44140625,-33.69140625,-27.83203125,-38.0859375,-19.04296875,22.94921875,0.0
489.4453125,-17.578125,4.8828125,-33.69140625,-21.97265625,14.6484375,0.0
489.44921875,-13.671875,-1.46484375,-43.45703125,-27.83203125,-15.625,0.0
489.453125,-24.4140625,-38.57421875,-54.6875,-46.38671875,-29.296875,0.0
489.45703125,-29.78515625,-54.6875,-53.7109375,-48.828125,-50.78125,0.0
489.4609375,-28.80859375,-55.17578125,-55.6640625,-37.109375,-109.86328125,0.0
489.46484375,-10.7421875,-37.109375,-47.36328125,-29.78515625,-89.35546875,0.0
489.46875,0.0,-13.671875,-29.78515625,-28.3203125,-13.18359375,0.0
489.47265625,-15.13671875,-25.390625,-34.1796875,-39.0625,-29.78515625,0.0
489.4765625,-19.04296875,-31.73828125,-47.8515625,-45.8984375,16.11328125,0.0
489.48046875,-10.7421875,-10.25390625,-44.921875,-34.66796875,69.82421875,0.0
489.484375,-9.765625,-10.25390625,-47.36328125,-18.5546875,63.4765625,0.0
489.48828125,2.44140625,-10.25390625,-51.26953125,-28.80859375,81.54296875,0.0
489.4921875,5.37109375,-4.39453125,-35.64453125,-44.921875,-36.62109375,0.0
489.49609375,-19.04296875,-38.0859375,-29.296875,-37.59765625,-90.33203125,0.0
489.5,-32.71484375,-50.78125,-28.80859375,-38.57421875,29.78515625,0.0
489.50390625,-34.66796875,-43.45703125,-26.85546875,-50.29296875,54.6875,0.0
489.5078125,-29.78515625,-35.64453125,-25.87890625,-60.05859375,-62.98828125,0.0
489.51171875,-16.11328125,-16.6015625,-29.296875,-52.24609375,-57.6171875,0.0
489.515625,-18.06640625,-20.01953125,-36.62109375,-36.1328125,2.44140625,0.0
489.51953125,-26.3671875,-29.296875,-40.52734375,-41.50390625,-12.20703125,0.0
489.5234375,-22.94921875,-17.578125,-36.1328125,-41.50390625,-51.26953125,0.0
489.52734375,-21.97265625,-9.27734375,-21.97265625,-32.2265625,-3.90625,0.0
489.53125,-26.3671875,-16.11328125,-22.94921875,-32.71484375,60.546875,0.0
489.53515625,-35.15625,-32.71484375,-45.41015625,-44.43359375,32.2265625,0.0
489.5390625,-29.78515625,-29.78515625,-41.50390625,-39.0625,-20.5078125,0.0
489.54296875,-26.3671875,-13.671875,-21.97265625,-31.25,-83.49609375,0.0
489.546875,-34.66796875,-22.94921875,-28.3203125,-44.921875,-41.50390625,0.0
489.55078125,-41.015625,-46.875,-42.48046875,-50.29296875,-13.671875,0.0
489.5546875,-30.76171875,-47.8515625,-42.48046875,-33.69140625,-53.7109375,0.0
489.55859375,-20.5078125,-48.828125,-37.59765625,-28.3203125,-79.58984375,0.0
489.5625,-30.76171875,-35.64453125,-28.3203125,-32.2265625,-11.71875,0.0
489.56640625,-40.52734375,-5.859375,-35.64453125,-32.2265625,36.1328125,0.0
489.5703125,-33.203125,-20.01953125,-46.875,-39.0625,-19.04296875,0.0
489.57421875,-33.203125,-36.62109375,-43.9453125,-36.62109375,-64.94140625,0.0
489.578125,-39.0625,-33.69140625,-43.9453125,-35.64453125,-85.44921875,0.0
489.58203125,-29.296875,-30.2734375,-36.1328125,-43.45703125,-4.8828125,0.0
489.5859375,-25.390625,-5.859375,-21.97265625,-22.94921875,-29.78515625,0.0
489.58984375,-19.53125,-12.20703125,-26.85546875,-15.625,-80.56640625,0.0
489.59375,-12.6953125,-38.0859375,-35.64453125,-32.2265625,-25.390625,0.0
489.59765625,-17.08984375,-32.2265625,-33.69140625,-30.2734375,-33.203125,0.0
489.6015625,-22.94921875,-25.87890625,-25.87890625,-27.83203125,-55.17578125,0.0
489.60546875,-31.25,-40.0390625,-31.73828125,-32.2265625,14.6484375,0.0
489.609375,-23.4375,-26.85546875,-23.4375,-26.3671875,-15.625,0.0
489.61328125,-13.671875,-8.30078125,-16.11328125,-22.94921875,-40.0390625,0.0
489.6171875,-9.27734375,-41.50390625,-30.2734375,-2.9296875,-18.06640625,0.0
489.62109375,-8.7890625,-56.15234375,-28.3203125,-1.46484375,-25.87890625,0.0
489.625,-12.6953125,-33.69140625,-17.08984375,-25.87890625,-31.73828125,0.0
489.62890625,-12.6953125,-20.5078125,-20.01953125,-12.6953125,-70.80078125,0.0
489.6328125,-19.04296875,-11.23046875,-7.8125,-4.39453125,-19.04296875,0.0
489.63671875,-39.0625,-21.484375,0.0,-20.99609375,1.953125,0.0
489.640625,-51.7578125,-40.52734375,-35.15625,-21.97265625,-34.66796875,0.0
489.64453125,-46.875,-27.83203125,-32.71484375,-13.671875,-92.7734375,0.0
489.6484375,-50.29296875,-27.83203125,-10.7421875,-25.390625,-69.82421875,0.0
489.65234375,-65.4296875,-45.8984375,-18.06640625,-41.9921875,2.44140625,0.0
489.65625,-59.08203125,-55.17578125,-21.97265625,-46.38671875,19.53125,0.0
489.66015625,-43.9453125,-52.24609375,-18.06640625,-39.0625,58.10546875,0.0
489.6640625,-43.9453125,-41.015625,-11.23046875,-34.66796875,35.64453125,0.0
489.66796875,-43.9453125,-31.25,-8.30078125,-43.45703125,-83.49609375,0.0
489.671875,-46.38671875,-31.25,-9.27734375,-34.66796875,-56.15234375,0.0
489.67578125,-49.31640625,-49.31640625,-6.8359375,-30.76171875,21.484375,0.0
489.6796875,-44.43359375,-42.48046875,-15.625,-49.31640625,-23.92578125,0.0
489.68359375,-48.828125,-33.69140625,-28.80859375,-52.734375,-3.41796875,0.0
489.6875,-54.19921875,-31.25,-43.9453125,-40.52734375,-15.625,0.0
489.69140625,-27.83203125,-22.94921875,-37.109375,-21.97265625,-32.71484375,0.0
489.6953125,-21.97265625,-32.2265625,-36.62109375,-18.5546875,13.671875,0.0
489.69921875,-49.8046875,-38.57421875,-42.48046875,-27.34375,-34.66796875,0.0
489.703125,-54.19921875,-41.9921875,-25.87890625,-39.0625,-38.57421875,0.0
489.70703125,-45.8984375,-45.41015625,-20.01953125,-37.59765625,-60.05859375,0.0
489.7109375,-46.38671875,-44.921875,-21.484375,-23.4375,-59.08203125,0.0
489.71484375,-41.9921875,-46.38671875,-17.08984375,-30.76171875,-77.1484375,0.0
489.71875,-36.62109375,-38.0859375,-8.7890625,-48.33984375,-68.359375,0.0
489.72265625,-39.55078125,-31.73828125,-11.71875,-38.57421875,-86.9140625,0.0
489.7265625,-37.59765625,-22.4609375,-8.7890625,-25.87890625,-113.28125,0.0
489.73046875,-40.0390625,-7.8125,-18.06640625,-27.34375,-50.29296875,0.0
489.734375,-40.52734375,-25.390625,-25.390625,-20.99609375,-33.203125,0.0
489.73828125,-23.92578125,-33.203125,-18.06640625,-13.18359375,-60.546875,0.0
489.7421875,-14.6484375,-42.48046875,-16.11328125,-0.9765625,-79.1015625,0.0
489.74609375,-12.6953125,-42.96875,-25.390625,-2.9296875,-42.48046875,0.0
489.75,0.9765625,-15.13671875,-34.66796875,-18.06640625,-33.69140625,0.0
489.75390625,9.27734375,-16.6015625,-30.2734375,-29.78515625,-108.3984375,0.0
489.7578125,-8.30078125,-37.109375,-31.25,-33.69140625,-134.27734375,0.0
489.76171875,-26.85546875,-43.45703125,-24.90234375,-26.85546875,-39.0625,0.0
489.765625,-30.2734375,-28.80859375,-12.6953125,-23.4375,-12.6953125,0.0
489.76953125,-34.66796875,-31.25,-16.6015625,-25.390625,-6.8359375,0.0
489.7734375,-30.76171875,-42.96875,-25.390625,-19.53125,39.55078125,0.0
489.77734375,-22.4609375,-29.78515625,-34.1796875,-23.92578125,-6.34765625,0.0
489.78125,-13.18359375,-5.37109375,-31.25,-7.32421875,-38.0859375,0.0
489.78515625,-25.390625,-21.484375,-37.109375,-2.44140625,-23.4375,0.0
489.7890625,-37.109375,-40.52734375,-51.26953125,-25.390625,5.859375,0.0
489.79296875,-36.62109375,-38.0859375,-36.1328125,-29.78515625,43.45703125,0.0
489.796875,-38.0859375,-30.2734375,-28.3203125,-40.0390625,29.78515625,0.0
489.80078125,-42.96875,-34.66796875,-32.2265625,-44.921875,16.6015625,0.0
489.8046875,-53.7109375,-51.26953125,-28.80859375,-36.62109375,-82.03125,0.0
489.80859375,-53.7109375,-45.41015625,-27.34375,-45.41015625,-83.49609375,0.0
489.8125,-56.640625,-35.15625,-24.4140625,-53.22265625,-24.90234375,0.0
489.81640625,-55.17578125,-39.0625,-30.2734375,-46.875,-36.62109375,0.0
489.8203125,-41.015625,-28.3203125,-39.55078125,-39.55078125,6.34765625,0.0
489.82421875,-25.390625,-27.34375,-47.8515625,-35.15625,-57.12890625,0.0
489.828125,-14.6484375,-35.64453125,-53.7109375,-34.66796875,-116.2109375,0.0
489.83203125,-10.25390625,-39.55078125,-43.45703125,-30.2734375,-49.31640625,0.0
489.8359375,-22.94921875,-63.4765625,-33.69140625,-20.99609375,10.25390625,0.0
489.83984375,-31.25,-62.98828125,-32.71484375,-33.69140625,58.10546875,0.0
489.84375,-25.87890625,-35.64453125,-42.48046875,-59.08203125,64.453125,0.0
489.84765625,-21.97265625,-22.4609375,-41.015625,-58.10546875,-47.36328125,0.0
489.8515625,-31.73828125,-23.4375,-33.69140625,-53.7109375,-23.92578125,0.0
489.85546875,-46.38671875,-35.15625,-27.83203125,-52.734375,36.62109375,0.0
489.859375,-52.734375,-42.96875,-34.66796875,-47.36328125,78.125,0.0
489.86328125,-44.921875,-27.34375,-33.203125,-54.6875,42.48046875,0.0
489.8671875,-36.1328125,-16.6015625,-18.06640625,-50.29296875,-63.4765625,0.0
489.87109375,-34.1796875,-17.578125,-22.4609375,-27.83203125,-126.46484375,0.0
489.875,-34.66796875,-26.3671875,-33.69140625,-32.2265625,-130.37109375,0.0
489.87890625,-32.71484375,-58.10546875,-44.921875,-56.15234375,-118.1640625,0.0
489.8828125,-26.85546875,-66.40625,-48.33984375,-59.08203125,-110.3515625,0.0
489.88671875,-28.80859375,-27.34375,-33.69140625,-47.8515625,-49.8046875,0.0
489.890625,-26.3671875,-6.8359375,-30.76171875,-39.0625,-69.3359375,0.0
489.89453125,-33.203125,-44.43359375,-43.9453125,-27.34375,-126.953125,0.0
489.8984375,-42.48046875,-59.08203125,-40.0390625,-31.25,-32.71484375,0.0
489.90234375,-35.64453125,-42.48046875,-27.83203125,-47.36328125,-34.66796875,0.0
489.90625,-29.78515625,-35.15625,-26.85546875,-48.828125,-41.9921875,0.0
489.91015625,-34.1796875,-36.1328125,-35.15625,-41.50390625,0.48828125,0.0
489.9140625,-38.57421875,-33.69140625,-46.38671875,-40.52734375,-32.71484375,0.0
489.91796875,-37.59765625,-42.96875,-41.9921875,-32.2265625,-48.33984375,0.0
489.921875,-25.87890625,-43.45703125,-35.15625,-36.1328125,46.875,0.0
489.92578125,-25.87890625,-36.1328125,-40.0390625,-57.6171875,26.85546875,0.0
489.9296875,-27.34375,-41.50390625,-44.921875,-50.29296875,-78.61328125,0.0
489.93359375,-13.671875,-34.1796875,-33.203125,-33.203125,-120.1171875,0.0
489.9375,-19.04296875,-37.109375,-25.87890625,-20.5078125,-121.09375,0.0
489.94140625,-39.55078125,-52.734375,-42.96875,-25.390625,-87.40234375,0.0
489.9453125,-29.78515625,-39.0625,-41.015625,-31.25,-76.171875,0.0
489.94921875,-23.4375,-33.69140625,-22.4609375,-16.11328125,30.76171875,0.0
489.953125,-43.45703125,-36.62109375,-26.85546875,-18.5546875,-23.92578125,0.0
489.95703125,-46.38671875,-45.41015625,-30.76171875,-34.66796875,-93.26171875,0.0
489.9609375,-41.9921875,-33.203125,-19.53125,-24.90234375,-30.76171875,0.0
489.96484375,-41.9921875,-19.53125,-20.5078125,-29.296875,-45.41015625,0.0
489.96875,-46.875,-35.15625,-32.2265625,-42.96875,-61.5234375,0.0
489.97265625,-41.9921875,-52.734375,-40.52734375,-35.64453125,-23.92578125,0.0
489.9765625,-32.2265625,-59.5703125,-44.921875,-30.2734375,1.953125,0.0
489.98046875,-32.71484375,-62.01171875,-40.52734375,-24.90234375,33.69140625,0.0
489.984375,-38.57421875,-49.31640625,-26.85546875,-27.34375,-25.390625,0.0
489.98828125,-33.203125,-30.2734375,-32.71484375,-25.87890625,-50.29296875,0.0
489.9921875,-29.296875,-43.9453125,-46.875,-24.90234375,23.4375,0.0
489.99609375,-34.1796875,-56.640625,-39.0625,-28.80859375,-16.11328125,0.0
490.0,-38.57421875,-29.78515625,-28.3203125,-25.87890625,-99.12109375,0.0
