timestamp,TP9,AF7,AF8,TP10,AUX,Marker,
50.00390625,11.23046875,-42.48046875,-7.32421875,-14.6484375,-56.15234375,0.0
50.0078125,-38.0859375,-50.78125,-41.50390625,-31.73828125,-82.03125,0.0
50.01171875,-49.31640625,-61.03515625,-14.6484375,-36.1328125,-98.14453125,0.0
50.015625,-30.76171875,-67.3828125,-36.62109375,-37.109375,-35.64453125,0.0
50.01953125,-20.01953125,-73.73046875,-45.41015625,-20.99609375,-11.71875,0.0
50.0234375,-19.04296875,-75.1953125,17.08984375,-20.5078125,-34.1796875,0.0
50.02734375,-32.2265625,-64.453125,34.66796875,-32.71484375,37.109375,0.0
50.03125,-46.875,-50.78125,-6.34765625,-36.1328125,96.19140625,0.0
50.03515625,-34.1796875,-43.45703125,4.39453125,-25.390625,69.82421875,0.0
50.0390625,-8.7890625,-47.36328125,34.66796875,-19.04296875,15.13671875,0.0
50.04296875,-14.6484375,-69.82421875,-13.671875,-24.90234375,-14.16015625,0.0
50.046875,-25.390625,-88.37890625,-45.8984375,-24.90234375,-42.48046875,0.0
50.05078125,-17.578125,-68.84765625,-27.34375,-7.8125,-79.1015625,0.0
50.0546875,-40.52734375,-52.734375,-48.33984375,-28.80859375,-103.515625,0.0
50.05859375,-36.1328125,-39.0625,-46.875,-40.0390625,-125.9765625,0.0
50.0625,9.765625,-38.57421875,-14.16015625,-2.9296875,-63.96484375,0.0
50.06640625,-34.1796875,-63.4765625,11.23046875,-10.25390625,-2.9296875,0.0
50.0703125,-79.1015625,-65.4296875,20.99609375,-31.25,-28.3203125,0.0
50.07421875,-50.78125,-51.26953125,13.671875,-15.625,-62.01171875,0.0
50.078125,-43.9453125,-54.6875,19.53125,-8.30078125,-48.828125,0.0
50.08203125,-40.0390625,-70.80078125,1.46484375,-14.6484375,-60.05859375,0.0
50.0859375,-31.25,-86.9140625,-39.0625,-22.4609375,-75.68359375,0.0
50.08984375,-43.9453125,-93.75,-21.97265625,-35.15625,-135.7421875,0.0
50.09375,-39.55078125,-94.7265625,-33.69140625,-41.50390625,-166.50390625,0.0
50.09765625,-12.6953125,-106.4453125,-46.875,-42.96875,-129.8828125,0.0
50.1015625,-1.953125,-101.07421875,5.37109375,-39.55078125,-200.68359375,0.0
50.10546875,-23.4375,-85.9375,30.2734375,-33.203125,-149.90234375,0.0
50.109375,-24.90234375,-64.94140625,27.34375,-15.13671875,-63.4765625,0.0
50.11328125,-11.23046875,-41.50390625,36.62109375,2.44140625,-33.69140625,0.0
50.1171875,-24.4140625,-60.546875,28.3203125,-19.04296875,73.2421875,0.0
50.12109375,-35.64453125,-82.51953125,-6.8359375,-40.52734375,99.12109375,0.0
50.125,-27.34375,-73.73046875,-12.6953125,-33.69140625,46.38671875,0.0
50.12890625,-20.99609375,-60.546875,-23.4375,-20.99609375,-6.8359375,0.0
50.1328125,-38.57421875,-75.1953125,-25.87890625,-22.4609375,5.859375,0.0
50.13671875,-61.5234375,-111.328125,-57.12890625,-33.203125,13.18359375,0.0
50.140625,-52.734375,-123.53515625,-75.1953125,-30.2734375,-58.59375,0.0
50.14453125,-4.39453125,-101.5625,13.671875,-2.44140625,-22.94921875,0.0
50.1484375,6.34765625,-45.41015625,68.84765625,9.27734375,27.83203125,0.0
50.15234375,-41.9921875,-20.99609375,55.17578125,-9.27734375,-61.5234375,0.0
50.15625,-49.31640625,-32.2265625,24.4140625,-15.625,-47.36328125,0.0
50.16015625,-29.78515625,-70.3125,8.7890625,-10.7421875,67.3828125,0.0
50.1640625,-21.97265625,-100.5859375,-37.59765625,-19.04296875,74.70703125,0.0
50.16796875,-30.2734375,-57.6171875,-52.24609375,-22.94921875,54.19921875,0.0
50.171875,-43.45703125,-53.22265625,-27.34375,-10.7421875,26.3671875,0.0
50.17578125,-32.71484375,-78.61328125,5.859375,-9.765625,62.5,0.0
50.1796875,-9.765625,-70.80078125,25.87890625,-4.8828125,9.765625,0.0
50.18359375,2.9296875,-82.51953125,-8.7890625,6.34765625,-12.6953125,0.0
50.1875,-22.4609375,-91.30859375,-13.671875,-10.7421875,39.0625,0.0
50.19140625,-37.109375,-55.6640625,2.9296875,-20.99609375,-39.55078125,0.0
50.1953125,-17.578125,-45.8984375,17.08984375,-6.34765625,-71.77734375,0.0
50.19921875,-0.48828125,-66.89453125,3.41796875,11.23046875,-63.4765625,0.0
50.203125,-4.8828125,-59.08203125,-23.92578125,2.9296875,2.44140625,0.0
50.20703125,-23.4375,-57.6171875,-22.4609375,-11.23046875,72.265625,0.0
50.2109375,-37.109375,-68.359375,-42.96875,-20.99609375,67.3828125,0.0
50.21484375,-43.9453125,-78.125,-44.43359375,-36.62109375,62.01171875,0.0
50.21875,-22.94921875,-80.078125,-12.6953125,-34.1796875,14.6484375,0.0
50.22265625,-4.8828125,-88.37890625,-44.921875,-9.765625,27.34375,0.0
50.2265625,-18.06640625,-72.265625,-72.265625,-18.5546875,-13.671875,0.0
50.23046875,-24.4140625,-48.33984375,3.41796875,-26.85546875,-56.640625,0.0
50.234375,-24.4140625,-47.36328125,34.66796875,-17.08984375,-54.19921875,0.0
50.23828125,-15.625,-60.05859375,7.32421875,-12.6953125,-82.03125,0.0
50.2421875,-9.27734375,-78.61328125,-4.8828125,-17.578125,-60.546875,0.0
50.24609375,-12.6953125,-86.9140625,-13.671875,-15.13671875,-80.56640625,0.0
50.25,-2.9296875,-71.2890625,-42.48046875,-16.11328125,-116.69921875,0.0
50.25390625,-9.27734375,-66.89453125,-18.06640625,-12.20703125,-101.5625,0.0
50.2578125,-15.13671875,-86.42578125,22.4609375,0.48828125,-62.5,0.0
50.26171875,-17.08984375,-82.51953125,18.5546875,-8.30078125,-39.55078125,0.0
50.265625,-4.39453125,-83.0078125,-23.92578125,-14.16015625,-50.78125,0.0
50.26953125,1.953125,-83.984375,-43.45703125,-9.765625,-61.03515625,0.0
50.2734375,-20.5078125,-65.91796875,-10.7421875,-19.53125,-13.671875,0.0
50.27734375,-20.5078125,-41.9921875,-12.6953125,-21.484375,-7.32421875,0.0
50.28125,-11.23046875,-67.87109375,-28.80859375,-10.25390625,-27.34375,0.0
50.28515625,-15.625,-98.6328125,-2.9296875,-4.8828125,-7.32421875,0.0
50.2890625,-31.25,-86.9140625,-23.92578125,-27.83203125,-23.4375,0.0
50.29296875,-19.53125,-64.94140625,-28.3203125,-31.73828125,-55.17578125,0.0
50.296875,-7.8125,-40.0390625,6.8359375,-15.13671875,-50.78125,0.0
50.30078125,-7.32421875,-41.50390625,15.625,-17.08984375,-46.875,0.0
50.3046875,23.4375,-59.5703125,14.16015625,0.9765625,-51.26953125,0.0
50.30859375,15.625,-64.94140625,19.53125,7.8125,-149.4140625,0.0
50.3125,-17.08984375,-66.40625,-4.39453125,-22.4609375,-133.7890625,0.0
50.31640625,-13.671875,-58.10546875,-7.32421875,-28.80859375,-68.84765625,0.0
50.3203125,-7.32421875,-58.10546875,-9.27734375,-9.765625,-94.7265625,0.0
50.32421875,0.48828125,-74.70703125,-44.921875,-10.25390625,-48.828125,0.0
50.328125,0.0,-75.68359375,-8.7890625,-12.20703125,-78.125,0.0
50.33203125,7.8125,-58.59375,20.5078125,1.46484375,-150.87890625,0.0
50.3359375,30.76171875,-53.22265625,25.87890625,10.25390625,-96.6796875,0.0
50.33984375,5.37109375,-73.73046875,-10.25390625,-9.27734375,6.8359375,0.0
50.34375,-14.6484375,-77.1484375,-67.3828125,-16.6015625,103.515625,0.0
50.34765625,4.39453125,-73.73046875,-20.5078125,4.8828125,93.75,0.0
50.3515625,1.953125,-73.2421875,-22.94921875,-0.9765625,33.69140625,0.0
50.35546875,1.46484375,-61.03515625,-28.3203125,-5.37109375,17.08984375,0.0
50.359375,8.7890625,-49.8046875,36.62109375,8.7890625,19.04296875,0.0
50.36328125,1.46484375,-78.125,32.2265625,13.671875,-11.23046875,0.0
50.3671875,-2.9296875,-104.4921875,-1.46484375,13.671875,49.8046875,0.0
50.37109375,-5.859375,-84.47265625,-27.83203125,10.25390625,84.47265625,0.0
50.375,-25.87890625,-53.7109375,-12.6953125,-1.46484375,5.37109375,0.0
50.37890625,-17.08984375,-44.43359375,-40.0390625,-1.953125,-6.34765625,0.0
50.3828125,-6.8359375,-36.62109375,-60.05859375,-7.8125,-23.92578125,0.0
50.38671875,-17.08984375,-41.50390625,-24.90234375,-11.23046875,0.48828125,0.0
50.390625,-10.25390625,-47.8515625,24.90234375,-8.7890625,46.875,0.0
50.39453125,-3.90625,-79.58984375,59.08203125,-5.37109375,86.9140625,0.0
50.3984375,-20.99609375,-95.21484375,20.99609375,-10.25390625,66.40625,0.0
50.40234375,-38.0859375,-88.37890625,0.9765625,-22.4609375,22.4609375,0.0
50.40625,-39.55078125,-95.21484375,-5.859375,-18.06640625,14.6484375,0.0
50.41015625,-14.6484375,-79.1015625,-51.7578125,-7.32421875,-20.99609375,0.0
50.4140625,10.7421875,-62.01171875,-65.91796875,-4.8828125,-73.2421875,0.0
50.41796875,6.34765625,-53.22265625,-5.37109375,-1.953125,-55.6640625,0.0
50.421875,-14.6484375,-68.359375,23.92578125,-11.71875,-0.9765625,0.0
50.42578125,-21.97265625,-74.70703125,0.9765625,-21.484375,-10.25390625,0.0
50.4296875,-10.7421875,-62.98828125,-45.8984375,-12.20703125,-52.734375,0.0
50.43359375,-5.859375,-60.546875,-56.640625,-8.7890625,-24.4140625,0.0
50.4375,-9.765625,-83.49609375,-40.0390625,-18.06640625,44.43359375,0.0
50.44140625,-7.8125,-95.21484375,-13.18359375,-1.953125,50.78125,0.0
50.4453125,-22.94921875,-93.75,25.390625,1.953125,48.828125,0.0
50.44921875,-46.38671875,-90.33203125,3.90625,-19.04296875,-11.23046875,0.0
50.453125,-54.19921875,-93.26171875,-37.109375,-25.390625,-58.10546875,0.0
50.45703125,-48.33984375,-97.16796875,-22.94921875,-28.80859375,-82.51953125,0.0
50.4609375,-18.5546875,-60.546875,31.25,-15.13671875,-38.57421875,0.0
50.46484375,-21.484375,-64.453125,7.32421875,-27.83203125,-35.64453125,0.0
50.46875,-57.6171875,-88.37890625,-33.203125,-43.45703125,-134.27734375,0.0
50.47265625,-58.59375,-95.703125,-45.41015625,-37.59765625,-155.76171875,0.0
50.4765625,-28.3203125,-82.51953125,-46.38671875,-32.71484375,-145.01953125,0.0
50.48046875,-34.66796875,-62.5,-30.76171875,-35.15625,-64.94140625,0.0
50.484375,-34.66796875,-65.4296875,-16.6015625,-24.4140625,-156.25,0.0
50.48828125,-13.671875,-68.359375,3.41796875,-5.859375,-242.67578125,0.0
50.4921875,-46.875,-72.75390625,-69.82421875,-36.62109375,-172.36328125,0.0
50.49609375,-57.12890625,-68.84765625,-94.7265625,-45.41015625,-183.59375,0.0
50.5,-9.27734375,-61.03515625,15.625,-17.08984375,-176.26953125,0.0
50.50390625,34.66796875,-78.125,56.640625,9.765625,-146.484375,0.0
50.5078125,31.25,-88.37890625,41.9921875,12.6953125,-41.50390625,0.0
50.51171875,-6.8359375,-84.9609375,9.27734375,-9.765625,33.203125,0.0
50.515625,-20.01953125,-64.94140625,-35.64453125,-12.6953125,20.5078125,0.0
50.51953125,-18.06640625,-48.828125,-55.6640625,-14.6484375,91.30859375,0.0
50.5234375,-26.85546875,-52.734375,-74.21875,-19.04296875,60.546875,0.0
50.52734375,-32.71484375,-51.7578125,-60.05859375,-16.6015625,47.8515625,0.0
50.53125,-17.08984375,-45.8984375,-14.16015625,-16.6015625,86.9140625,0.0
50.53515625,3.90625,-65.4296875,-31.73828125,-10.7421875,81.0546875,0.0
50.5390625,35.64453125,-84.47265625,-31.25,5.859375,44.921875,0.0
50.54296875,47.36328125,-77.1484375,25.87890625,17.08984375,-16.11328125,0.0
50.546875,0.9765625,-92.28515625,24.90234375,0.9765625,-26.3671875,0.0
50.55078125,-7.8125,-75.1953125,-2.44140625,0.48828125,6.8359375,0.0
50.5546875,20.5078125,-38.0859375,-26.85546875,-5.859375,34.66796875,0.0
50.55859375,18.06640625,-23.4375,-49.8046875,-18.06640625,12.6953125,0.0
50.5625,-31.25,-46.38671875,-33.69140625,-17.08984375,10.7421875,0.0
50.56640625,-13.18359375,-56.15234375,-63.4765625,-11.71875,-25.87890625,0.0
50.5703125,66.40625,-21.97265625,-104.00390625,11.23046875,-45.8984375,0.0
50.57421875,53.7109375,-27.83203125,-22.4609375,20.5078125,-21.484375,0.0
50.578125,-19.53125,-61.03515625,-20.01953125,-4.8828125,-54.19921875,0.0
50.58203125,-3.90625,-65.4296875,-42.48046875,-9.765625,-113.28125,0.0
50.5859375,68.84765625,-74.70703125,-4.8828125,-3.90625,-48.33984375,0.0
50.58984375,32.2265625,-77.63671875,-3.41796875,-3.90625,11.23046875,0.0
50.59375,-60.546875,-63.96484375,-7.8125,-15.625,-55.17578125,0.0
50.59765625,-77.63671875,-62.01171875,4.8828125,-22.94921875,-97.65625,0.0
50.6015625,-33.69140625,-65.91796875,0.0,-8.30078125,-66.40625,0.0
50.60546875,5.37109375,-59.5703125,-28.80859375,-8.30078125,-7.32421875,0.0
50.609375,-33.203125,-58.59375,-35.15625,-17.578125,-24.90234375,0.0
50.61328125,-19.53125,-56.15234375,-6.34765625,-16.6015625,-11.71875,0.0
50.6171875,24.90234375,-46.875,-11.23046875,-9.765625,27.34375,0.0
50.62109375,-0.9765625,-48.33984375,-41.9921875,-12.20703125,-16.11328125,0.0
50.625,-68.84765625,-65.4296875,-45.8984375,-11.71875,-18.06640625,0.0
50.62890625,-79.1015625,-82.51953125,-15.13671875,-0.9765625,27.34375,0.0
50.6328125,-58.10546875,-80.078125,-8.30078125,-8.7890625,2.44140625,0.0
50.63671875,-22.94921875,-78.61328125,-37.109375,-2.9296875,61.03515625,0.0
50.640625,-12.20703125,-83.984375,-37.59765625,-7.8125,120.1171875,0.0
50.64453125,-33.203125,-52.24609375,-9.27734375,-35.15625,45.41015625,0.0
50.6484375,-31.73828125,-12.6953125,2.44140625,-41.015625,-18.06640625,0.0
50.65234375,-38.57421875,-23.4375,-10.7421875,-27.34375,-91.796875,0.0
50.65625,-44.921875,-34.66796875,-16.11328125,-11.71875,-76.66015625,0.0
50.66015625,-44.921875,-43.45703125,-15.625,-18.06640625,-27.83203125,0.0
50.6640625,-42.96875,-56.640625,-18.5546875,-25.390625,22.4609375,0.0
50.66796875,-32.2265625,-58.10546875,-36.1328125,-19.53125,18.5546875,0.0
50.671875,-22.4609375,-73.73046875,-46.875,1.953125,-28.3203125,0.0
50.67578125,-4.39453125,-98.14453125,-90.33203125,-1.46484375,9.765625,0.0
50.6796875,10.25390625,-41.50390625,-65.91796875,-17.08984375,50.29296875,0.0
50.68359375,7.8125,-19.53125,42.48046875,-6.34765625,-14.16015625,0.0
50.6875,0.48828125,-30.2734375,44.43359375,-6.34765625,-40.52734375,0.0
50.69140625,-3.90625,-22.4609375,-1.953125,-13.671875,-50.78125,0.0
50.6953125,-3.90625,-34.66796875,-12.20703125,-12.6953125,-116.69921875,0.0
50.69921875,-27.83203125,-39.0625,-7.8125,-33.69140625,-91.796875,0.0
50.703125,-37.59765625,-42.96875,-12.20703125,-36.62109375,-54.19921875,0.0
50.70703125,-11.23046875,-56.640625,-37.109375,-32.71484375,-49.31640625,0.0
50.7109375,-4.39453125,-62.98828125,-25.87890625,-37.59765625,-101.07421875,0.0
50.71484375,-8.30078125,-63.4765625,-0.9765625,-26.3671875,-152.34375,0.0
50.71875,4.39453125,-69.3359375,-19.04296875,-19.04296875,-131.34765625,0.0
50.72265625,-12.6953125,-74.21875,-38.57421875,-22.94921875,-165.0390625,0.0
50.7265625,-12.6953125,-52.734375,-65.91796875,-17.578125,-207.03125,0.0
50.73046875,7.8125,-39.55078125,-69.82421875,-35.15625,-157.71484375,0.0
50.734375,-4.8828125,-41.9921875,6.8359375,-29.296875,-133.30078125,0.0
50.73828125,-0.9765625,-54.6875,42.48046875,5.859375,-65.91796875,0.0
50.7421875,-21.484375,-59.08203125,-37.109375,-13.671875,13.671875,0.0
50.74609375,-59.08203125,-39.0625,-52.24609375,-38.0859375,47.8515625,0.0
50.75,-32.71484375,-53.22265625,10.25390625,-30.2734375,40.0390625,0.0
50.75390625,7.32421875,-66.89453125,16.11328125,-36.62109375,-68.359375,0.0
50.7578125,10.7421875,-54.6875,-11.71875,-49.31640625,-53.22265625,0.0
50.76171875,2.44140625,-40.0390625,-17.578125,-30.2734375,57.12890625,0.0
50.765625,-29.296875,-22.4609375,-55.6640625,-12.20703125,128.90625,0.0
50.76953125,-50.78125,-45.8984375,-77.63671875,-24.4140625,102.05078125,0.0
50.7734375,-35.15625,-91.30859375,-20.01953125,-29.296875,12.20703125,0.0
50.77734375,0.0,-64.453125,31.73828125,-11.23046875,0.48828125,0.0
50.78125,24.4140625,-8.30078125,28.3203125,-10.7421875,8.30078125,0.0
50.78515625,23.4375,-7.32421875,-16.6015625,-15.625,-2.9296875,0.0
50.7890625,-27.34375,-13.18359375,-68.84765625,-13.671875,51.7578125,0.0
50.79296875,-61.5234375,-39.55078125,-41.015625,-24.90234375,78.61328125,0.0
50.796875,-60.05859375,-81.54296875,-30.2734375,-56.15234375,-10.25390625,0.0
50.80078125,-51.7578125,-76.171875,-11.71875,-63.96484375,-70.3125,0.0
50.8046875,-60.546875,-52.734375,-2.9296875,-67.3828125,13.18359375,0.0
50.80859375,-75.68359375,-49.8046875,-35.15625,-76.171875,20.01953125,0.0
50.8125,-85.9375,-54.19921875,-47.8515625,-95.703125,-39.55078125,0.0
50.81640625,-98.14453125,-44.921875,-32.71484375,-107.91015625,-41.9921875,0.0
50.8203125,-84.47265625,-59.5703125,-41.9921875,-98.14453125,28.3203125,0.0
50.82421875,-50.29296875,-57.6171875,-83.984375,-84.9609375,-25.87890625,0.0
50.828125,-51.26953125,-38.57421875,-71.2890625,-61.03515625,-63.4765625,0.0
50.83203125,-74.21875,-52.734375,-20.5078125,-72.265625,-43.45703125,0.0
50.8359375,-72.75390625,-67.87109375,23.4375,-92.28515625,-67.3828125,0.0
50.83984375,-83.49609375,-51.26953125,15.625,-90.8203125,-39.0625,0.0
50.84375,-141.6015625,-64.453125,-48.828125,-108.3984375,-59.5703125,0.0
50.84765625,-138.18359375,-100.09765625,-61.03515625,-97.65625,5.859375,0.0
50.8515625,-83.984375,-104.4921875,-39.0625,-82.03125,6.34765625,0.0
50.85546875,-61.5234375,-102.5390625,-31.25,-79.58984375,-60.05859375,0.0
50.859375,-43.45703125,-86.42578125,-29.296875,-56.640625,-61.5234375,0.0
50.86328125,-48.33984375,-85.44921875,-36.62109375,-51.26953125,-41.9921875,0.0
50.8671875,-59.5703125,-73.73046875,-31.25,-60.546875,37.109375,0.0
50.87109375,-43.45703125,-57.12890625,-69.82421875,-51.7578125,71.2890625,0.0
50.875,-13.671875,-48.828125,-85.9375,-13.671875,72.265625,0.0
50.87890625,0.48828125,-41.9921875,5.37109375,4.39453125,35.64453125,0.0
50.8828125,1.46484375,-65.4296875,51.7578125,-6.8359375,37.109375,0.0
50.88671875,21.484375,-90.33203125,13.18359375,-0.9765625,-0.9765625,0.0
50.890625,27.34375,-103.515625,-16.6015625,14.16015625,-51.26953125,0.0
50.89453125,4.39453125,-111.328125,-3.41796875,9.27734375,-27.34375,0.0
50.8984375,-5.859375,-89.35546875,-38.0859375,-4.39453125,-97.16796875,0.0
50.90234375,-1.953125,-62.98828125,-64.453125,-2.9296875,-104.00390625,0.0
50.90625,12.6953125,-49.8046875,-20.99609375,1.46484375,-77.1484375,0.0
50.91015625,32.71484375,-60.05859375,-20.99609375,12.6953125,-104.98046875,0.0
50.9140625,52.24609375,-93.26171875,-14.6484375,34.66796875,-92.7734375,0.0
50.91796875,53.7109375,-99.12109375,-18.06640625,44.43359375,-86.42578125,0.0
50.921875,20.01953125,-75.68359375,-34.1796875,17.08984375,-92.28515625,0.0
50.92578125,35.15625,-37.59765625,0.0,4.39453125,-145.5078125,0.0
50.9296875,41.015625,-28.80859375,2.44140625,19.53125,-241.69921875,0.0
50.93359375,8.7890625,-52.24609375,-11.71875,24.90234375,-195.80078125,0.0
50.9375,17.578125,-57.12890625,-28.80859375,25.390625,-116.69921875,0.0
50.94140625,36.1328125,-60.05859375,-12.6953125,39.0625,-100.09765625,0.0
50.9453125,18.5546875,-72.75390625,4.39453125,15.13671875,-174.31640625,0.0
50.94921875,-0.9765625,-66.40625,-15.13671875,-1.46484375,-138.18359375,0.0
50.953125,-2.9296875,-70.3125,-34.1796875,6.34765625,-3.90625,0.0
50.95703125,8.7890625,-67.87109375,-32.2265625,20.99609375,-102.05078125,0.0
50.9609375,23.92578125,-76.66015625,-38.57421875,33.203125,-138.18359375,0.0
50.96484375,30.76171875,-85.9375,-37.59765625,12.20703125,-88.37890625,0.0
50.96875,18.5546875,-55.17578125,-1.953125,-11.23046875,-67.87109375,0.0
50.97265625,4.39453125,-29.296875,19.53125,1.46484375,-56.640625,0.0
50.9765625,3.41796875,-41.9921875,23.92578125,12.20703125,-41.50390625,0.0
50.98046875,3.41796875,-70.80078125,11.23046875,10.7421875,-60.05859375,0.0
50.984375,10.25390625,-64.94140625,-32.2265625,2.44140625,-71.2890625,0.0
50.98828125,18.5546875,-68.84765625,-65.4296875,0.48828125,-24.4140625,0.0
50.9921875,18.06640625,-75.68359375,-25.390625,6.34765625,-39.0625,0.0
50.99609375,38.0859375,-50.78125,23.92578125,4.39453125,-65.91796875,0.0
51.0,32.71484375,-57.12890625,11.71875,5.37109375,-102.05078125,0.0
51.00390625,-1.46484375,-86.9140625,6.8359375,-1.953125,-135.7421875,0.0
51.0078125,12.20703125,-89.35546875,19.53125,6.8359375,-102.05078125,0.0
51.01171875,24.4140625,-73.73046875,-2.9296875,9.27734375,-69.82421875,0.0
51.015625,8.30078125,-50.29296875,-14.16015625,-3.41796875,-30.2734375,0.0
51.01953125,-8.30078125,-24.90234375,-12.20703125,-17.578125,-5.859375,0.0
51.0234375,-7.32421875,-20.99609375,-11.23046875,-16.6015625,-102.05078125,0.0
51.02734375,-9.27734375,-39.55078125,-14.16015625,-7.8125,-102.05078125,0.0
51.03125,-25.390625,-67.87109375,-9.765625,-5.859375,-20.99609375,0.0
51.03515625,2.9296875,-79.58984375,6.8359375,3.90625,-78.61328125,0.0
51.0390625,38.0859375,-78.61328125,28.3203125,8.30078125,-70.3125,0.0
51.04296875,39.55078125,-75.68359375,17.578125,20.5078125,40.0390625,0.0
51.046875,8.30078125,-65.4296875,-52.734375,13.18359375,85.9375,0.0
51.05078125,-33.69140625,-60.546875,-52.734375,-14.6484375,136.71875,0.0
51.0546875,-26.3671875,-52.734375,-22.4609375,-19.04296875,130.859375,0.0
51.05859375,1.953125,-67.3828125,-1.953125,-10.7421875,40.52734375,0.0
51.0625,11.71875,-79.1015625,7.32421875,-0.48828125,126.953125,0.0
51.06640625,7.8125,-71.77734375,-3.90625,5.37109375,144.53125,0.0
51.0703125,-11.23046875,-63.96484375,-13.18359375,-0.48828125,84.9609375,0.0
51.07421875,3.90625,-58.10546875,-17.578125,-5.859375,96.6796875,0.0
51.078125,15.625,-51.7578125,19.04296875,-2.9296875,20.99609375,0.0
51.08203125,-22.94921875,-54.6875,-25.87890625,-6.8359375,-40.52734375,0.0
51.0859375,-32.2265625,-65.91796875,-52.24609375,-17.578125,-23.4375,0.0
51.08984375,-27.83203125,-52.734375,-10.25390625,-16.6015625,-26.3671875,0.0
51.09375,-20.01953125,-44.921875,19.53125,-6.8359375,-39.55078125,0.0
51.09765625,-2.9296875,-60.546875,-11.71875,-7.8125,33.203125,0.0
51.1015625,-6.8359375,-54.6875,-30.2734375,-13.18359375,77.63671875,0.0
51.10546875,-17.578125,-51.26953125,-3.90625,-12.20703125,9.765625,0.0
51.109375,-20.5078125,-57.6171875,-41.9921875,-11.23046875,-2.44140625,0.0
51.11328125,-2.9296875,-50.78125,-58.10546875,-0.9765625,75.1953125,0.0
51.1171875,4.8828125,-64.453125,-25.390625,-17.08984375,105.95703125,0.0
51.12109375,-7.8125,-85.44921875,-6.34765625,-34.66796875,41.015625,0.0
51.125,-7.8125,-90.8203125,-11.23046875,-20.5078125,-48.33984375,0.0
51.12890625,4.39453125,-90.8203125,-35.64453125,-5.37109375,-5.859375,0.0
51.1328125,-7.8125,-101.07421875,-47.8515625,-14.16015625,11.71875,0.0
51.13671875,-28.80859375,-75.1953125,-69.82421875,-21.484375,-30.76171875,0.0
51.140625,-24.4140625,-57.12890625,-59.08203125,-23.4375,13.18359375,0.0
51.14453125,-24.90234375,-55.17578125,-14.16015625,-25.87890625,103.515625,0.0
51.1484375,-19.53125,-42.48046875,-8.30078125,-17.08984375,95.703125,0.0
51.15234375,10.25390625,-46.38671875,-47.8515625,-5.859375,28.80859375,0.0
51.15625,22.94921875,-73.73046875,-66.89453125,-11.23046875,12.6953125,0.0
51.16015625,17.08984375,-84.9609375,-26.85546875,-12.6953125,6.8359375,0.0
51.1640625,5.37109375,-69.3359375,-15.13671875,-20.99609375,-57.12890625,0.0
51.16796875,-33.203125,-46.38671875,7.8125,-30.76171875,-50.29296875,0.0
51.171875,-38.0859375,-42.48046875,12.20703125,-27.34375,-18.06640625,0.0
51.17578125,-8.30078125,-64.94140625,-39.0625,-16.6015625,78.61328125,0.0
51.1796875,6.8359375,-63.4765625,-55.17578125,-6.34765625,19.53125,0.0
51.18359375,14.16015625,-40.52734375,-23.4375,-10.7421875,-92.28515625,0.0
51.1875,5.37109375,-67.87109375,-14.16015625,-15.13671875,29.296875,0.0
51.19140625,-7.8125,-83.49609375,-44.921875,-15.13671875,30.76171875,0.0
51.1953125,-22.4609375,-59.5703125,-55.6640625,-25.87890625,78.61328125,0.0
51.19921875,-23.4375,-39.55078125,-35.64453125,-26.85546875,138.18359375,0.0
51.203125,-14.6484375,-36.1328125,-59.08203125,-20.5078125,94.7265625,0.0
51.20703125,-8.7890625,-48.828125,-35.15625,-30.76171875,49.31640625,0.0
51.2109375,1.953125,-55.6640625,0.9765625,-27.83203125,12.6953125,0.0
51.21484375,-0.48828125,-54.19921875,2.44140625,-18.06640625,3.41796875,0.0
51.21875,-6.8359375,-51.7578125,-11.23046875,-13.18359375,-2.9296875,0.0
51.22265625,8.30078125,-78.61328125,1.953125,-10.25390625,26.85546875,0.0
51.2265625,7.32421875,-81.0546875,14.6484375,-17.578125,20.5078125,0.0
51.23046875,-14.16015625,-53.22265625,-23.4375,-24.4140625,-28.80859375,0.0
51.234375,-9.765625,-45.8984375,-66.89453125,-23.4375,-20.01953125,0.0
51.23828125,16.11328125,-34.1796875,-38.57421875,-15.13671875,-38.0859375,0.0
51.2421875,35.15625,-47.36328125,22.4609375,-1.953125,-60.05859375,0.0
51.24609375,31.25,-83.49609375,26.3671875,1.953125,-55.17578125,0.0
51.25,4.8828125,-57.6171875,-34.1796875,-10.7421875,-75.68359375,0.0
51.25390625,2.9296875,-39.0625,-41.50390625,-7.32421875,-76.66015625,0.0
51.2578125,5.37109375,-55.17578125,-47.36328125,-13.671875,-57.6171875,0.0
51.26171875,4.8828125,-55.6640625,-77.1484375,-30.76171875,-4.39453125,0.0
51.265625,12.6953125,-56.640625,-16.6015625,-21.97265625,-38.57421875,0.0
51.26953125,-1.46484375,-69.3359375,5.859375,-13.671875,-116.2109375,0.0
51.2734375,7.8125,-43.9453125,24.90234375,-0.48828125,-98.14453125,0.0
51.27734375,28.3203125,-26.3671875,42.96875,9.765625,-27.83203125,0.0
51.28125,31.73828125,-43.45703125,5.859375,-3.41796875,4.8828125,0.0
51.28515625,-3.41796875,-53.7109375,-31.73828125,-29.296875,-86.9140625,0.0
51.2890625,-25.87890625,-53.22265625,-60.05859375,-28.80859375,-90.33203125,0.0
51.29296875,9.765625,-61.5234375,-98.14453125,-3.90625,-71.77734375,0.0
51.296875,60.546875,-76.171875,-30.76171875,8.7890625,-65.4296875,0.0
51.30078125,31.73828125,-55.6640625,10.7421875,-20.01953125,-53.22265625,0.0
51.3046875,-11.71875,-28.3203125,4.39453125,-33.69140625,59.5703125,0.0
51.30859375,-16.11328125,-61.03515625,10.7421875,-22.4609375,150.390625,0.0
51.3125,-12.20703125,-62.01171875,-11.23046875,-21.97265625,86.42578125,0.0
51.31640625,3.90625,-35.15625,-50.29296875,-31.73828125,32.2265625,0.0
51.3203125,22.4609375,-35.64453125,-32.71484375,-21.97265625,12.6953125,0.0
51.32421875,25.390625,-50.29296875,-27.83203125,-7.32421875,13.671875,0.0
51.328125,-8.30078125,-63.96484375,-39.55078125,-33.203125,52.24609375,0.0
51.33203125,-19.53125,-51.26953125,6.34765625,-28.3203125,19.04296875,0.0
51.3359375,9.765625,-61.5234375,27.83203125,0.9765625,-36.62109375,0.0
51.33984375,10.7421875,-85.9375,-59.5703125,-5.37109375,-47.8515625,0.0
51.34375,-4.39453125,-86.42578125,-63.96484375,-29.296875,7.8125,0.0
51.34765625,14.6484375,-56.15234375,23.92578125,-21.484375,-42.96875,0.0
51.3515625,-0.9765625,-28.3203125,0.48828125,-11.23046875,-117.67578125,0.0
51.35546875,-19.53125,-18.06640625,-46.875,-15.625,-88.8671875,0.0
51.359375,-4.8828125,-29.78515625,-49.31640625,-20.5078125,-126.46484375,0.0
51.36328125,12.20703125,-40.52734375,-24.4140625,-8.7890625,-194.82421875,0.0
51.3671875,30.2734375,-62.5,1.46484375,16.6015625,-217.28515625,0.0
51.37109375,12.20703125,-110.83984375,-77.63671875,9.27734375,-96.19140625,0.0
51.375,-17.578125,-71.2890625,-108.88671875,-9.765625,41.015625,0.0
51.37890625,-11.23046875,-36.1328125,-12.20703125,-9.765625,40.0390625,0.0
51.3828125,1.953125,-71.77734375,-6.34765625,5.37109375,-12.20703125,0.0
51.38671875,21.484375,-63.96484375,-18.06640625,30.2734375,-29.296875,0.0
51.390625,0.0,-24.4140625,19.04296875,24.4140625,-58.10546875,0.0
51.39453125,-28.80859375,-11.23046875,26.3671875,-6.34765625,-123.53515625,0.0
51.3984375,-41.50390625,-31.73828125,7.8125,-33.69140625,-109.375,0.0
51.40234375,-37.59765625,-40.52734375,-76.66015625,-26.3671875,-151.3671875,0.0
51.40625,-18.5546875,-51.7578125,-97.16796875,-6.8359375,-164.0625,0.0
51.41015625,-30.2734375,-84.47265625,-47.36328125,-6.8359375,0.0,0.0
51.4140625,-28.80859375,-73.2421875,-102.05078125,-18.5546875,49.8046875,0.0
51.41796875,13.671875,-35.15625,-2.44140625,5.859375,-13.671875,0.0
51.421875,4.8828125,-32.2265625,84.9609375,12.6953125,-15.13671875,0.0
51.42578125,-29.78515625,-32.2265625,15.625,1.953125,-62.5,0.0
51.4296875,-24.90234375,-51.26953125,-59.08203125,15.625,-28.80859375,0.0
51.43359375,-10.25390625,-54.19921875,-3.90625,22.4609375,82.03125,0.0
51.4375,-37.109375,-37.109375,20.99609375,0.48828125,18.5546875,0.0
51.44140625,-53.7109375,-59.08203125,-87.40234375,-18.5546875,4.8828125,0.0
51.4453125,-21.484375,-46.875,-58.59375,3.41796875,-18.06640625,0.0
51.44921875,-20.99609375,-18.5546875,-0.9765625,-1.46484375,-79.1015625,0.0
51.453125,-37.109375,-30.76171875,-0.48828125,-14.16015625,-66.40625,0.0
51.45703125,-11.23046875,-46.38671875,-61.03515625,6.8359375,-37.109375,0.0
51.4609375,-4.8828125,-90.33203125,-37.59765625,17.578125,-73.2421875,0.0
51.46484375,-37.109375,-94.23828125,59.08203125,5.859375,-134.27734375,0.0
51.46875,-36.1328125,-16.11328125,32.71484375,-0.48828125,-94.23828125,0.0
51.47265625,-35.15625,5.37109375,-47.36328125,-4.8828125,27.34375,0.0
51.4765625,1.46484375,-11.23046875,-54.6875,17.08984375,53.7109375,0.0
51.48046875,60.546875,-24.90234375,23.4375,52.24609375,-21.97265625,0.0
51.484375,27.34375,-44.921875,18.06640625,42.48046875,7.8125,0.0
51.48828125,-54.19921875,-60.05859375,-92.7734375,-11.23046875,3.41796875,0.0
51.4921875,-40.0390625,-63.4765625,-34.66796875,-10.25390625,-36.62109375,0.0
51.49609375,-15.13671875,-62.5,62.01171875,28.3203125,-37.59765625,0.0
51.5,-31.25,-98.6328125,9.765625,21.484375,-29.78515625,0.0
51.50390625,-27.34375,-106.4453125,-71.2890625,27.34375,-15.13671875,0.0
51.5078125,-35.15625,-78.61328125,-9.27734375,36.62109375,-144.04296875,0.0
51.51171875,-66.40625,-85.44921875,-0.9765625,3.90625,-104.98046875,0.0
51.515625,-56.15234375,-97.16796875,-34.66796875,6.34765625,23.4375,0.0
51.51953125,-38.57421875,-102.05078125,-10.7421875,24.4140625,38.0859375,0.0
51.5234375,-59.08203125,-124.0234375,14.16015625,23.4375,-29.296875,0.0
51.52734375,-48.33984375,-121.58203125,-36.62109375,41.015625,-106.93359375,0.0
51.53125,-32.2265625,-101.07421875,-71.2890625,43.9453125,-10.7421875,0.0
51.53515625,-50.78125,-102.5390625,15.625,34.66796875,32.2265625,0.0
51.5390625,-38.0859375,-113.76953125,47.36328125,47.8515625,-21.484375,0.0
51.54296875,9.27734375,-110.3515625,18.06640625,70.80078125,-93.26171875,0.0
51.546875,-11.23046875,-126.953125,-4.39453125,48.828125,-109.86328125,0.0
51.55078125,-53.22265625,-131.8359375,-19.53125,18.06640625,-44.921875,0.0
51.5546875,-41.9921875,-87.890625,10.7421875,34.1796875,-41.015625,0.0
51.55859375,-33.203125,-86.9140625,9.765625,40.52734375,-34.1796875,0.0
51.5625,-42.48046875,-132.8125,-81.54296875,28.80859375,-57.12890625,0.0
51.56640625,-26.85546875,-111.328125,-76.171875,52.24609375,-104.00390625,0.0
51.5703125,-12.6953125,-62.01171875,12.6953125,50.29296875,-88.37890625,0.0
51.57421875,-18.06640625,-59.08203125,84.47265625,19.53125,-17.578125,0.0
51.578125,-23.92578125,-95.703125,48.828125,16.6015625,-49.8046875,0.0
51.58203125,-35.64453125,-107.91015625,-8.7890625,14.16015625,-57.6171875,0.0
51.5859375,-55.6640625,-84.47265625,50.78125,0.48828125,23.4375,0.0
51.58984375,-58.59375,-71.77734375,44.43359375,-7.8125,57.12890625,0.0
51.59375,-39.55078125,-67.87109375,1.46484375,-10.25390625,113.28125,0.0
51.59765625,-11.71875,-68.359375,1.46484375,11.23046875,34.66796875,0.0
51.6015625,-3.41796875,-80.56640625,-26.3671875,20.5078125,-54.6875,0.0
51.60546875,-21.484375,-95.703125,-73.73046875,-6.8359375,-79.1015625,0.0
51.609375,-24.90234375,-77.1484375,-8.30078125,-7.32421875,-14.16015625,0.0
51.61328125,-25.87890625,-46.38671875,68.359375,-1.953125,1.46484375,0.0
51.6171875,-20.5078125,-28.3203125,41.50390625,-10.25390625,-113.76953125,0.0
51.62109375,-23.4375,-40.0390625,4.8828125,-20.99609375,-15.625,0.0
51.625,-19.53125,-42.48046875,-34.66796875,-19.04296875,20.5078125,0.0
51.62890625,28.3203125,-56.15234375,-52.24609375,14.6484375,-28.3203125,0.0
51.6328125,0.9765625,-77.63671875,6.8359375,-9.765625,-13.18359375,0.0
51.63671875,-61.5234375,-67.87109375,54.19921875,-79.1015625,-10.7421875,0.0
51.640625,-59.08203125,-49.8046875,43.45703125,-78.125,-12.20703125,0.0
51.64453125,-35.64453125,-33.69140625,10.25390625,-48.828125,-35.64453125,0.0
51.6484375,-46.38671875,-51.7578125,-22.4609375,-61.03515625,-21.484375,0.0
51.65234375,-39.0625,-75.1953125,-28.80859375,-60.05859375,4.39453125,0.0
51.65625,5.37109375,-50.78125,-27.83203125,-34.1796875,79.1015625,0.0
51.66015625,4.39453125,-28.3203125,-30.76171875,-53.7109375,91.30859375,0.0
51.6640625,-16.11328125,-40.52734375,33.203125,-83.0078125,-17.08984375,0.0
51.66796875,-50.78125,-39.0625,45.8984375,-101.07421875,-23.92578125,0.0
51.671875,-48.828125,-33.69140625,17.578125,-115.72265625,-8.30078125,0.0
51.67578125,-29.296875,-71.2890625,22.94921875,-114.2578125,29.296875,0.0
51.6796875,-1.953125,-55.6640625,-6.8359375,-93.75,70.3125,0.0
51.68359375,2.9296875,-22.94921875,-45.8984375,-109.86328125,7.8125,0.0
51.6875,-53.7109375,-59.5703125,-40.52734375,-152.83203125,-60.05859375,0.0
51.69140625,-51.26953125,-63.4765625,-51.26953125,-155.76171875,-33.69140625,0.0
51.6953125,-15.13671875,-32.71484375,-25.390625,-157.71484375,-23.92578125,0.0
51.69921875,-1.953125,-39.0625,28.80859375,-157.2265625,2.9296875,0.0
51.703125,-19.53125,-76.171875,16.11328125,-169.921875,-6.34765625,0.0
51.70703125,-50.29296875,-62.01171875,-31.73828125,-186.5234375,-20.99609375,0.0
51.7109375,-20.01953125,-30.76171875,-53.22265625,-156.25,24.90234375,0.0
51.71484375,11.23046875,-33.203125,23.92578125,-134.27734375,-22.94921875,0.0
51.71875,-17.578125,-41.50390625,45.41015625,-151.3671875,-74.21875,0.0
51.72265625,-42.96875,-33.203125,-40.0390625,-161.1328125,-58.10546875,0.0
51.7265625,-41.015625,-38.57421875,-91.30859375,-165.52734375,-30.76171875,0.0
51.73046875,-14.6484375,-30.2734375,0.0,-134.27734375,9.27734375,0.0
51.734375,-21.97265625,-44.43359375,62.5,-134.27734375,-15.625,0.0
51.73828125,-39.0625,-63.96484375,29.296875,-158.203125,-54.19921875,0.0
51.7421875,-46.875,-50.78125,-18.5546875,-165.0390625,-17.578125,0.0
51.74609375,-41.50390625,-47.8515625,-32.2265625,-153.80859375,23.92578125,0.0
51.75,-10.7421875,-59.5703125,-89.84375,-138.671875,-9.27734375,0.0
51.75390625,-5.859375,-78.125,-109.375,-151.85546875,-35.15625,0.0
51.7578125,-12.6953125,-76.171875,9.27734375,-133.30078125,-11.23046875,0.0
51.76171875,-36.1328125,-47.36328125,68.84765625,-132.32421875,-33.69140625,0.0
51.765625,-77.1484375,-31.25,20.5078125,-153.3203125,-30.2734375,0.0
51.76953125,-36.1328125,-21.484375,3.41796875,-125.0,-11.71875,0.0
51.7734375,3.41796875,-29.78515625,-2.9296875,-102.5390625,-31.73828125,0.0
51.77734375,-12.20703125,-37.109375,-57.6171875,-119.140625,-41.015625,0.0
51.78125,-30.2734375,-55.17578125,-81.0546875,-140.625,-77.63671875,0.0
51.78515625,-7.32421875,-83.49609375,-11.71875,-121.09375,-96.6796875,0.0
51.7890625,-1.46484375,-64.453125,0.9765625,-98.14453125,-65.4296875,0.0
51.79296875,-21.97265625,-21.97265625,10.7421875,-104.4921875,-75.68359375,0.0
51.796875,-17.08984375,6.8359375,21.97265625,-104.00390625,-82.03125,0.0
51.80078125,-23.4375,9.765625,-32.71484375,-97.65625,-120.60546875,0.0
51.8046875,-43.45703125,-22.4609375,0.0,-113.76953125,-127.44140625,0.0
51.80859375,-37.109375,-41.9921875,20.99609375,-117.1875,-49.31640625,0.0
51.8125,-38.0859375,-52.24609375,-85.9375,-97.16796875,-62.5,0.0
51.81640625,-12.20703125,-84.47265625,-10.25390625,-94.23828125,-46.38671875,0.0
51.8203125,41.9921875,-91.796875,114.74609375,-65.4296875,-69.82421875,0.0
51.82421875,24.4140625,-46.38671875,68.359375,-61.03515625,-59.08203125,0.0
51.828125,-39.55078125,-8.30078125,-7.8125,-122.55859375,-29.78515625,0.0
51.83203125,-50.78125,-6.8359375,-44.921875,-124.0234375,-7.8125,0.0
51.8359375,-21.97265625,-31.73828125,-37.109375,-97.65625,20.01953125,0.0
51.83984375,-8.7890625,-62.5,-25.390625,-79.1015625,7.8125,0.0
51.84375,-1.953125,-50.78125,-23.4375,-60.546875,-25.87890625,0.0
51.84765625,0.0,-23.92578125,21.484375,-41.015625,-83.0078125,0.0
51.8515625,-1.46484375,-38.57421875,-2.44140625,-44.921875,-20.5078125,0.0
51.85546875,0.0,-47.8515625,46.875,-61.03515625,58.59375,0.0
51.859375,-21.97265625,-45.41015625,39.0625,-68.359375,6.34765625,0.0
51.86328125,-20.5078125,-51.26953125,-43.45703125,-47.8515625,-20.01953125,0.0
51.8671875,-2.44140625,-57.6171875,21.97265625,-36.62109375,8.30078125,0.0
51.87109375,-22.4609375,-39.55078125,25.390625,-65.4296875,-1.46484375,0.0
51.875,-35.15625,-19.53125,-22.4609375,-65.4296875,35.15625,0.0
51.87890625,-17.08984375,-22.94921875,-61.5234375,-38.0859375,49.8046875,0.0
51.8828125,18.5546875,-64.453125,26.3671875,4.39453125,-13.18359375,0.0
51.88671875,-7.8125,-89.84375,46.875,-28.80859375,11.71875,0.0
51.890625,-65.4296875,-56.15234375,-55.17578125,-84.9609375,6.8359375,0.0
51.89453125,-43.9453125,-31.25,-45.41015625,-62.98828125,-2.44140625,0.0
51.8984375,-10.25390625,-53.7109375,-11.23046875,-23.4375,-31.73828125,0.0
51.90234375,-16.6015625,-49.31640625,-29.296875,-20.99609375,-103.02734375,0.0
51.90625,-23.92578125,-20.01953125,5.37109375,-38.0859375,-95.21484375,0.0
51.91015625,-11.71875,-5.37109375,32.2265625,-29.78515625,-79.58984375,0.0
51.9140625,-0.9765625,-16.6015625,5.37109375,-20.99609375,-57.6171875,0.0
51.91796875,-8.30078125,-52.24609375,-0.48828125,-22.4609375,9.27734375,0.0
51.921875,-5.37109375,-63.4765625,-126.953125,-19.53125,-45.8984375,0.0
51.92578125,-16.11328125,-49.31640625,-135.7421875,-40.0390625,-70.3125,0.0
51.9296875,-33.69140625,-39.55078125,29.78515625,-47.36328125,-63.4765625,0.0
51.93359375,-9.765625,-1.953125,93.75,-5.859375,-9.27734375,0.0
51.9375,-17.578125,-16.6015625,39.55078125,-23.4375,-37.109375,0.0
51.94140625,-36.62109375,-70.3125,-34.1796875,-50.29296875,-172.36328125,0.0
51.9453125,-28.80859375,-76.171875,-59.5703125,-50.29296875,-174.31640625,0.0
51.94921875,-45.8984375,-39.55078125,-95.21484375,-45.41015625,-65.91796875,0.0
51.953125,-39.55078125,3.90625,-51.26953125,-15.13671875,7.8125,0.0
51.95703125,-23.92578125,10.7421875,6.8359375,-21.484375,3.41796875,0.0
51.9609375,-5.859375,-8.30078125,3.41796875,-17.08984375,-42.48046875,0.0
51.96484375,12.6953125,-43.9453125,-9.765625,13.671875,-22.94921875,0.0
51.96875,-23.4375,-73.73046875,-46.38671875,-35.15625,52.734375,0.0
51.97265625,-58.10546875,-41.50390625,-65.4296875,-77.63671875,29.78515625,0.0
51.9765625,-29.296875,-12.6953125,-20.01953125,-20.99609375,59.08203125,0.0
51.98046875,-24.90234375,-19.04296875,17.578125,-4.8828125,68.84765625,0.0
51.984375,-45.8984375,-36.62109375,-81.0546875,-32.2265625,-22.94921875,0.0
51.98828125,-29.78515625,-9.765625,-67.3828125,-27.34375,32.2265625,0.0
51.9921875,1.46484375,5.859375,63.4765625,18.06640625,54.6875,0.0
51.99609375,-11.71875,-15.13671875,69.82421875,6.34765625,58.59375,0.0
52.0,-28.3203125,-34.66796875,-1.953125,-24.90234375,126.46484375,0.0
52.00390625,-44.921875,-40.0390625,-41.50390625,-39.0625,97.65625,0.0
52.0078125,-38.0859375,-29.78515625,-49.8046875,-51.26953125,-49.31640625,0.0
52.01171875,-6.8359375,-38.0859375,-47.8515625,-36.62109375,-106.93359375,0.0
52.015625,-21.97265625,-28.3203125,-18.5546875,-7.32421875,-12.20703125,0.0
52.01953125,-22.94921875,4.39453125,20.99609375,16.6015625,4.39453125,0.0
52.0234375,-25.390625,-20.01953125,3.90625,-13.671875,-19.53125,0.0
52.02734375,-36.1328125,-51.7578125,-14.6484375,-17.08984375,15.13671875,0.0
52.03125,-40.52734375,-46.38671875,-40.0390625,-25.390625,-9.765625,0.0
52.03515625,-33.203125,-65.91796875,-59.08203125,-26.85546875,-128.41796875,0.0
52.0390625,-11.23046875,-64.94140625,-82.03125,-13.671875,-156.25,0.0
52.04296875,-0.9765625,-13.671875,-145.99609375,-23.92578125,-66.89453125,0.0
52.046875,-19.53125,2.44140625,-25.87890625,-30.2734375,-13.671875,0.0
52.05078125,-15.13671875,7.8125,107.421875,-16.11328125,-32.2265625,0.0
52.0546875,6.8359375,-10.25390625,60.05859375,-0.9765625,-44.43359375,0.0
52.05859375,38.0859375,-57.12890625,37.109375,5.859375,-6.34765625,0.0
52.0625,45.41015625,-67.87109375,29.296875,22.4609375,56.640625,0.0
52.06640625,-19.53125,-50.29296875,-54.19921875,-22.94921875,-15.625,0.0
52.0703125,-47.8515625,-23.92578125,-101.07421875,-61.03515625,-97.16796875,0.0
52.07421875,-20.5078125,-21.97265625,-86.42578125,-29.78515625,-53.22265625,0.0
52.078125,-2.44140625,-46.38671875,-58.59375,-13.671875,-10.7421875,0.0
52.08203125,4.8828125,-36.1328125,-21.484375,-5.37109375,-8.30078125,0.0
52.0859375,-1.953125,-14.6484375,0.48828125,-8.30078125,-5.37109375,0.0
52.08984375,-9.765625,-24.90234375,4.8828125,0.0,13.671875,0.0
52.09375,-4.39453125,-47.8515625,5.859375,3.90625,16.6015625,0.0
52.09765625,23.4375,-19.04296875,-4.8828125,12.6953125,-8.7890625,0.0
52.1015625,31.25,3.41796875,-42.96875,20.5078125,-87.40234375,0.0
52.10546875,2.44140625,-20.01953125,-77.1484375,-0.48828125,-125.48828125,0.0
52.109375,-15.13671875,-43.45703125,-32.71484375,1.953125,-88.8671875,0.0
52.11328125,-6.34765625,-42.96875,19.53125,-1.46484375,-28.80859375,0.0
52.1171875,-8.30078125,-48.33984375,22.4609375,-1.46484375,-7.8125,0.0
52.12109375,-8.30078125,-40.0390625,-9.765625,-0.48828125,-34.1796875,0.0
52.125,-12.6953125,-24.4140625,-68.359375,-29.296875,-66.40625,0.0
52.12890625,-7.8125,-34.1796875,-87.40234375,-35.15625,-62.98828125,0.0
52.1328125,7.8125,-15.625,28.3203125,8.30078125,-41.50390625,0.0
52.13671875,25.87890625,-0.9765625,97.16796875,25.87890625,-42.96875,0.0
52.140625,34.1796875,-27.34375,-35.15625,-6.34765625,-79.1015625,0.0
52.14453125,-2.44140625,-41.50390625,-129.39453125,-21.97265625,-113.76953125,0.0
52.1484375,-27.83203125,-12.6953125,-11.71875,-29.78515625,-51.26953125,0.0
52.15234375,-17.08984375,8.30078125,36.1328125,-22.4609375,0.9765625,0.0
52.15625,-7.32421875,-17.578125,-12.20703125,-12.6953125,-41.015625,0.0
52.16015625,5.37109375,-25.87890625,-41.50390625,5.859375,-67.3828125,0.0
52.1640625,8.7890625,-20.01953125,-6.34765625,20.99609375,-25.390625,0.0
52.16796875,-19.53125,-23.4375,-20.5078125,-13.671875,15.625,0.0
52.171875,-15.13671875,-33.69140625,-69.3359375,-36.1328125,-11.23046875,0.0
52.17578125,-20.5078125,-44.43359375,-51.26953125,-42.48046875,42.48046875,0.0
52.1796875,-22.94921875,-43.9453125,-52.734375,-24.4140625,83.49609375,0.0
52.18359375,-2.44140625,-27.34375,-62.5,-13.18359375,58.59375,0.0
52.1875,10.7421875,-31.73828125,-45.41015625,-2.9296875,61.5234375,0.0
52.19140625,20.5078125,-65.91796875,48.828125,21.97265625,45.41015625,0.0
52.1953125,-12.6953125,-39.0625,44.43359375,-16.11328125,-31.25,0.0
52.19921875,-39.55078125,5.859375,-13.671875,-36.1328125,-21.97265625,0.0
52.203125,-17.578125,-13.18359375,-13.18359375,-20.01953125,40.0390625,0.0
52.20703125,-24.90234375,-40.52734375,-35.64453125,-33.69140625,59.08203125,0.0
52.2109375,-6.8359375,-53.22265625,-23.92578125,-27.83203125,14.6484375,0.0
52.21484375,9.765625,-68.84765625,11.71875,-28.3203125,43.9453125,0.0
52.21875,-7.32421875,-28.80859375,-23.92578125,-34.1796875,64.94140625,0.0
52.22265625,-6.8359375,-12.20703125,-59.5703125,-34.66796875,-18.06640625,0.0
52.2265625,0.0,-41.50390625,-35.64453125,-33.203125,-31.25,0.0
52.23046875,-18.06640625,-38.57421875,-58.59375,-57.6171875,-39.0625,0.0
52.234375,-17.578125,-34.1796875,-55.17578125,-79.58984375,-19.53125,0.0
52.23828125,30.76171875,-32.2265625,24.4140625,-50.29296875,-20.99609375,0.0
52.2421875,41.50390625,-11.23046875,69.82421875,-31.25,-9.765625,0.0
52.24609375,-3.41796875,-29.296875,0.0,-58.59375,19.04296875,0.0
52.25,-28.80859375,-58.10546875,-70.3125,-83.984375,-11.23046875,0.0
52.25390625,-12.6953125,-17.578125,-28.3203125,-69.82421875,8.7890625,0.0
52.2578125,-1.46484375,-8.30078125,-14.6484375,-86.9140625,6.8359375,0.0
52.26171875,-1.46484375,-33.203125,-1.953125,-97.16796875,28.3203125,0.0
52.265625,-12.6953125,-43.9453125,15.625,-90.33203125,10.7421875,0.0
52.26953125,-25.390625,-59.08203125,-9.27734375,-108.88671875,-26.85546875,0.0
52.2734375,-7.8125,-43.45703125,-41.9921875,-145.01953125,-29.78515625,0.0
52.27734375,-0.48828125,-45.41015625,-47.36328125,-187.5,-74.70703125,0.0
52.28125,-11.23046875,-48.33984375,-46.875,-198.2421875,-174.31640625,0.0
52.28515625,-6.34765625,-15.625,-62.5,-215.8203125,-74.21875,0.0
52.2890625,0.0,-8.30078125,20.99609375,-251.953125,-24.4140625,0.0
52.29296875,-12.6953125,1.953125,50.78125,-247.0703125,-120.60546875,0.0
52.296875,-27.34375,-20.01953125,-27.34375,-262.20703125,-106.4453125,0.0
52.30078125,-14.16015625,-50.29296875,-32.71484375,-290.0390625,-92.28515625,0.0
52.3046875,-16.11328125,-62.01171875,-1.46484375,-277.83203125,-103.02734375,0.0
52.30859375,-30.76171875,-36.1328125,-47.8515625,-279.78515625,-49.8046875,0.0
52.3125,-21.484375,-15.625,-34.1796875,-271.97265625,-41.015625,0.0
52.31640625,11.71875,-6.8359375,7.8125,-239.2578125,-27.83203125,0.0
52.3203125,36.62109375,-5.37109375,62.01171875,-231.4453125,5.859375,0.0
52.32421875,32.71484375,-50.78125,60.546875,-227.5390625,-36.1328125,0.0
52.328125,17.578125,-81.0546875,-23.92578125,-225.09765625,-103.515625,0.0
52.33203125,-21.97265625,-48.828125,-86.9140625,-261.23046875,-117.67578125,0.0
52.3359375,-17.08984375,-17.578125,-56.15234375,-259.27734375,-23.92578125,0.0
52.33984375,10.7421875,-29.296875,14.6484375,-222.65625,-34.66796875,0.0
52.34375,17.08984375,-37.109375,56.640625,-195.3125,-34.66796875,0.0
52.34765625,3.90625,-20.5078125,2.9296875,-189.453125,24.90234375,0.0
52.3515625,-22.4609375,-18.5546875,-7.32421875,-197.75390625,-86.42578125,0.0
52.35546875,1.46484375,-19.04296875,13.671875,-192.3828125,-148.4375,0.0
52.359375,29.296875,-6.8359375,-11.23046875,-181.15234375,-137.6953125,0.0
52.36328125,31.25,-19.04296875,-30.2734375,-175.78125,-151.85546875,0.0
52.3671875,15.625,-38.0859375,-49.8046875,-173.33984375,-146.484375,0.0
52.37109375,11.23046875,-58.59375,-89.35546875,-175.78125,-152.34375,0.0
52.375,49.31640625,-57.12890625,-42.96875,-149.90234375,-151.85546875,0.0
52.37890625,33.69140625,-47.8515625,54.6875,-174.31640625,-97.65625,0.0
52.3828125,-15.625,-38.57421875,57.6171875,-190.91796875,11.23046875,0.0
52.38671875,-24.4140625,-14.16015625,4.8828125,-134.27734375,50.29296875,0.0
52.390625,-14.6484375,-4.8828125,-44.43359375,-129.8828125,40.52734375,0.0
52.39453125,-8.7890625,-25.390625,-42.48046875,-144.53125,66.89453125,0.0
52.3984375,-1.953125,-26.85546875,-9.765625,-152.83203125,51.7578125,0.0
52.40234375,18.5546875,-34.66796875,-29.78515625,-128.90625,39.0625,0.0
52.40625,57.6171875,-63.96484375,-36.62109375,-90.33203125,22.4609375,0.0
52.41015625,45.8984375,-68.84765625,2.44140625,-91.30859375,-11.71875,0.0
52.4140625,-15.13671875,-43.9453125,32.71484375,-133.30078125,9.27734375,0.0
52.41796875,-19.53125,-31.73828125,5.859375,-145.99609375,-28.80859375,0.0
52.421875,-29.78515625,-20.99609375,-28.3203125,-161.62109375,-11.23046875,0.0
52.42578125,-53.7109375,8.7890625,-44.43359375,-174.8046875,-12.20703125,0.0
52.4296875,-19.53125,-2.9296875,-45.8984375,-144.04296875,-19.53125,0.0
52.43359375,6.8359375,-17.08984375,-15.625,-134.27734375,31.25,0.0
52.4375,-28.80859375,15.13671875,-81.0546875,-165.0390625,25.87890625,0.0
52.44140625,-62.01171875,-3.90625,-77.1484375,-196.77734375,-24.4140625,0.0
52.4453125,-89.84375,-41.9921875,54.19921875,-220.21484375,-66.89453125,0.0
52.44921875,-67.3828125,-5.37109375,93.75,-194.82421875,0.0,0.0
52.453125,-61.03515625,8.7890625,-29.78515625,-199.21875,-12.20703125,0.0
52.45703125,-124.0234375,-29.78515625,-119.62890625,-277.83203125,-54.6875,0.0
52.4609375,-140.13671875,2.44140625,26.3671875,-268.5546875,-150.87890625,0.0
52.46484375,-126.46484375,36.1328125,22.94921875,-239.2578125,-236.81640625,0.0
52.46875,-128.90625,26.3671875,-81.54296875,-235.83984375,-105.95703125,0.0
52.47265625,-153.80859375,-23.4375,-54.19921875,-223.14453125,-12.20703125,0.0
52.4765625,-100.5859375,-44.43359375,-4.8828125,-207.51953125,-20.5078125,0.0
52.48046875,-58.10546875,41.9921875,41.9921875,-204.1015625,36.1328125,0.0
52.484375,-117.67578125,69.3359375,33.203125,-219.7265625,29.296875,0.0
52.48828125,-131.8359375,44.43359375,-77.63671875,-225.09765625,22.4609375,0.0
52.4921875,-102.5390625,42.96875,-20.5078125,-215.33203125,95.21484375,0.0
52.49609375,-125.9765625,17.578125,10.25390625,-233.88671875,47.8515625,0.0
52.5,-140.625,-23.4375,33.203125,-225.09765625,-39.55078125,0.0
52.50390625,-128.90625,-23.4375,31.73828125,-188.4765625,11.71875,0.0
52.5078125,-113.76953125,56.15234375,-66.89453125,-186.5234375,75.1953125,0.0
52.51171875,-28.80859375,116.69921875,62.98828125,-127.44140625,61.03515625,0.0
52.515625,-72.265625,56.15234375,62.5,-167.96875,17.578125,0.0
52.51953125,-163.0859375,-4.8828125,-49.8046875,-239.74609375,15.625,0.0
52.5234375,-151.3671875,36.62109375,-86.42578125,-216.796875,26.85546875,0.0
52.52734375,-114.2578125,69.3359375,-61.03515625,-180.6640625,47.36328125,0.0
52.53125,-73.2421875,0.48828125,44.921875,-146.484375,43.45703125,0.0
52.53515625,-48.828125,-57.12890625,54.6875,-108.88671875,-31.73828125,0.0
52.5390625,-55.6640625,30.76171875,-116.2109375,-103.515625,-166.015625,0.0
52.54296875,-69.3359375,70.80078125,-37.109375,-124.51171875,-79.58984375,0.0
52.546875,-67.3828125,36.1328125,80.56640625,-102.5390625,40.0390625,0.0
52.55078125,-41.015625,22.4609375,61.03515625,-58.59375,3.90625,0.0
52.5546875,-39.0625,40.0390625,84.47265625,-72.75390625,18.06640625,0.0
52.55859375,-98.14453125,43.45703125,-38.57421875,-131.8359375,32.2265625,0.0
52.5625,-103.02734375,7.8125,-165.52734375,-130.859375,-12.20703125,0.0
52.56640625,-83.984375,-5.859375,-62.01171875,-77.63671875,-18.06640625,0.0
52.5703125,-79.58984375,-13.671875,34.1796875,-70.80078125,-25.87890625,0.0
52.57421875,4.8828125,-8.7890625,53.22265625,-19.04296875,5.859375,0.0
52.578125,21.484375,29.296875,48.828125,8.30078125,18.06640625,0.0
52.58203125,-42.48046875,-1.953125,-6.8359375,-35.64453125,-26.3671875,0.0
52.5859375,-56.15234375,-46.875,-87.40234375,-41.9921875,-75.1953125,0.0
52.58984375,-10.25390625,8.30078125,-20.5078125,14.6484375,-68.84765625,0.0
52.59375,-44.43359375,43.9453125,-12.20703125,-4.39453125,-3.90625,0.0
52.59765625,-91.796875,45.8984375,-6.8359375,-61.5234375,47.36328125,0.0
52.6015625,-86.42578125,22.94921875,27.83203125,-62.5,-74.70703125,0.0
52.60546875,-62.98828125,-34.66796875,-37.109375,-6.8359375,-103.02734375,0.0
52.609375,-44.921875,-83.49609375,-88.8671875,17.578125,-20.99609375,0.0
52.61328125,-63.96484375,-59.5703125,-72.75390625,-30.76171875,37.109375,0.0
52.6171875,-35.64453125,-50.29296875,-37.109375,-13.671875,53.22265625,0.0
52.62109375,-12.6953125,-7.32421875,-35.15625,9.765625,25.87890625,0.0
52.625,-12.6953125,46.875,11.23046875,14.6484375,-48.33984375,0.0
52.62890625,-21.97265625,15.13671875,-5.37109375,19.53125,-43.9453125,0.0
52.6328125,-20.99609375,-20.99609375,-33.203125,20.99609375,46.38671875,0.0
52.63671875,-22.4609375,-17.08984375,-63.96484375,28.3203125,41.9921875,0.0
52.640625,-57.6171875,-56.640625,-171.875,18.06640625,35.64453125,0.0
52.64453125,-82.03125,-73.2421875,-69.82421875,24.4140625,24.4140625,0.0
52.6484375,-67.87109375,12.6953125,76.171875,56.640625,75.68359375,0.0
52.65234375,-73.73046875,47.36328125,4.8828125,52.734375,75.1953125,0.0
52.65625,-68.359375,22.4609375,9.765625,76.171875,-32.2265625,0.0
52.66015625,-81.0546875,-2.44140625,20.01953125,104.4921875,-101.5625,0.0
52.6640625,-88.37890625,0.48828125,-21.97265625,108.88671875,-125.9765625,0.0
52.66796875,-50.78125,6.34765625,-69.82421875,160.64453125,-56.15234375,0.0
52.671875,-49.8046875,-43.9453125,-94.23828125,176.26953125,6.8359375,0.0
52.67578125,-64.453125,-46.875,-9.765625,168.45703125,-38.0859375,0.0
52.6796875,-87.890625,0.9765625,1.46484375,145.01953125,-163.57421875,0.0
52.68359375,-91.796875,6.34765625,-36.62109375,119.62890625,-208.49609375,0.0
52.6875,-64.453125,-10.25390625,-54.6875,143.06640625,-190.4296875,0.0
52.69140625,-54.19921875,-9.27734375,-32.71484375,173.828125,-99.12109375,0.0
52.6953125,-57.6171875,-4.39453125,-35.15625,213.37890625,-17.08984375,0.0
52.69921875,-55.17578125,-30.2734375,-106.93359375,229.4921875,-104.00390625,0.0
52.703125,-29.78515625,-27.83203125,-51.7578125,219.23828125,-204.1015625,0.0
52.70703125,12.20703125,-24.4140625,-13.671875,240.72265625,-186.03515625,0.0
52.7109375,5.37109375,-36.1328125,-8.30078125,237.79296875,-179.6875,0.0
52.71484375,-19.53125,-9.765625,37.59765625,208.984375,-178.7109375,0.0
52.71875,19.53125,10.7421875,24.90234375,223.14453125,-127.44140625,0.0
52.72265625,32.2265625,-22.4609375,-85.44921875,237.3046875,-182.6171875,0.0
52.7265625,7.8125,-45.8984375,-76.171875,187.01171875,-180.17578125,0.0
52.73046875,-13.671875,-39.55078125,1.46484375,125.0,-93.75,0.0
52.734375,8.7890625,6.34765625,24.90234375,142.08984375,-47.8515625,0.0
52.73828125,11.71875,18.5546875,15.13671875,152.34375,-93.26171875,0.0
52.7421875,-18.5546875,-20.5078125,-54.19921875,108.88671875,-28.3203125,0.0
52.74609375,-8.7890625,1.46484375,-78.125,110.3515625,129.39453125,0.0
52.75,-26.85546875,10.7421875,-6.8359375,108.88671875,104.98046875,0.0
52.75390625,-18.06640625,-2.9296875,-21.97265625,110.83984375,37.59765625,0.0
52.7578125,-15.13671875,13.671875,-66.89453125,105.46875,23.92578125,0.0
52.76171875,-43.9453125,32.2265625,-60.546875,70.80078125,39.55078125,0.0
52.765625,-31.73828125,14.16015625,-5.859375,79.1015625,66.89453125,0.0
52.76953125,13.18359375,-20.5078125,35.15625,124.0234375,74.70703125,0.0
52.7734375,-20.99609375,20.01953125,-49.8046875,89.84375,44.43359375,0.0
52.77734375,-92.7734375,38.57421875,-73.2421875,23.4375,-32.71484375,0.0
52.78125,-87.40234375,7.32421875,9.765625,58.10546875,-43.45703125,0.0
52.78515625,-49.8046875,-25.87890625,38.57421875,80.56640625,-36.62109375,0.0
52.7890625,-42.48046875,-13.671875,2.9296875,74.21875,-29.78515625,0.0
52.79296875,-20.01953125,6.8359375,-35.64453125,91.796875,-6.8359375,0.0
52.796875,7.32421875,32.2265625,-39.55078125,91.796875,9.27734375,0.0
52.80078125,-30.2734375,32.2265625,-68.359375,56.15234375,-35.64453125,0.0
52.8046875,-39.55078125,23.4375,-61.5234375,53.7109375,-28.80859375,0.0
52.80859375,-9.27734375,29.78515625,-65.4296875,57.12890625,51.26953125,0.0
52.8125,-4.8828125,10.25390625,-53.22265625,45.8984375,61.03515625,0.0
52.81640625,14.6484375,-8.7890625,37.109375,75.1953125,-16.6015625,0.0
52.8203125,40.0390625,-32.71484375,72.265625,115.72265625,-45.41015625,0.0
52.82421875,14.6484375,-9.27734375,45.8984375,107.91015625,-26.85546875,0.0
52.828125,-17.08984375,-13.671875,-2.9296875,60.05859375,-46.38671875,0.0
52.83203125,-4.8828125,-52.734375,-38.57421875,62.5,-44.43359375,0.0
52.8359375,18.06640625,1.953125,-34.1796875,73.2421875,-24.4140625,0.0
52.83984375,23.92578125,30.76171875,-61.5234375,78.125,-9.27734375,0.0
52.84375,37.59765625,-10.25390625,-83.984375,77.1484375,-7.32421875,0.0
52.84765625,60.05859375,-10.25390625,-8.7890625,67.3828125,11.23046875,0.0
52.8515625,76.171875,-2.9296875,20.99609375,69.3359375,-3.90625,0.0
52.85546875,98.14453125,-26.85546875,4.8828125,68.84765625,-41.9921875,0.0
52.859375,53.7109375,-47.36328125,12.6953125,73.2421875,-37.59765625,0.0
52.86328125,4.8828125,-50.29296875,-36.62109375,67.87109375,-9.765625,0.0
52.8671875,33.69140625,-22.94921875,-73.73046875,54.6875,37.109375,0.0
52.87109375,45.8984375,0.0,-38.0859375,73.2421875,22.94921875,0.0
52.875,51.7578125,18.5546875,15.13671875,96.6796875,-1.46484375,0.0
52.87890625,29.78515625,-0.9765625,0.48828125,76.66015625,6.34765625,0.0
52.8828125,10.7421875,-34.1796875,-28.80859375,68.359375,-47.8515625,0.0
52.88671875,27.83203125,-15.13671875,-33.203125,78.61328125,-16.6015625,0.0
52.890625,43.45703125,-50.29296875,-36.62109375,108.3984375,7.32421875,0.0
52.89453125,38.0859375,-120.1171875,-39.0625,110.83984375,-64.94140625,0.0
52.8984375,14.6484375,-30.76171875,-55.17578125,87.890625,-14.16015625,0.0
52.90234375,0.9765625,18.5546875,-49.31640625,76.171875,47.8515625,0.0
52.90625,0.9765625,-14.16015625,-15.625,59.5703125,20.01953125,0.0
52.91015625,-2.44140625,-11.23046875,-42.48046875,56.640625,17.578125,0.0
52.9140625,-7.8125,-19.04296875,-78.125,59.08203125,-48.33984375,0.0
52.91796875,2.9296875,-62.98828125,-19.04296875,97.16796875,-83.0078125,0.0
52.921875,54.6875,-95.21484375,-3.41796875,128.41796875,-37.109375,0.0
52.92578125,23.4375,-56.640625,-2.9296875,106.93359375,-37.109375,0.0
52.9296875,-41.50390625,-0.9765625,-15.625,82.51953125,-9.765625,0.0
52.93359375,-32.71484375,10.25390625,-36.62109375,48.828125,-0.9765625,0.0
52.9375,-22.4609375,-16.11328125,-51.7578125,58.10546875,-4.8828125,0.0
52.94140625,8.7890625,-54.6875,-42.96875,99.12109375,11.71875,0.0
52.9453125,32.2265625,-66.89453125,10.25390625,117.1875,10.25390625,0.0
52.94921875,11.71875,-44.921875,-49.31640625,116.69921875,32.71484375,0.0
52.953125,-12.20703125,-57.12890625,-84.47265625,96.19140625,80.56640625,0.0
52.95703125,-2.9296875,-50.29296875,-24.90234375,87.40234375,122.55859375,0.0
52.9609375,9.765625,-15.625,-22.94921875,48.828125,111.328125,0.0
52.96484375,0.0,-22.94921875,-68.84765625,28.80859375,47.36328125,0.0
52.96875,-3.90625,-53.22265625,-73.2421875,40.0390625,-6.8359375,0.0
52.97265625,12.20703125,-39.0625,-62.5,48.33984375,-7.8125,0.0
52.9765625,29.296875,-24.4140625,-74.21875,53.22265625,-5.37109375,0.0
52.98046875,37.109375,-35.64453125,-33.69140625,37.59765625,-6.34765625,0.0
52.984375,38.57421875,-61.5234375,1.46484375,32.2265625,-22.94921875,0.0
52.98828125,33.203125,-79.58984375,-1.46484375,2.9296875,-31.73828125,0.0
52.9921875,-1.46484375,-74.70703125,-27.83203125,-78.61328125,-63.4765625,0.0
52.99609375,10.25390625,-49.31640625,-84.47265625,-74.70703125,-96.6796875,0.0
53.0,31.25,-12.6953125,-83.984375,-39.55078125,-86.9140625,0.0
53.00390625,26.3671875,-16.6015625,-26.3671875,-23.92578125,-86.9140625,0.0
53.0078125,32.71484375,-80.078125,-12.6953125,11.71875,-104.4921875,0.0
53.01171875,45.41015625,-85.9375,20.01953125,-41.50390625,-62.98828125,0.0
53.015625,47.36328125,-53.22265625,-6.8359375,-51.26953125,63.4765625,0.0
53.01953125,40.0390625,-28.80859375,-72.75390625,3.41796875,139.16015625,0.0
53.0234375,29.78515625,-36.1328125,5.37109375,-7.32421875,42.96875,0.0
53.02734375,10.7421875,-31.25,12.6953125,-20.01953125,-42.96875,0.0
53.03125,2.9296875,-20.5078125,-82.03125,-20.01953125,-11.71875,0.0
53.03515625,19.04296875,-65.4296875,-41.015625,-23.4375,69.82421875,0.0
53.0390625,57.12890625,-94.7265625,19.53125,-2.9296875,99.12109375,0.0
53.04296875,63.4765625,-79.58984375,-19.04296875,-6.34765625,86.9140625,0.0
53.046875,32.2265625,-13.18359375,-52.24609375,-20.01953125,41.015625,0.0
53.05078125,36.1328125,28.3203125,-73.73046875,-14.16015625,-16.6015625,0.0
53.0546875,60.05859375,13.18359375,-64.453125,-0.48828125,-64.94140625,0.0
53.05859375,51.26953125,-22.94921875,-44.921875,-0.48828125,-65.91796875,0.0
53.0625,45.41015625,-49.31640625,-40.0390625,-7.8125,-49.31640625,0.0
53.06640625,63.96484375,-46.38671875,30.2734375,14.6484375,-44.43359375,0.0
53.0703125,59.5703125,-53.22265625,62.01171875,37.109375,42.96875,0.0
53.07421875,36.1328125,-45.41015625,10.25390625,33.69140625,-30.76171875,0.0
53.078125,47.36328125,-29.78515625,-30.2734375,44.43359375,-156.25,0.0
53.08203125,44.921875,-39.55078125,-40.0390625,48.33984375,-55.17578125,0.0
53.0859375,31.73828125,-40.52734375,-72.75390625,25.390625,34.1796875,0.0
53.08984375,78.61328125,-71.77734375,-66.40625,44.43359375,12.20703125,0.0
53.09375,88.8671875,-80.078125,-60.05859375,51.26953125,-8.30078125,0.0
53.09765625,32.71484375,-29.296875,-31.73828125,4.39453125,-1.953125,0.0
53.1015625,17.578125,-1.953125,-27.83203125,3.90625,-51.7578125,0.0
53.10546875,46.875,-34.1796875,-41.50390625,30.76171875,-74.70703125,0.0
53.109375,62.01171875,-85.44921875,0.9765625,45.41015625,-60.546875,0.0
53.11328125,44.43359375,-51.26953125,3.90625,46.38671875,-11.71875,0.0
53.1171875,26.85546875,0.9765625,-35.15625,20.99609375,34.1796875,0.0
53.12109375,3.41796875,-12.20703125,-91.796875,-1.46484375,17.578125,0.0
53.125,-0.9765625,-20.99609375,-162.59765625,-10.7421875,-29.78515625,0.0
53.12890625,26.85546875,-39.0625,-71.77734375,24.90234375,-80.56640625,0.0
53.1328125,29.78515625,-87.890625,-0.48828125,35.64453125,-108.88671875,0.0
53.13671875,48.828125,-102.05078125,-36.1328125,36.1328125,-128.41796875,0.0
53.140625,72.75390625,-43.9453125,24.90234375,62.98828125,-134.27734375,0.0
53.14453125,88.37890625,25.87890625,62.01171875,90.8203125,-139.16015625,0.0
53.1484375,48.33984375,-18.5546875,-22.4609375,38.0859375,-102.5390625,0.0
53.15234375,-24.90234375,-61.03515625,-173.33984375,-41.015625,-83.0078125,0.0
53.15625,-7.32421875,-42.96875,-89.84375,-41.50390625,-84.9609375,0.0
53.16015625,34.1796875,-57.6171875,48.828125,8.7890625,-20.5078125,0.0
53.1640625,33.69140625,-39.0625,0.9765625,47.36328125,2.44140625,0.0
53.16796875,25.87890625,-32.2265625,-31.25,34.1796875,19.04296875,0.0
53.171875,58.59375,-50.78125,-0.48828125,42.96875,60.546875,0.0
53.17578125,61.5234375,-32.71484375,18.5546875,49.31640625,54.6875,0.0
53.1796875,32.2265625,-5.37109375,-34.1796875,1.46484375,7.32421875,0.0
53.18359375,64.94140625,-45.8984375,-132.32421875,-1.46484375,22.4609375,0.0
53.1875,76.171875,-104.4921875,-61.03515625,38.57421875,38.57421875,0.0
53.19140625,34.66796875,-22.94921875,20.01953125,15.13671875,-13.18359375,0.0
53.1953125,23.4375,34.66796875,-70.80078125,-27.83203125,-35.64453125,0.0
53.19921875,46.875,-75.68359375,-121.58203125,22.4609375,14.6484375,0.0
53.203125,64.94140625,-49.31640625,0.9765625,81.0546875,74.21875,0.0
53.20703125,26.85546875,29.78515625,86.42578125,36.62109375,20.5078125,0.0
53.2109375,-6.8359375,-5.859375,40.0390625,3.90625,-60.05859375,0.0
53.21484375,3.90625,2.9296875,20.99609375,20.99609375,-79.58984375,0.0
53.21875,7.8125,-0.9765625,-4.39453125,9.765625,-75.68359375,0.0
53.22265625,15.625,-18.5546875,-56.640625,12.20703125,-47.8515625,0.0
53.2265625,34.1796875,-5.37109375,-41.015625,39.0625,-54.19921875,0.0
53.23046875,35.64453125,-18.5546875,-50.78125,27.34375,-60.546875,0.0
53.234375,36.62109375,-39.55078125,-78.61328125,8.7890625,-30.2734375,0.0
53.23828125,6.8359375,-76.66015625,-111.81640625,7.8125,28.3203125,0.0
53.2421875,-31.25,-108.3984375,-30.76171875,-14.16015625,55.6640625,0.0
53.24609375,-38.57421875,-58.59375,53.22265625,-36.1328125,47.36328125,0.0
53.25,-43.9453125,-14.6484375,4.8828125,-30.2734375,13.671875,0.0
53.25390625,-54.19921875,-37.59765625,-19.04296875,-12.6953125,-46.38671875,0.0
53.2578125,-90.8203125,-78.125,-79.1015625,-38.57421875,-61.03515625,0.0
53.26171875,-126.46484375,-104.98046875,-123.046875,-53.22265625,-51.26953125,0.0
53.265625,-122.55859375,-86.42578125,-26.3671875,-47.8515625,-86.9140625,0.0
53.26953125,-102.5390625,-84.9609375,-5.37109375,-47.36328125,-67.3828125,0.0
53.2734375,-49.8046875,-110.3515625,-7.8125,-4.39453125,45.8984375,0.0
53.27734375,-84.47265625,-98.6328125,31.25,-36.1328125,13.671875,0.0
53.28125,-184.5703125,-105.46875,-13.671875,-104.98046875,-123.046875,0.0
53.28515625,-215.33203125,-73.2421875,-109.86328125,-120.1171875,-101.07421875,0.0
53.2890625,-198.2421875,-83.49609375,-138.671875,-114.2578125,-11.23046875,0.0
53.29296875,-111.81640625,-164.55078125,-29.78515625,-47.36328125,-43.45703125,0.0
53.296875,-67.87109375,-104.00390625,-55.6640625,-29.296875,-20.5078125,0.0
53.30078125,-121.58203125,-60.546875,-77.63671875,-48.33984375,-3.90625,0.0
53.3046875,-166.015625,-181.15234375,28.3203125,-67.87109375,-45.41015625,0.0
53.30859375,-145.01953125,-126.953125,-26.85546875,-70.80078125,-6.34765625,0.0
53.3125,-126.953125,1.46484375,-29.296875,-36.62109375,-37.59765625,0.0
53.31640625,-136.71875,-29.296875,-40.0390625,-53.22265625,-75.68359375,0.0
53.3203125,-118.1640625,-94.7265625,-104.98046875,-90.8203125,45.8984375,0.0
53.32421875,-84.47265625,-85.9375,-16.11328125,-67.87109375,67.87109375,0.0
53.328125,-59.5703125,-103.515625,33.69140625,-26.3671875,-9.27734375,0.0
53.33203125,-34.1796875,-191.89453125,-12.6953125,-11.23046875,-28.80859375,0.0
53.3359375,-50.78125,-87.890625,-98.14453125,-49.8046875,-32.71484375,0.0
53.33984375,-100.09765625,-7.32421875,-127.44140625,-99.12109375,-96.19140625,0.0
53.34375,-103.02734375,-35.15625,-58.59375,-77.63671875,-103.02734375,0.0
53.34765625,-65.91796875,-36.1328125,-9.765625,-27.83203125,-67.3828125,0.0
53.3515625,-9.765625,-83.984375,-1.953125,8.30078125,-83.984375,0.0
53.35546875,11.23046875,-145.01953125,2.44140625,28.80859375,-30.2734375,0.0
53.359375,-22.4609375,-59.08203125,-72.75390625,-0.9765625,-38.0859375,0.0
53.36328125,-89.35546875,7.32421875,-248.046875,-67.3828125,-6.34765625,0.0
53.3671875,-36.62109375,-57.6171875,-109.375,-16.11328125,14.16015625,0.0
53.37109375,17.578125,-53.7109375,4.39453125,37.109375,-59.08203125,0.0
53.375,-28.80859375,-16.11328125,83.49609375,5.859375,-23.92578125,0.0
53.37890625,-30.76171875,-10.7421875,84.9609375,-22.4609375,33.69140625,0.0
53.3828125,-3.90625,-46.875,4.8828125,-2.44140625,-19.53125,0.0
53.38671875,-11.23046875,-58.59375,-20.99609375,10.25390625,34.1796875,0.0
53.390625,-33.203125,-25.390625,-167.96875,-23.4375,142.578125,0.0
53.39453125,1.46484375,-41.9921875,-140.13671875,-24.4140625,62.98828125,0.0
53.3984375,3.41796875,-51.26953125,21.484375,-7.8125,-40.0390625,0.0
53.40234375,-7.8125,-25.87890625,22.94921875,0.0,-1.953125,0.0
53.40625,15.625,-28.3203125,-36.1328125,10.7421875,35.64453125,0.0
53.41015625,44.43359375,-67.3828125,-35.64453125,23.4375,-1.953125,0.0
53.4140625,68.359375,-44.43359375,8.7890625,35.64453125,-41.50390625,0.0
53.41796875,16.11328125,9.27734375,-108.88671875,-11.71875,-10.25390625,0.0
53.421875,-30.2734375,-8.30078125,-102.05078125,-51.7578125,-34.1796875,0.0
53.42578125,6.34765625,-50.29296875,59.5703125,-15.625,-50.78125,0.0
53.4296875,-14.16015625,-28.3203125,-33.69140625,-21.484375,50.29296875,0.0
53.43359375,17.578125,-71.77734375,-138.18359375,1.46484375,101.5625,0.0
53.4375,125.9765625,-17.578125,14.6484375,90.8203125,26.3671875,0.0
53.44140625,1.46484375,67.3828125,2.44140625,-20.01953125,17.578125,0.0
53.4453125,-109.86328125,3.90625,-55.17578125,-106.93359375,71.77734375,0.0
53.44921875,-37.59765625,-54.6875,-15.625,-43.45703125,-4.8828125,0.0
53.453125,14.16015625,-18.5546875,-3.41796875,3.90625,-71.77734375,0.0
53.45703125,-4.8828125,4.8828125,-141.6015625,-23.92578125,-62.5,0.0
53.4609375,-22.94921875,8.30078125,-199.70703125,-42.48046875,-114.2578125,0.0
53.46484375,3.41796875,-20.99609375,35.64453125,-12.20703125,-126.953125,0.0
53.46875,46.38671875,-59.5703125,125.0,26.85546875,-0.48828125,0.0
53.47265625,62.01171875,1.953125,41.015625,44.921875,18.06640625,0.0
53.4765625,17.578125,20.01953125,-0.48828125,2.9296875,-39.0625,0.0
53.48046875,-11.71875,-12.6953125,-115.72265625,-34.1796875,-10.7421875,0.0
53.484375,23.92578125,8.7890625,-170.8984375,4.8828125,-104.98046875,0.0
53.48828125,-16.6015625,-59.5703125,-53.7109375,-37.109375,-102.05078125,0.0
53.4921875,-32.2265625,-68.84765625,51.7578125,-46.38671875,11.71875,0.0
53.49609375,25.390625,24.90234375,54.19921875,18.5546875,-6.34765625,0.0
53.5,12.20703125,51.7578125,-40.52734375,-10.7421875,-43.9453125,0.0
53.50390625,-31.25,-13.18359375,-74.21875,-34.66796875,-78.125,0.0
53.5078125,6.34765625,-88.37890625,0.0,41.50390625,-128.90625,0.0
53.51171875,-23.4375,-55.6640625,-107.421875,5.37109375,-78.125,0.0
53.515625,-100.09765625,-3.41796875,-212.40234375,-94.7265625,-21.484375,0.0
53.51953125,12.6953125,55.6640625,-83.0078125,-24.90234375,-55.17578125,0.0
53.5234375,63.4765625,16.11328125,94.7265625,-2.44140625,-36.1328125,0.0
53.52734375,-16.6015625,-4.8828125,13.671875,-46.38671875,10.25390625,0.0
53.53125,-71.2890625,0.48828125,-166.9921875,-81.54296875,0.9765625,0.0
53.53515625,-10.25390625,15.625,-72.75390625,-33.69140625,-46.875,0.0
53.5390625,89.84375,9.765625,59.5703125,41.015625,-32.2265625,0.0
53.54296875,69.82421875,-146.97265625,-220.21484375,2.9296875,-12.6953125,0.0
53.546875,49.8046875,-152.34375,-326.66015625,-10.25390625,-110.3515625,0.0
53.55078125,28.3203125,4.8828125,-24.90234375,1.953125,-171.875,0.0
53.5546875,-22.94921875,115.234375,-92.28515625,-30.2734375,-122.0703125,0.0
53.55859375,24.4140625,100.5859375,-226.07421875,0.0,-85.9375,0.0
53.5625,19.04296875,17.08984375,-49.31640625,-2.9296875,-83.0078125,0.0
53.56640625,-99.609375,-2.44140625,-117.67578125,-124.0234375,-26.85546875,0.0
53.5703125,-115.72265625,-37.109375,-307.6171875,-169.43359375,18.5546875,0.0
53.57421875,-16.11328125,-44.43359375,-195.80078125,-68.84765625,-9.765625,0.0
53.578125,77.1484375,-79.58984375,-83.0078125,32.71484375,-106.93359375,0.0
53.58203125,58.59375,26.3671875,-94.23828125,29.296875,-83.0078125,0.0
53.5859375,120.60546875,31.25,-90.33203125,104.98046875,-13.671875,0.0
53.58984375,37.109375,-50.78125,-45.8984375,16.6015625,-57.6171875,0.0
53.59375,-138.671875,44.43359375,-167.48046875,-150.390625,-142.08984375,0.0
53.59765625,-100.09765625,47.8515625,-313.4765625,-125.48828125,-166.50390625,0.0
53.6015625,40.52734375,38.57421875,4.8828125,7.8125,-92.7734375,0.0
53.60546875,27.34375,90.33203125,60.05859375,5.37109375,-112.79296875,0.0
53.609375,-96.6796875,24.4140625,-166.015625,-129.39453125,-170.8984375,0.0
53.61328125,-13.671875,-60.05859375,-142.578125,-71.77734375,-100.5859375,0.0
53.6171875,119.140625,-15.13671875,-165.0390625,10.25390625,-112.79296875,0.0
53.62109375,28.3203125,22.94921875,-4.8828125,-66.89453125,-68.359375,0.0
53.625,0.0,83.984375,-50.78125,-64.94140625,20.5078125,0.0
53.62890625,-21.484375,58.10546875,-154.78515625,-112.79296875,23.92578125,0.0
53.6328125,-115.234375,-120.1171875,-135.25390625,-208.984375,-10.7421875,0.0
53.63671875,-157.71484375,-34.66796875,-174.31640625,-226.07421875,-9.27734375,0.0
53.640625,-135.7421875,126.953125,-406.73828125,-198.2421875,-8.7890625,0.0
53.64453125,-56.640625,108.88671875,-238.76953125,-101.5625,-37.109375,0.0
53.6484375,-30.2734375,-18.5546875,145.5078125,-41.50390625,41.50390625,0.0
53.65234375,-112.79296875,-60.05859375,85.44921875,-120.60546875,36.1328125,0.0
53.65625,-118.65234375,78.125,-2.9296875,-138.671875,-42.48046875,0.0
53.66015625,-142.578125,72.75390625,-166.50390625,-165.0390625,-35.64453125,0.0
53.6640625,-105.95703125,9.765625,-326.66015625,-118.65234375,-72.265625,0.0
53.66796875,-82.51953125,-59.5703125,-166.50390625,-113.28125,-66.40625,0.0
53.671875,-133.7890625,-69.82421875,-17.578125,-210.9375,45.41015625,0.0
53.67578125,-86.9140625,-3.41796875,-149.4140625,-185.05859375,104.98046875,0.0
53.6796875,-99.609375,-19.53125,-309.5703125,-193.359375,-20.01953125,0.0
53.68359375,-106.93359375,-23.4375,-224.12109375,-204.58984375,-33.203125,0.0
53.6875,-73.2421875,12.6953125,5.37109375,-172.8515625,7.32421875,0.0
53.69140625,-139.6484375,-12.20703125,14.16015625,-247.55859375,-25.390625,0.0
53.6953125,-168.9453125,65.4296875,-174.31640625,-270.01953125,3.41796875,0.0
53.69921875,-178.22265625,70.80078125,-289.0625,-298.33984375,-4.8828125,0.0
53.703125,-123.53515625,-42.48046875,-178.22265625,-300.29296875,-11.71875,0.0
53.70703125,-108.3984375,17.578125,-244.140625,-273.92578125,81.0546875,0.0
53.7109375,-142.08984375,131.34765625,-136.23046875,-246.58203125,23.4375,0.0
53.71484375,-125.9765625,113.76953125,80.56640625,-218.75,-11.23046875,0.0
53.71875,-115.234375,19.53125,-37.59765625,-229.00390625,-23.92578125,0.0
53.72265625,-73.73046875,-27.34375,-204.58984375,-187.01171875,-62.5,0.0
53.7265625,-104.4921875,-41.9921875,-290.0390625,-204.1015625,-60.05859375,0.0
53.73046875,-182.6171875,-42.96875,-132.32421875,-288.0859375,-81.0546875,0.0
53.734375,-148.4375,18.5546875,-48.828125,-270.99609375,-44.921875,0.0
53.73828125,-98.6328125,11.71875,-49.31640625,-223.6328125,-20.5078125,0.0
53.7421875,-94.7265625,-83.0078125,-57.12890625,-205.078125,20.5078125,0.0
53.74609375,-89.35546875,-59.5703125,-110.3515625,-185.05859375,38.57421875,0.0
53.75,-118.1640625,9.27734375,-141.6015625,-204.58984375,6.8359375,0.0
53.75390625,-166.9921875,30.76171875,-259.765625,-244.140625,20.99609375,0.0
53.7578125,-137.20703125,3.41796875,-193.84765625,-223.14453125,11.71875,0.0
53.76171875,-97.16796875,-6.34765625,-50.78125,-197.75390625,-2.9296875,0.0
53.765625,-113.76953125,-55.17578125,-114.2578125,-221.6796875,-24.4140625,0.0
53.76953125,-54.19921875,-124.0234375,-152.83203125,-170.41015625,-53.22265625,0.0
53.7734375,-42.48046875,-55.6640625,0.9765625,-164.0625,-46.875,0.0
53.77734375,-139.6484375,102.5390625,102.5390625,-236.81640625,-61.5234375,0.0
53.78125,-152.83203125,26.85546875,-29.296875,-228.02734375,32.71484375,0.0
53.78515625,-99.12109375,15.625,-21.97265625,-182.12890625,-6.34765625,0.0
53.7890625,-10.7421875,87.40234375,2.9296875,-114.2578125,-27.34375,0.0
53.79296875,-28.3203125,-16.6015625,-89.35546875,-141.11328125,-37.59765625,0.0
53.796875,-133.30078125,48.33984375,-120.1171875,-235.3515625,-124.51171875,0.0
53.80078125,-94.7265625,94.23828125,-144.04296875,-192.3828125,-41.50390625,0.0
53.8046875,-29.78515625,51.26953125,-54.19921875,-131.34765625,-38.57421875,0.0
53.80859375,-89.84375,74.21875,-27.83203125,-168.9453125,-1.46484375,0.0
53.8125,-156.73828125,51.7578125,-61.5234375,-209.9609375,-32.2265625,0.0
53.81640625,-94.23828125,-30.76171875,41.9921875,-177.734375,-93.26171875,0.0
53.8203125,-51.7578125,11.23046875,30.76171875,-146.97265625,-105.46875,0.0
53.82421875,-77.1484375,175.29296875,-87.40234375,-138.18359375,-80.56640625,0.0
53.828125,-20.99609375,136.23046875,-65.4296875,-89.35546875,-14.6484375,0.0
53.83203125,-11.71875,79.1015625,-40.0390625,-85.44921875,-18.5546875,0.0
53.8359375,-91.30859375,134.765625,-139.16015625,-149.4140625,-70.80078125,0.0
53.83984375,-80.078125,123.046875,-94.23828125,-153.3203125,-36.1328125,0.0
53.84375,-63.4765625,81.54296875,69.3359375,-120.60546875,-5.859375,0.0
53.84765625,-16.6015625,17.578125,84.47265625,-67.3828125,-1.46484375,0.0
53.8515625,-8.30078125,46.38671875,-26.3671875,-97.65625,37.59765625,0.0
53.85546875,-74.70703125,147.4609375,-174.31640625,-184.5703125,-17.578125,0.0
53.859375,-86.9140625,140.13671875,-67.3828125,-184.08203125,-39.0625,0.0
53.86328125,-18.06640625,62.5,109.375,-93.75,53.7109375,0.0
53.8671875,4.8828125,-0.48828125,101.07421875,-58.10546875,36.62109375,0.0
53.87109375,-52.24609375,81.0546875,-192.3828125,-113.28125,17.08984375,0.0
53.875,114.74609375,183.10546875,-115.234375,41.50390625,7.32421875,0.0
53.87890625,99.12109375,169.921875,148.92578125,12.20703125,-60.546875,0.0
53.8828125,-147.4609375,138.18359375,28.3203125,-233.88671875,14.16015625,0.0
53.88671875,-132.32421875,144.53125,11.71875,-217.28515625,75.68359375,0.0
53.890625,-48.828125,114.74609375,22.94921875,-157.71484375,73.2421875,0.0
53.89453125,-15.13671875,-2.44140625,-49.8046875,-133.30078125,72.265625,0.0
53.8984375,33.203125,29.78515625,-154.78515625,-70.3125,-5.37109375,0.0
53.90234375,15.625,170.8984375,-121.58203125,-89.84375,5.37109375,0.0
53.90625,24.4140625,194.3359375,142.578125,-64.453125,31.25,0.0
53.91015625,71.2890625,179.6875,241.2109375,0.9765625,2.9296875,0.0
53.9140625,-66.89453125,126.953125,9.27734375,-152.34375,-41.015625,0.0
53.91796875,-101.07421875,104.4921875,-98.6328125,-201.171875,-69.3359375,0.0
53.921875,-46.38671875,97.16796875,-205.078125,-145.01953125,-65.4296875,0.0
53.92578125,26.85546875,-20.01953125,-195.80078125,-84.9609375,-49.8046875,0.0
53.9296875,29.78515625,42.48046875,74.21875,-66.40625,-29.78515625,0.0
53.93359375,-45.41015625,250.9765625,147.4609375,-115.72265625,-8.7890625,0.0
53.9375,-30.76171875,232.421875,71.2890625,-124.51171875,-58.59375,0.0
53.94140625,-28.80859375,151.85546875,-117.1875,-120.60546875,-91.30859375,0.0
53.9453125,-21.97265625,173.33984375,-153.3203125,-88.37890625,-36.62109375,0.0
53.94921875,-24.90234375,144.53125,81.54296875,-80.078125,-24.4140625,0.0
53.953125,-16.6015625,90.33203125,106.93359375,-91.30859375,19.04296875,0.0
53.95703125,27.34375,46.875,59.08203125,-60.05859375,38.57421875,0.0
53.9609375,7.8125,77.1484375,-61.5234375,-80.078125,-83.984375,0.0
53.96484375,-34.66796875,170.41015625,-123.53515625,-123.046875,-39.55078125,0.0
53.96875,-44.43359375,144.04296875,-22.94921875,-99.12109375,40.0390625,0.0
53.97265625,-32.2265625,117.1875,54.6875,-85.9375,36.1328125,0.0
53.9765625,-40.0390625,149.4140625,26.3671875,-107.91015625,60.05859375,0.0
53.98046875,-53.22265625,106.93359375,-32.2265625,-101.5625,-11.71875,0.0
53.984375,-38.57421875,60.546875,-100.09765625,-74.70703125,-51.26953125,0.0
53.98828125,7.8125,110.3515625,-102.5390625,-31.25,-65.91796875,0.0
53.9921875,-9.27734375,71.77734375,14.6484375,-60.546875,-128.90625,0.0
53.99609375,-104.00390625,-8.30078125,-72.265625,-153.80859375,-73.73046875,0.0
54.0,-151.85546875,89.35546875,-165.52734375,-200.1953125,-65.91796875,0.0
54.00390625,-101.07421875,139.6484375,44.43359375,-151.85546875,-29.78515625,0.0
54.0078125,-75.1953125,62.5,99.12109375,-121.58203125,45.41015625,0.0
54.01171875,-20.01953125,102.05078125,105.95703125,-72.75390625,53.22265625,0.0
54.015625,52.734375,137.6953125,38.57421875,-9.27734375,21.97265625,0.0
54.01953125,-76.66015625,65.91796875,-39.55078125,-124.0234375,17.08984375,0.0
54.0234375,-125.0,85.44921875,-43.45703125,-165.52734375,-22.94921875,0.0
54.02734375,48.33984375,107.421875,-162.109375,1.46484375,-24.4140625,0.0
54.03125,-0.9765625,25.87890625,-60.05859375,-69.3359375,-5.37109375,0.0
54.03515625,-156.73828125,63.96484375,9.765625,-235.83984375,-28.3203125,0.0
54.0390625,-113.28125,100.09765625,11.71875,-182.12890625,-57.12890625,0.0
54.04296875,-69.82421875,40.0390625,-10.7421875,-123.53515625,-68.359375,0.0
54.046875,-39.0625,17.08984375,-89.84375,-82.51953125,-95.703125,0.0
54.05078125,-14.16015625,63.96484375,-50.78125,-74.70703125,-58.59375,0.0
54.0546875,-22.4609375,108.3984375,-98.6328125,-97.16796875,-19.53125,0.0
54.05859375,-16.11328125,90.33203125,-85.9375,-89.35546875,-14.16015625,0.0
54.0625,-49.31640625,104.4921875,83.984375,-102.05078125,-9.765625,0.0
54.06640625,-48.828125,77.63671875,82.03125,-96.6796875,41.015625,0.0
54.0703125,2.44140625,-16.11328125,-62.98828125,-58.10546875,92.28515625,0.0
54.07421875,55.17578125,-16.6015625,-134.27734375,-11.71875,12.20703125,0.0
54.078125,-14.16015625,80.078125,44.43359375,-68.359375,-66.40625,0.0
54.08203125,-115.72265625,102.05078125,100.5859375,-148.92578125,-16.6015625,0.0
54.0859375,-103.515625,98.14453125,12.6953125,-137.20703125,0.0,0.0
54.08984375,-56.640625,20.99609375,-80.078125,-94.7265625,-25.87890625,0.0
54.09375,4.39453125,-68.84765625,-248.046875,-73.73046875,18.06640625,0.0
54.09765625,26.3671875,-12.20703125,-109.375,-49.8046875,76.171875,0.0
54.1015625,-13.671875,112.3046875,154.296875,-37.109375,29.78515625,0.0
54.10546875,-29.78515625,115.234375,149.90234375,-45.41015625,11.23046875,0.0
54.109375,-39.0625,75.68359375,-78.125,-67.87109375,-3.90625,0.0
54.11328125,-30.76171875,67.3828125,-163.57421875,-61.03515625,-54.6875,0.0
54.1171875,26.3671875,-53.22265625,-32.2265625,-23.92578125,-49.8046875,0.0
54.12109375,-38.0859375,-21.97265625,2.44140625,-88.37890625,-47.36328125,0.0
54.125,-79.58984375,61.5234375,41.015625,-107.91015625,-17.08984375,0.0
54.12890625,-32.2265625,40.0390625,63.96484375,-60.05859375,-0.48828125,0.0
54.1328125,-18.06640625,130.859375,-142.578125,-53.22265625,-39.0625,0.0
54.13671875,8.7890625,82.51953125,-188.4765625,-38.0859375,-61.03515625,0.0
54.140625,52.734375,9.765625,125.9765625,10.25390625,-85.44921875,0.0
54.14453125,-8.7890625,98.14453125,50.29296875,-26.85546875,-124.0234375,0.0
54.1484375,-102.5390625,77.63671875,-80.078125,-105.46875,-142.578125,0.0
54.15234375,-59.5703125,-17.578125,-60.546875,-83.0078125,-79.58984375,0.0
54.15625,19.53125,-46.875,31.73828125,-18.06640625,-37.59765625,0.0
54.16015625,-8.7890625,62.5,44.921875,-29.296875,-89.35546875,0.0
54.1640625,-64.453125,139.6484375,-64.94140625,-74.21875,-96.6796875,0.0
54.16796875,-21.484375,109.86328125,-90.8203125,-40.0390625,-93.75,0.0
54.171875,30.2734375,132.8125,-81.54296875,10.25390625,-97.65625,0.0
54.17578125,-27.83203125,89.35546875,-48.33984375,-49.31640625,-71.77734375,0.0
54.1796875,-27.34375,5.859375,98.6328125,-60.546875,-76.66015625,0.0
54.18359375,29.296875,-102.5390625,113.76953125,-12.6953125,-49.31640625,0.0
54.1875,38.0859375,-60.05859375,19.53125,3.41796875,-45.41015625,0.0
54.19140625,-6.8359375,169.921875,-42.96875,-34.1796875,-81.0546875,0.0
54.1953125,-42.48046875,194.3359375,-236.81640625,-86.42578125,4.39453125,0.0
54.19921875,-24.4140625,94.7265625,-33.203125,-60.05859375,31.73828125,0.0
54.203125,-27.34375,47.36328125,148.4375,-53.7109375,17.578125,0.0
54.20703125,-8.7890625,33.69140625,41.50390625,-39.55078125,30.76171875,0.0
54.2109375,75.1953125,61.5234375,104.98046875,41.50390625,1.46484375,0.0
54.21484375,39.0625,64.94140625,-174.8046875,-15.625,-44.921875,0.0
54.21875,-42.96875,78.61328125,-247.0703125,-102.05078125,-133.7890625,0.0
54.22265625,-71.2890625,112.79296875,67.3828125,-107.421875,-126.46484375,0.0
54.2265625,-55.6640625,81.54296875,118.1640625,-84.47265625,-72.265625,0.0
54.23046875,-25.87890625,48.828125,-23.92578125,-76.171875,-82.51953125,0.0
54.234375,-4.8828125,20.99609375,-24.4140625,-57.12890625,-86.42578125,0.0
54.23828125,52.734375,3.41796875,128.90625,13.18359375,-48.828125,0.0
54.2421875,86.42578125,41.9921875,65.91796875,33.69140625,-27.83203125,0.0
54.24609375,9.765625,0.48828125,-215.33203125,-38.57421875,12.6953125,0.0
54.25,-41.9921875,22.94921875,-87.40234375,-76.171875,-34.1796875,0.0
54.25390625,-49.8046875,118.65234375,99.609375,-82.03125,-35.15625,0.0
54.2578125,-41.9921875,131.34765625,51.7578125,-68.359375,4.8828125,0.0
54.26171875,-22.4609375,105.95703125,-21.97265625,-51.7578125,20.5078125,0.0
54.265625,26.3671875,-1.953125,-107.91015625,-9.27734375,42.96875,0.0
54.26953125,38.57421875,-84.9609375,8.30078125,-1.953125,74.70703125,0.0
54.2734375,-66.40625,11.23046875,-14.6484375,-109.375,43.45703125,0.0
54.27734375,-53.22265625,137.6953125,13.671875,-109.375,-138.18359375,0.0
54.28125,-1.46484375,121.58203125,87.890625,-60.546875,-148.4375,0.0
54.28515625,-2.9296875,95.21484375,-7.32421875,-60.05859375,-20.5078125,0.0
54.2890625,29.296875,69.82421875,-28.3203125,-16.6015625,-25.390625,0.0
54.29296875,8.7890625,-10.7421875,14.6484375,-41.9921875,-90.8203125,0.0
54.296875,3.41796875,53.7109375,20.99609375,-78.125,-77.1484375,0.0
54.30078125,12.6953125,115.72265625,20.5078125,-71.77734375,-66.89453125,0.0
54.3046875,5.859375,66.40625,-46.875,-63.96484375,-93.26171875,0.0
54.30859375,28.80859375,5.859375,-123.53515625,-39.0625,6.8359375,0.0
54.3125,17.578125,50.78125,-1.953125,-41.50390625,47.8515625,0.0
54.31640625,20.01953125,136.23046875,118.1640625,-44.43359375,30.76171875,0.0
54.3203125,12.6953125,115.234375,41.50390625,-44.43359375,-1.46484375,0.0
54.32421875,17.578125,50.78125,3.90625,-36.1328125,-54.6875,0.0
54.328125,67.3828125,-3.90625,63.96484375,0.9765625,1.46484375,0.0
54.33203125,14.16015625,59.08203125,0.48828125,-53.7109375,-18.06640625,0.0
54.3359375,-53.22265625,107.421875,-49.31640625,-99.12109375,-84.47265625,0.0
54.33984375,-13.18359375,47.8515625,-5.37109375,-54.19921875,-32.71484375,0.0
54.34375,52.734375,69.3359375,58.59375,4.8828125,4.39453125,0.0
54.34765625,73.2421875,122.55859375,30.2734375,31.25,-42.48046875,0.0
54.3515625,-32.71484375,83.984375,-162.59765625,-84.47265625,-78.125,0.0
54.35546875,-105.46875,36.62109375,-119.62890625,-146.97265625,-140.625,0.0
54.359375,-51.26953125,2.9296875,151.3671875,-77.1484375,-167.96875,0.0
54.36328125,-19.53125,-1.46484375,148.4375,-35.15625,-91.796875,0.0
54.3671875,9.27734375,32.2265625,87.40234375,-6.8359375,-4.39453125,0.0
54.37109375,4.8828125,103.515625,30.2734375,-29.296875,-21.97265625,0.0
54.375,-37.59765625,111.328125,-135.7421875,-88.37890625,-60.05859375,0.0
54.37890625,-30.2734375,71.77734375,-270.99609375,-86.9140625,-63.96484375,0.0
54.3828125,67.87109375,21.484375,88.8671875,31.73828125,-95.21484375,0.0
54.38671875,51.26953125,41.9921875,292.48046875,31.73828125,-84.47265625,0.0
54.390625,-99.609375,84.47265625,62.01171875,-95.703125,-61.5234375,0.0
54.39453125,-100.5859375,91.796875,5.37109375,-96.6796875,-53.22265625,0.0
54.3984375,10.7421875,43.45703125,-13.671875,-14.6484375,-6.8359375,0.0
54.40234375,51.7578125,-14.6484375,-194.82421875,15.625,0.48828125,0.0
54.40625,-35.15625,16.6015625,-58.59375,-51.7578125,4.39453125,0.0
54.41015625,-71.77734375,96.6796875,132.8125,-76.66015625,-15.625,0.0
54.4140625,-16.6015625,73.73046875,95.21484375,-28.80859375,-89.84375,0.0
54.41796875,57.6171875,-21.484375,-82.51953125,19.53125,-42.96875,0.0
54.421875,15.13671875,13.18359375,-142.08984375,-20.01953125,67.87109375,0.0
54.42578125,-33.203125,92.7734375,122.0703125,-22.94921875,128.90625,0.0
54.4296875,-30.2734375,41.9921875,159.66796875,-6.8359375,112.3046875,0.0
54.43359375,-33.203125,56.640625,-48.33984375,-32.71484375,67.3828125,0.0
54.4375,-49.31640625,85.9375,-44.921875,-47.8515625,24.90234375,0.0
54.44140625,-33.69140625,-24.4140625,68.359375,-15.625,-8.7890625,0.0
54.4453125,8.30078125,-99.12109375,85.9375,43.45703125,62.5,0.0
54.44921875,-13.671875,-40.52734375,-68.359375,10.7421875,110.3515625,0.0
54.453125,12.20703125,-29.78515625,-5.859375,0.9765625,-24.90234375,0.0
54.45703125,-1.46484375,65.91796875,22.4609375,-22.94921875,-19.53125,0.0
54.4609375,-66.89453125,110.83984375,-118.1640625,-74.21875,49.31640625,0.0
54.46484375,-24.90234375,-55.17578125,-114.74609375,-14.6484375,20.5078125,0.0
54.46875,-17.08984375,14.6484375,34.66796875,3.90625,-15.13671875,0.0
54.47265625,39.0625,118.1640625,206.54296875,77.63671875,-104.98046875,0.0
54.4765625,56.640625,68.359375,128.41796875,87.40234375,-114.74609375,0.0
54.48046875,-87.890625,62.01171875,-74.70703125,-70.3125,-60.546875,0.0
54.484375,-110.83984375,-9.765625,-245.1171875,-90.8203125,8.7890625,0.0
54.48828125,-15.625,-49.8046875,-88.37890625,-5.859375,53.7109375,0.0
54.4921875,20.99609375,36.1328125,194.82421875,25.390625,62.01171875,0.0
54.49609375,-28.80859375,70.80078125,152.83203125,-3.41796875,45.8984375,0.0
54.5,-51.26953125,36.1328125,60.05859375,-12.20703125,57.12890625,0.0
54.50390625,5.859375,22.4609375,74.70703125,23.4375,49.8046875,0.0
54.5078125,-4.8828125,15.625,-69.3359375,19.04296875,-14.6484375,0.0
54.51171875,-63.96484375,-27.34375,-212.40234375,-35.64453125,-34.66796875,0.0
54.515625,-51.26953125,-8.7890625,18.06640625,-36.1328125,-56.15234375,0.0
54.51953125,-18.06640625,-2.44140625,125.48828125,-13.671875,-80.078125,0.0
54.5234375,2.9296875,-36.62109375,35.15625,-12.20703125,-9.765625,0.0
54.52734375,-17.08984375,12.6953125,-121.09375,-36.1328125,58.10546875,0.0
54.53125,9.27734375,69.82421875,-61.5234375,-13.18359375,-20.99609375,0.0
54.53515625,64.94140625,-9.27734375,173.828125,59.5703125,-34.1796875,0.0
54.5390625,38.57421875,-50.29296875,79.58984375,53.22265625,-14.16015625,0.0
54.54296875,-62.01171875,26.3671875,-124.51171875,-46.875,-56.15234375,0.0
54.546875,-55.17578125,22.94921875,-14.6484375,-47.8515625,46.38671875,0.0
54.55078125,37.59765625,-44.43359375,157.71484375,34.66796875,102.5390625,0.0
54.5546875,-45.8984375,-8.7890625,74.21875,-51.26953125,-5.37109375,0.0
54.55859375,-102.05078125,33.69140625,-15.13671875,-109.375,-93.26171875,0.0
54.5625,-74.21875,0.9765625,-17.578125,-74.70703125,-118.65234375,0.0
54.56640625,-47.8515625,-22.94921875,-77.63671875,-65.4296875,-108.88671875,0.0
54.5703125,-24.4140625,-24.4140625,-61.03515625,-61.5234375,-73.2421875,0.0
54.57421875,12.6953125,-78.125,1.46484375,-20.99609375,-51.26953125,0.0
54.578125,50.29296875,-66.40625,6.8359375,33.203125,-6.8359375,0.0
54.58203125,6.8359375,34.1796875,105.95703125,23.92578125,-21.97265625,0.0
54.5859375,-27.83203125,11.71875,96.19140625,-5.37109375,-62.01171875,0.0
54.58984375,-9.27734375,-7.32421875,47.36328125,-7.8125,-65.4296875,0.0
54.59375,-27.34375,-4.8828125,-9.27734375,-22.4609375,-90.8203125,0.0
54.59765625,-72.265625,-14.6484375,-122.55859375,-74.70703125,-41.9921875,0.0
54.6015625,-35.15625,-32.71484375,-3.90625,-53.7109375,-85.9375,0.0
54.60546875,23.92578125,-51.26953125,66.89453125,-2.9296875,-132.32421875,0.0
54.609375,-20.5078125,-5.37109375,5.37109375,-31.25,-103.515625,0.0
54.61328125,7.8125,-19.53125,73.73046875,19.04296875,-69.3359375,0.0
54.6171875,-10.7421875,-29.78515625,74.21875,-10.7421875,-57.12890625,0.0
54.62109375,-58.59375,3.41796875,19.53125,-75.68359375,-83.49609375,0.0
54.625,-19.04296875,-56.640625,-20.5078125,-44.921875,-27.83203125,0.0
54.62890625,-42.48046875,-94.23828125,-73.73046875,-60.546875,28.80859375,0.0
54.6328125,-65.4296875,-16.11328125,-50.29296875,-70.3125,5.37109375,0.0
54.63671875,-29.78515625,-15.625,66.40625,-44.43359375,-5.37109375,0.0
54.640625,-14.16015625,-104.00390625,36.62109375,-37.109375,71.77734375,0.0
54.64453125,-10.25390625,-123.53515625,45.41015625,-23.4375,22.4609375,0.0
54.6484375,-19.04296875,-57.6171875,99.12109375,-25.390625,30.2734375,0.0
54.65234375,-8.30078125,-20.99609375,25.87890625,-27.83203125,81.0546875,0.0
54.65625,5.37109375,-23.4375,-14.6484375,-23.92578125,39.0625,0.0
54.66015625,-19.53125,8.30078125,-16.11328125,-32.71484375,66.40625,0.0
54.6640625,-73.2421875,-54.19921875,16.6015625,-68.84765625,53.7109375,0.0
54.66796875,-97.65625,-109.86328125,36.62109375,-85.9375,21.484375,0.0
54.671875,-39.0625,-75.1953125,-84.47265625,-38.57421875,-63.96484375,0.0
54.67578125,0.9765625,-7.32421875,-117.1875,-14.16015625,-106.4453125,0.0
54.6796875,-20.99609375,-3.41796875,147.94921875,-4.8828125,-39.55078125,0.0
54.68359375,-30.2734375,-45.8984375,185.546875,-14.6484375,-14.6484375,0.0
54.6875,-90.8203125,-11.23046875,-7.8125,-80.078125,-44.921875,0.0
54.69140625,-121.09375,45.41015625,-108.88671875,-101.07421875,-53.22265625,0.0
54.6953125,-52.734375,18.06640625,41.015625,-58.10546875,13.671875,0.0
54.69921875,27.83203125,-137.20703125,95.21484375,10.25390625,19.53125,0.0
54.703125,29.78515625,-117.67578125,-16.6015625,38.0859375,-32.2265625,0.0
54.70703125,-38.57421875,92.28515625,-0.48828125,-3.41796875,-66.89453125,0.0
54.7109375,-93.75,79.1015625,-29.296875,-64.453125,-12.6953125,0.0
54.71484375,-74.21875,-40.52734375,53.7109375,-66.89453125,-44.43359375,0.0
54.71875,-37.59765625,-40.52734375,87.40234375,-36.1328125,-92.7734375,0.0
54.72265625,-54.19921875,20.01953125,6.8359375,-34.66796875,-116.2109375,0.0
54.7265625,-47.36328125,-57.12890625,-64.94140625,-31.25,-122.55859375,0.0
54.73046875,-33.69140625,-55.17578125,-15.625,-32.2265625,-70.80078125,0.0
54.734375,-37.59765625,62.98828125,121.58203125,-19.53125,-81.54296875,0.0
54.73828125,-37.59765625,36.1328125,96.6796875,-19.04296875,-112.79296875,0.0
54.7421875,-33.203125,-4.8828125,25.87890625,-28.3203125,-97.65625,0.0
54.74609375,-28.80859375,-37.109375,-30.76171875,-19.53125,-53.22265625,0.0
54.75,-21.484375,-71.77734375,-42.96875,-10.25390625,-27.83203125,0.0
54.75390625,28.3203125,16.6015625,106.93359375,36.62109375,-38.57421875,0.0
54.7578125,1.46484375,44.43359375,19.04296875,12.6953125,-72.265625,0.0
54.76171875,-74.70703125,16.11328125,-90.33203125,-54.6875,-10.7421875,0.0
54.765625,-50.78125,11.71875,16.11328125,-18.06640625,26.85546875,0.0
54.76953125,-8.30078125,-52.734375,25.87890625,7.8125,22.4609375,0.0
54.7734375,10.25390625,-34.1796875,-26.85546875,14.6484375,8.7890625,0.0
54.77734375,-3.90625,75.1953125,29.296875,34.1796875,-82.51953125,0.0
54.78125,-70.80078125,76.66015625,87.890625,-10.7421875,-126.46484375,0.0
54.78515625,-59.5703125,39.0625,49.8046875,-8.30078125,-135.7421875,0.0
54.7890625,-12.6953125,-1.46484375,48.33984375,32.71484375,-141.6015625,0.0
54.79296875,-14.6484375,2.9296875,75.1953125,34.66796875,-56.15234375,0.0
54.796875,-31.73828125,-10.25390625,62.98828125,17.578125,31.73828125,0.0
54.80078125,-8.7890625,-38.57421875,18.5546875,21.484375,-12.20703125,0.0
54.8046875,6.34765625,-24.90234375,-81.0546875,29.296875,-54.19921875,0.0
54.80859375,-5.37109375,-0.48828125,23.92578125,49.31640625,-72.75390625,0.0
54.8125,-24.90234375,42.48046875,143.06640625,28.3203125,-69.3359375,0.0
54.81640625,-59.08203125,64.94140625,41.015625,-31.73828125,-91.796875,0.0
54.8203125,-58.10546875,38.57421875,-18.06640625,-33.203125,-135.7421875,0.0
54.82421875,-39.0625,-17.578125,9.765625,-7.32421875,-133.7890625,0.0
54.828125,-9.27734375,-87.40234375,91.30859375,29.78515625,-98.14453125,0.0
54.83203125,-12.20703125,-50.29296875,28.80859375,31.73828125,-72.265625,0.0
54.8359375,26.85546875,39.55078125,-14.6484375,41.9921875,-7.8125,0.0
54.83984375,40.0390625,41.9921875,93.26171875,38.0859375,11.71875,0.0
54.84375,-28.3203125,-28.3203125,48.828125,-8.30078125,-49.8046875,0.0
54.84765625,-42.48046875,-4.8828125,-22.4609375,-9.27734375,-130.37109375,0.0
54.8515625,-54.6875,-43.45703125,-139.6484375,-44.921875,-90.8203125,0.0
54.85546875,-31.25,-52.734375,45.8984375,-28.80859375,-11.71875,0.0
54.859375,-18.5546875,27.34375,197.75390625,14.6484375,-32.71484375,0.0
54.86328125,-44.921875,32.71484375,90.8203125,7.32421875,-19.04296875,0.0
54.8671875,-20.5078125,3.90625,80.56640625,14.16015625,33.203125,0.0
54.87109375,-3.90625,-33.69140625,-13.18359375,7.8125,53.22265625,0.0
54.875,-32.2265625,14.16015625,-163.0859375,-30.2734375,88.37890625,0.0
54.87890625,-59.5703125,19.04296875,-15.13671875,-59.5703125,61.5234375,0.0
54.8828125,-33.69140625,3.41796875,29.296875,-27.83203125,36.1328125,0.0
54.88671875,21.97265625,22.4609375,77.1484375,35.15625,50.78125,0.0
54.890625,-42.96875,6.8359375,104.4921875,-22.94921875,83.984375,0.0
54.89453125,-77.1484375,21.97265625,-8.30078125,-71.77734375,123.046875,0.0
54.8984375,-33.203125,-0.9765625,-72.75390625,-41.50390625,11.23046875,0.0
54.90234375,-4.8828125,-51.26953125,-71.2890625,-24.90234375,34.66796875,0.0
54.90625,-7.8125,16.6015625,74.70703125,-25.87890625,-34.66796875,0.0
54.91015625,-6.34765625,14.16015625,166.50390625,-1.46484375,-65.4296875,0.0
54.9140625,24.4140625,-97.65625,141.11328125,33.69140625,120.60546875,0.0
54.91796875,-26.3671875,-10.25390625,-2.9296875,-30.76171875,93.26171875,0.0
54.921875,-79.58984375,64.94140625,-84.9609375,-77.1484375,39.55078125,0.0
54.92578125,-45.8984375,0.9765625,-38.57421875,-27.83203125,45.8984375,0.0
54.9296875,-27.34375,-14.6484375,-20.99609375,-41.9921875,27.83203125,0.0
54.93359375,-42.48046875,29.78515625,20.99609375,-73.73046875,49.8046875,0.0
54.9375,-34.1796875,9.765625,59.5703125,-56.15234375,48.828125,0.0
54.94140625,-23.92578125,-19.53125,-27.34375,-40.0390625,-11.23046875,0.0
54.9453125,-16.6015625,-16.11328125,-143.5546875,-20.5078125,1.46484375,0.0
54.94921875,32.2265625,-30.76171875,72.75390625,28.3203125,72.265625,0.0
54.953125,74.21875,-45.41015625,137.20703125,34.1796875,27.83203125,0.0
54.95703125,-0.9765625,-34.66796875,-7.8125,-44.43359375,-36.62109375,0.0
54.9609375,-87.890625,25.390625,-17.08984375,-103.515625,-131.8359375,0.0
54.96484375,-61.5234375,29.296875,-8.7890625,-53.22265625,-113.28125,0.0
54.96875,-15.13671875,-14.6484375,47.8515625,-17.578125,-65.4296875,0.0
54.97265625,-23.4375,-54.19921875,-6.8359375,-42.96875,-125.9765625,0.0
54.9765625,-24.4140625,-29.78515625,-37.59765625,-34.1796875,-140.625,0.0
54.98046875,-34.66796875,16.6015625,34.1796875,-45.8984375,-95.21484375,0.0
54.984375,-27.34375,14.6484375,51.7578125,-47.36328125,11.23046875,0.0
54.98828125,4.8828125,14.16015625,-48.33984375,-12.6953125,41.9921875,0.0
54.9921875,18.06640625,-8.7890625,-18.06640625,4.39453125,34.66796875,0.0
54.99609375,-24.90234375,-72.75390625,-5.859375,-45.41015625,16.11328125,0.0
55.0,-55.6640625,-53.22265625,5.37109375,-82.51953125,-36.1328125,0.0
55.00390625,-33.203125,-14.16015625,-28.80859375,-68.84765625,-24.4140625,0.0
55.0078125,-35.64453125,-36.1328125,-65.91796875,-65.4296875,-38.0859375,0.0
55.01171875,-5.37109375,-17.08984375,42.96875,-3.41796875,7.8125,0.0
55.015625,8.7890625,11.23046875,83.984375,8.7890625,51.7578125,0.0
55.01953125,-60.05859375,-58.59375,11.23046875,-60.05859375,28.80859375,0.0
55.0234375,-27.83203125,-115.234375,56.640625,-16.6015625,-22.4609375,0.0
55.02734375,-14.6484375,-14.6484375,46.38671875,-0.48828125,-30.2734375,0.0
55.03125,-68.359375,45.8984375,-158.69140625,-61.03515625,21.97265625,0.0
55.03515625,-63.4765625,13.671875,-127.9296875,-55.17578125,-3.90625,0.0
55.0390625,-34.1796875,-27.34375,87.890625,-30.76171875,-22.94921875,0.0
55.04296875,-26.85546875,-52.734375,39.55078125,-25.390625,-4.39453125,0.0
55.046875,-21.97265625,-68.84765625,2.44140625,-22.94921875,-33.69140625,0.0
55.05078125,-21.97265625,-72.265625,48.33984375,-23.4375,-33.203125,0.0
55.0546875,-62.01171875,-3.41796875,20.01953125,-45.8984375,-31.25,0.0
55.05859375,-120.1171875,18.5546875,-84.9609375,-88.37890625,-76.66015625,0.0
55.0625,-98.14453125,-31.73828125,-82.03125,-60.05859375,-60.05859375,0.0
55.06640625,-34.1796875,-39.55078125,6.8359375,-0.48828125,-24.4140625,0.0
55.0703125,-59.5703125,-46.38671875,-33.69140625,-28.80859375,-9.27734375,0.0
55.07421875,-62.5,-96.6796875,-27.83203125,-48.828125,3.90625,0.0
55.078125,-21.97265625,-86.9140625,60.546875,-17.578125,-55.17578125,0.0
55.08203125,-61.03515625,3.90625,14.16015625,-17.578125,-37.59765625,0.0
55.0859375,-108.3984375,42.96875,-108.88671875,-58.59375,-16.11328125,0.0
55.08984375,-104.4921875,7.8125,-134.765625,-69.82421875,-49.8046875,0.0
55.09375,-54.6875,-32.2265625,41.015625,-6.8359375,-97.65625,0.0
55.09765625,-47.8515625,-63.96484375,-2.9296875,-8.30078125,-90.8203125,0.0
55.1015625,-58.10546875,-150.390625,10.25390625,-26.85546875,-29.296875,0.0
55.10546875,-60.05859375,-106.93359375,124.51171875,-24.90234375,6.8359375,0.0
55.109375,-94.7265625,26.85546875,61.03515625,-46.38671875,-10.25390625,0.0
55.11328125,-119.62890625,85.9375,-36.1328125,-67.3828125,-17.578125,0.0
55.1171875,-97.65625,18.5546875,-145.5078125,-65.91796875,3.41796875,0.0
55.12109375,-23.4375,-73.73046875,-150.390625,-0.48828125,-33.203125,0.0
55.125,-11.23046875,-57.12890625,39.0625,29.78515625,-50.29296875,0.0
55.12890625,-73.73046875,-40.0390625,157.71484375,-10.7421875,-2.44140625,0.0
55.1328125,-104.4921875,6.8359375,60.05859375,-55.17578125,47.36328125,0.0
55.13671875,-98.14453125,38.57421875,-37.59765625,-65.91796875,-12.20703125,0.0
55.140625,-55.6640625,-80.078125,-152.34375,-42.96875,-51.7578125,0.0
55.14453125,-60.546875,-66.40625,-130.859375,-42.96875,-56.15234375,0.0
55.1484375,-82.03125,45.8984375,20.5078125,-39.0625,-82.03125,0.0
55.15234375,-6.8359375,-10.7421875,113.28125,19.04296875,-91.30859375,0.0
55.15625,3.90625,-74.70703125,106.93359375,15.625,-114.2578125,0.0
55.16015625,-83.0078125,-60.05859375,-49.31640625,-64.453125,-80.078125,0.0
55.1640625,-66.40625,-85.9375,-149.4140625,-63.4765625,-92.7734375,0.0
55.16796875,-38.0859375,-16.6015625,-50.78125,-34.66796875,-103.515625,0.0
55.171875,-70.80078125,34.1796875,33.69140625,-41.015625,8.30078125,0.0
55.17578125,-73.2421875,18.5546875,32.2265625,-46.38671875,24.4140625,0.0
55.1796875,-39.55078125,-10.7421875,-47.36328125,-7.8125,-8.7890625,0.0
55.18359375,-16.11328125,-60.546875,-4.39453125,17.578125,22.4609375,0.0
55.1875,-48.828125,-60.546875,-26.85546875,-29.78515625,-10.25390625,0.0
55.19140625,-70.80078125,-67.3828125,-69.3359375,-36.1328125,-51.7578125,0.0
55.1953125,-73.2421875,-83.49609375,19.53125,-32.71484375,-89.35546875,0.0
55.19921875,-58.59375,-74.21875,41.50390625,-41.50390625,-95.21484375,0.0
55.203125,-32.71484375,-19.04296875,-14.16015625,-28.80859375,-82.51953125,0.0
55.20703125,-67.87109375,29.296875,-102.05078125,-58.59375,-108.88671875,0.0
55.2109375,-57.6171875,-68.84765625,-36.1328125,-52.24609375,-111.328125,0.0
55.21484375,-22.94921875,-73.73046875,41.9921875,-29.78515625,-34.66796875,0.0
55.21875,-54.6875,-12.6953125,-8.7890625,-65.4296875,-48.33984375,0.0
55.22265625,-70.80078125,-2.9296875,-64.94140625,-71.2890625,-19.53125,0.0
55.2265625,-61.03515625,-26.85546875,-66.89453125,-52.734375,-1.953125,0.0
55.23046875,-13.671875,-83.49609375,20.99609375,-12.20703125,-56.640625,0.0
55.234375,55.17578125,-90.33203125,63.96484375,35.15625,-3.90625,0.0
55.23828125,-4.8828125,-46.38671875,-24.4140625,-34.66796875,-67.3828125,0.0
55.2421875,-77.63671875,-19.04296875,-66.40625,-97.65625,-45.8984375,0.0
55.24609375,-79.58984375,-57.12890625,-74.21875,-77.1484375,16.6015625,0.0
55.25,-85.9375,0.9765625,-97.16796875,-76.171875,-18.5546875,0.0
55.25390625,-48.828125,36.62109375,-41.50390625,-55.6640625,51.26953125,0.0
55.2578125,-33.203125,-32.71484375,-27.83203125,-45.41015625,79.58984375,0.0
55.26171875,-22.94921875,-81.0546875,-68.359375,-39.55078125,53.7109375,0.0
55.265625,-12.6953125,-83.984375,-86.9140625,-26.85546875,15.625,0.0
55.26953125,-41.50390625,5.859375,-129.8828125,-47.8515625,-61.5234375,0.0
55.2734375,-6.8359375,8.30078125,-38.57421875,-3.90625,-69.82421875,0.0
55.27734375,-25.87890625,-34.1796875,17.578125,-21.484375,-28.80859375,0.0
55.28125,-72.265625,-26.85546875,-145.01953125,-94.7265625,-60.546875,0.0
55.28515625,-54.19921875,1.46484375,-10.25390625,-70.3125,-7.8125,0.0
55.2890625,-28.3203125,10.7421875,186.5234375,-32.71484375,95.703125,0.0
55.29296875,11.23046875,-76.171875,135.25390625,-6.34765625,24.4140625,0.0
55.296875,8.7890625,-79.1015625,54.6875,-9.27734375,-55.6640625,0.0
55.30078125,-46.38671875,-9.27734375,-80.56640625,-60.546875,-30.2734375,0.0
55.3046875,-53.22265625,-0.9765625,-84.47265625,-55.17578125,-62.5,0.0
55.30859375,-53.7109375,29.78515625,-39.55078125,-46.875,-84.47265625,0.0
55.3125,-66.40625,14.6484375,-26.3671875,-67.87109375,-70.80078125,0.0
55.31640625,-69.82421875,-27.83203125,-14.16015625,-59.5703125,15.13671875,0.0
55.3203125,-65.4296875,-51.26953125,-11.23046875,-54.6875,67.87109375,0.0
55.32421875,-5.859375,-111.81640625,-104.98046875,-16.11328125,51.7578125,0.0
55.328125,28.3203125,-55.17578125,-141.6015625,28.3203125,23.4375,0.0
55.33203125,-47.36328125,34.66796875,9.27734375,-28.80859375,39.55078125,0.0
55.3359375,-84.9609375,8.7890625,34.1796875,-81.0546875,43.45703125,0.0
55.33984375,-58.10546875,-17.578125,-49.8046875,-83.49609375,-11.23046875,0.0
55.34375,-56.15234375,-2.9296875,-23.4375,-62.01171875,-81.0546875,0.0
55.34765625,-62.5,-17.578125,35.64453125,-49.8046875,-35.64453125,0.0
55.3515625,-24.90234375,-171.875,-28.80859375,-41.9921875,-1.953125,0.0
55.35546875,24.90234375,-143.5546875,-112.79296875,13.18359375,0.9765625,0.0
55.359375,14.16015625,76.171875,23.4375,32.71484375,-55.6640625,0.0
55.36328125,-58.10546875,65.4296875,45.8984375,-38.0859375,5.37109375,0.0
55.3671875,-99.12109375,17.08984375,-95.703125,-76.66015625,55.6640625,0.0
55.37109375,-78.125,-30.2734375,-147.4609375,-57.12890625,22.4609375,0.0
55.375,-38.57421875,-74.21875,2.44140625,-30.76171875,-17.08984375,0.0
55.37890625,-10.25390625,-83.0078125,68.84765625,-9.27734375,-102.05078125,0.0
55.3828125,27.83203125,-84.9609375,-7.32421875,21.97265625,-120.60546875,0.0
55.38671875,-10.25390625,-5.37109375,-66.40625,2.44140625,-94.7265625,0.0
55.390625,-112.79296875,40.0390625,-44.921875,-79.1015625,-99.12109375,0.0
55.39453125,-128.90625,-0.48828125,-49.8046875,-101.5625,-51.26953125,0.0
55.3984375,-82.51953125,-33.203125,-88.8671875,-71.2890625,-14.16015625,0.0
55.40234375,-60.546875,-34.1796875,-136.23046875,-61.03515625,-22.4609375,0.0
55.40625,-34.66796875,-110.83984375,-71.77734375,-28.80859375,17.578125,0.0
55.41015625,-6.8359375,-168.45703125,38.57421875,11.23046875,55.6640625,0.0
55.4140625,-36.62109375,-29.296875,-52.24609375,-32.2265625,36.62109375,0.0
55.41796875,-52.734375,20.99609375,-73.73046875,-67.3828125,-31.73828125,0.0
55.421875,51.26953125,-6.34765625,64.453125,53.22265625,-68.84765625,0.0
55.42578125,106.4453125,-50.29296875,19.04296875,121.58203125,-67.87109375,0.0
55.4296875,-84.9609375,-58.10546875,-188.4765625,-78.61328125,-70.80078125,0.0
55.43359375,-158.203125,-31.25,-67.3828125,-152.34375,-33.203125,0.0
55.4375,-61.5234375,-123.046875,102.5390625,-34.66796875,10.7421875,0.0
55.44140625,-38.0859375,-38.57421875,53.22265625,-13.18359375,-60.546875,0.0
55.4453125,-68.84765625,76.171875,-22.94921875,-44.43359375,-107.91015625,0.0
55.44921875,-63.96484375,43.45703125,-60.546875,-51.7578125,-98.14453125,0.0
55.453125,-28.3203125,-31.73828125,-37.109375,-25.87890625,-49.8046875,0.0
55.45703125,23.4375,-125.9765625,-0.48828125,21.484375,-5.859375,0.0
55.4609375,14.6484375,-94.7265625,-136.23046875,12.20703125,-28.80859375,0.0
55.46484375,-47.8515625,-3.90625,-205.078125,-33.69140625,-24.4140625,0.0
55.46875,-52.734375,25.390625,-17.08984375,-45.8984375,-39.0625,0.0
55.47265625,-40.52734375,3.90625,78.61328125,-35.15625,-38.57421875,0.0
55.4765625,-65.4296875,1.953125,14.6484375,-40.0390625,24.90234375,0.0
55.48046875,-40.0390625,-50.29296875,-32.71484375,-9.765625,-62.98828125,0.0
55.484375,-0.48828125,-132.8125,9.765625,24.4140625,-133.7890625,0.0
55.48828125,-21.97265625,-98.6328125,-30.2734375,6.34765625,-119.140625,0.0
55.4921875,-29.296875,-61.5234375,-200.68359375,-8.30078125,-82.51953125,0.0
55.49609375,-66.89453125,-19.04296875,-109.86328125,-42.48046875,-19.04296875,0.0
55.5,-95.21484375,-1.46484375,45.8984375,-71.77734375,-37.109375,0.0
55.50390625,-68.84765625,-69.3359375,-83.49609375,-66.40625,-147.94921875,0.0
55.5078125,-24.90234375,-113.76953125,-89.84375,-27.34375,-101.07421875,0.0
55.51171875,-9.27734375,-59.5703125,33.69140625,-9.765625,10.25390625,0.0
55.515625,-1.953125,-41.015625,47.8515625,-0.9765625,12.6953125,0.0
55.51953125,13.671875,-35.64453125,-1.46484375,35.15625,-52.734375,0.0
55.5234375,-55.6640625,-49.8046875,-157.2265625,-20.01953125,-84.9609375,0.0
55.52734375,-83.984375,-77.63671875,-105.95703125,-58.59375,-81.0546875,0.0
55.53125,-34.66796875,-82.51953125,37.109375,-27.34375,-70.80078125,0.0
55.53515625,51.7578125,-89.35546875,42.48046875,22.94921875,0.48828125,0.0
55.5390625,36.1328125,-97.16796875,-29.296875,1.46484375,20.5078125,0.0
55.54296875,-56.640625,-19.04296875,-74.70703125,-71.77734375,-37.109375,0.0
55.546875,-66.40625,29.78515625,-40.52734375,-79.1015625,-76.66015625,0.0
55.55078125,-36.1328125,-13.18359375,-21.484375,-58.59375,-100.5859375,0.0
55.5546875,22.4609375,-21.97265625,-0.48828125,-11.71875,-72.75390625,0.0
55.55859375,23.4375,-64.94140625,-9.27734375,-0.9765625,-70.3125,0.0
55.5625,-39.0625,-131.8359375,-114.74609375,-50.78125,-17.578125,0.0
55.56640625,-57.12890625,-34.1796875,-84.47265625,-63.4765625,1.953125,0.0
55.5703125,-13.18359375,41.50390625,16.6015625,-38.0859375,-30.2734375,0.0
55.57421875,18.5546875,-17.08984375,-34.1796875,-36.62109375,-70.3125,0.0
55.578125,42.48046875,-109.86328125,-83.0078125,-0.9765625,-139.6484375,0.0
55.58203125,27.34375,-44.921875,-57.6171875,-0.9765625,-31.25,0.0
55.5859375,-42.48046875,20.01953125,-65.91796875,-72.265625,45.8984375,0.0
55.58984375,-62.5,-16.6015625,-32.71484375,-94.7265625,-13.671875,0.0
55.59375,-11.23046875,-33.69140625,31.73828125,-59.08203125,-30.76171875,0.0
55.59765625,33.203125,-46.38671875,11.23046875,-18.06640625,-79.58984375,0.0
55.6015625,-17.578125,-52.734375,-46.875,-44.43359375,-87.40234375,0.0
55.60546875,-50.78125,-49.8046875,-78.125,-62.5,-39.0625,0.0
55.609375,17.578125,-126.953125,-33.69140625,2.44140625,42.48046875,0.0
55.61328125,27.83203125,-81.54296875,-40.52734375,12.20703125,52.734375,0.0
55.6171875,-33.203125,41.50390625,-111.328125,-49.31640625,-92.7734375,0.0
55.62109375,-71.2890625,33.69140625,-77.1484375,-75.1953125,-128.90625,0.0
55.625,-51.26953125,-31.73828125,-49.8046875,-56.640625,-75.68359375,0.0
55.62890625,-33.69140625,-47.36328125,-62.5,-41.50390625,-14.6484375,0.0
55.6328125,-28.3203125,-44.921875,-41.50390625,-23.92578125,45.8984375,0.0
55.63671875,-4.8828125,-71.2890625,-20.01953125,-10.25390625,72.265625,0.0
55.640625,-13.671875,-77.1484375,-70.80078125,-32.2265625,105.46875,0.0
55.64453125,-24.4140625,-1.46484375,-39.0625,-18.5546875,-0.48828125,0.0
55.6484375,-15.625,-31.73828125,47.36328125,28.3203125,-74.21875,0.0
55.65234375,0.48828125,-142.578125,49.8046875,28.3203125,-36.1328125,0.0
55.65625,-12.20703125,-70.80078125,-22.94921875,12.20703125,37.59765625,0.0
55.66015625,-37.59765625,21.484375,-85.9375,0.9765625,52.24609375,0.0
55.6640625,-83.0078125,-4.8828125,-97.65625,-53.22265625,18.06640625,0.0
55.66796875,-61.03515625,-22.94921875,-36.1328125,-16.11328125,-1.46484375,0.0
55.671875,36.62109375,-24.90234375,80.56640625,66.89453125,-66.89453125,0.0
55.67578125,-17.08984375,-114.74609375,-29.296875,-18.06640625,-66.89453125,0.0
55.6796875,-102.5390625,-66.40625,-202.63671875,-107.91015625,47.36328125,0.0
55.68359375,-75.1953125,36.62109375,-85.44921875,-77.63671875,82.51953125,0.0
55.6875,-41.015625,13.671875,-20.5078125,-43.45703125,-15.625,0.0
55.69140625,-35.64453125,-62.01171875,-22.94921875,-40.0390625,-32.2265625,0.0
55.6953125,5.859375,-95.703125,-10.25390625,-12.20703125,-76.66015625,0.0
55.69921875,2.9296875,-89.84375,-32.2265625,-8.7890625,-128.90625,0.0
55.703125,-15.13671875,-35.15625,32.71484375,7.8125,-126.953125,0.0
55.70703125,0.0,-45.8984375,-46.875,25.390625,-90.8203125,0.0
55.7109375,-33.203125,-66.40625,-210.44921875,-36.62109375,3.90625,0.0
55.71484375,-5.37109375,-24.4140625,18.5546875,-7.8125,-40.52734375,0.0
55.71875,88.8671875,-22.94921875,188.4765625,92.28515625,-2.44140625,0.0
55.72265625,-22.94921875,-39.55078125,-7.32421875,-26.3671875,62.5,0.0
55.7265625,-127.9296875,-45.8984375,-129.39453125,-124.51171875,-40.52734375,0.0
55.73046875,-91.30859375,-35.15625,-82.51953125,-75.68359375,-52.734375,0.0
55.734375,-66.40625,-74.70703125,-26.3671875,-46.875,-40.52734375,0.0
55.73828125,-59.08203125,-95.21484375,-105.95703125,-37.59765625,-62.5,0.0
55.7421875,-29.78515625,-96.19140625,-111.81640625,-19.04296875,-70.3125,0.0
55.74609375,20.01953125,-136.71875,-18.06640625,20.99609375,-75.68359375,0.0
55.75,-31.73828125,-85.44921875,-53.22265625,-27.34375,-24.90234375,0.0
55.75390625,-67.3828125,18.5546875,-43.9453125,-63.96484375,15.625,0.0
55.7578125,-43.9453125,-21.484375,16.11328125,-40.52734375,41.50390625,0.0
55.76171875,-26.3671875,-133.30078125,-16.6015625,-14.6484375,5.37109375,0.0
55.765625,-15.13671875,-51.26953125,-62.98828125,-5.37109375,37.59765625,0.0
55.76953125,-60.05859375,-7.8125,-28.3203125,-45.8984375,50.78125,0.0
55.7734375,-70.80078125,-46.38671875,-16.11328125,-52.734375,59.5703125,0.0
55.77734375,-31.25,-108.3984375,-55.17578125,-25.87890625,2.44140625,0.0
55.78125,-39.0625,-132.32421875,-73.2421875,-30.2734375,-82.51953125,0.0
55.78515625,-62.98828125,-34.1796875,-105.95703125,-50.29296875,-23.4375,0.0
55.7890625,-43.45703125,-34.1796875,-97.65625,-30.2734375,7.8125,0.0
55.79296875,-9.27734375,-78.61328125,0.9765625,-5.37109375,-31.25,0.0
55.796875,-14.6484375,-24.90234375,-42.96875,-16.6015625,-50.29296875,0.0
55.80078125,-10.25390625,-58.59375,-77.1484375,-10.7421875,-97.65625,0.0
55.8046875,47.8515625,-76.66015625,65.91796875,51.26953125,-107.91015625,0.0
55.80859375,-44.43359375,-9.27734375,11.71875,-33.203125,22.94921875,0.0
55.8125,-149.4140625,-58.10546875,-102.5390625,-142.578125,25.87890625,0.0
55.81640625,-106.93359375,-64.453125,-60.05859375,-101.5625,-51.7578125,0.0
55.8203125,-55.6640625,-86.9140625,-75.1953125,-48.828125,-6.34765625,0.0
55.82421875,-1.953125,-240.234375,-112.3046875,-5.859375,20.5078125,0.0
55.828125,-14.6484375,-143.06640625,-89.35546875,-33.69140625,24.4140625,0.0
55.83203125,-47.36328125,59.08203125,-1.953125,-66.89453125,-14.6484375,0.0
55.8359375,-43.45703125,50.29296875,51.7578125,-51.7578125,-71.2890625,0.0
55.83984375,-44.921875,-4.39453125,-4.8828125,-55.6640625,-62.98828125,0.0
55.84375,-38.0859375,-41.50390625,-26.3671875,-46.875,-61.5234375,0.0
55.84765625,-25.390625,-74.21875,-31.73828125,-26.85546875,-25.87890625,0.0
55.8515625,12.20703125,-140.13671875,-49.8046875,-4.8828125,-8.7890625,0.0
55.85546875,15.13671875,-115.234375,-27.83203125,-7.32421875,-28.80859375,0.0
55.859375,-39.0625,-33.203125,-29.78515625,-61.03515625,-44.43359375,0.0
55.86328125,-39.55078125,-25.390625,-19.04296875,-66.40625,-13.671875,0.0
55.8671875,-47.36328125,-37.59765625,-30.76171875,-70.3125,59.5703125,0.0
55.87109375,-40.52734375,-41.015625,-41.50390625,-64.453125,64.94140625,0.0
55.875,-24.90234375,-52.24609375,-51.26953125,-60.546875,15.13671875,0.0
55.87890625,-8.30078125,-74.70703125,-63.96484375,-50.78125,-53.22265625,0.0
55.8828125,113.28125,-159.1796875,21.484375,68.359375,-77.1484375,0.0
55.88671875,86.9140625,-125.9765625,-53.7109375,39.0625,-60.05859375,0.0
55.890625,-83.49609375,4.39453125,-161.62109375,-114.2578125,-54.6875,0.0
55.89453125,-83.984375,19.53125,-36.1328125,-115.72265625,-157.71484375,0.0
55.8984375,-31.73828125,-34.66796875,26.3671875,-63.4765625,-174.31640625,0.0
55.90234375,-30.76171875,-50.78125,-20.01953125,-52.734375,-78.61328125,0.0
55.90625,1.46484375,-60.546875,-15.13671875,-24.90234375,1.46484375,0.0
55.91015625,66.40625,-118.1640625,33.203125,33.203125,14.16015625,0.0
55.9140625,19.04296875,-107.91015625,-44.43359375,-16.6015625,28.3203125,0.0
55.91796875,-33.69140625,5.859375,-116.69921875,-67.87109375,86.9140625,0.0
55.921875,-37.109375,13.671875,-70.80078125,-51.7578125,78.61328125,0.0
55.92578125,-43.45703125,-55.17578125,-46.38671875,-41.50390625,37.59765625,0.0
55.9296875,-23.92578125,-80.078125,-85.44921875,-35.15625,33.69140625,0.0
55.93359375,37.109375,-107.421875,-111.81640625,7.8125,86.42578125,0.0
55.9375,28.80859375,-73.2421875,-71.77734375,-6.34765625,58.10546875,0.0
55.94140625,-2.9296875,-44.921875,-4.8828125,-38.57421875,-60.546875,0.0
55.9453125,59.5703125,-110.3515625,88.8671875,32.71484375,-119.140625,0.0
55.94921875,28.3203125,-58.10546875,0.48828125,14.6484375,-69.3359375,0.0
55.953125,-30.2734375,-10.25390625,-120.60546875,-44.43359375,-52.734375,0.0
55.95703125,51.26953125,-52.734375,16.11328125,20.99609375,-66.40625,0.0
55.9609375,3.90625,-97.65625,-15.625,-24.4140625,-130.859375,0.0
55.96484375,-72.75390625,-66.89453125,-115.72265625,-73.2421875,-110.83984375,0.0
55.96875,-54.6875,-24.4140625,-72.265625,-35.64453125,-39.55078125,0.0
55.97265625,-7.8125,-62.01171875,-65.4296875,-12.6953125,-12.6953125,0.0
55.9765625,21.484375,-92.7734375,-86.42578125,-8.30078125,2.44140625,0.0
55.98046875,-5.859375,-42.48046875,-72.265625,-27.83203125,-22.4609375,0.0
55.984375,-10.25390625,-57.6171875,-29.78515625,-22.4609375,-70.80078125,0.0
55.98828125,2.44140625,-134.765625,-39.55078125,-1.46484375,-20.01953125,0.0
55.9921875,3.90625,-40.0390625,-80.56640625,-14.16015625,-16.11328125,0.0
55.99609375,-1.953125,12.20703125,-63.96484375,-33.203125,-12.20703125,0.0
56.0,39.55078125,-9.27734375,-10.25390625,0.48828125,40.52734375,0.0
56.00390625,58.59375,-60.546875,-31.25,3.90625,-81.54296875,1.0
56.0078125,-11.71875,-199.21875,-93.26171875,-65.91796875,-124.0234375,1.0
56.01171875,-53.7109375,-82.03125,-59.5703125,-96.6796875,-12.6953125,1.0
56.015625,-53.7109375,21.484375,-73.2421875,-88.37890625,67.87109375,1.0
56.01953125,-22.4609375,-82.51953125,-93.75,-72.265625,-1.953125,1.0
56.0234375,-20.01953125,-44.43359375,-123.046875,-70.3125,-67.87109375,1.0
56.02734375,-44.43359375,3.41796875,-106.93359375,-79.1015625,-25.390625,1.0
56.03125,26.3671875,-90.8203125,33.203125,-28.3203125,-20.99609375,1.0
56.03515625,87.40234375,-64.94140625,63.4765625,17.08984375,-56.640625,1.0
56.0390625,0.0,36.62109375,-3.41796875,-41.9921875,1.46484375,1.0
56.04296875,-68.359375,-11.23046875,-65.91796875,-102.05078125,46.38671875,1.0
56.046875,-31.25,-103.515625,-61.5234375,-64.94140625,41.9921875,1.0
56.05078125,22.94921875,-84.47265625,-21.484375,-20.99609375,17.578125,1.0
56.0546875,10.25390625,-9.27734375,-53.22265625,-50.29296875,-36.62109375,1.0
56.05859375,-15.625,-26.3671875,-83.0078125,-76.171875,-32.71484375,1.0
56.0625,-20.99609375,-48.828125,-85.9375,-64.453125,-14.6484375,1.0
56.06640625,-1.46484375,-34.66796875,-50.29296875,-41.9921875,-61.03515625,1.0
56.0703125,0.0,-53.22265625,-39.0625,-56.640625,-48.828125,1.0
56.07421875,-19.53125,-50.29296875,-63.4765625,-90.33203125,14.16015625,1.0
56.078125,-11.23046875,-27.83203125,-63.4765625,-82.03125,-26.85546875,1.0
56.08203125,-3.90625,-29.78515625,-71.77734375,-72.265625,-106.4453125,1.0
56.0859375,-50.78125,-57.6171875,-90.33203125,-103.515625,-78.125,1.0
56.08984375,-62.98828125,-54.19921875,-35.15625,-101.5625,-37.59765625,1.0
56.09375,-87.40234375,-46.38671875,-35.64453125,-122.55859375,-4.39453125,1.0
56.09765625,-99.609375,-87.40234375,-32.2265625,-130.859375,34.66796875,1.0
56.1015625,-96.19140625,-134.27734375,-14.16015625,-130.859375,5.859375,1.0
56.10546875,-160.64453125,-73.2421875,-78.125,-190.4296875,-12.6953125,1.0
56.109375,-165.52734375,-13.18359375,-86.42578125,-191.89453125,-1.953125,1.0
56.11328125,-141.6015625,-6.8359375,-62.5,-185.05859375,-8.7890625,1.0
56.1171875,-151.85546875,-23.92578125,-59.08203125,-187.01171875,-22.4609375,1.0
56.12109375,-154.296875,-21.97265625,-67.87109375,-180.6640625,-29.78515625,1.0
56.125,-134.27734375,-79.58984375,-56.15234375,-179.19921875,-46.875,1.0
56.12890625,-125.9765625,-118.65234375,-37.59765625,-181.640625,-87.890625,1.0
56.1328125,-138.18359375,-32.71484375,-50.78125,-189.453125,-111.81640625,1.0
56.13671875,-144.53125,0.48828125,-73.2421875,-190.4296875,-95.21484375,1.0
56.140625,-150.390625,-18.5546875,-73.2421875,-183.10546875,-35.64453125,1.0
56.14453125,-125.9765625,-68.84765625,-48.33984375,-142.08984375,-2.44140625,1.0
56.1484375,-137.20703125,-86.42578125,-63.4765625,-132.8125,-46.38671875,1.0
56.15234375,-160.64453125,-1.953125,-69.3359375,-134.27734375,-44.921875,1.0
56.15625,-174.31640625,-25.390625,-57.6171875,-136.71875,-44.43359375,1.0
56.16015625,-168.9453125,-57.6171875,-69.3359375,-124.0234375,-113.76953125,1.0
56.1640625,-135.25390625,-7.8125,-61.03515625,-88.8671875,-111.81640625,1.0
56.16796875,-141.6015625,-7.8125,-59.08203125,-81.0546875,-90.8203125,1.0
56.171875,-119.62890625,-42.48046875,-33.203125,-54.19921875,-58.59375,1.0
56.17578125,-80.56640625,-79.1015625,12.20703125,-20.5078125,-21.484375,1.0
56.1796875,-135.7421875,-52.734375,-48.33984375,-77.63671875,29.78515625,1.0
56.18359375,-175.29296875,0.9765625,-93.75,-101.5625,42.96875,1.0
56.1875,-153.80859375,6.34765625,-68.84765625,-72.75390625,-3.90625,1.0
56.19140625,-123.046875,-27.34375,-43.9453125,-48.828125,0.9765625,1.0
56.1953125,-85.44921875,-86.42578125,-2.9296875,-8.7890625,41.50390625,1.0
56.19921875,-69.82421875,-98.6328125,6.8359375,-6.34765625,35.15625,1.0
56.203125,-112.79296875,-19.53125,-56.640625,-58.59375,4.39453125,1.0
56.20703125,-137.20703125,23.92578125,-56.640625,-60.546875,8.7890625,1.0
56.2109375,-108.3984375,8.7890625,-18.06640625,-30.2734375,5.37109375,1.0
56.21484375,-70.80078125,3.41796875,-14.16015625,-18.06640625,0.48828125,1.0
56.21875,-56.15234375,-16.6015625,-9.765625,-18.5546875,-22.94921875,1.0
56.22265625,-69.82421875,-34.66796875,-19.53125,-30.76171875,-40.0390625,1.0
56.2265625,-93.26171875,-60.546875,-30.2734375,-31.73828125,-90.33203125,1.0
56.23046875,-79.1015625,-39.55078125,-27.83203125,-39.0625,-87.890625,1.0
56.234375,-62.98828125,4.8828125,-29.78515625,-43.9453125,29.78515625,1.0
56.23828125,-79.1015625,-19.53125,-28.80859375,-53.22265625,-14.16015625,1.0
56.2421875,-62.5,-42.96875,-23.4375,-28.80859375,-122.55859375,1.0
56.24609375,-15.625,-37.109375,17.08984375,19.04296875,-71.2890625,1.0
56.25,-33.69140625,-32.71484375,11.23046875,-3.41796875,-30.76171875,1.0
56.25390625,-75.68359375,-57.6171875,-33.69140625,-39.0625,-19.53125,1.0
56.2578125,-70.80078125,-64.94140625,-30.2734375,-33.203125,33.203125,1.0
56.26171875,-67.3828125,-20.5078125,-24.4140625,-24.90234375,-12.6953125,1.0
56.265625,-64.94140625,-8.30078125,-33.69140625,-14.16015625,-31.25,1.0
56.26953125,-50.78125,-11.71875,-31.25,-6.8359375,31.73828125,1.0
56.2734375,-30.2734375,-39.0625,-6.34765625,6.34765625,-12.6953125,1.0
56.27734375,-40.0390625,-75.1953125,-10.25390625,-0.9765625,-40.52734375,1.0
56.28125,-56.640625,-48.33984375,-23.4375,-6.34765625,-46.875,1.0
56.28515625,-68.359375,-17.578125,-32.71484375,1.953125,-30.76171875,1.0
56.2890625,-65.4296875,-37.109375,-31.25,-6.8359375,-38.57421875,1.0
56.29296875,-59.5703125,-73.2421875,-34.1796875,-21.484375,-21.484375,1.0
56.296875,-55.17578125,-51.26953125,-41.015625,-4.8828125,-24.4140625,1.0
56.30078125,-45.41015625,-29.296875,-11.71875,12.20703125,-113.28125,1.0
56.3046875,-60.05859375,-36.62109375,-13.671875,5.859375,-67.87109375,1.0
56.30859375,-83.984375,-27.83203125,-42.96875,-12.6953125,-11.71875,1.0
56.3125,-64.94140625,-46.38671875,-25.390625,-1.46484375,-35.64453125,1.0
56.31640625,-46.875,-81.54296875,-12.20703125,0.48828125,-49.8046875,1.0
56.3203125,-59.08203125,-45.41015625,-32.2265625,-21.97265625,-56.15234375,1.0
56.32421875,-60.546875,-19.04296875,-28.3203125,-13.18359375,14.6484375,1.0
56.328125,-51.26953125,-35.15625,-35.15625,-15.13671875,40.52734375,1.0
56.33203125,-57.6171875,-38.0859375,-43.45703125,-31.73828125,18.06640625,1.0
56.3359375,-72.75390625,-42.96875,-45.8984375,-30.76171875,-86.9140625,1.0
56.33984375,-67.3828125,-50.29296875,-48.33984375,-18.5546875,-101.07421875,1.0
56.34375,-64.453125,-46.875,-36.1328125,-15.625,-42.96875,1.0
56.34765625,-63.4765625,-58.10546875,-38.0859375,-17.578125,-42.96875,1.0
56.3515625,-67.87109375,-70.80078125,-36.1328125,-31.73828125,31.25,1.0
56.35546875,-37.109375,-55.17578125,-14.16015625,-17.578125,17.08984375,1.0
56.359375,-1.953125,-49.31640625,-9.27734375,4.8828125,-3.90625,1.0
56.36328125,-22.94921875,-71.2890625,-19.04296875,-8.30078125,-35.15625,1.0
56.3671875,-28.3203125,-84.47265625,-8.7890625,-5.859375,-67.87109375,1.0
56.37109375,-7.8125,-72.265625,3.90625,7.32421875,-17.08984375,1.0
56.375,-27.83203125,-58.10546875,-18.5546875,-10.25390625,-37.59765625,1.0
56.37890625,-46.38671875,-46.875,-27.34375,-19.04296875,-67.87109375,1.0
