timestamp,TP9,AF7,AF8,TP10,AUX,Marker,
437.00390625,28.80859375,-51.26953125,-11.23046875,55.6640625,-124.0234375,0.0
437.0078125,44.43359375,-66.40625,-20.99609375,53.22265625,-129.39453125,0.0
437.01171875,44.921875,-51.26953125,-23.92578125,58.59375,-142.08984375,0.0
437.015625,30.76171875,-24.4140625,-27.34375,47.36328125,-142.578125,0.0
437.01953125,35.64453125,-35.15625,-36.62109375,30.2734375,-45.8984375,0.0
437.0234375,49.31640625,-56.15234375,-39.55078125,30.76171875,35.15625,0.0
437.02734375,38.0859375,-49.8046875,-23.92578125,36.62109375,33.203125,0.0
437.03125,23.92578125,-44.43359375,-12.6953125,41.015625,-55.6640625,0.0
437.03515625,27.83203125,-60.546875,-17.08984375,46.875,-159.66796875,0.0
437.0390625,44.921875,-51.26953125,-3.90625,45.41015625,-147.4609375,0.0
437.04296875,33.69140625,-46.38671875,-2.9296875,41.50390625,-40.52734375,0.0
437.046875,20.99609375,-60.546875,-14.16015625,46.38671875,-71.77734375,0.0
437.05078125,33.69140625,-43.45703125,-13.18359375,57.12890625,-48.33984375,0.0
437.0546875,29.296875,-26.85546875,-8.30078125,47.8515625,44.921875,0.0
437.05859375,20.99609375,-34.1796875,-2.44140625,34.66796875,33.203125,0.0
437.0625,21.484375,-33.203125,-3.90625,28.80859375,71.2890625,0.0
437.06640625,37.59765625,-32.2265625,-15.13671875,24.90234375,48.33984375,0.0
437.0703125,45.8984375,-39.0625,-20.99609375,21.97265625,30.76171875,0.0
437.07421875,19.04296875,-29.296875,-16.11328125,17.578125,60.05859375,0.0
437.078125,-10.25390625,-18.06640625,-12.6953125,21.97265625,-37.59765625,0.0
437.08203125,-18.5546875,-41.50390625,-18.5546875,16.11328125,-78.125,0.0
437.0859375,-16.6015625,-43.45703125,-23.92578125,-0.9765625,-19.04296875,0.0
437.08984375,-21.484375,-39.55078125,-26.85546875,-10.25390625,-18.06640625,0.0
437.09375,-20.5078125,-49.8046875,-25.87890625,-8.30078125,-32.2265625,0.0
437.09765625,-19.53125,-62.98828125,-44.43359375,-16.6015625,42.48046875,0.0
437.1015625,-14.16015625,-56.15234375,-52.24609375,-20.5078125,99.12109375,0.0
437.10546875,3.41796875,-36.62109375,-48.828125,-4.39453125,80.078125,0.0
437.109375,-10.7421875,-24.4140625,-54.6875,-10.25390625,-17.578125,0.0
437.11328125,-29.78515625,-29.78515625,-42.48046875,-32.71484375,-27.34375,0.0
437.1171875,-23.4375,-30.76171875,-20.5078125,-34.66796875,-5.37109375,0.0
437.12109375,-8.7890625,-32.2265625,-12.20703125,-32.2265625,6.8359375,0.0
437.125,-20.99609375,-42.96875,-22.94921875,-22.4609375,25.390625,0.0
437.12890625,-40.52734375,-36.62109375,-34.1796875,-20.5078125,-29.296875,0.0
437.1328125,-15.625,-12.6953125,-25.390625,-34.1796875,-101.07421875,0.0
437.13671875,-8.30078125,-30.76171875,-13.18359375,-37.59765625,-33.69140625,0.0
437.140625,-36.62109375,-72.265625,-21.97265625,-31.25,29.78515625,0.0
437.14453125,-34.66796875,-63.4765625,-21.97265625,-27.83203125,-45.41015625,0.0
437.1484375,-8.30078125,-42.96875,-8.7890625,-15.13671875,-81.0546875,0.0
437.15234375,-20.5078125,-39.0625,-3.41796875,-19.53125,-172.36328125,0.0
437.15625,-35.15625,-26.3671875,-3.90625,-25.390625,-204.58984375,0.0
437.16015625,-30.2734375,-38.0859375,-19.04296875,-16.6015625,-136.71875,0.0
437.1640625,-33.203125,-43.45703125,-29.296875,-20.5078125,-114.74609375,0.0
437.16796875,-37.109375,-33.69140625,-24.90234375,-25.390625,-114.2578125,0.0
437.171875,-31.25,-41.015625,-21.484375,-23.92578125,-79.1015625,0.0
437.17578125,-29.296875,-45.41015625,-22.4609375,-33.203125,-48.828125,0.0
437.1796875,-23.4375,-30.76171875,-22.4609375,-33.203125,-31.25,0.0
437.18359375,-12.6953125,-23.92578125,-21.97265625,-22.4609375,34.66796875,0.0
437.1875,-10.25390625,-41.50390625,-31.25,-10.25390625,85.9375,0.0
437.19140625,-0.48828125,-54.19921875,-27.83203125,-15.625,75.68359375,0.0
437.1953125,-8.30078125,-58.10546875,-23.4375,-17.08984375,3.90625,0.0
437.19921875,-22.4609375,-61.03515625,-29.78515625,-7.32421875,-82.03125,0.0
437.203125,-24.4140625,-38.57421875,-31.25,-9.27734375,-83.49609375,0.0
437.20703125,-29.78515625,-18.06640625,-27.34375,-9.27734375,-70.80078125,0.0
437.2109375,-20.5078125,-14.16015625,-20.5078125,-10.7421875,-32.2265625,0.0
437.21484375,-2.44140625,-12.20703125,-18.5546875,1.953125,8.30078125,0.0
437.21875,-26.3671875,-8.7890625,-15.625,2.44140625,36.62109375,0.0
437.22265625,-32.2265625,-23.4375,-22.94921875,-11.71875,34.66796875,0.0
437.2265625,-12.20703125,-32.71484375,-27.34375,8.30078125,0.9765625,0.0
437.23046875,-20.99609375,-27.34375,-25.87890625,-4.8828125,1.46484375,0.0
437.234375,0.48828125,-41.50390625,-30.2734375,-45.8984375,9.765625,0.0
437.23828125,20.5078125,-43.9453125,-32.2265625,-36.62109375,-35.15625,0.0
437.2421875,-2.44140625,-37.109375,-34.66796875,-10.7421875,-35.15625,0.0
437.24609375,-4.8828125,-21.97265625,-43.9453125,-14.6484375,1.953125,0.0
437.25,-1.953125,-3.90625,-48.828125,-24.4140625,-22.94921875,0.0
437.25390625,-13.671875,-7.32421875,-33.69140625,-28.80859375,43.9453125,0.0
437.2578125,-30.76171875,-22.4609375,-23.4375,-38.0859375,-44.921875,0.0
437.26171875,-35.64453125,-31.73828125,-27.34375,-48.33984375,-138.671875,0.0
437.265625,-37.59765625,-43.45703125,-32.71484375,-53.22265625,1.46484375,0.0
437.26953125,-31.25,-58.10546875,-28.80859375,-36.1328125,107.91015625,0.0
437.2734375,-30.2734375,-52.734375,-35.15625,-35.15625,81.54296875,0.0
437.27734375,-33.69140625,-49.8046875,-56.15234375,-49.31640625,-80.56640625,0.0
437.28125,-20.5078125,-36.1328125,-58.10546875,-36.1328125,-105.95703125,0.0
437.28515625,-0.48828125,-32.71484375,-38.0859375,-25.390625,-54.6875,0.0
437.2890625,-11.23046875,-58.10546875,-33.69140625,-38.57421875,-58.59375,0.0
437.29296875,-32.71484375,-57.12890625,-42.48046875,-38.0859375,-39.55078125,0.0
437.296875,-23.92578125,-33.69140625,-29.296875,-17.578125,10.7421875,0.0
437.30078125,-17.08984375,-34.1796875,-22.4609375,-6.8359375,13.671875,0.0
437.3046875,-3.90625,-47.36328125,-27.34375,-2.44140625,-19.53125,0.0
437.30859375,-3.41796875,-53.22265625,-23.4375,2.44140625,-4.8828125,0.0
437.3125,-2.9296875,-51.26953125,-18.5546875,11.71875,42.48046875,0.0
437.31640625,9.765625,-47.36328125,-15.625,35.15625,-12.6953125,0.0
437.3203125,15.625,-45.41015625,-11.23046875,34.66796875,-47.8515625,0.0
437.32421875,0.48828125,-62.5,-14.6484375,9.765625,-16.6015625,0.0
437.328125,-15.625,-69.82421875,-20.5078125,14.6484375,-28.80859375,0.0
437.33203125,-11.71875,-63.96484375,-11.23046875,20.01953125,-28.80859375,0.0
437.3359375,-13.671875,-81.54296875,-10.25390625,20.99609375,30.2734375,0.0
437.33984375,-8.30078125,-88.8671875,-10.7421875,34.1796875,-118.65234375,0.0
437.34375,-7.8125,-72.265625,-2.9296875,35.15625,-195.80078125,0.0
437.34765625,0.48828125,-65.91796875,0.9765625,42.96875,-115.72265625,0.0
437.3515625,3.41796875,-71.2890625,5.859375,54.19921875,-162.59765625,0.0
437.35546875,-17.08984375,-83.49609375,-0.9765625,37.59765625,-171.38671875,0.0
437.359375,-11.23046875,-89.84375,2.44140625,33.203125,-161.62109375,0.0
437.36328125,-3.41796875,-91.30859375,10.7421875,34.66796875,-54.19921875,0.0
437.3671875,-7.8125,-84.47265625,14.16015625,36.62109375,-78.61328125,0.0
437.37109375,-20.01953125,-73.73046875,13.671875,36.1328125,-217.7734375,0.0
437.375,-29.296875,-70.80078125,4.8828125,47.36328125,-165.0390625,0.0
437.37890625,-28.80859375,-83.49609375,2.44140625,61.5234375,-101.5625,0.0
437.3828125,-18.06640625,-96.6796875,7.32421875,48.828125,-59.08203125,0.0
437.38671875,-12.20703125,-92.7734375,17.08984375,57.6171875,-71.77734375,0.0
437.390625,-5.37109375,-88.8671875,33.203125,80.078125,-104.98046875,0.0
437.39453125,-14.6484375,-104.00390625,35.15625,74.21875,-74.21875,0.0
437.3984375,-22.94921875,-113.28125,30.2734375,65.4296875,-2.44140625,0.0
437.40234375,-8.7890625,-110.83984375,37.109375,76.66015625,-18.5546875,0.0
437.40625,-14.16015625,-102.5390625,40.52734375,83.49609375,-119.62890625,0.0
437.41015625,-20.5078125,-94.7265625,32.2265625,83.0078125,8.30078125,0.0
437.4140625,-14.16015625,-87.890625,21.97265625,56.640625,168.9453125,0.0
437.41796875,-10.25390625,-76.66015625,18.06640625,37.109375,146.97265625,0.0
437.421875,-20.99609375,-90.8203125,18.5546875,39.0625,85.9375,0.0
437.42578125,-42.48046875,-102.05078125,16.11328125,40.52734375,45.41015625,0.0
437.4296875,-33.203125,-97.16796875,19.53125,45.8984375,-34.66796875,0.0
437.43359375,-11.23046875,-97.16796875,29.296875,48.828125,-31.25,0.0
437.4375,-19.04296875,-87.40234375,19.53125,42.96875,58.59375,0.0
437.44140625,-31.25,-69.3359375,-3.90625,26.3671875,75.1953125,0.0
437.4453125,-34.66796875,-63.96484375,-18.06640625,22.94921875,51.7578125,0.0
437.44921875,-33.69140625,-63.96484375,-14.6484375,36.62109375,-1.46484375,0.0
437.453125,-32.71484375,-58.10546875,-0.48828125,23.4375,-4.8828125,0.0
437.45703125,-49.31640625,-64.94140625,-3.41796875,-1.953125,-31.73828125,0.0
437.4609375,-55.17578125,-54.19921875,-5.859375,-2.44140625,-102.5390625,0.0
437.46484375,-34.1796875,-53.22265625,-2.44140625,11.23046875,-104.98046875,0.0
437.46875,-14.6484375,-83.0078125,-5.37109375,16.11328125,-26.85546875,0.0
437.47265625,-33.69140625,-92.28515625,-17.578125,5.859375,65.91796875,0.0
437.4765625,-51.26953125,-73.73046875,-11.23046875,9.765625,47.36328125,0.0
437.48046875,-22.4609375,-60.05859375,2.44140625,22.94921875,-40.0390625,0.0
437.484375,-18.06640625,-45.8984375,0.9765625,20.01953125,-123.046875,0.0
437.48828125,-41.50390625,-51.26953125,1.46484375,10.25390625,-149.4140625,0.0
437.4921875,-26.85546875,-50.78125,-4.39453125,11.23046875,-83.984375,0.0
437.49609375,-2.9296875,-27.83203125,-8.7890625,13.671875,-83.49609375,0.0
437.5,-16.11328125,-24.90234375,-5.859375,9.27734375,-169.921875,0.0
437.50390625,-46.875,-66.89453125,-11.71875,0.9765625,-83.984375,0.0
437.5078125,-51.26953125,-76.66015625,-20.01953125,0.0,21.97265625,0.0
437.51171875,-24.4140625,-53.7109375,-12.6953125,9.765625,-16.11328125,0.0
437.515625,-14.16015625,-51.26953125,-8.7890625,4.8828125,-22.94921875,0.0
437.51953125,-22.94921875,-41.9921875,-4.39453125,-1.953125,-9.27734375,0.0
437.5234375,-15.13671875,-47.8515625,6.8359375,4.8828125,-39.0625,0.0
437.52734375,-18.06640625,-64.94140625,12.20703125,11.23046875,22.94921875,0.0
437.53125,-49.8046875,-57.6171875,10.7421875,15.13671875,95.703125,0.0
437.53515625,-50.78125,-61.5234375,7.32421875,18.06640625,50.29296875,0.0
437.5390625,-46.38671875,-76.171875,4.39453125,13.671875,-47.8515625,0.0
437.54296875,-53.7109375,-84.47265625,5.37109375,-3.90625,-26.3671875,0.0
437.546875,-46.875,-74.21875,8.7890625,-8.30078125,38.0859375,0.0
437.55078125,-31.73828125,-60.05859375,4.39453125,-8.7890625,30.2734375,0.0
437.5546875,-18.5546875,-49.8046875,6.34765625,-13.18359375,53.7109375,0.0
437.55859375,-14.16015625,-39.0625,9.27734375,-14.16015625,3.41796875,0.0
437.5625,-32.2265625,-55.17578125,-5.859375,-11.23046875,-49.8046875,0.0
437.56640625,-51.7578125,-94.7265625,-24.4140625,0.0,6.34765625,0.0
437.5703125,-46.875,-122.55859375,-20.99609375,0.48828125,-20.5078125,0.0
437.57421875,-36.1328125,-95.703125,-8.7890625,-7.8125,-45.41015625,0.0
437.578125,-34.1796875,-41.9921875,-4.8828125,-9.765625,-31.25,0.0
437.58203125,-57.12890625,-50.78125,-8.30078125,-25.87890625,-58.59375,0.0
437.5859375,-64.453125,-85.9375,-20.99609375,-46.875,-41.015625,0.0
437.58984375,-44.43359375,-75.68359375,-8.7890625,-45.41015625,-30.2734375,0.0
437.59375,-61.5234375,-53.22265625,-2.44140625,-39.0625,-91.796875,0.0
437.59765625,-81.0546875,-47.36328125,-20.01953125,-34.66796875,-52.734375,0.0
437.6015625,-62.98828125,-39.55078125,-4.8828125,-23.4375,-45.8984375,0.0
437.60546875,-51.26953125,-35.15625,9.27734375,-20.99609375,-57.6171875,0.0
437.609375,-53.22265625,-51.7578125,3.90625,-24.90234375,-47.36328125,0.0
437.61328125,-58.10546875,-74.21875,-6.34765625,-25.390625,-99.12109375,0.0
437.6171875,-55.6640625,-64.453125,-16.6015625,-20.5078125,-92.7734375,0.0
437.62109375,-67.3828125,-44.43359375,-9.765625,-30.2734375,-63.96484375,0.0
437.625,-79.1015625,-42.96875,-6.8359375,-52.734375,-112.79296875,0.0
437.62890625,-66.40625,-59.08203125,-25.87890625,-50.78125,-47.8515625,0.0
437.6328125,-49.31640625,-66.89453125,-35.15625,-44.43359375,-10.25390625,0.0
437.63671875,-52.734375,-61.5234375,-23.92578125,-44.43359375,-31.25,0.0
437.640625,-54.6875,-51.7578125,-6.8359375,-44.43359375,-22.4609375,0.0
437.64453125,-50.29296875,-64.94140625,2.44140625,-32.71484375,-37.59765625,0.0
437.6484375,-52.734375,-66.89453125,-2.44140625,-20.99609375,-10.25390625,0.0
437.65234375,-27.83203125,-31.25,-4.8828125,-5.859375,-15.13671875,0.0
437.65625,-0.48828125,-13.18359375,-21.97265625,-5.37109375,-22.94921875,0.0
437.66015625,-4.8828125,-35.15625,-34.1796875,-27.83203125,-54.19921875,0.0
437.6640625,-16.6015625,-46.38671875,-14.6484375,-33.203125,-65.91796875,0.0
437.66796875,-16.6015625,-47.36328125,-6.34765625,-21.484375,-27.34375,0.0
437.671875,-20.99609375,-61.5234375,-3.41796875,-6.34765625,-3.41796875,0.0
437.67578125,-22.94921875,-57.6171875,12.20703125,-0.48828125,-23.92578125,0.0
437.6796875,-20.99609375,-59.5703125,20.5078125,0.0,-75.68359375,0.0
437.68359375,-7.8125,-64.94140625,20.01953125,10.25390625,-105.95703125,0.0
437.6875,-0.48828125,-59.5703125,17.08984375,15.13671875,-95.21484375,0.0
437.69140625,2.9296875,-55.17578125,19.04296875,13.671875,-137.6953125,0.0
437.6953125,-0.9765625,-45.8984375,23.4375,11.71875,-70.80078125,0.0
437.69921875,-10.7421875,-61.03515625,22.94921875,10.7421875,-2.9296875,0.0
437.703125,-15.625,-90.8203125,24.90234375,19.04296875,-50.29296875,0.0
437.70703125,-29.296875,-89.84375,35.64453125,19.53125,6.34765625,0.0
437.7109375,-21.97265625,-73.73046875,47.36328125,17.578125,-21.484375,0.0
437.71484375,-17.578125,-67.3828125,49.8046875,25.390625,-98.14453125,0.0
437.71875,-31.25,-61.5234375,44.921875,31.25,-70.80078125,0.0
437.72265625,-47.8515625,-72.265625,36.1328125,20.5078125,-123.53515625,0.0
437.7265625,-44.43359375,-87.40234375,25.87890625,-0.48828125,-143.06640625,0.0
437.73046875,-9.27734375,-79.58984375,23.4375,3.90625,-16.11328125,0.0
437.734375,13.18359375,-74.70703125,16.11328125,9.765625,0.48828125,0.0
437.73828125,-0.9765625,-71.2890625,18.06640625,6.34765625,-14.16015625,0.0
437.7421875,-52.734375,-66.40625,15.13671875,1.953125,53.7109375,0.0
437.74609375,-74.70703125,-77.63671875,4.8828125,4.39453125,70.80078125,0.0
437.75,-50.78125,-87.890625,6.8359375,1.46484375,41.9921875,0.0
437.75390625,-40.0390625,-100.5859375,0.0,-12.6953125,32.2265625,0.0
437.7578125,-34.1796875,-101.5625,-17.08984375,-11.71875,13.671875,0.0
437.76171875,-45.8984375,-92.7734375,-16.11328125,1.953125,2.9296875,0.0
437.765625,-59.5703125,-90.8203125,-15.13671875,8.7890625,20.5078125,0.0
437.76953125,-46.875,-77.1484375,-33.203125,-4.8828125,3.90625,0.0
437.7734375,-43.9453125,-58.59375,-29.296875,-17.578125,-68.84765625,0.0
437.77734375,-59.5703125,-48.33984375,-9.27734375,-19.04296875,-72.265625,0.0
437.78125,-73.73046875,-52.734375,-4.39453125,-25.390625,-16.6015625,0.0
437.78515625,-54.6875,-59.5703125,1.953125,-31.73828125,-62.5,0.0
437.7890625,-59.5703125,-51.7578125,0.48828125,-32.71484375,-73.2421875,0.0
437.79296875,-70.3125,-44.43359375,-9.27734375,-33.69140625,-51.7578125,0.0
437.796875,-65.4296875,-47.8515625,-7.32421875,-38.57421875,-39.55078125,0.0
437.80078125,-77.1484375,-57.12890625,-18.5546875,-25.390625,-7.32421875,0.0
437.8046875,-64.453125,-56.15234375,-28.80859375,-18.06640625,-130.37109375,0.0
437.80859375,-42.48046875,-56.15234375,-11.23046875,-5.37109375,-155.76171875,0.0
437.8125,-55.6640625,-38.57421875,2.9296875,-6.34765625,-84.9609375,0.0
437.81640625,-35.64453125,-18.06640625,-4.8828125,-26.3671875,-111.328125,0.0
437.8203125,-30.76171875,-35.64453125,-13.671875,-29.296875,-86.42578125,0.0
437.82421875,-60.05859375,-49.31640625,-9.765625,-13.671875,-67.87109375,0.0
437.828125,-52.734375,-29.78515625,-2.9296875,-8.30078125,-68.84765625,0.0
437.83203125,-46.875,-22.4609375,-9.27734375,-22.94921875,-48.828125,0.0
437.8359375,-47.36328125,-34.66796875,-14.6484375,-23.92578125,3.41796875,0.0
437.83984375,-53.22265625,-36.62109375,-19.04296875,-20.01953125,3.90625,0.0
437.84375,-64.94140625,-40.52734375,-20.5078125,-19.53125,-40.52734375,0.0
437.84765625,-40.0390625,-53.22265625,-21.484375,-6.8359375,-25.390625,0.0
437.8515625,-23.4375,-62.5,-26.85546875,5.37109375,-2.9296875,0.0
437.85546875,-26.3671875,-56.640625,-22.94921875,-3.90625,-27.83203125,0.0
437.859375,-18.06640625,-43.45703125,-19.04296875,-10.7421875,-13.671875,0.0
437.86328125,-6.8359375,-49.8046875,-15.625,9.765625,-28.3203125,0.0
437.8671875,-15.625,-53.7109375,-19.04296875,1.953125,-49.31640625,0.0
437.87109375,-27.34375,-36.62109375,-23.92578125,2.44140625,26.85546875,0.0
437.875,-11.71875,-15.625,-16.6015625,15.13671875,57.6171875,0.0
437.87890625,0.48828125,-9.765625,-13.671875,15.625,66.89453125,0.0
437.8828125,-0.48828125,-9.765625,-20.01953125,7.8125,61.03515625,0.0
437.88671875,-10.25390625,-15.13671875,-20.01953125,-13.18359375,25.87890625,0.0
437.890625,-13.18359375,-38.0859375,-26.85546875,-27.83203125,54.6875,0.0
437.89453125,-21.97265625,-53.22265625,-42.48046875,-24.90234375,-34.1796875,0.0
437.8984375,-26.3671875,-47.36328125,-38.57421875,-10.7421875,-87.40234375,0.0
437.90234375,-20.01953125,-40.52734375,-22.94921875,-9.765625,14.16015625,0.0
437.90625,-26.3671875,-45.41015625,-13.18359375,-16.11328125,-14.6484375,0.0
437.91015625,-36.62109375,-42.96875,-10.7421875,-26.3671875,-48.828125,0.0
437.9140625,-34.1796875,-29.78515625,-7.8125,-29.78515625,8.7890625,0.0
437.91796875,-32.71484375,-26.85546875,-3.90625,-32.2265625,-37.59765625,0.0
437.921875,-38.57421875,-28.3203125,-3.41796875,-43.45703125,-61.5234375,0.0
437.92578125,-32.71484375,-47.8515625,-11.23046875,-39.55078125,-17.08984375,0.0
437.9296875,-17.08984375,-49.31640625,-24.4140625,-29.296875,37.109375,0.0
437.93359375,-28.3203125,-28.3203125,-32.71484375,-26.85546875,62.01171875,0.0
437.9375,-46.38671875,-40.0390625,-48.33984375,-36.62109375,22.94921875,0.0
437.94140625,-33.69140625,-59.5703125,-42.48046875,-54.6875,-74.70703125,0.0
437.9453125,-33.203125,-79.1015625,-30.76171875,-58.59375,-17.578125,0.0
437.94921875,-61.5234375,-83.0078125,-41.9921875,-45.41015625,28.3203125,0.0
437.953125,-77.1484375,-60.546875,-35.64453125,-49.8046875,-35.64453125,0.0
437.95703125,-76.171875,-40.0390625,-22.94921875,-73.73046875,14.6484375,0.0
437.9609375,-82.51953125,-41.9921875,-27.34375,-77.63671875,-18.06640625,0.0
437.96484375,-75.68359375,-59.08203125,-30.76171875,-72.75390625,-44.921875,0.0
437.96875,-60.05859375,-51.7578125,-26.85546875,-62.01171875,4.8828125,0.0
437.97265625,-61.5234375,-37.59765625,-28.80859375,-47.8515625,-15.13671875,0.0
437.9765625,-61.5234375,-32.2265625,-28.3203125,-47.36328125,-60.546875,0.0
437.98046875,-71.77734375,-43.45703125,-45.8984375,-68.359375,-40.52734375,0.0
437.984375,-81.54296875,-59.08203125,-55.17578125,-63.4765625,21.484375,0.0
437.98828125,-55.6640625,-62.98828125,-50.78125,-41.015625,69.3359375,0.0
437.9921875,-45.41015625,-62.5,-41.50390625,-34.66796875,100.5859375,0.0
437.99609375,-39.0625,-45.41015625,-24.90234375,-35.15625,26.85546875,0.0
438.0,-52.24609375,-36.62109375,-24.90234375,-37.109375,-85.44921875,0.0
438.00390625,-72.75390625,-54.6875,-21.484375,-30.76171875,-83.49609375,0.0
438.0078125,-68.84765625,-55.17578125,-25.390625,-38.57421875,-50.78125,0.0
438.01171875,-36.62109375,-47.8515625,-43.45703125,-49.8046875,-35.64453125,0.0
438.015625,-21.484375,-52.24609375,-48.33984375,-49.31640625,-12.6953125,0.0
438.01953125,-51.7578125,-55.17578125,-25.87890625,-42.96875,7.8125,0.0
438.0234375,-62.98828125,-42.96875,-14.16015625,-43.45703125,-32.71484375,0.0
438.02734375,-51.7578125,-29.78515625,-25.390625,-26.85546875,-70.3125,0.0
438.03125,-66.89453125,-30.76171875,-35.15625,-9.27734375,-41.015625,0.0
438.03515625,-58.10546875,-39.0625,-26.85546875,-29.78515625,-20.01953125,0.0
438.0390625,-61.5234375,-47.36328125,-26.3671875,-34.1796875,-6.8359375,0.0
438.04296875,-92.28515625,-63.96484375,-36.62109375,-35.15625,-77.1484375,0.0
438.046875,-88.8671875,-62.01171875,-39.55078125,-58.59375,-34.66796875,0.0
438.05078125,-64.94140625,-59.08203125,-39.55078125,-62.01171875,130.859375,0.0
438.0546875,-49.8046875,-60.546875,-53.22265625,-53.22265625,75.1953125,0.0
438.05859375,-52.734375,-46.875,-56.15234375,-42.96875,-35.15625,0.0
438.0625,-50.29296875,-41.9921875,-43.45703125,-42.96875,-62.98828125,0.0
438.06640625,-38.0859375,-23.92578125,-39.0625,-41.015625,-48.33984375,0.0
438.0703125,-47.36328125,-3.90625,-26.3671875,-36.1328125,-88.8671875,0.0
438.07421875,-50.29296875,-25.390625,-25.390625,-45.8984375,-93.75,0.0
438.078125,-37.59765625,-47.36328125,-41.50390625,-39.0625,-90.33203125,0.0
438.08203125,-19.53125,-35.15625,-38.0859375,-21.484375,-117.1875,0.0
438.0859375,-17.08984375,-33.69140625,-39.0625,-19.53125,-80.56640625,0.0
438.08984375,-26.85546875,-43.9453125,-35.64453125,-19.53125,-13.671875,0.0
438.09375,-19.53125,-16.6015625,-17.578125,-29.78515625,54.19921875,0.0
438.09765625,-27.34375,-17.08984375,-30.2734375,-38.0859375,-13.671875,0.0
438.1015625,-34.1796875,-43.45703125,-50.78125,-41.9921875,-53.22265625,0.0
438.10546875,-28.80859375,-45.41015625,-42.48046875,-46.38671875,-8.7890625,0.0
438.109375,-27.83203125,-32.71484375,-27.34375,-42.48046875,-52.24609375,0.0
438.11328125,-31.73828125,-26.3671875,-38.57421875,-39.0625,-94.7265625,0.0
438.1171875,-47.36328125,-24.4140625,-48.828125,-57.6171875,-95.703125,0.0
438.12109375,-30.76171875,-25.390625,-30.76171875,-47.8515625,-62.5,0.0
438.125,0.0,-29.296875,-21.97265625,-22.4609375,-54.6875,0.0
438.12890625,-13.671875,-41.50390625,-28.80859375,-34.1796875,-68.84765625,0.0
438.1328125,-25.87890625,-68.359375,-55.17578125,-45.41015625,-57.6171875,0.0
438.13671875,-5.859375,-55.17578125,-64.453125,-41.9921875,-7.8125,0.0
438.140625,10.25390625,-43.45703125,-46.38671875,-40.0390625,-68.84765625,0.0
438.14453125,0.48828125,-42.96875,-42.48046875,-36.62109375,-68.84765625,0.0
438.1484375,3.41796875,-38.0859375,-40.0390625,-20.5078125,-56.640625,0.0
438.15234375,20.99609375,-37.59765625,-37.59765625,-12.6953125,-60.05859375,0.0
438.15625,19.53125,-28.3203125,-22.94921875,-16.11328125,3.90625,0.0
438.16015625,12.6953125,-19.53125,-6.8359375,-13.18359375,47.8515625,0.0
438.1640625,21.484375,-30.2734375,-12.6953125,7.32421875,0.48828125,0.0
438.16796875,27.34375,-54.19921875,-19.53125,20.99609375,-11.71875,0.0
438.171875,35.64453125,-35.64453125,-28.3203125,14.16015625,-41.015625,0.0
438.17578125,17.578125,-21.97265625,-50.78125,-3.90625,-113.28125,0.0
438.1796875,-2.9296875,-39.0625,-54.19921875,-8.7890625,-98.14453125,0.0
438.18359375,-5.859375,-36.62109375,-26.3671875,3.41796875,-83.984375,0.0
438.1875,-3.90625,-27.83203125,-16.6015625,6.8359375,-56.15234375,0.0
438.19140625,-0.9765625,-20.01953125,-20.5078125,6.8359375,-21.484375,0.0
438.1953125,-7.8125,-25.87890625,-9.765625,-4.8828125,32.2265625,0.0
438.19921875,6.8359375,-37.59765625,-7.32421875,-1.953125,3.41796875,0.0
438.203125,23.92578125,-26.85546875,-22.4609375,6.34765625,55.6640625,0.0
438.20703125,16.11328125,-22.4609375,-31.73828125,-13.18359375,117.1875,0.0
438.2109375,12.6953125,-14.6484375,-34.66796875,-19.04296875,104.4921875,0.0
438.21484375,5.37109375,-8.30078125,-34.1796875,-23.92578125,118.65234375,0.0
438.21875,-24.90234375,-37.109375,-41.9921875,-44.43359375,17.578125,0.0
438.22265625,-45.41015625,-62.5,-50.29296875,-45.8984375,-22.94921875,0.0
438.2265625,-40.0390625,-79.1015625,-47.36328125,-28.80859375,-11.71875,0.0
438.23046875,-30.76171875,-79.1015625,-42.48046875,-19.04296875,-69.82421875,0.0
438.234375,-24.4140625,-50.29296875,-36.62109375,-9.27734375,-68.84765625,0.0
438.23828125,-18.06640625,-40.0390625,-33.69140625,-16.11328125,-1.46484375,0.0
438.2421875,-23.4375,-44.921875,-47.36328125,-29.296875,25.87890625,0.0
438.24609375,-35.64453125,-40.52734375,-45.8984375,-15.13671875,-46.38671875,0.0
438.25,-28.3203125,-29.78515625,-20.01953125,-9.27734375,-71.77734375,0.0
438.25390625,-17.578125,-23.4375,-8.30078125,-26.85546875,12.20703125,0.0
438.2578125,-16.11328125,-20.5078125,-14.16015625,-39.0625,-18.5546875,0.0
438.26171875,-24.90234375,-26.3671875,-20.5078125,-37.109375,-17.578125,0.0
438.265625,-50.29296875,-57.12890625,-36.62109375,-44.921875,-59.08203125,0.0
438.26953125,-49.8046875,-76.66015625,-43.9453125,-51.7578125,-113.76953125,0.0
438.2734375,-42.48046875,-58.59375,-18.5546875,-33.203125,-111.81640625,0.0
438.27734375,-49.8046875,-45.41015625,-5.859375,-15.625,-35.15625,0.0
438.28125,-55.17578125,-47.36328125,-9.27734375,-27.34375,6.34765625,0.0
438.28515625,-72.75390625,-33.203125,-22.4609375,-60.05859375,-59.5703125,0.0
438.2890625,-82.03125,-36.1328125,-42.96875,-67.87109375,-19.53125,0.0
438.29296875,-77.1484375,-52.734375,-42.48046875,-63.4765625,-41.015625,0.0
438.296875,-78.125,-37.109375,-35.64453125,-81.54296875,-170.41015625,0.0
438.30078125,-82.51953125,-30.76171875,-38.57421875,-67.87109375,-188.96484375,0.0
438.3046875,-79.1015625,-28.80859375,-42.96875,-55.6640625,-149.90234375,0.0
438.30859375,-83.984375,-39.55078125,-52.734375,-73.2421875,-37.109375,0.0
438.3125,-67.87109375,-64.94140625,-54.19921875,-82.03125,47.36328125,0.0
438.31640625,-50.29296875,-60.546875,-61.03515625,-94.23828125,33.203125,0.0
438.3203125,-64.94140625,-53.22265625,-79.58984375,-89.35546875,33.203125,0.0
438.32421875,-46.875,-47.8515625,-68.84765625,-76.171875,-14.6484375,0.0
438.328125,-30.2734375,-26.85546875,-49.31640625,-65.4296875,-60.546875,0.0
438.33203125,-41.9921875,-20.01953125,-46.875,-65.91796875,-56.15234375,0.0
438.3359375,-59.08203125,-27.83203125,-40.52734375,-77.63671875,4.39453125,0.0
438.33984375,-64.453125,-39.0625,-32.71484375,-79.58984375,40.0390625,0.0
438.34375,-52.24609375,-40.52734375,-23.92578125,-55.17578125,-26.3671875,0.0
438.34765625,-39.55078125,-39.55078125,-21.484375,-46.38671875,-83.984375,0.0
438.3515625,-35.64453125,-28.3203125,-28.3203125,-57.12890625,-32.2265625,0.0
438.35546875,-49.31640625,-29.78515625,-40.0390625,-59.5703125,43.45703125,0.0
438.359375,-59.5703125,-50.29296875,-41.50390625,-48.828125,19.53125,0.0
438.36328125,-55.6640625,-54.19921875,-39.0625,-29.296875,-30.2734375,0.0
438.3671875,-33.69140625,-42.96875,-48.33984375,-28.3203125,-24.90234375,0.0
438.37109375,-35.15625,-52.734375,-51.26953125,-43.45703125,-59.08203125,0.0
438.375,-43.45703125,-61.5234375,-53.7109375,-41.9921875,-1.46484375,0.0
438.37890625,-36.62109375,-42.48046875,-35.64453125,-38.0859375,57.6171875,0.0
438.3828125,-35.64453125,-27.83203125,-20.01953125,-52.734375,-59.08203125,0.0
438.38671875,-20.01953125,-20.5078125,-28.3203125,-57.12890625,-60.05859375,0.0
438.390625,-11.23046875,-19.53125,-31.73828125,-47.8515625,-12.6953125,0.0
438.39453125,-25.390625,-28.80859375,-25.390625,-37.59765625,-59.08203125,0.0
438.3984375,-48.33984375,-34.66796875,-26.85546875,-51.26953125,-34.1796875,0.0
438.40234375,-67.87109375,-44.921875,-34.66796875,-63.4765625,-94.23828125,0.0
438.40625,-62.01171875,-45.8984375,-36.1328125,-50.78125,-139.16015625,0.0
438.41015625,-28.3203125,-31.73828125,-34.1796875,-25.390625,-122.55859375,0.0
438.4140625,-9.765625,-38.0859375,-36.1328125,-21.484375,-89.84375,0.0
438.41796875,-11.71875,-49.31640625,-54.19921875,-32.2265625,-8.30078125,0.0
438.421875,-11.23046875,-32.71484375,-53.7109375,-33.203125,-1.953125,0.0
438.42578125,-16.11328125,-27.34375,-27.83203125,-46.38671875,4.39453125,0.0
438.4296875,-6.8359375,-31.25,-8.30078125,-38.0859375,-16.11328125,0.0
438.43359375,-12.6953125,-30.76171875,-21.97265625,-10.7421875,-30.76171875,0.0
438.4375,-33.203125,-21.97265625,-23.92578125,-21.97265625,-23.4375,0.0
438.44140625,-37.59765625,-18.06640625,-16.11328125,-46.38671875,-57.12890625,0.0
438.4453125,-30.76171875,-13.671875,-27.34375,-40.52734375,-41.015625,0.0
438.44921875,-30.76171875,-11.71875,-24.90234375,-24.90234375,-4.39453125,0.0
438.453125,-33.203125,-14.6484375,-18.06640625,-19.53125,-66.89453125,0.0
438.45703125,-32.2265625,-20.5078125,-20.5078125,-27.83203125,-167.96875,0.0
438.4609375,-27.83203125,-28.80859375,-28.3203125,-36.1328125,-190.4296875,0.0
438.46484375,-33.203125,-43.9453125,-32.2265625,-36.1328125,-218.26171875,0.0
438.46875,-28.3203125,-51.7578125,-17.578125,-31.73828125,-158.203125,0.0
438.47265625,-16.11328125,-46.38671875,-15.625,-33.69140625,-41.9921875,0.0
438.4765625,-11.71875,-36.1328125,-42.96875,-31.25,18.5546875,0.0
438.48046875,-17.08984375,-41.50390625,-54.6875,-42.48046875,-18.06640625,0.0
438.484375,-19.04296875,-53.22265625,-40.52734375,-51.26953125,-1.953125,0.0
438.48828125,-12.20703125,-39.0625,-31.25,-29.78515625,51.7578125,0.0
438.4921875,-12.20703125,-12.20703125,-29.78515625,-28.80859375,31.73828125,0.0
438.49609375,-23.4375,-8.30078125,-38.57421875,-48.828125,12.6953125,0.0
438.5,-35.64453125,-21.484375,-56.640625,-48.33984375,34.1796875,0.0
438.50390625,-33.69140625,-36.62109375,-58.10546875,-34.66796875,42.96875,0.0
438.5078125,-41.50390625,-79.1015625,-58.10546875,-42.96875,47.36328125,0.0
438.51171875,-46.875,-89.84375,-54.6875,-53.22265625,-7.8125,0.0
438.515625,-38.57421875,-55.17578125,-29.296875,-38.57421875,16.6015625,0.0
438.51953125,-43.45703125,-29.78515625,-17.08984375,-36.1328125,22.4609375,0.0
438.5234375,-62.01171875,-30.2734375,-9.27734375,-65.91796875,-74.21875,0.0
438.52734375,-71.77734375,-46.875,-20.01953125,-71.2890625,-50.78125,0.0
438.53125,-54.19921875,-36.1328125,-32.2265625,-44.43359375,-68.359375,0.0
438.53515625,-52.24609375,-30.2734375,-34.1796875,-35.15625,-120.60546875,0.0
438.5390625,-61.5234375,-39.0625,-41.9921875,-50.29296875,-31.73828125,0.0
438.54296875,-58.10546875,-44.921875,-39.0625,-57.12890625,-20.99609375,0.0
438.546875,-59.08203125,-58.10546875,-43.45703125,-46.875,-33.69140625,0.0
438.55078125,-41.9921875,-60.546875,-40.0390625,-34.66796875,52.734375,0.0
438.5546875,-33.203125,-47.8515625,-30.2734375,-48.828125,45.8984375,0.0
438.55859375,-41.015625,-40.0390625,-39.55078125,-59.08203125,8.7890625,0.0
438.5625,-33.69140625,-34.66796875,-38.57421875,-38.57421875,33.69140625,0.0
438.56640625,-29.78515625,-38.0859375,-29.78515625,-27.34375,20.99609375,0.0
438.5703125,-34.66796875,-40.0390625,-32.2265625,-21.97265625,-54.19921875,0.0
438.57421875,-41.9921875,-48.828125,-33.203125,-19.04296875,-129.39453125,0.0
438.578125,-38.0859375,-55.17578125,-27.34375,-20.5078125,-198.2421875,0.0
438.58203125,-31.25,-44.43359375,-19.04296875,-16.11328125,-202.63671875,0.0
438.5859375,-30.2734375,-35.15625,-22.94921875,-7.32421875,-232.91015625,0.0
438.58984375,-31.73828125,-36.1328125,-32.71484375,-14.16015625,-208.984375,0.0
438.59375,-41.50390625,-29.296875,-40.52734375,-42.48046875,-161.1328125,0.0
438.59765625,-52.734375,-40.0390625,-41.015625,-50.78125,-174.31640625,0.0
438.6015625,-37.109375,-43.9453125,-30.76171875,-38.0859375,-117.67578125,0.0
438.60546875,-21.484375,-25.390625,-30.76171875,-39.0625,-160.15625,0.0
438.609375,-38.0859375,-24.90234375,-40.52734375,-33.203125,-104.98046875,0.0
438.61328125,-39.55078125,-45.8984375,-46.875,-34.66796875,52.734375,0.0
438.6171875,-31.73828125,-44.43359375,-36.62109375,-40.0390625,64.94140625,0.0
438.62109375,-37.109375,-31.73828125,-21.484375,-33.69140625,56.15234375,0.0
438.625,-38.0859375,-37.109375,-29.296875,-31.25,53.22265625,0.0
438.62890625,-35.64453125,-29.78515625,-32.2265625,-33.203125,22.94921875,0.0
438.6328125,-29.296875,-9.27734375,-28.3203125,-30.76171875,-25.87890625,0.0
438.63671875,-12.6953125,-10.7421875,-40.0390625,-25.390625,0.0,0.0
438.640625,12.20703125,-17.08984375,-40.52734375,-20.01953125,25.390625,0.0
438.64453125,5.859375,-24.4140625,-38.0859375,-17.08984375,-98.14453125,0.0
438.6484375,-17.08984375,-40.52734375,-38.57421875,-23.4375,-195.3125,0.0
438.65234375,-17.578125,-44.43359375,-29.296875,-21.484375,-127.44140625,0.0
438.65625,-28.3203125,-51.26953125,-20.01953125,-32.71484375,-110.3515625,0.0
438.66015625,-43.9453125,-49.31640625,-13.18359375,-38.0859375,-161.62109375,0.0
438.6640625,-35.15625,-33.203125,-14.16015625,-35.64453125,-108.88671875,0.0
438.66796875,-32.2265625,-29.78515625,-19.53125,-40.52734375,-95.21484375,0.0
438.671875,-26.85546875,-29.78515625,-26.85546875,-25.390625,-171.38671875,0.0
438.67578125,-20.01953125,-28.80859375,-37.59765625,-18.5546875,-140.13671875,0.0
438.6796875,-27.83203125,-20.5078125,-37.109375,-32.2265625,-103.515625,0.0
438.68359375,-32.71484375,-20.01953125,-17.08984375,-41.50390625,-169.43359375,0.0
438.6875,-32.71484375,-22.94921875,-16.6015625,-33.203125,-168.45703125,0.0
438.69140625,-22.94921875,-29.296875,-20.01953125,-30.76171875,-110.3515625,0.0
438.6953125,-20.01953125,-54.19921875,-18.5546875,-35.64453125,-85.9375,0.0
438.69921875,-16.6015625,-47.36328125,-28.3203125,-40.52734375,-51.7578125,0.0
438.703125,-17.578125,-26.85546875,-30.2734375,-39.0625,-31.25,0.0
438.70703125,-28.3203125,-52.734375,-26.3671875,-7.8125,-37.59765625,0.0
438.7109375,-21.484375,-65.91796875,-17.578125,0.0,97.16796875,0.0
438.71484375,-25.87890625,-40.52734375,-17.08984375,-38.57421875,142.08984375,0.0
438.71875,-52.734375,-21.97265625,-22.4609375,-59.5703125,61.5234375,0.0
438.72265625,-63.96484375,-25.87890625,-29.78515625,-65.91796875,45.41015625,0.0
438.7265625,-88.37890625,-35.15625,-47.36328125,-89.84375,56.15234375,0.0
438.73046875,-120.1171875,-30.2734375,-53.7109375,-110.83984375,131.34765625,0.0
438.734375,-114.74609375,-41.9921875,-54.6875,-108.3984375,132.8125,0.0
438.73828125,-108.88671875,-33.69140625,-59.5703125,-125.9765625,65.4296875,0.0
438.7421875,-122.55859375,-17.578125,-54.19921875,-137.6953125,51.26953125,0.0
438.74609375,-127.9296875,-21.97265625,-55.6640625,-140.13671875,87.890625,0.0
438.75,-142.578125,-11.71875,-83.0078125,-157.71484375,64.453125,0.0
438.75390625,-157.71484375,-3.41796875,-93.75,-169.43359375,46.875,0.0
438.7578125,-140.625,-8.30078125,-75.1953125,-170.41015625,52.734375,0.0
438.76171875,-145.5078125,-8.30078125,-80.56640625,-168.9453125,58.59375,0.0
438.765625,-117.1875,1.46484375,-104.4921875,-176.7578125,116.69921875,0.0
438.76953125,-105.46875,4.39453125,-102.5390625,-183.59375,117.67578125,0.0
438.7734375,-121.09375,20.01953125,-82.03125,-177.24609375,75.1953125,0.0
438.77734375,-103.515625,47.8515625,-93.26171875,-147.94921875,32.71484375,0.0
438.78125,-94.23828125,31.73828125,-107.91015625,-128.90625,0.9765625,0.0
438.78515625,-112.79296875,-22.94921875,-96.6796875,-136.23046875,18.06640625,0.0
438.7890625,-132.32421875,-58.59375,-96.19140625,-148.4375,72.265625,0.0
438.79296875,-104.00390625,-47.8515625,-89.84375,-133.30078125,13.18359375,0.0
438.796875,-83.0078125,-19.53125,-70.3125,-120.60546875,-48.33984375,0.0
438.80078125,-67.87109375,-10.7421875,-72.75390625,-115.72265625,-34.1796875,0.0
438.8046875,-73.2421875,-25.390625,-82.51953125,-112.79296875,-56.15234375,0.0
438.80859375,-97.16796875,-28.3203125,-73.73046875,-114.2578125,-61.03515625,0.0
438.8125,-95.703125,-25.87890625,-67.3828125,-94.23828125,0.9765625,0.0
438.81640625,-85.44921875,-37.59765625,-74.70703125,-86.9140625,20.01953125,0.0
438.8203125,-72.265625,-26.3671875,-63.96484375,-78.61328125,-16.11328125,0.0
438.82421875,-66.89453125,-4.39453125,-48.828125,-60.546875,-47.36328125,0.0
438.828125,-46.875,8.30078125,-39.0625,-62.5,-20.01953125,0.0
438.83203125,-31.73828125,8.7890625,-38.57421875,-75.68359375,23.4375,0.0
438.8359375,-51.26953125,-4.8828125,-52.734375,-67.3828125,-40.52734375,0.0
438.83984375,-70.80078125,-15.13671875,-57.12890625,-62.01171875,-55.17578125,0.0
438.84375,-67.87109375,-9.27734375,-43.45703125,-56.15234375,-34.1796875,0.0
438.84765625,-81.54296875,-10.7421875,-45.8984375,-66.89453125,20.01953125,0.0
438.8515625,-81.54296875,-38.57421875,-64.453125,-80.078125,-12.6953125,0.0
438.85546875,-66.89453125,-43.9453125,-60.05859375,-71.77734375,-52.24609375,0.0
438.859375,-55.6640625,-22.4609375,-49.31640625,-62.01171875,-65.4296875,0.0
438.86328125,-73.73046875,-18.5546875,-57.6171875,-55.6640625,-156.73828125,0.0
438.8671875,-84.9609375,-22.4609375,-81.0546875,-57.12890625,-112.79296875,0.0
438.87109375,-62.98828125,-34.66796875,-70.80078125,-43.9453125,-6.8359375,0.0
438.875,-34.1796875,-32.2265625,-49.31640625,-30.2734375,-17.08984375,0.0
438.87890625,-37.59765625,-38.0859375,-74.70703125,-42.96875,-20.5078125,0.0
438.8828125,-80.078125,-68.84765625,-87.40234375,-67.87109375,-54.19921875,0.0
438.88671875,-67.87109375,-52.24609375,-54.19921875,-51.7578125,-113.76953125,0.0
438.890625,-42.96875,-32.71484375,-46.38671875,-26.85546875,-123.53515625,0.0
438.89453125,-38.0859375,-35.15625,-46.38671875,-22.94921875,-68.84765625,0.0
438.8984375,-36.1328125,-28.3203125,-40.0390625,-28.80859375,19.53125,0.0
438.90234375,-26.3671875,-37.59765625,-50.29296875,-31.73828125,5.859375,0.0
438.90625,-20.01953125,-34.66796875,-70.3125,-28.80859375,9.765625,0.0
438.91015625,0.0,-22.94921875,-72.75390625,-26.3671875,24.90234375,0.0
438.9140625,2.9296875,-3.41796875,-55.17578125,-31.73828125,48.828125,0.0
438.91796875,-19.04296875,-3.41796875,-47.36328125,-25.390625,66.40625,0.0
438.921875,-15.13671875,-28.80859375,-37.59765625,-17.08984375,35.64453125,0.0
438.92578125,-13.671875,-42.48046875,-41.50390625,-21.97265625,2.44140625,0.0
438.9296875,-4.8828125,-20.01953125,-55.6640625,-23.92578125,-20.99609375,0.0
438.93359375,-15.625,-13.671875,-54.19921875,-27.83203125,-16.11328125,0.0
438.9375,-31.25,-34.66796875,-60.546875,-38.0859375,-42.48046875,0.0
438.94140625,-24.4140625,-37.59765625,-63.4765625,-49.31640625,-100.5859375,0.0
438.9453125,-5.859375,-33.69140625,-55.17578125,-50.29296875,-111.81640625,0.0
438.94921875,-16.11328125,-33.69140625,-55.6640625,-47.36328125,-52.734375,0.0
438.953125,-28.80859375,-24.4140625,-56.15234375,-54.6875,-73.2421875,0.0
438.95703125,-30.76171875,-27.83203125,-47.36328125,-61.5234375,-50.78125,0.0
438.9609375,-38.0859375,-17.08984375,-39.0625,-52.734375,-27.34375,0.0
438.96484375,-12.20703125,-3.41796875,-39.0625,-37.59765625,-32.71484375,0.0
438.96875,-7.32421875,-30.76171875,-42.96875,-47.36328125,-34.66796875,0.0
438.97265625,-30.2734375,-60.546875,-50.29296875,-68.359375,-91.30859375,0.0
438.9765625,-21.97265625,-54.19921875,-41.50390625,-29.296875,1.953125,0.0
438.98046875,-12.6953125,-49.31640625,-35.64453125,1.46484375,28.3203125,0.0
438.984375,-30.76171875,-59.5703125,-37.59765625,-24.4140625,-31.25,0.0
438.98828125,-26.85546875,-53.22265625,-44.921875,-32.2265625,-29.296875,0.0
438.9921875,-16.6015625,-30.76171875,-56.640625,-33.203125,-67.87109375,0.0
438.99609375,-26.3671875,-7.32421875,-46.875,-53.7109375,-56.640625,0.0
439.0,-42.96875,-11.23046875,-45.41015625,-61.03515625,-47.8515625,0.0
439.00390625,-36.62109375,-27.83203125,-64.94140625,-52.24609375,-39.55078125,0.0
439.0078125,-12.20703125,-16.11328125,-59.08203125,-40.52734375,-29.78515625,0.0
439.01171875,-2.9296875,-6.34765625,-55.6640625,-35.15625,-65.4296875,0.0
439.015625,-14.6484375,-29.296875,-59.5703125,-33.69140625,-34.1796875,0.0
439.01953125,-8.30078125,-35.15625,-39.0625,-29.78515625,38.57421875,0.0
439.0234375,-3.41796875,-39.55078125,-24.4140625,-39.55078125,32.71484375,0.0
439.02734375,-21.97265625,-50.29296875,-24.4140625,-32.71484375,15.625,0.0
439.03125,-9.765625,-27.83203125,-39.0625,-10.7421875,33.69140625,0.0
439.03515625,-1.46484375,-18.5546875,-53.7109375,-33.203125,17.578125,0.0
439.0390625,-24.4140625,-23.4375,-59.08203125,-53.7109375,-8.30078125,0.0
439.04296875,-21.484375,-32.2265625,-53.7109375,-44.921875,-78.125,0.0
439.046875,-20.99609375,-34.1796875,-50.78125,-48.33984375,-182.6171875,0.0
439.05078125,-17.578125,-21.484375,-46.38671875,-30.2734375,-182.6171875,0.0
439.0546875,-20.01953125,-5.859375,-20.99609375,-7.8125,-211.9140625,0.0
439.05859375,-33.69140625,-14.16015625,-9.765625,-13.671875,-204.58984375,0.0
439.0625,-29.78515625,-33.69140625,-19.53125,-19.53125,-195.80078125,0.0
439.06640625,-8.7890625,-30.2734375,-29.78515625,-20.99609375,-149.90234375,0.0
439.0703125,-9.765625,-28.3203125,-42.48046875,-17.578125,-72.75390625,0.0
439.07421875,-27.34375,-25.390625,-46.875,-22.4609375,-41.50390625,0.0
439.078125,-29.296875,-20.99609375,-35.64453125,-28.3203125,-48.828125,0.0
439.08203125,-22.94921875,-24.4140625,-34.1796875,-45.8984375,-90.8203125,0.0
439.0859375,-12.20703125,-35.64453125,-38.57421875,-45.41015625,-54.19921875,0.0
439.08984375,-22.4609375,-29.296875,-40.0390625,-22.4609375,-2.9296875,0.0
439.09375,-34.66796875,-22.94921875,-41.50390625,-24.4140625,-49.31640625,0.0
439.09765625,-39.0625,-25.390625,-36.62109375,-24.90234375,-62.01171875,0.0
439.1015625,-29.78515625,-11.23046875,-38.57421875,-18.06640625,-102.05078125,0.0
439.10546875,-12.6953125,-25.87890625,-50.29296875,-10.25390625,-118.1640625,0.0
439.109375,-15.625,-37.109375,-39.55078125,-22.94921875,-13.18359375,0.0
439.11328125,0.0,-29.296875,-20.01953125,-8.7890625,95.21484375,0.0
439.1171875,4.39453125,-34.1796875,-27.83203125,0.48828125,87.890625,0.0
439.12109375,-16.6015625,-34.1796875,-38.57421875,-20.5078125,42.48046875,0.0
439.125,-19.53125,-35.15625,-29.296875,-24.90234375,-7.32421875,0.0
439.12890625,-25.87890625,-25.87890625,-16.6015625,-29.78515625,49.8046875,0.0
439.1328125,-20.99609375,-11.23046875,-21.97265625,-27.83203125,75.1953125,0.0
439.13671875,-18.06640625,-9.27734375,-24.4140625,-32.71484375,53.22265625,0.0
439.140625,3.90625,-12.20703125,-33.69140625,-24.4140625,87.890625,0.0
439.14453125,9.765625,-33.69140625,-46.38671875,-10.7421875,75.68359375,0.0
439.1484375,-19.53125,-48.828125,-44.921875,-26.3671875,14.16015625,0.0
439.15234375,-45.41015625,-41.50390625,-37.109375,-38.57421875,-0.48828125,0.0
439.15625,-31.25,-28.3203125,-23.92578125,-35.15625,63.4765625,0.0
439.16015625,-9.27734375,-33.203125,-37.59765625,-27.34375,22.94921875,0.0
439.1640625,-36.1328125,-38.0859375,-53.7109375,-45.41015625,-37.109375,0.0
439.16796875,-49.8046875,-41.9921875,-52.24609375,-65.4296875,-32.71484375,0.0
439.171875,-27.34375,-57.6171875,-35.64453125,-45.8984375,-3.41796875,0.0
439.17578125,-11.23046875,-47.8515625,-37.59765625,-28.80859375,25.390625,0.0
439.1796875,-5.37109375,-37.109375,-53.7109375,-41.015625,93.75,0.0
439.18359375,-4.8828125,-40.0390625,-34.66796875,-33.203125,60.05859375,0.0
439.1875,-27.34375,-33.203125,-14.16015625,-24.90234375,-41.015625,0.0
439.19140625,-56.640625,-30.76171875,-26.85546875,-51.7578125,-40.52734375,0.0
439.1953125,-74.70703125,-18.06640625,-29.296875,-73.73046875,-36.62109375,0.0
439.19921875,-74.70703125,-25.390625,-28.80859375,-65.4296875,11.71875,0.0
439.203125,-82.03125,-46.875,-37.109375,-35.64453125,6.34765625,0.0
439.20703125,-81.0546875,-42.96875,-41.9921875,-34.66796875,31.73828125,0.0
439.2109375,-62.01171875,-35.64453125,-51.26953125,-57.12890625,73.73046875,0.0
439.21484375,-60.05859375,-43.45703125,-49.31640625,-73.2421875,43.9453125,0.0
439.21875,-61.03515625,-35.64453125,-42.48046875,-77.63671875,16.6015625,0.0
439.22265625,-69.82421875,-28.80859375,-38.57421875,-71.2890625,47.36328125,0.0
439.2265625,-71.77734375,-52.24609375,-45.41015625,-64.453125,53.22265625,0.0
439.23046875,-61.03515625,-56.15234375,-41.015625,-51.7578125,21.484375,0.0
439.234375,-50.78125,-42.48046875,-27.83203125,-45.8984375,7.32421875,0.0
439.23828125,-43.9453125,-47.36328125,-46.38671875,-61.5234375,-41.015625,0.0
439.2421875,-41.015625,-46.875,-51.7578125,-60.546875,-74.21875,0.0
439.24609375,-38.0859375,-36.1328125,-46.875,-49.8046875,-69.3359375,0.0
439.25,-33.203125,-31.25,-44.921875,-40.52734375,-142.08984375,0.0
439.25390625,-29.296875,-30.2734375,-36.1328125,-41.015625,-125.0,0.0
439.2578125,-44.43359375,-41.9921875,-37.109375,-67.87109375,-66.40625,0.0
439.26171875,-33.203125,-37.109375,-41.015625,-61.03515625,-66.89453125,0.0
439.265625,-20.99609375,-12.20703125,-38.57421875,-31.25,-34.66796875,0.0
439.26953125,-54.19921875,-38.57421875,-27.34375,-50.29296875,-53.22265625,0.0
439.2734375,-57.6171875,-70.3125,-26.3671875,-62.01171875,-92.28515625,0.0
439.27734375,-38.57421875,-60.05859375,-28.3203125,-48.828125,-28.3203125,0.0
439.28125,-30.2734375,-45.8984375,-26.85546875,-41.50390625,-24.90234375,0.0
439.28515625,-32.71484375,-42.48046875,-22.4609375,-45.8984375,-75.68359375,0.0
439.2890625,-13.18359375,-23.4375,-15.625,-44.43359375,-84.9609375,0.0
439.29296875,-8.30078125,-17.08984375,-32.71484375,-49.8046875,-69.3359375,0.0
439.296875,-38.57421875,-27.34375,-33.69140625,-57.6171875,-5.859375,0.0
439.30078125,-71.77734375,-40.52734375,-35.64453125,-55.6640625,18.5546875,0.0
439.3046875,-66.40625,-46.38671875,-50.78125,-41.015625,-102.05078125,0.0
439.30859375,-49.31640625,-35.15625,-50.29296875,-33.203125,-154.296875,0.0
439.3125,-34.1796875,-17.578125,-44.921875,-45.8984375,-111.81640625,0.0
439.31640625,-3.90625,-5.859375,-28.80859375,-42.96875,-88.37890625,0.0
439.3203125,-4.8828125,-19.53125,-24.4140625,-33.69140625,-62.98828125,0.0
439.32421875,-34.66796875,-53.22265625,-27.34375,-29.296875,-18.5546875,0.0
439.328125,-34.66796875,-58.10546875,-24.90234375,-32.2265625,-5.37109375,0.0
439.33203125,-19.53125,-30.76171875,-27.83203125,-34.66796875,9.27734375,0.0
439.3359375,-33.203125,-9.27734375,-19.04296875,-20.5078125,-2.44140625,0.0
439.33984375,-46.38671875,-20.5078125,-10.7421875,-15.13671875,-47.36328125,0.0
439.34375,-48.828125,-30.76171875,-16.6015625,-16.11328125,-0.48828125,0.0
439.34765625,-42.48046875,-37.109375,-26.85546875,-33.69140625,11.71875,0.0
439.3515625,-16.6015625,-37.109375,-30.76171875,-40.52734375,-2.9296875,0.0
439.35546875,-17.578125,-35.64453125,-34.66796875,-38.57421875,30.76171875,0.0
439.359375,-42.96875,-39.55078125,-33.203125,-34.66796875,24.4140625,0.0
439.36328125,-36.62109375,-39.55078125,-30.76171875,-26.85546875,-47.8515625,0.0
439.3671875,-39.55078125,-55.17578125,-37.59765625,-26.85546875,-55.17578125,0.0
439.37109375,-43.45703125,-52.734375,-35.15625,-28.3203125,55.17578125,0.0
439.375,-23.4375,-39.0625,-31.73828125,-53.22265625,66.89453125,0.0
439.37890625,-13.671875,-40.52734375,-38.57421875,-46.875,62.5,0.0
439.3828125,-19.53125,-25.390625,-33.203125,-27.34375,38.57421875,0.0
439.38671875,-18.5546875,-25.87890625,-31.25,-38.57421875,-32.2265625,0.0
439.390625,-9.27734375,-41.50390625,-24.4140625,-39.0625,-15.13671875,0.0
439.39453125,-26.3671875,-45.41015625,-12.6953125,-36.1328125,-13.18359375,0.0
439.3984375,-24.90234375,-35.64453125,-18.5546875,-28.3203125,-4.8828125,0.0
439.40234375,-11.23046875,-44.921875,-32.71484375,-30.2734375,55.17578125,0.0
439.40625,-16.11328125,-48.828125,-46.38671875,-38.57421875,43.45703125,0.0
439.41015625,-26.85546875,-33.69140625,-43.9453125,-45.41015625,-23.92578125,0.0
439.4140625,-35.64453125,-33.203125,-36.1328125,-36.62109375,-10.7421875,0.0
439.41796875,-35.64453125,-30.2734375,-24.90234375,-27.83203125,79.58984375,0.0
439.421875,-35.15625,-21.97265625,-27.83203125,-41.9921875,73.73046875,0.0
439.42578125,-26.85546875,-15.13671875,-36.1328125,-35.64453125,-1.953125,0.0
439.4296875,-24.4140625,-2.9296875,-26.85546875,-21.97265625,-39.55078125,0.0
439.43359375,-37.109375,-7.8125,-31.73828125,-31.25,-47.36328125,0.0
439.4375,-33.69140625,-23.92578125,-39.0625,-34.66796875,-43.45703125,0.0
439.44140625,-23.92578125,-40.52734375,-41.50390625,-22.4609375,3.41796875,0.0
439.4453125,-23.92578125,-40.0390625,-37.109375,-27.34375,-24.4140625,0.0
439.44921875,-27.34375,-32.2265625,-26.85546875,-31.73828125,-88.37890625,0.0
439.453125,-25.87890625,-32.71484375,-35.64453125,-25.390625,-38.57421875,0.0
439.45703125,-22.4609375,-32.71484375,-30.76171875,-17.08984375,-77.1484375,0.0
439.4609375,-33.69140625,-37.59765625,-38.0859375,-36.62109375,-94.23828125,0.0
439.46484375,-39.0625,-31.73828125,-57.12890625,-46.875,-34.1796875,0.0
439.46875,-30.2734375,-29.78515625,-39.0625,-38.57421875,-36.62109375,0.0
439.47265625,-21.97265625,-29.78515625,-21.97265625,-37.109375,13.671875,0.0
439.4765625,-14.6484375,-9.765625,-18.06640625,-35.64453125,-12.6953125,0.0
439.48046875,-17.08984375,-6.8359375,-24.4140625,-45.41015625,-105.46875,0.0
439.484375,-26.85546875,-24.90234375,-44.921875,-37.109375,-60.546875,0.0
439.48828125,-42.48046875,-39.0625,-47.36328125,-20.99609375,33.203125,0.0
439.4921875,-59.08203125,-46.875,-40.0390625,-37.59765625,112.3046875,0.0
439.49609375,-60.05859375,-50.29296875,-27.83203125,-38.57421875,100.09765625,0.0
439.5,-35.64453125,-31.73828125,-23.4375,-14.16015625,56.15234375,0.0
439.50390625,-24.90234375,-35.15625,-33.69140625,-19.53125,46.38671875,0.0
439.5078125,-22.94921875,-51.7578125,-29.296875,-24.90234375,14.16015625,0.0
439.51171875,-32.71484375,-51.7578125,-27.34375,-23.4375,37.59765625,0.0
439.515625,-32.2265625,-44.43359375,-27.83203125,-28.80859375,72.75390625,0.0
439.51953125,-23.92578125,-29.78515625,-33.203125,-26.85546875,23.4375,0.0
439.5234375,-33.203125,-21.97265625,-53.22265625,-31.73828125,-7.8125,0.0
439.52734375,-32.71484375,-24.90234375,-50.78125,-43.45703125,-13.671875,0.0
439.53125,-41.015625,-15.13671875,-33.69140625,-50.78125,-26.85546875,0.0
439.53515625,-57.12890625,-16.6015625,-36.1328125,-48.33984375,-95.703125,0.0
439.5390625,-54.6875,-32.71484375,-38.0859375,-52.24609375,-56.15234375,0.0
439.54296875,-61.5234375,-36.1328125,-39.55078125,-48.828125,11.71875,0.0
439.546875,-52.734375,-27.83203125,-46.875,-41.9921875,-42.96875,0.0
439.55078125,-27.83203125,-26.85546875,-42.96875,-47.8515625,-58.59375,0.0
439.5546875,-29.78515625,-11.71875,-29.78515625,-44.43359375,-29.296875,0.0
439.55859375,-30.76171875,-20.99609375,-32.71484375,-46.875,12.6953125,0.0
439.5625,-25.87890625,-54.6875,-47.8515625,-46.38671875,-91.796875,0.0
439.56640625,-30.76171875,-61.5234375,-44.43359375,-49.31640625,-161.62109375,0.0
439.5703125,-29.78515625,-41.50390625,-31.25,-48.828125,-58.59375,0.0
439.57421875,-15.13671875,-37.109375,-25.87890625,-33.69140625,-84.47265625,0.0
439.578125,-9.27734375,-45.8984375,-33.203125,-38.0859375,-68.84765625,0.0
439.58203125,-22.4609375,-33.69140625,-43.9453125,-48.33984375,-44.43359375,0.0
439.5859375,-32.2265625,-27.34375,-44.921875,-48.33984375,-60.05859375,0.0
439.58984375,-21.97265625,-28.80859375,-33.69140625,-47.36328125,-38.57421875,0.0
439.59375,12.6953125,-21.484375,-26.85546875,-45.41015625,-52.24609375,0.0
439.59765625,2.9296875,-16.11328125,-34.1796875,-29.296875,-52.24609375,0.0
439.6015625,-26.85546875,-33.69140625,-37.109375,-19.53125,-106.93359375,0.0
439.60546875,-27.83203125,-53.7109375,-43.9453125,-39.0625,-91.30859375,0.0
439.609375,-20.01953125,-39.55078125,-42.48046875,-44.921875,46.875,0.0
439.61328125,-14.6484375,-14.16015625,-29.78515625,-34.66796875,28.3203125,0.0
439.6171875,-29.296875,-2.44140625,-28.3203125,-24.90234375,-98.6328125,0.0
439.62109375,-44.43359375,-19.53125,-26.3671875,-31.25,-114.74609375,0.0
439.625,-43.45703125,-34.1796875,-23.92578125,-36.1328125,-57.6171875,0.0
439.62890625,-40.0390625,-39.55078125,-24.4140625,-40.0390625,-19.04296875,0.0
439.6328125,-28.80859375,-26.85546875,-20.5078125,-16.6015625,-25.390625,0.0
439.63671875,-12.20703125,-23.4375,-22.4609375,-8.7890625,-127.44140625,0.0
439.640625,-23.4375,-37.59765625,-27.83203125,-41.9921875,-132.32421875,0.0
439.64453125,-46.38671875,-44.43359375,-22.94921875,-40.0390625,-53.22265625,0.0
439.6484375,-40.52734375,-55.6640625,-20.5078125,-26.3671875,-56.640625,0.0
439.65234375,-34.66796875,-57.6171875,-29.296875,-39.55078125,-18.5546875,0.0
439.65625,-42.48046875,-37.109375,-36.1328125,-12.20703125,-0.9765625,0.0
439.66015625,-30.2734375,-25.87890625,-37.59765625,12.20703125,-58.10546875,0.0
439.6640625,-19.53125,-22.4609375,-51.7578125,-18.5546875,-90.33203125,0.0
439.66796875,-32.71484375,-20.99609375,-49.31640625,-26.85546875,-66.40625,0.0
439.671875,-29.296875,-36.62109375,-20.01953125,-20.99609375,-21.97265625,0.0
439.67578125,-7.32421875,-45.8984375,-15.625,-18.06640625,-7.8125,0.0
439.6796875,-0.9765625,-35.64453125,-22.4609375,-21.484375,-46.38671875,0.0
439.68359375,-5.37109375,-34.66796875,-28.3203125,-32.71484375,-123.046875,0.0
439.6875,-1.46484375,-34.1796875,-20.5078125,-2.44140625,-99.12109375,0.0
439.69140625,-24.90234375,-30.76171875,-34.1796875,15.625,15.625,0.0
439.6953125,-60.05859375,-28.80859375,-59.5703125,-19.04296875,49.8046875,0.0
439.69921875,-60.05859375,-29.78515625,-49.8046875,-45.8984375,5.37109375,0.0
439.703125,-48.828125,-36.62109375,-35.64453125,-50.78125,-98.14453125,0.0
439.70703125,-52.24609375,-50.29296875,-42.48046875,-46.38671875,-115.72265625,0.0
439.7109375,-38.57421875,-33.69140625,-30.2734375,-29.78515625,-101.07421875,0.0
439.71484375,-19.04296875,-9.27734375,-13.671875,-14.16015625,-20.5078125,0.0
439.71875,-21.484375,-22.4609375,-14.16015625,-5.37109375,39.55078125,0.0
439.72265625,-19.04296875,-35.64453125,-24.4140625,-11.71875,-85.9375,0.0
439.7265625,-15.13671875,-44.921875,-36.1328125,-22.94921875,-92.28515625,0.0
439.73046875,-29.296875,-55.6640625,-31.73828125,-16.11328125,11.23046875,0.0
439.734375,-15.13671875,-48.828125,-25.87890625,-12.6953125,39.55078125,0.0
439.73828125,7.8125,-23.92578125,-21.484375,-2.9296875,17.08984375,0.0
439.7421875,5.859375,-20.5078125,-34.66796875,-9.27734375,-30.76171875,0.0
439.74609375,10.7421875,-34.66796875,-41.015625,-21.484375,-75.1953125,0.0
439.75,21.97265625,-30.2734375,-31.73828125,-11.71875,-42.96875,0.0
439.75390625,1.953125,-32.2265625,-25.87890625,-25.87890625,16.6015625,0.0
439.7578125,-7.8125,-34.1796875,-13.18359375,-35.64453125,18.06640625,0.0
439.76171875,-18.06640625,-28.3203125,-13.671875,-15.625,-52.734375,0.0
439.765625,-47.36328125,-55.6640625,-21.97265625,-2.44140625,-60.05859375,0.0
439.76953125,-50.29296875,-63.96484375,-29.296875,-11.23046875,31.25,0.0
439.7734375,-51.26953125,-48.828125,-32.71484375,-40.0390625,40.0390625,0.0
439.77734375,-46.38671875,-34.1796875,-34.66796875,-41.9921875,-14.6484375,0.0
439.78125,-16.6015625,-17.578125,-34.66796875,-10.7421875,-65.91796875,0.0
439.78515625,-6.34765625,-23.92578125,-36.62109375,-16.6015625,-27.83203125,0.0
439.7890625,-14.16015625,-26.85546875,-49.31640625,-25.390625,-35.15625,0.0
439.79296875,-11.23046875,-22.4609375,-55.17578125,-9.765625,-51.7578125,0.0
439.796875,5.37109375,-7.8125,-51.26953125,12.20703125,-56.15234375,0.0
439.80078125,12.20703125,1.953125,-57.6171875,13.18359375,-124.0234375,0.0
439.8046875,36.1328125,3.41796875,-58.10546875,0.0,-133.30078125,0.0
439.80859375,65.4296875,14.16015625,-55.6640625,7.32421875,-94.7265625,0.0
439.8125,67.87109375,15.625,-63.4765625,19.53125,2.9296875,0.0
439.81640625,58.10546875,10.25390625,-62.01171875,23.92578125,-1.953125,0.0
439.8203125,57.12890625,17.08984375,-60.05859375,26.85546875,-34.1796875,0.0
439.82421875,82.51953125,21.97265625,-65.4296875,26.85546875,-37.59765625,0.0
439.828125,96.19140625,20.5078125,-66.40625,39.55078125,15.625,0.0
439.83203125,94.7265625,24.90234375,-68.359375,53.22265625,33.203125,0.0
439.8359375,104.00390625,28.80859375,-66.89453125,62.5,2.9296875,0.0
439.83984375,106.93359375,22.94921875,-65.91796875,63.96484375,-11.71875,0.0
439.84375,107.91015625,27.83203125,-64.453125,44.921875,-61.03515625,0.0
439.84765625,109.375,21.484375,-61.03515625,45.41015625,-95.21484375,0.0
439.8515625,83.49609375,27.83203125,-58.59375,59.5703125,-88.8671875,0.0
439.85546875,46.38671875,27.83203125,-55.6640625,49.8046875,-91.796875,0.0
439.859375,40.52734375,7.32421875,-54.19921875,19.53125,-153.3203125,0.0
439.86328125,54.19921875,3.41796875,-54.6875,22.94921875,-136.23046875,0.0
439.8671875,58.10546875,-10.25390625,-61.03515625,30.2734375,-28.3203125,0.0
439.87109375,46.38671875,-26.85546875,-61.03515625,12.6953125,-7.32421875,0.0
439.875,41.9921875,-10.25390625,-42.96875,-0.9765625,-25.390625,0.0
439.87890625,47.8515625,18.5546875,-38.0859375,0.0,-64.94140625,0.0
439.8828125,41.50390625,22.4609375,-52.24609375,18.06640625,-30.2734375,0.0
439.88671875,21.97265625,5.37109375,-57.6171875,15.625,65.91796875,0.0
439.890625,22.4609375,-7.32421875,-55.6640625,0.0,-2.9296875,0.0
439.89453125,30.76171875,-13.18359375,-38.0859375,-15.13671875,-46.38671875,0.0
439.8984375,20.99609375,-6.34765625,-22.4609375,-16.11328125,-16.11328125,0.0
439.90234375,16.6015625,-4.39453125,-24.90234375,-1.46484375,29.78515625,0.0
439.90625,3.41796875,-12.6953125,-31.73828125,-4.39453125,80.078125,0.0
439.91015625,6.8359375,-19.04296875,-37.59765625,-3.90625,27.34375,0.0
439.9140625,5.37109375,-23.4375,-38.0859375,1.46484375,-27.83203125,0.0
439.91796875,1.46484375,-9.27734375,-28.3203125,-12.20703125,12.6953125,0.0
439.921875,6.8359375,1.953125,-31.25,-7.8125,-6.8359375,0.0
439.92578125,-5.37109375,-12.6953125,-51.26953125,-5.859375,-45.41015625,0.0
439.9296875,-17.578125,-27.34375,-47.8515625,-15.625,-45.41015625,0.0
439.93359375,-11.23046875,-29.78515625,-26.3671875,-9.765625,-46.875,0.0
439.9375,-6.8359375,-18.06640625,-24.4140625,-20.99609375,9.27734375,0.0
439.94140625,-5.859375,-12.6953125,-32.71484375,-22.4609375,111.328125,0.0
439.9453125,17.08984375,-8.7890625,-30.2734375,-3.41796875,30.76171875,0.0
439.94921875,22.94921875,0.0,-29.296875,-1.953125,-50.29296875,0.0
439.953125,-12.6953125,0.9765625,-35.15625,-6.8359375,-28.80859375,0.0
439.95703125,-27.83203125,-10.7421875,-29.78515625,-12.20703125,-7.8125,0.0
439.9609375,-21.484375,-26.3671875,-31.25,-28.80859375,27.34375,0.0
439.96484375,-27.34375,-41.015625,-38.0859375,-21.97265625,-63.4765625,0.0
439.96875,-34.1796875,-36.1328125,-30.76171875,-13.18359375,-104.98046875,0.0
439.97265625,-32.71484375,-19.53125,-24.4140625,-17.578125,-71.2890625,0.0
439.9765625,-27.83203125,-21.97265625,-20.99609375,-11.71875,-2.9296875,0.0
439.98046875,-11.71875,-37.59765625,-29.78515625,-14.6484375,-67.3828125,0.0
439.984375,-0.48828125,-25.87890625,-38.57421875,-3.90625,-90.33203125,0.0
439.98828125,-22.94921875,-23.92578125,-42.48046875,-20.01953125,-50.29296875,0.0
439.9921875,-32.2265625,-28.3203125,-34.66796875,-41.015625,-38.0859375,0.0
439.99609375,-20.5078125,-18.5546875,-14.6484375,-37.59765625,-11.23046875,0.0
440.0,-29.296875,-14.16015625,-9.27734375,-29.78515625,-104.4921875,0.0
440.00390625,-33.69140625,-29.78515625,-26.3671875,-13.18359375,-83.49609375,0.0
440.0078125,-37.109375,-53.22265625,-40.0390625,-35.15625,-24.4140625,0.0
440.01171875,-48.33984375,-60.546875,-35.64453125,-50.78125,20.5078125,0.0
440.015625,-50.78125,-60.05859375,-37.109375,-47.8515625,9.765625,0.0
440.01953125,-52.24609375,-44.921875,-27.34375,-48.33984375,-11.23046875,0.0
440.0234375,-56.640625,-44.921875,-28.3203125,-45.41015625,-38.0859375,0.0
440.02734375,-57.6171875,-50.78125,-36.1328125,-38.57421875,-75.68359375,0.0
440.03125,-52.734375,-39.55078125,-33.69140625,-37.109375,39.55078125,0.0
440.03515625,-35.64453125,-31.73828125,-23.4375,-44.43359375,103.02734375,0.0
440.0390625,-22.94921875,-22.4609375,-13.18359375,-45.41015625,-0.9765625,0.0
440.04296875,-31.73828125,-21.97265625,-20.5078125,-39.0625,-88.8671875,0.0
440.046875,-29.296875,-37.59765625,-25.390625,-33.203125,-41.50390625,0.0
440.05078125,-13.18359375,-53.22265625,-29.78515625,-33.69140625,12.20703125,0.0
440.0546875,-41.50390625,-45.41015625,-29.296875,-45.8984375,9.765625,0.0
440.05859375,-52.24609375,-27.83203125,-20.5078125,-43.45703125,-38.57421875,0.0
440.0625,-27.83203125,-35.15625,-18.5546875,-41.50390625,-70.80078125,0.0
440.06640625,-39.55078125,-45.8984375,-22.4609375,-45.8984375,-51.7578125,0.0
440.0703125,-40.0390625,-47.8515625,-25.87890625,-37.109375,-64.94140625,0.0
440.07421875,-45.8984375,-50.78125,-25.390625,-54.6875,-94.23828125,0.0
440.078125,-71.77734375,-44.43359375,-28.3203125,-59.08203125,-53.22265625,0.0
440.08203125,-63.96484375,-37.59765625,-29.296875,-48.828125,-17.578125,0.0
440.0859375,-34.1796875,-23.4375,-30.76171875,-61.03515625,-83.0078125,0.0
440.08984375,-13.671875,-11.71875,-30.2734375,-54.19921875,-104.98046875,0.0
440.09375,-28.3203125,-31.25,-30.2734375,-38.0859375,-78.61328125,0.0
440.09765625,-39.55078125,-50.78125,-44.43359375,-61.03515625,-45.41015625,0.0
440.1015625,-31.73828125,-58.10546875,-35.15625,-67.87109375,-62.98828125,0.0
440.10546875,-52.24609375,-57.12890625,-19.04296875,-47.8515625,-160.64453125,0.0
440.109375,-67.87109375,-44.921875,-27.83203125,-46.875,-168.45703125,0.0
440.11328125,-65.91796875,-35.64453125,-27.34375,-51.7578125,-114.2578125,0.0
440.1171875,-52.734375,-41.50390625,-25.87890625,-51.26953125,-78.61328125,0.0
440.12109375,-52.24609375,-37.109375,-25.87890625,-47.36328125,-42.96875,0.0
440.125,-65.4296875,-35.15625,-23.92578125,-51.26953125,-29.78515625,0.0
440.12890625,-60.05859375,-36.62109375,-26.85546875,-62.01171875,-49.8046875,0.0
440.1328125,-49.8046875,-27.83203125,-23.4375,-66.40625,-80.56640625,0.0
440.13671875,-44.921875,-22.94921875,-16.6015625,-66.40625,-105.95703125,0.0
440.140625,-45.8984375,-30.2734375,-21.484375,-72.75390625,-124.0234375,0.0
440.14453125,-44.921875,-40.0390625,-17.578125,-67.87109375,-159.1796875,0.0
440.1484375,-66.40625,-35.64453125,-18.06640625,-67.87109375,-84.47265625,0.0
440.15234375,-89.84375,-30.76171875,-31.25,-85.9375,-25.87890625,0.0
440.15625,-82.03125,-25.390625,-29.296875,-97.16796875,-36.62109375,0.0
440.16015625,-103.02734375,-20.99609375,-25.390625,-119.62890625,-27.83203125,0.0
440.1640625,-109.375,-23.92578125,-32.71484375,-123.53515625,37.109375,0.0
440.16796875,-122.0703125,-30.76171875,-46.38671875,-143.5546875,81.54296875,0.0
440.171875,-159.1796875,-26.3671875,-44.43359375,-188.4765625,21.484375,0.0
440.17578125,-171.875,-19.04296875,-42.96875,-197.75390625,32.71484375,0.0
440.1796875,-192.87109375,-3.41796875,-48.33984375,-224.12109375,-47.36328125,0.0
440.18359375,-204.1015625,-7.8125,-41.015625,-251.46484375,-145.5078125,0.0
440.1875,-198.2421875,-20.99609375,-44.43359375,-242.67578125,-116.69921875,0.0
440.19140625,-205.56640625,-29.78515625,-66.89453125,-247.55859375,-91.30859375,0.0
440.1953125,-233.3984375,-59.5703125,-71.77734375,-262.20703125,-15.625,0.0
440.19921875,-239.74609375,-64.94140625,-52.734375,-265.13671875,60.546875,0.0
440.203125,-218.26171875,-45.41015625,-30.2734375,-264.6484375,92.28515625,0.0
440.20703125,-221.19140625,-42.96875,-30.2734375,-269.53125,91.30859375,0.0
440.2109375,-241.2109375,-39.0625,-41.015625,-279.78515625,91.796875,0.0
440.21484375,-241.2109375,-26.3671875,-39.0625,-283.203125,43.45703125,0.0
440.21875,-240.72265625,-15.625,-35.15625,-281.25,5.37109375,0.0
440.22265625,-242.67578125,-8.7890625,-46.875,-274.90234375,-19.04296875,0.0
440.2265625,-249.51171875,-7.32421875,-64.453125,-278.3203125,-51.26953125,0.0
440.23046875,-249.51171875,-15.13671875,-77.1484375,-285.15625,-41.015625,0.0
440.234375,-247.55859375,-21.484375,-78.61328125,-285.15625,-70.3125,0.0
440.23828125,-258.30078125,-15.13671875,-78.125,-282.71484375,-33.203125,0.0
440.2421875,-240.72265625,-0.48828125,-80.078125,-272.4609375,34.1796875,0.0
440.24609375,-205.56640625,16.11328125,-84.47265625,-242.67578125,85.9375,0.0
440.25,-168.45703125,27.83203125,-91.30859375,-197.265625,129.8828125,0.0
440.25390625,-178.7109375,18.06640625,-88.37890625,-219.23828125,54.6875,0.0
440.2578125,-171.875,3.41796875,-86.42578125,-249.51171875,-65.4296875,0.0
440.26171875,-126.953125,20.01953125,-76.171875,-207.03125,-130.859375,0.0
440.265625,-114.74609375,21.484375,-80.56640625,-171.875,-177.24609375,0.0
440.26953125,-122.0703125,-11.71875,-101.07421875,-147.4609375,-138.18359375,0.0
440.2734375,-115.234375,0.0,-87.40234375,-133.30078125,-131.34765625,0.0
440.27734375,-104.98046875,13.18359375,-71.2890625,-125.9765625,-187.01171875,0.0
440.28125,-71.77734375,2.44140625,-71.2890625,-113.28125,-210.9375,0.0
440.28515625,-47.8515625,-9.27734375,-71.2890625,-101.5625,-186.03515625,0.0
440.2890625,-48.33984375,-22.4609375,-70.80078125,-92.7734375,-180.17578125,0.0
440.29296875,-40.52734375,-13.671875,-76.66015625,-78.125,-194.82421875,0.0
440.296875,-25.390625,-4.8828125,-79.58984375,-56.640625,-102.5390625,0.0
440.30078125,-0.9765625,7.8125,-67.87109375,-38.0859375,-18.06640625,0.0
440.3046875,7.32421875,-1.953125,-62.01171875,-22.94921875,-20.99609375,0.0
440.30859375,11.71875,-12.6953125,-74.70703125,-9.27734375,-31.73828125,0.0
440.3125,29.296875,9.765625,-69.82421875,-0.48828125,-30.2734375,0.0
440.31640625,31.25,22.94921875,-57.12890625,8.30078125,53.7109375,0.0
440.3203125,36.62109375,37.109375,-56.15234375,14.16015625,34.66796875,0.0
440.32421875,33.203125,36.62109375,-44.921875,24.4140625,16.11328125,0.0
440.328125,35.64453125,11.23046875,-41.9921875,34.1796875,45.8984375,0.0
440.33203125,43.45703125,-8.30078125,-52.24609375,19.53125,24.4140625,0.0
440.3359375,42.96875,-7.32421875,-58.10546875,22.94921875,25.390625,0.0
440.33984375,50.78125,-3.41796875,-54.19921875,31.25,39.55078125,0.0
440.34375,63.96484375,-4.39453125,-54.6875,30.2734375,41.015625,0.0
440.34765625,60.546875,-36.62109375,-56.640625,44.43359375,68.359375,0.0
440.3515625,65.4296875,-54.6875,-59.08203125,49.31640625,125.9765625,0.0
440.35546875,68.84765625,-42.96875,-60.546875,22.94921875,166.9921875,0.0
440.359375,62.5,-19.53125,-46.38671875,20.99609375,53.7109375,0.0
440.36328125,63.4765625,-13.671875,-34.1796875,41.9921875,-79.1015625,0.0
440.3671875,60.546875,-3.41796875,-33.203125,38.0859375,4.8828125,0.0
440.37109375,55.6640625,-2.44140625,-37.109375,42.96875,64.453125,0.0
440.375,67.3828125,-11.23046875,-35.64453125,50.29296875,-13.18359375,0.0
440.37890625,78.125,-17.08984375,-22.94921875,49.31640625,-53.7109375,0.0
440.3828125,84.9609375,-30.2734375,-10.25390625,57.12890625,-86.9140625,0.0
440.38671875,81.0546875,-38.57421875,-31.25,40.0390625,-11.23046875,0.0
440.390625,42.48046875,-27.83203125,-54.19921875,19.53125,9.765625,0.0
440.39453125,38.57421875,-21.484375,-37.109375,48.33984375,-69.82421875,0.0
440.3984375,45.8984375,-37.109375,-21.97265625,51.26953125,-84.47265625,0.0
440.40234375,32.71484375,-49.31640625,-28.80859375,30.76171875,-73.2421875,0.0
440.40625,20.99609375,-38.0859375,-39.0625,34.66796875,-12.6953125,0.0
440.41015625,2.44140625,-34.66796875,-37.109375,28.3203125,-28.80859375,0.0
440.4140625,6.8359375,-17.578125,-15.13671875,25.87890625,-3.90625,0.0
440.41796875,16.6015625,11.71875,-3.41796875,36.1328125,51.7578125,0.0
440.421875,21.484375,-9.765625,-17.578125,30.2734375,-32.2265625,0.0
440.42578125,7.32421875,-40.0390625,-42.96875,4.39453125,-25.390625,0.0
440.4296875,-0.48828125,-40.0390625,-47.36328125,-7.8125,47.36328125,0.0
440.43359375,13.671875,-26.3671875,-27.83203125,7.32421875,7.32421875,0.0
440.4375,16.11328125,-12.20703125,-23.4375,15.13671875,5.37109375,0.0
440.44140625,14.16015625,-15.625,-33.203125,12.6953125,61.5234375,0.0
440.4453125,2.44140625,-27.83203125,-32.71484375,10.25390625,50.29296875,0.0
440.44921875,11.23046875,-31.73828125,-37.109375,7.8125,7.8125,0.0
440.453125,27.34375,-30.76171875,-41.015625,14.16015625,-34.66796875,0.0
440.45703125,23.92578125,-14.6484375,-23.92578125,28.3203125,-27.34375,0.0
440.4609375,4.8828125,-10.7421875,-13.18359375,7.8125,-34.1796875,0.0
440.46484375,-12.20703125,-30.2734375,-30.2734375,-9.27734375,-71.77734375,0.0
440.46875,-12.20703125,-55.6640625,-37.109375,-1.953125,-76.66015625,0.0
440.47265625,-16.11328125,-82.03125,-40.0390625,-10.25390625,-46.38671875,0.0
440.4765625,-8.7890625,-59.08203125,-36.1328125,1.46484375,-32.2265625,0.0
440.48046875,11.71875,-21.97265625,-29.78515625,0.0,-68.359375,0.0
440.484375,6.8359375,-20.01953125,-28.80859375,-2.44140625,-89.35546875,0.0
440.48828125,-12.20703125,-33.203125,-30.2734375,-5.859375,-37.109375,0.0
440.4921875,-11.23046875,-33.69140625,-31.25,-14.16015625,42.96875,0.0
440.49609375,9.765625,-20.99609375,-29.78515625,-12.20703125,7.32421875,0.0
440.5,8.30078125,-0.48828125,-29.296875,-3.41796875,-74.70703125,0.0
440.50390625,-7.8125,-12.6953125,-28.3203125,-2.44140625,-62.98828125,0.0
440.5078125,-11.23046875,-31.25,-29.78515625,-21.97265625,-56.640625,0.0
440.51171875,-13.18359375,-19.04296875,-28.3203125,-22.4609375,-121.09375,0.0
440.515625,-24.4140625,-35.15625,-36.62109375,-22.4609375,-96.19140625,0.0
440.51953125,-28.3203125,-48.828125,-34.1796875,-19.53125,-28.80859375,0.0
440.5234375,-0.9765625,-29.296875,-25.390625,-13.671875,-133.7890625,0.0
440.52734375,6.34765625,-29.78515625,-25.87890625,-41.9921875,-71.2890625,0.0
440.53125,-16.6015625,-29.78515625,-19.04296875,-37.109375,54.6875,0.0
440.53515625,-18.5546875,-20.99609375,-11.71875,-16.6015625,-12.20703125,0.0
440.5390625,-18.5546875,-25.390625,-17.08984375,-8.30078125,-47.36328125,0.0
440.54296875,-25.390625,-25.87890625,-28.80859375,-19.04296875,-46.38671875,0.0
440.546875,-20.5078125,-31.73828125,-33.69140625,-34.1796875,-62.98828125,0.0
440.55078125,-0.9765625,-32.2265625,-24.4140625,-26.85546875,-60.546875,0.0
440.5546875,14.16015625,0.0,-24.90234375,-27.34375,47.8515625,0.0
440.55859375,6.34765625,20.01953125,-40.52734375,-7.8125,40.52734375,0.0
440.5625,-10.7421875,-2.9296875,-43.45703125,-15.13671875,-32.71484375,0.0
440.56640625,-20.5078125,-40.52734375,-41.50390625,-38.0859375,-17.578125,0.0
440.5703125,-22.4609375,-52.24609375,-35.64453125,-26.85546875,-63.4765625,0.0
440.57421875,-24.4140625,-43.9453125,-26.3671875,-27.83203125,-83.0078125,0.0
440.578125,-17.578125,-23.92578125,-19.04296875,-25.390625,-110.83984375,0.0
440.58203125,-27.83203125,-23.4375,-27.34375,-27.34375,-103.02734375,0.0
440.5859375,-39.0625,-39.55078125,-36.1328125,-39.0625,-60.546875,0.0
440.58984375,-33.69140625,-36.1328125,-39.0625,-36.1328125,-96.6796875,0.0
440.59375,-20.5078125,-26.85546875,-46.38671875,-22.94921875,-53.7109375,0.0
440.59765625,-19.53125,-30.76171875,-43.9453125,-25.390625,-111.81640625,0.0
440.6015625,-7.32421875,-27.34375,-27.83203125,-30.76171875,-150.87890625,0.0
440.60546875,-11.71875,-44.43359375,-28.80859375,-44.921875,-137.20703125,0.0
440.609375,-11.71875,-55.17578125,-38.57421875,-40.0390625,-130.859375,0.0
440.61328125,5.859375,-30.76171875,-39.0625,-15.625,29.78515625,0.0
440.6171875,-9.27734375,-39.0625,-37.59765625,-24.90234375,89.35546875,0.0
440.62109375,-26.85546875,-32.2265625,-22.4609375,-19.04296875,26.3671875,0.0
440.625,-30.2734375,-24.4140625,-29.78515625,-30.76171875,-23.4375,0.0
440.62890625,-19.04296875,-42.96875,-46.875,-56.15234375,-99.12109375,0.0
440.6328125,-9.27734375,-40.52734375,-40.52734375,-41.50390625,-109.86328125,0.0
440.63671875,-13.671875,-39.55078125,-24.90234375,-25.390625,61.03515625,0.0
440.640625,-23.4375,-35.64453125,-20.5078125,-19.53125,133.7890625,0.0
440.64453125,-31.73828125,-35.64453125,-13.671875,-5.859375,71.2890625,0.0
440.6484375,-29.296875,-37.109375,-18.06640625,-5.37109375,28.80859375,0.0
440.65234375,-20.99609375,-34.66796875,-32.71484375,-22.94921875,-36.1328125,0.0
440.65625,-18.06640625,-35.15625,-22.4609375,-23.4375,-27.34375,0.0
440.66015625,-13.18359375,-36.62109375,-8.30078125,-14.6484375,-11.23046875,0.0
440.6640625,-18.5546875,-40.52734375,-16.11328125,-9.765625,32.71484375,0.0
440.66796875,-36.1328125,-42.96875,-31.25,-34.66796875,66.40625,0.0
440.671875,-22.4609375,-50.78125,-22.94921875,-34.1796875,49.8046875,0.0
440.67578125,10.7421875,-49.31640625,-24.4140625,-14.6484375,7.8125,0.0
440.6796875,10.7421875,-41.50390625,-27.34375,-10.7421875,-94.7265625,0.0
440.68359375,-9.765625,-45.41015625,-28.80859375,-11.71875,-143.5546875,0.0
440.6875,-23.4375,-41.015625,-33.203125,-13.18359375,-67.87109375,0.0
440.69140625,-33.203125,-42.48046875,-30.76171875,-9.27734375,6.8359375,0.0
440.6953125,-15.625,-44.921875,-25.87890625,-22.4609375,-11.71875,0.0
440.69921875,10.25390625,-40.0390625,-26.85546875,-36.62109375,2.44140625,0.0
440.703125,-1.953125,-34.66796875,-28.80859375,-19.53125,-61.03515625,0.0
440.70703125,-17.08984375,-21.97265625,-23.4375,9.27734375,-91.30859375,0.0
440.7109375,-30.2734375,-40.0390625,-31.73828125,-20.5078125,-20.01953125,0.0
440.71484375,-31.25,-53.7109375,-34.1796875,-40.0390625,-2.44140625,0.0
440.71875,-21.484375,-37.59765625,-20.99609375,-30.2734375,-10.25390625,0.0
440.72265625,-47.36328125,-32.2265625,-14.6484375,-51.26953125,-42.96875,0.0
440.7265625,-69.82421875,-48.33984375,-11.71875,-53.22265625,-33.69140625,0.0
440.73046875,-63.96484375,-63.4765625,-15.13671875,-41.50390625,-10.25390625,0.0
440.734375,-42.96875,-56.640625,-20.5078125,-29.296875,52.734375,0.0
440.73828125,-13.671875,-31.73828125,-13.671875,-19.04296875,108.3984375,0.0
440.7421875,5.859375,-9.27734375,-13.671875,-9.765625,12.20703125,0.0
440.74609375,-17.578125,-25.390625,-27.34375,-9.27734375,-64.94140625,0.0
440.75,-36.1328125,-31.25,-27.83203125,-26.85546875,-59.08203125,0.0
440.75390625,-40.52734375,-44.43359375,-26.3671875,-38.0859375,-22.4609375,0.0
440.7578125,-62.5,-72.265625,-34.1796875,-51.7578125,3.90625,0.0
440.76171875,-57.12890625,-55.6640625,-24.90234375,-36.1328125,-70.80078125,0.0
440.765625,-28.3203125,-20.99609375,-7.32421875,-10.7421875,-89.84375,0.0
440.76953125,-14.16015625,-20.01953125,-15.13671875,-14.16015625,-38.57421875,0.0
440.7734375,-20.99609375,-44.921875,-41.50390625,-28.80859375,-58.10546875,0.0
440.77734375,-13.671875,-46.875,-43.45703125,-29.78515625,-88.8671875,0.0
440.78125,-5.37109375,-25.390625,-22.4609375,-15.625,-54.19921875,0.0
440.78515625,-19.04296875,-35.15625,-14.6484375,-22.4609375,-35.15625,0.0
440.7890625,-32.2265625,-38.57421875,-14.16015625,-41.50390625,-26.85546875,0.0
440.79296875,-23.92578125,-25.87890625,-4.39453125,-43.45703125,37.59765625,0.0
440.796875,-29.78515625,-13.671875,0.48828125,-37.59765625,50.29296875,0.0
440.80078125,-45.8984375,-26.3671875,-13.671875,-39.0625,-33.69140625,0.0
440.8046875,-40.0390625,-55.17578125,-33.203125,-30.76171875,-91.30859375,0.0
440.80859375,-26.3671875,-52.24609375,-32.71484375,-17.08984375,-104.98046875,0.0
440.8125,-11.23046875,-20.99609375,-19.53125,-20.99609375,-36.1328125,0.0
440.81640625,-26.3671875,-9.765625,-13.18359375,-24.4140625,52.734375,0.0
440.8203125,-43.45703125,-12.20703125,-12.6953125,-30.76171875,8.30078125,0.0
440.82421875,-36.62109375,-15.625,-25.87890625,-37.109375,-49.31640625,0.0
440.828125,-32.2265625,-36.1328125,-46.875,-24.4140625,-65.91796875,0.0
440.83203125,-33.69140625,-45.8984375,-30.2734375,-12.6953125,-65.91796875,0.0
440.8359375,-37.109375,-38.0859375,-5.37109375,-21.97265625,-80.078125,0.0
440.83984375,-27.83203125,-29.78515625,6.8359375,-32.71484375,-102.05078125,0.0
440.84375,-31.25,-18.06640625,-1.953125,-31.25,-138.671875,0.0
440.84765625,-28.3203125,-37.109375,-32.2265625,-43.9453125,-72.265625,0.0
440.8515625,-12.6953125,-51.7578125,-36.62109375,-37.59765625,-28.3203125,0.0
440.85546875,-27.83203125,-31.25,-28.3203125,-31.25,-20.01953125,0.0
440.859375,-30.76171875,-12.20703125,-29.296875,-27.83203125,6.8359375,0.0
440.86328125,-24.4140625,-11.71875,-35.15625,-17.08984375,-24.4140625,0.0
440.8671875,-18.06640625,-38.0859375,-37.59765625,-20.5078125,-1.46484375,0.0
440.87109375,-20.5078125,-45.41015625,-37.59765625,-9.765625,4.39453125,0.0
440.875,-34.66796875,-17.578125,-26.85546875,-19.53125,-8.30078125,0.0
440.87890625,-25.87890625,-14.6484375,-17.08984375,-35.64453125,-25.390625,0.0
440.8828125,-45.41015625,-23.92578125,-19.04296875,-54.6875,-43.45703125,0.0
440.88671875,-56.640625,-25.390625,-20.5078125,-60.546875,-38.57421875,0.0
440.890625,-36.1328125,-26.3671875,-22.94921875,-50.29296875,-41.015625,0.0
440.89453125,-33.69140625,-31.73828125,-28.3203125,-57.12890625,21.484375,0.0
440.8984375,-27.34375,-23.4375,-22.4609375,-47.36328125,3.90625,0.0
440.90234375,-29.296875,-31.73828125,-22.4609375,-40.0390625,-1.46484375,0.0
440.90625,-23.4375,-48.33984375,-33.203125,-37.59765625,28.80859375,0.0
440.91015625,-29.78515625,-38.57421875,-31.73828125,-41.015625,-26.3671875,0.0
440.9140625,-45.41015625,-31.73828125,-30.2734375,-35.15625,36.62109375,0.0
440.91796875,-31.73828125,-24.90234375,-26.85546875,-11.23046875,20.99609375,0.0
440.921875,-26.85546875,-12.6953125,-25.87890625,-17.578125,-31.73828125,0.0
440.92578125,-39.55078125,-32.2265625,-37.59765625,-29.78515625,-23.92578125,0.0
440.9296875,-41.9921875,-44.921875,-41.50390625,-34.1796875,-52.734375,0.0
440.93359375,-49.8046875,-35.15625,-34.66796875,-62.01171875,-11.71875,0.0
440.9375,-35.15625,-31.73828125,-23.4375,-61.5234375,22.94921875,0.0
440.94140625,-31.73828125,-39.55078125,-23.4375,-36.62109375,-10.25390625,0.0
440.9453125,-62.01171875,-35.15625,-22.94921875,-46.875,-87.890625,0.0
440.94921875,-62.98828125,-36.62109375,-22.94921875,-65.4296875,-100.5859375,0.0
440.953125,-41.50390625,-52.24609375,-38.57421875,-54.6875,-28.3203125,0.0
440.95703125,-35.15625,-40.52734375,-33.69140625,-37.109375,-7.8125,0.0
440.9609375,-43.45703125,-24.4140625,-14.6484375,-33.69140625,-26.3671875,0.0
440.96484375,-32.2265625,-14.6484375,-12.6953125,-33.69140625,-28.80859375,0.0
440.96875,-20.01953125,-28.80859375,-29.296875,-16.11328125,-0.9765625,0.0
440.97265625,-47.8515625,-61.03515625,-33.69140625,-23.92578125,-20.5078125,0.0
440.9765625,-56.15234375,-53.22265625,-19.53125,-45.8984375,-60.546875,0.0
440.98046875,-40.0390625,-41.50390625,-21.484375,-43.9453125,-45.41015625,0.0
440.984375,-52.24609375,-50.78125,-23.4375,-28.3203125,-96.6796875,0.0
440.98828125,-50.29296875,-44.921875,-30.76171875,-30.76171875,-87.890625,0.0
440.9921875,-34.66796875,-48.828125,-48.33984375,-40.52734375,23.4375,0.0
440.99609375,-32.71484375,-39.55078125,-41.9921875,-20.5078125,5.37109375,0.0
441.0,-30.2734375,-8.30078125,-32.2265625,-24.4140625,-57.12890625,0.0
441.00390625,-20.5078125,-20.01953125,-28.3203125,-37.109375,-61.03515625,0.0
441.0078125,-20.5078125,-52.24609375,-38.57421875,-37.59765625,4.39453125,0.0
441.01171875,-36.62109375,-53.22265625,-40.52734375,-44.921875,0.0,0.0
441.015625,-52.734375,-33.69140625,-23.4375,-38.57421875,-59.08203125,0.0
441.01953125,-54.6875,-37.59765625,-14.16015625,-30.2734375,-134.765625,0.0
441.0234375,-51.7578125,-35.64453125,-25.87890625,-30.76171875,-116.2109375,0.0
441.02734375,-52.734375,-27.34375,-39.55078125,-38.57421875,-25.390625,0.0
441.03125,-41.9921875,-35.64453125,-35.64453125,-30.2734375,-38.57421875,0.0
441.03515625,-33.69140625,-45.41015625,-31.25,-31.73828125,-44.921875,0.0
441.0390625,-40.52734375,-52.24609375,-34.1796875,-52.24609375,-62.98828125,0.0
441.04296875,-41.50390625,-40.52734375,-38.57421875,-56.640625,-78.125,0.0
441.046875,-43.45703125,-27.83203125,-35.15625,-48.828125,-90.8203125,0.0
441.05078125,-43.45703125,-33.69140625,-27.83203125,-45.41015625,-138.18359375,0.0
441.0546875,-24.90234375,-36.62109375,-25.87890625,-32.2265625,-158.203125,0.0
441.05859375,-10.25390625,-32.71484375,-23.92578125,-1.46484375,-117.1875,0.0
441.0625,-22.4609375,-32.2265625,-25.390625,5.37109375,-127.9296875,0.0
441.06640625,-45.41015625,-27.34375,-21.97265625,-22.94921875,-165.0390625,0.0
441.0703125,-50.29296875,-22.94921875,-20.99609375,-48.33984375,-114.2578125,0.0
441.07421875,-47.8515625,-27.34375,-31.25,-51.7578125,-34.66796875,0.0
441.078125,-57.6171875,-28.3203125,-32.2265625,-58.59375,-41.015625,0.0
441.08203125,-60.546875,-24.90234375,-38.57421875,-77.63671875,-133.30078125,0.0
441.0859375,-67.87109375,-36.1328125,-41.9921875,-81.54296875,-132.8125,0.0
441.08984375,-76.171875,-45.8984375,-41.50390625,-83.984375,-59.5703125,0.0
441.09375,-84.47265625,-43.45703125,-47.36328125,-94.23828125,-71.77734375,0.0
441.09765625,-84.47265625,-38.57421875,-41.50390625,-99.609375,-113.28125,0.0
441.1015625,-83.0078125,-33.203125,-46.38671875,-101.07421875,-125.48828125,0.0
441.10546875,-82.03125,-39.55078125,-65.91796875,-100.09765625,-17.08984375,0.0
441.109375,-73.73046875,-39.0625,-60.546875,-101.07421875,41.9921875,0.0
441.11328125,-67.3828125,-35.64453125,-40.0390625,-94.7265625,12.20703125,0.0
441.1171875,-58.59375,-25.390625,-35.15625,-93.26171875,2.44140625,0.0
441.12109375,-64.453125,-19.04296875,-40.52734375,-83.49609375,20.99609375,0.0
441.125,-60.05859375,-32.2265625,-42.96875,-63.4765625,1.953125,0.0
441.12890625,-49.8046875,-53.22265625,-46.875,-58.59375,-19.53125,0.0
441.1328125,-39.0625,-55.6640625,-51.26953125,-66.40625,-7.8125,0.0
441.13671875,-23.92578125,-46.875,-45.41015625,-58.10546875,-59.08203125,0.0
441.140625,-33.69140625,-30.2734375,-41.9921875,-40.52734375,-22.94921875,0.0
441.14453125,-54.6875,-34.66796875,-44.921875,-50.29296875,21.97265625,0.0
441.1484375,-61.5234375,-52.24609375,-39.55078125,-67.87109375,-34.66796875,0.0
441.15234375,-45.41015625,-46.875,-34.66796875,-58.59375,-1.46484375,0.0
441.15625,-40.0390625,-32.71484375,-26.3671875,-49.8046875,96.19140625,0.0
441.16015625,-28.3203125,-22.4609375,-16.11328125,-57.12890625,81.54296875,0.0
441.1640625,-25.87890625,-25.87890625,-24.90234375,-52.734375,17.08984375,0.0
441.16796875,-37.59765625,-26.3671875,-31.73828125,-32.2265625,49.8046875,0.0
441.171875,-44.43359375,-36.1328125,-29.296875,-26.85546875,142.578125,0.0
441.17578125,-39.55078125,-47.36328125,-33.203125,-25.390625,135.7421875,0.0
441.1796875,-36.62109375,-43.9453125,-30.76171875,-35.15625,62.01171875,0.0
441.18359375,-50.29296875,-44.43359375,-19.04296875,-45.41015625,3.90625,0.0
441.1875,-63.96484375,-36.62109375,-16.6015625,-39.0625,-43.9453125,0.0
441.19140625,-54.19921875,-29.296875,-34.66796875,-49.8046875,-25.390625,0.0
441.1953125,-23.92578125,-16.11328125,-43.9453125,-39.0625,-19.53125,0.0
441.19921875,-15.13671875,-5.37109375,-32.71484375,-22.4609375,-63.96484375,0.0
441.203125,-25.87890625,-16.6015625,-30.76171875,-14.6484375,-55.17578125,0.0
441.20703125,-27.83203125,-55.6640625,-50.78125,-34.1796875,-83.984375,0.0
441.2109375,-25.87890625,-46.875,-65.91796875,-64.94140625,-119.140625,0.0
441.21484375,-24.90234375,-14.6484375,-43.9453125,-50.78125,-55.6640625,0.0
441.21875,-28.3203125,-5.859375,-23.4375,-42.48046875,20.99609375,0.0
441.22265625,-34.1796875,-20.99609375,-28.80859375,-43.45703125,12.6953125,0.0
441.2265625,-34.66796875,-50.29296875,-42.48046875,-30.76171875,-91.30859375,0.0
441.23046875,-34.1796875,-59.08203125,-46.875,-21.97265625,-73.2421875,0.0
441.234375,-36.62109375,-41.50390625,-39.55078125,-15.625,-14.16015625,0.0
441.23828125,-41.015625,-21.97265625,-38.57421875,-6.8359375,-191.40625,0.0
441.2421875,-38.57421875,-15.625,-41.50390625,-14.16015625,-224.609375,0.0
441.24609375,-21.484375,-34.66796875,-41.015625,-19.53125,-139.16015625,0.0
441.25,-21.484375,-38.57421875,-37.109375,-31.25,-147.94921875,0.0
441.25390625,-34.66796875,-35.64453125,-29.296875,-41.9921875,-82.03125,0.0
441.2578125,-21.484375,-22.94921875,-18.06640625,-27.34375,-73.73046875,0.0
441.26171875,-27.34375,-13.18359375,-15.13671875,-22.94921875,-124.0234375,0.0
441.265625,-49.31640625,-40.52734375,-20.01953125,-45.8984375,-108.88671875,0.0
441.26953125,-38.57421875,-41.50390625,-27.83203125,-42.48046875,-62.5,0.0
441.2734375,-24.90234375,-22.94921875,-26.3671875,-14.6484375,-60.05859375,0.0
441.27734375,-42.96875,-16.11328125,-22.4609375,-16.11328125,-72.265625,0.0
441.28125,-53.22265625,-29.78515625,-27.34375,-39.55078125,-147.4609375,0.0
441.28515625,-47.36328125,-39.55078125,-20.5078125,-36.62109375,-221.19140625,0.0
441.2890625,-56.15234375,-24.4140625,-22.94921875,-32.71484375,-142.578125,0.0
441.29296875,-68.359375,-20.5078125,-39.55078125,-51.26953125,-70.80078125,0.0
441.296875,-57.6171875,-10.7421875,-38.57421875,-46.875,-51.7578125,0.0
441.30078125,-41.015625,-8.7890625,-27.83203125,-37.59765625,4.39453125,0.0
441.3046875,-36.1328125,-27.34375,-33.203125,-45.41015625,42.48046875,0.0
441.30859375,-40.52734375,-33.203125,-40.52734375,-42.96875,-24.4140625,0.0
441.3125,-54.6875,-35.15625,-39.0625,-29.296875,54.6875,0.0
441.31640625,-58.59375,-37.59765625,-37.109375,-33.69140625,134.765625,0.0
441.3203125,-41.50390625,-34.1796875,-21.97265625,-35.64453125,83.0078125,0.0
441.32421875,-31.73828125,-37.109375,-11.71875,-38.0859375,44.43359375,0.0
441.328125,-33.203125,-35.15625,-28.80859375,-62.98828125,-13.18359375,0.0
441.33203125,-31.73828125,-24.90234375,-35.15625,-62.98828125,0.0,0.0
441.3359375,-28.80859375,-26.85546875,-21.97265625,-51.26953125,57.12890625,0.0
441.33984375,-40.0390625,-46.38671875,-14.16015625,-42.96875,-17.578125,0.0
441.34375,-47.8515625,-38.57421875,-25.390625,-39.0625,-19.53125,0.0
441.34765625,-48.828125,-16.11328125,-44.921875,-41.015625,59.08203125,0.0
441.3515625,-38.57421875,-9.27734375,-33.69140625,-44.43359375,-10.7421875,0.0
441.35546875,-37.59765625,-10.25390625,-13.671875,-30.76171875,-61.5234375,0.0
441.359375,-50.29296875,-24.90234375,-20.99609375,5.859375,-75.68359375,0.0
441.36328125,-51.7578125,-41.9921875,-47.36328125,-19.53125,-66.89453125,0.0
441.3671875,-39.55078125,-51.7578125,-50.78125,-52.734375,-47.8515625,0.0
441.37109375,-27.34375,-56.15234375,-38.57421875,-35.64453125,-22.94921875,0.0
441.375,-27.34375,-42.48046875,-31.25,-29.296875,33.203125,0.0
441.37890625,-27.34375,-37.59765625,-18.5546875,-38.57421875,2.9296875,0.0
441.3828125,-31.25,-38.0859375,-21.484375,-51.7578125,51.7578125,0.0
441.38671875,-38.0859375,-28.80859375,-34.1796875,-58.59375,60.05859375,0.0
441.390625,-51.26953125,-10.7421875,-37.59765625,-44.43359375,61.03515625,0.0
441.39453125,-36.62109375,-0.48828125,-39.55078125,-21.484375,89.35546875,0.0
441.3984375,-13.671875,-9.765625,-32.2265625,-24.4140625,14.16015625,0.0
441.40234375,-39.55078125,-35.64453125,-24.90234375,-32.2265625,13.671875,0.0
441.40625,-48.828125,-54.19921875,-32.71484375,-40.0390625,113.76953125,0.0
441.41015625,-32.2265625,-53.7109375,-31.73828125,-30.2734375,36.1328125,0.0
441.4140625,-31.73828125,-56.15234375,-37.109375,-24.90234375,-29.78515625,0.0
441.41796875,-30.76171875,-48.33984375,-37.59765625,-34.66796875,36.1328125,0.0
441.421875,-45.41015625,-26.85546875,-36.62109375,-30.76171875,-16.6015625,0.0
441.42578125,-42.48046875,-28.3203125,-40.52734375,-24.4140625,-88.8671875,0.0
441.4296875,-16.11328125,-33.69140625,-39.55078125,-21.484375,-69.82421875,0.0
441.43359375,-24.4140625,-24.4140625,-34.1796875,-18.06640625,7.8125,0.0
441.4375,-21.97265625,-28.3203125,-27.83203125,-25.87890625,41.9921875,0.0
441.44140625,4.39453125,-20.99609375,-42.48046875,-28.80859375,48.828125,0.0
441.4453125,-21.97265625,-1.46484375,-48.33984375,-20.99609375,13.18359375,0.0
441.44921875,-36.1328125,-18.06640625,-33.69140625,-22.4609375,-41.015625,0.0
441.453125,-24.4140625,-33.203125,-26.3671875,-25.390625,-53.7109375,0.0
441.45703125,-29.296875,-33.203125,-21.484375,-22.94921875,-33.203125,0.0
441.4609375,-28.3203125,-41.015625,-27.34375,-30.76171875,-5.37109375,0.0
441.46484375,-37.59765625,-47.36328125,-35.15625,-44.921875,-167.96875,0.0
441.46875,-36.62109375,-36.1328125,-30.76171875,-35.15625,-126.953125,0.0
441.47265625,-22.4609375,-33.69140625,-30.76171875,-35.15625,62.01171875,0.0
441.4765625,-28.3203125,-31.25,-36.62109375,-47.36328125,32.2265625,0.0
441.48046875,-30.2734375,-34.1796875,-35.64453125,-35.15625,-44.43359375,0.0
441.484375,-22.94921875,-41.50390625,-26.3671875,-31.25,-83.0078125,0.0
441.48828125,-34.1796875,-43.45703125,-24.90234375,-36.62109375,-82.51953125,0.0
441.4921875,-29.296875,-30.2734375,-26.85546875,-22.94921875,-25.87890625,0.0
441.49609375,-26.85546875,-24.90234375,-26.3671875,-17.08984375,19.04296875,0.0
441.5,-36.1328125,-22.4609375,-24.90234375,-23.92578125,-48.33984375,0.0
441.50390625,-32.2265625,-19.53125,-19.53125,-19.53125,-88.37890625,0.0
441.5078125,-12.6953125,-47.36328125,-27.83203125,-10.25390625,-92.28515625,0.0
441.51171875,0.9765625,-61.5234375,-41.9921875,-9.765625,-83.984375,0.0
441.515625,6.34765625,-35.15625,-42.96875,-0.9765625,-72.265625,0.0
441.51953125,20.01953125,-14.6484375,-33.69140625,18.5546875,-28.3203125,0.0
441.5234375,21.484375,-26.3671875,-27.34375,26.85546875,62.98828125,0.0
441.52734375,29.296875,-38.57421875,-24.90234375,26.85546875,46.38671875,0.0
441.53125,36.62109375,-26.85546875,-25.390625,17.08984375,72.75390625,0.0
441.53515625,53.7109375,-23.4375,-23.92578125,8.7890625,59.08203125,0.0
441.5390625,50.29296875,-15.13671875,-21.484375,15.625,-9.27734375,0.0
441.54296875,19.53125,-11.23046875,-21.484375,18.5546875,0.48828125,0.0
441.546875,-2.44140625,-32.71484375,-35.64453125,14.16015625,29.78515625,0.0
441.55078125,-2.9296875,-47.36328125,-48.828125,22.94921875,-20.01953125,0.0
441.5546875,3.90625,-42.96875,-39.55078125,13.671875,-74.21875,0.0
441.55859375,6.34765625,-31.25,-31.25,0.0,-98.14453125,0.0
441.5625,11.23046875,-33.203125,-29.296875,0.0,-78.125,0.0
441.56640625,18.06640625,-43.9453125,-29.78515625,3.41796875,-83.984375,0.0
441.5703125,21.97265625,-45.41015625,-26.85546875,16.6015625,-167.48046875,0.0
441.57421875,2.44140625,-41.9921875,-10.25390625,16.11328125,-60.05859375,0.0
441.578125,-1.46484375,-53.7109375,-0.9765625,5.37109375,4.39453125,0.0
441.58203125,11.23046875,-49.31640625,-10.7421875,-0.48828125,-71.2890625,0.0
441.5859375,-17.578125,-25.87890625,-25.87890625,-10.25390625,-81.54296875,0.0
441.58984375,-40.0390625,-15.625,-41.9921875,-24.4140625,-94.23828125,0.0
441.59375,-34.66796875,-16.11328125,-44.921875,-30.76171875,-102.5390625,0.0
441.59765625,-35.64453125,-27.34375,-28.80859375,-6.8359375,-57.12890625,0.0
441.6015625,-35.64453125,-31.73828125,-16.6015625,17.08984375,-52.734375,0.0
441.60546875,-32.2265625,-42.48046875,-25.87890625,-9.765625,-123.046875,0.0
441.609375,-32.71484375,-48.33984375,-35.64453125,-26.85546875,-137.20703125,0.0
441.61328125,-17.578125,-22.94921875,-33.203125,-13.18359375,-32.71484375,0.0
441.6171875,-9.765625,-24.4140625,-24.4140625,-8.7890625,-18.06640625,0.0
441.62109375,-11.71875,-42.48046875,-17.578125,-10.25390625,-68.359375,0.0
441.625,1.46484375,-29.78515625,-22.4609375,-17.578125,-70.3125,0.0
441.62890625,-14.16015625,-31.25,-32.2265625,-22.94921875,-52.24609375,0.0
441.6328125,-39.55078125,-31.73828125,-36.1328125,-6.34765625,3.41796875,0.0
441.63671875,-38.0859375,-20.99609375,-35.64453125,-15.625,-31.73828125,0.0
441.640625,-29.78515625,-38.0859375,-27.34375,-33.69140625,-61.03515625,0.0
441.64453125,-31.73828125,-50.78125,-31.73828125,-23.4375,-42.96875,0.0
441.6484375,-26.85546875,-53.7109375,-46.875,-27.34375,-66.40625,0.0
441.65234375,-16.6015625,-53.7109375,-47.8515625,-31.73828125,-83.49609375,0.0
441.65625,-17.578125,-29.78515625,-44.43359375,-26.3671875,-99.12109375,0.0
441.66015625,-33.69140625,-10.7421875,-38.0859375,-28.80859375,-112.79296875,0.0
441.6640625,-32.2265625,-25.87890625,-40.52734375,-30.76171875,-51.7578125,0.0
441.66796875,-20.99609375,-35.15625,-41.015625,-27.34375,-5.859375,0.0
441.671875,-26.85546875,-31.73828125,-30.76171875,-31.25,0.9765625,0.0
441.67578125,-33.69140625,-36.62109375,-15.625,-37.109375,-3.41796875,0.0
441.6796875,-30.2734375,-20.99609375,-8.7890625,-38.57421875,-54.6875,0.0
441.68359375,-30.76171875,-8.30078125,-16.11328125,-35.15625,-115.72265625,0.0
441.6875,-26.85546875,-8.7890625,-28.80859375,-35.64453125,-79.58984375,0.0
441.69140625,-30.76171875,-29.296875,-39.55078125,-37.59765625,-32.71484375,0.0
441.6953125,-48.33984375,-47.36328125,-40.52734375,-27.34375,-70.3125,0.0
441.69921875,-46.38671875,-40.52734375,-23.4375,-21.484375,-31.73828125,0.0
441.703125,-23.4375,-26.85546875,-20.5078125,-26.3671875,-29.296875,0.0
441.70703125,-20.5078125,-31.25,-28.80859375,-21.97265625,-88.8671875,0.0
441.7109375,-43.45703125,-51.7578125,-25.390625,-23.92578125,-45.8984375,0.0
441.71484375,-38.0859375,-49.31640625,-32.2265625,-27.34375,-48.33984375,0.0
441.71875,-30.2734375,-22.4609375,-30.2734375,-22.4609375,-92.28515625,0.0
441.72265625,-40.52734375,-14.16015625,-25.390625,-26.85546875,-63.96484375,0.0
441.7265625,-39.55078125,-13.18359375,-34.66796875,-29.296875,-48.33984375,0.0
441.73046875,-42.96875,-23.4375,-38.0859375,-28.80859375,-20.99609375,0.0
441.734375,-55.17578125,-41.9921875,-41.50390625,-44.43359375,29.78515625,0.0
441.73828125,-43.45703125,-40.0390625,-50.29296875,-63.4765625,4.8828125,0.0
441.7421875,-24.4140625,-37.59765625,-46.38671875,-62.01171875,-6.8359375,0.0
441.74609375,-22.94921875,-36.1328125,-33.203125,-45.41015625,11.71875,0.0
441.75,-23.4375,-36.1328125,-33.203125,-30.76171875,-30.76171875,0.0
441.75390625,-20.99609375,-31.73828125,-30.2734375,-24.90234375,-62.5,0.0
441.7578125,-23.4375,-21.97265625,-23.4375,-28.80859375,-32.71484375,0.0
441.76171875,-32.2265625,-23.4375,-22.4609375,-38.57421875,13.671875,0.0
441.765625,-46.38671875,-26.3671875,-23.4375,-41.50390625,28.80859375,0.0
441.76953125,-40.0390625,-26.3671875,-28.3203125,-34.1796875,50.78125,0.0
441.7734375,-34.66796875,-22.94921875,-22.94921875,-46.38671875,51.7578125,0.0
441.77734375,-37.109375,-23.92578125,-20.99609375,-43.9453125,-3.90625,0.0
441.78125,-24.90234375,-10.25390625,-28.80859375,-21.484375,1.46484375,0.0
441.78515625,-19.04296875,-20.5078125,-36.1328125,-16.6015625,5.859375,0.0
441.7890625,-39.0625,-48.33984375,-42.96875,-37.109375,-83.49609375,0.0
441.79296875,-47.8515625,-40.0390625,-49.31640625,-49.8046875,-127.44140625,0.0
441.796875,-36.62109375,-23.92578125,-47.36328125,-36.1328125,-38.57421875,0.0
441.80078125,-35.64453125,-24.90234375,-35.15625,-27.34375,17.08984375,0.0
441.8046875,-31.25,-28.3203125,-21.484375,-6.8359375,-36.1328125,0.0
441.80859375,-35.15625,-37.109375,-20.5078125,-12.20703125,-109.86328125,0.0
441.8125,-39.55078125,-51.26953125,-33.69140625,-42.96875,-76.171875,0.0
441.81640625,-26.3671875,-52.24609375,-42.48046875,-54.19921875,10.7421875,0.0
441.8203125,-25.87890625,-26.85546875,-32.2265625,-52.734375,13.18359375,0.0
441.82421875,-49.8046875,-11.23046875,-26.85546875,-48.33984375,-31.73828125,0.0
441.828125,-54.19921875,-37.109375,-21.97265625,-43.45703125,-32.71484375,0.0
441.83203125,-37.59765625,-47.8515625,-27.34375,-44.43359375,-31.73828125,0.0
441.8359375,-37.109375,-27.34375,-51.7578125,-51.7578125,-74.21875,0.0
441.83984375,-42.48046875,-32.71484375,-54.6875,-33.69140625,-112.3046875,0.0
441.84375,-43.9453125,-42.96875,-29.296875,-20.01953125,-89.84375,0.0
441.84765625,-39.0625,-33.203125,-14.16015625,-29.296875,-95.703125,0.0
441.8515625,-36.1328125,-37.59765625,-22.94921875,-46.875,-118.1640625,0.0
441.85546875,-42.48046875,-29.78515625,-32.71484375,-57.12890625,-45.41015625,0.0
441.859375,-49.31640625,-15.13671875,-34.1796875,-47.8515625,54.6875,0.0
441.86328125,-50.78125,-23.4375,-42.96875,-47.8515625,6.8359375,0.0
441.8671875,-47.8515625,-33.69140625,-42.96875,-38.57421875,-35.64453125,0.0
441.87109375,-41.50390625,-29.78515625,-40.0390625,-27.83203125,-1.46484375,0.0
441.875,-43.45703125,-19.04296875,-37.59765625,-38.0859375,-0.48828125,0.0
441.87890625,-36.1328125,-33.203125,-26.3671875,-44.43359375,-0.48828125,0.0
441.8828125,-38.57421875,-49.31640625,-30.76171875,-37.109375,-32.2265625,0.0
441.88671875,-43.45703125,-47.8515625,-33.203125,-24.4140625,-63.4765625,0.0
441.890625,-53.22265625,-36.1328125,-24.4140625,-23.4375,-69.3359375,0.0
441.89453125,-51.7578125,-48.33984375,-15.13671875,-28.80859375,-91.796875,0.0
441.8984375,-46.38671875,-74.21875,-32.71484375,-47.8515625,-34.66796875,0.0
441.90234375,-46.875,-50.78125,-37.59765625,-49.8046875,-19.04296875,0.0
441.90625,-36.1328125,-10.7421875,-29.296875,-31.73828125,-28.3203125,0.0
441.91015625,-37.109375,-5.37109375,-37.59765625,-25.87890625,18.06640625,0.0
441.9140625,-24.90234375,7.32421875,-40.52734375,-32.71484375,71.2890625,0.0
441.91796875,-20.5078125,22.94921875,-37.59765625,-46.875,52.24609375,0.0
441.921875,-33.203125,-8.7890625,-35.15625,-50.78125,-40.52734375,0.0
441.92578125,-40.52734375,-52.734375,-39.55078125,-60.546875,-45.41015625,0.0
441.9296875,-44.921875,-41.9921875,-41.9921875,-41.50390625,-25.87890625,0.0
441.93359375,-32.71484375,-22.94921875,-27.83203125,-20.01953125,24.4140625,0.0
441.9375,-38.57421875,-28.3203125,-10.25390625,-24.90234375,49.8046875,0.0
441.94140625,-47.8515625,-31.73828125,-11.71875,-40.0390625,61.5234375,0.0
441.9453125,-40.52734375,-35.15625,-31.25,-44.921875,22.94921875,0.0
441.94921875,-53.7109375,-33.203125,-26.85546875,-39.55078125,-48.828125,0.0
441.953125,-71.77734375,-37.109375,-17.08984375,-47.8515625,-69.3359375,0.0
441.95703125,-61.5234375,-47.8515625,-41.015625,-44.921875,-120.60546875,0.0
441.9609375,-40.52734375,-34.66796875,-46.38671875,-44.921875,-144.53125,0.0
441.96484375,-31.73828125,-20.5078125,-18.5546875,-26.85546875,-94.7265625,0.0
441.96875,-33.203125,-16.6015625,-27.34375,-12.6953125,-60.05859375,0.0
441.97265625,-42.96875,-28.3203125,-49.31640625,-38.0859375,-57.6171875,0.0
441.9765625,-45.8984375,-36.1328125,-35.64453125,-50.78125,-58.59375,0.0
441.98046875,-25.390625,-25.87890625,-17.08984375,-41.015625,-73.73046875,0.0
441.984375,-18.5546875,-29.78515625,-14.16015625,-37.109375,-22.4609375,0.0
441.98828125,-27.83203125,-55.6640625,-16.6015625,-33.203125,22.94921875,0.0
441.9921875,-18.06640625,-57.12890625,-21.484375,-27.83203125,99.12109375,0.0
441.99609375,-3.41796875,-34.1796875,-20.5078125,-24.4140625,109.86328125,0.0
442.0,-11.71875,-19.04296875,-26.85546875,-20.5078125,45.8984375,0.0
442.00390625,-29.78515625,-29.78515625,-36.1328125,-24.90234375,-15.13671875,0.0
442.0078125,-39.0625,-47.36328125,-38.57421875,-22.4609375,-99.12109375,0.0
442.01171875,-53.22265625,-44.921875,-39.55078125,-27.34375,-24.90234375,0.0
442.015625,-51.7578125,-45.41015625,-42.48046875,-40.0390625,-5.37109375,0.0
442.01953125,-34.1796875,-44.43359375,-30.2734375,-36.1328125,-66.89453125,0.0
442.0234375,-26.85546875,-31.73828125,-13.671875,-36.1328125,-29.296875,0.0
442.02734375,-51.26953125,-32.71484375,-23.4375,-49.8046875,-13.18359375,0.0
442.03125,-43.9453125,-47.36328125,-34.1796875,-48.33984375,-30.76171875,0.0
442.03515625,-42.48046875,-60.05859375,-26.85546875,-49.31640625,-140.625,0.0
442.0390625,-58.59375,-52.734375,-16.6015625,-50.29296875,-201.171875,0.0
442.04296875,-39.0625,-47.36328125,-11.71875,-39.55078125,-187.01171875,0.0
442.046875,-41.50390625,-55.6640625,-9.765625,-34.1796875,-100.5859375,0.0
442.05078125,-58.59375,-59.08203125,-24.90234375,-33.203125,30.76171875,0.0
442.0546875,-51.26953125,-45.8984375,-33.203125,-39.0625,-14.16015625,0.0
442.05859375,-29.296875,-23.4375,-31.25,-37.59765625,-62.01171875,0.0
442.0625,-36.62109375,-22.94921875,-24.90234375,-29.78515625,-38.57421875,0.0
442.06640625,-48.828125,-43.45703125,-21.484375,-18.06640625,-3.41796875,0.0
442.0703125,-33.69140625,-49.31640625,-37.59765625,-16.11328125,15.13671875,0.0
442.07421875,-33.203125,-47.8515625,-37.109375,-17.578125,19.04296875,0.0
442.078125,-18.06640625,-38.0859375,-14.6484375,-10.25390625,45.41015625,0.0
442.08203125,-17.08984375,-34.66796875,-11.71875,-21.484375,92.7734375,0.0
442.0859375,-30.2734375,-47.36328125,-27.34375,-36.1328125,109.375,0.0
442.08984375,-18.06640625,-36.62109375,-27.34375,-19.53125,30.2734375,0.0
442.09375,-7.8125,-23.92578125,-24.4140625,-9.27734375,-100.09765625,0.0
442.09765625,-17.08984375,-20.5078125,-17.08984375,-11.71875,-150.390625,0.0
442.1015625,-22.4609375,-6.8359375,-12.20703125,-9.27734375,-55.6640625,0.0
442.10546875,-16.11328125,-23.4375,-26.85546875,-8.7890625,-29.78515625,0.0
442.109375,-0.9765625,-43.45703125,-27.83203125,-6.34765625,-30.2734375,0.0
442.11328125,3.41796875,-32.2265625,-20.99609375,-16.6015625,-73.73046875,0.0
442.1171875,-12.20703125,-28.3203125,-32.71484375,-19.53125,-141.11328125,0.0
442.12109375,-8.30078125,-25.390625,-32.71484375,-7.8125,-51.26953125,0.0
442.125,-7.8125,-8.30078125,-22.4609375,2.9296875,-3.90625,0.0
442.12890625,-17.578125,-20.01953125,-28.3203125,-6.8359375,1.953125,0.0
442.1328125,-22.94921875,-30.76171875,-33.203125,-32.2265625,60.05859375,0.0
442.13671875,-22.4609375,-14.6484375,-27.83203125,-32.71484375,47.36328125,0.0
442.140625,-27.83203125,-10.7421875,-25.87890625,-21.97265625,5.37109375,0.0
442.14453125,-22.94921875,-30.76171875,-23.92578125,-24.4140625,-55.6640625,0.0
442.1484375,-14.16015625,-24.90234375,-22.94921875,-20.01953125,-76.66015625,0.0
442.15234375,-5.37109375,-3.41796875,-34.66796875,-20.99609375,-85.9375,0.0
442.15625,2.44140625,2.44140625,-44.43359375,-25.390625,-34.1796875,0.0
442.16015625,-11.71875,-11.71875,-34.1796875,-35.64453125,-43.9453125,0.0
442.1640625,-23.92578125,-37.109375,-22.4609375,-39.0625,-70.80078125,0.0
442.16796875,-33.203125,-43.45703125,-24.90234375,-32.2265625,-59.08203125,0.0
442.171875,-39.0625,-41.015625,-25.390625,-33.69140625,-39.55078125,0.0
442.17578125,-20.99609375,-47.8515625,-17.08984375,-28.80859375,-93.26171875,0.0
442.1796875,7.8125,-45.8984375,-15.13671875,-19.53125,-85.44921875,0.0
442.18359375,-4.39453125,-53.7109375,-13.18359375,-12.6953125,-46.38671875,0.0
442.1875,-20.99609375,-63.96484375,-12.20703125,-5.37109375,-57.6171875,0.0
442.19140625,-17.578125,-70.80078125,-10.7421875,18.06640625,6.8359375,0.0
442.1953125,-23.4375,-63.4765625,1.953125,32.2265625,-14.16015625,0.0
442.19921875,-14.6484375,-56.640625,6.8359375,28.3203125,-61.03515625,0.0
442.203125,-6.34765625,-64.94140625,1.953125,44.921875,-31.25,0.0
442.20703125,-20.01953125,-79.1015625,4.8828125,55.17578125,-77.63671875,0.0
442.2109375,-16.11328125,-87.40234375,9.27734375,51.26953125,-99.12109375,0.0
442.21484375,0.48828125,-81.0546875,18.5546875,53.22265625,31.25,0.0
442.21875,11.23046875,-75.1953125,24.90234375,62.01171875,4.39453125,0.0
442.22265625,10.25390625,-66.40625,20.5078125,73.73046875,-69.3359375,0.0
442.2265625,18.5546875,-72.75390625,22.4609375,72.75390625,-44.921875,0.0
442.23046875,19.53125,-103.02734375,18.06640625,67.87109375,-38.0859375,0.0
442.234375,-8.7890625,-102.5390625,12.6953125,61.5234375,11.23046875,0.0
442.23828125,-20.01953125,-82.03125,13.671875,53.7109375,-26.85546875,0.0
442.2421875,-11.23046875,-66.40625,19.04296875,47.8515625,-66.40625,0.0
442.24609375,-8.7890625,-66.40625,8.7890625,49.8046875,-86.42578125,0.0
442.25,-5.859375,-80.078125,-4.8828125,45.41015625,-78.125,0.0
442.25390625,-16.6015625,-95.703125,14.16015625,23.4375,-83.984375,0.0
442.2578125,-28.80859375,-101.5625,20.99609375,21.97265625,-86.42578125,0.0
442.26171875,-30.2734375,-94.23828125,7.8125,34.1796875,-41.9921875,0.0
442.265625,-49.8046875,-84.9609375,1.953125,18.06640625,-5.859375,0.0
442.26953125,-49.31640625,-80.56640625,0.0,7.8125,-14.16015625,0.0
442.2734375,-28.3203125,-70.3125,1.46484375,18.06640625,3.41796875,0.0
442.27734375,-19.53125,-53.7109375,11.23046875,19.04296875,24.4140625,0.0
442.28125,-38.0859375,-47.36328125,11.23046875,7.32421875,-27.83203125,0.0
442.28515625,-51.7578125,-48.33984375,5.859375,0.9765625,-39.55078125,0.0
442.2890625,-43.9453125,-43.9453125,6.8359375,0.0,17.578125,0.0
442.29296875,-42.96875,-52.24609375,-0.9765625,-5.859375,33.69140625,0.0
442.296875,-37.109375,-66.89453125,-0.48828125,-7.32421875,-11.71875,0.0
442.30078125,-35.15625,-60.05859375,1.953125,-10.7421875,21.484375,0.0
442.3046875,-35.15625,-47.36328125,-9.27734375,-9.27734375,-1.46484375,0.0
442.30859375,-13.18359375,-50.78125,-14.6484375,-8.7890625,-55.6640625,0.0
442.3125,-27.34375,-50.78125,-8.30078125,-15.625,-35.64453125,0.0
442.31640625,-55.6640625,-27.34375,0.48828125,-9.27734375,-96.6796875,0.0
442.3203125,-33.69140625,-20.5078125,0.9765625,-5.37109375,-115.72265625,0.0
442.32421875,-21.97265625,-31.25,-2.44140625,-13.18359375,-50.78125,0.0
442.328125,-33.69140625,-31.73828125,-5.859375,-17.08984375,-14.6484375,0.0
442.33203125,-29.296875,-39.55078125,-10.25390625,-15.625,11.71875,0.0
442.3359375,-20.01953125,-21.97265625,-7.32421875,-13.18359375,27.83203125,0.0
442.33984375,-22.94921875,-13.18359375,-19.04296875,-17.578125,5.37109375,0.0
442.34375,-35.64453125,-31.73828125,-28.3203125,-23.4375,-84.47265625,0.0
442.34765625,-41.9921875,-47.36328125,-28.80859375,-18.5546875,-69.82421875,0.0
442.3515625,-16.6015625,-54.19921875,-28.3203125,-8.7890625,-41.015625,0.0
442.35546875,-11.23046875,-55.17578125,-24.4140625,-20.99609375,-53.22265625,0.0
442.359375,-36.62109375,-56.15234375,-23.92578125,-39.0625,6.8359375,0.0
442.36328125,-25.87890625,-46.875,-22.4609375,-32.2265625,-5.859375,0.0
442.3671875,-32.2265625,-45.8984375,-24.90234375,-24.90234375,-66.40625,0.0
442.37109375,-43.45703125,-47.36328125,-23.92578125,-19.53125,-49.8046875,0.0
442.375,-21.97265625,-38.0859375,-14.16015625,-12.20703125,-37.59765625,0.0
442.37890625,-27.83203125,-12.6953125,-5.37109375,-16.11328125,-48.828125,0.0
442.3828125,-25.390625,-4.39453125,0.48828125,-12.20703125,-97.65625,0.0
442.38671875,-21.484375,-28.3203125,-13.18359375,-20.5078125,-120.1171875,0.0
442.390625,-21.484375,-41.015625,-29.78515625,-36.1328125,-4.39453125,0.0
442.39453125,-29.78515625,-37.109375,-37.59765625,-19.04296875,114.74609375,0.0
442.3984375,-45.8984375,-38.0859375,-44.921875,-5.859375,44.43359375,0.0
442.40234375,-45.8984375,-42.48046875,-41.9921875,-30.2734375,-74.21875,0.0
442.40625,-37.59765625,-34.1796875,-36.1328125,-37.59765625,-20.5078125,0.0
442.41015625,-33.69140625,-30.76171875,-26.3671875,-29.296875,-20.5078125,0.0
442.4140625,-34.1796875,-25.87890625,-23.4375,-37.109375,-13.18359375,0.0
442.41796875,-26.3671875,-26.85546875,-20.99609375,-42.96875,-3.90625,0.0
442.421875,-24.90234375,-22.4609375,-9.27734375,-27.83203125,-61.5234375,0.0
442.42578125,-20.01953125,-7.8125,-13.18359375,-15.13671875,-59.08203125,0.0
442.4296875,-28.80859375,-5.859375,-29.296875,-14.16015625,-12.6953125,0.0
442.43359375,-35.64453125,-7.32421875,-37.59765625,-25.87890625,17.578125,0.0
442.4375,-20.99609375,-14.6484375,-30.2734375,-44.921875,3.90625,0.0
442.44140625,-18.06640625,-26.85546875,-29.78515625,-31.25,-7.8125,0.0
442.4453125,-8.7890625,-23.92578125,-29.78515625,-15.625,-40.0390625,0.0
442.44921875,-21.484375,-29.296875,-25.390625,-30.2734375,-84.47265625,0.0
442.453125,-34.1796875,-39.55078125,-19.53125,-29.296875,-70.3125,0.0
442.45703125,-26.85546875,-27.83203125,-9.765625,-4.8828125,-26.85546875,0.0
442.4609375,-21.484375,-32.2265625,-9.27734375,-5.859375,-43.45703125,0.0
442.46484375,-2.44140625,-48.33984375,-17.578125,-20.5078125,-92.7734375,0.0
442.46875,-20.99609375,-52.24609375,-19.53125,-17.578125,-12.20703125,0.0
442.47265625,-52.734375,-53.7109375,-18.06640625,-25.390625,4.39453125,0.0
442.4765625,-51.26953125,-30.76171875,-14.6484375,-26.3671875,-72.265625,0.0
442.48046875,-41.50390625,-8.7890625,-17.578125,-22.94921875,5.859375,0.0
442.484375,-34.66796875,-15.625,-30.2734375,-29.296875,81.54296875,0.0
442.48828125,-21.484375,-36.1328125,-33.69140625,-39.0625,56.15234375,0.0
442.4921875,-16.6015625,-37.109375,-33.203125,-35.64453125,27.83203125,0.0
442.49609375,-24.90234375,-20.01953125,-38.57421875,-26.3671875,-78.125,0.0
442.5,-22.4609375,-9.27734375,-27.34375,-25.87890625,-164.0625,0.0
442.50390625,-15.625,-15.13671875,-20.01953125,-40.0390625,-147.4609375,0.0
442.5078125,-19.04296875,-41.50390625,-32.71484375,-45.8984375,-95.21484375,0.0
442.51171875,-27.83203125,-64.453125,-37.109375,-37.59765625,-0.48828125,0.0
442.515625,-26.3671875,-51.26953125,-35.15625,-33.69140625,3.90625,0.0
442.51953125,-17.08984375,-27.83203125,-26.3671875,-30.76171875,0.48828125,0.0
442.5234375,-18.06640625,-15.625,-22.94921875,-24.90234375,-10.25390625,0.0
442.52734375,-26.3671875,-24.90234375,-37.109375,-28.3203125,-24.4140625,0.0
442.53125,-43.9453125,-38.0859375,-32.71484375,-39.0625,43.9453125,0.0
442.53515625,-51.7578125,-48.33984375,-20.01953125,-50.78125,77.1484375,0.0
442.5390625,-41.9921875,-63.4765625,-22.94921875,-56.15234375,-1.953125,0.0
442.54296875,-36.1328125,-62.01171875,-32.2265625,-52.24609375,-33.69140625,0.0
442.546875,-39.55078125,-51.26953125,-36.62109375,-46.38671875,1.953125,0.0
442.55078125,-52.24609375,-50.78125,-44.921875,-38.0859375,-16.6015625,0.0
442.5546875,-41.50390625,-45.8984375,-41.50390625,-21.97265625,6.34765625,0.0
442.55859375,-18.5546875,-34.66796875,-26.3671875,-16.6015625,3.90625,0.0
442.5625,-8.30078125,-21.484375,-22.94921875,-23.92578125,-76.171875,0.0
442.56640625,-20.5078125,-29.296875,-28.3203125,-32.2265625,-43.45703125,0.0
442.5703125,-33.69140625,-45.41015625,-32.2265625,-47.36328125,-61.5234375,0.0
442.57421875,-37.59765625,-32.2265625,-31.25,-53.22265625,-105.95703125,0.0
442.578125,-41.015625,-24.4140625,-28.80859375,-31.25,-40.0390625,0.0
442.58203125,-37.59765625,-24.90234375,-23.92578125,-31.25,-37.109375,0.0
442.5859375,-39.0625,-40.0390625,-22.94921875,-35.15625,-37.59765625,0.0
442.58984375,-38.0859375,-49.8046875,-14.16015625,-24.90234375,-40.0390625,0.0
442.59375,-29.78515625,-25.390625,-11.23046875,-33.203125,-65.4296875,0.0
442.59765625,-39.0625,-18.06640625,-30.76171875,-40.0390625,-60.546875,0.0
442.6015625,-58.59375,-32.2265625,-42.48046875,-40.0390625,-14.16015625,0.0
442.60546875,-55.17578125,-40.0390625,-41.50390625,-44.43359375,14.16015625,0.0
442.609375,-40.0390625,-41.9921875,-36.62109375,-47.8515625,-46.38671875,0.0
442.61328125,-35.15625,-38.57421875,-31.73828125,-43.9453125,-63.96484375,0.0
442.6171875,-39.0625,-30.76171875,-32.71484375,-49.8046875,14.6484375,0.0
442.62109375,-31.73828125,-31.25,-19.53125,-51.7578125,5.859375,0.0
442.625,-21.97265625,-31.25,-11.23046875,-33.69140625,-53.22265625,0.0
442.62890625,-44.43359375,-52.734375,-27.34375,-35.15625,-83.984375,0.0
442.6328125,-54.6875,-75.68359375,-33.69140625,-44.921875,-111.81640625,0.0
442.63671875,-42.96875,-54.6875,-29.296875,-27.83203125,-97.65625,0.0
442.640625,-50.29296875,-24.4140625,-32.2265625,-20.5078125,-111.328125,0.0
442.64453125,-41.50390625,-19.53125,-26.3671875,-23.4375,-94.23828125,0.0
442.6484375,-22.94921875,-34.66796875,-27.83203125,-32.71484375,-108.88671875,0.0
442.65234375,-26.85546875,-50.78125,-41.9921875,-31.73828125,-182.12890625,0.0
442.65625,-21.97265625,-39.0625,-46.38671875,-6.34765625,-98.6328125,0.0
442.66015625,-16.6015625,-26.85546875,-41.015625,-10.7421875,13.671875,0.0
442.6640625,-27.83203125,-41.9921875,-26.85546875,-39.55078125,-0.9765625,0.0
442.66796875,-51.26953125,-65.4296875,-20.99609375,-44.43359375,10.25390625,0.0
442.671875,-64.453125,-69.82421875,-18.06640625,-42.48046875,47.8515625,0.0
442.67578125,-68.84765625,-68.84765625,-9.27734375,-44.43359375,80.078125,0.0
442.6796875,-58.10546875,-67.3828125,-3.90625,-38.0859375,92.28515625,0.0
442.68359375,-52.24609375,-58.10546875,-0.48828125,-41.50390625,41.015625,0.0
442.6875,-59.5703125,-58.59375,0.0,-40.0390625,4.39453125,0.0
442.69140625,-58.10546875,-68.84765625,0.9765625,-39.0625,-71.77734375,0.0
442.6953125,-64.453125,-76.66015625,-1.46484375,-49.31640625,-99.609375,0.0
442.69921875,-78.61328125,-81.54296875,5.859375,-40.52734375,-38.57421875,0.0
442.703125,-103.02734375,-82.03125,12.20703125,-31.25,-19.53125,0.0
442.70703125,-116.69921875,-87.40234375,14.6484375,-43.9453125,-102.5390625,0.0
442.7109375,-95.703125,-83.984375,28.80859375,-58.59375,-104.00390625,0.0
442.71484375,-87.890625,-80.56640625,30.76171875,-62.01171875,-28.3203125,0.0
442.71875,-99.12109375,-71.2890625,27.83203125,-51.7578125,62.5,0.0
442.72265625,-99.12109375,-63.4765625,13.671875,-46.38671875,30.76171875,0.0
442.7265625,-74.70703125,-62.98828125,8.30078125,-40.0390625,-113.28125,0.0
442.73046875,-47.36328125,-81.54296875,0.9765625,-32.71484375,-146.484375,0.0
442.734375,-66.40625,-91.30859375,-26.85546875,-37.59765625,-75.68359375,0.0
442.73828125,-64.94140625,-83.0078125,-33.203125,-39.0625,-24.90234375,0.0
442.7421875,-51.7578125,-73.73046875,-15.13671875,-38.57421875,7.32421875,0.0
442.74609375,-63.4765625,-78.61328125,0.48828125,-42.48046875,27.34375,0.0
442.75,-61.5234375,-77.1484375,2.9296875,-48.828125,56.640625,0.0
442.75390625,-47.36328125,-57.6171875,-0.48828125,-49.8046875,82.03125,0.0
442.7578125,-48.828125,-53.7109375,0.9765625,-54.19921875,-1.953125,0.0
442.76171875,-63.96484375,-53.22265625,3.41796875,-49.31640625,-47.36328125,0.0
442.765625,-61.03515625,-62.98828125,7.32421875,-44.921875,-14.16015625,0.0
442.76953125,-55.6640625,-79.58984375,-7.8125,-58.10546875,-1.953125,0.0
442.7734375,-49.31640625,-77.1484375,-21.97265625,-52.24609375,-26.85546875,0.0
442.77734375,-45.8984375,-53.7109375,-10.25390625,-40.52734375,-29.78515625,0.0
442.78125,-61.5234375,-35.15625,-6.34765625,-47.8515625,-4.39453125,0.0
442.78515625,-52.734375,-44.43359375,-10.25390625,-52.24609375,-26.85546875,0.0
442.7890625,-49.31640625,-52.734375,-20.5078125,-43.9453125,24.90234375,0.0
442.79296875,-54.6875,-50.29296875,-24.90234375,-23.92578125,25.390625,0.0
442.796875,-50.78125,-45.8984375,-18.5546875,-36.1328125,-64.453125,0.0
442.80078125,-46.875,-49.31640625,-15.625,-44.921875,-61.03515625,0.0
442.8046875,-33.69140625,-34.1796875,-13.18359375,-32.2265625,-62.01171875,0.0
442.80859375,-22.4609375,-19.04296875,-4.39453125,-19.53125,-86.9140625,0.0
442.8125,-3.90625,-33.203125,4.39453125,-15.625,-55.17578125,0.0
442.81640625,-27.83203125,-59.5703125,-8.30078125,-24.4140625,-59.08203125,0.0
442.8203125,-66.40625,-73.2421875,-18.5546875,-22.4609375,-60.546875,0.0
442.82421875,-55.17578125,-60.546875,-25.390625,-33.69140625,-62.01171875,0.0
442.828125,-47.36328125,-47.36328125,-28.80859375,-55.6640625,15.625,0.0
442.83203125,-48.828125,-47.36328125,-10.7421875,-34.1796875,73.73046875,0.0
442.8359375,-32.2265625,-40.52734375,-11.23046875,-23.92578125,-43.45703125,0.0
442.83984375,-28.80859375,-28.80859375,-25.390625,-38.0859375,-79.58984375,0.0
442.84375,-35.64453125,-36.62109375,-33.69140625,-37.59765625,13.671875,0.0
442.84765625,-40.52734375,-50.29296875,-31.25,-29.296875,32.71484375,0.0
442.8515625,-47.36328125,-36.1328125,-22.4609375,-36.1328125,-0.48828125,0.0
442.85546875,-29.78515625,-24.90234375,-18.06640625,-45.8984375,-62.5,0.0
442.859375,-23.92578125,-33.69140625,-13.671875,-24.4140625,-73.73046875,0.0
442.86328125,-31.73828125,-43.45703125,-15.625,-20.5078125,-71.77734375,0.0
442.8671875,-29.296875,-61.5234375,-28.80859375,-39.55078125,-53.7109375,0.0
442.87109375,-36.1328125,-69.82421875,-38.57421875,-45.8984375,-12.6953125,0.0
442.875,-34.1796875,-64.453125,-29.296875,-46.38671875,-92.7734375,0.0
442.87890625,-25.87890625,-52.734375,-25.390625,-41.50390625,-76.171875,0.0
442.8828125,-45.8984375,-36.62109375,-29.296875,-35.15625,-95.21484375,0.0
442.88671875,-67.87109375,-38.57421875,-23.4375,-35.64453125,-44.43359375,0.0
442.890625,-60.546875,-51.26953125,-23.92578125,-56.15234375,76.66015625,0.0
442.89453125,-49.8046875,-46.38671875,-27.83203125,-56.640625,49.31640625,0.0
442.8984375,-36.62109375,-29.296875,-27.83203125,-36.1328125,67.3828125,0.0
442.90234375,-18.5546875,-23.92578125,-24.90234375,-31.73828125,118.1640625,0.0
442.90625,-26.85546875,-41.50390625,-27.83203125,-32.2265625,91.796875,0.0
442.91015625,-36.1328125,-62.98828125,-26.3671875,-36.62109375,22.94921875,0.0
442.9140625,-39.0625,-59.08203125,-23.92578125,-43.45703125,59.5703125,0.0
442.91796875,-39.0625,-41.9921875,-28.80859375,-39.55078125,51.26953125,0.0
442.921875,-30.2734375,-37.109375,-20.99609375,-37.109375,10.7421875,0.0
442.92578125,-34.1796875,-41.50390625,-19.53125,-41.015625,-57.6171875,0.0
442.9296875,-47.8515625,-43.9453125,-25.87890625,-34.66796875,-154.296875,0.0
442.93359375,-54.6875,-46.38671875,-33.203125,-32.71484375,-94.23828125,0.0
442.9375,-41.9921875,-41.50390625,-33.69140625,-38.57421875,-22.94921875,0.0
442.94140625,-25.87890625,-33.203125,-19.53125,-43.45703125,2.44140625,0.0
442.9453125,-37.109375,-22.4609375,-21.97265625,-43.45703125,17.08984375,0.0
442.94921875,-35.64453125,-34.1796875,-40.52734375,-42.96875,-10.7421875,0.0
442.953125,-33.203125,-50.29296875,-45.8984375,-45.8984375,-69.82421875,0.0
442.95703125,-45.8984375,-44.43359375,-34.66796875,-55.6640625,-35.15625,0.0
442.9609375,-41.015625,-46.875,-35.15625,-41.50390625,52.24609375,0.0
442.96484375,-42.96875,-61.03515625,-44.43359375,-26.85546875,41.015625,0.0
442.96875,-46.38671875,-61.03515625,-39.55078125,-40.52734375,-40.0390625,0.0
442.97265625,-54.19921875,-58.59375,-28.80859375,-48.828125,-52.734375,0.0
442.9765625,-43.45703125,-45.41015625,-25.390625,-34.66796875,-78.125,0.0
442.98046875,-30.76171875,-37.109375,-22.4609375,-32.2265625,-171.38671875,0.0
442.984375,-48.828125,-42.48046875,-24.90234375,-46.38671875,-133.7890625,0.0
442.98828125,-48.828125,-38.0859375,-40.52734375,-52.24609375,-17.578125,0.0
442.9921875,-43.9453125,-27.83203125,-44.43359375,-50.78125,6.8359375,0.0
442.99609375,-45.41015625,-23.92578125,-33.203125,-46.875,-52.734375,0.0
443.0,-26.85546875,-7.32421875,-20.01953125,-32.2265625,-72.265625,0.0
443.00390625,-18.06640625,-12.20703125,-26.85546875,-30.2734375,-34.66796875,0.0
443.0078125,-38.57421875,-45.41015625,-50.29296875,-49.8046875,-52.24609375,0.0
443.01171875,-40.52734375,-56.640625,-57.6171875,-61.5234375,-78.125,0.0
443.015625,-22.94921875,-35.15625,-43.9453125,-40.52734375,-22.4609375,0.0
443.01953125,-9.27734375,-26.3671875,-40.0390625,-12.20703125,-53.7109375,0.0
443.0234375,-14.6484375,-26.85546875,-37.109375,-5.859375,-101.5625,0.0
443.02734375,-20.01953125,-22.4609375,-26.85546875,-15.13671875,10.7421875,0.0
443.03125,-12.20703125,-26.85546875,-31.73828125,-23.4375,76.171875,0.0
443.03515625,-18.06640625,-39.0625,-46.875,-27.83203125,73.73046875,0.0
443.0390625,-25.390625,-32.71484375,-42.48046875,-30.76171875,30.76171875,0.0
443.04296875,-20.99609375,-17.578125,-29.78515625,-26.3671875,-50.29296875,0.0
443.046875,-11.23046875,-24.90234375,-32.2265625,-19.53125,-24.90234375,0.0
443.05078125,-8.7890625,-26.3671875,-38.57421875,-18.5546875,-23.4375,0.0
443.0546875,-21.484375,-26.3671875,-34.66796875,-19.53125,-46.875,0.0
443.05859375,-12.6953125,-16.6015625,-30.2734375,-13.18359375,-43.45703125,0.0
443.0625,-12.20703125,-15.625,-26.85546875,-11.71875,-79.1015625,0.0
443.06640625,-23.92578125,-26.85546875,-31.25,-26.3671875,-41.015625,0.0
443.0703125,-15.13671875,-31.25,-44.43359375,-24.90234375,-27.34375,0.0
443.07421875,-12.6953125,-36.62109375,-37.109375,-22.94921875,-63.4765625,0.0
443.078125,-12.6953125,-17.578125,-32.71484375,-21.97265625,7.8125,0.0
443.08203125,-23.92578125,-5.37109375,-33.69140625,-23.92578125,-12.6953125,0.0
443.0859375,-20.99609375,-6.34765625,-35.64453125,-26.85546875,-15.13671875,0.0
443.08984375,-6.8359375,-21.97265625,-59.5703125,-21.97265625,62.98828125,0.0
443.09375,-11.23046875,-36.1328125,-62.01171875,-21.484375,10.25390625,0.0
443.09765625,-20.5078125,-28.80859375,-36.62109375,-19.53125,4.39453125,0.0
443.1015625,-8.7890625,-35.64453125,-34.66796875,-33.203125,12.20703125,0.0
443.10546875,-6.8359375,-60.05859375,-49.31640625,-38.0859375,-74.70703125,0.0
443.109375,-25.87890625,-49.31640625,-55.6640625,-37.109375,-64.94140625,0.0
443.11328125,-33.203125,-28.80859375,-45.41015625,-44.43359375,2.9296875,0.0
443.1171875,-35.15625,-37.59765625,-40.0390625,-35.64453125,-42.96875,0.0
443.12109375,-28.80859375,-45.41015625,-42.96875,-35.15625,-116.2109375,0.0
443.125,-21.97265625,-44.921875,-38.0859375,-45.41015625,3.90625,0.0
443.12890625,-18.06640625,-50.78125,-38.0859375,-36.62109375,80.078125,0.0
443.1328125,-32.71484375,-42.96875,-35.64453125,-32.2265625,-6.34765625,0.0
443.13671875,-41.50390625,-25.87890625,-26.85546875,-39.0625,-17.08984375,0.0
443.140625,-48.33984375,-31.73828125,-37.109375,-47.36328125,2.44140625,0.0
443.14453125,-41.50390625,-44.43359375,-43.45703125,-61.5234375,-27.83203125,0.0
443.1484375,-39.55078125,-49.8046875,-39.0625,-58.10546875,-36.62109375,0.0
443.15234375,-50.29296875,-46.875,-33.203125,-64.94140625,3.90625,0.0
443.15625,-46.875,-34.1796875,-25.390625,-66.40625,51.7578125,0.0
443.16015625,-24.90234375,-28.3203125,-24.4140625,-45.8984375,-1.953125,0.0
443.1640625,-16.11328125,-38.0859375,-34.1796875,-40.0390625,5.859375,0.0
443.16796875,-20.5078125,-56.640625,-39.0625,-43.9453125,73.73046875,0.0
443.171875,-4.8828125,-52.24609375,-35.15625,-43.45703125,20.01953125,0.0
443.17578125,-19.53125,-40.52734375,-40.52734375,-30.2734375,25.87890625,0.0
443.1796875,-37.109375,-28.3203125,-33.203125,-24.90234375,29.296875,0.0
443.18359375,-36.62109375,-14.16015625,-18.06640625,-29.296875,-41.9921875,0.0
443.1875,-38.0859375,-19.04296875,-25.390625,-39.0625,10.7421875,0.0
443.19140625,-33.69140625,-36.1328125,-42.96875,-44.921875,31.25,0.0
443.1953125,-33.203125,-46.875,-35.64453125,-28.3203125,-65.4296875,0.0
443.19921875,-34.1796875,-36.1328125,-34.66796875,-23.92578125,-100.5859375,0.0
443.203125,-22.94921875,-18.06640625,-46.875,-30.2734375,-128.41796875,0.0
443.20703125,-23.92578125,-22.4609375,-50.29296875,-31.25,-99.609375,0.0
443.2109375,-34.66796875,-35.15625,-53.22265625,-26.3671875,-31.25,0.0
443.21484375,-27.34375,-37.59765625,-44.921875,-19.04296875,4.8828125,0.0
443.21875,-13.18359375,-32.2265625,-38.0859375,-22.4609375,57.12890625,0.0
443.22265625,-9.27734375,-29.78515625,-38.57421875,-20.01953125,1.953125,0.0
443.2265625,-10.25390625,-32.2265625,-42.96875,-10.25390625,-83.984375,0.0
443.23046875,-13.671875,-30.76171875,-44.43359375,-9.27734375,-88.8671875,0.0
