timestamp,TP9,AF7,AF8,TP10,AUX,Marker,
2.00390625,-3.90625,59.5703125,-14.6484375,-10.7421875,-91.30859375,0.0
2.0078125,-1.46484375,18.5546875,-12.6953125,-3.90625,-49.8046875,0.0
2.01171875,5.37109375,-12.20703125,-10.7421875,-14.6484375,-8.7890625,0.0
2.015625,-9.27734375,-25.390625,-26.3671875,-27.34375,28.3203125,0.0
2.01953125,-27.83203125,19.04296875,-32.71484375,-40.52734375,89.84375,0.0
2.0234375,-27.34375,52.734375,-30.76171875,-37.59765625,0.48828125,0.0
2.02734375,-18.5546875,37.59765625,-40.0390625,-28.80859375,-36.1328125,0.0
2.03125,-1.46484375,66.40625,-43.45703125,-17.578125,110.83984375,0.0
2.03515625,2.44140625,30.2734375,-32.71484375,-13.671875,50.29296875,0.0
2.0390625,-6.8359375,40.0390625,-26.3671875,-20.5078125,-35.15625,0.0
2.04296875,-18.5546875,99.609375,-30.2734375,-32.2265625,27.34375,0.0
2.046875,-30.76171875,112.3046875,-35.15625,-37.109375,7.32421875,0.0
2.05078125,-27.83203125,61.5234375,-33.203125,-30.2734375,3.41796875,0.0
2.0546875,6.34765625,47.36328125,-39.0625,-31.25,22.4609375,0.0
2.05859375,-7.8125,25.390625,-46.875,-40.0390625,-62.01171875,0.0
2.0625,-19.04296875,-6.34765625,-39.55078125,-18.06640625,-70.80078125,0.0
2.06640625,-8.7890625,45.8984375,-32.71484375,-13.18359375,-32.2265625,0.0
2.0703125,4.39453125,91.30859375,-30.2734375,-10.25390625,-23.4375,0.0
2.07421875,10.7421875,100.5859375,-33.69140625,4.8828125,-7.8125,0.0
2.078125,27.34375,100.5859375,-34.66796875,-8.30078125,30.76171875,0.0
2.08203125,20.5078125,46.875,-22.4609375,-28.3203125,35.64453125,0.0
2.0859375,-25.87890625,78.125,-18.06640625,-27.34375,7.8125,0.0
2.08984375,-12.20703125,119.62890625,-21.97265625,-17.578125,-40.0390625,0.0
2.09375,1.46484375,145.5078125,-23.92578125,-18.06640625,-39.0625,0.0
2.09765625,10.7421875,142.08984375,-19.53125,-4.8828125,2.9296875,0.0
2.1015625,5.859375,83.0078125,-19.53125,-16.11328125,-18.5546875,0.0
2.10546875,-15.13671875,86.9140625,-14.16015625,-20.01953125,54.6875,0.0
2.109375,-0.48828125,80.078125,-5.37109375,11.23046875,193.359375,0.0
2.11328125,7.32421875,30.76171875,-4.39453125,10.25390625,107.421875,0.0
2.1171875,8.7890625,39.0625,-12.20703125,-3.90625,-50.29296875,0.0
2.12109375,-4.39453125,54.19921875,-19.04296875,-1.953125,-120.60546875,0.0
2.125,-10.7421875,57.12890625,-16.11328125,-13.671875,-49.31640625,0.0
2.12890625,5.859375,90.33203125,-11.71875,-27.83203125,5.859375,0.0
2.1328125,27.83203125,100.09765625,-20.99609375,-20.99609375,-145.99609375,0.0
2.13671875,20.99609375,58.10546875,-21.97265625,-1.46484375,-197.75390625,0.0
2.140625,-9.27734375,106.93359375,-3.90625,-4.8828125,-44.43359375,0.0
2.14453125,0.0,118.65234375,0.0,-7.32421875,38.57421875,0.0
2.1484375,9.765625,48.828125,-4.39453125,-5.37109375,-52.734375,0.0
2.15234375,14.16015625,72.265625,2.44140625,8.7890625,-57.6171875,0.0
2.15625,22.94921875,79.1015625,0.0,-2.44140625,14.16015625,0.0
2.16015625,6.34765625,76.171875,-1.953125,-6.34765625,56.640625,0.0
2.1640625,-9.27734375,79.58984375,-0.48828125,-1.46484375,29.296875,0.0
2.16796875,-3.41796875,105.95703125,0.9765625,-11.71875,-26.3671875,0.0
2.171875,23.92578125,91.796875,-4.8828125,-5.37109375,-87.40234375,0.0
2.17578125,9.27734375,9.27734375,-16.6015625,-15.13671875,-189.453125,0.0
2.1796875,-36.1328125,38.57421875,-22.4609375,-10.25390625,-137.6953125,0.0
2.18359375,-25.390625,98.14453125,-28.80859375,-25.390625,-33.69140625,0.0
2.1875,-22.94921875,140.625,-27.83203125,-29.296875,-53.7109375,0.0
2.19140625,-26.3671875,138.18359375,-24.90234375,-20.5078125,-104.4921875,0.0
2.1953125,-21.97265625,104.98046875,-27.34375,-14.6484375,-77.63671875,0.0
2.19921875,-23.4375,94.7265625,-30.2734375,-10.25390625,-22.4609375,0.0
2.203125,-24.90234375,41.015625,-23.92578125,-33.69140625,-36.62109375,0.0
2.20703125,-20.99609375,51.26953125,-25.390625,-36.1328125,-59.5703125,0.0
2.2109375,-28.3203125,101.07421875,-39.55078125,-18.5546875,-20.01953125,0.0
2.21484375,-34.1796875,117.67578125,-42.96875,-11.23046875,20.01953125,0.0
2.21875,-33.69140625,96.19140625,-43.45703125,-21.97265625,15.625,0.0
2.22265625,-38.0859375,86.9140625,-42.96875,-37.109375,-42.96875,0.0
2.2265625,-32.71484375,120.1171875,-37.59765625,-41.015625,-76.171875,0.0
2.23046875,-27.83203125,152.83203125,-43.45703125,-36.62109375,-84.9609375,0.0
2.234375,-9.765625,175.29296875,-37.59765625,-17.578125,-125.0,0.0
2.23828125,-33.69140625,140.13671875,-30.76171875,-10.7421875,-59.5703125,0.0
2.2421875,-31.73828125,160.15625,-39.0625,-20.5078125,5.37109375,0.0
2.24609375,-23.92578125,187.98828125,-38.57421875,-30.2734375,57.6171875,0.0
2.25,-31.25,135.25390625,-35.64453125,-21.97265625,75.68359375,0.0
2.25390625,-24.4140625,137.6953125,-36.62109375,-5.859375,-27.83203125,0.0
2.2578125,-29.78515625,135.25390625,-42.48046875,-12.6953125,-99.609375,0.0
2.26171875,-28.3203125,125.0,-47.36328125,-29.296875,-59.5703125,0.0
2.265625,-25.87890625,130.859375,-45.8984375,-36.62109375,-24.4140625,0.0
2.26953125,-25.87890625,133.30078125,-43.45703125,-37.59765625,7.32421875,0.0
2.2734375,-25.87890625,164.0625,-43.9453125,-34.1796875,114.2578125,0.0
2.27734375,-16.11328125,136.71875,-46.38671875,-24.4140625,22.94921875,0.0
2.28125,-34.66796875,142.08984375,-51.7578125,-13.671875,-145.01953125,0.0
2.28515625,-49.8046875,183.59375,-39.55078125,-18.5546875,-110.83984375,0.0
2.2890625,-18.5546875,173.828125,-31.25,-15.13671875,-78.61328125,0.0
2.29296875,-24.4140625,122.55859375,-43.45703125,-25.390625,-35.64453125,0.0
2.296875,-32.2265625,110.3515625,-42.96875,-38.57421875,-60.546875,0.0
2.30078125,-27.83203125,128.41796875,-42.48046875,-33.203125,-123.046875,0.0
2.3046875,-32.71484375,126.953125,-41.50390625,-36.1328125,-72.265625,0.0
2.30859375,-19.04296875,171.875,-34.1796875,-25.87890625,-49.31640625,0.0
2.3125,-8.7890625,188.96484375,-32.2265625,-7.32421875,11.23046875,0.0
2.31640625,-26.3671875,116.2109375,-39.55078125,-20.5078125,3.90625,0.0
2.3203125,-24.4140625,127.44140625,-43.9453125,-23.4375,-36.1328125,0.0
2.32421875,-19.04296875,199.21875,-38.57421875,-21.97265625,24.4140625,0.0
2.328125,-45.41015625,188.4765625,-39.55078125,-40.0390625,5.859375,0.0
2.33203125,-35.15625,145.99609375,-41.9921875,-26.3671875,-30.76171875,0.0
2.3359375,-32.71484375,133.30078125,-41.9921875,-4.8828125,-21.484375,0.0
2.33984375,-32.2265625,118.65234375,-45.8984375,-18.06640625,-12.6953125,0.0
2.34375,-29.78515625,98.14453125,-51.7578125,-54.6875,-13.671875,0.0
2.34765625,-34.1796875,133.30078125,-49.8046875,-39.0625,-11.23046875,0.0
2.3515625,-22.4609375,201.66015625,-49.31640625,-34.66796875,-26.3671875,0.0
2.35546875,-20.01953125,170.8984375,-68.359375,-36.62109375,-93.26171875,0.0
2.359375,-24.4140625,109.375,-79.58984375,-26.85546875,-128.41796875,0.0
2.36328125,-31.73828125,129.8828125,-90.8203125,-32.71484375,-88.8671875,0.0
2.3671875,-4.39453125,181.640625,-95.21484375,-37.109375,-4.8828125,0.0
2.37109375,-3.41796875,159.66796875,-89.35546875,-62.01171875,-29.78515625,0.0
2.375,-18.06640625,148.4375,-94.7265625,-64.453125,-67.87109375,0.0
2.37890625,-14.16015625,154.296875,-109.86328125,-59.5703125,-66.40625,0.0
2.3828125,-6.34765625,130.37109375,-112.3046875,-52.734375,-54.19921875,0.0
2.38671875,-3.41796875,116.2109375,-102.05078125,-47.8515625,-28.80859375,0.0
2.390625,1.46484375,116.69921875,-94.7265625,-39.0625,-48.33984375,0.0
2.39453125,12.6953125,93.75,-89.84375,-28.3203125,-55.6640625,0.0
2.3984375,13.18359375,117.67578125,-86.9140625,-28.80859375,-64.453125,0.0
2.40234375,-13.671875,132.32421875,-85.44921875,-30.2734375,-20.5078125,0.0
2.40625,-29.78515625,141.6015625,-78.61328125,-37.59765625,-44.921875,0.0
2.41015625,-7.32421875,177.24609375,-64.453125,-33.69140625,-59.5703125,0.0
2.4140625,4.8828125,163.57421875,-62.98828125,-27.34375,53.22265625,0.0
2.41796875,7.32421875,134.765625,-67.87109375,-33.203125,-10.7421875,0.0
2.421875,15.625,166.50390625,-65.91796875,-39.0625,-100.09765625,0.0
2.42578125,9.765625,154.78515625,-65.4296875,-25.87890625,-63.4765625,0.0
2.4296875,-7.8125,124.0234375,-61.03515625,-25.390625,-44.921875,0.0
2.43359375,-2.44140625,127.44140625,-54.19921875,-20.99609375,-60.546875,0.0
2.4375,1.953125,119.62890625,-52.24609375,-11.71875,-44.921875,0.0
2.44140625,-4.8828125,124.51171875,-50.29296875,-23.4375,-23.92578125,0.0
2.4453125,-4.39453125,161.1328125,-46.875,-36.62109375,-94.23828125,0.0
2.44921875,2.9296875,164.0625,-41.50390625,-34.66796875,-59.5703125,0.0
2.453125,-4.8828125,162.109375,-42.96875,-28.3203125,37.59765625,0.0
2.45703125,-19.04296875,151.3671875,-41.50390625,-36.1328125,44.43359375,0.0
2.4609375,-20.5078125,78.125,-37.59765625,-42.48046875,-20.5078125,0.0
2.46484375,-20.5078125,48.33984375,-44.921875,-30.2734375,-14.6484375,0.0
2.46875,-16.6015625,100.5859375,-35.15625,-14.16015625,-52.24609375,0.0
2.47265625,-11.71875,137.20703125,-23.92578125,-13.671875,-88.8671875,0.0
2.4765625,-23.92578125,141.11328125,-28.80859375,-20.99609375,9.765625,0.0
2.48046875,-18.06640625,113.76953125,-26.85546875,-22.4609375,62.98828125,0.0
2.484375,-11.23046875,124.51171875,-34.1796875,-27.83203125,138.671875,0.0
2.48828125,-3.41796875,116.69921875,-36.1328125,-19.04296875,31.25,0.0
2.4921875,9.765625,146.484375,-26.3671875,-11.23046875,-44.921875,0.0
2.49609375,-8.7890625,148.92578125,-30.2734375,-0.9765625,24.90234375,0.0
2.5,-34.1796875,81.0546875,-41.015625,-5.37109375,57.12890625,0.0
2.50390625,-23.4375,75.1953125,-42.96875,-36.1328125,15.625,0.0
2.5078125,4.8828125,98.14453125,-37.59765625,-25.87890625,-55.6640625,0.0
2.51171875,-6.34765625,93.26171875,-35.15625,-22.4609375,-80.56640625,0.0
2.515625,-20.99609375,124.0234375,-38.57421875,-32.71484375,-125.48828125,0.0
2.51953125,-10.25390625,160.15625,-40.0390625,-11.23046875,-119.62890625,0.0
2.5234375,-12.6953125,109.86328125,-36.1328125,-17.578125,-45.8984375,0.0
2.52734375,-15.13671875,66.40625,-29.78515625,-21.484375,0.0,0.0
2.53125,-2.9296875,85.9375,-32.2265625,-15.13671875,-42.48046875,0.0
2.53515625,-1.46484375,94.7265625,-34.1796875,-1.46484375,8.30078125,0.0
2.5390625,-11.71875,80.078125,-35.64453125,-6.8359375,4.8828125,0.0
2.54296875,-14.16015625,92.28515625,-37.109375,-33.203125,-152.83203125,0.0
2.546875,-20.01953125,115.72265625,-36.1328125,-24.90234375,-262.6953125,0.0
2.55078125,-20.5078125,134.27734375,-35.15625,-26.3671875,-236.328125,0.0
2.5546875,-12.20703125,144.04296875,-34.1796875,-22.4609375,-191.40625,0.0
2.55859375,-12.20703125,122.0703125,-33.69140625,-20.5078125,-208.984375,0.0
2.5625,-10.7421875,191.40625,-33.69140625,-18.06640625,-166.9921875,0.0
2.56640625,-3.90625,202.63671875,-36.1328125,-12.6953125,-143.06640625,0.0
2.5703125,-13.18359375,119.62890625,-40.0390625,-29.296875,-190.4296875,0.0
2.57421875,-29.78515625,110.83984375,-39.0625,-26.3671875,-177.24609375,0.0
2.578125,-23.4375,122.55859375,-39.55078125,-9.27734375,-114.2578125,0.0
2.58203125,-25.87890625,80.078125,-42.96875,-18.06640625,-117.1875,0.0
2.5859375,-25.390625,122.55859375,-40.52734375,-42.96875,-105.95703125,0.0
2.58984375,-5.859375,176.7578125,-44.921875,-33.69140625,-49.8046875,0.0
2.59375,-1.953125,144.53125,-48.33984375,-18.06640625,-55.17578125,0.0
2.59765625,-23.92578125,132.8125,-47.8515625,-25.87890625,-55.17578125,0.0
2.6015625,-41.015625,177.24609375,-53.22265625,-21.97265625,-23.92578125,0.0
2.60546875,-20.01953125,207.51953125,-47.8515625,-21.484375,-25.87890625,0.0
2.609375,-17.578125,248.53515625,-41.50390625,-32.71484375,96.6796875,0.0
2.61328125,-20.99609375,211.42578125,-43.9453125,-6.34765625,198.2421875,0.0
2.6171875,-4.39453125,145.99609375,-43.9453125,-6.34765625,85.9375,0.0
2.62109375,-31.25,152.83203125,-40.0390625,-22.4609375,24.90234375,0.0
2.625,-45.41015625,163.57421875,-32.2265625,-17.578125,56.640625,0.0
2.62890625,-16.6015625,171.38671875,-31.73828125,-14.16015625,88.8671875,0.0
2.6328125,-22.94921875,243.1640625,-38.0859375,-5.37109375,84.9609375,0.0
2.63671875,-15.13671875,228.515625,-41.50390625,-11.71875,87.40234375,0.0
2.640625,-15.625,169.921875,-45.41015625,-21.484375,113.28125,0.0
2.64453125,-58.10546875,172.8515625,-40.52734375,-6.8359375,63.96484375,0.0
2.6484375,-29.296875,180.6640625,-14.6484375,6.8359375,69.3359375,0.0
2.65234375,6.8359375,176.7578125,0.0,7.32421875,82.51953125,0.0
2.65625,-41.015625,176.26953125,-39.0625,-50.29296875,58.10546875,0.0
2.66015625,-93.75,174.8046875,-70.3125,-112.3046875,3.90625,0.0
2.6640625,-104.00390625,194.82421875,-63.4765625,-110.3515625,-13.18359375,0.0
2.66796875,-106.93359375,133.30078125,-24.4140625,-103.515625,20.5078125,0.0
2.671875,-111.328125,70.3125,0.0,-126.953125,-12.6953125,0.0
2.67578125,-148.92578125,110.83984375,-44.43359375,-177.734375,6.34765625,0.0
2.6796875,-203.125,180.17578125,-77.1484375,-210.9375,10.7421875,0.0
2.68359375,-216.30859375,196.2890625,-64.453125,-232.421875,6.8359375,0.0
2.6875,-206.54296875,232.91015625,-50.29296875,-235.83984375,0.0,0.0
2.69140625,-239.74609375,237.79296875,-43.9453125,-261.23046875,-8.30078125,0.0
2.6953125,-291.015625,115.72265625,-47.36328125,-312.5,-26.85546875,0.0
2.69921875,-290.0390625,73.2421875,-64.94140625,-332.51953125,-112.3046875,0.0
2.703125,-305.17578125,162.59765625,-81.0546875,-333.49609375,-92.28515625,0.0
2.70703125,-320.80078125,180.6640625,-78.61328125,-343.75,-50.29296875,0.0
2.7109375,-313.96484375,145.01953125,-82.51953125,-343.75,-18.5546875,0.0
2.71484375,-326.171875,131.34765625,-82.51953125,-331.0546875,32.71484375,0.0
2.71875,-316.40625,125.48828125,-76.66015625,-313.96484375,120.1171875,0.0
2.72265625,-285.15625,106.93359375,-70.80078125,-303.22265625,127.9296875,0.0
2.7265625,-272.4609375,114.2578125,-59.5703125,-279.296875,8.7890625,0.0
2.73046875,-214.84375,144.04296875,-48.828125,-222.16796875,-7.32421875,0.0
2.734375,-164.0625,169.921875,-35.15625,-178.22265625,19.04296875,0.0
2.73828125,-140.625,140.13671875,-39.0625,-163.0859375,74.70703125,0.0
2.7421875,-94.7265625,134.765625,-43.9453125,-134.765625,98.14453125,0.0
2.74609375,-95.21484375,116.2109375,-33.69140625,-100.5859375,-33.203125,0.0
2.75,-68.359375,120.60546875,-25.87890625,-65.91796875,-13.671875,0.0
2.75390625,-20.5078125,134.27734375,-33.69140625,-30.76171875,45.41015625,0.0
2.7578125,-6.8359375,136.71875,-38.0859375,-9.765625,-2.44140625,0.0
2.76171875,11.23046875,72.265625,-34.1796875,-7.32421875,-20.01953125,0.0
2.765625,49.31640625,43.9453125,-36.62109375,17.578125,-54.6875,0.0
2.76953125,71.77734375,104.00390625,-32.71484375,57.6171875,-80.56640625,0.0
2.7734375,80.56640625,86.9140625,-32.2265625,62.98828125,-61.5234375,0.0
2.77734375,84.9609375,39.0625,-27.34375,77.1484375,-44.921875,0.0
2.78125,77.1484375,25.390625,-23.4375,77.63671875,-62.98828125,0.0
2.78515625,74.70703125,23.92578125,-17.08984375,79.58984375,-73.2421875,0.0
2.7890625,90.33203125,53.22265625,-7.32421875,98.14453125,-33.203125,0.0
2.79296875,108.3984375,60.546875,-9.765625,104.98046875,-22.4609375,0.0
2.796875,113.28125,60.05859375,-16.6015625,109.86328125,84.47265625,0.0
2.80078125,98.6328125,41.9921875,-21.97265625,94.23828125,62.5,0.0
2.8046875,89.35546875,5.37109375,-23.4375,77.63671875,-37.59765625,0.0
2.80859375,104.98046875,-47.8515625,-20.99609375,87.40234375,-66.40625,0.0
2.8125,110.83984375,-62.5,-31.73828125,85.9375,-108.88671875,0.0
2.81640625,100.09765625,-34.66796875,-44.43359375,79.58984375,-145.01953125,0.0
2.8203125,90.33203125,12.20703125,-45.8984375,83.984375,-97.65625,0.0
2.82421875,64.453125,31.73828125,-41.9921875,78.125,8.30078125,0.0
2.828125,62.5,3.90625,-35.64453125,74.70703125,70.3125,0.0
2.83203125,95.703125,-36.62109375,-42.96875,72.75390625,-7.32421875,0.0
2.8359375,85.44921875,-40.52734375,-50.29296875,68.84765625,-90.8203125,0.0
2.83984375,60.05859375,-42.96875,-36.62109375,70.80078125,-106.4453125,0.0
2.84375,50.29296875,16.11328125,-31.25,68.84765625,-119.140625,0.0
2.84765625,46.875,74.70703125,-22.94921875,58.59375,-48.33984375,0.0
2.8515625,60.05859375,21.484375,-16.6015625,66.89453125,-10.25390625,0.0
2.85546875,71.77734375,-47.8515625,-33.203125,62.98828125,-28.3203125,0.0
2.859375,61.03515625,-68.84765625,-42.96875,52.24609375,16.11328125,0.0
2.86328125,51.26953125,-32.2265625,-33.203125,55.17578125,67.3828125,0.0
2.8671875,54.6875,-24.90234375,-30.2734375,63.96484375,-16.11328125,0.0
2.87109375,46.38671875,-45.41015625,-40.52734375,40.52734375,-99.609375,0.0
2.875,35.15625,-71.2890625,-43.45703125,22.94921875,-83.49609375,0.0
2.87890625,37.109375,-81.54296875,-46.875,40.52734375,-55.17578125,0.0
2.8828125,36.1328125,-51.7578125,-41.9921875,31.25,-33.69140625,0.0
2.88671875,13.671875,-54.19921875,-40.0390625,21.97265625,-17.08984375,0.0
2.890625,10.25390625,-6.8359375,-41.50390625,22.94921875,-2.44140625,0.0
2.89453125,18.5546875,-20.99609375,-39.55078125,36.1328125,-40.52734375,0.0
2.8984375,30.76171875,-70.3125,-41.015625,26.85546875,-36.1328125,0.0
2.90234375,29.296875,-32.71484375,-37.109375,11.23046875,-2.9296875,0.0
2.90625,16.6015625,-76.171875,-30.2734375,30.2734375,-45.41015625,0.0
2.91015625,25.87890625,-93.75,-35.15625,34.1796875,-63.4765625,0.0
2.9140625,18.5546875,-86.9140625,-53.22265625,25.87890625,-32.71484375,0.0
2.91796875,28.3203125,-132.8125,-47.8515625,22.4609375,0.48828125,0.0
2.921875,32.2265625,-121.09375,-37.109375,19.53125,13.18359375,0.0
2.92578125,5.37109375,-140.625,-43.45703125,8.30078125,-61.03515625,0.0
2.9296875,4.39453125,-123.046875,-50.78125,8.7890625,-47.36328125,0.0
2.93359375,0.0,-93.75,-51.26953125,8.7890625,12.20703125,0.0
2.9375,0.48828125,-84.9609375,-49.8046875,10.25390625,-16.6015625,0.0
2.94140625,16.11328125,-89.84375,-51.7578125,24.4140625,-40.52734375,0.0
2.9453125,7.32421875,-95.703125,-47.36328125,14.6484375,-84.9609375,0.0
2.94921875,10.25390625,-95.21484375,-47.36328125,15.625,-92.7734375,0.0
2.953125,32.71484375,-88.37890625,-48.828125,28.80859375,-128.41796875,0.0
2.95703125,9.27734375,-56.15234375,-46.875,11.71875,3.41796875,0.0
2.9609375,-9.765625,-47.36328125,-39.55078125,0.9765625,87.40234375,0.0
2.96484375,2.44140625,9.765625,-42.48046875,8.7890625,2.9296875,0.0
2.96875,15.13671875,23.4375,-41.9921875,20.5078125,-19.04296875,0.0
2.97265625,11.71875,-72.75390625,-35.15625,23.92578125,-12.6953125,0.0
2.9765625,0.9765625,-98.14453125,-37.59765625,3.90625,-34.1796875,0.0
2.98046875,-3.90625,-54.6875,-46.875,0.9765625,-123.046875,0.0
2.984375,-13.671875,0.48828125,-49.31640625,-0.48828125,-120.60546875,0.0
2.98828125,-22.94921875,-12.20703125,-44.921875,4.8828125,-61.03515625,0.0
2.9921875,-4.8828125,-42.96875,-42.96875,30.76171875,-65.91796875,0.0
2.99609375,-0.9765625,-41.50390625,-39.0625,15.625,-86.42578125,0.0
3.0,-3.41796875,-62.5,-43.9453125,-13.671875,-101.5625,0.0
3.00390625,4.39453125,-51.26953125,-50.78125,-2.9296875,-38.57421875,0.0
3.0078125,12.20703125,10.25390625,-45.41015625,23.92578125,-25.390625,0.0
3.01171875,7.32421875,21.484375,-42.96875,18.5546875,21.484375,0.0
3.015625,-17.08984375,-6.34765625,-45.8984375,-11.23046875,65.91796875,0.0
3.01953125,-25.87890625,-12.20703125,-50.78125,-18.06640625,-2.44140625,0.0
3.0234375,-29.78515625,45.41015625,-42.48046875,-14.6484375,-20.5078125,0.0
3.02734375,-23.4375,75.1953125,-21.484375,-13.671875,34.1796875,0.0
3.03125,7.8125,57.6171875,-22.94921875,6.34765625,12.6953125,0.0
3.03515625,14.16015625,8.7890625,-37.109375,6.34765625,-115.234375,0.0
3.0390625,-12.6953125,23.92578125,-41.9921875,-8.7890625,-173.828125,0.0
3.04296875,-2.44140625,52.24609375,-23.4375,-4.39453125,-99.609375,0.0
3.046875,24.90234375,49.31640625,-14.6484375,-1.953125,-45.8984375,0.0
3.05078125,1.953125,66.40625,-21.484375,-20.5078125,-49.8046875,0.0
3.0546875,-10.25390625,101.07421875,-21.97265625,-27.83203125,-0.9765625,0.0
3.05859375,-12.20703125,88.8671875,-24.90234375,-18.5546875,-20.99609375,0.0
3.0625,-19.53125,91.796875,-22.94921875,-9.765625,-59.5703125,0.0
3.06640625,-6.8359375,146.97265625,-19.53125,-1.953125,-62.5,0.0
3.0703125,-4.39453125,185.546875,-18.5546875,-8.7890625,-107.421875,0.0
3.07421875,2.9296875,214.84375,-23.92578125,-6.34765625,-50.78125,0.0
3.078125,-7.32421875,244.62890625,-26.3671875,-21.484375,15.13671875,0.0
3.08203125,-33.203125,240.234375,-20.5078125,-40.0390625,46.875,0.0
3.0859375,-18.06640625,210.9375,-21.484375,-18.06640625,62.98828125,0.0
3.08984375,-4.8828125,150.87890625,-25.390625,-28.80859375,-31.25,0.0
3.09375,-20.99609375,162.109375,-23.4375,-27.83203125,-81.54296875,0.0
3.09765625,-7.32421875,239.74609375,-25.390625,-12.6953125,-1.953125,0.0
3.1015625,-1.46484375,292.48046875,-27.34375,-17.578125,27.34375,0.0
3.10546875,-20.01953125,282.2265625,-26.3671875,-8.7890625,-26.85546875,0.0
3.109375,-20.5078125,275.87890625,-30.2734375,-7.32421875,-43.9453125,0.0
3.11328125,-15.13671875,281.25,-27.83203125,-19.53125,-56.15234375,0.0
3.1171875,-26.3671875,300.29296875,-25.390625,-41.015625,-95.703125,0.0
3.12109375,-17.578125,307.12890625,-23.4375,-32.71484375,-65.4296875,0.0
3.125,-17.08984375,363.76953125,-15.625,-23.92578125,-48.828125,0.0
3.12890625,-11.71875,415.0390625,-17.578125,-14.16015625,-39.0625,0.0
3.1328125,-8.30078125,394.04296875,-25.390625,-16.11328125,-54.6875,0.0
3.13671875,-20.99609375,345.703125,-34.66796875,-17.08984375,-127.9296875,0.0
3.140625,-18.06640625,280.2734375,-37.109375,-12.20703125,-167.48046875,0.0
3.14453125,-10.25390625,364.2578125,-22.94921875,-1.46484375,-109.375,0.0
3.1484375,-30.76171875,462.890625,-20.01953125,-14.6484375,-86.42578125,0.0
3.15234375,-29.78515625,466.30859375,-33.203125,-48.828125,-93.75,0.0
3.15625,-10.7421875,463.8671875,-17.578125,-13.18359375,-60.05859375,0.0
3.16015625,-19.53125,468.75,-7.8125,-3.41796875,-24.4140625,0.0
3.1640625,-38.57421875,491.2109375,-15.13671875,-33.69140625,-21.484375,0.0
3.16796875,-33.203125,489.2578125,6.8359375,5.859375,-9.27734375,0.0
3.171875,-51.26953125,547.36328125,-7.8125,-35.64453125,5.37109375,0.0
3.17578125,-107.421875,574.21875,-51.26953125,-117.67578125,-26.3671875,0.0
3.1796875,-157.71484375,512.6953125,-58.10546875,-144.04296875,-15.13671875,0.0
3.18359375,-152.34375,511.23046875,-36.1328125,-152.83203125,20.5078125,0.0
3.1875,-128.41796875,588.8671875,-33.69140625,-145.5078125,30.76171875,0.0
3.19140625,-160.64453125,612.79296875,-56.15234375,-179.6875,54.19921875,0.0
3.1953125,-201.171875,552.734375,-72.75390625,-220.703125,32.2265625,0.0
3.19921875,-216.796875,536.62109375,-81.54296875,-257.32421875,45.8984375,0.0
3.203125,-242.67578125,545.8984375,-102.05078125,-302.24609375,104.98046875,0.0
3.20703125,-265.625,507.8125,-130.37109375,-322.265625,33.203125,0.0
3.2109375,-275.87890625,483.3984375,-160.15625,-330.56640625,-12.6953125,0.0
3.21484375,-259.27734375,485.83984375,-156.25,-308.59375,9.765625,0.0
3.21875,-260.25390625,492.67578125,-157.71484375,-320.3125,5.859375,0.0
3.22265625,-290.52734375,507.8125,-167.96875,-346.6796875,77.1484375,0.0
3.2265625,-270.99609375,479.00390625,-181.640625,-316.89453125,100.5859375,0.0
3.23046875,-262.6953125,434.08203125,-216.30859375,-321.2890625,-13.671875,0.0
3.234375,-265.625,398.92578125,-228.02734375,-325.68359375,-83.984375,0.0
3.23828125,-215.33203125,351.5625,-230.95703125,-280.76171875,-76.171875,0.0
3.2421875,-204.1015625,408.203125,-219.23828125,-274.4140625,16.11328125,0.0
3.24609375,-216.30859375,423.828125,-225.5859375,-279.296875,18.06640625,0.0
3.25,-183.10546875,364.74609375,-235.3515625,-261.71875,49.8046875,0.0
3.25390625,-164.0625,337.890625,-214.35546875,-232.91015625,39.0625,0.0
3.2578125,-146.484375,355.95703125,-187.01171875,-184.5703125,-28.3203125,0.0
3.26171875,-169.921875,352.05078125,-169.43359375,-205.078125,-59.5703125,0.0
3.265625,-181.15234375,374.0234375,-168.9453125,-219.7265625,-66.89453125,0.0
3.26953125,-155.2734375,361.81640625,-181.640625,-184.5703125,-18.06640625,0.0
3.2734375,-146.484375,292.96875,-170.41015625,-161.1328125,-43.9453125,0.0
3.27734375,-128.90625,250.48828125,-155.2734375,-153.3203125,-64.453125,0.0
3.28125,-119.140625,210.9375,-152.83203125,-149.90234375,-79.58984375,0.0
3.28515625,-133.30078125,235.83984375,-138.671875,-137.6953125,-67.87109375,0.0
3.2890625,-147.94921875,292.48046875,-127.44140625,-132.8125,-56.640625,0.0
3.29296875,-126.953125,253.90625,-127.44140625,-115.234375,-68.84765625,0.0
3.296875,-122.0703125,204.58984375,-130.37109375,-112.79296875,-28.80859375,0.0
3.30078125,-157.71484375,216.796875,-125.0,-140.13671875,19.04296875,0.0
3.3046875,-144.53125,178.7109375,-118.1640625,-139.16015625,-20.01953125,0.0
3.30859375,-133.30078125,175.78125,-114.2578125,-120.1171875,-63.96484375,0.0
3.3125,-146.97265625,221.6796875,-105.46875,-110.3515625,-48.828125,0.0
3.31640625,-146.484375,188.96484375,-103.02734375,-122.55859375,-64.453125,0.0
3.3203125,-140.13671875,176.26953125,-105.46875,-118.1640625,-128.41796875,0.0
3.32421875,-145.01953125,190.91796875,-110.83984375,-116.69921875,-64.453125,0.0
3.328125,-124.51171875,173.828125,-102.5390625,-111.81640625,-83.0078125,0.0
3.33203125,-109.86328125,190.91796875,-83.49609375,-99.12109375,-92.28515625,0.0
3.3359375,-112.3046875,229.4921875,-68.359375,-90.8203125,-0.48828125,0.0
3.33984375,-100.09765625,183.10546875,-46.875,-67.3828125,1.953125,0.0
3.34375,-105.95703125,132.32421875,-40.52734375,-62.5,-28.80859375,0.0
3.34765625,-79.1015625,173.33984375,-28.3203125,-36.62109375,-84.47265625,0.0
3.3515625,-67.87109375,180.6640625,-13.671875,-5.859375,-35.64453125,0.0
3.35546875,-70.3125,169.43359375,-7.8125,-6.8359375,21.97265625,0.0
3.359375,-42.96875,162.59765625,-0.9765625,23.92578125,-56.15234375,0.0
3.36328125,-36.62109375,97.16796875,6.34765625,32.2265625,-125.9765625,0.0
3.3671875,-20.01953125,114.2578125,20.01953125,49.8046875,-60.546875,0.0
3.37109375,3.41796875,123.53515625,37.59765625,88.37890625,2.9296875,0.0
3.375,28.80859375,135.7421875,47.36328125,98.6328125,15.13671875,0.0
3.37890625,40.52734375,99.12109375,41.9921875,92.28515625,44.921875,0.0
3.3828125,44.921875,66.89453125,42.48046875,96.19140625,54.6875,0.0
3.38671875,45.41015625,123.046875,55.17578125,101.5625,-47.8515625,0.0
3.390625,30.76171875,120.60546875,53.7109375,108.3984375,-111.81640625,0.0
3.39453125,49.31640625,118.65234375,38.57421875,153.80859375,-147.4609375,0.0
3.3984375,68.359375,158.203125,23.4375,150.87890625,-212.890625,0.0
3.40234375,73.73046875,187.5,20.01953125,135.7421875,-208.0078125,0.0
3.40625,93.26171875,214.35546875,26.3671875,155.2734375,-127.44140625,0.0
3.41015625,84.47265625,187.5,31.73828125,151.3671875,-70.3125,0.0
3.4140625,84.9609375,210.9375,32.2265625,169.43359375,13.18359375,0.0
3.41796875,99.609375,151.3671875,31.25,179.6875,26.85546875,0.0
3.421875,104.00390625,73.2421875,34.1796875,172.36328125,-100.09765625,0.0
3.42578125,104.4921875,173.33984375,30.2734375,179.19921875,-104.4921875,0.0
3.4296875,106.4453125,247.55859375,25.87890625,187.01171875,-42.48046875,0.0
3.43359375,116.2109375,264.6484375,26.3671875,195.80078125,7.8125,0.0
3.4375,125.48828125,246.58203125,31.25,188.4765625,-16.11328125,0.0
3.44140625,83.0078125,244.62890625,37.109375,167.48046875,-28.3203125,0.0
3.4453125,51.26953125,285.64453125,36.62109375,179.19921875,3.41796875,0.0
3.44921875,71.2890625,264.16015625,36.1328125,186.5234375,-41.9921875,0.0
3.453125,73.73046875,302.24609375,37.109375,186.5234375,-57.6171875,0.0
3.45703125,47.36328125,342.7734375,33.69140625,195.3125,-7.8125,0.0
3.4609375,17.08984375,307.12890625,40.0390625,171.875,-23.4375,0.0
3.46484375,17.578125,299.8046875,43.9453125,151.85546875,-94.7265625,0.0
3.46875,35.64453125,324.70703125,44.921875,163.0859375,-111.81640625,0.0
3.47265625,56.640625,361.328125,41.015625,170.41015625,-128.90625,0.0
3.4765625,39.0625,383.30078125,24.90234375,164.55078125,-125.0,0.0
3.48046875,2.9296875,337.890625,20.99609375,143.06640625,-193.359375,0.0
3.484375,6.34765625,351.07421875,24.4140625,140.625,-242.1875,0.0
3.48828125,15.13671875,429.19921875,22.94921875,147.4609375,-64.453125,0.0
3.4921875,30.2734375,479.98046875,24.90234375,146.484375,134.27734375,0.0
3.49609375,30.76171875,433.10546875,21.484375,146.97265625,102.5390625,0.0
3.5,7.32421875,363.76953125,14.16015625,130.859375,-20.5078125,0.0
3.50390625,-14.6484375,423.33984375,11.23046875,105.46875,-19.04296875,0.0
3.5078125,-16.11328125,466.30859375,4.39453125,109.86328125,74.21875,0.0
3.51171875,3.90625,380.859375,1.953125,111.81640625,77.63671875,0.0
3.515625,-8.30078125,316.40625,0.0,99.12109375,-25.390625,0.0
3.51953125,-33.69140625,349.12109375,-7.32421875,97.16796875,-40.52734375,0.0
3.5234375,-18.5546875,407.2265625,-18.06640625,69.82421875,-28.80859375,0.0
3.52734375,-0.48828125,357.421875,-16.6015625,71.77734375,-53.22265625,0.0
3.53125,-38.0859375,304.6875,-27.34375,70.3125,-97.65625,0.0
3.53515625,-72.75390625,356.4453125,-58.10546875,27.34375,-104.4921875,0.0
3.5390625,-85.9375,423.33984375,-75.1953125,18.5546875,-88.8671875,0.0
3.54296875,-88.37890625,441.40625,-70.3125,20.5078125,17.578125,0.0
3.546875,-76.66015625,409.66796875,-66.89453125,12.6953125,-38.57421875,0.0
3.55078125,-80.078125,389.16015625,-70.80078125,-8.7890625,-79.58984375,0.0
3.5546875,-82.03125,423.828125,-68.84765625,-18.06640625,-13.671875,0.0
3.55859375,-76.171875,422.36328125,-69.3359375,-6.34765625,-4.39453125,0.0
3.5625,-73.73046875,391.6015625,-68.359375,-2.9296875,94.7265625,0.0
3.56640625,-83.0078125,378.41796875,-56.640625,-10.25390625,46.38671875,0.0
3.5703125,-74.70703125,394.53125,-58.10546875,3.41796875,-59.08203125,0.0
3.57421875,-45.41015625,404.78515625,-78.61328125,3.90625,-64.453125,0.0
3.578125,-49.8046875,400.390625,-83.984375,-3.41796875,-57.12890625,0.0
3.58203125,-74.70703125,379.39453125,-76.171875,-18.5546875,-8.7890625,0.0
3.5859375,-55.6640625,388.18359375,-73.2421875,-38.0859375,-3.90625,0.0
3.58984375,-26.85546875,379.8828125,-64.94140625,-28.3203125,2.9296875,0.0
3.59375,-24.90234375,315.91796875,-61.03515625,-26.85546875,-36.62109375,0.0
3.59765625,-26.3671875,281.25,-59.5703125,-21.97265625,-58.10546875,0.0
3.6015625,-47.36328125,298.33984375,-59.08203125,-20.5078125,-44.921875,0.0
3.60546875,-53.22265625,258.7890625,-55.17578125,-30.2734375,-9.765625,0.0
3.609375,-17.08984375,232.421875,-46.38671875,-6.8359375,29.296875,0.0
3.61328125,-12.20703125,249.0234375,-58.59375,-10.25390625,20.99609375,0.0
3.6171875,-32.2265625,245.60546875,-68.359375,-27.83203125,3.41796875,0.0
3.62109375,-28.80859375,203.61328125,-60.05859375,-17.08984375,-28.80859375,0.0
3.625,-25.87890625,203.61328125,-59.08203125,-32.71484375,-60.546875,0.0
3.62890625,-20.5078125,205.56640625,-49.31640625,-29.296875,-54.6875,0.0
3.6328125,5.37109375,174.8046875,-51.26953125,3.41796875,-5.859375,0.0
3.63671875,30.76171875,164.0625,-58.10546875,23.4375,-20.99609375,0.0
3.640625,26.3671875,203.125,-48.33984375,-1.46484375,-74.21875,0.0
3.64453125,-1.46484375,214.84375,-37.59765625,-26.3671875,-112.3046875,0.0
3.6484375,-17.578125,204.58984375,-41.50390625,-14.16015625,-72.265625,0.0
3.65234375,-7.8125,202.63671875,-50.29296875,-3.41796875,5.37109375,0.0
3.65625,-32.2265625,194.3359375,-53.22265625,-19.53125,-20.5078125,0.0
3.66015625,-27.34375,163.0859375,-54.6875,-30.76171875,-37.59765625,0.0
3.6640625,-3.90625,155.76171875,-53.22265625,-17.08984375,-43.9453125,0.0
3.66796875,-18.5546875,212.890625,-50.78125,-49.8046875,-39.55078125,0.0
3.671875,-58.10546875,214.35546875,-38.57421875,-36.62109375,-31.73828125,0.0
3.67578125,-50.29296875,202.1484375,-35.15625,-10.25390625,10.7421875,0.0
3.6796875,-30.76171875,220.21484375,-45.41015625,-46.38671875,-30.2734375,0.0
3.68359375,-51.7578125,196.2890625,-52.24609375,-68.359375,-41.50390625,0.0
3.6875,-52.734375,206.54296875,-44.921875,-65.91796875,-0.9765625,0.0
3.69140625,-46.875,227.05078125,-37.109375,-41.50390625,-8.7890625,0.0
3.6953125,-50.29296875,206.54296875,-35.64453125,-40.0390625,7.32421875,0.0
3.69921875,-45.41015625,180.17578125,-48.828125,-53.22265625,-9.27734375,0.0
3.703125,-27.34375,187.5,-45.41015625,-24.4140625,-30.2734375,0.0
3.70703125,-32.2265625,215.33203125,-34.1796875,-25.87890625,17.08984375,0.0
3.7109375,-47.8515625,180.17578125,-29.296875,-44.921875,32.2265625,0.0
3.71484375,-31.25,174.31640625,-26.3671875,-44.43359375,-42.96875,0.0
3.71875,-26.3671875,196.77734375,-32.2265625,-33.69140625,-44.921875,0.0
3.72265625,-46.38671875,145.99609375,-30.76171875,-32.2265625,0.9765625,0.0
3.7265625,-41.015625,127.9296875,-39.0625,-31.25,-10.7421875,0.0
3.73046875,-16.11328125,146.484375,-43.9453125,-20.99609375,32.71484375,0.0
3.734375,-5.37109375,137.6953125,-31.73828125,-1.953125,77.1484375,0.0
3.73828125,-13.18359375,119.140625,-37.59765625,-29.296875,78.61328125,0.0
3.7421875,-32.2265625,144.53125,-48.828125,-54.19921875,104.00390625,0.0
3.74609375,-27.34375,143.5546875,-42.48046875,-33.69140625,1.46484375,0.0
3.75,-22.4609375,127.9296875,-34.1796875,-15.13671875,-55.17578125,0.0
3.75390625,-22.4609375,124.51171875,-29.296875,-7.8125,3.90625,0.0
3.7578125,-22.4609375,144.04296875,-40.0390625,-42.48046875,-14.16015625,0.0
3.76171875,-23.92578125,183.10546875,-43.9453125,-21.97265625,-54.19921875,0.0
3.765625,-13.671875,145.99609375,-38.0859375,-11.23046875,-54.6875,0.0
3.76953125,-5.37109375,101.5625,-47.36328125,-32.2265625,-67.3828125,0.0
3.7734375,-23.4375,120.1171875,-54.6875,-27.34375,-143.5546875,0.0
3.77734375,-36.62109375,100.5859375,-63.96484375,-41.015625,-146.484375,0.0
3.78125,-37.59765625,104.00390625,-62.01171875,-51.7578125,-144.04296875,0.0
3.78515625,-22.4609375,119.62890625,-48.33984375,-36.62109375,-140.625,0.0
3.7890625,-20.01953125,114.74609375,-50.29296875,-27.83203125,-114.74609375,0.0
3.79296875,-33.203125,86.9140625,-47.36328125,-42.48046875,-95.21484375,0.0
3.796875,-8.30078125,72.75390625,-45.41015625,-39.55078125,-65.4296875,0.0
3.80078125,-10.7421875,102.05078125,-49.31640625,-18.06640625,-73.2421875,0.0
3.8046875,-30.2734375,110.3515625,-45.8984375,-41.50390625,-5.859375,0.0
3.80859375,-21.97265625,104.98046875,-47.8515625,-42.96875,0.48828125,0.0
3.8125,-15.625,60.05859375,-37.109375,-17.08984375,13.671875,0.0
3.81640625,-8.7890625,11.23046875,-30.76171875,-52.24609375,49.31640625,0.0
3.8203125,-6.34765625,-11.23046875,-37.109375,-58.10546875,4.8828125,0.0
3.82421875,-34.66796875,4.8828125,-35.64453125,-54.19921875,4.39453125,0.0
3.828125,-32.2265625,44.43359375,-22.4609375,-29.78515625,-48.33984375,0.0
3.83203125,-16.6015625,34.1796875,-17.578125,-39.0625,-133.30078125,0.0
3.8359375,-22.94921875,55.6640625,-25.390625,-73.2421875,-104.4921875,0.0
3.83984375,-8.7890625,96.6796875,-25.87890625,-64.94140625,-80.078125,0.0
3.84375,4.39453125,86.42578125,-25.390625,-73.73046875,-60.05859375,0.0
3.84765625,2.44140625,57.6171875,-18.06640625,-52.24609375,-26.85546875,0.0
3.8515625,0.9765625,67.87109375,-15.13671875,-33.203125,-73.2421875,0.0
3.85546875,-18.5546875,122.55859375,-27.34375,-46.38671875,9.765625,0.0
3.859375,-27.34375,26.3671875,-29.78515625,-32.2265625,27.83203125,0.0
3.86328125,-27.34375,-99.609375,-15.625,-23.92578125,-53.22265625,0.0
3.8671875,-19.04296875,-25.87890625,-9.27734375,-27.34375,8.30078125,0.0
3.87109375,-1.953125,-62.5,-15.13671875,-33.203125,-16.11328125,0.0
3.875,-18.5546875,-95.21484375,-14.16015625,-57.6171875,-96.19140625,0.0
3.87890625,-33.69140625,-75.1953125,-17.08984375,-46.38671875,6.34765625,0.0
3.8828125,-19.53125,-124.0234375,-27.83203125,-25.390625,-18.5546875,0.0
3.88671875,-17.578125,-138.18359375,-28.80859375,-28.80859375,-139.16015625,0.0
3.890625,-62.01171875,-133.30078125,-27.83203125,-46.875,-26.85546875,0.0
3.89453125,-48.33984375,-144.04296875,-33.203125,-44.43359375,48.33984375,0.0
3.8984375,-23.92578125,-133.30078125,-37.109375,-47.36328125,1.46484375,0.0
3.90234375,-58.10546875,-89.84375,-41.015625,-61.5234375,20.5078125,0.0
3.90625,-66.40625,-110.83984375,-43.9453125,-60.05859375,47.8515625,0.0
3.91015625,-27.34375,-125.48828125,-40.52734375,-39.55078125,41.015625,0.0
3.9140625,-32.2265625,-158.203125,-44.43359375,-26.85546875,40.52734375,0.0
3.91796875,-47.8515625,-251.953125,-45.8984375,-74.70703125,-1.46484375,0.0
3.921875,-42.48046875,-257.32421875,-39.0625,-102.05078125,-75.68359375,0.0
3.92578125,-52.734375,-242.67578125,-39.55078125,-73.2421875,-84.47265625,0.0
3.9296875,-19.53125,-176.26953125,-42.48046875,-47.8515625,-40.52734375,0.0
3.93359375,-34.66796875,-130.859375,-38.57421875,-55.17578125,-4.39453125,0.0
3.9375,-41.015625,-181.640625,-33.203125,-68.359375,-41.9921875,0.0
3.94140625,-43.45703125,-141.11328125,-14.6484375,-34.66796875,-53.22265625,0.0
3.9453125,-72.75390625,-62.98828125,-6.34765625,-26.3671875,33.69140625,0.0
3.94921875,-33.69140625,-116.2109375,-15.13671875,-45.8984375,-17.578125,0.0
3.953125,14.16015625,-145.01953125,-20.01953125,-50.29296875,-39.55078125,0.0
3.95703125,-17.08984375,-119.140625,-29.78515625,-51.7578125,-16.11328125,0.0
3.9609375,-51.26953125,-111.81640625,-41.9921875,-43.9453125,-34.66796875,0.0
3.96484375,-51.7578125,-150.87890625,-45.8984375,-35.64453125,-50.29296875,0.0
3.96875,-31.73828125,-140.625,-50.29296875,-42.96875,-67.87109375,0.0
3.97265625,4.39453125,-139.16015625,-44.43359375,-46.38671875,-29.296875,0.0
3.9765625,-38.0859375,-133.7890625,-38.57421875,-53.7109375,22.4609375,0.0
3.98046875,-67.3828125,-172.8515625,-49.31640625,-59.5703125,11.23046875,0.0
3.984375,-38.57421875,-283.203125,-53.22265625,-38.57421875,-54.19921875,0.0
3.98828125,-36.1328125,-292.48046875,-53.22265625,-39.0625,2.9296875,0.0
3.9921875,-45.41015625,-240.72265625,-50.29296875,-58.10546875,108.88671875,0.0
3.99609375,-64.94140625,-236.328125,-46.38671875,-61.5234375,69.82421875,0.0
4.0,-55.6640625,-290.0390625,-47.8515625,-70.80078125,-18.06640625,0.0
4.00390625,-49.31640625,-270.5078125,-42.96875,-19.04296875,-56.15234375,0.0
4.0078125,-46.875,-166.015625,-29.296875,-41.50390625,-28.3203125,0.0
4.01171875,-47.8515625,-152.34375,-32.71484375,-96.19140625,47.8515625,0.0
4.015625,-57.6171875,-181.15234375,-43.9453125,-66.89453125,27.83203125,0.0
4.01953125,-14.16015625,-189.453125,-38.0859375,-13.18359375,-4.39453125,0.0
4.0234375,-24.4140625,-202.1484375,-29.78515625,-29.78515625,-47.36328125,0.0
4.02734375,-53.7109375,-175.78125,-30.2734375,-64.453125,-64.94140625,0.0
4.03125,-37.59765625,-185.05859375,-28.80859375,-68.84765625,-52.24609375,0.0
4.03515625,-11.71875,-219.7265625,-21.484375,-60.546875,-70.80078125,0.0
4.0390625,-16.6015625,-206.54296875,-25.87890625,-45.8984375,-39.55078125,0.0
4.04296875,-42.48046875,-194.3359375,-15.625,-58.10546875,-101.07421875,0.0
4.046875,-20.99609375,-164.55078125,-7.8125,-40.0390625,-101.5625,0.0
4.05078125,-14.6484375,-200.1953125,-21.484375,-53.22265625,-60.05859375,0.0
4.0546875,3.41796875,-253.90625,-30.76171875,-69.82421875,-99.609375,0.0
4.05859375,13.671875,-230.95703125,-35.15625,-74.70703125,-81.0546875,0.0
4.0625,9.27734375,-132.32421875,-31.25,-76.66015625,-63.96484375,0.0
4.06640625,23.4375,-136.71875,-30.2734375,-48.828125,-112.79296875,0.0
4.0703125,22.4609375,-232.91015625,-28.80859375,-40.52734375,-144.53125,0.0
4.07421875,34.66796875,-243.1640625,-30.76171875,-51.7578125,-96.6796875,0.0
4.078125,54.6875,-198.2421875,-37.59765625,-66.40625,-32.2265625,0.0
4.08203125,35.64453125,-227.05078125,-38.57421875,-72.265625,-8.30078125,0.0
4.0859375,2.44140625,-219.7265625,-32.2265625,-50.78125,-30.76171875,0.0
4.08984375,10.25390625,-162.59765625,-34.1796875,-55.6640625,5.859375,0.0
4.09375,40.52734375,-167.96875,-50.29296875,-62.5,-6.8359375,0.0
4.09765625,35.64453125,-164.55078125,-57.6171875,-56.640625,-68.359375,0.0
4.1015625,16.6015625,-144.04296875,-56.640625,-71.2890625,-4.8828125,0.0
4.10546875,8.30078125,-100.09765625,-54.6875,-73.2421875,4.8828125,0.0
4.109375,13.18359375,-68.84765625,-48.828125,-66.40625,-63.4765625,0.0
4.11328125,26.85546875,-73.2421875,-43.9453125,-49.8046875,-16.11328125,0.0
4.1171875,20.5078125,-80.078125,-41.50390625,-46.875,-1.953125,0.0
4.12109375,10.25390625,-88.37890625,-40.0390625,-64.453125,-79.58984375,0.0
4.125,20.01953125,-100.09765625,-34.1796875,-51.7578125,-76.171875,0.0
4.12890625,20.5078125,-66.40625,-39.55078125,-68.84765625,-69.3359375,0.0
4.1328125,8.7890625,-35.15625,-46.875,-64.94140625,-123.046875,0.0
4.13671875,4.8828125,-66.40625,-51.7578125,-62.5,-118.65234375,0.0
4.140625,2.9296875,-115.72265625,-55.17578125,-72.75390625,-10.25390625,0.0
4.14453125,-4.8828125,-97.65625,-50.78125,-72.75390625,26.3671875,0.0
4.1484375,6.34765625,-15.13671875,-46.38671875,-69.3359375,10.25390625,0.0
4.15234375,14.6484375,-45.8984375,-50.78125,-68.359375,-44.43359375,0.0
4.15625,11.23046875,-47.36328125,-51.7578125,-65.4296875,-123.046875,0.0
4.16015625,0.0,-26.85546875,-40.52734375,-53.7109375,-109.86328125,0.0
4.1640625,0.48828125,-79.58984375,-36.1328125,-37.59765625,-50.78125,0.0
4.16796875,7.32421875,-136.71875,-39.0625,-52.24609375,-31.73828125,0.0
4.171875,-5.37109375,-111.81640625,-41.015625,-60.05859375,18.5546875,0.0
4.17578125,11.71875,-72.265625,-46.38671875,-55.17578125,99.609375,0.0
4.1796875,8.30078125,-60.05859375,-49.31640625,-51.26953125,86.9140625,0.0
4.18359375,-12.20703125,-67.3828125,-39.0625,-38.0859375,34.1796875,0.0
4.1875,-27.34375,-49.8046875,-35.15625,-48.828125,2.44140625,0.0
4.19140625,-26.3671875,-62.5,-37.109375,-51.26953125,-43.45703125,0.0
4.1953125,-13.671875,-127.44140625,-38.0859375,-51.26953125,-3.41796875,0.0
4.19921875,-14.6484375,-110.3515625,-48.828125,-66.89453125,0.9765625,0.0
4.203125,-20.01953125,-125.48828125,-48.33984375,-53.7109375,-38.0859375,0.0
4.20703125,-24.90234375,-178.22265625,-25.87890625,-25.390625,-56.15234375,0.0
4.2109375,-1.953125,-134.765625,-9.765625,-10.25390625,-31.25,0.0
4.21484375,8.30078125,-90.8203125,-5.37109375,-21.484375,-5.37109375,0.0
4.21875,-16.11328125,-73.2421875,-9.765625,-50.29296875,12.6953125,0.0
4.22265625,-19.53125,-72.265625,-18.5546875,-49.31640625,93.26171875,0.0
4.2265625,-15.625,-61.03515625,-16.11328125,-29.78515625,123.53515625,0.0
4.23046875,-14.16015625,-85.44921875,-11.23046875,-31.73828125,48.33984375,0.0
4.234375,9.27734375,-151.3671875,-22.94921875,-40.0390625,32.2265625,0.0
4.23828125,-0.9765625,-147.94921875,-30.2734375,-48.828125,50.78125,0.0
4.2421875,-30.2734375,-81.0546875,-19.53125,-50.29296875,15.13671875,0.0
4.24609375,-26.85546875,-52.734375,-2.9296875,-39.55078125,-11.23046875,0.0
4.25,-4.39453125,-64.453125,11.23046875,-19.53125,-45.41015625,0.0
4.25390625,4.8828125,-70.3125,10.25390625,-7.8125,-49.8046875,0.0
4.2578125,30.76171875,-77.63671875,4.8828125,-10.25390625,-135.25390625,0.0
4.26171875,48.33984375,-79.58984375,1.46484375,-19.53125,-242.67578125,0.0
4.265625,0.0,-88.8671875,1.46484375,-33.69140625,-231.93359375,0.0
4.26953125,-17.578125,-76.171875,0.48828125,-31.73828125,-187.01171875,0.0
4.2734375,8.30078125,-35.64453125,-9.27734375,-13.18359375,-197.75390625,0.0
4.27734375,0.9765625,-73.2421875,-13.671875,-15.13671875,-186.03515625,0.0
4.28125,-11.23046875,-88.8671875,-13.671875,-29.78515625,-181.15234375,0.0
4.28515625,-0.48828125,-58.10546875,-23.92578125,-50.78125,-158.203125,0.0
4.2890625,4.8828125,-7.8125,-27.83203125,-57.12890625,-144.53125,0.0
4.29296875,22.94921875,-9.765625,-23.4375,-29.78515625,-133.30078125,0.0
4.296875,22.94921875,-15.13671875,-29.78515625,-28.80859375,-29.296875,0.0
4.30078125,-7.32421875,-72.265625,-26.85546875,-35.64453125,38.0859375,0.0
4.3046875,-6.8359375,-154.296875,-17.08984375,-31.73828125,39.0625,0.0
4.30859375,15.625,-174.31640625,-17.578125,-15.625,79.1015625,0.0
4.3125,12.6953125,-164.0625,-14.6484375,-15.13671875,100.5859375,0.0
4.31640625,2.9296875,-134.765625,-17.578125,-60.05859375,15.625,0.0
4.3203125,2.44140625,-112.3046875,-20.5078125,-64.453125,-20.5078125,0.0
4.32421875,8.7890625,-129.8828125,-9.27734375,-39.55078125,20.99609375,0.0
4.328125,14.16015625,-144.53125,-0.9765625,-53.7109375,16.11328125,0.0
4.33203125,29.296875,-104.98046875,1.953125,-56.640625,-30.2734375,0.0
4.3359375,25.87890625,-52.24609375,-0.48828125,-47.8515625,-60.546875,0.0
4.33984375,-5.859375,-80.078125,-6.34765625,-54.6875,-41.50390625,0.0
4.34375,-8.7890625,-84.9609375,-0.9765625,-32.71484375,-92.7734375,0.0
4.34765625,5.37109375,-36.62109375,11.71875,-20.01953125,-115.234375,0.0
4.3515625,30.76171875,-74.70703125,11.23046875,-25.87890625,-80.078125,0.0
4.35546875,35.64453125,-130.37109375,-8.30078125,-44.921875,-50.78125,0.0
4.359375,18.5546875,-143.5546875,-14.6484375,-56.640625,-11.23046875,0.0
4.36328125,1.46484375,-95.21484375,-7.32421875,-31.73828125,-52.24609375,0.0
4.3671875,-4.39453125,-61.5234375,-9.27734375,-27.34375,-76.171875,0.0
4.37109375,20.01953125,-73.73046875,-12.20703125,-54.6875,11.23046875,0.0
4.375,18.5546875,-59.08203125,-15.625,-56.640625,63.4765625,0.0
4.37890625,-4.8828125,-63.96484375,-20.01953125,-43.9453125,17.08984375,0.0
4.3828125,-11.23046875,-45.8984375,-20.5078125,-49.31640625,8.30078125,0.0
4.38671875,-2.44140625,-17.578125,-17.08984375,-51.7578125,41.015625,0.0
4.390625,34.66796875,53.22265625,-7.8125,-36.1328125,-45.8984375,0.0
4.39453125,48.828125,17.08984375,-1.953125,-22.94921875,-112.79296875,0.0
4.3984375,4.8828125,-92.28515625,-6.8359375,-34.1796875,-51.7578125,0.0
4.40234375,-8.7890625,-42.96875,-18.5546875,-52.734375,61.5234375,0.0
4.40625,10.25390625,-39.55078125,-27.34375,-45.8984375,78.125,0.0
4.41015625,20.5078125,-99.12109375,-25.87890625,-52.24609375,-6.8359375,0.0
4.4140625,-0.48828125,-79.58984375,-31.25,-63.96484375,24.4140625,0.0
4.41796875,1.953125,-96.19140625,-29.296875,-48.828125,71.2890625,0.0
4.421875,10.7421875,-122.55859375,-26.85546875,-39.0625,64.94140625,0.0
4.42578125,15.13671875,-142.08984375,-26.85546875,-30.76171875,35.64453125,0.0
4.4296875,0.0,-132.32421875,-20.01953125,-56.640625,29.296875,0.0
4.43359375,-30.2734375,-104.00390625,-16.11328125,-79.58984375,36.1328125,0.0
4.4375,-31.25,-83.0078125,-14.16015625,-48.33984375,39.55078125,0.0
4.44140625,-20.01953125,-108.3984375,-14.6484375,-28.3203125,23.4375,0.0
4.4453125,-14.6484375,-119.62890625,-16.6015625,-32.71484375,27.83203125,0.0
4.44921875,-15.625,-127.44140625,-21.484375,-55.17578125,-2.9296875,0.0
4.453125,-3.90625,-137.20703125,-9.27734375,-32.71484375,-53.22265625,0.0
4.45703125,2.44140625,-116.69921875,-4.39453125,-27.34375,-43.45703125,0.0
4.4609375,-20.01953125,-45.41015625,-12.6953125,-62.01171875,13.671875,0.0
4.46484375,-33.203125,-42.48046875,-18.5546875,-46.875,17.08984375,0.0
4.46875,-12.20703125,-166.015625,-15.13671875,-33.69140625,-69.3359375,0.0
4.47265625,-10.25390625,-214.84375,-4.39453125,-32.71484375,-87.40234375,0.0
4.4765625,-20.99609375,-188.96484375,-8.30078125,-34.66796875,-125.0,0.0
4.48046875,-26.85546875,-140.625,-16.11328125,-40.52734375,-123.53515625,0.0
4.484375,-25.390625,-74.21875,-12.6953125,-39.0625,-51.26953125,0.0
4.48828125,-15.625,-162.109375,-12.6953125,-48.33984375,-64.453125,0.0
4.4921875,-8.7890625,-240.72265625,-19.04296875,-34.66796875,-85.9375,0.0
4.49609375,-7.8125,-211.42578125,-14.6484375,-35.15625,-126.953125,0.0
4.5,-28.80859375,-168.9453125,-9.27734375,-48.33984375,-113.76953125,0.0
4.50390625,-35.15625,-173.828125,-13.18359375,-50.29296875,-8.7890625,0.0
4.5078125,-22.4609375,-147.4609375,-20.99609375,-49.31640625,65.4296875,0.0
4.51171875,-31.25,-112.79296875,-20.5078125,-43.9453125,45.41015625,0.0
4.515625,-43.9453125,-164.55078125,-20.01953125,-43.45703125,-23.4375,0.0
4.51953125,-18.5546875,-202.63671875,-23.4375,-41.015625,-86.9140625,0.0
4.5234375,-7.32421875,-114.74609375,-23.4375,-54.6875,-32.71484375,0.0
4.52734375,-12.6953125,-70.80078125,-22.94921875,-57.6171875,-50.78125,0.0
4.53125,-21.97265625,-81.54296875,-23.92578125,-51.26953125,-156.25,0.0
4.53515625,-49.8046875,-48.33984375,-26.3671875,-58.10546875,-197.265625,0.0
4.5390625,-24.4140625,20.01953125,-25.87890625,-58.59375,-147.4609375,0.0
4.54296875,-21.97265625,28.3203125,-23.92578125,-23.4375,-52.734375,0.0
4.546875,-22.94921875,-29.78515625,-19.53125,-30.76171875,-23.4375,0.0
4.55078125,24.4140625,-83.984375,-19.04296875,-37.59765625,-3.41796875,0.0
4.5546875,14.16015625,-73.2421875,-27.34375,-46.38671875,-4.39453125,0.0
4.55859375,-38.0859375,-45.41015625,-36.1328125,-69.3359375,-18.06640625,0.0
4.5625,-30.2734375,-56.640625,-49.8046875,-56.15234375,19.04296875,0.0
4.56640625,-15.13671875,-55.6640625,-50.78125,-46.38671875,63.4765625,0.0
4.5703125,-14.16015625,-8.7890625,-34.1796875,-35.15625,49.31640625,0.0
4.57421875,0.0,32.71484375,-34.66796875,-22.4609375,24.90234375,0.0
4.578125,-19.04296875,85.9375,-40.52734375,-28.80859375,83.0078125,0.0
4.58203125,-37.109375,95.703125,-46.875,-37.59765625,66.40625,0.0
4.5859375,-10.25390625,47.36328125,-40.52734375,-25.87890625,88.37890625,0.0
4.58984375,42.96875,-11.71875,-28.3203125,-20.5078125,84.47265625,0.0
4.59375,29.78515625,-20.01953125,-32.2265625,-33.203125,-14.16015625,0.0
4.59765625,-38.57421875,-8.30078125,-28.80859375,-24.90234375,-11.23046875,0.0
4.6015625,-36.62109375,-17.578125,-29.78515625,-36.1328125,-60.05859375,0.0
4.60546875,-19.04296875,28.80859375,-30.76171875,-53.22265625,16.6015625,0.0
4.609375,-27.83203125,40.52734375,-39.55078125,-39.0625,140.13671875,0.0
4.61328125,-10.25390625,41.015625,-47.8515625,-43.9453125,121.09375,0.0
4.6171875,-22.94921875,77.1484375,-46.875,-40.0390625,90.33203125,0.0
4.62109375,-14.16015625,9.27734375,-50.78125,-20.99609375,-42.48046875,0.0
4.625,14.16015625,-33.203125,-44.921875,0.9765625,-147.4609375,0.0
4.62890625,-13.18359375,-1.46484375,-36.1328125,-25.87890625,-31.25,0.0
4.6328125,-18.5546875,-45.41015625,-27.83203125,-47.36328125,5.859375,0.0
4.63671875,-12.20703125,-71.2890625,-23.92578125,-20.01953125,-86.9140625,0.0
4.640625,-7.32421875,-28.80859375,-40.52734375,-29.296875,-121.58203125,0.0
4.64453125,-9.27734375,56.640625,-52.734375,-4.8828125,-74.70703125,0.0
4.6484375,-28.80859375,87.890625,-53.22265625,-30.2734375,-64.94140625,0.0
4.65234375,-72.265625,106.4453125,-43.9453125,-52.734375,-43.45703125,0.0
4.65625,-75.68359375,66.89453125,-29.78515625,-41.015625,-53.7109375,0.0
4.66015625,-62.98828125,24.90234375,-25.87890625,-55.6640625,-83.0078125,0.0
4.6640625,-47.36328125,114.74609375,-26.3671875,-37.59765625,-65.4296875,0.0
4.66796875,-55.17578125,158.203125,-19.04296875,-44.43359375,-15.625,0.0
4.671875,-71.77734375,159.1796875,-20.01953125,-58.59375,30.2734375,0.0
4.67578125,-43.9453125,93.75,-22.94921875,-22.4609375,-57.6171875,0.0
4.6796875,-35.15625,52.24609375,-26.3671875,-3.90625,-83.984375,0.0
4.68359375,-59.08203125,73.73046875,-33.69140625,-38.0859375,-8.30078125,0.0
4.6875,-60.05859375,140.13671875,-34.1796875,-48.828125,29.296875,0.0
4.69140625,-52.24609375,170.41015625,-25.390625,-33.203125,-34.66796875,0.0
4.6953125,-53.22265625,110.83984375,-31.25,-19.04296875,-60.05859375,0.0
4.69921875,-57.12890625,67.87109375,-46.875,-14.6484375,-29.296875,0.0
4.703125,-52.24609375,17.08984375,-39.55078125,-39.55078125,-77.63671875,0.0
4.70703125,-36.62109375,101.5625,-33.69140625,-29.78515625,-69.3359375,0.0
4.7109375,-20.01953125,161.62109375,-30.76171875,-9.765625,-13.18359375,0.0
4.71484375,-19.04296875,94.7265625,-34.1796875,-18.06640625,15.13671875,0.0
4.71875,-45.8984375,160.15625,-38.57421875,-23.92578125,57.12890625,0.0
4.72265625,-37.109375,210.9375,-26.85546875,-1.953125,53.22265625,0.0
4.7265625,-14.6484375,150.390625,-18.06640625,2.44140625,2.9296875,0.0
4.73046875,-26.3671875,150.390625,-27.34375,-20.99609375,50.29296875,0.0
4.734375,-34.66796875,112.79296875,-24.4140625,-11.23046875,31.73828125,0.0
4.73828125,-29.296875,77.63671875,-21.484375,-10.25390625,-30.2734375,0.0
4.7421875,-25.87890625,120.60546875,-35.64453125,-22.4609375,-119.140625,0.0
4.74609375,7.32421875,128.41796875,-33.69140625,-0.48828125,-218.75,0.0
4.75,22.94921875,20.5078125,-18.5546875,9.27734375,-247.0703125,0.0
4.75390625,3.90625,44.43359375,-19.53125,5.859375,-178.7109375,0.0
4.7578125,-12.6953125,142.08984375,-23.4375,0.0,-20.99609375,0.0
4.76171875,-38.57421875,45.41015625,-28.80859375,-21.97265625,12.20703125,0.0
4.765625,-20.99609375,-73.2421875,-29.78515625,-16.6015625,6.8359375,0.0
4.76953125,3.41796875,-197.75390625,-25.390625,-18.06640625,61.03515625,0.0
4.7734375,-4.39453125,-310.05859375,-25.390625,-12.6953125,43.45703125,0.0
4.77734375,-15.13671875,-394.53125,-24.90234375,0.0,-26.85546875,0.0
4.78125,-18.06640625,-351.07421875,-21.97265625,-9.27734375,-66.89453125,0.0
4.78515625,-7.8125,-220.21484375,-21.484375,-30.2734375,-48.828125,0.0
4.7890625,1.46484375,-215.33203125,-26.3671875,-21.484375,-19.04296875,0.0
4.79296875,-1.46484375,-238.28125,-20.5078125,-13.18359375,14.6484375,0.0
4.796875,-25.390625,-323.2421875,-24.4140625,-24.90234375,35.15625,0.0
4.80078125,-37.59765625,-364.2578125,-34.66796875,-29.296875,-31.73828125,0.0
4.8046875,-32.71484375,-333.0078125,-32.71484375,-22.94921875,-37.59765625,0.0
4.80859375,-33.69140625,-369.62890625,-24.4140625,-11.23046875,-5.37109375,0.0
4.8125,-6.8359375,-347.65625,-7.8125,-8.7890625,-51.7578125,0.0
4.81640625,-10.7421875,-379.8828125,0.0,-5.859375,-67.3828125,0.0
4.8203125,-55.17578125,-391.11328125,-14.6484375,-20.99609375,-15.625,0.0
4.82421875,-62.98828125,-353.02734375,-42.96875,-35.64453125,2.44140625,0.0
4.828125,-72.265625,-325.1953125,-37.59765625,-51.7578125,-46.875,0.0
4.83203125,-115.72265625,-238.28125,-32.2265625,-92.28515625,-69.3359375,0.0
4.8359375,-141.11328125,-159.1796875,-51.7578125,-114.2578125,-51.26953125,0.0
4.83984375,-162.59765625,-141.6015625,-41.015625,-145.01953125,-48.828125,0.0
4.84375,-232.421875,-89.35546875,-73.2421875,-224.609375,-14.16015625,0.0
4.84765625,-282.2265625,-95.21484375,-125.0,-275.87890625,-8.7890625,0.0
4.8515625,-281.73828125,-121.58203125,-144.53125,-273.92578125,-49.31640625,0.0
4.85546875,-320.3125,-98.6328125,-139.6484375,-303.22265625,-101.07421875,0.0
4.859375,-353.515625,-31.73828125,-128.41796875,-351.07421875,-137.20703125,0.0
4.86328125,-377.44140625,2.44140625,-160.15625,-377.44140625,-143.5546875,0.0
4.8671875,-404.78515625,-61.03515625,-195.80078125,-391.11328125,-104.4921875,0.0
4.87109375,-366.69921875,-58.59375,-196.77734375,-356.4453125,-87.40234375,0.0
4.875,-360.83984375,1.953125,-184.08203125,-353.515625,-111.81640625,0.0
4.87890625,-382.32421875,-4.39453125,-198.73046875,-388.18359375,-83.984375,0.0
4.8828125,-360.3515625,42.48046875,-221.19140625,-375.0,7.8125,0.0
4.88671875,-361.328125,55.17578125,-224.609375,-363.28125,35.64453125,0.0
4.890625,-369.62890625,49.31640625,-220.21484375,-354.4921875,103.02734375,0.0
4.89453125,-337.40234375,19.04296875,-221.19140625,-315.4296875,105.95703125,0.0
4.8984375,-303.7109375,7.8125,-208.0078125,-273.92578125,53.22265625,0.0
4.90234375,-290.52734375,64.94140625,-188.96484375,-250.48828125,28.80859375,0.0
4.90625,-253.90625,91.796875,-171.38671875,-213.8671875,-96.6796875,0.0
4.91015625,-232.421875,98.6328125,-159.1796875,-211.42578125,-76.171875,0.0
4.9140625,-226.5625,133.7890625,-146.97265625,-182.6171875,-70.80078125,0.0
4.91796875,-187.5,123.046875,-126.953125,-129.8828125,-103.02734375,0.0
4.921875,-192.3828125,75.1953125,-111.81640625,-125.48828125,-76.171875,0.0
4.92578125,-177.734375,111.328125,-96.19140625,-103.515625,-39.0625,0.0
4.9296875,-137.6953125,205.56640625,-79.58984375,-63.96484375,25.87890625,0.0
4.93359375,-101.07421875,210.44921875,-60.05859375,-21.484375,59.5703125,0.0
4.9375,-55.17578125,174.8046875,-51.7578125,21.97265625,31.73828125,0.0
4.94140625,-49.31640625,185.546875,-62.5,23.4375,-19.04296875,0.0
4.9453125,-47.8515625,208.984375,-55.6640625,25.390625,-22.4609375,0.0
4.94921875,-21.97265625,214.84375,-34.1796875,53.22265625,28.80859375,0.0
4.953125,2.44140625,240.72265625,-21.97265625,85.44921875,15.625,0.0
4.95703125,22.4609375,200.1953125,-17.08984375,87.40234375,-25.390625,0.0
4.9609375,26.85546875,148.92578125,-15.13671875,84.9609375,-42.96875,0.0
4.96484375,32.2265625,237.3046875,-2.44140625,96.19140625,-30.2734375,0.0
4.96875,30.2734375,318.84765625,-7.32421875,106.4453125,-0.48828125,0.0
4.97265625,42.48046875,288.0859375,-18.5546875,107.421875,-52.24609375,0.0
4.9765625,50.29296875,303.22265625,-18.06640625,112.3046875,-153.80859375,0.0
4.98046875,58.59375,345.703125,-20.01953125,117.1875,-106.4453125,0.0
4.984375,71.77734375,335.44921875,-15.13671875,108.88671875,8.7890625,0.0
4.98828125,58.10546875,338.8671875,-6.8359375,109.375,16.11328125,0.0
4.9921875,49.31640625,378.90625,-0.48828125,113.28125,-15.625,0.0
4.99609375,52.734375,355.46875,0.0,108.88671875,-17.08984375,0.0
5.0,51.7578125,355.46875,-5.859375,113.76953125,19.53125,0.0
5.00390625,64.453125,364.74609375,-5.859375,120.60546875,48.828125,0.0
5.0078125,79.1015625,337.40234375,5.859375,125.9765625,34.1796875,0.0
5.01171875,72.75390625,300.78125,9.765625,117.67578125,-36.62109375,0.0
5.015625,43.45703125,260.7421875,-7.8125,81.0546875,-38.0859375,0.0
5.01953125,24.4140625,224.609375,-3.41796875,76.171875,-94.23828125,0.0
5.0234375,32.2265625,266.6015625,8.7890625,103.02734375,-139.6484375,0.0
5.02734375,35.64453125,232.91015625,-6.8359375,89.84375,-51.26953125,0.0
5.03125,39.55078125,138.18359375,-9.765625,65.91796875,-28.3203125,0.0
5.03515625,28.3203125,101.5625,-14.16015625,64.94140625,-12.6953125,0.0
5.0390625,31.73828125,81.0546875,-25.390625,59.5703125,-31.73828125,0.0
5.04296875,40.0390625,80.56640625,-20.99609375,66.40625,-11.71875,0.0
5.046875,28.80859375,131.8359375,-5.859375,56.15234375,-5.37109375,0.0
5.05078125,40.52734375,185.05859375,7.8125,52.24609375,-25.87890625,0.0
5.0546875,45.41015625,150.390625,10.7421875,77.1484375,-9.765625,0.0
5.05859375,27.83203125,142.08984375,0.9765625,42.48046875,29.78515625,0.0
5.0625,17.08984375,136.71875,-10.25390625,10.25390625,90.33203125,0.0
5.06640625,11.23046875,95.21484375,-12.20703125,50.78125,12.20703125,0.0
5.0703125,17.578125,185.05859375,-5.859375,47.36328125,-43.9453125,0.0
5.07421875,8.7890625,262.20703125,-8.30078125,25.87890625,-3.90625,0.0
5.078125,-20.01953125,218.26171875,-12.6953125,23.92578125,-36.1328125,0.0
5.08203125,-28.80859375,152.83203125,-8.30078125,-1.46484375,-29.78515625,0.0
5.0859375,-28.3203125,128.90625,-7.32421875,-0.48828125,49.31640625,0.0
5.08984375,-0.9765625,148.4375,-12.20703125,-1.46484375,104.4921875,0.0
5.09375,-12.20703125,101.5625,-18.5546875,-4.8828125,10.7421875,0.0
5.09765625,-27.34375,69.82421875,-29.296875,-7.8125,-136.71875,0.0
5.1015625,-6.8359375,94.23828125,-50.29296875,-29.296875,-91.796875,0.0
5.10546875,-10.25390625,88.8671875,-51.26953125,-29.78515625,-56.15234375,0.0
5.109375,-13.671875,192.3828125,-37.59765625,-8.30078125,-114.74609375,0.0
5.11328125,-1.46484375,334.9609375,-32.2265625,-13.18359375,-141.6015625,0.0
5.1171875,-15.625,391.11328125,-34.1796875,-37.59765625,-75.68359375,0.0
5.12109375,-29.296875,402.83203125,-33.203125,-31.25,-48.33984375,0.0
5.125,-14.16015625,653.3203125,-21.97265625,-23.92578125,-40.0390625,0.0
5.12890625,-7.32421875,770.01953125,-21.484375,-19.04296875,27.34375,0.0
5.1328125,-0.48828125,701.171875,-29.296875,-4.39453125,-25.87890625,0.0
5.13671875,16.6015625,694.3359375,-30.2734375,-6.34765625,-82.03125,0.0
5.140625,15.13671875,708.49609375,-20.99609375,-19.04296875,-61.03515625,0.0
5.14453125,21.484375,713.8671875,-6.34765625,-6.34765625,-88.8671875,0.0
5.1484375,44.43359375,734.86328125,-13.671875,-1.953125,-56.15234375,0.0
5.15234375,14.16015625,778.80859375,-24.4140625,-23.92578125,13.671875,0.0
5.15625,11.23046875,698.73046875,-25.390625,-25.390625,5.37109375,0.0
5.16015625,29.296875,685.546875,-20.99609375,-11.23046875,-30.76171875,0.0
5.1640625,6.8359375,738.28125,-16.6015625,-7.8125,-29.296875,0.0
5.16796875,-6.34765625,686.03515625,-17.578125,-22.94921875,38.57421875,0.0
5.171875,13.671875,592.7734375,-24.4140625,-23.92578125,-62.01171875,0.0
5.17578125,34.66796875,569.3359375,-26.3671875,-8.7890625,-106.4453125,0.0
5.1796875,25.87890625,586.42578125,-23.92578125,-19.53125,-3.41796875,0.0
5.18359375,15.625,576.66015625,-17.578125,-21.97265625,-41.015625,0.0
5.1875,34.66796875,590.33203125,-14.16015625,16.11328125,-24.4140625,0.0
5.19140625,48.828125,547.8515625,-12.6953125,9.765625,-33.203125,0.0
5.1953125,40.0390625,530.76171875,-18.06640625,-11.71875,-28.80859375,0.0
5.19921875,41.50390625,458.0078125,-25.87890625,-1.953125,14.6484375,0.0
5.203125,16.6015625,385.7421875,-23.4375,-15.13671875,18.06640625,0.0
5.20703125,0.48828125,437.98828125,-28.3203125,-31.25,-12.20703125,0.0
5.2109375,15.13671875,490.234375,-31.73828125,-29.78515625,-15.13671875,0.0
5.21484375,39.55078125,442.87109375,-28.3203125,-0.48828125,7.8125,0.0
5.21875,64.94140625,381.8359375,-27.83203125,4.39453125,-29.78515625,0.0
5.22265625,32.71484375,422.8515625,-27.83203125,-16.6015625,-1.46484375,0.0
5.2265625,8.7890625,520.99609375,-30.76171875,-31.25,-9.765625,0.0
5.23046875,5.859375,537.59765625,-34.66796875,-31.73828125,-28.3203125,0.0
5.234375,1.953125,500.9765625,-35.64453125,-21.97265625,-41.50390625,0.0
5.23828125,19.53125,461.9140625,-38.0859375,-16.6015625,-74.21875,0.0
5.2421875,46.875,428.22265625,-41.50390625,-17.578125,-84.9609375,0.0
5.24609375,54.19921875,429.19921875,-37.59765625,-20.5078125,-148.92578125,0.0
5.25,44.921875,453.61328125,-34.1796875,-18.06640625,-157.71484375,0.0
5.25390625,57.12890625,501.953125,-35.64453125,-14.6484375,-91.796875,0.0
5.2578125,51.26953125,571.2890625,-34.66796875,-19.53125,-106.4453125,0.0
5.26171875,8.30078125,588.8671875,-45.41015625,-25.390625,-101.5625,0.0
5.265625,-2.44140625,545.8984375,-62.01171875,-34.66796875,-21.97265625,0.0
5.26953125,9.765625,542.96875,-63.96484375,-44.921875,61.03515625,0.0
5.2734375,14.16015625,595.21484375,-59.08203125,-35.64453125,72.265625,0.0
5.27734375,19.53125,574.21875,-52.734375,-26.85546875,40.52734375,0.0
5.28125,-8.7890625,565.4296875,-48.828125,-37.109375,2.44140625,0.0
5.28515625,-12.6953125,544.921875,-50.29296875,-47.8515625,36.1328125,0.0
5.2890625,7.32421875,491.69921875,-49.8046875,-44.43359375,15.13671875,0.0
5.29296875,-8.7890625,483.3984375,-45.41015625,-52.24609375,-51.7578125,0.0
5.296875,-7.8125,467.28515625,-44.921875,-48.33984375,-34.1796875,0.0
5.30078125,18.5546875,525.390625,-44.43359375,-61.5234375,-32.71484375,0.0
5.3046875,-5.859375,586.9140625,-41.015625,-70.3125,-12.20703125,0.0
5.30859375,-21.97265625,541.9921875,-36.1328125,-49.31640625,-3.90625,0.0
5.3125,6.34765625,501.46484375,-38.57421875,-30.2734375,-27.83203125,0.0
5.31640625,38.0859375,487.3046875,-52.734375,-23.4375,-50.78125,0.0
5.3203125,41.9921875,573.2421875,-61.5234375,-25.390625,-59.08203125,0.0
5.32421875,6.8359375,566.89453125,-43.9453125,-30.2734375,1.46484375,0.0
5.328125,-19.53125,492.1875,-17.08984375,-41.015625,9.27734375,0.0
5.33203125,-16.11328125,477.05078125,-7.8125,-53.7109375,-12.20703125,0.0
5.3359375,12.20703125,471.6796875,-1.46484375,-32.71484375,33.203125,0.0
5.33984375,9.27734375,494.140625,20.01953125,-10.7421875,32.2265625,0.0
5.34375,-21.97265625,497.0703125,46.38671875,-21.97265625,-19.04296875,0.0
5.34765625,-46.38671875,510.25390625,68.359375,-10.25390625,24.4140625,0.0
5.3515625,-20.01953125,520.01953125,75.68359375,9.27734375,-8.30078125,0.0
5.35546875,10.7421875,581.54296875,67.3828125,1.953125,-56.640625,0.0
5.359375,1.46484375,604.4921875,67.87109375,8.7890625,-3.41796875,0.0
5.36328125,-10.25390625,576.66015625,66.89453125,-3.41796875,32.2265625,0.0
5.3671875,11.71875,608.3984375,66.89453125,23.4375,-24.90234375,0.0
5.37109375,33.203125,566.89453125,68.359375,49.8046875,-64.453125,0.0
5.375,17.08984375,581.54296875,58.10546875,27.83203125,-112.79296875,0.0
5.37890625,-3.41796875,629.39453125,49.31640625,16.11328125,-133.30078125,0.0
5.3828125,1.953125,561.03515625,45.8984375,9.765625,-101.07421875,0.0
5.38671875,23.92578125,541.015625,43.9453125,8.7890625,-81.0546875,0.0
5.390625,18.06640625,584.9609375,42.48046875,27.83203125,-26.85546875,0.0
5.39453125,12.20703125,602.5390625,38.57421875,30.2734375,-77.1484375,0.0
5.3984375,16.11328125,686.5234375,28.80859375,1.46484375,-99.609375,0.0
5.40234375,14.16015625,687.98828125,22.94921875,-2.9296875,-83.49609375,0.0
5.40625,2.44140625,659.1796875,23.92578125,8.30078125,-53.7109375,0.0
5.41015625,16.6015625,691.89453125,28.3203125,15.625,13.18359375,0.0
5.4140625,12.6953125,687.5,31.25,4.39453125,-83.0078125,0.0
5.41796875,-3.90625,614.2578125,21.484375,-10.25390625,-140.625,0.0
5.421875,6.34765625,650.390625,16.6015625,11.71875,-99.12109375,0.0
5.42578125,23.4375,708.984375,20.99609375,-2.9296875,-28.3203125,0.0
5.4296875,23.92578125,697.75390625,17.08984375,-18.5546875,-19.53125,0.0
5.43359375,-32.71484375,676.7578125,9.765625,-20.01953125,-8.30078125,0.0
5.4375,-14.6484375,649.90234375,7.8125,-32.2265625,22.94921875,0.0
5.44140625,33.69140625,625.0,3.41796875,-17.578125,5.859375,0.0
5.4453125,-10.7421875,656.25,-1.46484375,-23.4375,10.25390625,0.0
5.44921875,-37.59765625,687.01171875,2.9296875,-30.2734375,-14.6484375,0.0
5.453125,-22.4609375,707.03125,2.9296875,-20.01953125,31.25,0.0
5.45703125,-28.80859375,743.65234375,-7.32421875,-21.484375,103.515625,0.0
5.4609375,-39.0625,743.1640625,-14.16015625,-40.52734375,46.875,0.0
5.46484375,-35.15625,712.40234375,-10.7421875,-47.36328125,-54.19921875,0.0
5.46875,-27.34375,774.4140625,-4.39453125,-45.41015625,-102.5390625,0.0
5.47265625,-22.4609375,770.5078125,4.39453125,-42.96875,-67.3828125,0.0
5.4765625,-36.62109375,692.3828125,0.48828125,-25.390625,-79.58984375,0.0
5.48046875,-20.5078125,678.22265625,-14.16015625,-23.92578125,-80.078125,0.0
5.484375,-21.97265625,701.66015625,-20.01953125,-30.2734375,-32.71484375,0.0
5.48828125,-36.62109375,753.90625,-20.01953125,-29.296875,-37.59765625,0.0
5.4921875,-20.01953125,781.25,-14.6484375,-20.99609375,-55.6640625,0.0
5.49609375,-37.109375,784.66796875,-15.625,-33.69140625,-34.1796875,0.0
5.5,-43.9453125,735.83984375,-27.34375,-52.734375,-41.50390625,0.0
5.50390625,-37.59765625,710.44921875,-25.87890625,-48.33984375,-97.16796875,0.0
5.5078125,-43.9453125,776.85546875,-19.53125,-39.55078125,-6.34765625,0.0
5.51171875,-26.3671875,775.390625,-26.3671875,-44.43359375,9.765625,0.0
5.515625,-15.13671875,784.1796875,-21.484375,-57.6171875,-103.02734375,0.0
5.51953125,-32.71484375,731.4453125,-19.04296875,-61.5234375,-101.5625,0.0
5.5234375,-41.50390625,672.36328125,-25.87890625,-58.10546875,-58.10546875,0.0
5.52734375,-34.66796875,664.0625,-23.92578125,-42.48046875,-12.6953125,0.0
5.53125,-17.578125,614.2578125,-19.04296875,-26.85546875,31.73828125,0.0
5.53515625,4.39453125,553.7109375,-28.80859375,-26.3671875,51.26953125,0.0
5.5390625,-8.30078125,519.04296875,-39.0625,-20.5078125,44.921875,0.0
5.54296875,-23.92578125,535.15625,-16.6015625,-16.6015625,-21.97265625,0.0
5.546875,-26.3671875,532.2265625,-3.41796875,-22.4609375,-50.78125,0.0
5.55078125,-17.578125,485.83984375,-14.16015625,-28.3203125,-39.0625,0.0
5.5546875,2.44140625,491.69921875,-32.2265625,-26.85546875,-40.52734375,0.0
5.55859375,-12.6953125,503.41796875,-34.1796875,-22.4609375,-60.05859375,0.0
5.5625,-30.76171875,530.76171875,-36.62109375,-27.34375,-36.1328125,0.0
5.56640625,-22.94921875,520.5078125,-42.48046875,-32.2265625,-51.7578125,0.0
5.5703125,-9.27734375,467.28515625,-42.96875,-27.83203125,-29.296875,0.0
5.57421875,-9.765625,432.6171875,-46.875,-16.11328125,28.3203125,0.0
5.578125,-27.34375,438.4765625,-39.55078125,-22.4609375,61.03515625,0.0
5.58203125,-17.08984375,389.6484375,-34.1796875,-22.4609375,61.5234375,0.0
5.5859375,-6.34765625,323.73046875,-37.109375,-24.90234375,-4.8828125,0.0
5.58984375,-12.20703125,342.28515625,-32.2265625,-18.5546875,-78.61328125,0.0
5.59375,-7.8125,305.6640625,-44.43359375,-24.90234375,-129.8828125,0.0
5.59765625,-6.8359375,260.25390625,-49.31640625,-24.4140625,-133.7890625,0.0
5.6015625,-10.25390625,247.55859375,-41.9921875,-34.66796875,-118.1640625,0.0
5.60546875,-24.4140625,227.5390625,-44.921875,-50.78125,-123.53515625,0.0
5.609375,-13.671875,232.91015625,-38.0859375,-34.1796875,-98.6328125,0.0
5.61328125,-3.41796875,198.73046875,-36.62109375,-25.87890625,-30.76171875,0.0
5.6171875,-28.80859375,184.5703125,-44.43359375,-32.2265625,48.33984375,0.0
5.62109375,-26.3671875,183.10546875,-41.50390625,-26.85546875,-20.5078125,0.0
5.625,-27.34375,188.4765625,-40.52734375,-27.83203125,-67.3828125,0.0
5.62890625,-15.625,217.7734375,-40.52734375,-31.25,43.9453125,0.0
5.6328125,-1.46484375,269.53125,-29.296875,-20.01953125,102.05078125,0.0
5.63671875,-5.37109375,210.44921875,-35.64453125,-30.2734375,-5.37109375,0.0
5.640625,-29.78515625,151.85546875,-45.8984375,-40.52734375,-102.05078125,0.0
5.64453125,-43.45703125,185.05859375,-34.66796875,-39.55078125,-17.578125,0.0
5.6484375,-11.71875,147.4609375,-26.85546875,-25.390625,17.08984375,0.0
5.65234375,-11.23046875,138.671875,-30.76171875,-22.94921875,-37.59765625,0.0
5.65625,-25.87890625,170.8984375,-30.76171875,-31.73828125,20.99609375,0.0
5.66015625,-9.765625,65.4296875,-35.64453125,-30.2734375,-9.765625,0.0
5.6640625,-7.8125,-10.7421875,-36.62109375,-23.4375,-73.2421875,0.0
5.66796875,-16.11328125,5.859375,-20.01953125,-28.80859375,-68.84765625,0.0
5.671875,-31.25,14.16015625,-15.625,-18.5546875,-26.85546875,0.0
5.67578125,-23.4375,11.71875,-28.3203125,-12.20703125,18.5546875,0.0
5.6796875,-19.04296875,35.15625,-33.203125,-28.3203125,19.53125,0.0
5.68359375,-32.71484375,56.640625,-34.1796875,-37.109375,-6.8359375,0.0
5.6875,-19.53125,16.11328125,-42.48046875,-27.83203125,2.44140625,0.0
5.69140625,-4.39453125,9.765625,-53.7109375,-20.99609375,0.9765625,0.0
5.6953125,0.48828125,-1.46484375,-56.640625,-19.53125,-5.859375,0.0
5.69921875,-4.39453125,-22.4609375,-57.6171875,-19.53125,-13.18359375,0.0
5.703125,-23.4375,39.55078125,-49.8046875,-26.3671875,-20.99609375,0.0
5.70703125,-16.6015625,37.109375,-38.57421875,-24.4140625,-73.2421875,0.0
5.7109375,-7.32421875,19.04296875,-35.15625,-20.99609375,-45.8984375,0.0
5.71484375,-21.484375,-6.34765625,-40.52734375,-26.85546875,-25.87890625,0.0
5.71875,-26.3671875,-49.31640625,-45.8984375,-20.5078125,-98.6328125,0.0
5.72265625,-26.3671875,-30.2734375,-38.0859375,-17.08984375,-13.18359375,0.0
5.7265625,-25.87890625,-22.4609375,-32.2265625,-30.2734375,23.4375,0.0
5.73046875,-19.04296875,-46.875,-24.90234375,-15.13671875,-21.97265625,0.0
5.734375,-28.3203125,-78.125,-32.2265625,-14.6484375,-33.69140625,0.0
5.73828125,-15.625,-114.74609375,-39.55078125,-16.11328125,-74.70703125,0.0
5.7421875,-4.39453125,-104.4921875,-32.71484375,-10.25390625,-91.796875,0.0
5.74609375,-24.4140625,-52.24609375,-27.34375,-35.64453125,-37.59765625,0.0
5.75,-16.6015625,-55.6640625,-22.94921875,-26.85546875,-8.30078125,0.0
5.75390625,-16.11328125,-88.8671875,-20.5078125,-26.3671875,-73.73046875,0.0
5.7578125,-12.6953125,-108.3984375,-15.625,-23.92578125,-46.38671875,0.0
5.76171875,1.46484375,-168.45703125,-10.7421875,0.48828125,-14.6484375,0.0
5.765625,-11.23046875,-176.7578125,-14.16015625,-1.953125,-63.4765625,0.0
5.76953125,-3.41796875,-136.71875,-8.30078125,-7.32421875,-59.5703125,0.0
5.7734375,-12.20703125,-98.6328125,-18.06640625,-24.4140625,-1.46484375,0.0
5.77734375,-17.08984375,-124.0234375,-36.1328125,-30.2734375,17.578125,0.0
5.78125,-20.99609375,-102.5390625,-36.1328125,-16.6015625,6.34765625,0.0
5.78515625,-24.90234375,-41.50390625,-32.71484375,-27.83203125,0.48828125,0.0
5.7890625,-27.34375,-76.66015625,-27.34375,-35.15625,2.44140625,0.0
5.79296875,-36.62109375,-139.16015625,-26.85546875,-18.06640625,19.53125,0.0
5.796875,-9.765625,-187.5,-29.78515625,-15.625,1.953125,0.0
5.80078125,-9.27734375,-163.0859375,-24.4140625,-39.0625,7.32421875,0.0
5.8046875,-1.46484375,-176.7578125,-26.85546875,-53.22265625,-41.015625,0.0
5.80859375,-5.859375,-211.9140625,-32.71484375,-46.875,-65.4296875,0.0
5.8125,-26.85546875,-207.03125,-28.80859375,-33.203125,-6.8359375,0.0
5.81640625,5.37109375,-252.9296875,-23.92578125,-22.94921875,-40.0390625,0.0
5.8203125,-14.6484375,-238.28125,-27.34375,-38.0859375,-59.08203125,0.0
5.82421875,-22.4609375,-233.3984375,-35.64453125,-48.828125,-52.734375,0.0
5.828125,-8.7890625,-227.5390625,-31.25,-35.15625,18.06640625,0.0
5.83203125,-9.765625,-174.31640625,-26.3671875,-21.97265625,0.0,0.0
5.8359375,2.44140625,-101.5625,-36.62109375,-20.99609375,-10.25390625,0.0
5.83984375,3.90625,-126.46484375,-40.0390625,-20.01953125,42.48046875,0.0
5.84375,19.53125,-119.62890625,-39.0625,-30.76171875,26.3671875,0.0
5.84765625,33.203125,-104.98046875,-28.80859375,-19.53125,47.8515625,0.0
5.8515625,-9.27734375,-185.05859375,-17.578125,-9.765625,63.4765625,0.0
5.85546875,-28.3203125,-213.8671875,-27.83203125,-21.484375,31.73828125,0.0
5.859375,-23.4375,-161.1328125,-37.59765625,-34.1796875,62.01171875,0.0
5.86328125,-24.90234375,-136.23046875,-22.4609375,-38.0859375,88.8671875,0.0
5.8671875,13.671875,-133.30078125,-17.578125,-23.92578125,16.11328125,0.0
5.87109375,18.5546875,-103.02734375,-22.94921875,-4.39453125,5.859375,0.0
5.875,-25.87890625,-62.01171875,-29.78515625,-16.11328125,-2.44140625,0.0
5.87890625,-31.73828125,-104.98046875,-36.1328125,-20.99609375,-61.03515625,0.0
5.8828125,-57.12890625,-100.09765625,-28.3203125,-36.1328125,-96.19140625,0.0
5.88671875,-32.2265625,-77.63671875,-28.80859375,-36.1328125,-47.8515625,0.0
5.890625,38.57421875,-79.1015625,-25.87890625,3.90625,-7.8125,0.0
5.89453125,-19.53125,-56.640625,-17.578125,-3.41796875,-49.31640625,0.0
5.8984375,-44.43359375,-76.66015625,-26.85546875,-13.18359375,-54.19921875,0.0
5.90234375,-1.953125,-60.05859375,-35.64453125,2.9296875,-55.6640625,0.0
5.90625,-33.69140625,-83.984375,-29.78515625,-15.625,-96.19140625,0.0
5.91015625,-37.109375,-104.00390625,-21.97265625,-20.5078125,-49.31640625,0.0
5.9140625,-20.99609375,-94.7265625,-30.2734375,-14.16015625,-34.1796875,0.0
5.91796875,-25.87890625,-140.625,-43.9453125,-26.3671875,-78.125,0.0
5.921875,-20.5078125,-146.97265625,-43.45703125,-35.64453125,-48.828125,0.0
5.92578125,-18.06640625,-118.65234375,-30.2734375,-21.97265625,-28.80859375,0.0
5.9296875,-3.41796875,-99.12109375,-32.2265625,-12.20703125,-56.15234375,0.0
5.93359375,3.41796875,-99.609375,-38.0859375,-7.8125,-92.28515625,0.0
5.9375,-27.34375,-87.890625,-23.92578125,-8.30078125,-107.91015625,0.0
5.94140625,-53.7109375,-102.5390625,-20.99609375,-33.69140625,-138.671875,0.0
5.9453125,-32.71484375,-133.7890625,-33.203125,-51.26953125,-98.6328125,0.0
5.94921875,-16.6015625,-148.4375,-30.2734375,-28.80859375,-41.50390625,0.0
5.953125,8.30078125,-170.8984375,-7.32421875,10.7421875,-46.875,0.0
5.95703125,-8.30078125,-173.33984375,1.953125,10.25390625,7.32421875,0.0
5.9609375,-47.36328125,-90.33203125,-15.625,-25.87890625,12.6953125,0.0
5.96484375,-12.20703125,-36.1328125,-21.97265625,-18.06640625,-93.26171875,0.0
5.96875,-5.859375,-71.77734375,-19.53125,-1.46484375,-275.87890625,0.0
5.97265625,-12.6953125,-121.09375,-25.390625,10.7421875,-343.26171875,0.0
5.9765625,7.8125,-90.8203125,-27.83203125,31.73828125,-111.81640625,0.0
5.98046875,8.7890625,-63.96484375,-30.2734375,-5.859375,8.7890625,0.0
5.984375,-30.76171875,-87.40234375,-34.1796875,-36.62109375,-15.625,0.0
5.98828125,-34.66796875,-160.64453125,-49.31640625,-14.16015625,12.6953125,0.0
5.9921875,-36.1328125,-197.265625,-49.8046875,1.46484375,-5.859375,0.0
5.99609375,-51.26953125,-159.66796875,-32.71484375,14.16015625,-1.953125,0.0
6.0,-4.8828125,-134.27734375,-42.96875,-15.625,56.15234375,0.0
6.00390625,-7.32421875,-151.3671875,-61.03515625,-39.0625,75.1953125,0.0
6.0078125,-39.0625,-144.53125,-59.08203125,-30.2734375,44.43359375,0.0
6.01171875,-32.2265625,-95.703125,-42.96875,-20.5078125,22.4609375,0.0
6.015625,-34.1796875,-132.8125,-35.15625,-16.6015625,-26.85546875,0.0
6.01953125,-32.2265625,-184.5703125,-46.875,-24.4140625,-68.84765625,0.0
6.0234375,-19.04296875,-138.671875,-49.8046875,-20.5078125,-54.6875,0.0
6.02734375,-16.11328125,-117.1875,-39.0625,2.44140625,-2.9296875,0.0
6.03125,-7.32421875,-129.8828125,-39.55078125,-5.37109375,-26.3671875,0.0
6.03515625,-18.06640625,-111.81640625,-36.1328125,3.90625,-103.02734375,0.0
6.0390625,-37.109375,-122.55859375,-34.1796875,2.44140625,-75.68359375,0.0
6.04296875,-20.01953125,-154.78515625,-39.0625,-15.13671875,-53.22265625,0.0
6.046875,-24.4140625,-128.90625,-29.296875,21.97265625,-128.90625,0.0
6.05078125,-24.4140625,-95.21484375,-22.4609375,20.5078125,-153.3203125,0.0
6.0546875,13.18359375,-145.01953125,-32.2265625,-18.06640625,-100.5859375,0.0
6.05859375,-13.671875,-220.21484375,-43.45703125,5.37109375,-62.98828125,0.0
6.0625,-41.50390625,-192.3828125,-40.0390625,19.53125,-6.34765625,0.0
6.06640625,-24.4140625,-123.046875,-49.31640625,-36.62109375,-19.04296875,0.0
6.0703125,-29.78515625,-97.16796875,-55.17578125,-18.5546875,-103.02734375,0.0
6.07421875,9.27734375,-153.3203125,-54.6875,12.20703125,-116.69921875,0.0
6.078125,-20.99609375,-156.73828125,-59.08203125,-6.34765625,-30.2734375,0.0
6.08203125,-67.3828125,-218.26171875,-47.8515625,-12.6953125,-19.04296875,0.0
6.0859375,-40.0390625,-378.90625,-51.26953125,-28.80859375,-70.3125,0.0
6.08984375,-2.9296875,-359.86328125,-43.45703125,-11.23046875,-81.54296875,0.0
6.09375,0.9765625,-303.7109375,-47.36328125,-3.90625,-63.4765625,0.0
6.09765625,-24.4140625,-303.22265625,-49.8046875,-1.953125,-20.5078125,0.0
6.1015625,-57.6171875,-223.14453125,-40.52734375,4.8828125,17.08984375,0.0
6.10546875,-43.45703125,-210.9375,-50.29296875,-11.71875,-26.3671875,0.0
6.109375,-23.92578125,-244.140625,-44.921875,-19.04296875,-63.96484375,0.0
6.11328125,-5.859375,-261.23046875,-46.38671875,-0.9765625,-49.8046875,0.0
6.1171875,-19.53125,-250.0,-62.01171875,-10.25390625,-71.2890625,0.0
6.12109375,-35.64453125,-239.74609375,-52.24609375,-12.20703125,14.6484375,0.0
6.125,-14.16015625,-234.375,-47.8515625,-2.9296875,0.0,0.0
6.12890625,-10.7421875,-260.25390625,-49.31640625,-20.5078125,-53.22265625,0.0
6.1328125,-9.765625,-236.81640625,-32.2265625,-7.8125,13.671875,0.0
6.13671875,-0.9765625,-224.609375,-35.64453125,5.859375,44.921875,0.0
6.140625,-15.13671875,-285.64453125,-59.08203125,-18.06640625,64.94140625,0.0
6.14453125,-48.828125,-247.55859375,-37.59765625,-9.765625,17.08984375,0.0
6.1484375,-41.015625,-154.78515625,-22.4609375,2.44140625,-4.8828125,0.0
6.15234375,-11.23046875,-226.5625,-39.55078125,-32.71484375,-2.44140625,0.0
6.15625,-12.20703125,-319.3359375,-39.0625,-31.73828125,-5.37109375,0.0
6.16015625,-16.6015625,-294.43359375,-34.66796875,-15.625,-19.53125,0.0
6.1640625,-27.34375,-283.69140625,-53.22265625,-29.296875,-43.45703125,0.0
6.16796875,-43.9453125,-250.0,-48.33984375,-9.27734375,1.953125,0.0
6.171875,-26.85546875,-129.39453125,-37.109375,-5.37109375,8.30078125,0.0
6.17578125,-34.1796875,-84.9609375,-43.45703125,-26.85546875,41.015625,0.0
6.1796875,-36.62109375,-155.2734375,-37.59765625,-17.578125,7.8125,0.0
6.18359375,-37.59765625,-153.3203125,-35.64453125,-20.5078125,-81.0546875,0.0
6.1875,-32.71484375,-66.40625,-36.1328125,-1.46484375,-28.3203125,0.0
6.19140625,-3.41796875,-72.75390625,-28.80859375,11.71875,3.90625,0.0
6.1953125,-8.30078125,-73.2421875,-30.2734375,19.04296875,-101.5625,0.0
6.19921875,-32.71484375,-37.109375,-42.48046875,25.87890625,-117.1875,0.0
6.203125,-40.0390625,-36.62109375,-46.875,-7.32421875,-32.2265625,0.0
6.20703125,-14.6484375,-22.4609375,-44.43359375,-17.578125,-15.13671875,0.0
6.2109375,1.953125,34.66796875,-45.8984375,12.20703125,14.6484375,0.0
6.21484375,-18.5546875,3.41796875,-39.55078125,25.390625,32.71484375,0.0
6.21875,-43.45703125,52.734375,-38.57421875,32.2265625,-16.11328125,0.0
6.22265625,-4.8828125,69.3359375,-27.83203125,44.921875,-23.4375,0.0
6.2265625,-15.13671875,-20.99609375,-23.92578125,15.13671875,-3.41796875,0.0
6.23046875,-58.10546875,-59.5703125,-33.69140625,8.30078125,9.765625,0.0
6.234375,-28.3203125,-78.61328125,-38.0859375,26.85546875,26.85546875,0.0
6.23828125,-16.11328125,-11.23046875,-40.0390625,9.765625,1.953125,0.0
6.2421875,-7.32421875,42.48046875,-38.0859375,2.9296875,-55.17578125,0.0
6.24609375,-11.71875,92.28515625,-40.52734375,-20.99609375,-16.11328125,0.0
6.25,-63.4765625,62.98828125,-35.15625,-10.25390625,8.30078125,0.0
6.25390625,-75.68359375,10.25390625,-34.1796875,9.27734375,-48.33984375,0.0
6.2578125,-37.59765625,45.8984375,-39.55078125,10.7421875,-86.9140625,0.0
6.26171875,-28.3203125,56.15234375,-35.64453125,11.71875,-20.01953125,0.0
6.265625,-21.484375,48.33984375,-30.76171875,23.92578125,40.0390625,0.0
6.26953125,-18.06640625,0.9765625,-28.3203125,24.90234375,30.2734375,0.0
6.2734375,-20.99609375,-98.6328125,-21.97265625,-11.23046875,-12.6953125,0.0
6.27734375,-48.33984375,-112.79296875,-24.90234375,-11.23046875,-34.66796875,0.0
6.28125,-41.50390625,-49.8046875,-36.1328125,-1.953125,3.90625,0.0
6.28515625,-56.640625,-55.17578125,-39.55078125,-20.5078125,-4.8828125,0.0
6.2890625,-53.7109375,-74.70703125,-41.015625,-14.6484375,-97.65625,0.0
6.29296875,-3.41796875,-62.01171875,-31.73828125,10.7421875,-86.42578125,0.0
6.296875,-34.66796875,-83.49609375,-23.4375,13.18359375,-64.94140625,0.0
6.30078125,-79.58984375,-91.30859375,-32.2265625,-5.859375,-223.6328125,0.0
6.3046875,-80.56640625,-56.640625,-36.1328125,-22.4609375,-244.140625,0.0
6.30859375,-61.03515625,-6.8359375,-44.43359375,-24.4140625,-91.796875,0.0
6.3125,-58.10546875,61.5234375,-50.29296875,-36.1328125,-8.7890625,0.0
6.31640625,-32.2265625,62.98828125,-31.73828125,15.13671875,11.71875,0.0
6.3203125,-28.3203125,63.96484375,-25.87890625,35.64453125,12.20703125,0.0
6.32421875,-74.70703125,56.15234375,-36.1328125,-36.1328125,-41.9921875,0.0
6.328125,-80.078125,9.27734375,-31.73828125,-46.38671875,-37.109375,0.0
6.33203125,-67.87109375,0.0,-43.9453125,-35.15625,93.26171875,0.0
6.3359375,-43.45703125,12.20703125,-55.17578125,-33.69140625,106.4453125,0.0
6.33984375,-38.0859375,14.16015625,-48.828125,-6.8359375,-42.96875,0.0
6.34375,-55.17578125,-6.8359375,-46.875,-4.8828125,-38.57421875,0.0
6.34765625,-74.21875,-39.0625,-41.50390625,-47.8515625,-44.43359375,0.0
6.3515625,-48.33984375,-10.7421875,-47.8515625,-41.9921875,-42.96875,0.0
6.35546875,-24.90234375,30.2734375,-57.6171875,-11.23046875,15.625,0.0
6.359375,-58.10546875,24.4140625,-54.6875,3.41796875,28.3203125,0.0
6.36328125,-90.8203125,26.85546875,-42.48046875,-29.296875,18.5546875,0.0
6.3671875,-78.61328125,48.828125,-40.52734375,-66.89453125,-32.71484375,0.0
6.37109375,-15.625,50.78125,-37.109375,-46.38671875,-10.7421875,0.0
6.375,2.44140625,49.31640625,-33.203125,-20.5078125,-9.765625,0.0
6.37890625,-46.875,46.875,-43.45703125,-19.04296875,33.203125,0.0
6.3828125,-36.1328125,64.453125,-44.43359375,-12.20703125,11.71875,0.0
6.38671875,-38.57421875,50.29296875,-41.9921875,-38.0859375,-109.86328125,0.0
6.390625,-33.203125,93.26171875,-41.9921875,-51.7578125,-42.48046875,0.0
6.39453125,-17.08984375,145.01953125,-37.109375,-21.484375,34.1796875,0.0
6.3984375,-49.31640625,113.76953125,-37.59765625,-42.96875,21.484375,0.0
6.40234375,-61.03515625,91.30859375,-35.15625,-57.12890625,52.734375,0.0
6.40625,-28.3203125,69.82421875,-29.78515625,-41.015625,-2.9296875,0.0
6.41015625,-29.78515625,8.7890625,-27.83203125,-32.71484375,-130.37109375,0.0
6.4140625,-58.59375,99.12109375,-29.78515625,-39.0625,-95.703125,0.0
6.41796875,-39.55078125,146.484375,-35.64453125,-34.66796875,-87.40234375,0.0
6.421875,-18.5546875,34.66796875,-28.80859375,-13.671875,-162.59765625,0.0
6.42578125,-23.92578125,47.36328125,-23.92578125,-20.99609375,-143.06640625,0.0
6.4296875,-52.24609375,92.28515625,-34.66796875,-55.17578125,-57.6171875,0.0
6.43359375,-50.78125,95.21484375,-47.8515625,-74.70703125,-13.18359375,0.0
6.4375,-59.08203125,65.4296875,-44.921875,-59.08203125,-86.42578125,0.0
6.44140625,-59.08203125,89.35546875,-44.921875,-35.15625,-112.3046875,0.0
6.4453125,-60.05859375,135.25390625,-51.7578125,-37.59765625,-46.875,0.0
6.44921875,-36.62109375,95.21484375,-46.875,4.39453125,-95.21484375,0.0
6.453125,-18.06640625,102.5390625,-45.41015625,-1.46484375,-116.2109375,0.0
6.45703125,-37.59765625,89.84375,-59.08203125,-73.73046875,-132.8125,0.0
6.4609375,-40.52734375,54.6875,-49.31640625,-54.6875,-69.82421875,0.0
6.46484375,-39.0625,48.828125,-47.36328125,-33.69140625,8.30078125,0.0
6.46875,-62.5,55.6640625,-67.3828125,-65.4296875,-17.08984375,0.0
6.47265625,-71.77734375,-8.7890625,-65.91796875,-60.05859375,-22.4609375,0.0
6.4765625,-51.26953125,-67.3828125,-63.4765625,-42.96875,-37.59765625,0.0
6.48046875,-48.828125,-12.6953125,-76.171875,-48.33984375,-32.71484375,0.0
6.484375,-32.71484375,39.55078125,-76.66015625,-25.390625,-5.37109375,0.0
6.48828125,-46.875,75.68359375,-71.77734375,-31.73828125,-15.13671875,0.0
6.4921875,-57.12890625,90.33203125,-75.1953125,-56.640625,-49.8046875,0.0
6.49609375,-26.3671875,79.58984375,-75.68359375,-13.671875,-59.5703125,0.0
6.5,-44.43359375,143.06640625,-62.5,19.53125,-7.8125,0.0
6.50390625,-69.3359375,177.734375,-66.40625,-33.69140625,66.40625,0.0
6.5078125,-40.52734375,141.6015625,-73.2421875,-22.94921875,48.828125,0.0
6.51171875,-39.0625,69.3359375,-68.359375,-5.37109375,-22.94921875,0.0
6.515625,-52.734375,24.90234375,-78.61328125,-25.87890625,25.390625,0.0
6.51953125,-10.7421875,23.92578125,-81.0546875,3.41796875,-3.90625,0.0
6.5234375,-33.69140625,34.66796875,-76.171875,-17.578125,-49.8046875,0.0
6.52734375,-42.48046875,91.30859375,-79.58984375,-36.62109375,5.37109375,0.0
6.53125,-22.4609375,146.484375,-82.03125,-26.85546875,-44.43359375,0.0
6.53515625,-59.08203125,104.4921875,-86.42578125,-31.25,-86.9140625,0.0
6.5390625,-51.7578125,-17.08984375,-87.890625,-26.85546875,-36.62109375,0.0
6.54296875,-44.921875,-20.01953125,-77.1484375,-14.16015625,19.04296875,0.0
6.546875,-65.4296875,34.66796875,-72.75390625,-19.53125,28.3203125,0.0
6.55078125,-51.26953125,31.25,-74.70703125,-21.484375,-4.39453125,0.0
6.5546875,-15.13671875,-46.875,-66.89453125,-7.32421875,-10.7421875,0.0
6.55859375,-40.52734375,-61.03515625,-69.82421875,-7.8125,40.0390625,0.0
6.5625,-89.84375,-32.2265625,-77.63671875,-43.45703125,44.43359375,0.0
6.56640625,-44.43359375,-27.34375,-74.21875,-49.8046875,-2.9296875,0.0
6.5703125,-10.7421875,-49.8046875,-73.73046875,6.34765625,-91.30859375,0.0
6.57421875,-19.04296875,-107.91015625,-81.54296875,22.4609375,-242.67578125,0.0
6.578125,-68.359375,-114.74609375,-72.75390625,-42.48046875,-228.02734375,0.0
6.58203125,-82.03125,-64.94140625,-60.546875,-58.59375,-164.0625,0.0
6.5859375,-66.40625,-57.12890625,-64.94140625,-59.5703125,-150.390625,0.0
6.58984375,-56.640625,-130.37109375,-56.640625,-44.43359375,-140.625,0.0
6.59375,11.71875,-119.62890625,-54.19921875,-10.25390625,-152.34375,0.0
6.59765625,31.25,-51.26953125,-44.921875,11.23046875,-105.46875,0.0
6.6015625,-36.62109375,-87.40234375,-35.64453125,-16.11328125,-111.328125,0.0
6.60546875,-58.10546875,-150.87890625,-47.36328125,-34.1796875,-147.4609375,0.0
6.609375,-30.2734375,-188.4765625,-46.875,-14.6484375,-150.87890625,0.0
6.61328125,6.8359375,-197.265625,-41.9921875,12.20703125,-92.28515625,0.0
6.6171875,-2.44140625,-171.38671875,-40.0390625,6.8359375,-2.9296875,0.0
6.62109375,-41.015625,-176.7578125,-45.41015625,-23.92578125,27.83203125,0.0
6.625,-25.390625,-153.3203125,-43.45703125,-11.71875,79.58984375,0.0
6.62890625,-2.9296875,-159.1796875,-37.109375,1.46484375,25.87890625,0.0
6.6328125,-35.64453125,-136.23046875,-44.43359375,-32.2265625,80.56640625,0.0
6.63671875,-31.25,-112.79296875,-56.640625,-22.4609375,140.13671875,0.0
6.640625,2.44140625,-166.9921875,-47.36328125,6.8359375,-9.27734375,0.0
6.64453125,11.71875,-165.0390625,-25.87890625,21.97265625,-26.3671875,0.0
6.6484375,65.4296875,-160.15625,-29.78515625,30.2734375,-61.5234375,0.0
6.65234375,61.03515625,-211.9140625,-27.34375,30.2734375,-39.0625,0.0
6.65625,9.765625,-239.74609375,-33.69140625,10.7421875,-1.46484375,0.0
6.66015625,20.01953125,-226.5625,-51.26953125,-13.671875,6.8359375,0.0
6.6640625,11.71875,-166.9921875,-44.921875,-35.64453125,49.31640625,0.0
6.66796875,-0.48828125,-125.48828125,-32.71484375,-22.94921875,49.31640625,0.0
6.671875,27.83203125,-148.4375,-35.64453125,-2.44140625,35.64453125,0.0
6.67578125,16.6015625,-169.43359375,-43.9453125,-13.671875,24.90234375,0.0
6.6796875,-3.41796875,-120.60546875,-36.62109375,0.9765625,64.94140625,0.0
6.68359375,3.41796875,-84.9609375,-20.01953125,10.25390625,46.38671875,0.0
6.6875,7.32421875,-70.3125,-21.97265625,-3.90625,5.859375,0.0
6.69140625,41.9921875,-76.171875,-30.2734375,1.46484375,-40.0390625,0.0
6.6953125,46.875,-93.75,-33.203125,0.9765625,-61.03515625,0.0
6.69921875,14.6484375,-195.3125,-42.96875,-41.015625,10.25390625,0.0
6.703125,6.8359375,-403.3203125,-42.48046875,-54.19921875,-29.78515625,0.0
6.70703125,14.16015625,-415.0390625,-28.3203125,-40.0390625,-132.32421875,0.0
6.7109375,33.69140625,-270.01953125,-32.2265625,-1.953125,-192.3828125,0.0
6.71484375,63.96484375,-228.02734375,-41.015625,5.37109375,-30.76171875,0.0
6.71875,40.0390625,-234.86328125,-37.59765625,-34.1796875,71.77734375,0.0
6.72265625,20.99609375,-264.6484375,-29.296875,-40.0390625,0.0,0.0
6.7265625,5.37109375,-294.921875,-17.08984375,-77.1484375,-48.33984375,0.0
6.73046875,-4.39453125,-309.5703125,-19.04296875,-127.44140625,-73.2421875,0.0
6.734375,12.6953125,-294.921875,-19.04296875,-131.8359375,0.9765625,0.0
6.73828125,-6.8359375,-348.14453125,-12.6953125,-128.41796875,-17.08984375,0.0
6.7421875,14.6484375,-418.45703125,-17.08984375,-117.1875,-68.359375,0.0
6.74609375,10.25390625,-348.14453125,-11.23046875,-86.9140625,-20.01953125,0.0
6.75,-15.625,-279.78515625,-1.953125,-79.1015625,70.3125,0.0
6.75390625,23.92578125,-322.265625,-5.859375,-85.9375,101.07421875,0.0
6.7578125,49.31640625,-336.9140625,-21.97265625,-44.921875,121.09375,0.0
6.76171875,35.15625,-326.66015625,-35.15625,-68.84765625,4.8828125,0.0
6.765625,66.89453125,-300.78125,-41.9921875,-126.46484375,-53.7109375,0.0
6.76953125,105.46875,-284.66796875,-46.38671875,-82.03125,-9.765625,0.0
6.7734375,97.16796875,-277.34375,-32.2265625,-50.29296875,-27.34375,0.0
6.77734375,96.19140625,-246.58203125,-33.69140625,-54.19921875,17.08984375,0.0
6.78125,97.65625,-211.42578125,-29.78515625,-48.33984375,93.75,0.0
6.78515625,70.80078125,-228.515625,-17.08984375,-26.85546875,18.5546875,0.0
6.7890625,69.3359375,-253.41796875,-23.4375,-51.7578125,-51.7578125,0.0
6.79296875,104.00390625,-251.953125,-28.80859375,-63.4765625,34.66796875,0.0
6.796875,120.60546875,-286.62109375,-34.66796875,-45.41015625,67.3828125,0.0
6.80078125,54.19921875,-324.70703125,-40.52734375,-54.6875,-43.45703125,0.0
6.8046875,39.0625,-305.6640625,-27.83203125,-49.31640625,-83.49609375,0.0
6.80859375,86.42578125,-283.69140625,-31.25,-60.546875,13.18359375,0.0
6.8125,83.984375,-267.08984375,-37.109375,-80.56640625,-72.75390625,0.0
6.81640625,97.65625,-277.34375,-33.69140625,-74.70703125,-160.64453125,0.0
6.8203125,62.5,-246.09375,-34.1796875,-70.80078125,-95.703125,0.0
6.82421875,19.53125,-163.0859375,-24.4140625,-85.44921875,-121.58203125,0.0
6.828125,47.36328125,-84.47265625,-25.390625,-87.890625,-113.28125,0.0
6.83203125,103.02734375,-27.34375,-41.50390625,-75.68359375,-51.26953125,0.0
6.8359375,95.21484375,17.578125,-43.45703125,-62.98828125,-21.97265625,0.0
6.83984375,69.3359375,67.3828125,-29.78515625,-50.29296875,-18.5546875,0.0
6.84375,62.98828125,53.7109375,-26.3671875,-48.828125,-40.0390625,0.0
6.84765625,62.98828125,40.0390625,-43.45703125,-79.58984375,-73.73046875,0.0
6.8515625,117.1875,65.91796875,-41.50390625,-56.640625,-97.65625,0.0
6.85546875,130.37109375,39.0625,-27.34375,-26.3671875,-29.296875,0.0
6.859375,113.28125,-3.41796875,-28.3203125,-50.29296875,16.11328125,0.0
6.86328125,115.234375,-4.8828125,-30.76171875,-41.50390625,34.1796875,0.0
6.8671875,108.3984375,7.8125,-37.109375,-22.94921875,33.203125,0.0
6.87109375,59.08203125,1.46484375,-23.4375,-44.921875,0.48828125,0.0
6.875,52.24609375,-19.53125,-9.765625,-50.78125,-70.3125,0.0
6.87890625,104.98046875,-12.20703125,-24.90234375,-51.26953125,-77.63671875,0.0
6.8828125,135.7421875,-26.85546875,-32.2265625,-45.41015625,-63.96484375,0.0
6.88671875,133.30078125,-77.63671875,-23.4375,-38.0859375,-50.29296875,0.0
6.890625,108.88671875,-107.91015625,-30.2734375,-53.7109375,-43.9453125,0.0
6.89453125,99.609375,-131.34765625,-45.41015625,-45.8984375,1.46484375,0.0
6.8984375,86.42578125,-132.8125,-34.1796875,-33.69140625,38.57421875,0.0
6.90234375,102.5390625,-116.2109375,-28.3203125,-37.59765625,64.453125,0.0
6.90625,157.71484375,-98.6328125,-44.43359375,-29.78515625,62.01171875,0.0
6.91015625,164.0625,-90.8203125,-39.55078125,-10.7421875,7.32421875,0.0
6.9140625,86.9140625,-70.3125,-40.52734375,-16.11328125,42.48046875,0.0
6.91796875,76.171875,-21.97265625,-52.734375,-22.94921875,-42.48046875,0.0
6.921875,108.88671875,24.90234375,-43.45703125,-19.53125,-123.046875,0.0
6.92578125,141.6015625,14.16015625,-22.94921875,-25.390625,-45.8984375,0.0
6.9296875,137.20703125,19.53125,-21.484375,-28.3203125,14.16015625,0.0
6.93359375,108.3984375,71.2890625,-34.1796875,-48.828125,3.41796875,0.0
6.9375,140.13671875,92.7734375,-36.62109375,-37.59765625,-21.97265625,0.0
6.94140625,159.1796875,64.453125,-45.41015625,-41.9921875,-43.9453125,0.0
6.9453125,151.3671875,23.4375,-38.0859375,-48.828125,-29.78515625,0.0
6.94921875,162.59765625,-21.97265625,-40.0390625,-32.71484375,21.484375,0.0
6.953125,129.39453125,-59.08203125,-36.1328125,-16.6015625,49.31640625,0.0
6.95703125,115.234375,-73.73046875,-12.6953125,30.76171875,-65.4296875,0.0
6.9609375,154.78515625,-52.24609375,-33.203125,-15.13671875,-50.29296875,0.0
6.96484375,159.66796875,-52.734375,-58.59375,-59.5703125,-58.10546875,0.0
6.96875,138.18359375,3.41796875,-30.2734375,-19.53125,-142.578125,0.0
6.97265625,138.18359375,44.921875,0.9765625,0.0,-69.3359375,0.0
6.9765625,127.9296875,-25.390625,9.27734375,-14.16015625,5.859375,0.0
6.98046875,96.6796875,-67.87109375,8.7890625,-34.1796875,54.19921875,0.0
6.984375,115.234375,-108.3984375,-2.44140625,-41.50390625,-8.7890625,0.0
6.98828125,100.5859375,-78.61328125,3.41796875,-43.9453125,-82.51953125,0.0
6.9921875,82.03125,-26.3671875,-0.48828125,-41.015625,-34.1796875,0.0
6.99609375,106.93359375,-19.04296875,-6.34765625,-30.76171875,-14.16015625,0.0
7.0,89.84375,-42.48046875,1.46484375,-31.73828125,-69.3359375,0.0
7.00390625,115.72265625,-28.3203125,5.37109375,-18.06640625,21.97265625,0.0
7.0078125,129.39453125,40.0390625,0.9765625,-10.25390625,108.88671875,0.0
7.01171875,110.83984375,47.8515625,-7.32421875,-22.94921875,8.7890625,0.0
7.015625,106.93359375,26.3671875,-3.90625,-10.25390625,-79.1015625,0.0
7.01953125,97.65625,-28.80859375,-0.9765625,2.9296875,-26.85546875,0.0
7.0234375,129.39453125,-70.3125,-15.13671875,-10.7421875,-34.1796875,0.0
7.02734375,124.0234375,-86.9140625,-27.34375,-31.25,-121.09375,0.0
7.03125,104.00390625,-101.07421875,-16.11328125,-15.625,-119.140625,0.0
7.03515625,138.18359375,-62.98828125,-7.32421875,1.953125,-114.74609375,0.0
7.0390625,133.7890625,-36.1328125,-19.53125,7.32421875,-94.7265625,0.0
7.04296875,105.46875,-83.984375,-27.83203125,-19.53125,-133.7890625,0.0
7.046875,102.5390625,-92.7734375,-28.3203125,-33.203125,-90.33203125,0.0
7.05078125,99.12109375,-58.10546875,-22.4609375,-19.53125,6.8359375,0.0
7.0546875,110.3515625,-58.59375,-17.08984375,3.41796875,-23.92578125,0.0
7.05859375,101.07421875,-97.16796875,-22.4609375,-0.9765625,-16.11328125,0.0
7.0625,86.42578125,-114.2578125,-31.25,-21.97265625,-62.5,0.0
7.06640625,101.07421875,-75.68359375,-32.71484375,-24.90234375,-74.70703125,0.0
7.0703125,105.46875,-102.5390625,-38.0859375,-34.66796875,-11.71875,0.0
7.07421875,106.4453125,-152.34375,-36.1328125,-30.2734375,-24.90234375,0.0
7.078125,100.09765625,-116.2109375,-27.83203125,-4.8828125,-91.796875,0.0
7.08203125,93.75,-72.75390625,-36.1328125,-10.7421875,-80.56640625,0.0
7.0859375,76.171875,-96.19140625,-42.48046875,-29.296875,-87.40234375,0.0
7.08984375,66.40625,-114.2578125,-33.203125,-19.04296875,-140.13671875,0.0
7.09375,102.05078125,-127.9296875,-30.76171875,-19.53125,-187.01171875,0.0
7.09765625,97.16796875,-128.41796875,-46.875,-8.7890625,-222.65625,0.0
7.1015625,98.14453125,-102.5390625,-60.546875,-24.4140625,-119.62890625,0.0
7.10546875,107.91015625,-93.26171875,-38.0859375,-23.92578125,-43.45703125,0.0
7.109375,89.84375,-84.9609375,-19.04296875,-5.37109375,-42.96875,0.0
7.11328125,63.4765625,-120.1171875,-27.34375,-12.20703125,-42.96875,0.0
7.1171875,37.59765625,-186.5234375,-50.29296875,-22.4609375,-29.78515625,0.0
7.12109375,59.08203125,-175.29296875,-59.5703125,-21.97265625,47.36328125,0.0
7.125,127.9296875,-157.2265625,-54.6875,-5.859375,65.91796875,0.0
7.12890625,101.5625,-141.6015625,-62.01171875,-21.97265625,36.62109375,0.0
7.1328125,48.828125,-117.67578125,-55.6640625,-35.15625,1.46484375,0.0
7.13671875,60.05859375,-120.1171875,-45.8984375,-15.13671875,-9.27734375,0.0
7.140625,52.734375,-158.203125,-47.36328125,-33.203125,69.3359375,0.0
7.14453125,20.99609375,-208.49609375,-40.52734375,-9.765625,70.80078125,0.0
7.1484375,27.34375,-212.890625,-35.15625,9.27734375,55.17578125,0.0
7.15234375,53.7109375,-195.80078125,-43.45703125,-46.38671875,-26.3671875,0.0
7.15625,57.6171875,-187.5,-43.9453125,-39.0625,-54.19921875,0.0
7.16015625,51.7578125,-180.17578125,-48.33984375,-22.4609375,72.265625,0.0
7.1640625,53.7109375,-154.296875,-54.19921875,-24.4140625,69.82421875,0.0
7.16796875,71.77734375,-174.8046875,-36.1328125,-25.87890625,23.4375,0.0
7.171875,71.77734375,-166.9921875,-18.06640625,-16.11328125,15.625,0.0
7.17578125,69.82421875,-120.60546875,-8.7890625,-2.9296875,8.30078125,0.0
7.1796875,52.24609375,-123.046875,-2.44140625,13.671875,-27.83203125,0.0
7.18359375,32.71484375,-112.3046875,-15.625,0.48828125,-65.4296875,0.0
7.1875,58.10546875,-104.4921875,-27.83203125,-28.80859375,-79.1015625,0.0
7.19140625,58.59375,-149.4140625,-29.296875,-50.29296875,-54.19921875,0.0
7.1953125,61.5234375,-152.83203125,-38.57421875,-59.5703125,-0.48828125,0.0
7.19921875,80.078125,-148.4375,-55.17578125,-24.4140625,30.2734375,0.0
7.203125,58.10546875,-156.25,-69.3359375,1.953125,-28.80859375,0.0
7.20703125,58.10546875,-182.6171875,-83.49609375,-35.64453125,-58.59375,0.0
7.2109375,56.640625,-239.2578125,-93.26171875,-55.6640625,-54.6875,0.0
7.21484375,53.7109375,-229.4921875,-88.37890625,-41.9921875,-131.34765625,0.0
7.21875,63.4765625,-174.8046875,-77.63671875,-9.27734375,-120.1171875,0.0
7.22265625,60.05859375,-172.8515625,-64.94140625,4.39453125,-18.06640625,0.0
7.2265625,40.0390625,-179.19921875,-55.6640625,-23.4375,-17.08984375,0.0
7.23046875,62.01171875,-170.41015625,-46.875,-25.87890625,-27.83203125,0.0
7.234375,103.02734375,-187.98828125,-49.8046875,-14.6484375,14.6484375,0.0
7.23828125,90.33203125,-213.37890625,-41.9921875,1.46484375,21.97265625,0.0
7.2421875,61.03515625,-199.70703125,-27.34375,10.25390625,-28.3203125,0.0
7.24609375,47.36328125,-210.9375,-30.76171875,0.48828125,-62.01171875,0.0
7.25,77.1484375,-166.9921875,-25.390625,12.6953125,-56.640625,0.0
7.25390625,114.2578125,-151.3671875,-34.1796875,11.23046875,-47.36328125,0.0
7.2578125,161.62109375,-178.7109375,-36.1328125,35.15625,11.23046875,0.0
7.26171875,167.48046875,-175.78125,-18.06640625,24.90234375,-4.8828125,0.0
7.265625,66.89453125,-187.01171875,-20.99609375,-14.6484375,-67.3828125,0.0
7.26953125,68.84765625,-190.4296875,-32.2265625,-9.765625,-63.96484375,0.0
7.2734375,120.60546875,-144.53125,-24.90234375,15.13671875,-31.25,0.0
7.27734375,100.09765625,-131.34765625,-11.23046875,18.5546875,-96.6796875,0.0
7.28125,119.62890625,-153.3203125,-17.08984375,-5.859375,-102.5390625,0.0
7.28515625,137.20703125,-105.95703125,-36.62109375,2.44140625,5.859375,0.0
7.2890625,104.4921875,-47.36328125,-48.33984375,0.48828125,50.29296875,0.0
7.29296875,99.609375,-33.203125,-41.50390625,18.5546875,0.0,0.0
7.296875,106.93359375,-10.25390625,-42.96875,36.62109375,-46.875,0.0
7.30078125,109.86328125,-27.34375,-56.640625,3.41796875,-44.43359375,0.0
7.3046875,121.58203125,-31.25,-57.6171875,-0.9765625,-64.94140625,0.0
7.30859375,113.28125,-6.34765625,-56.640625,0.0,-41.50390625,0.0
7.3125,101.07421875,-12.6953125,-23.92578125,26.3671875,-10.25390625,0.0
7.31640625,92.28515625,-16.6015625,-8.7890625,27.83203125,-51.26953125,0.0
7.3203125,81.0546875,29.296875,-20.01953125,-9.765625,-54.19921875,0.0
7.32421875,36.62109375,68.359375,-26.85546875,-58.59375,61.5234375,0.0
7.328125,29.78515625,87.890625,-24.90234375,-71.77734375,100.5859375,0.0
7.33203125,44.921875,109.375,-0.48828125,-43.45703125,41.015625,0.0
7.3359375,-16.6015625,130.37109375,7.8125,-124.51171875,52.24609375,0.0
7.33984375,-89.84375,130.37109375,-1.953125,-212.890625,30.76171875,0.0
7.34375,-166.50390625,130.37109375,-5.859375,-256.8359375,-31.73828125,0.0
7.34765625,-194.82421875,140.625,10.7421875,-290.0390625,-1.953125,0.0
7.3515625,-225.5859375,100.09765625,23.92578125,-332.03125,38.0859375,0.0
7.35546875,-231.93359375,38.57421875,4.39453125,-372.0703125,-59.5703125,0.0
7.359375,-220.21484375,62.01171875,-41.9921875,-405.2734375,-122.55859375,0.0
7.36328125,-236.328125,62.98828125,-59.5703125,-447.265625,-71.77734375,0.0
7.3671875,-206.0546875,82.51953125,-51.26953125,-445.80078125,-41.50390625,0.0
7.37109375,-192.3828125,120.1171875,-50.78125,-424.8046875,-23.92578125,0.0
7.375,-185.546875,110.3515625,-58.59375,-395.5078125,-76.66015625,0.0
7.37890625,-140.13671875,94.23828125,-63.96484375,-391.11328125,-96.19140625,0.0
7.3828125,-119.62890625,91.30859375,-61.5234375,-371.58203125,-23.4375,0.0
7.38671875,-122.55859375,82.03125,-54.19921875,-338.8671875,-60.546875,0.0
7.390625,-83.0078125,102.05078125,-48.828125,-323.2421875,-92.7734375,0.0
7.39453125,-35.15625,103.515625,-44.921875,-277.34375,-14.6484375,0.0
7.3984375,-6.8359375,62.5,-40.52734375,-217.7734375,-7.32421875,0.0
7.40234375,26.85546875,57.12890625,-44.921875,-174.8046875,38.57421875,0.0
7.40625,77.63671875,51.7578125,-45.8984375,-126.953125,22.94921875,0.0
7.41015625,105.95703125,16.11328125,-39.55078125,-93.26171875,-76.66015625,0.0
7.4140625,116.69921875,36.1328125,-43.45703125,-53.7109375,-73.73046875,0.0
7.41796875,160.15625,40.0390625,-52.24609375,-12.20703125,-4.8828125,0.0
7.421875,207.51953125,-9.765625,-45.8984375,12.6953125,-1.953125,0.0
7.42578125,248.046875,-43.45703125,-29.78515625,9.765625,-37.109375,0.0
7.4296875,285.64453125,-14.16015625,-25.87890625,62.98828125,5.37109375,0.0
7.43359375,302.24609375,-21.484375,-33.203125,95.703125,6.8359375,0.0
7.4375,342.28515625,-41.50390625,-34.66796875,88.8671875,-40.0390625,0.0
7.44140625,373.53515625,-76.66015625,-23.4375,128.90625,-28.80859375,0.0
7.4453125,402.34375,-142.578125,-20.01953125,140.625,-47.8515625,0.0
7.44921875,424.8046875,-123.53515625,-12.20703125,142.08984375,-89.84375,0.0
7.453125,400.87890625,-80.078125,4.39453125,156.73828125,-86.9140625,0.0
7.45703125,406.73828125,-89.84375,12.6953125,164.55078125,-64.94140625,0.0
7.4609375,417.96875,-136.23046875,-0.9765625,170.41015625,-34.1796875,0.0
7.46484375,415.52734375,-154.78515625,-19.53125,184.08203125,-41.9921875,0.0
7.46875,366.69921875,-108.88671875,-4.39453125,192.3828125,-52.734375,0.0
7.47265625,343.26171875,-73.73046875,6.8359375,158.69140625,-78.61328125,0.0
7.4765625,387.20703125,-113.76953125,1.46484375,148.92578125,-140.625,0.0
7.48046875,358.88671875,-164.55078125,-12.20703125,166.9921875,-140.625,0.0
7.484375,328.125,-84.9609375,-20.99609375,137.6953125,-99.12109375,0.0
7.48828125,346.19140625,-85.44921875,-1.953125,128.41796875,-69.3359375,0.0
7.4921875,330.56640625,-155.2734375,0.0,140.13671875,-51.26953125,0.0
7.49609375,329.1015625,-192.87109375,-10.7421875,156.25,-10.7421875,0.0
7.5,358.88671875,-248.53515625,-6.34765625,173.828125,7.32421875,0.0
7.50390625,290.0390625,-219.23828125,-6.8359375,162.109375,-4.8828125,0.0
7.5078125,252.44140625,-159.66796875,-2.9296875,128.41796875,0.48828125,0.0
7.51171875,290.52734375,-185.05859375,5.37109375,110.3515625,12.20703125,0.0
7.515625,285.15625,-250.9765625,6.34765625,105.46875,-37.109375,0.0
7.51953125,273.4375,-211.9140625,-0.9765625,110.83984375,-18.5546875,0.0
7.5234375,256.8359375,-191.40625,-17.578125,117.67578125,-46.38671875,0.0
7.52734375,242.67578125,-241.69921875,-21.97265625,102.5390625,-62.5,0.0
7.53125,247.55859375,-300.29296875,-13.671875,88.8671875,-76.66015625,0.0
7.53515625,272.94921875,-349.12109375,-16.11328125,113.28125,-121.58203125,0.0
7.5390625,244.140625,-385.25390625,-20.5078125,109.375,-91.796875,0.0
7.54296875,147.4609375,-435.05859375,-12.20703125,80.078125,9.765625,0.0
7.546875,166.9921875,-422.36328125,-25.390625,63.96484375,25.87890625,0.0
7.55078125,217.28515625,-375.48828125,-42.96875,90.8203125,-59.5703125,0.0
7.5546875,214.35546875,-359.86328125,-48.33984375,85.44921875,-79.1015625,0.0
7.55859375,179.6875,-402.83203125,-48.33984375,38.57421875,-98.14453125,0.0
7.5625,171.38671875,-481.93359375,-32.2265625,8.7890625,-124.51171875,0.0
7.56640625,145.99609375,-457.03125,-38.0859375,35.15625,-148.92578125,0.0
7.5703125,204.1015625,-339.84375,-56.15234375,63.96484375,-162.109375,0.0
7.57421875,220.703125,-289.0625,-41.9921875,40.52734375,-79.58984375,0.0
7.578125,161.1328125,-304.19921875,-39.55078125,35.64453125,-66.89453125,0.0
7.58203125,166.50390625,-297.36328125,-61.5234375,36.62109375,-68.359375,0.0
7.5859375,167.96875,-346.6796875,-57.12890625,27.83203125,11.71875,0.0
7.58984375,158.69140625,-432.6171875,-35.15625,19.04296875,-67.87109375,0.0
7.59375,142.08984375,-393.5546875,-27.83203125,31.25,-103.02734375,0.0
7.59765625,146.97265625,-392.08984375,-21.97265625,41.9921875,-6.34765625,0.0
7.6015625,152.83203125,-415.52734375,-7.32421875,30.2734375,24.90234375,0.0
7.60546875,111.328125,-407.2265625,6.34765625,25.87890625,-25.390625,0.0
7.609375,78.61328125,-441.89453125,-4.8828125,38.57421875,-63.96484375,0.0
7.61328125,101.5625,-450.1953125,-18.06640625,35.64453125,-22.4609375,0.0
7.6171875,117.67578125,-439.94140625,-19.53125,35.15625,24.4140625,0.0
7.62109375,111.328125,-460.9375,-28.80859375,30.76171875,-14.6484375,0.0
7.625,130.37109375,-420.8984375,-39.0625,35.15625,-79.1015625,0.0
7.62890625,105.95703125,-379.39453125,-35.64453125,41.50390625,-82.51953125,0.0
7.6328125,53.22265625,-345.703125,-21.97265625,49.31640625,-48.828125,0.0
7.63671875,66.89453125,-328.61328125,-21.97265625,41.015625,-144.53125,0.0
7.640625,42.96875,-331.54296875,-33.69140625,23.92578125,-166.50390625,0.0
7.64453125,42.96875,-333.984375,-44.43359375,-10.7421875,-127.9296875,0.0
7.6484375,74.70703125,-305.17578125,-43.45703125,7.8125,-135.25390625,0.0
7.65234375,48.33984375,-321.77734375,-40.0390625,28.80859375,-115.72265625,0.0
7.65625,39.0625,-318.359375,-55.6640625,-9.765625,-75.1953125,0.0
7.66015625,44.921875,-325.1953125,-65.91796875,11.71875,-67.3828125,0.0
7.6640625,47.36328125,-305.17578125,-65.4296875,-0.9765625,-75.1953125,0.0
7.66796875,10.25390625,-258.30078125,-60.05859375,-14.16015625,-53.22265625,0.0
7.671875,-5.859375,-240.234375,-41.9921875,10.25390625,-17.08984375,0.0
7.67578125,13.671875,-297.8515625,-36.62109375,-39.0625,-30.2734375,0.0
7.6796875,44.43359375,-355.95703125,-37.59765625,-60.546875,-103.02734375,0.0
7.68359375,31.25,-319.82421875,-35.64453125,-8.30078125,-125.9765625,0.0
7.6875,9.27734375,-303.22265625,-46.875,1.953125,-50.29296875,0.0
7.69140625,69.3359375,-291.50390625,-62.98828125,-52.734375,-27.83203125,0.0
7.6953125,125.48828125,-280.2734375,-81.0546875,-62.5,-35.15625,0.0
7.69921875,82.51953125,-317.87109375,-83.0078125,-35.64453125,31.73828125,0.0
7.703125,69.3359375,-321.2890625,-62.98828125,0.48828125,55.6640625,0.0
7.70703125,126.46484375,-271.97265625,-64.94140625,-32.71484375,23.92578125,0.0
7.7109375,133.30078125,-248.53515625,-80.56640625,-104.4921875,-39.55078125,0.0
7.71484375,126.46484375,-259.27734375,-77.63671875,-92.28515625,-62.5,0.0
7.71875,121.58203125,-230.46875,-86.42578125,-69.82421875,-128.90625,0.0
7.72265625,139.6484375,-218.26171875,-86.9140625,-41.015625,-90.33203125,0.0
7.7265625,138.18359375,-270.99609375,-81.54296875,-40.52734375,-20.5078125,0.0
7.73046875,123.53515625,-319.3359375,-81.0546875,-45.8984375,-21.97265625,0.0
7.734375,184.5703125,-293.9453125,-71.2890625,-40.52734375,81.0546875,0.0
7.73828125,181.15234375,-269.53125,-72.265625,-24.90234375,84.9609375,0.0
7.7421875,156.73828125,-276.3671875,-82.51953125,-25.390625,-13.671875,0.0
7.74609375,174.8046875,-228.02734375,-80.56640625,-62.01171875,30.2734375,0.0
7.75,175.78125,-206.0546875,-70.3125,-45.41015625,84.47265625,0.0
7.75390625,164.55078125,-244.140625,-79.58984375,-24.90234375,107.421875,0.0
7.7578125,166.015625,-276.3671875,-88.37890625,-61.5234375,93.26171875,0.0
7.76171875,150.390625,-290.52734375,-99.12109375,-114.2578125,43.9453125,0.0
7.765625,166.015625,-229.4921875,-109.86328125,-105.95703125,36.62109375,0.0
7.76953125,162.109375,-197.75390625,-76.171875,-68.84765625,27.34375,0.0
7.7734375,143.5546875,-282.2265625,-67.3828125,-73.73046875,29.78515625,0.0
7.77734375,161.1328125,-264.16015625,-76.66015625,-73.2421875,55.17578125,0.0
7.78125,157.2265625,-209.47265625,-67.87109375,-73.2421875,50.29296875,0.0
7.78515625,160.15625,-212.40234375,-77.63671875,-60.546875,-16.6015625,0.0
7.7890625,116.2109375,-184.08203125,-69.82421875,-33.203125,-90.33203125,0.0
7.79296875,108.88671875,-184.08203125,-43.45703125,-41.9921875,-145.5078125,0.0
7.796875,133.7890625,-182.6171875,-34.66796875,-74.21875,-86.9140625,0.0
7.80078125,91.796875,-177.734375,-39.0625,-54.19921875,9.765625,0.0
7.8046875,89.35546875,-196.2890625,-57.6171875,-24.4140625,-46.875,0.0
7.80859375,142.08984375,-255.859375,-62.5,-46.38671875,-173.828125,0.0
7.8125,102.05078125,-181.640625,-43.9453125,-42.96875,-97.16796875,0.0
7.81640625,85.9375,-150.87890625,-41.50390625,-18.06640625,45.41015625,0.0
7.8203125,105.95703125,-201.171875,-66.89453125,-59.08203125,22.94921875,0.0
7.82421875,80.56640625,-217.28515625,-62.5,-50.29296875,-29.78515625,0.0
7.828125,55.17578125,-237.3046875,-58.10546875,-24.90234375,-39.55078125,0.0
7.83203125,47.36328125,-213.37890625,-58.10546875,-50.29296875,-38.57421875,0.0
7.8359375,53.22265625,-186.5234375,-39.0625,-39.55078125,-34.66796875,0.0
7.83984375,82.03125,-175.78125,-25.87890625,-7.8125,-81.0546875,0.0
7.84375,104.98046875,-215.8203125,-41.015625,-27.34375,-95.703125,0.0
7.84765625,65.91796875,-243.65234375,-62.01171875,-31.25,-56.640625,0.0
7.8515625,66.40625,-212.890625,-55.6640625,-27.83203125,-38.0859375,0.0
7.85546875,54.19921875,-181.15234375,-31.73828125,11.71875,23.4375,0.0
7.859375,61.5234375,-202.1484375,-29.296875,17.08984375,-6.34765625,0.0
7.86328125,58.10546875,-230.46875,-18.5546875,-40.0390625,-33.203125,0.0
7.8671875,28.80859375,-237.3046875,5.859375,-34.66796875,13.18359375,0.0
7.87109375,42.96875,-289.0625,10.25390625,-29.78515625,-5.859375,0.0
7.875,30.2734375,-287.59765625,-0.48828125,-16.11328125,-26.3671875,0.0
7.87890625,12.6953125,-222.65625,-21.97265625,-10.7421875,20.99609375,0.0
7.8828125,-3.90625,-172.8515625,-30.2734375,-41.015625,57.6171875,0.0
7.88671875,-28.80859375,-170.41015625,-35.64453125,-55.6640625,3.90625,0.0
7.890625,-23.92578125,-148.4375,-27.83203125,-24.90234375,7.32421875,0.0
7.89453125,-30.2734375,-188.96484375,-31.73828125,-30.2734375,42.96875,0.0
7.8984375,-45.8984375,-250.0,-54.19921875,-33.69140625,-8.30078125,0.0
7.90234375,-54.6875,-229.4921875,-52.24609375,-25.87890625,17.578125,0.0
7.90625,-59.5703125,-263.671875,-21.484375,-33.69140625,48.33984375,0.0
7.91015625,-78.61328125,-306.15234375,-9.765625,-40.52734375,-0.48828125,0.0
7.9140625,-88.8671875,-283.203125,-29.296875,-47.8515625,-14.6484375,0.0
7.91796875,-76.171875,-266.11328125,-25.390625,-10.25390625,-77.1484375,0.0
7.921875,-118.65234375,-243.65234375,-4.39453125,-4.39453125,-69.82421875,0.0
7.92578125,-110.3515625,-266.11328125,-11.71875,-49.31640625,-0.48828125,0.0
7.9296875,-105.46875,-282.2265625,-13.18359375,-51.26953125,2.9296875,0.0
7.93359375,-106.93359375,-294.43359375,8.30078125,-4.8828125,61.03515625,0.0
7.9375,-110.3515625,-349.12109375,13.18359375,-11.71875,-25.87890625,0.0
7.94140625,-140.13671875,-379.39453125,-11.23046875,-9.27734375,-110.83984375,0.0
7.9453125,-136.71875,-343.75,-22.4609375,13.18359375,-54.6875,0.0
7.94921875,-159.1796875,-335.44921875,-21.97265625,-23.92578125,-130.37109375,0.0
7.953125,-141.11328125,-313.96484375,-22.94921875,-33.203125,-278.3203125,0.0
7.95703125,-106.93359375,-305.17578125,-28.3203125,-19.04296875,-263.18359375,0.0
7.9609375,-125.48828125,-372.55859375,-25.87890625,-12.20703125,-207.03125,0.0
7.96484375,-193.84765625,-414.0625,-25.87890625,-16.6015625,-227.5390625,0.0
7.96875,-203.61328125,-369.140625,-38.57421875,-13.18359375,-223.6328125,0.0
7.97265625,-160.15625,-333.0078125,-22.94921875,-28.3203125,-171.875,0.0
7.9765625,-148.92578125,-333.0078125,-10.25390625,-2.9296875,-134.765625,0.0
7.98046875,-136.23046875,-330.078125,-0.9765625,13.671875,-161.1328125,0.0
7.984375,-126.46484375,-309.08203125,8.30078125,41.9921875,-167.48046875,0.0
7.98828125,-166.015625,-279.296875,20.5078125,36.62109375,-149.4140625,0.0
7.9921875,-166.9921875,-245.1171875,21.484375,0.9765625,-168.9453125,0.0
7.99609375,-132.32421875,-263.671875,5.37109375,15.625,-117.67578125,0.0
8.0,-165.52734375,-279.296875,-2.44140625,13.18359375,-98.6328125,0.0
8.00390625,-205.078125,-248.046875,-7.8125,-4.39453125,-154.296875,0.0
8.0078125,-162.109375,-205.078125,-26.85546875,-9.27734375,-71.77734375,0.0
8.01171875,-131.34765625,-259.765625,-44.43359375,-5.37109375,102.5390625,0.0
8.015625,-152.34375,-333.0078125,-34.1796875,-33.203125,233.88671875,0.0
8.01953125,-139.16015625,-334.47265625,-25.87890625,-34.66796875,208.0078125,0.0
8.0234375,-104.00390625,-320.3125,-27.83203125,18.06640625,59.5703125,0.0
8.02734375,-132.8125,-263.671875,-17.08984375,-3.41796875,32.2265625,0.0
8.03125,-131.34765625,-243.65234375,-14.16015625,-41.50390625,93.75,0.0
8.03515625,-124.0234375,-246.58203125,-15.625,-41.9921875,64.94140625,0.0
8.0390625,-143.06640625,-241.69921875,-30.2734375,-41.50390625,43.9453125,0.0
8.04296875,-129.8828125,-246.09375,-25.87890625,-34.66796875,33.69140625,0.0
8.046875,-95.21484375,-250.0,-1.953125,-39.0625,7.8125,0.0
8.05078125,-129.39453125,-312.98828125,0.48828125,-45.8984375,22.94921875,0.0
8.0546875,-85.9375,-357.91015625,-15.13671875,-24.90234375,32.2265625,0.0
8.05859375,-74.70703125,-319.82421875,-41.50390625,-55.17578125,3.41796875,0.0
8.0625,-158.203125,-290.52734375,-48.828125,-94.23828125,-0.48828125,0.0
8.06640625,-121.58203125,-283.203125,-37.59765625,-42.48046875,7.8125,0.0
8.0703125,-95.21484375,-257.32421875,-31.25,3.90625,12.20703125,0.0
8.07421875,-139.6484375,-208.49609375,-39.55078125,-20.99609375,10.25390625,0.0
8.078125,-176.7578125,-253.41796875,-54.19921875,-35.64453125,-34.1796875,0.0
8.08203125,-215.8203125,-323.2421875,-68.359375,-34.66796875,-26.85546875,0.0
8.0859375,-272.4609375,-315.4296875,-62.5,-38.57421875,-28.3203125,0.0
8.08984375,-293.45703125,-304.6875,-37.109375,-23.4375,-20.99609375,0.0
8.09375,-270.99609375,-263.18359375,-44.43359375,-45.8984375,-7.8125,0.0
8.09765625,-287.109375,-258.30078125,-52.734375,-37.59765625,-17.578125,0.0
8.1015625,-316.40625,-270.99609375,-61.5234375,-35.15625,2.44140625,0.0
8.10546875,-349.12109375,-313.96484375,-71.2890625,-68.359375,15.625,0.0
8.109375,-357.91015625,-324.70703125,-70.80078125,-100.09765625,-18.06640625,0.0
8.11328125,-353.02734375,-252.44140625,-74.21875,-99.609375,-39.0625,0.0
8.1171875,-319.3359375,-256.8359375,-73.2421875,-30.76171875,-18.06640625,0.0
8.12109375,-364.74609375,-294.921875,-88.8671875,-28.80859375,-116.2109375,0.0
8.125,-440.4296875,-270.99609375,-90.8203125,-85.44921875,-107.91015625,0.0
8.12890625,-411.1328125,-254.39453125,-76.66015625,-100.09765625,-38.57421875,0.0
8.1328125,-389.16015625,-261.71875,-78.61328125,-69.82421875,-76.66015625,0.0
8.13671875,-371.58203125,-257.8125,-80.078125,-49.31640625,-75.68359375,0.0
8.140625,-374.51171875,-231.93359375,-74.70703125,-95.21484375,-39.0625,0.0
8.14453125,-382.8125,-277.83203125,-79.58984375,-143.06640625,-58.59375,0.0
8.1484375,-351.5625,-328.61328125,-82.03125,-107.421875,-86.9140625,0.0
8.15234375,-333.49609375,-293.45703125,-75.1953125,-79.58984375,-36.62109375,0.0
8.15625,-294.921875,-298.33984375,-77.1484375,-116.2109375,-30.2734375,0.0
8.16015625,-233.88671875,-309.5703125,-80.078125,-98.6328125,-40.0390625,0.0
8.1640625,-247.55859375,-258.30078125,-87.890625,-90.33203125,88.8671875,0.0
8.16796875,-250.0,-252.44140625,-95.21484375,-124.0234375,168.45703125,0.0
8.171875,-189.94140625,-240.72265625,-89.35546875,-110.3515625,187.5,0.0
8.17578125,-193.359375,-211.9140625,-96.19140625,-81.54296875,71.77734375,0.0
8.1796875,-199.70703125,-175.29296875,-99.12109375,-125.48828125,22.94921875,0.0
8.18359375,-192.87109375,-193.84765625,-92.28515625,-140.625,96.19140625,0.0
8.1875,-198.2421875,-203.125,-99.12109375,-118.65234375,58.59375,0.0
8.19140625,-181.640625,-183.59375,-106.4453125,-121.58203125,60.546875,0.0
8.1953125,-141.6015625,-231.4453125,-100.09765625,-98.14453125,133.7890625,0.0
8.19921875,-152.34375,-288.0859375,-85.9375,-81.54296875,118.1640625,0.0
8.203125,-191.89453125,-282.71484375,-94.7265625,-127.9296875,35.64453125,0.0
8.20703125,-192.3828125,-238.76953125,-103.02734375,-146.97265625,46.875,0.0
8.2109375,-147.4609375,-219.7265625,-98.14453125,-138.671875,76.171875,0.0
8.21484375,-115.234375,-269.04296875,-103.515625,-104.4921875,-8.30078125,0.0
8.21875,-102.05078125,-306.640625,-102.05078125,-61.5234375,-112.3046875,0.0
8.22265625,-95.703125,-300.78125,-88.37890625,-89.84375,-128.41796875,0.0
8.2265625,-92.28515625,-270.5078125,-75.68359375,-105.95703125,-115.72265625,0.0
8.23046875,-87.890625,-251.953125,-59.5703125,-80.078125,-122.55859375,0.0
8.234375,-101.07421875,-252.9296875,-53.22265625,-102.5390625,-108.88671875,0.0
8.23828125,-106.93359375,-249.51171875,-66.40625,-114.2578125,-92.28515625,0.0
8.2421875,-105.95703125,-240.234375,-75.68359375,-104.4921875,-15.625,0.0
8.24609375,-88.8671875,-229.00390625,-78.61328125,-110.83984375,27.83203125,0.0
8.25,-83.984375,-233.88671875,-71.77734375,-119.62890625,27.34375,0.0
8.25390625,-100.5859375,-263.18359375,-76.66015625,-115.72265625,17.08984375,0.0
8.2578125,-58.59375,-250.48828125,-86.9140625,-103.02734375,-50.78125,0.0
8.26171875,-21.484375,-255.37109375,-53.7109375,-44.921875,-50.78125,0.0
8.265625,-40.52734375,-245.60546875,-26.3671875,-53.7109375,12.20703125,0.0
8.26953125,-22.4609375,-217.28515625,-45.41015625,-100.5859375,85.9375,0.0
8.2734375,-23.92578125,-233.88671875,-21.97265625,-76.66015625,54.19921875,0.0
8.27734375,-25.390625,-225.09765625,-18.06640625,-144.53125,-40.52734375,0.0
8.28125,-41.015625,-206.54296875,-47.8515625,-162.109375,-120.60546875,0.0
8.28515625,-32.2265625,-243.65234375,-58.59375,-158.203125,-107.91015625,0.0
8.2890625,-108.3984375,-234.86328125,-25.87890625,-216.796875,-43.9453125,0.0
8.29296875,-226.5625,-240.234375,-4.8828125,-241.69921875,-65.91796875,0.0
8.296875,-234.86328125,-241.2109375,-14.16015625,-285.64453125,-33.69140625,0.0
8.30078125,-257.8125,-227.5390625,-5.37109375,-326.66015625,62.5,0.0
8.3046875,-291.9921875,-202.63671875,-18.5546875,-361.328125,21.97265625,0.0
8.30859375,-286.62109375,-219.7265625,-49.8046875,-385.7421875,-38.57421875,0.0
8.3125,-311.03515625,-245.1171875,-80.56640625,-442.3828125,-9.765625,0.0
8.31640625,-342.7734375,-224.609375,-84.47265625,-463.37890625,-13.18359375,0.0
8.3203125,-340.8203125,-208.0078125,-87.40234375,-463.37890625,-48.33984375,0.0
8.32421875,-379.8828125,-192.87109375,-97.65625,-466.30859375,-90.33203125,0.0
8.328125,-382.8125,-168.9453125,-84.47265625,-436.03515625,-17.08984375,0.0
8.33203125,-354.00390625,-184.08203125,-71.77734375,-391.11328125,-9.27734375,0.0
8.3359375,-294.43359375,-188.96484375,-80.078125,-369.62890625,-45.41015625,0.0
8.33984375,-250.0,-158.203125,-80.078125,-355.95703125,-43.9453125,0.0
8.34375,-224.609375,-141.11328125,-83.984375,-311.5234375,-22.94921875,0.0
8.34765625,-202.1484375,-165.0390625,-91.30859375,-254.8828125,-62.98828125,0.0
8.3515625,-137.6953125,-172.8515625,-78.61328125,-183.59375,-173.33984375,0.0
8.35546875,-68.84765625,-152.83203125,-59.08203125,-139.6484375,-128.41796875,0.0
8.359375,-76.66015625,-154.78515625,-60.05859375,-112.3046875,-94.7265625,0.0
8.36328125,-41.50390625,-168.9453125,-64.94140625,-78.125,-106.93359375,0.0
8.3671875,12.20703125,-153.3203125,-69.82421875,-77.63671875,-54.6875,0.0
8.37109375,35.64453125,-148.4375,-70.3125,-15.13671875,-49.31640625,0.0
8.375,72.265625,-146.97265625,-56.15234375,75.68359375,-71.77734375,0.0
8.37890625,120.1171875,-143.06640625,-71.2890625,23.92578125,-99.12109375,0.0
8.3828125,124.0234375,-160.15625,-87.890625,-1.46484375,-44.43359375,0.0
8.38671875,136.23046875,-203.61328125,-63.96484375,78.125,13.671875,0.0
8.390625,159.1796875,-222.65625,-49.8046875,102.05078125,-6.34765625,0.0
8.39453125,166.50390625,-189.453125,-49.31640625,125.9765625,12.6953125,0.0
