timestamp,TP9,AF7,AF8,TP10,AUX,Marker,
235.00390625,-22.4609375,-38.57421875,-19.53125,33.69140625,-35.64453125,0.0
235.0078125,-33.69140625,-41.50390625,-18.5546875,12.20703125,-28.3203125,0.0
235.01171875,-29.296875,-32.71484375,-18.5546875,-22.4609375,6.8359375,0.0
235.015625,-26.85546875,-36.1328125,-22.4609375,-24.90234375,-91.796875,0.0
235.01953125,-30.2734375,-40.0390625,-19.04296875,3.90625,-120.60546875,0.0
235.0234375,-18.06640625,-27.83203125,-17.08984375,22.94921875,-105.95703125,0.0
235.02734375,-16.11328125,-25.87890625,-27.34375,0.0,-140.13671875,0.0
235.03125,-21.97265625,-35.64453125,-31.73828125,-16.11328125,-165.52734375,0.0
235.03515625,-32.71484375,-34.66796875,-26.85546875,4.8828125,-162.109375,0.0
235.0390625,-27.34375,-24.4140625,-16.11328125,27.34375,-49.8046875,0.0
235.04296875,-24.90234375,-27.83203125,-19.53125,27.34375,-10.7421875,0.0
235.046875,-13.671875,-37.109375,-26.85546875,28.3203125,-80.078125,0.0
235.05078125,0.9765625,-43.45703125,-24.4140625,39.0625,-135.7421875,0.0
235.0546875,-5.859375,-34.1796875,-14.16015625,30.2734375,-137.6953125,0.0
235.05859375,-4.39453125,-19.04296875,-12.6953125,24.90234375,-76.66015625,0.0
235.0625,-11.23046875,-20.99609375,-29.296875,7.32421875,-46.875,0.0
235.06640625,0.48828125,-29.78515625,-44.43359375,-5.859375,-46.875,0.0
235.0703125,-20.01953125,-37.59765625,-41.015625,-2.44140625,-125.48828125,0.0
235.07421875,-46.875,-27.83203125,-17.578125,19.04296875,-41.9921875,0.0
235.078125,-29.296875,-14.6484375,-4.39453125,34.66796875,143.06640625,0.0
235.08203125,-15.625,-16.11328125,-11.23046875,18.5546875,174.8046875,0.0
235.0859375,-20.01953125,-22.94921875,-18.5546875,6.8359375,163.0859375,0.0
235.08984375,-3.90625,-34.1796875,-28.80859375,4.8828125,63.4765625,0.0
235.09375,-7.32421875,-30.2734375,-27.34375,13.671875,2.9296875,0.0
235.09765625,-33.203125,-22.94921875,-13.671875,7.32421875,86.9140625,0.0
235.1015625,-29.78515625,-22.94921875,-3.41796875,47.36328125,192.3828125,0.0
235.10546875,-25.87890625,-26.85546875,-16.11328125,108.88671875,157.71484375,0.0
235.109375,-26.85546875,-35.64453125,-32.71484375,99.609375,17.578125,0.0
235.11328125,-21.484375,-39.0625,-20.5078125,66.40625,11.23046875,0.0
235.1171875,-33.69140625,-32.71484375,-15.13671875,51.7578125,36.1328125,0.0
235.12109375,-23.92578125,-27.83203125,-26.3671875,28.3203125,77.1484375,0.0
235.125,-31.73828125,-27.83203125,-34.66796875,1.953125,52.24609375,0.0
235.12890625,-52.734375,-31.73828125,-33.69140625,-19.53125,-35.64453125,0.0
235.1328125,-53.7109375,-27.34375,-23.92578125,-17.578125,-24.90234375,0.0
235.13671875,-41.9921875,-23.4375,-23.4375,9.27734375,-20.99609375,0.0
235.140625,-41.9921875,-29.296875,-21.484375,11.71875,-0.48828125,0.0
235.14453125,-21.97265625,-28.80859375,-20.01953125,10.7421875,69.3359375,0.0
235.1484375,-16.6015625,-32.2265625,-20.01953125,32.2265625,-30.76171875,0.0
235.15234375,-46.38671875,-34.1796875,-14.6484375,20.99609375,-129.39453125,0.0
235.15625,-41.50390625,-29.296875,-21.484375,14.6484375,-110.83984375,0.0
235.16015625,-6.8359375,-32.71484375,-19.53125,29.296875,-25.87890625,0.0
235.1640625,-13.671875,-34.1796875,-5.37109375,23.92578125,14.6484375,0.0
235.16796875,-37.109375,-34.1796875,-10.7421875,47.36328125,-34.1796875,0.0
235.171875,-17.578125,-34.66796875,-18.06640625,95.21484375,-15.13671875,0.0
235.17578125,-19.53125,-34.1796875,-13.671875,99.609375,-7.8125,0.0
235.1796875,-33.69140625,-26.3671875,-8.7890625,93.75,-55.6640625,0.0
235.18359375,-36.1328125,-21.484375,-17.08984375,84.9609375,-4.39453125,0.0
235.1875,-34.66796875,-28.3203125,-28.80859375,48.33984375,12.20703125,0.0
235.19140625,-28.80859375,-33.69140625,-24.90234375,30.76171875,-74.21875,0.0
235.1953125,-26.3671875,-30.2734375,-20.5078125,20.01953125,-128.41796875,0.0
235.19921875,-32.71484375,-26.3671875,-23.92578125,12.20703125,-12.20703125,0.0
235.203125,-31.73828125,-34.1796875,-31.73828125,32.2265625,69.3359375,0.0
235.20703125,-54.6875,-45.41015625,-36.62109375,42.96875,-62.5,0.0
235.2109375,-82.51953125,-45.8984375,-36.62109375,66.89453125,-92.28515625,0.0
235.21484375,-82.51953125,-39.0625,-32.71484375,123.53515625,-71.2890625,0.0
235.21875,-59.5703125,-31.25,-21.484375,144.04296875,-140.625,0.0
235.22265625,-36.62109375,-27.83203125,-19.53125,105.46875,-170.8984375,0.0
235.2265625,-35.64453125,-28.80859375,-23.4375,109.86328125,-147.94921875,0.0
235.23046875,-36.62109375,-38.0859375,-27.34375,107.91015625,-167.48046875,0.0
235.234375,-30.2734375,-41.9921875,-29.296875,120.60546875,-161.1328125,0.0
235.23828125,-25.390625,-33.69140625,-25.390625,162.59765625,-147.94921875,0.0
235.2421875,-23.92578125,-24.4140625,-16.11328125,147.4609375,-137.6953125,0.0
235.24609375,-22.4609375,-26.85546875,-16.6015625,145.99609375,-99.12109375,0.0
235.25,-12.20703125,-35.15625,-32.71484375,170.41015625,-57.6171875,0.0
235.25390625,-32.2265625,-38.0859375,-31.25,172.8515625,57.6171875,0.0
235.2578125,-24.4140625,-30.76171875,-21.484375,168.9453125,7.8125,0.0
235.26171875,-23.4375,-25.87890625,-29.78515625,175.29296875,-81.54296875,0.0
235.265625,-23.4375,-28.3203125,-34.66796875,127.44140625,10.25390625,0.0
235.26953125,-18.5546875,-31.73828125,-37.59765625,56.15234375,71.77734375,0.0
235.2734375,-41.50390625,-28.80859375,-32.2265625,13.18359375,-6.8359375,0.0
235.27734375,-42.96875,-28.80859375,-26.3671875,2.9296875,-0.48828125,0.0
235.28125,-26.3671875,-33.69140625,-24.90234375,-25.390625,81.0546875,0.0
235.28515625,-11.71875,-32.2265625,-21.484375,-46.875,-27.34375,0.0
235.2890625,2.44140625,-30.76171875,-25.87890625,-65.91796875,-106.4453125,0.0
235.29296875,-2.44140625,-24.4140625,-29.296875,-85.44921875,-13.671875,0.0
235.296875,-12.6953125,-26.85546875,-27.34375,-91.796875,-37.59765625,0.0
235.30078125,-17.578125,-30.2734375,-23.92578125,-75.1953125,-56.640625,0.0
235.3046875,-50.29296875,-33.203125,-25.87890625,-69.82421875,65.4296875,0.0
235.30859375,-81.54296875,-43.45703125,-31.73828125,-114.2578125,118.1640625,0.0
235.3125,-89.84375,-45.41015625,-30.2734375,-141.6015625,37.109375,0.0
235.31640625,-67.3828125,-38.0859375,-24.4140625,-137.6953125,-20.5078125,0.0
235.3203125,-39.55078125,-40.0390625,-29.296875,-101.07421875,-7.32421875,0.0
235.32421875,-45.41015625,-37.59765625,-26.3671875,-48.33984375,35.15625,0.0
235.328125,-34.66796875,-35.15625,-24.4140625,-42.48046875,9.27734375,0.0
235.33203125,-30.76171875,-33.69140625,-22.4609375,-57.6171875,-73.73046875,0.0
235.3359375,-59.5703125,-22.94921875,-13.671875,-32.71484375,-22.4609375,0.0
235.33984375,-53.7109375,-20.01953125,-19.53125,-9.765625,97.16796875,0.0
235.34375,-41.9921875,-30.2734375,-19.53125,19.04296875,94.7265625,0.0
235.34765625,-43.45703125,-39.0625,-26.85546875,-14.6484375,26.3671875,0.0
235.3515625,-16.11328125,-37.59765625,-30.76171875,-81.0546875,-30.2734375,0.0
235.35546875,-27.83203125,-32.71484375,-27.34375,-88.37890625,-33.69140625,0.0
235.359375,-46.875,-31.73828125,-28.80859375,-124.51171875,26.3671875,0.0
235.36328125,-46.875,-37.59765625,-25.87890625,-157.2265625,10.25390625,0.0
235.3671875,-52.734375,-35.64453125,-29.296875,-159.1796875,-12.6953125,0.0
235.37109375,-41.9921875,-31.73828125,-33.69140625,-159.66796875,-83.49609375,0.0
235.375,-28.80859375,-30.76171875,-26.3671875,-153.80859375,-88.37890625,0.0
235.37890625,-27.83203125,-25.87890625,-22.94921875,-129.39453125,6.34765625,0.0
235.3828125,-34.1796875,-21.97265625,-21.484375,-117.67578125,28.3203125,0.0
235.38671875,-25.87890625,-25.87890625,-20.01953125,-149.4140625,73.2421875,0.0
235.390625,-15.625,-37.109375,-29.78515625,-158.69140625,15.625,0.0
235.39453125,-13.18359375,-38.57421875,-26.85546875,-132.8125,-34.1796875,0.0
235.3984375,-31.25,-28.80859375,-17.578125,-120.60546875,37.109375,0.0
235.40234375,-46.38671875,-29.78515625,-24.4140625,-124.0234375,70.80078125,0.0
235.40625,-36.62109375,-40.52734375,-33.69140625,-127.44140625,-42.48046875,0.0
235.41015625,-36.1328125,-46.875,-34.1796875,-122.55859375,-159.1796875,0.0
235.4140625,-28.3203125,-41.015625,-18.5546875,-116.69921875,-173.33984375,0.0
235.41796875,-16.6015625,-38.57421875,-11.23046875,-159.66796875,-183.59375,0.0
235.421875,1.953125,-35.15625,-16.11328125,-178.7109375,-189.94140625,0.0
235.42578125,18.5546875,-27.34375,-12.6953125,-190.4296875,-167.48046875,0.0
235.4296875,8.7890625,-32.71484375,-19.04296875,-207.51953125,-155.76171875,0.0
235.43359375,-20.5078125,-36.1328125,-17.08984375,-199.21875,-141.6015625,0.0
235.4375,-40.52734375,-32.71484375,-14.16015625,-199.70703125,-67.3828125,0.0
235.44140625,-23.4375,-31.73828125,-19.53125,-167.48046875,-24.90234375,0.0
235.4453125,-26.85546875,-35.64453125,-22.4609375,-152.83203125,-40.0390625,0.0
235.44921875,-52.734375,-41.015625,-35.64453125,-156.73828125,-33.69140625,0.0
235.453125,-56.640625,-36.62109375,-33.203125,-148.92578125,-40.52734375,0.0
235.45703125,-41.015625,-36.1328125,-27.34375,-125.9765625,-83.984375,0.0
235.4609375,-27.83203125,-33.69140625,-33.203125,-112.79296875,-100.5859375,0.0
235.46484375,-19.04296875,-34.1796875,-36.1328125,-105.95703125,-63.4765625,0.0
235.46875,-20.5078125,-37.59765625,-37.59765625,-83.49609375,-13.18359375,0.0
235.47265625,-20.99609375,-38.0859375,-28.80859375,-85.44921875,-33.203125,0.0
235.4765625,-11.71875,-27.83203125,-20.5078125,-115.72265625,-20.99609375,0.0
235.48046875,-8.7890625,-21.97265625,-26.85546875,-144.53125,6.34765625,0.0
235.484375,-35.15625,-31.73828125,-38.57421875,-177.734375,-63.96484375,0.0
235.48828125,-48.828125,-41.50390625,-40.52734375,-194.3359375,-70.80078125,0.0
235.4921875,-49.31640625,-40.0390625,-26.85546875,-182.12890625,-78.61328125,0.0
235.49609375,-39.55078125,-38.57421875,-18.06640625,-175.29296875,-99.609375,0.0
235.5,-32.71484375,-33.69140625,-20.01953125,-167.48046875,-15.625,0.0
235.50390625,-32.71484375,-25.390625,-22.4609375,-157.71484375,78.125,0.0
235.5078125,-51.7578125,-36.62109375,-22.4609375,-168.9453125,56.640625,0.0
235.51171875,-66.89453125,-42.48046875,-25.87890625,-168.9453125,-0.48828125,0.0
235.515625,-38.57421875,-32.2265625,-20.5078125,-144.04296875,-44.43359375,0.0
235.51953125,-26.3671875,-22.4609375,-13.671875,-143.06640625,-20.5078125,0.0
235.5234375,-21.484375,-21.484375,-15.13671875,-148.92578125,35.15625,0.0
235.52734375,-11.23046875,-23.4375,-17.578125,-116.69921875,63.96484375,0.0
235.53125,-15.625,-24.4140625,-26.85546875,-82.03125,66.40625,0.0
235.53515625,-0.48828125,-24.4140625,-21.484375,-74.70703125,42.96875,0.0
235.5390625,30.2734375,-20.99609375,-16.6015625,-82.03125,22.4609375,0.0
235.54296875,10.25390625,-25.87890625,-26.85546875,-63.4765625,-36.1328125,0.0
235.546875,-16.11328125,-30.2734375,-32.2265625,-61.5234375,-70.3125,0.0
235.55078125,-21.97265625,-37.59765625,-38.0859375,-77.63671875,-49.8046875,0.0
235.5546875,-23.4375,-35.64453125,-34.1796875,-62.01171875,1.46484375,0.0
235.55859375,-27.83203125,-29.296875,-24.4140625,-66.40625,17.08984375,0.0
235.5625,-38.57421875,-26.3671875,-19.04296875,-82.51953125,41.015625,0.0
235.56640625,-56.15234375,-28.80859375,-20.99609375,-82.51953125,51.26953125,0.0
235.5703125,-64.453125,-29.296875,-20.5078125,-84.47265625,-19.53125,0.0
235.57421875,-74.70703125,-29.296875,-15.625,-100.5859375,-88.8671875,0.0
235.578125,-64.94140625,-32.2265625,-13.18359375,-123.046875,10.7421875,0.0
235.58203125,-55.6640625,-35.15625,-17.578125,-125.48828125,38.57421875,0.0
235.5859375,-73.2421875,-34.1796875,-27.83203125,-134.765625,-11.71875,0.0
235.58984375,-81.54296875,-34.66796875,-34.66796875,-142.578125,9.27734375,0.0
235.59375,-70.80078125,-37.109375,-29.78515625,-129.8828125,-19.53125,0.0
235.59765625,-49.8046875,-37.109375,-26.3671875,-114.74609375,-104.4921875,0.0
235.6015625,-32.71484375,-33.69140625,-25.390625,-128.41796875,-123.046875,0.0
235.60546875,-47.8515625,-33.203125,-25.390625,-124.0234375,-51.7578125,0.0
235.609375,-35.15625,-36.62109375,-26.3671875,-92.7734375,-19.53125,0.0
235.61328125,4.39453125,-28.80859375,-20.01953125,-93.26171875,-56.640625,0.0
235.6171875,-7.8125,-24.90234375,-24.4140625,-86.42578125,-87.890625,0.0
235.62109375,-32.2265625,-21.484375,-38.57421875,-48.33984375,-82.51953125,0.0
235.625,-5.37109375,-12.6953125,-32.71484375,-46.38671875,-140.13671875,0.0
235.62890625,-18.06640625,-24.90234375,-28.80859375,-63.96484375,-172.36328125,0.0
235.6328125,-53.7109375,-36.62109375,-21.97265625,-48.828125,-123.53515625,0.0
235.63671875,-40.0390625,-19.04296875,-19.04296875,-28.3203125,-42.48046875,0.0
235.640625,-22.94921875,-10.7421875,-20.5078125,-13.671875,-36.62109375,0.0
235.64453125,-34.66796875,-20.5078125,-21.97265625,-57.12890625,-149.90234375,0.0
235.6484375,-36.1328125,-24.90234375,-19.04296875,-85.9375,-193.359375,0.0
235.65234375,-36.62109375,-26.85546875,-20.01953125,-83.984375,-166.9921875,0.0
235.65625,-32.2265625,-24.4140625,-24.90234375,-66.89453125,-72.75390625,0.0
235.66015625,-15.13671875,-24.90234375,-28.3203125,-59.5703125,-8.7890625,0.0
235.6640625,-6.8359375,-30.76171875,-38.57421875,-71.2890625,37.109375,0.0
235.66796875,-25.390625,-34.66796875,-45.8984375,-74.70703125,22.4609375,0.0
235.671875,-53.22265625,-38.57421875,-34.1796875,-46.38671875,-40.0390625,0.0
235.67578125,-38.57421875,-37.109375,-31.25,-2.44140625,-41.9921875,0.0
235.6796875,-25.390625,-27.83203125,-33.69140625,20.5078125,-65.91796875,0.0
235.68359375,-30.76171875,-30.76171875,-31.25,1.46484375,-74.21875,0.0
235.6875,-18.5546875,-35.64453125,-34.66796875,4.8828125,41.50390625,0.0
235.69140625,4.39453125,-36.62109375,-37.59765625,53.22265625,-35.64453125,0.0
235.6953125,-5.37109375,-36.1328125,-25.87890625,75.68359375,-55.6640625,0.0
235.69921875,-19.04296875,-31.25,-24.4140625,94.23828125,35.64453125,0.0
235.703125,4.8828125,-31.73828125,-21.484375,134.765625,-12.6953125,0.0
235.70703125,7.32421875,-29.78515625,-23.4375,166.9921875,-4.39453125,0.0
235.7109375,-13.18359375,-24.90234375,-28.80859375,187.01171875,26.3671875,0.0
235.71484375,-8.7890625,-18.06640625,-15.13671875,206.54296875,41.015625,0.0
235.71875,-7.32421875,-14.16015625,-9.27734375,219.23828125,37.109375,0.0
235.72265625,-14.6484375,-24.4140625,-28.80859375,216.796875,17.578125,0.0
235.7265625,-29.296875,-35.64453125,-41.015625,198.2421875,-32.71484375,0.0
235.73046875,-36.62109375,-41.015625,-35.15625,196.77734375,-37.109375,0.0
235.734375,-31.25,-47.36328125,-31.25,214.35546875,-14.16015625,0.0
235.73828125,-34.66796875,-52.24609375,-33.69140625,211.42578125,3.41796875,0.0
235.7421875,-32.2265625,-41.015625,-30.76171875,186.5234375,-66.40625,0.0
235.74609375,-33.69140625,-37.59765625,-29.296875,161.1328125,-136.71875,0.0
235.75,-56.15234375,-42.96875,-42.48046875,153.80859375,-63.96484375,0.0
235.75390625,-50.29296875,-38.57421875,-39.55078125,156.25,-51.7578125,0.0
235.7578125,-32.2265625,-30.2734375,-34.1796875,162.109375,-14.16015625,0.0
235.76171875,-35.64453125,-33.203125,-39.0625,187.5,60.546875,0.0
235.765625,-42.96875,-41.015625,-41.015625,208.0078125,37.109375,0.0
235.76953125,-39.0625,-47.36328125,-38.57421875,187.01171875,-44.921875,0.0
235.7734375,-52.734375,-45.41015625,-37.109375,168.45703125,-10.7421875,0.0
235.77734375,-50.78125,-34.1796875,-31.25,175.78125,21.97265625,0.0
235.78125,-21.97265625,-32.71484375,-25.390625,184.08203125,-19.04296875,0.0
235.78515625,-10.25390625,-27.34375,-33.203125,194.3359375,-123.53515625,0.0
235.7890625,-30.2734375,-29.78515625,-29.296875,162.109375,-173.828125,0.0
235.79296875,-41.015625,-37.59765625,-20.99609375,159.1796875,-187.01171875,0.0
235.796875,-20.99609375,-34.66796875,-28.3203125,153.3203125,-134.765625,0.0
235.80078125,-22.4609375,-34.1796875,-29.78515625,163.0859375,-91.30859375,0.0
235.8046875,-36.1328125,-34.66796875,-29.78515625,188.96484375,-86.42578125,0.0
235.80859375,-36.62109375,-41.9921875,-38.0859375,170.8984375,-4.8828125,0.0
235.8125,-26.85546875,-44.921875,-35.64453125,150.87890625,-30.2734375,0.0
235.81640625,-5.859375,-34.1796875,-27.83203125,118.65234375,-53.22265625,0.0
235.8203125,-14.6484375,-34.66796875,-38.57421875,104.4921875,2.44140625,0.0
235.82421875,-26.3671875,-45.8984375,-35.64453125,132.32421875,-4.39453125,0.0
235.828125,-24.90234375,-48.828125,-21.97265625,164.55078125,-6.34765625,0.0
235.83203125,-19.53125,-41.50390625,-20.01953125,133.7890625,-75.68359375,0.0
235.8359375,-20.01953125,-41.50390625,-17.08984375,105.46875,-79.58984375,0.0
235.83984375,-20.5078125,-38.57421875,-23.92578125,118.1640625,0.48828125,0.0
235.84375,-20.01953125,-31.25,-25.390625,116.69921875,-51.7578125,0.0
235.84765625,-21.97265625,-38.0859375,-36.1328125,69.82421875,-88.8671875,0.0
235.8515625,-5.37109375,-41.015625,-39.55078125,49.31640625,-21.484375,0.0
235.85546875,11.71875,-33.69140625,-27.83203125,58.59375,25.87890625,0.0
235.859375,11.71875,-29.78515625,-29.296875,68.84765625,62.98828125,0.0
235.86328125,6.8359375,-28.3203125,-31.25,80.078125,21.484375,0.0
235.8671875,-0.48828125,-24.90234375,-23.4375,72.265625,8.30078125,0.0
235.87109375,-6.34765625,-34.66796875,-24.90234375,49.8046875,24.4140625,0.0
235.875,-19.04296875,-41.9921875,-27.34375,36.1328125,45.41015625,0.0
235.87890625,-13.671875,-38.0859375,-31.25,28.80859375,39.0625,0.0
235.8828125,0.9765625,-35.15625,-38.0859375,12.20703125,-8.30078125,0.0
235.88671875,0.48828125,-29.296875,-43.9453125,-0.9765625,-68.359375,0.0
235.890625,13.18359375,-31.73828125,-41.50390625,-34.1796875,-76.66015625,0.0
235.89453125,30.2734375,-34.66796875,-20.99609375,-30.76171875,-25.390625,0.0
235.8984375,46.875,-29.78515625,-15.13671875,16.6015625,-27.83203125,0.0
235.90234375,56.15234375,-23.92578125,-21.97265625,31.73828125,-38.57421875,0.0
235.90625,35.15625,-25.87890625,-32.2265625,23.4375,-0.9765625,0.0
235.91015625,28.3203125,-35.15625,-33.69140625,20.5078125,-26.85546875,0.0
235.9140625,57.12890625,-33.69140625,-18.06640625,54.6875,-126.953125,0.0
235.91796875,38.57421875,-26.3671875,-27.34375,70.3125,-83.49609375,0.0
235.921875,-0.9765625,-33.203125,-39.0625,66.89453125,-41.015625,0.0
235.92578125,-2.44140625,-33.69140625,-37.59765625,51.26953125,-62.98828125,0.0
235.9296875,3.41796875,-35.15625,-40.52734375,48.828125,-105.46875,0.0
235.93359375,0.48828125,-39.0625,-37.109375,71.77734375,-122.0703125,0.0
235.9375,11.71875,-34.66796875,-32.2265625,79.58984375,-16.11328125,0.0
235.94140625,18.5546875,-28.3203125,-29.296875,92.7734375,33.203125,0.0
235.9453125,14.16015625,-23.92578125,-40.0390625,64.453125,48.33984375,0.0
235.94921875,17.08984375,-35.64453125,-46.38671875,41.9921875,53.7109375,0.0
235.953125,30.76171875,-41.50390625,-27.83203125,28.80859375,-9.765625,0.0
235.95703125,20.5078125,-33.69140625,-26.3671875,2.44140625,-49.8046875,0.0
235.9609375,1.46484375,-37.109375,-36.62109375,-6.34765625,-37.109375,0.0
235.96484375,-0.9765625,-36.1328125,-32.71484375,9.765625,-87.890625,0.0
235.96875,-7.32421875,-41.50390625,-38.57421875,18.5546875,-108.88671875,0.0
235.97265625,-11.71875,-42.96875,-45.8984375,19.04296875,-21.97265625,0.0
235.9765625,-0.48828125,-32.71484375,-29.78515625,46.38671875,65.4296875,0.0
235.98046875,4.8828125,-29.296875,-28.80859375,45.41015625,71.77734375,0.0
235.984375,8.7890625,-31.73828125,-37.109375,48.828125,46.875,0.0
235.98828125,7.32421875,-45.8984375,-43.45703125,75.1953125,-32.2265625,0.0
235.9921875,0.48828125,-49.31640625,-49.8046875,64.94140625,-111.328125,0.0
235.99609375,22.94921875,-30.2734375,-32.2265625,60.05859375,-104.98046875,0.0
236.0,6.8359375,-27.34375,-25.87890625,39.55078125,11.71875,0.0
236.00390625,0.9765625,-33.203125,-33.69140625,25.390625,66.40625,0.0
236.0078125,3.90625,-35.64453125,-35.15625,13.18359375,50.29296875,0.0
236.01171875,-16.11328125,-40.52734375,-32.71484375,-0.48828125,-11.71875,0.0
236.015625,1.953125,-31.73828125,-28.80859375,0.48828125,-32.71484375,0.0
236.01953125,18.06640625,-29.296875,-29.78515625,-14.16015625,-45.41015625,0.0
236.0234375,9.765625,-30.76171875,-37.59765625,-11.23046875,-122.55859375,0.0
236.02734375,7.8125,-32.71484375,-47.8515625,-20.99609375,-123.046875,0.0
236.03125,5.859375,-37.109375,-46.38671875,-25.87890625,-77.63671875,0.0
236.03515625,4.8828125,-29.78515625,-32.2265625,7.32421875,-34.1796875,0.0
236.0390625,-3.41796875,-31.25,-25.87890625,-6.34765625,31.25,0.0
236.04296875,-21.97265625,-32.2265625,-33.69140625,-37.109375,5.37109375,0.0
236.046875,-16.11328125,-31.25,-42.48046875,-31.73828125,-46.875,0.0
236.05078125,-15.625,-38.57421875,-41.9921875,-26.3671875,-35.15625,0.0
236.0546875,-25.87890625,-39.55078125,-31.73828125,-42.48046875,-30.2734375,0.0
236.05859375,-32.2265625,-37.59765625,-27.34375,-23.92578125,-39.55078125,0.0
236.0625,-29.296875,-33.203125,-33.203125,4.39453125,-23.92578125,0.0
236.06640625,-8.30078125,-31.25,-37.109375,2.44140625,24.90234375,0.0
236.0703125,-4.39453125,-34.1796875,-31.73828125,1.46484375,-1.953125,0.0
236.07421875,-19.04296875,-27.34375,-27.83203125,36.1328125,-71.2890625,0.0
236.078125,-2.44140625,-20.5078125,-33.203125,32.2265625,-1.953125,0.0
236.08203125,-14.6484375,-25.390625,-37.109375,0.0,11.23046875,0.0
236.0859375,-41.50390625,-28.80859375,-36.1328125,-4.8828125,-87.890625,0.0
236.08984375,-48.828125,-32.71484375,-43.9453125,-6.34765625,-155.2734375,0.0
236.09375,-35.15625,-34.1796875,-40.52734375,5.859375,-172.36328125,0.0
236.09765625,-27.34375,-30.2734375,-33.69140625,-11.71875,-75.68359375,0.0
236.1015625,-33.69140625,-24.90234375,-32.71484375,-23.92578125,-31.25,0.0
236.10546875,-24.4140625,-21.97265625,-32.2265625,-10.7421875,-73.2421875,0.0
236.109375,-7.8125,-30.76171875,-36.62109375,-15.625,-97.16796875,0.0
236.11328125,-13.671875,-34.1796875,-29.78515625,-3.41796875,-57.6171875,0.0
236.1171875,-33.203125,-25.390625,-18.06640625,6.34765625,8.30078125,0.0
236.12109375,-3.90625,-22.94921875,-17.08984375,13.671875,-29.78515625,0.0
236.125,-0.48828125,-31.25,-31.25,22.94921875,-68.359375,0.0
236.12890625,-46.875,-40.52734375,-41.9921875,21.484375,-70.80078125,0.0
236.1328125,-49.31640625,-33.203125,-29.78515625,36.62109375,-70.80078125,0.0
236.13671875,-31.73828125,-26.3671875,-30.76171875,48.33984375,-7.8125,0.0
236.140625,-28.3203125,-36.1328125,-34.1796875,61.5234375,68.359375,0.0
236.14453125,-51.26953125,-37.59765625,-25.87890625,88.37890625,81.0546875,0.0
236.1484375,-55.6640625,-34.66796875,-24.4140625,112.3046875,-7.32421875,0.0
236.15234375,-37.59765625,-30.2734375,-24.4140625,129.8828125,-41.9921875,0.0
236.15625,-46.38671875,-35.15625,-23.4375,141.11328125,-43.9453125,0.0
236.16015625,-24.90234375,-42.48046875,-20.99609375,145.99609375,-49.31640625,0.0
236.1640625,-2.9296875,-34.1796875,-24.90234375,145.01953125,-87.40234375,0.0
236.16796875,-17.578125,-31.73828125,-34.66796875,112.3046875,-82.03125,0.0
236.171875,-24.4140625,-36.62109375,-34.66796875,85.44921875,7.8125,0.0
236.17578125,-33.203125,-30.76171875,-32.2265625,84.47265625,44.43359375,0.0
236.1796875,-33.203125,-21.97265625,-29.78515625,80.56640625,24.4140625,0.0
236.18359375,-31.25,-29.78515625,-34.66796875,74.70703125,82.51953125,0.0
236.1875,-29.296875,-34.66796875,-41.9921875,94.7265625,114.74609375,0.0
236.19140625,-3.90625,-29.78515625,-30.2734375,97.16796875,26.3671875,0.0
236.1953125,-5.859375,-30.2734375,-29.78515625,46.38671875,-25.390625,0.0
236.19921875,-21.97265625,-35.64453125,-21.484375,-0.48828125,5.859375,0.0
236.203125,-26.3671875,-37.109375,-18.5546875,-26.85546875,19.53125,0.0
236.20703125,-23.92578125,-34.66796875,-41.015625,-16.11328125,-43.45703125,0.0
236.2109375,-25.87890625,-37.59765625,-41.9921875,-11.23046875,-61.03515625,0.0
236.21484375,-27.83203125,-38.57421875,-35.64453125,-29.296875,-105.95703125,0.0
236.21875,-14.6484375,-31.73828125,-33.69140625,-22.4609375,-100.5859375,0.0
236.22265625,-3.90625,-19.04296875,-25.87890625,-29.296875,-41.50390625,0.0
236.2265625,-5.859375,-17.08984375,-26.3671875,-65.91796875,-55.17578125,0.0
236.23046875,-14.6484375,-37.59765625,-37.59765625,-106.93359375,-14.16015625,0.0
236.234375,-25.390625,-41.50390625,-31.25,-98.6328125,7.32421875,0.0
236.23828125,-35.64453125,-26.85546875,-18.06640625,-79.1015625,-58.59375,0.0
236.2421875,-7.8125,-20.01953125,-20.99609375,-58.59375,-22.4609375,0.0
236.24609375,7.32421875,-23.92578125,-28.3203125,-64.94140625,-5.37109375,0.0
236.25,-25.87890625,-28.3203125,-38.57421875,-78.125,-25.87890625,0.0
236.25390625,-48.33984375,-28.80859375,-39.55078125,-60.546875,46.38671875,0.0
236.2578125,-51.26953125,-25.390625,-19.53125,-86.9140625,91.30859375,0.0
236.26171875,-42.48046875,-25.87890625,-14.6484375,-112.3046875,25.390625,0.0
236.265625,-32.2265625,-28.80859375,-23.4375,-94.23828125,37.59765625,0.0
236.26953125,-50.78125,-32.71484375,-37.109375,-99.12109375,27.83203125,0.0
236.2734375,-59.08203125,-35.15625,-45.41015625,-101.07421875,-79.58984375,0.0
236.27734375,-49.8046875,-29.296875,-40.0390625,-53.22265625,-22.4609375,0.0
236.28125,-43.45703125,-35.15625,-29.78515625,7.32421875,44.921875,0.0
236.28515625,-40.0390625,-44.43359375,-29.296875,0.0,7.8125,0.0
236.2890625,-32.71484375,-44.43359375,-36.1328125,-19.53125,-21.484375,0.0
236.29296875,-32.2265625,-41.015625,-33.203125,12.20703125,-62.98828125,0.0
236.296875,-20.99609375,-32.71484375,-20.99609375,16.6015625,-77.1484375,0.0
236.30078125,-13.671875,-26.85546875,-15.625,0.0,23.92578125,0.0
236.3046875,-37.59765625,-32.71484375,-18.06640625,12.6953125,32.2265625,0.0
236.30859375,-55.6640625,-38.0859375,-15.13671875,32.2265625,-46.38671875,0.0
236.3125,-37.109375,-29.296875,-10.7421875,53.22265625,-89.35546875,0.0
236.31640625,-27.83203125,-24.90234375,-16.6015625,86.9140625,-79.1015625,0.0
236.3203125,-43.45703125,-24.4140625,-18.06640625,100.09765625,19.53125,0.0
236.32421875,-41.9921875,-30.2734375,-21.97265625,89.84375,59.08203125,0.0
236.328125,-48.828125,-40.52734375,-24.90234375,82.03125,-2.9296875,0.0
236.33203125,-47.36328125,-40.52734375,-22.4609375,63.4765625,-60.546875,0.0
236.3359375,-17.08984375,-31.25,-21.97265625,65.91796875,-83.49609375,0.0
236.33984375,-9.27734375,-21.484375,-26.85546875,64.94140625,-84.47265625,0.0
236.34375,-17.08984375,-19.53125,-31.25,36.1328125,-48.33984375,0.0
236.34765625,-20.5078125,-34.66796875,-42.48046875,13.18359375,-103.02734375,0.0
236.3515625,-22.4609375,-42.48046875,-46.38671875,-3.90625,-138.671875,0.0
236.35546875,-11.71875,-30.2734375,-31.73828125,16.11328125,-33.203125,0.0
236.359375,-10.25390625,-28.3203125,-39.55078125,4.39453125,-6.34765625,0.0
236.36328125,-1.953125,-33.203125,-42.96875,-16.6015625,-22.4609375,0.0
236.3671875,-6.8359375,-33.69140625,-33.203125,-2.9296875,-84.47265625,0.0
236.37109375,-6.34765625,-32.2265625,-32.71484375,5.37109375,-128.41796875,0.0
236.375,-12.20703125,-34.1796875,-35.15625,-28.80859375,-71.77734375,0.0
236.37890625,-56.15234375,-38.57421875,-37.59765625,-45.41015625,-22.94921875,0.0
236.3828125,-70.80078125,-38.57421875,-36.62109375,-26.3671875,-52.24609375,0.0
236.38671875,-48.828125,-36.1328125,-34.1796875,-22.4609375,-95.21484375,0.0
236.390625,-44.921875,-40.52734375,-36.62109375,-32.71484375,-104.98046875,0.0
236.39453125,-51.7578125,-47.8515625,-26.85546875,-42.96875,-20.01953125,0.0
236.3984375,-43.9453125,-43.9453125,-26.3671875,-53.22265625,12.6953125,0.0
236.40234375,-36.1328125,-38.0859375,-33.69140625,-93.75,-9.765625,0.0
236.40625,-23.92578125,-40.0390625,-38.57421875,-155.76171875,-54.6875,0.0
236.41015625,-30.2734375,-41.015625,-44.921875,-169.921875,-46.875,0.0
236.4140625,-35.64453125,-37.59765625,-41.50390625,-134.27734375,8.30078125,0.0
236.41796875,-30.2734375,-34.1796875,-44.43359375,-108.88671875,26.85546875,0.0
236.421875,-35.64453125,-27.83203125,-41.9921875,-72.75390625,-3.90625,0.0
236.42578125,-36.62109375,-30.2734375,-33.69140625,-54.19921875,17.578125,0.0
236.4296875,-41.9921875,-39.0625,-36.1328125,-66.40625,-44.921875,0.0
236.43359375,-31.73828125,-39.55078125,-25.390625,-17.08984375,-81.54296875,0.0
236.4375,-4.8828125,-31.25,-16.6015625,38.0859375,-30.76171875,0.0
236.44140625,-3.41796875,-24.4140625,-26.3671875,56.640625,-46.38671875,0.0
236.4453125,-29.296875,-32.2265625,-30.2734375,77.1484375,-13.671875,0.0
236.44921875,-36.1328125,-34.1796875,-28.3203125,97.65625,-51.7578125,0.0
236.453125,-32.2265625,-38.57421875,-34.66796875,74.21875,-92.7734375,0.0
236.45703125,-29.78515625,-40.0390625,-35.15625,49.8046875,5.859375,0.0
236.4609375,-29.78515625,-30.76171875,-26.3671875,42.96875,26.85546875,0.0
236.46484375,-28.80859375,-22.94921875,-24.4140625,39.55078125,48.828125,0.0
236.46875,-34.1796875,-32.71484375,-36.1328125,29.296875,43.9453125,0.0
236.47265625,-32.71484375,-41.9921875,-43.45703125,21.97265625,29.296875,0.0
236.4765625,-26.3671875,-33.69140625,-31.25,56.640625,71.2890625,0.0
236.48046875,-35.64453125,-32.71484375,-19.04296875,65.4296875,0.0,0.0
236.484375,-28.3203125,-35.64453125,-24.90234375,50.29296875,-55.6640625,0.0
236.48828125,-28.80859375,-42.48046875,-35.15625,41.015625,-63.4765625,0.0
236.4921875,-25.390625,-40.52734375,-31.73828125,42.48046875,-79.1015625,0.0
236.49609375,1.953125,-27.34375,-31.73828125,37.59765625,-27.83203125,0.0
236.5,18.06640625,-24.90234375,-31.73828125,38.57421875,-49.8046875,0.0
236.50390625,-3.41796875,-27.83203125,-23.4375,51.26953125,-2.44140625,0.0
236.5078125,-20.99609375,-20.01953125,-15.625,46.38671875,31.73828125,0.0
236.51171875,-32.2265625,-22.4609375,-12.6953125,23.4375,-70.80078125,0.0
236.515625,-40.0390625,-39.0625,-23.4375,34.1796875,-175.78125,0.0
236.51953125,-32.2265625,-36.62109375,-22.4609375,54.6875,-217.28515625,0.0
236.5234375,-30.76171875,-29.296875,-21.484375,62.98828125,-156.73828125,0.0
236.52734375,-31.73828125,-35.15625,-35.15625,71.77734375,-64.94140625,0.0
236.53125,-24.4140625,-39.0625,-38.57421875,65.91796875,3.41796875,0.0
236.53515625,-22.4609375,-28.3203125,-35.64453125,68.84765625,-16.6015625,0.0
236.5390625,-23.92578125,-22.94921875,-37.59765625,71.77734375,-18.5546875,0.0
236.54296875,-21.484375,-33.69140625,-33.69140625,83.984375,-4.8828125,0.0
236.546875,-27.83203125,-39.55078125,-33.203125,104.98046875,-62.01171875,0.0
236.55078125,-32.2265625,-40.52734375,-38.0859375,111.328125,-66.89453125,0.0
236.5546875,-27.34375,-35.64453125,-24.90234375,139.16015625,-22.4609375,0.0
236.55859375,-21.97265625,-28.3203125,-19.53125,148.92578125,5.37109375,0.0
236.5625,-23.92578125,-31.25,-33.69140625,134.765625,-17.578125,0.0
236.56640625,-21.484375,-36.62109375,-31.25,128.90625,-7.8125,0.0
236.5703125,-22.94921875,-35.64453125,-18.5546875,109.86328125,-13.671875,0.0
236.57421875,-24.90234375,-32.71484375,-23.92578125,126.46484375,-3.41796875,0.0
236.578125,-29.78515625,-29.296875,-22.94921875,150.87890625,15.13671875,0.0
236.58203125,-46.875,-34.66796875,-19.53125,131.34765625,-43.45703125,0.0
236.5859375,-38.0859375,-30.2734375,-23.92578125,140.625,-51.7578125,0.0
236.58984375,-28.3203125,-29.296875,-30.76171875,164.0625,13.671875,0.0
236.59375,-30.76171875,-33.69140625,-28.3203125,148.4375,-20.01953125,0.0
236.59765625,-34.66796875,-27.34375,-22.4609375,134.765625,-83.984375,0.0
236.6015625,-41.50390625,-21.484375,-20.99609375,134.27734375,50.78125,0.0
236.60546875,-51.26953125,-22.94921875,-28.80859375,111.81640625,93.75,0.0
236.609375,-34.66796875,-32.71484375,-35.15625,108.88671875,-20.99609375,0.0
236.61328125,-22.94921875,-35.15625,-29.78515625,111.328125,-39.0625,0.0
236.6171875,-36.62109375,-30.2734375,-26.85546875,102.05078125,-62.01171875,0.0
236.62109375,-47.36328125,-30.76171875,-41.9921875,98.6328125,-38.0859375,0.0
236.625,-48.828125,-37.109375,-38.0859375,117.1875,19.53125,0.0
236.62890625,-36.62109375,-40.0390625,-23.4375,107.421875,28.3203125,0.0
236.6328125,-24.90234375,-37.59765625,-23.92578125,85.44921875,0.9765625,0.0
236.63671875,-27.83203125,-29.78515625,-29.296875,98.6328125,11.23046875,0.0
236.640625,-41.50390625,-30.76171875,-30.2734375,100.5859375,70.80078125,0.0
236.64453125,-43.9453125,-34.66796875,-29.78515625,88.37890625,94.7265625,0.0
236.6484375,-33.69140625,-29.78515625,-26.3671875,96.19140625,37.59765625,0.0
236.65234375,-31.25,-33.203125,-22.94921875,111.81640625,-19.53125,0.0
236.65625,-52.734375,-42.96875,-24.4140625,89.84375,-88.37890625,0.0
236.66015625,-61.5234375,-39.0625,-28.3203125,83.49609375,-112.3046875,0.0
236.6640625,-53.7109375,-41.9921875,-32.2265625,89.35546875,-50.78125,0.0
236.66796875,-46.38671875,-44.43359375,-34.66796875,80.56640625,-13.671875,0.0
236.671875,-43.9453125,-35.15625,-26.85546875,85.9375,4.8828125,0.0
236.67578125,-46.875,-30.76171875,-20.99609375,79.1015625,-67.3828125,0.0
236.6796875,-52.734375,-27.83203125,-26.3671875,41.9921875,-45.41015625,0.0
236.68359375,-42.48046875,-32.2265625,-31.25,5.37109375,-15.625,0.0
236.6875,-36.1328125,-38.0859375,-28.80859375,-26.3671875,-125.9765625,0.0
236.69140625,-55.17578125,-40.0390625,-24.4140625,-46.875,-130.859375,0.0
236.6953125,-57.12890625,-37.109375,-27.83203125,-46.38671875,-90.8203125,0.0
236.69921875,-42.48046875,-29.78515625,-33.69140625,-55.6640625,-78.61328125,0.0
236.703125,-40.52734375,-31.25,-39.0625,-79.1015625,-66.89453125,0.0
236.70703125,-42.48046875,-41.9921875,-41.50390625,-99.609375,-164.0625,0.0
236.7109375,-47.36328125,-43.45703125,-28.3203125,-85.44921875,-179.6875,0.0
236.71484375,-44.921875,-36.1328125,-37.59765625,-57.12890625,-29.296875,0.0
236.71875,-31.73828125,-33.69140625,-56.15234375,-64.94140625,-14.16015625,0.0
236.72265625,-16.11328125,-38.57421875,-34.1796875,-79.58984375,-77.1484375,0.0
236.7265625,-33.69140625,-43.45703125,-21.484375,-90.8203125,-69.3359375,0.0
236.73046875,-43.45703125,-42.96875,-29.296875,-83.984375,-60.05859375,0.0
236.734375,-26.85546875,-36.1328125,-28.3203125,-55.17578125,-69.3359375,0.0
236.73828125,-26.3671875,-31.73828125,-24.90234375,-62.98828125,-78.125,0.0
236.7421875,-17.578125,-32.2265625,-26.3671875,-60.546875,-89.84375,0.0
236.74609375,-22.4609375,-34.1796875,-32.2265625,-42.48046875,-53.7109375,0.0
236.75,-41.015625,-42.96875,-33.69140625,-54.19921875,-87.40234375,0.0
236.75390625,-28.80859375,-43.9453125,-29.78515625,-37.109375,-46.875,0.0
236.7578125,-37.59765625,-37.59765625,-32.2265625,-27.34375,26.3671875,0.0
236.76171875,-51.26953125,-39.0625,-27.83203125,-35.64453125,26.85546875,0.0
236.765625,-29.78515625,-40.52734375,-27.83203125,-26.3671875,-12.20703125,0.0
236.76953125,-15.13671875,-41.015625,-35.64453125,-46.875,-64.94140625,0.0
236.7734375,-21.97265625,-29.296875,-35.15625,-47.8515625,0.9765625,0.0
236.77734375,-31.73828125,-24.90234375,-31.25,-16.11328125,19.04296875,0.0
236.78125,-27.34375,-34.1796875,-26.85546875,-7.8125,24.4140625,0.0
236.78515625,-27.34375,-36.62109375,-21.484375,4.8828125,37.109375,0.0
236.7890625,-35.15625,-33.203125,-31.25,-0.9765625,-48.33984375,0.0
236.79296875,-30.76171875,-29.296875,-38.0859375,-10.25390625,-111.81640625,0.0
236.796875,-19.53125,-28.80859375,-20.99609375,-4.39453125,-82.03125,0.0
236.80078125,-7.32421875,-25.390625,-18.5546875,-4.39453125,-0.9765625,0.0
236.8046875,-22.4609375,-31.25,-35.15625,16.11328125,2.44140625,0.0
236.80859375,-42.48046875,-51.7578125,-49.8046875,9.27734375,-78.61328125,0.0
236.8125,-38.0859375,-45.8984375,-40.52734375,-9.27734375,-117.67578125,0.0
236.81640625,-37.59765625,-35.64453125,-22.94921875,-4.8828125,-78.61328125,0.0
236.8203125,-30.76171875,-36.62109375,-28.80859375,-1.953125,-8.7890625,0.0
236.82421875,-18.06640625,-30.2734375,-36.62109375,-6.34765625,-70.3125,0.0
236.828125,-21.97265625,-32.2265625,-35.64453125,-15.13671875,-16.11328125,0.0
236.83203125,-32.71484375,-41.015625,-26.85546875,-11.23046875,29.78515625,0.0
236.8359375,-3.90625,-32.71484375,-20.01953125,16.11328125,-74.70703125,0.0
236.83984375,13.18359375,-25.390625,-25.87890625,15.13671875,-23.4375,0.0
236.84375,-19.04296875,-41.015625,-34.1796875,-5.37109375,1.953125,0.0
236.84765625,-39.0625,-48.33984375,-40.0390625,-16.11328125,-68.84765625,0.0
236.8515625,-20.99609375,-42.48046875,-43.45703125,-16.11328125,-13.671875,0.0
236.85546875,9.27734375,-36.62109375,-34.1796875,-1.46484375,70.3125,0.0
236.859375,-1.46484375,-36.62109375,-25.390625,12.20703125,-3.90625,0.0
236.86328125,-22.94921875,-40.52734375,-23.92578125,22.94921875,-76.171875,0.0
236.8671875,-18.5546875,-31.73828125,-28.80859375,4.8828125,-16.6015625,0.0
236.87109375,-29.296875,-24.90234375,-28.3203125,6.8359375,43.45703125,0.0
236.875,-30.76171875,-31.25,-25.87890625,20.99609375,1.953125,0.0
236.87890625,-27.83203125,-34.1796875,-38.0859375,-12.20703125,-67.87109375,0.0
236.8828125,-29.296875,-37.109375,-41.015625,-17.578125,-92.7734375,0.0
236.88671875,-15.13671875,-43.45703125,-38.0859375,-28.80859375,-81.0546875,0.0
236.890625,-26.85546875,-42.48046875,-36.62109375,-36.1328125,-30.76171875,0.0
236.89453125,-39.0625,-37.109375,-36.1328125,-17.578125,-11.71875,0.0
236.8984375,-27.34375,-33.203125,-32.2265625,-31.73828125,-54.6875,0.0
236.90234375,-27.83203125,-31.73828125,-20.01953125,-41.9921875,-76.66015625,0.0
236.90625,-41.015625,-31.25,-31.25,-63.4765625,-77.1484375,0.0
236.91015625,-27.83203125,-34.1796875,-40.52734375,-71.2890625,-122.0703125,0.0
236.9140625,-28.3203125,-34.66796875,-33.203125,-79.58984375,-85.44921875,0.0
236.91796875,-15.625,-34.66796875,-41.015625,-101.07421875,-19.53125,0.0
236.921875,-28.3203125,-42.48046875,-42.48046875,-86.42578125,-5.859375,0.0
236.92578125,-39.55078125,-35.64453125,-37.109375,-101.07421875,18.06640625,0.0
236.9296875,-42.48046875,-35.64453125,-37.109375,-127.44140625,45.8984375,0.0
236.93359375,-45.41015625,-41.9921875,-29.78515625,-124.51171875,5.859375,0.0
236.9375,-10.25390625,-31.25,-24.4140625,-113.28125,-12.6953125,0.0
236.94140625,-5.37109375,-32.71484375,-28.80859375,-109.375,-12.6953125,0.0
236.9453125,-22.94921875,-38.57421875,-39.0625,-125.9765625,-41.9921875,0.0
236.94921875,-22.4609375,-41.015625,-42.96875,-136.71875,-42.48046875,0.0
236.953125,-35.64453125,-38.0859375,-33.203125,-124.0234375,-44.43359375,0.0
236.95703125,-29.296875,-34.1796875,-33.203125,-101.07421875,-20.01953125,0.0
236.9609375,-18.06640625,-29.296875,-46.38671875,-59.5703125,-13.18359375,0.0
236.96484375,-18.5546875,-28.3203125,-44.43359375,-42.96875,-35.64453125,0.0
236.96875,-17.578125,-33.203125,-35.64453125,-50.78125,-41.50390625,0.0
236.97265625,-26.3671875,-34.1796875,-32.2265625,-44.921875,-3.90625,0.0
236.9765625,-11.71875,-27.34375,-19.04296875,-56.15234375,26.3671875,0.0
236.98046875,8.7890625,-19.53125,-16.11328125,-64.94140625,45.41015625,0.0
236.984375,-10.7421875,-26.85546875,-26.85546875,-53.7109375,21.484375,0.0
236.98828125,-41.015625,-45.41015625,-32.71484375,-40.0390625,-51.7578125,0.0
236.9921875,-35.15625,-43.45703125,-32.71484375,-43.9453125,-118.65234375,0.0
236.99609375,-27.83203125,-31.25,-33.69140625,-57.6171875,-73.2421875,0.0
237.0,-28.3203125,-22.4609375,-36.62109375,-61.03515625,31.73828125,0.0
237.00390625,-21.97265625,-25.390625,-33.203125,-62.01171875,-6.34765625,0.0
237.0078125,-33.203125,-42.48046875,-36.62109375,-52.734375,-77.63671875,0.0
237.01171875,-39.55078125,-36.62109375,-28.3203125,-24.4140625,-57.6171875,0.0
237.015625,-18.06640625,-24.90234375,-17.08984375,-1.46484375,-7.8125,0.0
237.01953125,-1.953125,-30.76171875,-25.390625,-27.83203125,-73.73046875,0.0
237.0234375,-11.23046875,-37.59765625,-20.01953125,-33.203125,-145.99609375,0.0
237.02734375,-23.4375,-42.48046875,-20.99609375,-29.296875,-56.15234375,0.0
237.03125,-19.53125,-40.0390625,-28.80859375,-41.50390625,43.9453125,0.0
237.03515625,-8.7890625,-25.390625,-27.34375,-32.71484375,79.1015625,0.0
237.0390625,-17.08984375,-18.06640625,-24.90234375,-45.41015625,62.5,0.0
237.04296875,-43.9453125,-36.62109375,-29.78515625,-93.26171875,31.25,0.0
237.046875,-43.9453125,-41.9921875,-36.62109375,-102.5390625,-21.97265625,0.0
237.05078125,-30.2734375,-40.52734375,-35.15625,-83.49609375,-28.80859375,0.0
237.0546875,-21.97265625,-33.203125,-30.76171875,-69.3359375,-8.7890625,0.0
237.05859375,-6.8359375,-31.73828125,-33.69140625,-43.9453125,18.5546875,0.0
237.0625,0.9765625,-39.55078125,-37.109375,-40.0390625,15.625,0.0
237.06640625,-23.92578125,-33.69140625,-39.0625,-62.01171875,-23.4375,0.0
237.0703125,-60.546875,-32.71484375,-33.69140625,-68.84765625,-104.98046875,0.0
237.07421875,-39.55078125,-37.109375,-30.76171875,-58.59375,-73.2421875,0.0
237.078125,-29.78515625,-39.0625,-30.2734375,-56.15234375,-15.625,0.0
237.08203125,-35.15625,-35.64453125,-24.90234375,-47.36328125,20.5078125,0.0
237.0859375,-32.71484375,-34.1796875,-33.69140625,-53.7109375,58.59375,0.0
237.08984375,-37.109375,-38.0859375,-45.8984375,-59.5703125,3.41796875,0.0
237.09375,-27.83203125,-37.109375,-41.9921875,-40.52734375,-49.8046875,0.0
237.09765625,-34.1796875,-35.64453125,-33.203125,-55.17578125,-3.41796875,0.0
237.1015625,-34.66796875,-35.15625,-34.66796875,-75.1953125,-8.30078125,0.0
237.10546875,-30.76171875,-35.15625,-39.55078125,-72.75390625,-4.39453125,0.0
237.109375,-36.62109375,-37.59765625,-34.1796875,-67.3828125,17.08984375,0.0
237.11328125,-48.828125,-40.52734375,-27.83203125,-72.265625,-35.64453125,0.0
237.1171875,-36.62109375,-37.109375,-26.85546875,-59.5703125,14.16015625,0.0
237.12109375,-20.01953125,-22.94921875,-25.390625,-47.36328125,-9.765625,0.0
237.125,-32.2265625,-21.97265625,-38.0859375,-90.33203125,-120.1171875,0.0
237.12890625,-41.015625,-43.9453125,-54.19921875,-101.5625,-131.34765625,0.0
237.1328125,-54.19921875,-54.19921875,-41.9921875,-81.54296875,-79.1015625,0.0
237.13671875,-29.78515625,-39.0625,-38.0859375,-79.58984375,8.7890625,0.0
237.140625,3.90625,-34.1796875,-42.96875,-80.078125,130.859375,0.0
237.14453125,-3.90625,-36.62109375,-36.62109375,-82.03125,140.625,0.0
237.1484375,-19.04296875,-22.94921875,-26.3671875,-79.58984375,0.9765625,0.0
237.15234375,-13.671875,-21.484375,-30.2734375,-90.8203125,-35.15625,0.0
237.15625,8.30078125,-27.83203125,-37.109375,-94.23828125,-53.7109375,0.0
237.16015625,10.7421875,-28.80859375,-32.71484375,-103.02734375,-57.6171875,0.0
237.1640625,6.34765625,-29.296875,-38.0859375,-123.046875,-104.00390625,0.0
237.16796875,0.0,-31.73828125,-47.36328125,-130.37109375,-101.5625,0.0
237.171875,-0.48828125,-35.64453125,-40.52734375,-114.2578125,-42.96875,0.0
237.17578125,-9.765625,-41.9921875,-33.203125,-88.37890625,-75.1953125,0.0
237.1796875,-23.92578125,-38.57421875,-32.71484375,-61.03515625,-24.90234375,0.0
237.18359375,-20.01953125,-36.1328125,-29.296875,-46.875,7.8125,0.0
237.1875,-38.57421875,-41.50390625,-28.3203125,-65.4296875,-65.4296875,0.0
237.19140625,-57.12890625,-39.55078125,-34.1796875,-67.87109375,-85.9375,0.0
237.1953125,-41.015625,-27.83203125,-32.71484375,-36.62109375,-94.23828125,0.0
237.19921875,-34.1796875,-28.80859375,-31.25,-38.0859375,-44.921875,0.0
237.203125,-53.7109375,-32.71484375,-34.66796875,-54.6875,43.45703125,0.0
237.20703125,-45.41015625,-28.3203125,-31.25,-59.08203125,-24.90234375,0.0
237.2109375,-40.52734375,-34.66796875,-20.99609375,-72.75390625,-99.12109375,0.0
237.21484375,-39.55078125,-39.0625,-25.87890625,-83.49609375,-54.19921875,0.0
237.21875,-35.64453125,-37.59765625,-34.66796875,-52.734375,-74.21875,0.0
237.22265625,-22.4609375,-36.62109375,-36.62109375,-40.52734375,-78.125,0.0
237.2265625,-13.671875,-35.15625,-38.0859375,-77.1484375,-37.59765625,0.0
237.23046875,-22.94921875,-36.62109375,-33.69140625,-77.63671875,-71.2890625,0.0
237.234375,-15.625,-37.109375,-24.90234375,-57.6171875,-80.56640625,0.0
237.23828125,1.46484375,-28.80859375,-21.97265625,-33.203125,-23.92578125,0.0
237.2421875,6.8359375,-22.4609375,-21.97265625,-25.87890625,60.05859375,0.0
237.24609375,-13.671875,-34.66796875,-36.62109375,-50.29296875,82.03125,0.0
237.25,-19.04296875,-41.9921875,-41.9921875,-68.359375,0.48828125,0.0
237.25390625,-28.80859375,-38.0859375,-28.80859375,-66.40625,-54.6875,0.0
237.2578125,-38.57421875,-34.66796875,-28.3203125,-40.0390625,-12.6953125,0.0
237.26171875,-37.59765625,-39.0625,-36.1328125,-40.0390625,-65.4296875,0.0
237.265625,-58.10546875,-51.7578125,-47.36328125,-64.453125,-84.9609375,0.0
237.26953125,-51.26953125,-47.8515625,-42.96875,-44.921875,-22.4609375,0.0
237.2734375,-22.4609375,-28.80859375,-31.73828125,-19.53125,-43.45703125,0.0
237.27734375,-7.8125,-19.04296875,-36.62109375,-3.90625,-27.34375,0.0
237.28125,-7.8125,-27.83203125,-36.62109375,4.8828125,-2.9296875,0.0
237.28515625,-25.87890625,-40.52734375,-31.73828125,4.39453125,-88.37890625,0.0
237.2890625,-39.0625,-41.9921875,-36.62109375,14.16015625,-130.859375,0.0
237.29296875,-23.92578125,-35.64453125,-32.2265625,30.76171875,-8.7890625,0.0
237.296875,-18.06640625,-36.62109375,-26.3671875,37.109375,-26.85546875,0.0
237.30078125,-33.203125,-34.1796875,-32.71484375,48.33984375,-139.16015625,0.0
237.3046875,-32.2265625,-29.78515625,-38.0859375,66.89453125,-59.08203125,0.0
237.30859375,-23.92578125,-36.1328125,-41.9921875,61.5234375,-132.8125,0.0
237.3125,-39.0625,-36.62109375,-32.71484375,59.5703125,-196.77734375,0.0
237.31640625,-22.94921875,-21.484375,-21.97265625,85.9375,-90.8203125,0.0
237.3203125,2.9296875,-19.53125,-26.85546875,103.515625,6.8359375,0.0
237.32421875,7.8125,-26.3671875,-27.83203125,109.86328125,-7.8125,0.0
237.328125,-0.9765625,-30.76171875,-21.484375,120.60546875,-44.921875,0.0
237.33203125,-16.6015625,-41.9921875,-21.484375,139.16015625,-22.94921875,0.0
237.3359375,-16.11328125,-31.73828125,-21.484375,159.1796875,-0.9765625,0.0
237.33984375,-15.625,-13.18359375,-16.6015625,162.59765625,53.7109375,0.0
237.34375,-20.99609375,-22.4609375,-28.3203125,166.50390625,37.59765625,0.0
237.34765625,-23.92578125,-40.52734375,-44.43359375,171.875,-40.0390625,0.0
237.3515625,-10.7421875,-31.73828125,-28.80859375,183.59375,-75.68359375,0.0
237.35546875,8.7890625,-19.04296875,-19.53125,197.265625,-91.30859375,0.0
237.359375,-0.9765625,-24.4140625,-30.76171875,176.26953125,-44.43359375,0.0
237.36328125,0.0,-28.3203125,-30.2734375,141.11328125,-49.31640625,0.0
237.3671875,-5.859375,-31.73828125,-37.109375,127.44140625,-89.84375,0.0
237.37109375,-17.578125,-38.57421875,-34.1796875,135.7421875,2.44140625,0.0
237.375,-14.6484375,-36.1328125,-16.6015625,143.5546875,57.6171875,0.0
237.37890625,-22.4609375,-35.15625,-20.99609375,129.39453125,-1.46484375,0.0
237.3828125,-21.97265625,-41.50390625,-29.78515625,94.7265625,-64.453125,0.0
237.38671875,-33.203125,-44.921875,-35.15625,67.3828125,-142.578125,0.0
237.390625,-25.87890625,-44.43359375,-30.2734375,62.98828125,-84.9609375,0.0
237.39453125,-5.859375,-38.0859375,-31.73828125,62.01171875,44.43359375,0.0
237.3984375,14.16015625,-27.34375,-41.50390625,51.7578125,104.4921875,0.0
237.40234375,5.37109375,-22.94921875,-33.69140625,56.640625,110.3515625,0.0
237.40625,-42.48046875,-32.71484375,-35.64453125,60.546875,78.125,0.0
237.41015625,-37.109375,-39.0625,-41.50390625,56.15234375,20.5078125,0.0
237.4140625,-17.08984375,-29.296875,-32.71484375,54.6875,27.34375,0.0
237.41796875,-24.90234375,-28.80859375,-22.94921875,48.828125,88.37890625,0.0
237.421875,-30.2734375,-33.69140625,-27.83203125,57.6171875,12.6953125,0.0
237.42578125,-23.92578125,-35.15625,-31.25,51.7578125,-78.61328125,0.0
237.4296875,-6.34765625,-30.2734375,-24.4140625,38.0859375,-52.734375,0.0
237.43359375,-13.671875,-26.3671875,-23.4375,48.828125,-61.03515625,0.0
237.4375,-11.23046875,-27.83203125,-25.390625,38.57421875,-105.95703125,0.0
237.44140625,6.8359375,-19.04296875,-23.92578125,32.71484375,-68.359375,0.0
237.4453125,-7.32421875,-20.99609375,-23.92578125,38.0859375,33.203125,0.0
237.44921875,-21.97265625,-38.0859375,-33.203125,36.62109375,6.8359375,0.0
237.453125,-15.625,-35.15625,-34.1796875,35.64453125,-2.9296875,0.0
237.45703125,-18.5546875,-28.80859375,-37.59765625,4.39453125,24.90234375,0.0
237.4609375,-20.99609375,-28.80859375,-42.48046875,-14.16015625,30.2734375,0.0
237.46484375,-18.06640625,-33.203125,-45.8984375,-10.7421875,78.61328125,0.0
237.46875,-17.08984375,-41.015625,-47.36328125,-25.87890625,49.31640625,0.0
237.47265625,-16.11328125,-38.57421875,-35.15625,-16.6015625,15.625,0.0
237.4765625,-14.6484375,-32.2265625,-30.2734375,-4.8828125,-8.30078125,0.0
237.48046875,-16.11328125,-31.73828125,-43.45703125,2.44140625,-6.8359375,0.0
237.484375,-12.20703125,-38.0859375,-46.38671875,-8.7890625,-7.8125,0.0
237.48828125,-1.953125,-48.33984375,-37.109375,-32.2265625,-80.078125,0.0
237.4921875,-4.39453125,-39.55078125,-28.80859375,-9.27734375,-146.484375,0.0
237.49609375,-26.85546875,-27.83203125,-29.78515625,8.7890625,-140.13671875,0.0
237.5,-36.1328125,-27.83203125,-31.73828125,9.27734375,-87.40234375,0.0
237.50390625,-25.87890625,-25.390625,-29.78515625,27.34375,-88.8671875,0.0
237.5078125,-20.01953125,-24.4140625,-32.71484375,29.78515625,-57.12890625,0.0
237.51171875,-23.4375,-33.69140625,-30.2734375,1.953125,-16.11328125,0.0
237.515625,-22.4609375,-35.15625,-25.390625,6.34765625,-29.78515625,0.0
237.51953125,-17.08984375,-28.3203125,-35.64453125,9.27734375,-72.75390625,0.0
237.5234375,-31.73828125,-34.66796875,-45.41015625,-5.859375,-122.55859375,0.0
237.52734375,-17.08984375,-39.0625,-41.9921875,0.48828125,-152.34375,0.0
237.53125,-5.859375,-33.69140625,-24.4140625,-6.34765625,-112.79296875,0.0
237.53515625,-27.34375,-32.2265625,-14.6484375,-13.671875,-39.55078125,0.0
237.5390625,-29.78515625,-27.83203125,-16.11328125,-11.23046875,-47.36328125,0.0
237.54296875,-22.4609375,-25.390625,-20.5078125,-27.83203125,-39.55078125,0.0
237.546875,-39.0625,-39.55078125,-40.0390625,-60.546875,-47.8515625,0.0
237.55078125,-34.66796875,-51.26953125,-41.50390625,-58.59375,-59.08203125,0.0
237.5546875,-18.06640625,-43.45703125,-26.85546875,-38.57421875,-81.54296875,0.0
237.55859375,-24.90234375,-36.1328125,-34.66796875,-38.0859375,-178.7109375,0.0
237.5625,-24.90234375,-31.25,-37.109375,-28.80859375,-192.3828125,0.0
237.56640625,-14.16015625,-38.57421875,-29.78515625,-26.85546875,-107.91015625,0.0
237.5703125,-1.46484375,-32.2265625,-22.94921875,-38.57421875,-114.2578125,0.0
237.57421875,-3.41796875,-26.3671875,-20.99609375,-47.8515625,-43.45703125,0.0
237.578125,-33.69140625,-31.25,-23.92578125,-30.76171875,16.6015625,0.0
237.58203125,-54.19921875,-34.66796875,-29.78515625,-12.20703125,-21.97265625,0.0
237.5859375,-53.7109375,-33.203125,-34.1796875,-20.01953125,-19.53125,0.0
237.58984375,-42.48046875,-31.73828125,-34.1796875,-18.06640625,-21.97265625,0.0
237.59375,-32.71484375,-32.2265625,-30.76171875,8.7890625,29.78515625,0.0
237.59765625,-28.80859375,-31.25,-27.83203125,9.765625,42.48046875,0.0
237.6015625,-23.4375,-32.2265625,-31.73828125,2.44140625,26.85546875,0.0
237.60546875,-15.13671875,-29.78515625,-32.2265625,9.27734375,-38.0859375,0.0
237.609375,4.8828125,-40.0390625,-35.15625,20.5078125,-206.0546875,0.0
237.61328125,-10.7421875,-44.43359375,-30.76171875,38.0859375,-189.453125,0.0
237.6171875,-32.71484375,-28.3203125,-23.4375,10.25390625,-41.015625,0.0
237.62109375,-23.92578125,-32.2265625,-35.64453125,-23.4375,-10.7421875,0.0
237.625,-29.296875,-47.8515625,-40.52734375,-22.4609375,-27.34375,0.0
237.62890625,-30.76171875,-48.33984375,-34.1796875,-12.20703125,-13.671875,0.0
237.6328125,-18.06640625,-33.203125,-23.4375,-7.32421875,12.6953125,0.0
237.63671875,-7.32421875,-24.90234375,-20.01953125,-7.32421875,68.359375,0.0
237.640625,-1.953125,-30.2734375,-27.34375,-6.8359375,44.43359375,0.0
237.64453125,-18.5546875,-30.76171875,-31.73828125,-10.7421875,-73.73046875,0.0
237.6484375,-40.52734375,-38.0859375,-35.15625,-17.08984375,-113.28125,0.0
237.65234375,-13.671875,-37.109375,-32.2265625,-11.71875,-110.83984375,0.0
237.65625,15.625,-34.1796875,-20.5078125,-20.99609375,-21.484375,0.0
237.66015625,-6.8359375,-44.921875,-20.01953125,-49.8046875,-11.23046875,0.0
237.6640625,-35.15625,-41.50390625,-29.78515625,-44.43359375,-122.55859375,0.0
237.66796875,-32.2265625,-41.50390625,-36.1328125,-39.55078125,-127.44140625,0.0
237.671875,-23.92578125,-42.48046875,-29.296875,-48.828125,-39.55078125,0.0
237.67578125,-20.99609375,-33.69140625,-18.06640625,-44.43359375,2.9296875,0.0
237.6796875,-15.625,-23.4375,-20.99609375,-54.6875,28.80859375,0.0
237.68359375,-17.578125,-29.296875,-37.59765625,-67.87109375,66.40625,0.0
237.6875,-29.78515625,-42.96875,-56.640625,-59.5703125,88.37890625,0.0
237.69140625,-29.296875,-41.50390625,-52.734375,-34.1796875,28.80859375,0.0
237.6953125,-13.671875,-42.48046875,-31.25,-15.625,-50.78125,0.0
237.69921875,-15.13671875,-38.0859375,-27.83203125,-6.8359375,-40.0390625,0.0
237.703125,-23.92578125,-28.3203125,-39.0625,-4.39453125,-55.17578125,0.0
237.70703125,-11.23046875,-30.76171875,-46.875,-15.13671875,-95.21484375,0.0
237.7109375,-7.32421875,-35.15625,-41.015625,-27.83203125,-94.23828125,0.0
237.71484375,-8.30078125,-31.73828125,-33.69140625,-17.08984375,-77.63671875,0.0
237.71875,-13.671875,-30.76171875,-41.9921875,-21.484375,-5.859375,0.0
237.72265625,-36.1328125,-39.0625,-47.8515625,-29.296875,-41.50390625,0.0
237.7265625,-51.7578125,-43.9453125,-41.9921875,-9.765625,-122.55859375,0.0
237.73046875,-49.31640625,-44.921875,-34.1796875,-13.18359375,-83.49609375,0.0
237.734375,-34.66796875,-39.55078125,-28.3203125,-29.296875,-33.69140625,0.0
237.73828125,-22.4609375,-34.1796875,-29.78515625,-33.69140625,-8.7890625,0.0
237.7421875,-29.78515625,-37.109375,-31.25,-32.71484375,11.71875,0.0
237.74609375,-27.34375,-37.59765625,-32.2265625,-49.8046875,26.3671875,0.0
237.75,-32.2265625,-45.8984375,-36.62109375,-55.6640625,50.29296875,0.0
237.75390625,-47.36328125,-48.828125,-40.0390625,-48.828125,28.3203125,0.0
237.7578125,-47.8515625,-35.15625,-29.296875,-49.8046875,61.5234375,0.0
237.76171875,-46.38671875,-27.83203125,-27.34375,-57.6171875,115.72265625,0.0
237.765625,-34.1796875,-34.66796875,-39.0625,-50.78125,59.5703125,0.0
237.76953125,-38.0859375,-41.015625,-45.8984375,-59.08203125,-11.23046875,0.0
237.7734375,-35.64453125,-27.83203125,-27.83203125,-76.171875,-6.34765625,0.0
237.77734375,-27.34375,-22.94921875,-12.20703125,-67.87109375,3.90625,0.0
237.78125,-36.1328125,-34.1796875,-9.765625,-60.05859375,11.71875,0.0
237.78515625,-24.90234375,-38.0859375,-15.13671875,-58.10546875,48.828125,0.0
237.7890625,-25.390625,-41.50390625,-32.2265625,-74.21875,43.9453125,0.0
237.79296875,-47.36328125,-38.0859375,-32.2265625,-66.40625,-0.9765625,0.0
237.796875,-39.0625,-35.15625,-23.92578125,-56.15234375,-42.96875,0.0
237.80078125,-31.73828125,-36.1328125,-29.296875,-43.9453125,-38.0859375,0.0
237.8046875,-23.92578125,-31.73828125,-35.15625,-20.99609375,-58.59375,0.0
237.80859375,-25.390625,-30.76171875,-38.0859375,-3.41796875,-80.56640625,0.0
237.8125,-24.90234375,-32.2265625,-40.0390625,-18.06640625,-58.10546875,0.0
237.81640625,-30.76171875,-38.0859375,-37.109375,-15.13671875,-47.8515625,0.0
237.8203125,-32.2265625,-38.57421875,-24.90234375,8.30078125,-63.96484375,0.0
237.82421875,-23.4375,-34.66796875,-31.25,6.34765625,-106.4453125,0.0
237.828125,-34.66796875,-39.55078125,-40.0390625,0.9765625,-81.0546875,0.0
237.83203125,-30.76171875,-46.38671875,-37.109375,-2.44140625,-53.7109375,0.0
237.8359375,-28.3203125,-35.64453125,-33.69140625,0.0,-25.87890625,0.0
237.83984375,-15.13671875,-19.04296875,-37.109375,-9.27734375,48.33984375,0.0
237.84375,-24.90234375,-28.3203125,-36.1328125,-23.92578125,65.4296875,0.0
237.84765625,-32.2265625,-38.57421875,-35.15625,-27.34375,-23.92578125,0.0
237.8515625,-23.92578125,-32.71484375,-38.0859375,-34.66796875,-127.9296875,0.0
237.85546875,-20.01953125,-26.85546875,-34.1796875,-28.3203125,-51.26953125,0.0
237.859375,-17.08984375,-25.390625,-32.2265625,-35.15625,22.4609375,0.0
237.86328125,-22.94921875,-32.71484375,-40.0390625,-38.57421875,-79.58984375,0.0
237.8671875,-1.46484375,-40.52734375,-40.52734375,-25.87890625,-182.6171875,0.0
237.87109375,-27.83203125,-37.109375,-29.78515625,-48.828125,-108.3984375,0.0
237.875,-61.5234375,-26.85546875,-27.34375,-69.3359375,61.03515625,0.0
237.87890625,-31.73828125,-27.34375,-25.87890625,-55.6640625,97.65625,0.0
237.8828125,-22.94921875,-28.80859375,-24.4140625,-43.45703125,73.73046875,0.0
237.88671875,-38.57421875,-38.0859375,-36.1328125,-53.22265625,101.07421875,0.0
237.890625,-31.25,-46.875,-38.57421875,-50.29296875,135.25390625,0.0
237.89453125,-14.6484375,-35.64453125,-31.25,-40.0390625,54.19921875,0.0
237.8984375,-5.37109375,-25.87890625,-29.78515625,-18.5546875,-23.4375,0.0
237.90234375,-6.8359375,-28.80859375,-28.80859375,-14.16015625,-0.9765625,0.0
237.90625,-19.04296875,-39.55078125,-28.3203125,-45.41015625,-7.8125,0.0
237.91015625,-17.08984375,-38.0859375,-21.97265625,-27.83203125,45.8984375,0.0
237.9140625,-32.71484375,-35.15625,-23.92578125,-22.4609375,-41.50390625,0.0
237.91796875,-47.8515625,-37.59765625,-30.76171875,-41.50390625,-105.46875,0.0
237.921875,-43.45703125,-44.43359375,-30.76171875,-33.203125,-39.0625,0.0
237.92578125,-37.59765625,-50.29296875,-38.0859375,-34.66796875,-74.21875,0.0
237.9296875,-30.2734375,-38.0859375,-41.015625,-44.921875,-170.41015625,0.0
237.93359375,-32.71484375,-34.1796875,-26.85546875,-29.78515625,-113.76953125,0.0
237.9375,-47.8515625,-41.015625,-29.78515625,-22.4609375,-25.87890625,0.0
237.94140625,-36.1328125,-30.76171875,-36.1328125,-35.15625,-7.32421875,0.0
237.9453125,-27.83203125,-25.390625,-40.0390625,-44.921875,73.73046875,0.0
237.94921875,-27.83203125,-37.59765625,-47.36328125,-40.52734375,-14.6484375,0.0
237.953125,-3.90625,-37.59765625,-41.50390625,-44.921875,-102.05078125,0.0
237.95703125,-4.39453125,-30.76171875,-35.15625,-70.80078125,-125.48828125,0.0
237.9609375,8.30078125,-18.5546875,-32.2265625,-70.80078125,-117.1875,0.0
237.96484375,9.27734375,-20.99609375,-40.52734375,-61.5234375,-213.37890625,0.0
237.96875,11.23046875,-39.55078125,-44.43359375,-56.640625,-207.03125,0.0
237.97265625,3.41796875,-38.0859375,-40.0390625,-32.71484375,-123.53515625,0.0
237.9765625,-23.4375,-30.2734375,-37.59765625,-32.2265625,-188.4765625,0.0
237.98046875,-31.25,-34.1796875,-34.1796875,-40.0390625,-131.8359375,0.0
237.984375,-33.69140625,-38.57421875,-40.0390625,-28.80859375,-166.015625,0.0
237.98828125,-33.203125,-38.0859375,-45.41015625,-26.3671875,-193.359375,0.0
237.9921875,-29.78515625,-32.2265625,-34.1796875,-41.9921875,-156.73828125,0.0
237.99609375,-23.92578125,-25.390625,-29.78515625,-55.17578125,-200.1953125,0.0
238.0,-18.06640625,-25.390625,-27.34375,-48.33984375,-205.078125,0.0
238.00390625,-29.78515625,-29.296875,-20.99609375,-38.57421875,-88.37890625,0.0
238.0078125,-56.15234375,-32.2265625,-27.34375,-52.734375,-72.265625,0.0
238.01171875,-69.3359375,-32.71484375,-34.66796875,-53.22265625,-151.85546875,0.0
238.015625,-43.9453125,-33.69140625,-35.64453125,-35.64453125,-125.0,0.0
238.01953125,-21.97265625,-35.15625,-31.73828125,-52.24609375,-9.27734375,0.0
238.0234375,-42.48046875,-31.25,-33.69140625,-84.47265625,85.9375,0.0
238.02734375,-61.03515625,-28.3203125,-35.64453125,-75.1953125,57.6171875,0.0
238.03125,-47.8515625,-30.2734375,-30.76171875,-75.1953125,20.99609375,0.0
238.03515625,-44.43359375,-26.85546875,-24.4140625,-72.75390625,112.79296875,0.0
238.0390625,-51.26953125,-17.578125,-19.53125,-62.98828125,194.3359375,0.0
238.04296875,-50.29296875,-27.34375,-25.87890625,-86.42578125,169.43359375,0.0
238.046875,-35.64453125,-35.64453125,-27.83203125,-92.7734375,38.0859375,0.0
238.05078125,-25.87890625,-27.34375,-24.90234375,-67.87109375,-113.76953125,0.0
238.0546875,-35.15625,-20.5078125,-27.34375,-51.7578125,-87.890625,0.0
238.05859375,-46.875,-31.25,-30.76171875,-60.546875,-9.765625,0.0
238.0625,-40.52734375,-38.0859375,-28.3203125,-53.7109375,24.4140625,0.0
238.06640625,-8.30078125,-36.62109375,-39.0625,-45.41015625,12.20703125,0.0
238.0703125,-6.8359375,-35.15625,-39.55078125,-63.4765625,-32.2265625,0.0
238.07421875,-17.08984375,-32.71484375,-32.2265625,-68.359375,-21.97265625,0.0
238.078125,-23.92578125,-22.94921875,-28.80859375,-42.96875,-0.48828125,0.0
238.08203125,-34.66796875,-23.92578125,-30.76171875,-53.22265625,54.6875,0.0
238.0859375,-44.43359375,-38.57421875,-34.1796875,-94.23828125,6.34765625,0.0
238.08984375,-46.38671875,-37.59765625,-31.73828125,-95.21484375,-44.921875,0.0
238.09375,-24.90234375,-31.73828125,-36.1328125,-50.29296875,-58.10546875,0.0
238.09765625,-10.25390625,-29.296875,-36.62109375,-23.4375,-69.3359375,0.0
238.1015625,-24.4140625,-31.73828125,-30.76171875,-36.1328125,0.48828125,0.0
238.10546875,-17.578125,-34.66796875,-36.1328125,-59.5703125,49.31640625,0.0
238.109375,-23.92578125,-36.62109375,-36.1328125,-59.5703125,-10.25390625,0.0
238.11328125,-38.57421875,-33.69140625,-29.78515625,-31.73828125,-48.828125,0.0
238.1171875,-11.71875,-25.390625,-29.78515625,-7.8125,-53.22265625,0.0
238.12109375,-7.8125,-26.85546875,-28.3203125,5.859375,5.859375,0.0
238.125,-8.7890625,-20.99609375,-32.2265625,5.37109375,53.22265625,0.0
238.12890625,-20.99609375,-28.80859375,-45.41015625,-6.34765625,91.796875,0.0
238.1328125,-28.3203125,-37.59765625,-41.015625,-7.32421875,101.5625,0.0
238.13671875,-13.18359375,-34.66796875,-37.109375,8.7890625,41.50390625,0.0
238.140625,-12.6953125,-26.85546875,-35.15625,3.90625,4.8828125,0.0
238.14453125,-19.53125,-28.3203125,-38.57421875,-6.8359375,-61.5234375,0.0
238.1484375,-19.53125,-34.66796875,-41.015625,-5.859375,-111.328125,0.0
238.15234375,1.46484375,-23.4375,-25.390625,28.3203125,-66.40625,0.0
238.15625,-1.46484375,-16.11328125,-21.97265625,23.92578125,3.41796875,0.0
238.16015625,-32.2265625,-32.2265625,-34.66796875,-11.23046875,10.7421875,0.0
238.1640625,-45.41015625,-51.26953125,-45.8984375,-18.5546875,25.87890625,0.0
238.16796875,-53.7109375,-46.875,-53.7109375,-9.27734375,-38.0859375,0.0
238.171875,-55.6640625,-33.203125,-37.59765625,-18.06640625,-163.57421875,0.0
238.17578125,-90.33203125,-38.57421875,-39.0625,-41.015625,-128.41796875,0.0
238.1796875,-107.91015625,-47.36328125,-49.8046875,-56.640625,-69.82421875,0.0
238.18359375,-90.8203125,-48.828125,-47.8515625,-99.12109375,-59.5703125,0.0
238.1875,-149.90234375,-53.7109375,-62.98828125,-152.83203125,-65.91796875,0.0
238.19140625,-225.09765625,-56.640625,-68.84765625,-174.8046875,-106.93359375,0.0
238.1953125,-218.26171875,-51.7578125,-56.640625,-171.38671875,-49.31640625,0.0
238.19921875,-203.125,-47.36328125,-51.7578125,-163.57421875,-13.18359375,0.0
238.203125,-226.07421875,-54.6875,-48.828125,-180.17578125,-24.4140625,0.0
238.20703125,-243.1640625,-73.73046875,-46.38671875,-200.1953125,-62.5,0.0
238.2109375,-232.421875,-79.1015625,-34.1796875,-187.01171875,-156.73828125,0.0
238.21484375,-229.98046875,-68.359375,-25.390625,-175.29296875,-101.5625,0.0
238.21875,-240.72265625,-64.94140625,-39.0625,-171.875,-36.62109375,0.0
238.22265625,-220.703125,-58.59375,-43.9453125,-165.0390625,2.44140625,0.0
238.2265625,-212.40234375,-62.98828125,-36.62109375,-157.2265625,44.921875,0.0
238.23046875,-228.515625,-70.80078125,-27.83203125,-164.55078125,-0.9765625,0.0
238.234375,-200.68359375,-52.24609375,-20.01953125,-156.25,3.90625,0.0
238.23828125,-187.5,-46.38671875,-26.3671875,-148.4375,48.33984375,0.0
238.2421875,-213.37890625,-60.546875,-41.015625,-156.25,42.48046875,0.0
238.24609375,-199.21875,-65.4296875,-51.7578125,-142.578125,24.4140625,0.0
238.25,-161.1328125,-62.5,-43.9453125,-121.58203125,-19.04296875,0.0
238.25390625,-142.578125,-57.12890625,-25.390625,-99.12109375,-23.4375,0.0
238.2578125,-104.98046875,-45.41015625,-22.94921875,-58.10546875,57.12890625,0.0
238.26171875,-83.49609375,-41.015625,-36.62109375,-35.15625,73.73046875,0.0
238.265625,-81.0546875,-36.62109375,-44.43359375,-32.2265625,28.80859375,0.0
238.26953125,-47.8515625,-38.57421875,-20.5078125,-16.11328125,17.578125,0.0
238.2734375,-26.3671875,-39.0625,-17.08984375,1.953125,15.13671875,0.0
238.27734375,-3.41796875,-32.2265625,-21.484375,2.44140625,-13.18359375,0.0
238.28125,13.671875,-31.73828125,-9.765625,8.7890625,-8.7890625,0.0
238.28515625,21.484375,-36.1328125,-12.20703125,29.78515625,-35.15625,0.0
238.2890625,46.875,-33.69140625,-17.08984375,45.41015625,-72.265625,0.0
238.29296875,66.40625,-22.94921875,-20.99609375,67.87109375,-98.6328125,0.0
238.296875,59.5703125,-24.4140625,-23.4375,73.73046875,-126.46484375,0.0
238.30078125,59.08203125,-24.90234375,-19.04296875,62.98828125,-68.84765625,0.0
238.3046875,60.05859375,-29.78515625,-8.30078125,72.75390625,-79.1015625,0.0
238.30859375,41.015625,-40.52734375,-6.8359375,88.37890625,-112.79296875,0.0
238.3125,52.24609375,-36.1328125,-12.20703125,117.67578125,-69.3359375,0.0
238.31640625,73.73046875,-27.83203125,-16.6015625,134.27734375,-95.21484375,0.0
238.3203125,70.80078125,-20.99609375,-20.99609375,109.375,-64.453125,0.0
238.32421875,55.6640625,-27.34375,-29.78515625,96.6796875,-107.421875,0.0
238.328125,50.78125,-35.64453125,-31.25,90.8203125,-134.765625,0.0
238.33203125,53.7109375,-30.76171875,-11.71875,78.61328125,-1.46484375,0.0
238.3359375,55.6640625,-20.5078125,-4.8828125,71.77734375,51.26953125,0.0
238.33984375,48.33984375,-19.53125,-17.08984375,73.73046875,94.7265625,0.0
238.34375,40.0390625,-27.83203125,-19.53125,73.2421875,61.5234375,0.0
238.34765625,39.0625,-37.59765625,-22.4609375,66.40625,-12.6953125,0.0
238.3515625,42.48046875,-32.2265625,-18.5546875,41.9921875,6.8359375,0.0
238.35546875,52.24609375,-22.4609375,-15.625,32.71484375,64.94140625,0.0
238.359375,48.33984375,-21.484375,-26.3671875,50.29296875,-36.62109375,0.0
238.36328125,45.8984375,-17.08984375,-44.43359375,59.08203125,-173.828125,0.0
238.3671875,49.8046875,-18.5546875,-39.0625,46.38671875,-219.23828125,0.0
238.37109375,51.7578125,-18.06640625,-13.18359375,38.57421875,-242.67578125,0.0
238.375,61.5234375,-15.13671875,-9.27734375,34.66796875,-200.1953125,0.0
238.37890625,81.0546875,-20.01953125,-17.578125,14.6484375,-169.921875,0.0
238.3828125,88.8671875,-10.7421875,-27.83203125,34.1796875,-149.90234375,0.0
238.38671875,39.55078125,-20.99609375,-28.3203125,59.5703125,-144.53125,0.0
238.390625,19.53125,-36.1328125,-20.5078125,45.8984375,-134.27734375,0.0
238.39453125,34.1796875,-20.99609375,-19.53125,56.15234375,-92.28515625,0.0
238.3984375,41.9921875,-14.16015625,-21.97265625,61.03515625,-114.2578125,0.0
238.40234375,67.87109375,-25.87890625,-24.90234375,49.31640625,-83.984375,0.0
238.40625,85.44921875,-20.99609375,-19.04296875,67.87109375,-37.59765625,0.0
238.41015625,69.82421875,-16.6015625,-8.30078125,97.16796875,-100.09765625,0.0
238.4140625,29.78515625,-21.484375,-13.671875,108.3984375,-126.46484375,0.0
238.41796875,-0.9765625,-25.390625,-26.3671875,88.37890625,-24.90234375,0.0
238.421875,-3.90625,-20.99609375,-22.4609375,84.47265625,145.99609375,0.0
238.42578125,29.78515625,-9.27734375,-18.5546875,75.68359375,147.94921875,0.0
238.4296875,58.59375,-9.765625,-24.4140625,63.4765625,110.3515625,0.0
238.43359375,30.76171875,-22.4609375,-36.1328125,43.9453125,116.69921875,0.0
238.4375,16.6015625,-27.34375,-34.1796875,41.015625,94.23828125,0.0
238.44140625,5.859375,-31.25,-20.01953125,29.78515625,83.49609375,0.0
238.4453125,-10.7421875,-38.57421875,-20.5078125,15.625,3.90625,0.0
238.44921875,-26.85546875,-44.921875,-19.53125,9.765625,7.32421875,0.0
238.453125,-49.31640625,-38.0859375,-3.90625,19.53125,1.46484375,0.0
238.45703125,-29.296875,-27.83203125,-2.9296875,4.39453125,-30.2734375,0.0
238.4609375,25.390625,-18.06640625,-20.5078125,-3.41796875,-50.29296875,0.0
238.46484375,56.15234375,-6.34765625,-33.203125,41.50390625,-45.8984375,0.0
238.46875,25.390625,-30.76171875,-25.87890625,22.4609375,-70.80078125,0.0
238.47265625,5.859375,-46.38671875,-13.18359375,-35.15625,-14.16015625,0.0
238.4765625,5.37109375,-33.69140625,-7.8125,-36.62109375,68.359375,0.0
238.48046875,2.44140625,-28.80859375,-11.23046875,-36.62109375,42.96875,0.0
238.484375,4.39453125,-28.80859375,-16.6015625,-35.15625,11.71875,0.0
238.48828125,3.90625,-30.2734375,-18.06640625,-22.4609375,44.921875,0.0
238.4921875,23.92578125,-27.83203125,-8.7890625,-10.25390625,-45.8984375,0.0
238.49609375,47.8515625,-21.484375,-12.6953125,-5.37109375,-76.66015625,0.0
238.5,30.76171875,-24.90234375,-16.11328125,4.39453125,-49.8046875,0.0
238.50390625,0.9765625,-31.25,-2.44140625,21.484375,-50.29296875,0.0
238.5078125,-0.48828125,-29.296875,-6.34765625,18.5546875,-71.77734375,0.0
238.51171875,26.85546875,-28.3203125,-20.01953125,21.97265625,-76.66015625,0.0
238.515625,46.38671875,-19.04296875,-30.2734375,33.69140625,1.953125,0.0
238.51953125,25.390625,-17.08984375,-24.90234375,4.39453125,53.22265625,0.0
238.5234375,29.78515625,-24.90234375,-19.53125,0.0,-16.11328125,0.0
238.52734375,41.9921875,-32.71484375,-27.83203125,-2.9296875,-81.54296875,0.0
238.53125,5.859375,-38.0859375,-28.3203125,1.953125,-25.87890625,0.0
238.53515625,-21.97265625,-34.66796875,-22.94921875,21.484375,4.8828125,0.0
238.5390625,21.484375,-29.78515625,-22.4609375,9.765625,25.87890625,0.0
238.54296875,61.5234375,-26.85546875,-31.25,1.46484375,64.453125,0.0
238.546875,-16.11328125,-38.57421875,-30.2734375,19.04296875,-30.2734375,0.0
238.55078125,-68.359375,-41.9921875,-16.6015625,31.73828125,-154.78515625,0.0
238.5546875,-53.22265625,-39.55078125,-16.11328125,35.15625,-191.89453125,0.0
238.55859375,-30.2734375,-39.55078125,-22.94921875,64.94140625,-88.37890625,0.0
238.5625,-3.90625,-29.78515625,-25.390625,95.703125,-20.99609375,0.0
238.56640625,-27.83203125,-30.2734375,-36.62109375,56.15234375,-49.8046875,0.0
238.5703125,-55.6640625,-38.0859375,-42.48046875,35.15625,-3.41796875,0.0
238.57421875,-32.2265625,-34.66796875,-35.64453125,44.43359375,35.64453125,0.0
238.578125,-1.953125,-31.73828125,-36.1328125,41.015625,95.21484375,0.0
238.58203125,-8.30078125,-32.71484375,-39.55078125,12.20703125,98.6328125,0.0
238.5859375,-1.953125,-35.15625,-31.73828125,3.41796875,53.7109375,0.0
238.58984375,19.04296875,-32.71484375,-29.78515625,56.15234375,-0.48828125,0.0
238.59375,22.94921875,-25.87890625,-29.296875,28.80859375,-32.71484375,0.0
238.59765625,6.34765625,-22.4609375,-33.69140625,-27.83203125,20.5078125,0.0
238.6015625,11.71875,-22.4609375,-43.9453125,-61.5234375,19.04296875,0.0
238.60546875,21.97265625,-23.4375,-47.8515625,-81.54296875,-84.9609375,0.0
238.609375,12.20703125,-34.66796875,-43.9453125,-104.4921875,-123.046875,0.0
238.61328125,23.92578125,-33.69140625,-33.203125,-113.28125,-115.234375,0.0
238.6171875,-10.25390625,-23.4375,-39.0625,-90.8203125,23.92578125,0.0
238.62109375,-51.26953125,-23.4375,-53.7109375,-90.33203125,95.703125,0.0
238.625,-28.80859375,-25.87890625,-43.45703125,-109.86328125,47.36328125,0.0
238.62890625,0.0,-28.80859375,-25.87890625,-111.328125,52.24609375,0.0
238.6328125,2.9296875,-26.3671875,-25.390625,-100.5859375,38.57421875,0.0
238.63671875,11.23046875,-25.87890625,-30.2734375,-104.98046875,-97.65625,0.0
238.640625,-11.23046875,-40.0390625,-26.85546875,-121.58203125,-52.24609375,0.0
238.64453125,-74.21875,-44.921875,-26.3671875,-135.7421875,-3.90625,0.0
238.6484375,-71.2890625,-39.55078125,-28.3203125,-152.34375,-104.4921875,0.0
238.65234375,-48.828125,-38.0859375,-33.69140625,-145.99609375,-68.84765625,0.0
238.65625,-41.9921875,-31.73828125,-35.15625,-146.484375,10.25390625,0.0
238.66015625,-18.06640625,-28.3203125,-28.3203125,-149.4140625,32.71484375,0.0
238.6640625,-7.32421875,-30.2734375,-29.296875,-143.06640625,8.30078125,0.0
238.66796875,-23.92578125,-34.1796875,-35.64453125,-152.83203125,-23.92578125,0.0
238.671875,-30.76171875,-38.57421875,-32.71484375,-122.55859375,-91.30859375,0.0
238.67578125,-24.4140625,-40.0390625,-31.73828125,-104.98046875,-141.6015625,0.0
238.6796875,-19.04296875,-35.64453125,-38.0859375,-139.6484375,-143.06640625,0.0
238.68359375,-17.578125,-32.2265625,-35.15625,-132.8125,-109.86328125,0.0
238.6875,2.44140625,-31.73828125,-30.76171875,-103.02734375,-32.2265625,0.0
238.69140625,-2.9296875,-38.57421875,-26.85546875,-87.890625,23.92578125,0.0
238.6953125,-33.69140625,-33.203125,-26.85546875,-72.75390625,-23.4375,0.0
238.69921875,-41.015625,-25.390625,-32.71484375,-63.96484375,-21.97265625,0.0
238.703125,-40.0390625,-30.76171875,-31.73828125,-39.0625,49.8046875,0.0
238.70703125,-60.546875,-35.15625,-30.76171875,-44.921875,-16.6015625,0.0
238.7109375,-59.5703125,-27.83203125,-34.1796875,-49.31640625,-57.12890625,0.0
238.71484375,-39.0625,-25.390625,-36.1328125,-40.52734375,-25.87890625,0.0
238.71875,-14.6484375,-31.73828125,-37.59765625,-43.9453125,-44.921875,0.0
238.72265625,0.9765625,-34.1796875,-34.1796875,-47.8515625,-51.26953125,0.0
238.7265625,-36.62109375,-48.33984375,-29.296875,-45.8984375,-83.0078125,0.0
238.73046875,-63.4765625,-38.57421875,-24.4140625,-51.7578125,-28.3203125,0.0
238.734375,-41.9921875,-31.25,-26.85546875,-70.3125,-17.578125,0.0
238.73828125,11.23046875,-31.73828125,-32.2265625,-64.94140625,-195.3125,0.0
238.7421875,18.06640625,-20.99609375,-35.15625,-67.3828125,-207.03125,0.0
238.74609375,-21.484375,-30.2734375,-42.96875,-85.44921875,-126.953125,0.0
238.75,-38.0859375,-43.9453125,-42.96875,-82.03125,-169.921875,0.0
238.75390625,-15.625,-28.3203125,-31.25,-63.4765625,-91.30859375,0.0
238.7578125,15.13671875,-18.5546875,-28.3203125,-53.22265625,-23.92578125,0.0
238.76171875,19.53125,-25.87890625,-30.2734375,-42.96875,-95.21484375,0.0
238.765625,3.90625,-43.45703125,-41.9921875,-55.6640625,-86.42578125,0.0
238.76953125,-15.13671875,-56.640625,-53.22265625,-66.89453125,-31.25,0.0
238.7734375,-15.13671875,-42.96875,-39.0625,-32.71484375,-55.17578125,0.0
238.77734375,-33.203125,-32.2265625,-28.3203125,-13.671875,-18.06640625,0.0
238.78125,-61.03515625,-31.73828125,-31.73828125,-23.4375,175.29296875,0.0
238.78515625,-47.36328125,-34.66796875,-34.66796875,15.13671875,144.53125,0.0
238.7890625,-36.1328125,-41.50390625,-36.1328125,24.90234375,-14.6484375,0.0
238.79296875,-41.015625,-39.0625,-38.0859375,-7.8125,36.62109375,0.0
238.796875,-46.38671875,-33.69140625,-32.2265625,12.20703125,78.61328125,0.0
238.80078125,-47.36328125,-40.0390625,-27.34375,18.5546875,13.671875,0.0
238.8046875,-40.52734375,-41.015625,-27.34375,9.27734375,14.16015625,0.0
238.80859375,-19.04296875,-43.45703125,-22.94921875,26.85546875,3.41796875,0.0
238.8125,19.53125,-43.9453125,-22.94921875,32.2265625,75.1953125,0.0
238.81640625,21.97265625,-33.203125,-20.5078125,38.57421875,131.8359375,0.0
238.8203125,-37.59765625,-31.73828125,-14.6484375,48.828125,54.19921875,0.0
238.82421875,-47.8515625,-37.109375,-24.90234375,41.9921875,17.578125,0.0
238.828125,-43.9453125,-39.55078125,-39.55078125,21.97265625,37.59765625,0.0
238.83203125,-44.921875,-38.0859375,-29.78515625,10.7421875,101.5625,0.0
238.8359375,-22.94921875,-34.66796875,-13.671875,-6.34765625,103.515625,0.0
238.83984375,-19.04296875,-35.64453125,-24.4140625,-28.80859375,41.015625,0.0
238.84375,-19.53125,-36.62109375,-25.390625,-13.18359375,58.10546875,0.0
238.84765625,-16.6015625,-43.45703125,-24.90234375,0.9765625,41.015625,0.0
238.8515625,-37.59765625,-36.62109375,-26.85546875,-34.1796875,65.4296875,0.0
238.85546875,-33.69140625,-28.3203125,-21.97265625,-38.0859375,99.609375,0.0
238.859375,-13.671875,-31.73828125,-23.92578125,-13.18359375,27.83203125,0.0
238.86328125,-37.109375,-33.69140625,-29.296875,-17.08984375,-23.4375,0.0
238.8671875,-63.96484375,-40.52734375,-36.1328125,-31.73828125,-46.38671875,0.0
238.87109375,-58.10546875,-35.64453125,-30.2734375,-25.390625,-61.5234375,0.0
238.875,-40.52734375,-20.5078125,-10.7421875,14.16015625,-82.03125,0.0
238.87890625,-58.10546875,-27.83203125,-13.671875,36.62109375,-86.42578125,0.0
238.8828125,-54.19921875,-37.109375,-24.4140625,4.8828125,-128.41796875,0.0
238.88671875,-30.76171875,-35.15625,-33.69140625,-13.671875,-143.5546875,0.0
238.890625,-37.59765625,-37.109375,-33.203125,-0.48828125,-105.95703125,0.0
238.89453125,-26.3671875,-33.69140625,-18.5546875,33.69140625,-153.80859375,0.0
238.8984375,0.0,-23.92578125,-17.578125,48.828125,-175.78125,0.0
238.90234375,15.13671875,-25.87890625,-32.2265625,34.1796875,-124.51171875,0.0
238.90625,7.8125,-33.203125,-47.8515625,29.78515625,-75.1953125,0.0
238.91015625,5.859375,-30.2734375,-55.17578125,29.78515625,-45.8984375,0.0
238.9140625,13.18359375,-27.83203125,-42.96875,42.48046875,-98.14453125,0.0
238.91796875,-38.0859375,-33.69140625,-34.1796875,55.6640625,-70.80078125,0.0
238.921875,-68.84765625,-41.9921875,-35.64453125,95.703125,0.48828125,0.0
238.92578125,-60.05859375,-41.9921875,-32.71484375,122.0703125,9.27734375,0.0
238.9296875,-41.50390625,-36.1328125,-36.62109375,115.234375,-78.125,0.0
238.93359375,-23.92578125,-25.87890625,-40.0390625,112.79296875,-111.328125,0.0
238.9375,-27.34375,-21.484375,-32.71484375,134.27734375,-32.2265625,0.0
238.94140625,-31.25,-26.85546875,-26.3671875,167.48046875,-72.75390625,0.0
238.9453125,-30.2734375,-28.80859375,-29.296875,137.6953125,-96.6796875,0.0
238.94921875,-50.29296875,-40.52734375,-47.8515625,91.796875,-9.27734375,0.0
238.953125,-26.3671875,-46.38671875,-41.50390625,92.28515625,11.71875,0.0
238.95703125,-35.64453125,-40.0390625,-31.25,78.125,48.828125,0.0
238.9609375,-54.6875,-35.64453125,-41.015625,62.5,129.39453125,0.0
238.96484375,-35.64453125,-34.1796875,-46.875,64.94140625,55.17578125,0.0
238.96875,-32.2265625,-36.62109375,-45.8984375,44.43359375,-65.4296875,0.0
238.97265625,-1.46484375,-30.76171875,-37.109375,35.64453125,-107.421875,0.0
238.9765625,23.92578125,-20.01953125,-23.4375,54.6875,-102.5390625,0.0
238.98046875,-0.9765625,-20.5078125,-28.80859375,46.875,-51.26953125,0.0
238.984375,-36.62109375,-34.66796875,-41.50390625,23.92578125,-102.5390625,0.0
238.98828125,-51.7578125,-46.38671875,-38.57421875,23.92578125,-128.41796875,0.0
238.9921875,-45.41015625,-46.38671875,-42.48046875,38.57421875,-109.375,0.0
238.99609375,-27.34375,-39.55078125,-45.41015625,24.4140625,-120.1171875,0.0
239.0,-23.4375,-36.1328125,-30.76171875,8.7890625,-149.4140625,0.0
239.00390625,-40.0390625,-46.875,-27.34375,13.18359375,-82.51953125,0.0
239.0078125,-50.29296875,-49.8046875,-36.62109375,15.13671875,27.83203125,0.0
239.01171875,-34.1796875,-40.0390625,-33.69140625,33.69140625,15.625,0.0
239.015625,-24.4140625,-34.66796875,-28.80859375,34.66796875,9.27734375,0.0
239.01953125,-46.875,-37.59765625,-32.71484375,14.6484375,-4.8828125,0.0
239.0234375,-49.8046875,-36.62109375,-35.15625,12.20703125,-61.5234375,0.0
239.02734375,-45.41015625,-41.015625,-40.52734375,7.8125,-74.21875,0.0
239.03125,-52.734375,-42.96875,-44.921875,-1.953125,16.6015625,0.0
239.03515625,-30.76171875,-37.109375,-51.7578125,5.859375,94.7265625,0.0
239.0390625,-28.80859375,-32.2265625,-49.31640625,10.25390625,12.6953125,0.0
239.04296875,-27.83203125,-29.296875,-37.59765625,3.90625,-70.3125,0.0
239.046875,-21.97265625,-35.15625,-36.62109375,-18.5546875,-54.6875,0.0
239.05078125,-28.3203125,-41.015625,-39.0625,-18.06640625,-81.0546875,0.0
239.0546875,-17.578125,-35.15625,-31.25,-2.9296875,-95.21484375,0.0
239.05859375,-22.94921875,-28.80859375,-35.64453125,-29.296875,6.8359375,0.0
239.0625,-19.53125,-32.2265625,-41.015625,-43.45703125,34.66796875,0.0
239.06640625,-12.6953125,-38.57421875,-39.55078125,-23.4375,-42.96875,0.0
239.0703125,-16.11328125,-30.76171875,-39.55078125,-47.36328125,-29.78515625,0.0
239.07421875,-21.97265625,-21.97265625,-41.50390625,-69.82421875,34.1796875,0.0
239.078125,-39.55078125,-31.25,-37.109375,-63.96484375,45.8984375,0.0
239.08203125,-47.36328125,-35.15625,-42.48046875,-43.45703125,90.8203125,0.0
239.0859375,-39.55078125,-28.80859375,-48.828125,0.9765625,61.03515625,0.0
239.08984375,-42.96875,-33.203125,-24.4140625,14.16015625,50.78125,0.0
239.09375,-44.43359375,-39.55078125,-16.6015625,14.16015625,70.80078125,0.0
239.09765625,-41.50390625,-29.296875,-20.5078125,30.2734375,10.25390625,0.0
239.1015625,-43.9453125,-28.80859375,-24.4140625,35.64453125,-17.08984375,0.0
239.10546875,-56.15234375,-51.26953125,-41.50390625,13.671875,-4.8828125,0.0
239.109375,-57.6171875,-61.5234375,-45.41015625,-3.41796875,-1.953125,0.0
239.11328125,-43.45703125,-51.7578125,-38.0859375,20.01953125,-62.01171875,0.0
239.1171875,-27.83203125,-33.69140625,-35.64453125,35.15625,-17.08984375,0.0
239.12109375,-25.390625,-24.90234375,-36.1328125,1.46484375,88.37890625,0.0
239.125,-40.52734375,-28.80859375,-41.50390625,-14.6484375,46.875,0.0
239.12890625,-33.203125,-32.71484375,-43.9453125,-19.53125,-70.3125,0.0
239.1328125,-23.4375,-30.76171875,-31.25,-18.06640625,-71.77734375,0.0
239.13671875,-22.94921875,-26.85546875,-24.4140625,-15.625,-37.109375,0.0
239.140625,-18.5546875,-29.296875,-27.83203125,-8.30078125,8.30078125,0.0
239.14453125,-10.25390625,-34.1796875,-24.4140625,1.46484375,27.83203125,0.0
239.1484375,-19.53125,-35.64453125,-19.04296875,-20.99609375,-58.10546875,0.0
239.15234375,-29.78515625,-27.34375,-9.27734375,-9.27734375,-111.81640625,0.0
239.15625,-22.94921875,-20.01953125,-20.01953125,16.11328125,-31.73828125,0.0
239.16015625,-21.484375,-27.83203125,-32.2265625,14.16015625,9.27734375,0.0
239.1640625,-30.76171875,-29.296875,-21.97265625,-0.48828125,-104.00390625,0.0
239.16796875,-25.87890625,-26.3671875,-13.671875,-19.04296875,-94.7265625,0.0
239.171875,-5.37109375,-31.25,-14.16015625,-35.15625,-27.34375,0.0
239.17578125,-12.20703125,-27.34375,-20.5078125,-29.296875,-44.43359375,0.0
239.1796875,-21.484375,-17.08984375,-19.04296875,-23.4375,-114.2578125,0.0
239.18359375,-0.9765625,-18.5546875,-30.76171875,-24.90234375,-119.140625,0.0
239.1875,-3.90625,-31.73828125,-33.69140625,-40.0390625,-123.046875,0.0
239.19140625,-15.13671875,-37.59765625,-25.390625,-72.75390625,-168.9453125,0.0
239.1953125,-1.46484375,-27.83203125,-30.76171875,-65.4296875,-99.12109375,0.0
239.19921875,11.23046875,-23.92578125,-31.73828125,-43.9453125,-36.1328125,0.0
239.203125,-2.44140625,-26.3671875,-32.71484375,-58.59375,8.7890625,0.0
239.20703125,-24.4140625,-27.34375,-36.62109375,-69.82421875,12.20703125,0.0
239.2109375,-15.13671875,-30.2734375,-31.73828125,-61.03515625,27.34375,0.0
239.21484375,-13.671875,-33.203125,-25.87890625,-53.22265625,39.55078125,0.0
239.21875,-18.5546875,-28.80859375,-25.87890625,-52.24609375,-37.59765625,0.0
239.22265625,-14.6484375,-29.78515625,-28.3203125,-48.33984375,-66.89453125,0.0
239.2265625,-1.953125,-24.90234375,-26.85546875,-36.1328125,-42.96875,0.0
239.23046875,5.859375,-23.4375,-28.3203125,-6.8359375,-141.11328125,0.0
239.234375,6.34765625,-26.3671875,-29.296875,7.32421875,-7.8125,0.0
239.23828125,-10.25390625,-24.90234375,-28.3203125,8.30078125,119.62890625,0.0
239.2421875,-31.73828125,-28.3203125,-18.06640625,26.85546875,-36.1328125,0.0
239.24609375,-20.5078125,-31.73828125,-16.11328125,21.97265625,-68.359375,0.0
239.25,-19.04296875,-38.0859375,-29.78515625,-6.34765625,-22.4609375,0.0
239.25390625,-12.6953125,-36.1328125,-32.2265625,-12.20703125,12.20703125,0.0
239.2578125,-17.08984375,-34.1796875,-23.4375,-2.44140625,26.85546875,0.0
239.26171875,-45.8984375,-32.71484375,-20.5078125,-23.92578125,16.11328125,0.0
239.265625,-56.15234375,-35.15625,-33.203125,-34.1796875,29.78515625,0.0
239.26953125,-45.8984375,-41.50390625,-29.296875,-16.6015625,-2.9296875,0.0
239.2734375,-16.11328125,-35.64453125,-21.97265625,-1.46484375,-70.3125,0.0
239.27734375,1.953125,-27.34375,-35.15625,-6.8359375,-121.09375,0.0
239.28125,1.953125,-29.296875,-41.015625,3.90625,-142.578125,0.0
239.28515625,-3.90625,-34.1796875,-36.1328125,11.71875,-137.6953125,0.0
239.2890625,-38.0859375,-40.52734375,-32.71484375,-16.6015625,-84.9609375,0.0
239.29296875,-36.62109375,-34.66796875,-20.01953125,-18.06640625,-77.1484375,0.0
239.296875,-26.85546875,-35.64453125,-17.578125,-24.90234375,-101.07421875,0.0
239.30078125,-53.22265625,-39.55078125,-25.390625,-20.01953125,-39.0625,0.0
239.3046875,-33.203125,-33.69140625,-34.1796875,-22.4609375,-62.01171875,0.0
239.30859375,-15.13671875,-38.0859375,-37.109375,-56.15234375,-57.12890625,0.0
239.3125,-30.76171875,-37.109375,-30.2734375,-75.1953125,30.76171875,0.0
239.31640625,-28.3203125,-34.66796875,-34.66796875,-80.078125,7.32421875,0.0
239.3203125,-27.83203125,-41.9921875,-47.36328125,-91.30859375,1.46484375,0.0
239.32421875,-22.4609375,-35.15625,-42.96875,-98.6328125,-30.76171875,0.0
239.328125,-19.04296875,-33.203125,-37.59765625,-92.7734375,-27.34375,0.0
239.33203125,-25.390625,-47.36328125,-36.62109375,-100.5859375,-45.41015625,0.0
239.3359375,-21.97265625,-44.43359375,-43.45703125,-101.07421875,-92.7734375,0.0
239.33984375,-4.8828125,-31.73828125,-44.921875,-72.265625,-30.76171875,0.0
239.34375,0.9765625,-34.66796875,-36.1328125,-60.546875,8.30078125,0.0
239.34765625,-28.80859375,-43.45703125,-36.62109375,-66.89453125,-17.08984375,0.0
239.3515625,-36.1328125,-40.52734375,-34.1796875,-41.50390625,-19.04296875,0.0
239.35546875,-24.4140625,-37.109375,-35.15625,-6.34765625,7.32421875,0.0
239.359375,-45.41015625,-38.57421875,-30.2734375,-31.73828125,5.859375,0.0
239.36328125,-51.7578125,-37.59765625,-23.4375,-45.41015625,-18.06640625,0.0
239.3671875,-56.15234375,-43.9453125,-34.1796875,-53.7109375,-0.48828125,0.0
239.37109375,-52.734375,-40.52734375,-33.203125,-57.6171875,-29.296875,0.0
239.375,-13.18359375,-28.3203125,-26.85546875,-43.45703125,-35.15625,0.0
239.37890625,-7.32421875,-34.66796875,-44.921875,-48.828125,-11.71875,0.0
239.3828125,-25.87890625,-38.0859375,-51.7578125,-53.22265625,-22.94921875,0.0
239.38671875,-35.15625,-36.62109375,-39.0625,-39.0625,-66.89453125,0.0
239.390625,-16.6015625,-30.76171875,-28.80859375,-33.203125,-76.171875,0.0
239.39453125,-6.34765625,-22.4609375,-26.3671875,-21.484375,-45.8984375,0.0
239.3984375,-18.5546875,-22.94921875,-29.78515625,-12.6953125,-29.78515625,0.0
239.40234375,-44.43359375,-31.25,-32.2265625,-24.90234375,-26.3671875,0.0
239.40625,-56.640625,-36.62109375,-31.25,-46.38671875,-82.03125,0.0
239.41015625,-47.8515625,-29.78515625,-25.390625,-62.01171875,-81.54296875,0.0
239.4140625,-35.64453125,-20.5078125,-17.08984375,-67.3828125,-31.73828125,0.0
239.41796875,-17.08984375,-16.11328125,-26.85546875,-80.078125,-2.44140625,0.0
239.421875,-2.9296875,-27.83203125,-49.8046875,-83.0078125,-49.31640625,0.0
239.42578125,-21.97265625,-38.57421875,-49.8046875,-87.40234375,-63.4765625,0.0
239.4296875,-29.296875,-33.69140625,-35.15625,-104.98046875,-45.8984375,0.0
239.43359375,-30.2734375,-28.80859375,-34.1796875,-90.8203125,-32.71484375,0.0
239.4375,-30.76171875,-25.390625,-41.9921875,-70.3125,0.48828125,0.0
239.44140625,-13.18359375,-27.34375,-35.64453125,-71.77734375,-61.03515625,0.0
239.4453125,-3.90625,-31.73828125,-28.80859375,-83.49609375,-123.046875,0.0
239.44921875,-35.64453125,-33.203125,-40.52734375,-102.5390625,-82.51953125,0.0
239.453125,-34.1796875,-29.78515625,-39.55078125,-92.7734375,41.015625,0.0
239.45703125,-13.18359375,-27.83203125,-32.2265625,-71.77734375,39.0625,0.0
239.4609375,-28.80859375,-24.90234375,-24.90234375,-63.96484375,-14.16015625,0.0
239.46484375,-28.80859375,-25.87890625,-30.2734375,-67.3828125,11.71875,0.0
239.46875,-19.53125,-37.59765625,-38.57421875,-83.49609375,-29.78515625,0.0
239.47265625,-20.01953125,-33.69140625,-35.15625,-100.5859375,-104.4921875,0.0
239.4765625,-24.4140625,-22.4609375,-32.71484375,-95.21484375,18.06640625,0.0
239.48046875,-48.828125,-20.5078125,-32.71484375,-90.33203125,-4.8828125,0.0
239.484375,-51.26953125,-27.83203125,-49.8046875,-92.7734375,-128.41796875,0.0
239.48828125,-24.4140625,-27.34375,-52.24609375,-78.125,-42.96875,0.0
239.4921875,-23.92578125,-23.4375,-28.3203125,-66.40625,-31.73828125,0.0
239.49609375,-22.94921875,-26.85546875,-19.53125,-66.40625,-6.34765625,0.0
239.5,-32.71484375,-34.1796875,-33.69140625,-84.9609375,-15.13671875,0.0
239.50390625,-45.41015625,-40.52734375,-47.8515625,-102.05078125,-102.5390625,0.0
239.5078125,-39.55078125,-41.9921875,-37.109375,-88.37890625,-97.65625,0.0
239.51171875,-37.109375,-39.0625,-21.484375,-71.2890625,-100.09765625,0.0
239.515625,-36.1328125,-36.62109375,-31.25,-90.8203125,-56.15234375,0.0
239.51953125,-32.2265625,-31.73828125,-33.69140625,-89.35546875,-4.39453125,0.0
239.5234375,-47.36328125,-36.1328125,-29.78515625,-101.5625,-62.5,0.0
239.52734375,-39.55078125,-41.9921875,-33.203125,-125.9765625,-64.453125,0.0
239.53125,-14.6484375,-38.0859375,-27.34375,-108.88671875,-39.0625,0.0
239.53515625,-29.296875,-32.71484375,-29.78515625,-104.00390625,-12.6953125,0.0
239.5390625,-26.85546875,-28.3203125,-37.109375,-124.0234375,-36.1328125,0.0
239.54296875,-10.25390625,-32.71484375,-39.0625,-104.98046875,-67.87109375,0.0
239.546875,-18.5546875,-40.0390625,-41.9921875,-105.95703125,-58.59375,0.0
239.55078125,1.953125,-35.15625,-34.66796875,-95.21484375,-88.37890625,0.0
239.5546875,19.04296875,-25.390625,-24.90234375,-72.265625,5.859375,0.0
239.55859375,3.41796875,-26.3671875,-38.0859375,-107.421875,50.29296875,0.0
239.5625,-0.48828125,-27.83203125,-45.8984375,-100.09765625,-43.45703125,0.0
239.56640625,-16.6015625,-33.69140625,-41.50390625,-85.44921875,-141.6015625,0.0
239.5703125,-41.9921875,-39.55078125,-24.90234375,-73.73046875,-113.28125,0.0
239.57421875,-80.56640625,-34.66796875,-20.5078125,-68.84765625,-48.33984375,0.0
239.578125,-76.66015625,-29.296875,-38.57421875,-90.8203125,22.94921875,0.0
239.58203125,-39.0625,-28.80859375,-34.66796875,-81.54296875,84.47265625,0.0
239.5859375,-24.90234375,-32.71484375,-24.90234375,-59.5703125,46.38671875,0.0
239.58984375,-39.55078125,-41.015625,-20.01953125,-65.91796875,35.15625,0.0
239.59375,-43.9453125,-35.15625,-18.5546875,-86.42578125,70.3125,0.0
239.59765625,-32.2265625,-14.6484375,-24.4140625,-86.42578125,69.82421875,0.0
239.6015625,-42.48046875,-16.11328125,-34.1796875,-80.078125,59.08203125,0.0
239.60546875,-64.94140625,-30.76171875,-46.875,-83.0078125,42.48046875,0.0
239.609375,-62.01171875,-31.73828125,-38.57421875,-92.7734375,21.484375,0.0
239.61328125,-54.6875,-24.90234375,-24.90234375,-70.80078125,-11.23046875,0.0
239.6171875,-38.0859375,-19.53125,-29.296875,-46.38671875,-87.890625,0.0
239.62109375,-20.99609375,-24.90234375,-32.2265625,-56.15234375,-71.2890625,0.0
239.625,-15.13671875,-27.34375,-32.2265625,-62.98828125,-14.6484375,0.0
239.62890625,-20.5078125,-29.296875,-32.2265625,-68.84765625,-41.9921875,0.0
239.6328125,-20.5078125,-24.90234375,-23.92578125,-78.61328125,-24.4140625,0.0
239.63671875,-6.34765625,-22.94921875,-16.6015625,-53.22265625,6.8359375,0.0
239.640625,-15.13671875,-25.87890625,-16.6015625,-28.80859375,-28.3203125,0.0
239.64453125,-35.64453125,-25.87890625,-29.78515625,-57.12890625,-68.84765625,0.0
239.6484375,-18.06640625,-29.78515625,-30.76171875,-88.8671875,-51.7578125,0.0
239.65234375,2.9296875,-23.92578125,-24.4140625,-77.1484375,-27.34375,0.0
239.65625,-32.2265625,-19.53125,-27.83203125,-72.75390625,3.41796875,0.0
239.66015625,-50.78125,-25.390625,-31.73828125,-91.796875,-74.70703125,0.0
239.6640625,-43.9453125,-42.48046875,-45.41015625,-103.02734375,-101.5625,0.0
239.66796875,-36.62109375,-41.9921875,-43.45703125,-91.30859375,-113.28125,0.0
239.671875,-22.94921875,-25.390625,-32.2265625,-75.68359375,-109.86328125,0.0
239.67578125,-26.3671875,-22.94921875,-26.3671875,-70.3125,-40.0390625,0.0
239.6796875,-32.2265625,-28.80859375,-16.6015625,-51.7578125,-5.859375,0.0
239.68359375,-29.296875,-37.109375,-29.78515625,-43.45703125,-1.46484375,0.0
239.6875,-40.52734375,-38.57421875,-30.76171875,-17.08984375,14.6484375,0.0
239.69140625,-42.48046875,-35.64453125,-18.5546875,-12.20703125,-51.7578125,0.0
239.6953125,-43.45703125,-30.2734375,-23.92578125,-25.390625,-61.5234375,0.0
239.69921875,-35.15625,-24.90234375,-30.2734375,4.8828125,-24.90234375,0.0
239.703125,-22.94921875,-24.4140625,-34.1796875,44.921875,-61.03515625,0.0
239.70703125,-28.3203125,-35.64453125,-38.57421875,66.40625,-166.015625,0.0
239.7109375,-58.10546875,-48.33984375,-41.9921875,70.3125,-147.94921875,0.0
239.71484375,-53.22265625,-34.1796875,-31.73828125,73.73046875,-65.91796875,0.0
239.71875,-19.04296875,-25.87890625,-35.64453125,91.796875,-47.8515625,0.0
239.72265625,-22.4609375,-40.52734375,-47.36328125,87.40234375,-12.6953125,0.0
239.7265625,-38.0859375,-45.8984375,-40.52734375,81.0546875,29.296875,0.0
239.73046875,-33.69140625,-43.9453125,-26.85546875,121.58203125,2.9296875,0.0
239.734375,-3.90625,-34.1796875,-13.18359375,162.109375,-96.6796875,0.0
239.73828125,12.20703125,-25.87890625,-22.94921875,172.8515625,-89.84375,0.0
239.7421875,-22.94921875,-25.87890625,-39.0625,165.0390625,-20.99609375,0.0
239.74609375,-45.41015625,-33.203125,-40.52734375,148.92578125,-81.54296875,0.0
239.75,-26.3671875,-39.0625,-37.59765625,144.04296875,-128.90625,0.0
239.75390625,-17.08984375,-38.57421875,-38.57421875,135.25390625,-123.53515625,0.0
239.7578125,-22.94921875,-26.85546875,-38.57421875,129.39453125,-54.6875,0.0
239.76171875,-30.2734375,-29.78515625,-33.203125,131.34765625,-64.453125,0.0
239.765625,-22.4609375,-37.59765625,-37.109375,98.14453125,-51.26953125,0.0
239.76953125,-16.6015625,-36.1328125,-41.015625,90.33203125,56.15234375,0.0
239.7734375,-22.4609375,-30.2734375,-29.78515625,106.4453125,62.01171875,0.0
239.77734375,-22.4609375,-22.94921875,-29.296875,86.9140625,69.3359375,0.0
239.78125,-36.62109375,-29.78515625,-38.57421875,71.2890625,-25.390625,0.0
239.78515625,-50.29296875,-40.52734375,-43.45703125,60.546875,-134.27734375,0.0
239.7890625,-35.64453125,-36.62109375,-35.15625,49.31640625,-61.03515625,0.0
239.79296875,-16.11328125,-29.296875,-32.2265625,45.8984375,22.94921875,0.0
239.796875,-11.71875,-28.3203125,-39.0625,36.1328125,-27.83203125,0.0
239.80078125,-18.5546875,-32.71484375,-43.45703125,35.15625,-53.22265625,0.0
239.8046875,-18.5546875,-37.59765625,-44.43359375,37.59765625,-29.78515625,0.0
239.80859375,-35.15625,-36.1328125,-40.0390625,36.62109375,-5.37109375,0.0
239.8125,-41.015625,-34.66796875,-32.2265625,41.015625,-58.10546875,0.0
239.81640625,-23.4375,-28.80859375,-31.25,41.015625,-67.87109375,0.0
239.8203125,-15.625,-24.4140625,-32.71484375,27.83203125,-0.9765625,0.0
239.82421875,-24.4140625,-32.71484375,-35.15625,31.25,-88.8671875,0.0
239.828125,-25.87890625,-37.59765625,-27.83203125,35.64453125,-212.890625,0.0
239.83203125,-1.46484375,-31.25,-22.4609375,59.08203125,-171.38671875,0.0
239.8359375,5.37109375,-20.99609375,-24.4140625,74.21875,-28.3203125,0.0
239.83984375,-10.7421875,-29.296875,-28.80859375,56.15234375,-8.7890625,0.0
239.84375,-29.296875,-50.78125,-42.48046875,45.8984375,-51.7578125,0.0
239.84765625,-28.3203125,-56.15234375,-38.57421875,45.41015625,-59.5703125,0.0
239.8515625,-11.23046875,-45.41015625,-26.85546875,45.8984375,-93.75,0.0
239.85546875,-16.6015625,-29.78515625,-33.69140625,45.8984375,-79.58984375,0.0
239.859375,-25.87890625,-26.85546875,-28.80859375,49.8046875,6.8359375,0.0
239.86328125,-25.87890625,-26.3671875,-14.16015625,58.10546875,32.71484375,0.0
239.8671875,-43.9453125,-29.296875,-31.73828125,47.36328125,36.1328125,0.0
239.87109375,-55.17578125,-42.48046875,-37.109375,21.97265625,33.203125,0.0
239.875,-41.9921875,-41.9921875,-29.296875,11.71875,69.3359375,0.0
239.87890625,-25.87890625,-37.59765625,-34.1796875,3.41796875,133.30078125,0.0
239.8828125,-35.64453125,-42.96875,-30.2734375,-1.46484375,109.86328125,0.0
239.88671875,-44.43359375,-47.8515625,-31.25,12.20703125,86.9140625,0.0
239.890625,-32.2265625,-52.24609375,-35.15625,22.94921875,81.0546875,0.0
239.89453125,-28.3203125,-42.96875,-29.78515625,14.6484375,105.95703125,0.0
239.8984375,-10.25390625,-28.80859375,-24.4140625,2.44140625,95.21484375,0.0
239.90234375,-10.7421875,-23.4375,-20.5078125,8.30078125,60.546875,0.0
239.90625,-34.66796875,-29.78515625,-27.83203125,15.625,16.6015625,0.0
239.91015625,-32.71484375,-37.109375,-32.71484375,12.6953125,-25.87890625,0.0
239.9140625,-22.4609375,-32.71484375,-23.92578125,19.53125,-25.87890625,0.0
239.91796875,-25.390625,-30.76171875,-18.5546875,18.06640625,-72.75390625,0.0
239.921875,-38.0859375,-36.62109375,-23.4375,2.44140625,-44.43359375,0.0
239.92578125,-35.15625,-41.50390625,-32.71484375,-8.7890625,34.1796875,0.0
239.9296875,-30.2734375,-39.0625,-40.0390625,-6.34765625,-19.53125,0.0
239.93359375,-30.2734375,-32.2265625,-39.0625,-11.23046875,-87.890625,0.0
239.9375,-18.5546875,-29.78515625,-39.0625,-10.7421875,-57.6171875,0.0
239.94140625,-13.671875,-36.62109375,-50.78125,3.90625,22.94921875,0.0
239.9453125,-34.1796875,-42.48046875,-58.10546875,10.25390625,-4.39453125,0.0
239.94921875,-41.50390625,-39.0625,-37.59765625,9.27734375,-2.44140625,0.0
239.953125,-32.2265625,-34.1796875,-22.94921875,3.90625,61.03515625,0.0
239.95703125,-37.109375,-40.52734375,-37.109375,-11.23046875,-101.07421875,0.0
239.9609375,-29.296875,-45.41015625,-44.43359375,-9.27734375,-187.01171875,0.0
239.96484375,-20.01953125,-47.8515625,-42.96875,0.48828125,-177.734375,0.0
239.96875,-36.62109375,-46.38671875,-38.57421875,-8.7890625,-244.140625,0.0
239.97265625,-31.73828125,-40.52734375,-32.71484375,6.34765625,-214.35546875,0.0
239.9765625,-35.64453125,-40.0390625,-36.1328125,28.3203125,-184.5703125,0.0
239.98046875,-51.26953125,-36.1328125,-33.203125,25.87890625,-144.53125,0.0
239.984375,-25.87890625,-29.78515625,-27.34375,33.203125,-44.43359375,0.0
239.98828125,-23.92578125,-32.71484375,-21.97265625,40.52734375,12.6953125,0.0
239.9921875,-41.9921875,-37.59765625,-16.11328125,47.8515625,89.84375,0.0
239.99609375,-45.8984375,-31.25,-23.92578125,57.12890625,96.6796875,0.0
240.0,-34.66796875,-24.90234375,-32.2265625,80.078125,23.92578125,0.0
240.00390625,-6.8359375,-34.1796875,-30.76171875,75.68359375,-34.66796875,0.0
240.0078125,-6.34765625,-39.55078125,-35.15625,44.43359375,-19.04296875,0.0
240.01171875,-25.87890625,-30.2734375,-42.96875,27.83203125,-38.57421875,0.0
240.015625,-33.69140625,-23.4375,-38.57421875,47.36328125,-35.15625,0.0
240.01953125,-24.90234375,-23.4375,-37.59765625,59.5703125,6.8359375,0.0
240.0234375,-17.578125,-30.2734375,-30.2734375,31.25,-20.01953125,0.0
240.02734375,-21.484375,-34.1796875,-20.99609375,26.85546875,-15.13671875,0.0
240.03125,-36.62109375,-24.4140625,-21.484375,42.96875,22.4609375,0.0
240.03515625,-31.73828125,-19.53125,-23.4375,38.0859375,87.40234375,0.0
240.0390625,-31.25,-23.92578125,-38.0859375,38.0859375,86.42578125,0.0
240.04296875,-19.53125,-23.92578125,-39.55078125,53.22265625,-2.9296875,0.0
240.046875,-22.94921875,-31.73828125,-38.0859375,42.48046875,-3.90625,0.0
240.05078125,-33.203125,-31.25,-38.0859375,30.76171875,18.06640625,0.0
240.0546875,-21.484375,-28.3203125,-39.55078125,45.41015625,-28.80859375,0.0
240.05859375,-30.2734375,-29.296875,-36.62109375,60.546875,-52.734375,0.0
240.0625,-34.1796875,-26.3671875,-20.99609375,31.73828125,-22.4609375,0.0
240.06640625,-37.59765625,-30.76171875,-25.390625,10.7421875,-69.3359375,0.0
240.0703125,-29.296875,-31.25,-27.83203125,3.90625,-245.60546875,0.0
240.07421875,-0.9765625,-27.34375,-18.5546875,3.90625,-271.484375,0.0
240.078125,-6.34765625,-25.390625,-22.4609375,11.23046875,-183.59375,0.0
240.08203125,-28.3203125,-33.69140625,-33.203125,3.41796875,-92.28515625,0.0
240.0859375,-32.71484375,-40.0390625,-38.57421875,-25.87890625,-14.6484375,0.0
240.08984375,-30.76171875,-30.2734375,-44.43359375,-26.3671875,-8.30078125,0.0
240.09375,-8.30078125,-14.16015625,-35.64453125,6.8359375,-12.6953125,0.0
240.09765625,-16.6015625,-12.6953125,-33.69140625,9.27734375,12.20703125,0.0
240.1015625,-41.9921875,-26.3671875,-36.1328125,-0.48828125,72.265625,0.0
240.10546875,-29.78515625,-32.71484375,-20.99609375,-7.32421875,78.125,0.0
240.109375,-20.99609375,-31.73828125,-14.6484375,-11.71875,-4.39453125,0.0
240.11328125,-18.06640625,-38.57421875,-23.92578125,-17.08984375,-51.7578125,0.0
240.1171875,-11.23046875,-35.15625,-30.76171875,-9.765625,-48.828125,0.0
240.12109375,-11.23046875,-36.62109375,-36.1328125,2.9296875,-74.70703125,0.0
240.125,-21.97265625,-45.8984375,-39.0625,10.7421875,-21.97265625,0.0
240.12890625,-14.16015625,-39.0625,-33.203125,26.3671875,35.15625,0.0
240.1328125,-15.625,-25.87890625,-25.87890625,23.92578125,12.20703125,0.0
240.13671875,-27.83203125,-20.01953125,-24.4140625,8.30078125,12.20703125,0.0
240.140625,-22.94921875,-24.90234375,-35.64453125,-18.06640625,55.6640625,0.0
240.14453125,-23.4375,-26.3671875,-43.9453125,-27.83203125,41.9921875,0.0
240.1484375,-46.38671875,-31.73828125,-30.2734375,-35.64453125,8.7890625,0.0
240.15234375,-51.7578125,-32.71484375,-14.16015625,-60.546875,56.640625,0.0
240.15625,-35.64453125,-31.25,-25.390625,-67.3828125,35.64453125,0.0
240.16015625,-44.43359375,-38.57421875,-38.57421875,-81.54296875,-16.11328125,0.0
240.1640625,-41.9921875,-39.0625,-25.390625,-81.0546875,28.3203125,0.0
240.16796875,-23.92578125,-41.9921875,-20.99609375,-83.0078125,23.4375,0.0
240.171875,-16.11328125,-43.9453125,-32.2265625,-89.35546875,-62.01171875,0.0
240.17578125,-40.52734375,-37.109375,-33.69140625,-63.4765625,-54.6875,0.0
240.1796875,-62.98828125,-36.1328125,-27.83203125,-64.94140625,-14.16015625,0.0
240.18359375,-61.03515625,-35.64453125,-35.15625,-83.49609375,-16.6015625,0.0
240.1875,-62.01171875,-34.66796875,-41.50390625,-93.26171875,-75.1953125,0.0
240.19140625,-42.48046875,-33.69140625,-30.2734375,-103.02734375,-65.91796875,0.0
240.1953125,-35.64453125,-36.1328125,-36.1328125,-110.3515625,27.34375,0.0
240.19921875,-50.29296875,-37.59765625,-37.59765625,-113.28125,66.40625,0.0
240.203125,-29.78515625,-33.203125,-35.15625,-118.1640625,83.0078125,0.0
240.20703125,-11.23046875,-42.48046875,-38.0859375,-135.7421875,38.0859375,0.0
240.2109375,-10.7421875,-46.875,-27.83203125,-136.23046875,-41.50390625,0.0
240.21484375,-20.01953125,-34.66796875,-28.3203125,-105.95703125,3.90625,0.0
240.21875,-20.99609375,-33.69140625,-35.64453125,-108.3984375,40.52734375,0.0
240.22265625,-20.01953125,-29.296875,-33.203125,-127.44140625,-9.27734375,0.0
240.2265625,-39.0625,-25.87890625,-37.109375,-126.953125,-44.43359375,0.0
240.23046875,-40.0390625,-33.69140625,-38.0859375,-117.67578125,-81.54296875,0.0
240.234375,-17.578125,-32.71484375,-31.73828125,-99.12109375,-124.51171875,0.0
240.23828125,-14.16015625,-28.80859375,-30.2734375,-96.6796875,-20.5078125,0.0
240.2421875,-34.66796875,-36.1328125,-31.25,-105.95703125,-37.59765625,0.0
240.24609375,-16.6015625,-36.1328125,-34.1796875,-109.86328125,-79.1015625,0.0
240.25,-4.8828125,-36.1328125,-29.78515625,-117.1875,-13.18359375,0.0
240.25390625,-34.66796875,-35.15625,-24.4140625,-117.1875,46.875,0.0
240.2578125,-34.1796875,-28.3203125,-31.73828125,-132.32421875,-20.99609375,0.0
240.26171875,-34.66796875,-40.52734375,-38.57421875,-145.01953125,-113.28125,0.0
240.265625,-51.7578125,-49.31640625,-31.73828125,-137.6953125,-92.7734375,0.0
240.26953125,-54.19921875,-40.52734375,-19.04296875,-114.74609375,-90.8203125,0.0
240.2734375,-28.3203125,-26.85546875,-18.06640625,-94.7265625,-41.9921875,0.0
240.27734375,-18.5546875,-23.92578125,-21.484375,-89.35546875,-10.25390625,0.0
240.28125,-43.9453125,-31.73828125,-15.625,-93.26171875,-57.12890625,0.0
240.28515625,-41.9921875,-35.64453125,-20.5078125,-86.9140625,-14.6484375,0.0
240.2890625,-32.71484375,-37.109375,-23.4375,-73.73046875,15.625,0.0
240.29296875,-38.0859375,-32.2265625,-18.5546875,-88.37890625,-57.12890625,0.0
240.296875,-32.2265625,-30.2734375,-29.78515625,-108.88671875,-101.5625,0.0
240.30078125,-14.16015625,-26.85546875,-32.71484375,-102.5390625,21.97265625,0.0
240.3046875,-26.3671875,-24.4140625,-21.484375,-82.03125,64.453125,0.0
240.30859375,-29.78515625,-24.4140625,-13.18359375,-74.21875,-38.57421875,0.0
240.3125,2.44140625,-23.92578125,-21.484375,-71.2890625,-19.04296875,0.0
240.31640625,22.94921875,-27.34375,-26.3671875,-59.5703125,-5.859375,0.0
240.3203125,-22.4609375,-26.3671875,-20.99609375,-68.359375,-43.9453125,0.0
240.32421875,-53.22265625,-30.76171875,-19.53125,-84.9609375,-98.14453125,0.0
240.328125,-36.1328125,-37.109375,-19.53125,-74.70703125,-168.9453125,0.0
240.33203125,-23.92578125,-33.203125,-25.390625,-61.5234375,-132.8125,0.0
240.3359375,-18.5546875,-25.390625,-39.0625,-72.75390625,-105.46875,0.0
240.33984375,-24.4140625,-27.83203125,-44.921875,-72.75390625,-83.49609375,0.0
240.34375,-18.06640625,-26.85546875,-33.69140625,-50.78125,-46.38671875,0.0
240.34765625,-17.08984375,-29.78515625,-27.34375,-53.22265625,23.92578125,0.0
240.3515625,-19.04296875,-33.69140625,-32.2265625,-54.19921875,51.26953125,0.0
240.35546875,-14.16015625,-19.53125,-32.2265625,-38.57421875,20.01953125,0.0
240.359375,7.32421875,-14.16015625,-18.06640625,-42.96875,-7.8125,0.0
240.36328125,5.859375,-23.92578125,-20.5078125,-52.24609375,-28.80859375,0.0
240.3671875,-20.01953125,-32.2265625,-36.1328125,-63.4765625,-47.36328125,0.0
240.37109375,-11.23046875,-31.25,-36.62109375,-60.05859375,-109.375,0.0
240.375,-6.34765625,-20.5078125,-23.92578125,-34.1796875,-79.1015625,0.0
240.37890625,-10.7421875,-12.6953125,-20.01953125,-37.109375,-78.125,0.0
240.3828125,-7.32421875,-19.53125,-26.85546875,-40.0390625,-154.296875,0.0
240.38671875,-14.16015625,-30.2734375,-28.3203125,-31.25,-66.89453125,0.0
240.390625,-16.6015625,-29.78515625,-25.390625,-21.484375,36.62109375,0.0
240.39453125,-12.20703125,-25.390625,-24.4140625,10.25390625,11.23046875,0.0
240.3984375,-19.53125,-29.78515625,-25.390625,22.4609375,20.99609375,0.0
240.40234375,-33.69140625,-31.73828125,-31.73828125,-11.71875,43.9453125,0.0
240.40625,-46.38671875,-34.66796875,-30.76171875,-26.85546875,-56.15234375,0.0
240.41015625,-27.34375,-34.1796875,-19.53125,-22.4609375,-123.53515625,0.0
240.4140625,2.9296875,-31.25,-15.13671875,-25.87890625,-107.91015625,0.0
240.41796875,-12.20703125,-32.71484375,-21.97265625,-42.48046875,-50.29296875,0.0
240.421875,-30.76171875,-28.80859375,-34.1796875,-42.96875,-2.9296875,0.0
240.42578125,-28.80859375,-30.2734375,-34.66796875,-40.0390625,27.34375,0.0
240.4296875,-12.6953125,-30.76171875,-25.87890625,-39.0625,0.0,0.0
240.43359375,-11.71875,-20.99609375,-19.04296875,-14.16015625,9.27734375,0.0
240.4375,-14.6484375,-17.578125,-16.11328125,11.23046875,71.77734375,0.0
240.44140625,-22.4609375,-31.25,-22.4609375,-8.7890625,59.5703125,0.0
240.4453125,-32.2265625,-48.828125,-31.25,-40.0390625,20.01953125,0.0
240.44921875,-25.87890625,-43.9453125,-34.66796875,-46.875,-10.25390625,0.0
240.453125,-37.109375,-29.78515625,-23.4375,-39.55078125,-45.8984375,0.0
240.45703125,-38.57421875,-33.203125,-21.97265625,-11.23046875,-63.4765625,0.0
240.4609375,-32.2265625,-33.69140625,-42.96875,-10.25390625,-25.87890625,0.0
240.46484375,-35.64453125,-27.34375,-46.875,-33.203125,-18.06640625,0.0
240.46875,-35.15625,-26.85546875,-28.80859375,-32.2265625,-47.36328125,0.0
240.47265625,-26.85546875,-30.76171875,-18.5546875,-18.06640625,-99.609375,0.0
240.4765625,-31.73828125,-31.25,-20.01953125,-15.13671875,-108.3984375,0.0
240.48046875,-30.76171875,-29.78515625,-22.4609375,2.9296875,-71.2890625,0.0
240.484375,-21.484375,-24.90234375,-24.4140625,29.78515625,-106.4453125,0.0
240.48828125,-40.0390625,-25.390625,-25.87890625,19.04296875,-218.26171875,0.0
240.4921875,-44.921875,-35.64453125,-29.296875,5.37109375,-224.609375,0.0
240.49609375,-28.3203125,-28.3203125,-25.87890625,-1.953125,-185.546875,0.0
240.5,-34.66796875,-23.4375,-42.48046875,-4.39453125,-107.421875,0.0
240.50390625,-38.0859375,-36.62109375,-41.9921875,0.48828125,-114.2578125,0.0
240.5078125,-28.3203125,-39.55078125,-15.625,3.90625,-98.14453125,0.0
240.51171875,-25.87890625,-30.2734375,-10.7421875,-0.48828125,-7.32421875,0.0
240.515625,-18.5546875,-28.3203125,-17.578125,-4.39453125,-24.90234375,0.0
240.51953125,-2.44140625,-33.203125,-22.94921875,-15.625,22.94921875,0.0
240.5234375,-8.30078125,-32.2265625,-34.66796875,-40.52734375,43.9453125,0.0
240.52734375,-5.859375,-30.2734375,-36.1328125,-37.109375,50.78125,0.0
240.53125,-2.9296875,-30.2734375,-32.2265625,-53.7109375,63.4765625,0.0
240.53515625,-9.765625,-30.76171875,-31.25,-70.80078125,41.015625,0.0
240.5390625,-0.9765625,-21.484375,-21.484375,-42.48046875,11.23046875,0.0
240.54296875,-11.71875,-21.97265625,-29.78515625,-39.0625,55.6640625,0.0
240.546875,-34.1796875,-39.0625,-42.48046875,-44.43359375,80.56640625,0.0
240.55078125,-28.3203125,-37.59765625,-37.109375,-35.64453125,30.76171875,0.0
240.5546875,-23.92578125,-27.83203125,-34.1796875,-5.37109375,26.85546875,0.0
240.55859375,-26.85546875,-35.15625,-30.76171875,32.71484375,-16.11328125,0.0
240.5625,-14.6484375,-41.015625,-30.76171875,63.4765625,-69.3359375,0.0
240.56640625,-30.2734375,-51.7578125,-39.55078125,99.609375,-95.21484375,0.0
240.5703125,-21.97265625,-43.45703125,-33.203125,125.0,-3.90625,0.0
240.57421875,-5.859375,-27.34375,-28.3203125,123.046875,10.7421875,0.0
240.578125,-19.04296875,-23.92578125,-39.55078125,113.76953125,-28.80859375,0.0
240.58203125,-26.85546875,-31.25,-50.29296875,110.3515625,9.27734375,0.0
240.5859375,-23.4375,-34.1796875,-41.015625,114.2578125,-46.38671875,0.0
240.58984375,-14.16015625,-29.296875,-26.85546875,94.23828125,-49.8046875,0.0
240.59375,-12.6953125,-38.57421875,-36.62109375,64.94140625,-10.25390625,0.0
240.59765625,-9.765625,-37.59765625,-43.9453125,52.734375,-30.76171875,0.0
240.6015625,-40.52734375,-41.015625,-42.48046875,45.41015625,-50.78125,0.0
240.60546875,-53.22265625,-48.828125,-36.62109375,63.4765625,-19.04296875,0.0
240.609375,-35.15625,-40.0390625,-30.76171875,76.66015625,10.25390625,0.0
240.61328125,-13.671875,-29.78515625,-28.3203125,63.4765625,-19.04296875,0.0
240.6171875,2.9296875,-23.92578125,-27.83203125,47.8515625,0.0,0.0
240.62109375,-17.08984375,-36.62109375,-36.62109375,52.24609375,24.4140625,0.0
240.625,-32.2265625,-40.0390625,-32.71484375,58.10546875,-10.25390625,0.0
240.62890625,-16.6015625,-38.57421875,-26.85546875,45.41015625,-17.578125,0.0
240.6328125,-25.390625,-39.0625,-34.1796875,25.390625,-47.8515625,0.0
240.63671875,-54.19921875,-32.71484375,-35.15625,13.671875,-15.13671875,0.0
240.640625,-53.22265625,-39.0625,-36.62109375,3.90625,2.9296875,0.0
240.64453125,-40.52734375,-45.8984375,-51.7578125,-2.9296875,-8.30078125,0.0
240.6484375,-41.50390625,-43.45703125,-48.33984375,0.48828125,-60.546875,0.0
240.65234375,-31.73828125,-28.3203125,-24.90234375,-3.90625,-37.59765625,0.0
240.65625,-29.296875,-19.53125,-33.69140625,-9.27734375,28.80859375,0.0
240.66015625,-22.4609375,-27.34375,-31.25,-28.80859375,44.43359375,0.0
240.6640625,-24.4140625,-38.57421875,-24.4140625,-40.0390625,-77.63671875,0.0
240.66796875,-49.8046875,-46.875,-39.55078125,-27.83203125,-167.48046875,0.0
240.671875,-33.69140625,-34.1796875,-41.9921875,-15.13671875,-66.89453125,0.0
240.67578125,2.9296875,-17.578125,-39.0625,-18.06640625,42.96875,0.0
240.6796875,-5.37109375,-18.06640625,-30.2734375,0.48828125,73.73046875,0.0
240.68359375,-29.296875,-30.2734375,-23.92578125,26.3671875,23.92578125,0.0
240.6875,-38.57421875,-40.52734375,-30.2734375,7.8125,-128.90625,0.0
240.69140625,-34.66796875,-32.2265625,-36.1328125,2.44140625,-160.64453125,0.0
240.6953125,-28.3203125,-28.3203125,-33.69140625,2.9296875,-91.30859375,0.0
240.69921875,-24.4140625,-35.15625,-28.3203125,-8.30078125,-87.40234375,0.0
240.703125,-12.6953125,-31.25,-29.78515625,0.0,-73.2421875,0.0
240.70703125,-11.23046875,-31.25,-27.83203125,14.6484375,-103.515625,0.0
240.7109375,-27.83203125,-38.0859375,-28.80859375,-5.37109375,-139.6484375,0.0
240.71484375,-46.875,-40.0390625,-38.0859375,3.90625,-97.16796875,0.0
240.71875,-46.38671875,-33.203125,-47.36328125,13.18359375,-115.234375,0.0
240.72265625,-17.578125,-22.94921875,-42.96875,32.2265625,-144.04296875,0.0
240.7265625,-23.4375,-32.71484375,-26.3671875,36.62109375,-89.84375,0.0
240.73046875,-38.0859375,-38.0859375,-23.92578125,20.01953125,-7.8125,0.0
240.734375,-32.71484375,-34.66796875,-30.76171875,33.203125,33.203125,0.0
240.73828125,-33.203125,-41.50390625,-35.15625,37.59765625,10.7421875,0.0
240.7421875,-25.87890625,-43.9453125,-44.43359375,31.73828125,-47.8515625,0.0
240.74609375,-22.94921875,-41.015625,-48.33984375,40.0390625,-52.734375,0.0
240.75,-19.53125,-35.64453125,-34.1796875,65.4296875,-98.6328125,0.0
240.75390625,-12.6953125,-31.73828125,-28.80859375,75.1953125,-46.875,0.0
240.7578125,-1.46484375,-26.85546875,-39.0625,75.68359375,-5.37109375,0.0
240.76171875,1.953125,-27.83203125,-41.50390625,66.89453125,-70.3125,0.0
240.765625,-15.625,-26.85546875,-21.97265625,62.01171875,4.8828125,0.0
240.76953125,-41.9921875,-38.57421875,-14.16015625,46.38671875,65.91796875,0.0
240.7734375,-48.828125,-39.0625,-20.99609375,40.52734375,35.15625,0.0
240.77734375,-35.64453125,-26.3671875,-28.3203125,54.6875,25.390625,0.0
240.78125,-20.5078125,-23.92578125,-38.0859375,41.015625,1.46484375,0.0
240.78515625,-23.92578125,-23.92578125,-33.69140625,35.15625,-39.0625,0.0
240.7890625,-44.921875,-32.71484375,-20.99609375,45.41015625,-26.3671875,0.0
240.79296875,-59.5703125,-38.0859375,-17.578125,38.57421875,24.90234375,0.0
240.796875,-63.4765625,-34.1796875,-31.25,28.3203125,12.20703125,0.0
240.80078125,-45.41015625,-33.203125,-40.52734375,27.83203125,-52.24609375,0.0
240.8046875,-35.15625,-34.1796875,-17.08984375,29.78515625,-95.21484375,0.0
240.80859375,-34.66796875,-31.73828125,-14.16015625,34.1796875,-58.10546875,0.0
240.8125,-31.73828125,-34.1796875,-22.94921875,25.87890625,-7.8125,0.0
240.81640625,-41.015625,-35.15625,-27.34375,23.92578125,27.83203125,0.0
240.8203125,-57.6171875,-30.76171875,-38.57421875,12.6953125,1.953125,0.0
240.82421875,-57.12890625,-31.73828125,-27.83203125,7.32421875,-53.7109375,0.0
240.828125,-47.8515625,-37.109375,-16.6015625,17.578125,-46.38671875,0.0
240.83203125,-33.69140625,-37.109375,-23.4375,14.6484375,-40.52734375,0.0
240.8359375,-12.6953125,-32.71484375,-16.6015625,4.8828125,-75.1953125,0.0
240.83984375,-6.34765625,-32.71484375,-6.34765625,2.44140625,-59.5703125,0.0
240.84375,-19.04296875,-41.50390625,-20.99609375,-14.16015625,-38.0859375,0.0
240.84765625,-52.24609375,-43.45703125,-34.1796875,-30.76171875,-64.453125,0.0
240.8515625,-58.59375,-34.1796875,-27.83203125,-19.04296875,20.5078125,0.0
240.85546875,-11.71875,-26.3671875,-25.87890625,-1.953125,74.21875,0.0
240.859375,6.8359375,-33.69140625,-28.3203125,12.20703125,-21.97265625,0.0
240.86328125,-41.9921875,-47.8515625,-23.92578125,20.5078125,-24.4140625,0.0
240.8671875,-70.3125,-50.78125,-27.34375,7.32421875,37.59765625,0.0
240.87109375,-33.69140625,-38.0859375,-28.3203125,16.11328125,-0.9765625,0.0
240.875,-17.08984375,-26.85546875,-17.578125,44.43359375,-32.2265625,0.0
240.87890625,0.9765625,-20.5078125,-3.90625,63.4765625,-19.53125,0.0
240.8828125,1.46484375,-26.3671875,-4.39453125,87.40234375,5.37109375,0.0
240.88671875,-42.48046875,-38.0859375,-17.08984375,69.3359375,-7.32421875,0.0
240.890625,-53.22265625,-33.203125,-27.34375,32.71484375,-35.15625,0.0
240.89453125,-39.0625,-29.78515625,-33.203125,30.2734375,-46.875,0.0
240.8984375,-22.4609375,-28.80859375,-24.4140625,20.99609375,-65.4296875,0.0
240.90234375,-4.39453125,-23.92578125,-7.8125,39.55078125,-17.08984375,0.0
240.90625,-37.109375,-36.62109375,-8.7890625,38.0859375,16.11328125,0.0
240.91015625,-72.265625,-44.43359375,-25.390625,-4.39453125,-24.4140625,0.0
240.9140625,-43.45703125,-32.71484375,-22.4609375,-18.5546875,-20.99609375,0.0
240.91796875,-25.390625,-28.3203125,-21.97265625,-21.97265625,-54.19921875,0.0
240.921875,-30.2734375,-40.52734375,-20.99609375,-29.296875,-60.05859375,0.0
240.92578125,-17.578125,-41.9921875,-24.4140625,-46.875,-128.90625,0.0
240.9296875,-2.44140625,-32.2265625,-25.390625,-57.6171875,-219.23828125,0.0
240.93359375,-20.5078125,-20.5078125,-8.30078125,-46.875,-115.72265625,0.0
240.9375,-34.1796875,-15.13671875,-10.7421875,-29.78515625,-55.17578125,0.0
240.94140625,-41.015625,-23.92578125,-27.34375,-51.7578125,-20.01953125,0.0
240.9453125,-36.1328125,-22.94921875,-25.87890625,-74.70703125,91.796875,0.0
240.94921875,-7.8125,-18.5546875,-23.92578125,-64.94140625,65.4296875,0.0
240.953125,-1.953125,-18.5546875,-21.484375,-83.49609375,44.921875,0.0
240.95703125,-20.99609375,-18.06640625,-18.5546875,-102.05078125,10.25390625,0.0
240.9609375,-25.87890625,-22.94921875,-14.16015625,-105.46875,-13.18359375,0.0
240.96484375,-25.390625,-32.71484375,-22.4609375,-125.48828125,1.953125,0.0
240.96875,-20.01953125,-41.9921875,-28.80859375,-142.08984375,-115.72265625,0.0
240.97265625,-7.32421875,-31.73828125,-24.90234375,-166.015625,-99.12109375,0.0
240.9765625,5.859375,-17.08984375,-29.296875,-187.5,-27.83203125,0.0
240.98046875,11.23046875,-23.4375,-28.80859375,-186.03515625,-38.0859375,0.0
240.984375,-8.7890625,-24.4140625,-28.80859375,-191.89453125,-55.17578125,0.0
240.98828125,-25.390625,-16.11328125,-27.83203125,-216.796875,-76.66015625,0.0
240.9921875,-18.06640625,-13.18359375,-29.296875,-236.81640625,-95.703125,0.0
240.99609375,-20.99609375,-25.390625,-35.15625,-236.328125,-9.27734375,0.0
241.0,-8.30078125,-37.59765625,-34.1796875,-231.93359375,20.99609375,0.0
241.00390625,-14.16015625,-33.69140625,-32.71484375,-214.84375,37.59765625,1.0
241.0078125,-34.1796875,-30.76171875,-40.52734375,-221.6796875,33.203125,1.0
241.01171875,-23.92578125,-30.2734375,-38.57421875,-226.5625,38.0859375,1.0
241.015625,-17.08984375,-29.296875,-25.87890625,-225.5859375,6.8359375,1.0
241.01953125,-27.34375,-30.2734375,-34.66796875,-228.515625,0.48828125,1.0
241.0234375,-48.828125,-38.57421875,-52.24609375,-237.79296875,38.57421875,1.0
241.02734375,-65.4296875,-42.96875,-52.24609375,-237.3046875,-94.23828125,1.0
241.03125,-49.8046875,-30.76171875,-38.57421875,-207.51953125,-190.4296875,1.0
241.03515625,-11.71875,-21.97265625,-28.80859375,-178.7109375,-158.203125,1.0
241.0390625,-6.34765625,-32.2265625,-40.0390625,-164.55078125,-176.26953125,1.0
241.04296875,-26.85546875,-32.2265625,-34.1796875,-166.9921875,-179.6875,1.0
241.046875,-38.0859375,-26.3671875,-17.08984375,-161.1328125,-40.0390625,1.0
241.05078125,-28.80859375,-30.2734375,-27.34375,-139.16015625,-51.7578125,1.0
241.0546875,-12.6953125,-28.80859375,-39.55078125,-127.44140625,-105.46875,1.0
241.05859375,-7.32421875,-28.80859375,-35.64453125,-134.27734375,14.6484375,1.0
241.0625,-11.23046875,-32.2265625,-34.1796875,-143.5546875,141.11328125,1.0
241.06640625,-31.73828125,-39.55078125,-45.8984375,-159.1796875,110.83984375,1.0
241.0703125,-40.52734375,-37.109375,-49.31640625,-163.57421875,42.96875,1.0
241.07421875,-14.16015625,-22.94921875,-39.55078125,-142.578125,76.171875,1.0
241.078125,-8.30078125,-26.85546875,-41.9921875,-143.5546875,60.546875,1.0
241.08203125,-28.80859375,-32.2265625,-42.96875,-148.4375,18.06640625,1.0
241.0859375,-25.390625,-32.2265625,-32.2265625,-151.85546875,-83.49609375,1.0
241.08984375,-15.13671875,-31.73828125,-19.53125,-147.94921875,-55.6640625,1.0
241.09375,-34.66796875,-33.203125,-29.296875,-164.0625,-14.16015625,1.0
241.09765625,-27.83203125,-31.73828125,-41.015625,-181.15234375,-18.06640625,1.0
241.1015625,8.7890625,-27.83203125,-46.875,-162.109375,-11.23046875,1.0
241.10546875,-12.6953125,-30.76171875,-51.7578125,-154.296875,-69.82421875,1.0
241.109375,-33.203125,-35.15625,-42.48046875,-158.203125,-121.09375,1.0
241.11328125,-35.64453125,-35.15625,-37.109375,-166.9921875,-67.3828125,1.0
241.1171875,-39.55078125,-32.71484375,-29.296875,-152.83203125,-3.41796875,1.0
241.12109375,-42.48046875,-35.64453125,-23.4375,-165.52734375,9.765625,1.0
241.125,-36.1328125,-31.25,-29.78515625,-223.6328125,5.859375,1.0
241.12890625,-27.34375,-34.66796875,-35.15625,-243.65234375,60.546875,1.0
241.1328125,-24.4140625,-36.1328125,-37.109375,-229.00390625,119.140625,1.0
241.13671875,-21.484375,-27.83203125,-37.109375,-228.02734375,50.78125,1.0
241.140625,-23.92578125,-28.3203125,-45.8984375,-236.81640625,-2.44140625,1.0
241.14453125,-26.85546875,-32.2265625,-49.31640625,-250.0,33.69140625,1.0
241.1484375,-22.4609375,-29.78515625,-41.015625,-257.32421875,11.23046875,1.0
241.15234375,-10.25390625,-28.3203125,-25.390625,-250.9765625,-47.8515625,1.0
241.15625,-4.8828125,-26.3671875,-18.5546875,-248.046875,-23.4375,1.0
241.16015625,-22.4609375,-34.66796875,-23.4375,-252.9296875,-22.94921875,1.0
241.1640625,-39.0625,-49.31640625,-37.109375,-271.97265625,-81.0546875,1.0
241.16796875,-25.87890625,-41.50390625,-38.0859375,-264.16015625,-85.44921875,1.0
241.171875,-21.484375,-25.390625,-28.80859375,-223.6328125,-79.1015625,1.0
241.17578125,-37.109375,-26.85546875,-41.015625,-211.42578125,-53.22265625,1.0
241.1796875,-28.3203125,-22.94921875,-44.43359375,-204.1015625,-59.5703125,1.0
241.18359375,-18.06640625,-25.390625,-36.62109375,-184.08203125,-40.52734375,1.0
241.1875,-29.78515625,-35.64453125,-22.4609375,-188.4765625,-62.5,1.0
241.19140625,-30.76171875,-35.15625,-15.625,-196.77734375,-103.02734375,1.0
241.1953125,-30.76171875,-26.3671875,-23.92578125,-173.828125,-97.65625,1.0
241.19921875,-30.76171875,-28.80859375,-21.97265625,-155.2734375,-107.91015625,1.0
241.203125,-37.109375,-38.0859375,-16.11328125,-151.3671875,-80.56640625,1.0
241.20703125,-41.015625,-37.59765625,-23.4375,-146.97265625,-88.37890625,1.0
241.2109375,-27.34375,-26.3671875,-29.296875,-140.625,-135.25390625,1.0
241.21484375,-6.8359375,-20.01953125,-27.83203125,-148.4375,-77.63671875,1.0
241.21875,-2.44140625,-20.99609375,-25.87890625,-153.3203125,34.1796875,1.0
