timestamp,TP9,AF7,AF8,TP10,AUX,Marker,
68.00390625,-68.359375,-49.8046875,-53.7109375,-41.9921875,-16.6015625,0.0
68.0078125,-90.8203125,-42.96875,-70.3125,-46.875,-23.4375,0.0
68.01171875,-22.4609375,-40.52734375,-79.58984375,-28.3203125,-38.57421875,0.0
68.015625,27.83203125,-11.23046875,-63.4765625,-26.85546875,-34.1796875,0.0
68.01953125,4.8828125,1.953125,-39.55078125,-31.73828125,-6.8359375,0.0
68.0234375,-60.546875,-8.7890625,-23.92578125,-26.3671875,-73.2421875,0.0
68.02734375,-85.9375,-22.94921875,-32.2265625,-41.015625,-64.453125,0.0
68.03125,-50.29296875,-40.0390625,-27.34375,-52.24609375,35.64453125,0.0
68.03515625,-6.34765625,-33.69140625,-0.9765625,-35.64453125,17.578125,0.0
68.0390625,-26.85546875,-45.41015625,-13.671875,-42.48046875,-36.1328125,0.0
68.04296875,-80.078125,-55.17578125,-20.01953125,-52.734375,-41.50390625,0.0
68.046875,-94.23828125,-50.78125,-22.94921875,-55.6640625,-85.44921875,0.0
68.05078125,-59.08203125,-59.5703125,-26.3671875,-49.31640625,-153.80859375,0.0
68.0546875,-7.32421875,-32.2265625,-21.97265625,-38.0859375,-131.34765625,0.0
68.05859375,-6.8359375,-9.765625,-56.15234375,-30.2734375,-131.8359375,0.0
68.0625,-46.38671875,-20.5078125,-57.6171875,-19.04296875,-219.23828125,0.0
68.06640625,-51.26953125,-20.01953125,-16.6015625,-38.57421875,-226.07421875,0.0
68.0703125,-5.859375,-19.04296875,8.7890625,-42.48046875,-122.55859375,0.0
68.07421875,47.8515625,-25.390625,6.8359375,-34.1796875,19.53125,0.0
68.078125,56.15234375,-22.94921875,-20.5078125,-43.9453125,45.8984375,0.0
68.08203125,11.23046875,-18.5546875,-52.24609375,-43.45703125,-20.01953125,0.0
68.0859375,-32.71484375,-38.57421875,-43.45703125,-51.7578125,22.4609375,0.0
68.08984375,-24.4140625,-55.6640625,-32.2265625,-50.78125,-8.30078125,0.0
68.09375,21.97265625,-40.52734375,-12.6953125,-39.0625,-30.76171875,0.0
68.09765625,53.22265625,-18.5546875,-8.30078125,-25.87890625,65.91796875,0.0
68.1015625,10.25390625,-8.7890625,-53.7109375,-27.83203125,27.34375,0.0
68.10546875,-44.43359375,-18.5546875,-68.84765625,-49.8046875,-75.68359375,0.0
68.109375,-32.2265625,-28.3203125,-37.59765625,-59.08203125,-71.2890625,0.0
68.11328125,15.13671875,-29.296875,2.44140625,-51.7578125,-2.44140625,0.0
68.1171875,52.24609375,-23.92578125,10.25390625,-27.83203125,28.3203125,0.0
68.12109375,-2.9296875,-27.83203125,-33.69140625,-27.83203125,27.34375,0.0
68.125,-64.94140625,-49.8046875,-62.5,-46.38671875,-29.296875,0.0
68.12890625,-56.15234375,-57.12890625,-55.17578125,-39.0625,-44.43359375,0.0
68.1328125,-1.46484375,-40.0390625,-32.2265625,-23.92578125,-63.4765625,0.0
68.13671875,36.1328125,-35.64453125,-15.625,-9.765625,-73.2421875,0.0
68.140625,5.859375,-24.90234375,-28.80859375,-18.06640625,-41.015625,0.0
68.14453125,-20.5078125,-10.25390625,-31.25,-29.78515625,-35.64453125,0.0
68.1484375,-10.7421875,-16.11328125,-10.7421875,-27.34375,-59.5703125,0.0
68.15234375,40.52734375,-31.73828125,-13.18359375,-32.2265625,-23.92578125,0.0
68.15625,61.03515625,-31.73828125,-20.5078125,-29.296875,-20.99609375,0.0
68.16015625,14.6484375,-25.87890625,-30.2734375,-31.25,-107.421875,0.0
68.1640625,-45.8984375,-45.8984375,-48.33984375,-43.9453125,-54.6875,0.0
68.16796875,-64.453125,-53.7109375,-61.5234375,-62.98828125,16.6015625,0.0
68.171875,-17.578125,-46.38671875,-78.125,-61.03515625,-9.765625,0.0
68.17578125,45.8984375,-26.3671875,-63.4765625,-38.57421875,-34.1796875,0.0
68.1796875,52.734375,-6.8359375,-43.9453125,-25.87890625,-55.6640625,0.0
68.18359375,-9.765625,-25.390625,-38.57421875,-31.73828125,13.18359375,0.0
68.1875,-35.64453125,-56.15234375,-42.96875,-37.109375,40.0390625,0.0
68.19140625,20.99609375,-41.015625,-17.08984375,-29.296875,-51.26953125,0.0
68.1953125,66.89453125,-20.01953125,-3.90625,-22.94921875,-120.60546875,0.0
68.19921875,42.96875,-24.90234375,-33.203125,-35.15625,-71.77734375,0.0
68.203125,-32.2265625,-38.0859375,-38.0859375,-37.59765625,-23.4375,0.0
68.20703125,-63.4765625,-46.875,-33.69140625,-35.64453125,-29.296875,0.0
68.2109375,-20.5078125,-43.9453125,-36.1328125,-40.52734375,-10.7421875,0.0
68.21484375,40.52734375,-30.2734375,-42.96875,-29.296875,46.875,0.0
68.21875,49.8046875,-16.11328125,-52.734375,-11.71875,65.91796875,0.0
68.22265625,-20.99609375,-36.62109375,-58.59375,-26.85546875,-7.32421875,0.0
68.2265625,-52.24609375,-47.8515625,-36.62109375,-44.43359375,-96.6796875,0.0
68.23046875,-22.94921875,-41.9921875,-22.4609375,-48.828125,-94.23828125,0.0
68.234375,38.57421875,-26.85546875,-24.90234375,-49.8046875,-46.38671875,0.0
68.23828125,63.4765625,-9.765625,-18.06640625,-34.1796875,-43.45703125,0.0
68.2421875,8.7890625,-19.53125,-24.90234375,-36.62109375,-45.8984375,0.0
68.24609375,-36.62109375,-34.66796875,-24.4140625,-41.50390625,-41.50390625,0.0
68.25,-3.41796875,-33.69140625,-16.11328125,-35.64453125,-64.453125,0.0
68.25390625,55.6640625,-24.4140625,-18.5546875,-26.3671875,-28.3203125,0.0
68.2578125,54.19921875,-25.87890625,-36.1328125,-24.90234375,42.96875,0.0
68.26171875,7.32421875,-36.1328125,-43.9453125,-36.1328125,52.734375,0.0
68.265625,-39.0625,-39.55078125,-66.89453125,-40.52734375,-22.4609375,0.0
68.26953125,-21.97265625,-43.45703125,-87.890625,-39.55078125,-32.71484375,0.0
68.2734375,41.9921875,-35.64453125,-34.66796875,-21.97265625,78.61328125,0.0
68.27734375,66.40625,-32.2265625,0.48828125,-7.8125,49.31640625,0.0
68.28125,16.11328125,-39.55078125,-0.9765625,-33.69140625,-90.33203125,0.0
68.28515625,-36.62109375,-32.71484375,-8.7890625,-39.55078125,-71.77734375,0.0
68.2890625,-26.85546875,-37.59765625,-45.41015625,-42.48046875,-31.25,0.0
68.29296875,10.7421875,-33.69140625,-59.5703125,-43.9453125,-61.03515625,0.0
68.296875,14.6484375,-31.25,-51.7578125,-32.2265625,-59.08203125,0.0
68.30078125,-40.0390625,-54.19921875,-65.91796875,-43.45703125,-31.73828125,0.0
68.3046875,-92.28515625,-48.33984375,-60.546875,-55.6640625,0.48828125,0.0
68.30859375,-78.125,-43.45703125,-73.2421875,-62.01171875,-1.953125,0.0
68.3125,-16.6015625,-45.41015625,-83.0078125,-52.24609375,-23.92578125,0.0
68.31640625,9.27734375,-38.57421875,-33.69140625,-32.71484375,-17.08984375,0.0
68.3203125,-23.92578125,-21.97265625,-7.8125,-41.9921875,-10.7421875,0.0
68.32421875,-87.890625,-3.90625,-27.34375,-60.546875,-20.01953125,0.0
68.328125,-106.93359375,-36.1328125,-55.6640625,-68.84765625,-13.18359375,0.0
68.33203125,-59.08203125,-47.8515625,-40.0390625,-66.40625,-55.17578125,0.0
68.3359375,-15.13671875,-28.80859375,-4.39453125,-39.0625,-88.37890625,0.0
68.33984375,-36.62109375,-20.99609375,-27.83203125,-40.0390625,-43.45703125,0.0
68.34375,-97.16796875,-38.57421875,-73.2421875,-63.4765625,8.7890625,0.0
68.34765625,-102.5390625,-40.52734375,-62.5,-64.453125,74.70703125,0.0
68.3515625,-52.734375,-21.484375,-35.15625,-43.9453125,-29.78515625,0.0
68.35546875,-2.9296875,-12.20703125,-27.34375,-30.2734375,-118.65234375,0.0
68.359375,-7.8125,-23.92578125,-48.828125,-48.33984375,-49.31640625,0.0
68.36328125,-56.640625,-26.85546875,-69.82421875,-46.875,-93.26171875,0.0
68.3671875,-93.75,-15.625,-48.828125,-49.8046875,-121.58203125,0.0
68.37109375,-58.10546875,-36.62109375,-36.62109375,-50.78125,-123.046875,0.0
68.375,4.39453125,-47.36328125,-53.7109375,-36.1328125,-132.8125,0.0
68.37890625,-22.94921875,-24.4140625,-56.15234375,-36.1328125,-109.86328125,0.0
68.3828125,-75.68359375,-29.78515625,-67.87109375,-43.45703125,-116.69921875,0.0
68.38671875,-92.7734375,-47.36328125,-75.68359375,-46.38671875,-54.6875,0.0
68.390625,-56.15234375,-47.36328125,-36.1328125,-38.0859375,-11.23046875,0.0
68.39453125,4.39453125,-33.203125,2.44140625,-26.3671875,0.9765625,0.0
68.3984375,3.90625,-17.578125,-22.94921875,-9.27734375,5.859375,0.0
68.40234375,-48.33984375,-21.484375,-32.2265625,-20.5078125,35.15625,0.0
68.40625,-75.1953125,-29.296875,-28.3203125,-31.25,75.68359375,0.0
68.41015625,-17.08984375,-30.76171875,-23.4375,-27.83203125,26.3671875,0.0
68.4140625,42.96875,-18.06640625,-3.41796875,-7.8125,-5.859375,0.0
68.41796875,54.6875,-5.37109375,-28.80859375,0.0,-43.45703125,0.0
68.421875,31.25,-31.25,-52.734375,-15.13671875,-102.05078125,0.0
68.42578125,-18.5546875,-61.03515625,-56.640625,-33.69140625,-28.80859375,0.0
68.4296875,0.0,-39.55078125,-59.08203125,-23.92578125,-3.90625,0.0
68.43359375,62.5,-20.01953125,-41.9921875,-7.8125,-34.66796875,0.0
68.4375,67.3828125,-23.4375,-24.4140625,-4.8828125,-5.37109375,0.0
68.44140625,29.296875,-33.203125,-36.62109375,-0.9765625,83.49609375,0.0
68.4453125,2.44140625,-45.41015625,-20.99609375,-6.8359375,71.2890625,0.0
68.44921875,-5.859375,-38.0859375,-18.06640625,-3.90625,-43.9453125,0.0
68.453125,27.83203125,-9.765625,-37.109375,14.16015625,32.71484375,0.0
68.45703125,83.984375,4.8828125,-4.8828125,20.01953125,154.296875,0.0
68.4609375,46.38671875,-17.08984375,2.44140625,-0.48828125,87.890625,0.0
68.46484375,-12.20703125,-37.109375,-12.20703125,-14.6484375,3.41796875,0.0
68.46875,-19.04296875,-47.8515625,-24.90234375,-16.11328125,13.671875,0.0
68.47265625,35.64453125,-45.8984375,-26.3671875,2.9296875,6.34765625,0.0
68.4765625,78.61328125,-44.921875,-23.4375,21.484375,-32.2265625,0.0
68.48046875,43.9453125,-47.36328125,-24.90234375,23.4375,-80.56640625,0.0
68.484375,-28.3203125,-50.29296875,-48.828125,6.8359375,-108.88671875,0.0
68.48828125,-33.203125,-43.45703125,-54.6875,-4.8828125,-120.1171875,0.0
68.4921875,35.64453125,-38.0859375,-38.57421875,6.8359375,-40.0390625,0.0
68.49609375,75.1953125,-36.1328125,-24.4140625,14.16015625,-1.953125,0.0
68.5,33.203125,-41.9921875,-12.20703125,19.53125,0.9765625,0.0
68.50390625,-25.87890625,-34.1796875,-24.4140625,4.39453125,107.91015625,0.0
68.5078125,-37.109375,-14.6484375,-17.578125,-15.625,108.88671875,0.0
68.51171875,0.48828125,-42.48046875,-28.3203125,-8.30078125,19.04296875,0.0
68.515625,45.41015625,-54.6875,-55.17578125,-3.90625,-57.12890625,0.0
68.51953125,31.73828125,-20.99609375,-29.296875,4.39453125,-53.22265625,0.0
68.5234375,-36.1328125,-20.5078125,-16.11328125,-16.6015625,14.16015625,0.0
68.52734375,-54.6875,-31.73828125,-30.76171875,-32.71484375,-18.06640625,0.0
68.53125,-20.99609375,-33.69140625,-26.3671875,-19.04296875,-45.41015625,0.0
68.53515625,8.30078125,-37.59765625,-55.17578125,2.9296875,-11.23046875,0.0
68.5390625,4.8828125,-29.296875,-86.9140625,1.46484375,1.46484375,0.0
68.54296875,-49.31640625,-32.71484375,-33.203125,-26.3671875,-12.6953125,0.0
68.546875,-86.9140625,-46.38671875,-3.90625,-34.66796875,0.9765625,0.0
68.55078125,-68.359375,-58.59375,-21.484375,-35.15625,50.29296875,0.0
68.5546875,-24.4140625,-49.8046875,-5.37109375,-32.2265625,8.30078125,0.0
68.55859375,-23.4375,-38.0859375,-11.71875,-25.390625,-11.23046875,0.0
68.5625,-78.125,-40.0390625,-37.109375,-35.15625,4.39453125,0.0
68.56640625,-106.4453125,-49.8046875,-55.6640625,-34.1796875,-39.0625,0.0
68.5703125,-63.4765625,-65.91796875,-57.6171875,-20.99609375,-85.9375,0.0
68.57421875,7.32421875,-41.50390625,-32.2265625,-13.18359375,-144.53125,0.0
68.578125,7.32421875,-21.97265625,-30.76171875,-6.34765625,-176.7578125,0.0
68.58203125,-44.43359375,-51.7578125,-62.98828125,-12.6953125,-92.7734375,0.0
68.5859375,-84.9609375,-50.29296875,-64.94140625,-44.921875,-41.015625,0.0
68.58984375,-79.1015625,-40.52734375,-9.27734375,-60.05859375,-96.6796875,0.0
68.59375,-9.27734375,-37.59765625,3.41796875,-35.64453125,-62.01171875,0.0
68.59765625,20.5078125,-26.3671875,-29.296875,-29.296875,-17.08984375,0.0
68.6015625,-30.76171875,-36.1328125,-51.7578125,-39.0625,-13.671875,0.0
68.60546875,-81.0546875,-54.6875,-71.2890625,-39.55078125,27.83203125,0.0
68.609375,-29.296875,-44.43359375,-63.96484375,-23.4375,56.15234375,0.0
68.61328125,40.0390625,-29.78515625,-34.66796875,-13.671875,35.15625,0.0
68.6171875,31.25,-43.9453125,-35.64453125,-24.90234375,23.92578125,0.0
68.62109375,-17.578125,-35.64453125,-36.1328125,-35.64453125,99.609375,0.0
68.625,-63.4765625,-28.3203125,-24.90234375,-39.55078125,80.078125,0.0
68.62890625,-56.640625,-38.57421875,-46.38671875,-45.8984375,13.18359375,0.0
68.6328125,-19.53125,-31.73828125,-60.546875,-39.55078125,-71.77734375,0.0
68.63671875,6.34765625,-23.4375,-21.484375,-24.4140625,-126.46484375,0.0
68.640625,-7.8125,-36.62109375,-3.41796875,-28.3203125,-122.55859375,0.0
68.64453125,-60.05859375,-54.19921875,-27.34375,-36.1328125,-95.21484375,0.0
68.6484375,-57.12890625,-49.8046875,-29.296875,-51.7578125,-82.51953125,0.0
68.65234375,32.71484375,-38.0859375,-51.26953125,-42.96875,-161.1328125,0.0
68.65625,50.78125,-40.52734375,-53.7109375,-30.2734375,-233.3984375,0.0
68.66015625,-14.6484375,-33.203125,2.9296875,-34.66796875,-282.2265625,0.0
68.6640625,-48.828125,-23.4375,5.859375,-33.69140625,-193.359375,0.0
68.66796875,-43.45703125,-39.0625,-25.87890625,-38.0859375,-150.390625,0.0
68.671875,1.953125,-41.9921875,-49.31640625,-36.62109375,-199.21875,0.0
68.67578125,36.62109375,-20.5078125,-28.3203125,-33.69140625,-136.71875,0.0
68.6796875,13.671875,-36.62109375,-34.66796875,-37.109375,-164.0625,0.0
68.68359375,-45.41015625,-43.45703125,-75.1953125,-36.62109375,-173.828125,0.0
68.6875,-78.61328125,-41.9921875,-54.19921875,-47.8515625,-86.9140625,0.0
68.69140625,-33.69140625,-40.0390625,-6.34765625,-38.0859375,-70.80078125,0.0
68.6953125,17.08984375,-29.296875,3.90625,-23.92578125,-33.69140625,0.0
68.69921875,1.46484375,-17.578125,-4.8828125,-20.01953125,19.53125,0.0
68.703125,-53.7109375,-20.01953125,-6.34765625,-26.85546875,50.29296875,0.0
68.70703125,-83.0078125,-43.45703125,-16.6015625,-38.57421875,91.796875,0.0
68.7109375,-47.36328125,-56.640625,-11.71875,-36.1328125,119.62890625,0.0
68.71484375,11.23046875,-37.109375,-24.90234375,-20.99609375,114.74609375,0.0
68.71875,0.48828125,-28.3203125,-64.94140625,-24.90234375,34.1796875,0.0
68.72265625,-56.15234375,-34.1796875,-54.19921875,-34.1796875,-29.296875,0.0
68.7265625,-60.546875,-41.9921875,-19.04296875,-40.0390625,-74.70703125,0.0
68.73046875,-25.87890625,-39.0625,-18.06640625,-35.15625,-72.265625,0.0
68.734375,12.20703125,-27.34375,-29.78515625,-21.97265625,-90.33203125,0.0
68.73828125,25.390625,-25.390625,-21.97265625,-11.71875,-122.0703125,0.0
68.7421875,-14.6484375,-14.16015625,-46.875,-14.6484375,-47.36328125,0.0
68.74609375,-47.8515625,-20.01953125,-31.73828125,-20.01953125,-48.828125,0.0
68.75,-12.6953125,-44.921875,-14.6484375,-10.25390625,-124.0234375,0.0
68.75390625,45.8984375,-47.36328125,-9.27734375,-13.671875,-62.5,0.0
68.7578125,42.96875,-37.59765625,13.18359375,-12.20703125,-55.17578125,0.0
68.76171875,-26.85546875,-26.3671875,-10.25390625,-14.6484375,-95.21484375,0.0
68.765625,-83.0078125,-29.296875,-39.0625,-41.015625,-25.87890625,0.0
68.76953125,-41.015625,-34.66796875,-39.0625,-36.1328125,-8.7890625,0.0
68.7734375,23.92578125,-27.83203125,-4.39453125,-12.20703125,-0.48828125,0.0
68.77734375,41.015625,-29.78515625,11.71875,-4.8828125,52.734375,0.0
68.78125,8.7890625,-34.66796875,3.90625,-10.7421875,54.19921875,0.0
68.78515625,-45.8984375,-36.62109375,-19.53125,-29.296875,48.828125,0.0
68.7890625,-38.57421875,-36.62109375,-34.66796875,-21.484375,44.921875,0.0
68.79296875,9.27734375,-26.85546875,-24.90234375,-1.46484375,10.7421875,0.0
68.796875,15.13671875,-32.2265625,-6.8359375,-8.7890625,21.484375,0.0
68.80078125,-20.5078125,-37.59765625,-33.203125,-23.92578125,74.70703125,0.0
68.8046875,-42.48046875,-28.80859375,-55.17578125,-31.73828125,0.0,0.0
68.80859375,-41.50390625,-28.3203125,-22.4609375,-32.2265625,-79.1015625,0.0
68.8125,5.859375,-25.87890625,-30.2734375,-21.97265625,-52.24609375,0.0
68.81640625,62.98828125,-18.5546875,-27.34375,-11.71875,-26.85546875,0.0
68.8203125,32.71484375,-31.73828125,-2.44140625,-21.484375,-26.85546875,0.0
68.82421875,-13.671875,-35.15625,-31.73828125,-24.4140625,-56.640625,0.0
68.828125,-14.6484375,-31.25,-52.734375,-26.85546875,-71.2890625,0.0
68.83203125,33.69140625,-33.203125,-16.11328125,-22.94921875,-44.43359375,0.0
68.8359375,61.5234375,-28.80859375,-26.85546875,-18.5546875,-96.6796875,0.0
68.83984375,31.73828125,-28.3203125,-38.57421875,-24.90234375,-127.44140625,0.0
68.84375,-35.64453125,-47.8515625,-27.34375,-37.59765625,-86.9140625,0.0
68.84765625,-53.22265625,-59.08203125,-24.4140625,-40.0390625,-69.3359375,0.0
68.8515625,1.953125,-44.43359375,-16.11328125,-25.87890625,-20.99609375,0.0
68.85546875,51.26953125,-21.97265625,-32.2265625,-6.34765625,-8.30078125,0.0
68.859375,36.1328125,-8.7890625,-59.5703125,0.0,83.49609375,0.0
68.86328125,-23.4375,-18.06640625,-41.015625,-15.13671875,150.390625,0.0
68.8671875,-41.9921875,-39.0625,3.90625,-21.97265625,30.2734375,0.0
68.87109375,-7.32421875,-48.33984375,-5.859375,-24.90234375,-54.6875,0.0
68.875,41.015625,-39.55078125,-44.43359375,-20.99609375,-48.828125,0.0
68.87890625,29.78515625,-31.73828125,-46.875,-21.484375,-3.90625,0.0
68.8828125,-25.87890625,-28.80859375,-34.66796875,-26.3671875,9.27734375,0.0
68.88671875,-52.24609375,-38.0859375,-43.45703125,-26.3671875,-38.57421875,0.0
68.890625,-25.87890625,-41.9921875,-62.5,-21.97265625,-24.90234375,0.0
68.89453125,17.08984375,-22.94921875,-54.19921875,-15.625,-9.765625,0.0
68.8984375,15.13671875,-17.578125,-24.4140625,-20.5078125,-39.0625,0.0
68.90234375,-43.45703125,-30.76171875,-35.64453125,-33.203125,26.3671875,0.0
68.90625,-81.0546875,-32.2265625,-33.69140625,-41.50390625,25.390625,0.0
68.91015625,-58.59375,-24.90234375,-2.44140625,-41.015625,-49.31640625,0.0
68.9140625,-7.8125,-19.53125,7.8125,-26.3671875,-5.37109375,0.0
68.91796875,4.39453125,-24.4140625,-8.7890625,-20.5078125,3.90625,0.0
68.921875,-52.734375,-24.90234375,-31.25,-27.34375,-26.3671875,0.0
68.92578125,-94.7265625,-23.92578125,-37.109375,-32.71484375,-11.71875,0.0
68.9296875,-64.453125,-39.0625,-31.25,-36.1328125,-70.3125,0.0
68.93359375,-6.8359375,-26.3671875,-26.3671875,-21.484375,-18.5546875,0.0
68.9375,21.484375,-14.6484375,-50.78125,-0.48828125,56.640625,0.0
68.94140625,-24.90234375,-30.2734375,-78.125,-18.06640625,18.06640625,0.0
68.9453125,-75.1953125,-34.1796875,-55.6640625,-44.921875,38.57421875,0.0
68.94921875,-51.7578125,-33.203125,-17.08984375,-37.109375,-14.16015625,0.0
68.953125,12.6953125,-29.296875,-31.25,-22.94921875,-96.6796875,0.0
68.95703125,56.15234375,-13.671875,-34.66796875,-16.11328125,-66.40625,0.0
68.9609375,24.4140625,-21.97265625,-7.32421875,-15.13671875,-82.03125,0.0
68.96484375,-41.9921875,-46.875,-16.6015625,-40.52734375,-103.515625,0.0
68.96875,-25.390625,-40.52734375,-14.16015625,-57.12890625,-42.48046875,0.0
68.97265625,57.12890625,-7.8125,7.8125,-32.71484375,13.671875,0.0
68.9765625,81.0546875,-6.8359375,-12.6953125,-24.90234375,11.71875,0.0
68.98046875,21.97265625,-39.0625,-52.24609375,-31.25,2.9296875,0.0
68.984375,-32.2265625,-42.48046875,-88.37890625,-31.25,9.27734375,0.0
68.98828125,-31.25,-28.3203125,-68.359375,-31.25,-19.53125,0.0
68.9921875,-0.48828125,-27.34375,-15.13671875,-27.34375,-6.8359375,0.0
68.99609375,22.4609375,-26.85546875,10.25390625,-25.87890625,18.5546875,0.0
69.0,-17.578125,-32.71484375,3.41796875,-32.2265625,10.7421875,0.0
69.00390625,-85.44921875,-41.50390625,-39.0625,-41.015625,49.31640625,0.0
69.0078125,-74.21875,-33.69140625,-22.94921875,-30.76171875,31.25,0.0
69.01171875,-21.97265625,-33.203125,6.34765625,-18.06640625,23.92578125,0.0
69.015625,11.71875,-32.2265625,-55.6640625,-17.578125,4.8828125,0.0
69.01953125,-5.37109375,-20.5078125,-53.22265625,-17.08984375,-36.62109375,0.0
69.0234375,-80.56640625,-28.3203125,-27.34375,-42.48046875,-21.97265625,0.0
69.02734375,-97.16796875,-36.62109375,-32.71484375,-56.15234375,-56.640625,0.0
69.03125,-50.78125,-41.015625,-9.27734375,-48.33984375,-3.41796875,0.0
69.03515625,0.0,-41.015625,-18.5546875,-37.59765625,51.7578125,0.0
69.0390625,3.41796875,-43.45703125,-45.41015625,-26.85546875,13.671875,0.0
69.04296875,-49.31640625,-44.921875,-44.43359375,-31.73828125,8.30078125,0.0
69.046875,-67.87109375,-35.15625,-39.55078125,-32.2265625,-61.03515625,0.0
69.05078125,-19.53125,-26.85546875,-35.64453125,-34.1796875,-142.08984375,0.0
69.0546875,9.765625,-18.5546875,-42.48046875,-33.203125,-53.7109375,0.0
69.05859375,-5.37109375,-20.01953125,-28.3203125,-23.92578125,82.51953125,0.0
69.0625,-50.29296875,-24.90234375,-20.99609375,-25.390625,29.296875,0.0
69.06640625,-62.5,-30.2734375,-40.0390625,-33.69140625,-98.6328125,0.0
69.0703125,-26.3671875,-24.4140625,-35.15625,-34.66796875,-104.98046875,0.0
69.07421875,0.9765625,-17.08984375,-20.99609375,-21.484375,-13.18359375,0.0
69.078125,0.48828125,-34.1796875,-22.4609375,-17.578125,30.76171875,0.0
69.08203125,-46.875,-53.22265625,-43.45703125,-27.34375,-19.04296875,0.0
69.0859375,-84.47265625,-35.15625,-34.1796875,-38.0859375,-69.82421875,0.0
69.08984375,-67.3828125,-40.0390625,-24.90234375,-46.38671875,-108.3984375,0.0
69.09375,-16.6015625,-53.22265625,-79.58984375,-31.25,-165.0390625,0.0
69.09765625,-0.9765625,-29.78515625,-113.76953125,-15.625,-121.58203125,0.0
69.1015625,-43.9453125,-24.4140625,-52.734375,-21.484375,-180.6640625,0.0
69.10546875,-74.21875,-38.57421875,-2.44140625,-29.78515625,-223.14453125,0.0
69.109375,-37.59765625,-35.64453125,-20.5078125,-25.87890625,-149.4140625,0.0
69.11328125,18.5546875,-37.59765625,-14.16015625,-24.90234375,-162.109375,0.0
69.1171875,21.484375,-20.01953125,4.39453125,-32.2265625,-114.2578125,0.0
69.12109375,-34.66796875,-2.44140625,-4.39453125,-29.296875,-46.875,0.0
69.125,-91.796875,-25.390625,-32.71484375,-43.45703125,-53.22265625,0.0
69.12890625,-84.9609375,-36.1328125,-39.55078125,-48.33984375,-72.75390625,0.0
69.1328125,-30.76171875,-31.73828125,-29.296875,-34.1796875,-89.35546875,0.0
69.13671875,-8.30078125,-38.57421875,-25.390625,-24.90234375,-138.18359375,0.0
69.140625,-40.0390625,-46.38671875,-42.96875,-30.76171875,-168.45703125,0.0
69.14453125,-71.2890625,-50.78125,-75.1953125,-44.921875,-70.80078125,0.0
69.1484375,-58.10546875,-46.38671875,-119.140625,-32.2265625,51.7578125,0.0
69.15234375,0.0,-38.57421875,-64.94140625,-14.6484375,57.6171875,0.0
69.15625,40.0390625,-18.5546875,29.296875,-7.32421875,75.68359375,0.0
69.16015625,-1.46484375,-24.4140625,29.296875,-20.99609375,89.84375,0.0
69.1640625,-50.29296875,-34.66796875,-6.8359375,-36.62109375,-5.37109375,0.0
69.16796875,-52.24609375,-29.78515625,-27.83203125,-42.48046875,-14.16015625,0.0
69.171875,-11.71875,-33.69140625,-16.11328125,-42.96875,33.203125,0.0
69.17578125,28.80859375,-24.4140625,-18.5546875,-41.9921875,64.94140625,0.0
69.1796875,8.30078125,-26.3671875,-40.0390625,-40.0390625,65.4296875,0.0
69.18359375,-42.48046875,-44.43359375,-76.171875,-45.8984375,55.6640625,0.0
69.1875,-51.26953125,-53.7109375,-80.56640625,-49.8046875,31.73828125,0.0
69.19140625,-0.9765625,-55.17578125,-72.265625,-22.94921875,23.92578125,0.0
69.1953125,48.33984375,-28.80859375,-106.93359375,-3.90625,-0.9765625,0.0
69.19921875,38.0859375,-6.34765625,-54.6875,-11.23046875,-90.8203125,0.0
69.203125,-41.015625,-22.94921875,-3.90625,-22.94921875,-65.91796875,0.0
69.20703125,-83.984375,-38.0859375,-10.25390625,-41.9921875,-19.04296875,0.0
69.2109375,-47.36328125,-42.48046875,-15.625,-52.734375,0.0,0.0
69.21484375,7.32421875,-34.1796875,-26.3671875,-38.57421875,46.875,0.0
69.21875,10.7421875,-29.296875,-39.0625,-37.109375,29.296875,0.0
69.22265625,-57.12890625,-41.50390625,-47.8515625,-43.9453125,33.69140625,0.0
69.2265625,-103.02734375,-59.5703125,-42.96875,-39.55078125,27.83203125,0.0
69.23046875,-60.546875,-65.4296875,-59.5703125,-31.25,-7.32421875,0.0
69.234375,-0.9765625,-42.48046875,-45.8984375,-35.15625,-48.33984375,0.0
69.23828125,1.46484375,-25.87890625,-53.22265625,-35.15625,-47.8515625,0.0
69.2421875,-45.41015625,-33.203125,-89.84375,-30.76171875,4.39453125,0.0
69.24609375,-80.56640625,-37.59765625,-54.6875,-48.33984375,-14.16015625,0.0
69.25,-18.5546875,-23.4375,5.859375,-47.36328125,-53.7109375,0.0
69.25390625,54.6875,-15.13671875,0.48828125,-30.76171875,-74.21875,0.0
69.2578125,62.01171875,-18.06640625,-28.80859375,-26.3671875,-107.91015625,0.0
69.26171875,7.8125,-24.4140625,-40.52734375,-25.87890625,-76.66015625,0.0
69.265625,-39.55078125,-38.0859375,-74.21875,-41.015625,-53.7109375,0.0
69.26953125,-12.6953125,-41.50390625,-59.5703125,-45.8984375,-83.984375,0.0
69.2734375,41.015625,-49.8046875,-41.015625,-35.15625,-97.65625,0.0
69.27734375,59.5703125,-38.57421875,-39.0625,-29.78515625,10.25390625,0.0
69.28125,13.671875,-20.01953125,-29.296875,-27.34375,106.93359375,0.0
69.28515625,-49.31640625,-30.76171875,-50.78125,-26.3671875,43.9453125,0.0
69.2890625,-32.2265625,-36.62109375,-50.78125,-40.0390625,-19.04296875,0.0
69.29296875,41.9921875,-28.80859375,-39.0625,-41.9921875,-35.15625,0.0
69.296875,47.8515625,-26.3671875,-48.828125,-31.25,-82.51953125,0.0
69.30078125,-21.97265625,-23.4375,-46.875,-22.4609375,-91.796875,0.0
69.3046875,-63.96484375,-30.76171875,-49.8046875,-30.2734375,-102.05078125,0.0
69.30859375,-45.8984375,-48.828125,-46.38671875,-39.55078125,-114.2578125,0.0
69.3125,-4.39453125,-42.48046875,-22.4609375,-25.87890625,-34.66796875,0.0
69.31640625,20.5078125,-31.25,-38.0859375,-25.390625,-18.5546875,0.0
69.3203125,-30.76171875,-37.109375,-60.546875,-34.66796875,-34.66796875,0.0
69.32421875,-101.5625,-39.0625,-52.24609375,-36.1328125,-71.77734375,0.0
69.328125,-102.05078125,-25.390625,-36.62109375,-39.0625,-89.35546875,0.0
69.33203125,-37.109375,-21.484375,-28.80859375,-28.80859375,-35.15625,0.0
69.3359375,5.859375,-27.34375,-40.52734375,-23.4375,-62.5,0.0
69.33984375,-37.59765625,-39.0625,-55.6640625,-21.484375,-119.62890625,0.0
69.34375,-81.54296875,-38.0859375,-23.4375,-27.34375,-38.57421875,0.0
69.34765625,-78.125,-30.76171875,21.484375,-38.57421875,2.9296875,0.0
69.3515625,-28.3203125,-32.71484375,13.671875,-36.1328125,-41.9921875,0.0
69.35546875,25.390625,-27.83203125,-6.34765625,-24.90234375,-9.765625,0.0
69.359375,0.48828125,-35.15625,-28.80859375,-29.296875,29.78515625,0.0
69.36328125,-56.640625,-48.33984375,-50.29296875,-41.50390625,29.78515625,0.0
69.3671875,-74.70703125,-51.26953125,-52.734375,-33.69140625,-5.37109375,0.0
69.37109375,-31.73828125,-38.0859375,-48.33984375,-18.5546875,7.32421875,0.0
69.375,27.34375,-25.87890625,-40.52734375,-17.08984375,50.29296875,0.0
69.37890625,6.34765625,-18.06640625,-38.57421875,-16.11328125,34.66796875,0.0
69.3828125,-55.17578125,-25.87890625,-12.20703125,-25.87890625,8.7890625,0.0
69.38671875,-74.70703125,-44.43359375,-4.39453125,-40.52734375,9.27734375,0.0
69.390625,-36.1328125,-44.43359375,-19.04296875,-37.109375,5.37109375,0.0
69.39453125,8.7890625,-43.9453125,-12.6953125,-24.4140625,10.7421875,0.0
69.3984375,6.34765625,-40.0390625,-33.69140625,-18.06640625,6.8359375,0.0
69.40234375,-35.64453125,-33.203125,-49.8046875,-40.52734375,-13.671875,0.0
69.40625,-64.94140625,-31.73828125,-39.55078125,-33.203125,-82.03125,0.0
69.41015625,-49.31640625,-24.4140625,-41.9921875,-22.94921875,-112.79296875,0.0
69.4140625,-3.90625,-26.3671875,-28.3203125,-27.83203125,-27.83203125,0.0
69.41796875,2.9296875,-30.2734375,-21.97265625,-23.92578125,25.87890625,0.0
69.421875,-48.33984375,-35.15625,-35.64453125,-30.76171875,-10.7421875,0.0
69.42578125,-89.84375,-51.26953125,-43.45703125,-40.0390625,0.48828125,0.0
69.4296875,-62.98828125,-59.5703125,-36.1328125,-43.9453125,-82.03125,0.0
69.43359375,10.7421875,-45.8984375,-15.625,-25.87890625,-123.046875,0.0
69.4375,29.78515625,-24.4140625,-21.97265625,-13.18359375,-33.203125,0.0
69.44140625,-28.80859375,-31.25,-36.62109375,-14.16015625,1.953125,0.0
69.4453125,-62.01171875,-43.9453125,-41.9921875,-23.92578125,-75.1953125,0.0
69.44921875,-48.33984375,-36.62109375,-26.3671875,-30.2734375,-13.671875,0.0
69.453125,-25.87890625,-28.3203125,-13.18359375,-25.390625,-17.578125,0.0
69.45703125,-19.04296875,-21.97265625,-26.85546875,-28.80859375,-98.14453125,0.0
69.4609375,-51.7578125,-31.25,-40.52734375,-27.34375,-50.78125,0.0
69.46484375,-97.16796875,-51.26953125,-38.57421875,-21.97265625,-56.15234375,0.0
69.46875,-89.84375,-57.6171875,-15.625,-23.92578125,-61.03515625,0.0
69.47265625,-29.296875,-58.10546875,-20.5078125,-34.1796875,-83.0078125,0.0
69.4765625,-1.46484375,-41.9921875,-19.04296875,-28.80859375,-24.90234375,0.0
69.48046875,-26.3671875,-41.015625,-39.0625,-27.83203125,16.11328125,0.0
69.484375,-75.68359375,-59.08203125,-58.10546875,-34.1796875,-28.80859375,0.0
69.48828125,-88.37890625,-40.52734375,-39.0625,-48.33984375,43.45703125,0.0
69.4921875,-21.97265625,-19.53125,-18.06640625,-49.8046875,9.765625,0.0
69.49609375,23.4375,-12.6953125,8.30078125,-34.66796875,-65.91796875,0.0
69.5,-7.32421875,-22.94921875,-10.7421875,-27.83203125,-43.9453125,0.0
69.50390625,-68.84765625,-43.45703125,-35.15625,-37.109375,-106.93359375,0.0
69.5078125,-81.0546875,-59.5703125,-54.6875,-51.26953125,-152.83203125,0.0
69.51171875,-29.78515625,-59.5703125,-57.12890625,-37.59765625,-119.62890625,0.0
69.515625,0.48828125,-38.57421875,-50.29296875,-25.87890625,-49.8046875,0.0
69.51953125,-23.4375,-39.55078125,-65.4296875,-37.109375,12.20703125,0.0
69.5234375,-71.2890625,-42.48046875,-76.66015625,-37.59765625,20.5078125,0.0
69.52734375,-78.125,-31.25,-34.1796875,-36.62109375,-35.15625,0.0
69.53125,-43.9453125,-26.85546875,-21.484375,-33.69140625,-30.76171875,0.0
69.53515625,-2.9296875,-22.4609375,-24.90234375,-27.83203125,28.3203125,0.0
69.5390625,-25.390625,-22.4609375,-19.04296875,-29.78515625,-44.921875,0.0
69.54296875,-83.984375,-26.3671875,-33.69140625,-30.2734375,-117.1875,0.0
69.546875,-90.8203125,-35.64453125,-44.43359375,-33.203125,-79.58984375,0.0
69.55078125,-42.96875,-43.45703125,-55.6640625,-30.2734375,-19.53125,0.0
69.5546875,11.23046875,-29.78515625,-52.734375,-11.71875,22.94921875,0.0
69.55859375,-1.953125,-32.71484375,-44.43359375,-17.08984375,-11.23046875,0.0
69.5625,-64.94140625,-44.43359375,-24.90234375,-38.0859375,-52.24609375,0.0
69.56640625,-90.8203125,-39.55078125,-38.0859375,-40.0390625,-7.8125,0.0
69.5703125,-38.57421875,-43.9453125,-49.8046875,-29.296875,-25.390625,0.0
69.57421875,8.30078125,-51.26953125,-36.62109375,-25.87890625,-3.41796875,0.0
69.578125,-6.34765625,-30.76171875,-57.12890625,-25.390625,58.10546875,0.0
69.58203125,-52.734375,-25.390625,-71.77734375,-36.1328125,-17.08984375,0.0
69.5859375,-69.82421875,-22.94921875,-50.29296875,-39.0625,-93.26171875,0.0
69.58984375,-24.4140625,-13.671875,-28.80859375,-24.90234375,-100.09765625,0.0
69.59375,26.85546875,-21.484375,-28.80859375,-14.6484375,-52.734375,0.0
69.59765625,18.5546875,-24.90234375,-49.31640625,-19.04296875,-26.85546875,0.0
69.6015625,-56.15234375,-41.9921875,-46.38671875,-38.0859375,8.7890625,0.0
69.60546875,-104.4921875,-63.96484375,-22.4609375,-43.9453125,29.78515625,0.0
69.609375,-79.58984375,-49.8046875,-17.08984375,-41.50390625,-6.34765625,0.0
69.61328125,-24.90234375,-39.0625,-9.27734375,-41.50390625,-13.671875,0.0
69.6171875,-0.9765625,-31.25,-12.6953125,-13.18359375,18.06640625,0.0
69.62109375,-23.92578125,-16.11328125,-37.59765625,2.9296875,23.92578125,0.0
69.625,-71.2890625,-29.296875,-34.66796875,-25.390625,-24.4140625,0.0
69.62890625,-81.0546875,-39.0625,-41.015625,-41.50390625,-119.62890625,0.0
69.6328125,-21.97265625,-33.69140625,-56.15234375,-31.73828125,-169.921875,0.0
69.63671875,5.37109375,-43.45703125,-45.41015625,-23.92578125,-127.44140625,0.0
69.640625,-45.8984375,-58.10546875,-47.8515625,-30.2734375,-92.7734375,0.0
69.64453125,-83.984375,-39.55078125,-52.734375,-35.15625,-84.9609375,0.0
69.6484375,-82.51953125,-26.85546875,-25.390625,-46.875,-6.8359375,0.0
69.65234375,-44.921875,-35.64453125,6.34765625,-38.57421875,29.296875,0.0
69.65625,-8.7890625,-34.66796875,-15.13671875,-28.80859375,9.27734375,0.0
69.66015625,-59.08203125,-24.4140625,-22.4609375,-30.76171875,10.7421875,0.0
69.6640625,-116.69921875,-14.6484375,-17.578125,-32.2265625,-31.25,0.0
69.66796875,-122.0703125,-21.97265625,-45.41015625,-37.59765625,-105.46875,0.0
69.671875,-55.17578125,-30.2734375,-46.875,-20.5078125,-115.72265625,0.0
69.67578125,-13.18359375,-33.69140625,-45.41015625,0.48828125,-89.35546875,0.0
69.6796875,-60.05859375,-42.48046875,-46.875,-16.11328125,-57.6171875,0.0
69.68359375,-94.7265625,-49.8046875,-29.296875,-31.25,-67.3828125,0.0
69.6875,-91.796875,-54.19921875,-35.15625,-31.73828125,-98.14453125,0.0
69.69140625,-38.0859375,-37.109375,-22.4609375,-11.71875,-21.484375,0.0
69.6953125,-6.34765625,-14.16015625,-12.20703125,3.90625,-3.41796875,0.0
69.69921875,-60.05859375,-20.5078125,-21.97265625,-14.16015625,-60.05859375,0.0
69.703125,-109.375,-23.92578125,-8.7890625,-29.296875,-31.73828125,0.0
69.70703125,-105.95703125,-18.06640625,-7.8125,-28.80859375,-46.875,0.0
69.7109375,-68.84765625,-23.92578125,-18.06640625,-32.2265625,-71.77734375,0.0
69.71484375,-13.18359375,-21.484375,2.9296875,-21.484375,-70.80078125,0.0
69.71875,-21.484375,-23.4375,5.859375,-15.13671875,-59.08203125,0.0
69.72265625,-90.8203125,-36.62109375,-16.11328125,-27.83203125,-36.62109375,0.0
69.7265625,-114.74609375,-38.57421875,-55.17578125,-36.62109375,-139.16015625,0.0
69.73046875,-79.58984375,-42.96875,-72.75390625,-27.83203125,-192.3828125,0.0
69.734375,-12.20703125,-34.66796875,-15.13671875,-9.27734375,-162.59765625,0.0
69.73828125,5.37109375,-14.6484375,14.16015625,8.30078125,-84.9609375,0.0
69.7421875,-70.80078125,-31.25,-9.765625,-13.671875,-100.09765625,0.0
69.74609375,-115.234375,-43.9453125,-11.23046875,-45.41015625,-129.39453125,0.0
69.75,-79.58984375,-25.87890625,-18.5546875,-38.57421875,5.859375,0.0
69.75390625,-28.3203125,-3.41796875,-20.5078125,-33.69140625,100.5859375,0.0
69.7578125,-14.16015625,-17.08984375,-2.9296875,-19.04296875,81.0546875,0.0
69.76171875,-48.828125,-27.83203125,-13.18359375,-3.90625,84.47265625,0.0
69.765625,-94.7265625,-29.296875,-25.87890625,-33.203125,150.87890625,0.0
69.76953125,-80.078125,-40.52734375,-40.0390625,-54.6875,155.2734375,0.0
69.7734375,-11.23046875,-28.3203125,-36.62109375,-38.0859375,129.8828125,0.0
69.77734375,-15.625,-36.62109375,-49.8046875,-33.203125,106.4453125,0.0
69.78125,-69.3359375,-61.5234375,-33.203125,-36.1328125,83.49609375,0.0
69.78515625,-81.54296875,-34.1796875,-41.015625,-48.828125,63.4765625,0.0
69.7890625,-53.22265625,-5.37109375,-44.921875,-53.7109375,73.73046875,0.0
69.79296875,4.8828125,-18.5546875,-34.66796875,-37.59765625,16.11328125,0.0
69.796875,35.64453125,-24.4140625,-22.94921875,-23.4375,34.1796875,0.0
69.80078125,-16.11328125,-20.01953125,7.8125,-28.80859375,35.64453125,0.0
69.8046875,-72.75390625,-25.390625,-25.390625,-39.0625,-39.55078125,0.0
69.80859375,-56.15234375,-29.78515625,-23.4375,-32.71484375,-66.40625,0.0
69.8125,-23.92578125,-47.36328125,-12.6953125,-37.59765625,-88.37890625,0.0
69.81640625,6.34765625,-43.9453125,-28.3203125,-30.76171875,-88.37890625,0.0
69.8203125,-5.37109375,-25.390625,-26.85546875,-18.5546875,-84.47265625,0.0
69.82421875,-58.10546875,-24.90234375,-28.3203125,-37.59765625,-34.66796875,0.0
69.828125,-59.08203125,-38.57421875,-25.87890625,-49.8046875,-60.05859375,0.0
69.83203125,-3.90625,-36.1328125,-35.15625,-37.59765625,-85.9375,0.0
69.8359375,28.3203125,-12.6953125,-16.6015625,-23.92578125,-24.4140625,0.0
69.83984375,-23.92578125,-16.11328125,-32.71484375,-31.25,10.25390625,0.0
69.84375,-75.1953125,-28.3203125,-33.69140625,-36.1328125,39.55078125,0.0
69.84765625,-58.10546875,-30.2734375,-15.13671875,-38.57421875,13.671875,0.0
69.8515625,-1.953125,-35.15625,-43.45703125,-40.52734375,-15.13671875,0.0
69.85546875,25.390625,-34.66796875,-18.5546875,-40.52734375,-93.75,0.0
69.859375,0.9765625,-38.0859375,-6.8359375,-39.55078125,-140.13671875,0.0
69.86328125,-39.55078125,-30.76171875,-42.96875,-45.41015625,-154.78515625,0.0
69.8671875,-46.875,-30.76171875,-55.6640625,-51.26953125,-217.7734375,0.0
69.87109375,18.06640625,-24.90234375,-28.3203125,-41.015625,-83.49609375,0.0
69.875,66.40625,-16.6015625,-20.01953125,-31.73828125,-24.4140625,0.0
69.87890625,41.50390625,-23.4375,-39.55078125,-21.97265625,-49.31640625,0.0
69.8828125,-14.6484375,-35.15625,-52.24609375,-22.94921875,-19.53125,0.0
69.88671875,-55.6640625,-52.734375,-50.78125,-35.15625,-89.35546875,0.0
69.890625,-18.06640625,-61.03515625,-24.90234375,-35.64453125,-70.3125,0.0
69.89453125,37.59765625,-38.0859375,-26.85546875,-34.1796875,-50.78125,0.0
69.8984375,12.6953125,-26.3671875,-68.359375,-25.390625,-66.89453125,0.0
69.90234375,-35.15625,-35.15625,-76.66015625,-16.6015625,5.859375,0.0
69.90625,-42.48046875,-21.484375,-34.1796875,-28.80859375,7.8125,0.0
69.91015625,-11.23046875,-19.04296875,15.625,-41.9921875,-108.88671875,0.0
69.9140625,45.41015625,-15.625,22.4609375,-26.3671875,-40.0390625,0.0
69.91796875,49.31640625,-12.6953125,-34.1796875,-17.578125,51.26953125,0.0
69.921875,-24.90234375,-35.64453125,-65.4296875,-33.203125,22.4609375,0.0
69.92578125,-67.87109375,-45.8984375,-29.78515625,-46.875,37.59765625,0.0
69.9296875,-28.80859375,-33.69140625,-11.23046875,-28.3203125,43.45703125,0.0
69.93359375,15.625,-34.66796875,-39.0625,-12.6953125,36.62109375,0.0
69.9375,-6.34765625,-25.390625,-70.80078125,-29.296875,89.35546875,0.0
69.94140625,-66.40625,-12.6953125,-39.55078125,-37.109375,27.83203125,0.0
69.9453125,-102.5390625,-19.04296875,-17.08984375,-42.48046875,-58.10546875,0.0
69.94921875,-90.8203125,-26.85546875,-21.484375,-48.828125,-53.22265625,0.0
69.953125,-36.1328125,-35.15625,-32.71484375,-29.78515625,-37.109375,0.0
69.95703125,-4.39453125,-32.71484375,-47.36328125,-15.13671875,7.32421875,0.0
69.9609375,-55.17578125,-21.97265625,-23.4375,-42.96875,-41.9921875,0.0
69.96484375,-106.93359375,-31.25,-7.8125,-62.01171875,-133.7890625,0.0
69.96875,-87.890625,-48.33984375,-13.18359375,-58.59375,-143.5546875,0.0
69.97265625,-15.625,-31.73828125,-26.85546875,-42.48046875,-70.80078125,0.0
69.9765625,17.08984375,-15.625,-40.0390625,-20.5078125,2.9296875,0.0
69.98046875,-27.34375,-34.1796875,-66.89453125,-24.4140625,-31.25,0.0
69.984375,-65.91796875,-42.96875,-81.0546875,-45.41015625,-105.46875,0.0
69.98828125,-45.41015625,-38.57421875,-50.29296875,-35.15625,-134.765625,0.0
69.9921875,3.41796875,-32.2265625,-18.06640625,-29.78515625,-20.99609375,0.0
69.99609375,15.625,-31.25,-16.6015625,-46.38671875,38.57421875,0.0
70.0,-20.5078125,-42.96875,-41.015625,-47.36328125,10.25390625,0.0
70.00390625,-58.59375,-56.640625,-40.0390625,-42.48046875,-39.0625,0.0
70.0078125,-46.38671875,-37.59765625,-16.11328125,-43.9453125,-108.88671875,0.0
70.01171875,-3.41796875,-23.92578125,-9.765625,-48.33984375,-116.69921875,0.0
70.015625,38.57421875,-32.71484375,-22.4609375,-37.109375,-88.8671875,0.0
70.01953125,14.6484375,-29.78515625,-37.59765625,-30.2734375,-141.11328125,0.0
70.0234375,-39.0625,-36.62109375,-54.19921875,-40.52734375,-159.1796875,0.0
70.02734375,-56.640625,-38.57421875,-51.26953125,-45.8984375,-141.6015625,0.0
70.03125,-17.578125,-38.0859375,-26.3671875,-40.52734375,-136.71875,0.0
70.03515625,31.73828125,-38.0859375,-30.2734375,-31.25,-77.1484375,0.0
70.0390625,14.16015625,-44.921875,-35.15625,-21.484375,-137.20703125,0.0
70.04296875,-59.08203125,-48.828125,-14.16015625,-34.66796875,-183.59375,0.0
70.046875,-91.30859375,-36.1328125,-1.953125,-50.29296875,-79.58984375,0.0
70.05078125,-58.10546875,-32.2265625,-32.2265625,-49.8046875,-19.53125,0.0
70.0546875,-19.53125,-32.71484375,-51.7578125,-45.41015625,11.71875,0.0
70.05859375,-14.6484375,-24.90234375,-46.875,-25.87890625,67.3828125,0.0
70.0625,-53.7109375,-15.625,-39.55078125,-28.80859375,56.15234375,0.0
70.06640625,-93.26171875,-18.06640625,-52.734375,-25.87890625,-21.484375,0.0
70.0703125,-65.4296875,-29.78515625,-38.0859375,-33.203125,-28.80859375,0.0
70.07421875,-6.8359375,-36.1328125,-14.6484375,-59.5703125,56.15234375,0.0
70.078125,-12.6953125,-32.2265625,-29.78515625,-55.17578125,101.07421875,0.0
70.08203125,-80.078125,-40.52734375,-29.78515625,-53.22265625,117.67578125,0.0
70.0859375,-113.28125,-39.0625,-30.76171875,-66.40625,21.97265625,0.0
70.08984375,-75.68359375,-26.3671875,-30.2734375,-47.36328125,12.6953125,0.0
70.09375,-20.99609375,-21.484375,-7.8125,-25.390625,61.03515625,0.0
70.09765625,-23.4375,-23.4375,-19.04296875,-46.38671875,122.55859375,0.0
70.1015625,-78.125,-28.80859375,-51.7578125,-55.6640625,113.28125,0.0
70.10546875,-113.76953125,-36.62109375,-40.52734375,-51.26953125,-44.43359375,0.0
70.109375,-92.7734375,-50.29296875,-42.48046875,-51.26953125,-23.92578125,0.0
70.11328125,-23.92578125,-45.41015625,-38.0859375,-42.96875,-41.50390625,0.0
70.1171875,6.34765625,-33.69140625,-19.04296875,-35.15625,-5.37109375,0.0
70.12109375,-56.15234375,-42.96875,-36.1328125,-41.9921875,22.4609375,0.0
70.125,-108.3984375,-52.734375,-54.6875,-51.7578125,-123.53515625,0.0
70.12890625,-80.56640625,-42.48046875,-58.10546875,-52.734375,-101.07421875,0.0
70.1328125,-21.484375,-34.1796875,-42.48046875,-40.0390625,-13.18359375,0.0
70.13671875,-0.48828125,-35.15625,-41.50390625,-32.2265625,-20.99609375,0.0
70.140625,-40.52734375,-32.71484375,-37.59765625,-30.76171875,-109.86328125,0.0
70.14453125,-100.5859375,-25.87890625,-20.01953125,-32.71484375,-100.5859375,0.0
70.1484375,-95.21484375,-33.69140625,-33.203125,-39.0625,-31.73828125,0.0
70.15234375,-21.484375,-37.109375,-23.4375,-44.921875,3.41796875,0.0
70.15625,1.953125,-34.66796875,-4.8828125,-43.9453125,13.18359375,0.0
70.16015625,-43.9453125,-33.69140625,-15.625,-36.1328125,37.109375,0.0
70.1640625,-80.078125,-25.390625,-22.4609375,-34.66796875,83.984375,0.0
70.16796875,-70.3125,-24.4140625,-26.3671875,-39.55078125,72.75390625,0.0
70.171875,-25.390625,-30.2734375,-49.8046875,-34.66796875,23.92578125,0.0
70.17578125,9.765625,-26.3671875,-41.9921875,-32.71484375,-47.36328125,0.0
70.1796875,-29.78515625,-24.90234375,-20.99609375,-32.2265625,-60.546875,0.0
70.18359375,-98.6328125,-28.80859375,-21.484375,-39.0625,-1.46484375,0.0
70.1875,-111.328125,-36.1328125,-12.6953125,-36.62109375,-26.3671875,0.0
70.19140625,-78.61328125,-51.26953125,-38.0859375,-51.26953125,-43.9453125,0.0
70.1953125,-23.92578125,-49.31640625,-82.03125,-52.24609375,-29.296875,0.0
70.19921875,-22.94921875,-25.390625,-59.5703125,-38.0859375,-64.94140625,0.0
70.203125,-79.1015625,-20.5078125,-31.73828125,-42.96875,-47.36328125,0.0
70.20703125,-80.56640625,-30.2734375,-40.0390625,-41.9921875,55.6640625,0.0
70.2109375,-34.1796875,-27.34375,-3.41796875,-30.2734375,2.9296875,0.0
70.21484375,-0.48828125,-29.296875,0.0,-37.109375,-38.57421875,0.0
70.21875,-17.578125,-28.3203125,-40.0390625,-35.64453125,18.06640625,0.0
70.22265625,-65.4296875,-24.90234375,-10.25390625,-25.87890625,-25.87890625,0.0
70.2265625,-83.984375,-36.1328125,-27.83203125,-38.57421875,-100.5859375,0.0
70.23046875,-36.62109375,-44.43359375,-48.33984375,-29.296875,-145.5078125,0.0
70.234375,20.01953125,-43.45703125,-22.94921875,-15.13671875,-67.3828125,0.0
70.23828125,0.48828125,-23.92578125,-27.83203125,-24.90234375,-9.765625,0.0
70.2421875,-69.82421875,-10.25390625,-42.48046875,-46.875,-35.64453125,0.0
70.24609375,-100.09765625,-24.4140625,-39.55078125,-57.12890625,-34.1796875,0.0
70.25,-60.546875,-37.109375,-16.6015625,-34.66796875,-16.11328125,0.0
70.25390625,-30.76171875,-31.73828125,-25.87890625,-30.76171875,-29.296875,0.0
70.2578125,-33.69140625,-34.66796875,-64.94140625,-25.390625,-21.484375,0.0
70.26171875,-65.4296875,-38.0859375,-72.265625,-26.85546875,1.46484375,0.0
70.265625,-102.05078125,-37.109375,-33.203125,-34.66796875,21.97265625,0.0
70.26953125,-68.84765625,-39.55078125,-1.46484375,-24.90234375,-42.48046875,0.0
70.2734375,-20.99609375,-33.203125,5.859375,-34.66796875,-18.06640625,0.0
70.27734375,-18.06640625,-25.390625,-14.6484375,-38.0859375,59.08203125,0.0
70.28125,-67.87109375,-27.83203125,-17.578125,-35.64453125,48.33984375,0.0
70.28515625,-113.28125,-24.4140625,-24.90234375,-42.96875,59.5703125,0.0
70.2890625,-93.75,-28.80859375,-43.9453125,-41.015625,48.33984375,0.0
70.29296875,-35.64453125,-35.64453125,-38.0859375,-31.25,-31.25,0.0
70.296875,-18.06640625,-26.3671875,-53.22265625,-27.34375,-137.20703125,0.0
70.30078125,-57.12890625,-40.0390625,-41.9921875,-26.85546875,-166.9921875,0.0
70.3046875,-98.6328125,-51.26953125,-14.6484375,-38.57421875,-219.7265625,0.0
70.30859375,-84.47265625,-21.484375,-26.3671875,-41.9921875,-247.55859375,0.0
70.3125,-25.390625,-34.66796875,-34.1796875,-34.1796875,-194.82421875,0.0
70.31640625,11.23046875,-37.109375,-41.50390625,-19.53125,-141.6015625,0.0
70.3203125,-34.66796875,-22.94921875,-46.875,-15.13671875,-177.24609375,0.0
70.32421875,-98.6328125,-39.0625,-2.9296875,-39.0625,-189.453125,0.0
70.328125,-92.7734375,-33.203125,28.3203125,-36.1328125,-118.65234375,0.0
70.33203125,-53.22265625,-29.78515625,-4.39453125,-28.80859375,-91.30859375,0.0
70.3359375,-30.2734375,-39.0625,-31.25,-41.50390625,-59.08203125,0.0
70.33984375,-57.6171875,-39.0625,-29.78515625,-49.8046875,-68.84765625,0.0
70.34375,-99.609375,-35.64453125,-33.203125,-42.96875,-53.7109375,0.0
70.34765625,-97.16796875,-27.34375,-28.3203125,-31.73828125,-68.359375,0.0
70.3515625,-41.9921875,-28.3203125,0.48828125,-26.85546875,-91.796875,0.0
70.35546875,-14.16015625,-33.69140625,0.9765625,-27.83203125,-73.2421875,0.0
70.359375,-50.78125,-27.83203125,-37.109375,-28.3203125,-62.5,0.0
70.36328125,-101.5625,-24.4140625,-47.8515625,-31.25,-41.015625,0.0
70.3671875,-125.0,-31.73828125,5.37109375,-47.8515625,-49.8046875,0.0
70.37109375,-83.0078125,-51.26953125,-1.953125,-56.15234375,-75.68359375,0.0
70.375,-27.34375,-47.36328125,-53.22265625,-38.0859375,17.578125,0.0
70.37890625,-15.13671875,-29.296875,-37.109375,-26.3671875,145.99609375,0.0
70.3828125,-52.734375,-31.25,-26.85546875,-27.83203125,119.62890625,0.0
70.38671875,-78.61328125,-45.41015625,-39.0625,-20.5078125,80.56640625,0.0
70.390625,-57.6171875,-50.29296875,-16.6015625,-33.69140625,34.66796875,0.0
70.39453125,-11.71875,-25.87890625,0.0,-41.9921875,49.31640625,0.0
70.3984375,-14.6484375,-20.01953125,-7.8125,-29.78515625,35.15625,0.0
70.40234375,-64.94140625,-32.2265625,-21.97265625,-42.48046875,-8.30078125,0.0
70.40625,-93.75,-42.48046875,-37.59765625,-55.6640625,-25.390625,0.0
70.41015625,-51.26953125,-49.8046875,-46.38671875,-49.31640625,11.71875,0.0
70.4140625,24.4140625,-43.45703125,-16.6015625,-32.2265625,41.015625,0.0
70.41796875,40.0390625,-24.90234375,-27.34375,-27.34375,-6.8359375,0.0
70.421875,0.0,-27.83203125,-36.62109375,-31.25,-68.359375,0.0
70.42578125,-22.4609375,-40.52734375,-17.08984375,-33.69140625,-41.50390625,0.0
70.4296875,18.5546875,-38.57421875,-7.8125,-31.73828125,-9.27734375,0.0
70.43359375,67.87109375,-30.76171875,8.7890625,-30.2734375,-38.0859375,0.0
70.4375,52.734375,-22.94921875,14.6484375,-23.4375,-16.11328125,0.0
70.44140625,10.7421875,-24.90234375,-7.8125,-20.5078125,-50.78125,0.0
70.4453125,-25.87890625,-30.76171875,-27.34375,-44.43359375,-150.390625,0.0
70.44921875,-11.23046875,-28.80859375,-46.38671875,-48.828125,-143.06640625,0.0
70.453125,60.546875,-41.50390625,-21.97265625,-48.828125,4.39453125,0.0
70.45703125,84.47265625,-49.8046875,-3.90625,-41.9921875,22.94921875,0.0
70.4609375,28.80859375,-35.15625,-36.62109375,-21.97265625,-47.36328125,0.0
70.46484375,-27.83203125,-27.83203125,-38.0859375,-42.96875,-15.625,0.0
70.46875,-27.83203125,-34.66796875,-36.62109375,-46.875,-24.90234375,0.0
70.47265625,38.0859375,-35.64453125,-18.06640625,-22.94921875,-70.3125,0.0
70.4765625,61.03515625,-23.92578125,-25.390625,-25.390625,-43.45703125,0.0
70.48046875,3.41796875,-22.94921875,-31.73828125,-38.0859375,3.90625,0.0
70.484375,-66.40625,-49.8046875,-28.80859375,-53.22265625,36.1328125,0.0
70.48828125,-62.98828125,-62.5,-44.43359375,-56.15234375,13.18359375,0.0
70.4921875,14.16015625,-41.015625,-39.55078125,-37.109375,3.41796875,0.0
70.49609375,43.9453125,-25.87890625,-20.01953125,-32.71484375,-55.17578125,0.0
70.5,-7.32421875,-35.64453125,-32.71484375,-52.734375,-104.00390625,0.0
70.50390625,-56.640625,-50.29296875,-51.7578125,-61.5234375,-17.08984375,0.0
70.5078125,-40.0390625,-42.48046875,-59.08203125,-57.6171875,55.17578125,0.0
70.51171875,32.71484375,-38.0859375,-33.69140625,-43.9453125,-13.18359375,0.0
70.515625,81.0546875,-32.2265625,-5.859375,-22.94921875,-81.0546875,0.0
70.51953125,35.15625,-26.85546875,-18.5546875,-18.06640625,-114.74609375,0.0
70.5234375,-12.6953125,-31.25,-33.69140625,-30.2734375,-101.07421875,0.0
70.52734375,-11.71875,-35.15625,-28.3203125,-47.8515625,-99.609375,0.0
70.53125,20.01953125,-49.31640625,-19.53125,-36.1328125,-158.69140625,0.0
70.53515625,59.08203125,-41.015625,-21.97265625,-16.11328125,-155.76171875,0.0
70.5390625,38.57421875,-16.6015625,-18.5546875,-28.80859375,-102.05078125,0.0
70.54296875,-4.39453125,-14.6484375,-35.64453125,-28.80859375,-36.62109375,0.0
70.546875,-25.87890625,-22.94921875,-43.45703125,-32.71484375,-1.953125,0.0
70.55078125,13.18359375,-31.25,-17.08984375,-52.24609375,54.19921875,0.0
70.5546875,65.4296875,-41.9921875,-17.578125,-46.38671875,32.71484375,0.0
70.55859375,42.48046875,-41.015625,-30.76171875,-34.1796875,-7.8125,0.0
70.5625,-22.4609375,-39.0625,-44.921875,-44.921875,67.3828125,0.0
70.56640625,-49.31640625,-44.43359375,-70.3125,-50.29296875,67.87109375,0.0
70.5703125,-9.27734375,-50.29296875,-68.84765625,-32.2265625,-43.45703125,0.0
70.57421875,51.7578125,-39.55078125,-47.8515625,-17.578125,-50.29296875,0.0
70.578125,47.36328125,-20.99609375,-52.24609375,-33.69140625,-3.41796875,0.0
70.58203125,-32.2265625,-26.3671875,-50.78125,-42.48046875,18.06640625,0.0
70.5859375,-70.80078125,-39.55078125,-34.1796875,-42.48046875,-2.44140625,0.0
70.58984375,-51.7578125,-39.55078125,-33.69140625,-51.26953125,44.921875,0.0
70.59375,-21.484375,-38.57421875,-20.99609375,-38.0859375,41.50390625,0.0
70.59765625,-22.94921875,-38.57421875,-17.578125,-32.2265625,7.8125,0.0
70.6015625,-77.63671875,-48.33984375,-53.7109375,-49.8046875,-56.15234375,0.0
70.60546875,-102.5390625,-51.26953125,-63.96484375,-56.15234375,-119.140625,0.0
70.609375,-65.91796875,-36.1328125,-26.3671875,-48.828125,-66.89453125,0.0
70.61328125,-20.99609375,-39.55078125,-17.578125,-37.59765625,38.0859375,0.0
70.6171875,-12.20703125,-50.78125,-28.80859375,-23.92578125,73.2421875,0.0
70.62109375,-63.4765625,-50.29296875,-35.64453125,-35.15625,61.03515625,0.0
70.625,-115.72265625,-51.7578125,-60.546875,-39.0625,-5.37109375,0.0
70.62890625,-86.9140625,-35.15625,-86.42578125,-35.15625,-62.01171875,0.0
70.6328125,-33.69140625,-36.62109375,-46.875,-42.96875,25.87890625,0.0
70.63671875,-8.30078125,-29.296875,4.39453125,-28.3203125,70.3125,0.0
70.640625,-48.33984375,-26.85546875,-7.32421875,-21.484375,38.0859375,0.0
70.64453125,-103.515625,-51.7578125,-40.0390625,-34.1796875,-14.6484375,0.0
70.6484375,-88.8671875,-49.8046875,-31.25,-20.99609375,-31.25,0.0
70.65234375,-32.71484375,-41.015625,28.80859375,-12.20703125,-43.45703125,0.0
70.65625,-6.34765625,-30.2734375,29.296875,-18.5546875,-7.8125,0.0
70.66015625,-40.0390625,-19.53125,-21.484375,-35.15625,-9.27734375,0.0
70.6640625,-77.63671875,-19.04296875,-29.78515625,-38.0859375,-5.859375,0.0
70.66796875,-72.75390625,-35.15625,-36.62109375,-36.1328125,40.0390625,0.0
70.671875,-22.94921875,-40.0390625,-63.96484375,-49.8046875,-15.625,0.0
70.67578125,32.71484375,-24.4140625,-49.8046875,-29.296875,-51.26953125,0.0
70.6796875,9.765625,-30.2734375,-19.53125,-19.04296875,-10.25390625,0.0
70.68359375,-63.96484375,-44.921875,-39.0625,-28.80859375,40.52734375,0.0
70.6875,-83.0078125,-49.31640625,-22.4609375,-32.71484375,-29.296875,0.0
70.69140625,-40.0390625,-51.26953125,-1.953125,-31.73828125,-83.984375,0.0
70.6953125,-4.39453125,-41.50390625,-11.71875,-31.25,-33.203125,0.0
70.69921875,-42.48046875,-35.15625,-20.5078125,-39.55078125,41.50390625,0.0
70.703125,-97.16796875,-26.85546875,-30.2734375,-37.109375,56.15234375,0.0
70.70703125,-96.6796875,-39.0625,-50.29296875,-29.78515625,28.3203125,0.0
70.7109375,-40.0390625,-35.64453125,-35.64453125,-20.5078125,12.6953125,0.0
70.71484375,15.625,-13.671875,-22.94921875,-10.25390625,-0.9765625,0.0
70.71875,-3.41796875,-25.390625,-38.57421875,-20.01953125,-18.06640625,0.0
70.72265625,-69.82421875,-36.62109375,-62.5,-18.5546875,12.6953125,0.0
70.7265625,-95.703125,-35.64453125,-51.26953125,-24.90234375,-38.57421875,0.0
70.73046875,-58.59375,-37.109375,-10.25390625,-31.73828125,-94.7265625,0.0
70.734375,-21.97265625,-39.55078125,-13.18359375,-28.80859375,-136.71875,0.0
70.73828125,-23.92578125,-46.875,-41.50390625,-42.96875,-138.671875,0.0
70.7421875,-61.5234375,-38.57421875,-43.9453125,-33.203125,-14.6484375,0.0
70.74609375,-86.42578125,-26.85546875,-26.3671875,-27.34375,60.546875,0.0
70.75,-66.89453125,-38.0859375,-35.64453125,-41.50390625,-32.71484375,0.0
70.75390625,-13.671875,-46.38671875,-47.8515625,-35.64453125,-95.703125,0.0
70.7578125,7.32421875,-29.296875,-34.1796875,-16.6015625,-78.125,0.0
70.76171875,-46.38671875,-26.85546875,0.48828125,-21.97265625,-121.09375,0.0
70.765625,-116.2109375,-51.7578125,0.0,-40.52734375,-140.625,0.0
70.76953125,-92.7734375,-51.7578125,-18.5546875,-41.50390625,-83.0078125,0.0
70.7734375,-7.32421875,-25.390625,-19.04296875,-19.04296875,-9.27734375,0.0
70.77734375,6.8359375,-20.01953125,-34.66796875,-20.99609375,39.55078125,0.0
70.78125,-55.6640625,-39.0625,-67.3828125,-32.71484375,47.36328125,0.0
70.78515625,-92.7734375,-40.52734375,-46.875,-30.76171875,3.41796875,0.0
70.7890625,-76.171875,-13.671875,-7.32421875,-25.87890625,-9.765625,0.0
70.79296875,-42.96875,-12.6953125,6.34765625,-18.5546875,-6.34765625,0.0
70.796875,-27.34375,-24.4140625,7.8125,-30.76171875,-66.89453125,0.0
70.80078125,-65.4296875,-19.53125,-13.671875,-47.8515625,-70.80078125,0.0
70.8046875,-95.703125,-22.94921875,-15.625,-32.2265625,-103.02734375,0.0
70.80859375,-69.3359375,-32.71484375,-20.5078125,-18.5546875,-124.0234375,0.0
70.8125,-13.18359375,-53.22265625,-18.5546875,-41.015625,-62.01171875,0.0
70.81640625,22.4609375,-47.36328125,-17.08984375,-30.2734375,-77.63671875,0.0
70.8203125,-6.34765625,-19.04296875,-25.390625,-3.90625,-151.3671875,0.0
70.82421875,-76.66015625,-31.25,-74.70703125,-41.50390625,-177.734375,0.0
70.828125,-70.80078125,-45.41015625,-86.9140625,-41.9921875,-144.04296875,0.0
70.83203125,-18.06640625,-40.0390625,-31.25,-16.6015625,-124.51171875,0.0
70.8359375,-7.8125,-27.34375,-35.15625,-21.484375,-123.53515625,0.0
70.83984375,-40.0390625,-17.08984375,-42.48046875,-23.92578125,-180.6640625,0.0
70.84375,-88.8671875,-24.4140625,6.8359375,-13.18359375,-216.30859375,0.0
70.84765625,-98.6328125,-32.71484375,15.625,-19.53125,-270.5078125,0.0
70.8515625,-44.43359375,-29.296875,1.46484375,-18.06640625,-91.30859375,0.0
70.85546875,-8.30078125,-29.296875,-4.8828125,-22.4609375,88.37890625,0.0
70.859375,-31.73828125,-36.1328125,-25.390625,-33.69140625,27.83203125,0.0
70.86328125,-78.125,-34.66796875,-30.2734375,-26.85546875,18.06640625,0.0
70.8671875,-88.8671875,-49.8046875,-36.1328125,-28.80859375,51.26953125,0.0
70.87109375,-31.25,-43.9453125,-65.4296875,-35.15625,1.953125,0.0
70.875,14.16015625,-26.3671875,-75.68359375,-22.4609375,3.41796875,0.0
70.87890625,2.9296875,-20.99609375,-35.64453125,-7.32421875,91.796875,0.0
70.8828125,-55.17578125,-23.4375,-13.671875,-19.04296875,63.96484375,0.0
70.88671875,-90.33203125,-38.57421875,-13.671875,-44.921875,-6.8359375,0.0
70.890625,-21.97265625,-23.92578125,8.7890625,-32.71484375,44.43359375,0.0
70.89453125,35.15625,-27.34375,4.8828125,-20.99609375,158.69140625,0.0
70.8984375,13.18359375,-36.62109375,-20.5078125,-24.4140625,73.2421875,0.0
70.90234375,-36.1328125,-31.25,-22.94921875,-21.484375,32.71484375,0.0
70.90625,-78.61328125,-50.78125,-39.0625,-32.71484375,-5.859375,0.0
70.91015625,-47.36328125,-49.8046875,-57.6171875,-33.203125,-229.98046875,0.0
70.9140625,4.8828125,-36.1328125,-61.03515625,-31.73828125,-147.4609375,0.0
70.91796875,-1.953125,-37.109375,-48.828125,-36.1328125,57.12890625,0.0
70.921875,-59.5703125,-44.921875,-25.390625,-34.1796875,9.765625,0.0
70.92578125,-111.328125,-45.8984375,-22.94921875,-48.828125,-26.85546875,0.0
70.9296875,-89.84375,-46.875,-51.7578125,-61.03515625,2.9296875,0.0
70.93359375,-21.484375,-42.96875,-42.48046875,-39.55078125,-92.28515625,0.0
70.9375,-6.8359375,-23.4375,-4.8828125,-18.5546875,-27.83203125,0.0
70.94140625,-53.22265625,-7.8125,-25.390625,-20.01953125,21.97265625,0.0
70.9453125,-83.0078125,-19.04296875,-49.31640625,-33.69140625,-15.625,0.0
70.94921875,-72.265625,-34.66796875,-28.3203125,-31.73828125,-8.7890625,0.0
70.953125,-18.06640625,-39.55078125,-20.5078125,-14.6484375,-96.19140625,0.0
70.95703125,18.06640625,-36.62109375,-29.78515625,-15.625,-36.62109375,0.0
70.9609375,-39.0625,-42.96875,-36.62109375,-27.83203125,37.109375,0.0
70.96484375,-89.84375,-41.015625,-30.76171875,-26.3671875,-0.9765625,0.0
70.96875,-75.68359375,-31.73828125,-26.85546875,-17.08984375,-106.93359375,0.0
70.97265625,-25.390625,-18.5546875,-11.23046875,-24.90234375,-143.5546875,0.0
70.9765625,-9.27734375,-31.25,-39.55078125,-33.69140625,-11.23046875,0.0
70.98046875,-47.8515625,-50.29296875,-73.2421875,-31.25,-1.953125,0.0
70.984375,-88.8671875,-44.921875,-41.9921875,-33.203125,-62.5,0.0
70.98828125,-84.9609375,-42.96875,-26.85546875,-31.25,-72.75390625,0.0
70.9921875,-37.59765625,-30.76171875,-22.94921875,-20.99609375,-33.203125,0.0
70.99609375,2.9296875,-22.94921875,-49.31640625,-17.578125,61.5234375,0.0
71.0,-13.671875,-39.55078125,-69.3359375,-24.4140625,98.6328125,0.0
71.00390625,-61.03515625,-48.33984375,-35.64453125,-27.34375,43.45703125,0.0
71.0078125,-77.63671875,-41.015625,-19.53125,-21.97265625,-42.48046875,0.0
71.01171875,-26.85546875,-40.52734375,-6.34765625,-29.78515625,-80.078125,0.0
71.015625,22.94921875,-27.34375,-6.8359375,-30.2734375,-13.671875,0.0
71.01953125,-12.20703125,-27.34375,-23.92578125,-27.34375,-22.94921875,0.0
71.0234375,-85.9375,-46.875,-35.64453125,-40.52734375,-46.875,0.0
71.02734375,-103.02734375,-44.921875,-59.08203125,-43.9453125,-58.59375,0.0
71.03125,-42.96875,-20.5078125,-48.33984375,-41.9921875,-65.4296875,0.0
71.03515625,-14.6484375,-15.625,-21.97265625,-42.48046875,-36.62109375,0.0
71.0390625,-25.390625,-15.625,-35.64453125,-32.2265625,-19.04296875,0.0
71.04296875,-64.94140625,-24.4140625,-37.59765625,-33.203125,-54.19921875,0.0
71.046875,-89.35546875,-44.921875,-41.015625,-49.31640625,-45.8984375,0.0
71.05078125,-43.45703125,-39.55078125,-40.0390625,-35.64453125,16.11328125,0.0
71.0546875,0.0,-35.64453125,-22.4609375,-12.6953125,-1.46484375,0.0
71.05859375,-14.6484375,-29.78515625,-22.4609375,-24.90234375,77.63671875,0.0
71.0625,-64.94140625,-26.3671875,-3.41796875,-41.015625,87.40234375,0.0
71.06640625,-100.5859375,-38.0859375,-17.08984375,-38.0859375,4.39453125,0.0
71.0703125,-68.84765625,-30.76171875,-37.109375,-31.73828125,-50.78125,0.0
71.07421875,0.48828125,-3.90625,-44.921875,-37.109375,-37.109375,0.0
71.078125,13.671875,-1.953125,-57.12890625,-43.9453125,-9.27734375,0.0
71.08203125,-29.296875,-18.06640625,-40.0390625,-37.109375,-22.94921875,0.0
71.0859375,-56.15234375,-28.3203125,-18.06640625,-26.85546875,-90.33203125,0.0
71.08984375,-21.97265625,-32.71484375,-17.578125,-25.87890625,-139.6484375,0.0
71.09375,22.94921875,-28.3203125,-31.25,-45.41015625,-94.23828125,0.0
71.09765625,32.2265625,-21.97265625,-10.25390625,-42.48046875,-16.6015625,0.0
71.1015625,-1.953125,-32.71484375,-33.69140625,-29.296875,-44.921875,0.0
71.10546875,-26.85546875,-43.45703125,-61.5234375,-30.76171875,-96.19140625,0.0
71.109375,5.859375,-48.33984375,-33.203125,-33.203125,-9.27734375,0.0
71.11328125,37.109375,-37.59765625,-37.59765625,-39.0625,13.18359375,0.0
71.1171875,54.6875,0.0,-43.9453125,-24.4140625,-10.25390625,0.0
71.12109375,21.97265625,-5.37109375,-25.390625,-26.3671875,-16.11328125,0.0
71.125,-18.5546875,-27.83203125,-24.90234375,-46.38671875,-73.73046875,0.0
71.12890625,-5.37109375,-34.1796875,-47.36328125,-48.33984375,8.7890625,0.0
71.1328125,55.6640625,-25.87890625,-18.06640625,-39.55078125,29.78515625,0.0
71.13671875,88.8671875,-10.25390625,-3.41796875,-37.109375,-53.22265625,0.0
71.140625,28.80859375,-29.296875,-21.484375,-37.59765625,-43.9453125,0.0
71.14453125,-30.2734375,-56.640625,-49.8046875,-47.36328125,-83.49609375,0.0
71.1484375,-20.01953125,-40.52734375,-50.29296875,-47.8515625,-114.74609375,0.0
71.15234375,40.0390625,-18.5546875,-18.5546875,-36.1328125,-56.640625,0.0
71.15625,71.77734375,-16.6015625,-18.06640625,-33.69140625,-78.61328125,0.0
71.16015625,31.73828125,-9.765625,-26.85546875,-43.9453125,-82.03125,0.0
71.1640625,-36.62109375,-19.04296875,-15.13671875,-54.6875,2.44140625,0.0
71.16796875,-49.8046875,-36.1328125,-15.625,-64.94140625,67.87109375,0.0
71.171875,8.7890625,-24.90234375,-23.92578125,-67.3828125,16.6015625,0.0
71.17578125,40.0390625,-17.578125,-17.08984375,-43.45703125,-15.625,0.0
71.1796875,27.34375,-25.390625,-23.4375,-41.50390625,-16.11328125,0.0
71.18359375,-5.37109375,-54.6875,-57.6171875,-61.03515625,-64.453125,0.0
71.1875,3.41796875,-61.5234375,-42.96875,-56.15234375,-58.10546875,0.0
71.19140625,79.1015625,-18.06640625,-9.765625,-32.2265625,-40.0390625,0.0
71.1953125,135.7421875,1.46484375,-13.671875,-1.953125,0.48828125,0.0
71.19921875,121.09375,-6.8359375,-15.13671875,16.6015625,70.80078125,0.0
71.203125,56.640625,-25.390625,-23.92578125,19.04296875,40.52734375,0.0
71.20703125,47.8515625,-32.2265625,-35.64453125,14.16015625,-13.18359375,0.0
71.2109375,113.28125,-16.6015625,-17.08984375,16.11328125,-20.99609375,0.0
71.21484375,156.73828125,-0.9765625,19.04296875,41.015625,10.7421875,0.0
71.21875,126.953125,-14.16015625,15.625,52.24609375,52.734375,0.0
71.22265625,45.8984375,-41.50390625,10.25390625,35.64453125,7.8125,0.0
71.2265625,11.23046875,-36.62109375,14.6484375,23.92578125,-54.19921875,0.0
71.23046875,52.734375,-20.5078125,8.30078125,23.92578125,1.46484375,0.0
71.234375,89.84375,-28.3203125,-4.39453125,41.9921875,-45.8984375,0.0
71.23828125,69.3359375,-26.3671875,-3.41796875,39.55078125,-180.6640625,0.0
71.2421875,-3.41796875,-27.83203125,-9.27734375,22.4609375,-156.25,0.0
71.24609375,-26.85546875,-33.69140625,-29.296875,40.52734375,-90.33203125,0.0
71.25,17.08984375,-34.1796875,-27.83203125,34.66796875,-163.57421875,0.0
71.25390625,62.98828125,-24.4140625,-15.625,23.92578125,-201.66015625,0.0
71.2578125,45.41015625,-26.85546875,3.41796875,34.66796875,-217.28515625,0.0
71.26171875,-27.83203125,-32.2265625,39.0625,32.71484375,-196.77734375,0.0
71.265625,-67.87109375,-20.99609375,48.33984375,38.0859375,-65.91796875,0.0
71.26953125,-59.08203125,-25.87890625,14.16015625,23.92578125,-58.10546875,0.0
71.2734375,-22.94921875,-30.76171875,2.9296875,16.6015625,-144.04296875,0.0
71.27734375,-19.53125,-21.484375,4.8828125,30.2734375,-142.08984375,0.0
71.28125,-93.75,-18.06640625,-30.76171875,29.78515625,-166.50390625,0.0
71.28515625,-150.390625,-23.92578125,-35.64453125,20.01953125,-112.79296875,0.0
71.2890625,-136.23046875,-42.96875,-20.01953125,-6.8359375,-76.66015625,0.0
71.29296875,-65.91796875,-46.875,-16.11328125,-9.765625,-94.7265625,0.0
71.296875,-47.8515625,-33.203125,-6.34765625,18.5546875,-4.39453125,0.0
71.30078125,-124.51171875,-21.97265625,-23.4375,2.9296875,-36.1328125,0.0
71.3046875,-175.78125,-32.2265625,-42.48046875,-35.64453125,-84.47265625,0.0
71.30859375,-157.2265625,-41.015625,-41.50390625,-41.50390625,-22.4609375,0.0
71.3125,-82.51953125,-38.0859375,-18.5546875,-22.4609375,100.09765625,0.0
71.31640625,-16.11328125,-23.92578125,3.41796875,-10.25390625,111.328125,0.0
71.3203125,-61.03515625,-19.04296875,-12.6953125,-29.296875,97.16796875,0.0
71.32421875,-144.04296875,-53.22265625,-20.5078125,-44.43359375,66.40625,0.0
71.328125,-146.484375,-63.96484375,-14.6484375,-33.69140625,89.84375,0.0
71.33203125,-81.54296875,-38.0859375,-26.3671875,-40.52734375,166.9921875,0.0
71.3359375,-44.921875,-17.08984375,-20.99609375,-50.29296875,164.0625,0.0
71.33984375,-88.37890625,-6.8359375,0.0,-27.83203125,13.18359375,0.0
71.34375,-139.6484375,-35.15625,-20.5078125,-25.390625,-49.31640625,0.0
71.34765625,-148.4375,-47.8515625,-35.15625,-38.0859375,-45.41015625,0.0
71.3515625,-114.2578125,-41.50390625,-36.1328125,-22.94921875,-67.87109375,0.0
71.35546875,-78.61328125,-47.36328125,-43.9453125,-41.9921875,-3.90625,0.0
71.359375,-80.078125,-38.57421875,-21.97265625,-20.99609375,-67.3828125,0.0
71.36328125,-124.51171875,-41.9921875,-23.4375,4.8828125,-64.453125,0.0
71.3671875,-146.97265625,-51.26953125,-39.0625,-46.38671875,13.671875,0.0
71.37109375,-141.6015625,-51.7578125,-27.83203125,-59.08203125,39.55078125,0.0
71.375,-135.25390625,-45.8984375,-27.34375,-49.8046875,36.1328125,0.0
71.37890625,-176.26953125,-21.484375,-23.92578125,-27.83203125,19.53125,0.0
71.3828125,-291.9921875,-21.484375,-28.3203125,-17.08984375,20.99609375,0.0
71.38671875,-378.90625,-40.52734375,-50.78125,-47.36328125,0.9765625,0.0
71.390625,-345.703125,-50.29296875,-31.25,-50.78125,-54.19921875,0.0
71.39453125,-283.203125,-27.83203125,-3.90625,-15.625,-48.828125,0.0
71.3984375,-327.1484375,-0.9765625,-26.3671875,-44.43359375,-17.08984375,0.0
71.40234375,-423.33984375,-16.6015625,-45.8984375,-73.73046875,-24.4140625,0.0
71.40625,-471.19140625,-71.2890625,-37.109375,-60.546875,-15.625,0.0
71.41015625,-442.87109375,-78.125,-46.38671875,-67.3828125,19.04296875,0.0
71.4140625,-394.04296875,-35.15625,-59.5703125,-67.3828125,-18.5546875,0.0
71.41796875,-387.20703125,-36.62109375,-55.6640625,-63.4765625,-14.6484375,0.0
71.421875,-446.2890625,-66.40625,-69.82421875,-79.58984375,44.921875,0.0
71.42578125,-479.98046875,-71.2890625,-65.4296875,-90.33203125,-4.8828125,0.0
71.4296875,-430.6640625,-40.0390625,-36.1328125,-81.0546875,-54.6875,0.0
71.43359375,-362.3046875,-19.04296875,-28.80859375,-73.2421875,-13.671875,0.0
71.4375,-368.65234375,-16.6015625,-26.85546875,-72.265625,-26.85546875,0.0
71.44140625,-426.26953125,-14.6484375,-29.78515625,-70.80078125,-93.75,0.0
71.4453125,-442.87109375,-5.859375,-35.64453125,-78.61328125,-81.54296875,0.0
71.44921875,-395.99609375,-1.46484375,-16.6015625,-64.94140625,-3.41796875,0.0
71.453125,-331.54296875,-37.109375,-4.8828125,-38.57421875,35.64453125,0.0
71.45703125,-323.73046875,-76.171875,-16.6015625,-53.7109375,-3.90625,0.0
71.4609375,-362.3046875,-68.359375,-16.6015625,-70.80078125,6.34765625,0.0
71.46484375,-395.5078125,-62.98828125,-34.66796875,-87.40234375,-2.44140625,0.0
71.46875,-361.328125,-50.78125,-30.76171875,-78.61328125,0.9765625,0.0
71.47265625,-286.62109375,-20.5078125,-0.9765625,-70.3125,12.6953125,0.0
71.4765625,-206.0546875,-15.625,-2.44140625,-69.3359375,-57.6171875,0.0
71.48046875,-171.38671875,-50.29296875,-12.6953125,-55.17578125,-102.05078125,0.0
71.484375,-151.85546875,-67.3828125,-3.90625,-58.59375,-95.21484375,0.0
71.48828125,-123.046875,-46.875,-6.8359375,-120.1171875,-21.97265625,0.0
71.4921875,-49.31640625,5.37109375,-11.23046875,-141.11328125,19.53125,0.0
71.49609375,42.48046875,-0.9765625,10.25390625,-93.26171875,-10.7421875,0.0
71.5,21.97265625,32.71484375,0.48828125,-87.890625,-18.06640625,0.0
71.50390625,-18.5546875,137.6953125,-6.34765625,-88.8671875,52.734375,0.0
71.5078125,14.16015625,114.74609375,5.859375,-96.19140625,53.22265625,0.0
71.51171875,40.0390625,30.76171875,-3.41796875,-149.90234375,48.828125,0.0
71.515625,46.38671875,35.15625,5.37109375,-186.03515625,62.01171875,0.0
71.51953125,49.31640625,111.328125,29.296875,-167.48046875,-7.32421875,0.0
71.5234375,12.6953125,142.578125,7.8125,-163.57421875,-45.8984375,0.0
71.52734375,-38.0859375,163.57421875,-55.17578125,-203.125,-6.34765625,0.0
71.53125,-32.71484375,218.26171875,-73.73046875,-236.81640625,-79.1015625,0.0
71.53515625,-15.13671875,258.30078125,-69.82421875,-225.5859375,-86.42578125,0.0
71.5390625,-62.5,322.265625,-44.43359375,-186.5234375,31.73828125,0.0
71.54296875,-151.3671875,403.80859375,-23.4375,-210.9375,9.27734375,0.0
71.546875,-201.171875,421.875,-9.765625,-244.62890625,-117.1875,0.0
71.55078125,-165.52734375,438.96484375,-11.23046875,-223.6328125,-111.81640625,0.0
71.5546875,-109.86328125,493.1640625,-49.8046875,-190.4296875,-34.66796875,0.0
71.55859375,-125.0,509.27734375,-42.48046875,-171.38671875,-53.7109375,0.0
71.5625,-178.7109375,513.671875,-30.76171875,-182.6171875,-24.4140625,0.0
71.56640625,-175.78125,538.0859375,-24.90234375,-174.31640625,-10.25390625,0.0
71.5703125,-118.1640625,572.265625,-16.11328125,-137.6953125,-44.43359375,0.0
71.57421875,-56.640625,617.67578125,-4.8828125,-115.72265625,-22.4609375,0.0
71.578125,-77.1484375,645.01953125,6.8359375,-91.30859375,-114.2578125,0.0
71.58203125,-120.1171875,654.296875,9.765625,-69.82421875,-69.82421875,0.0
71.5859375,-115.72265625,657.71484375,7.8125,-68.359375,8.7890625,0.0
71.58984375,-83.49609375,639.16015625,4.39453125,-61.5234375,-25.390625,0.0
71.59375,-6.8359375,642.578125,13.18359375,-43.45703125,-76.171875,0.0
71.59765625,18.5546875,651.3671875,8.7890625,-38.0859375,-99.12109375,0.0
71.6015625,-29.296875,629.39453125,-13.18359375,-26.85546875,-71.77734375,0.0
71.60546875,-42.48046875,597.65625,-21.484375,-24.90234375,-46.38671875,0.0
71.609375,-7.32421875,568.84765625,-18.06640625,-26.3671875,-60.546875,0.0
71.61328125,38.57421875,555.17578125,1.46484375,-14.16015625,-49.31640625,0.0
71.6171875,34.66796875,531.73828125,-5.37109375,-12.20703125,-20.01953125,0.0
71.62109375,6.34765625,513.18359375,-20.99609375,3.41796875,-65.91796875,0.0
71.625,-34.66796875,480.46875,-17.08984375,1.953125,-79.58984375,0.0
71.62890625,-20.99609375,446.2890625,-18.06640625,-20.01953125,-85.44921875,0.0
71.6328125,63.4765625,448.2421875,-6.8359375,-0.9765625,-13.18359375,0.0
71.63671875,104.00390625,449.21875,26.85546875,27.83203125,22.4609375,0.0
71.640625,64.453125,435.546875,22.4609375,32.2265625,16.6015625,0.0
71.64453125,22.94921875,408.69140625,-45.8984375,20.01953125,-55.17578125,0.0
71.6484375,34.1796875,361.81640625,-94.7265625,4.39453125,-73.73046875,0.0
71.65234375,78.61328125,349.12109375,-87.890625,12.20703125,-32.71484375,0.0
71.65625,111.81640625,345.21484375,-89.84375,30.2734375,-8.30078125,0.0
71.66015625,81.54296875,312.98828125,-97.16796875,33.203125,7.32421875,0.0
71.6640625,39.55078125,291.015625,-84.47265625,26.85546875,2.9296875,0.0
71.66796875,50.78125,271.97265625,-71.77734375,26.85546875,-51.7578125,0.0
71.671875,101.5625,268.06640625,-53.7109375,49.31640625,-68.84765625,0.0
71.67578125,117.1875,264.6484375,-38.57421875,52.734375,-45.41015625,0.0
71.6796875,84.47265625,243.1640625,-38.57421875,40.52734375,-25.87890625,0.0
71.68359375,31.73828125,223.14453125,-40.0390625,34.66796875,-32.2265625,0.0
71.6875,46.875,218.75,-19.53125,60.546875,-34.1796875,0.0
71.69140625,87.40234375,204.1015625,-15.13671875,64.453125,-13.671875,0.0
71.6953125,116.2109375,186.03515625,-29.78515625,45.41015625,-33.69140625,0.0
71.69921875,96.19140625,182.6171875,-41.015625,32.2265625,51.7578125,0.0
71.703125,7.32421875,159.1796875,-48.828125,18.06640625,-36.1328125,0.0
71.70703125,3.90625,138.671875,-36.62109375,22.4609375,-56.640625,0.0
71.7109375,71.77734375,142.08984375,-23.4375,28.80859375,85.44921875,0.0
71.71484375,106.4453125,138.671875,-18.06640625,45.41015625,-18.06640625,0.0
71.71875,92.7734375,127.9296875,-30.76171875,54.6875,-77.63671875,0.0
71.72265625,39.0625,122.55859375,-46.38671875,31.73828125,-132.8125,0.0
71.7265625,24.4140625,93.26171875,-45.41015625,16.11328125,-268.5546875,0.0
71.73046875,87.40234375,83.0078125,-22.94921875,32.71484375,-312.01171875,0.0
71.734375,136.71875,97.16796875,-0.48828125,39.0625,-221.6796875,0.0
71.73828125,102.5390625,95.703125,14.16015625,60.546875,-134.765625,0.0
71.7421875,20.5078125,55.17578125,12.20703125,34.1796875,-188.96484375,0.0
71.74609375,-3.41796875,44.43359375,16.6015625,-0.48828125,-83.49609375,0.0
71.75,53.7109375,58.10546875,41.50390625,11.71875,20.99609375,0.0
71.75390625,98.14453125,52.24609375,51.7578125,22.4609375,16.6015625,0.0
71.7578125,81.0546875,53.22265625,41.9921875,31.25,47.8515625,0.0
71.76171875,29.296875,44.921875,28.80859375,24.90234375,42.48046875,0.0
71.765625,18.06640625,44.43359375,39.0625,18.5546875,-14.16015625,0.0
71.76953125,55.17578125,50.78125,54.6875,20.01953125,12.20703125,0.0
71.7734375,87.890625,44.921875,45.8984375,23.4375,145.99609375,0.0
71.77734375,98.6328125,55.6640625,46.875,35.15625,170.41015625,0.0
71.78125,75.68359375,67.3828125,46.38671875,47.36328125,98.14453125,0.0
71.78515625,39.0625,51.26953125,19.04296875,50.78125,62.98828125,0.0
71.7890625,55.17578125,54.19921875,20.01953125,56.640625,61.5234375,0.0
71.79296875,106.4453125,78.125,62.98828125,63.4765625,-6.8359375,0.0
71.796875,107.91015625,67.3828125,78.125,60.05859375,-69.82421875,0.0
71.80078125,63.4765625,54.19921875,48.828125,48.828125,9.765625,0.0
71.8046875,7.8125,48.828125,27.83203125,30.76171875,37.109375,0.0
71.80859375,18.5546875,52.734375,45.41015625,31.73828125,-39.55078125,0.0
71.8125,103.515625,80.56640625,62.98828125,45.41015625,-35.64453125,0.0
71.81640625,140.625,106.93359375,65.91796875,53.22265625,-35.15625,0.0
71.8203125,93.26171875,102.05078125,51.7578125,45.8984375,-44.43359375,0.0
71.82421875,29.296875,77.1484375,18.5546875,26.85546875,-73.2421875,0.0
71.828125,27.83203125,68.359375,8.7890625,29.78515625,-148.4375,0.0
71.83203125,68.359375,59.5703125,34.66796875,22.4609375,-148.92578125,0.0
71.8359375,87.40234375,51.7578125,48.33984375,16.6015625,-127.44140625,0.0
71.83984375,53.22265625,52.24609375,19.04296875,15.13671875,-54.19921875,0.0
71.84375,4.8828125,39.0625,-0.48828125,-5.37109375,-17.578125,0.0
71.84765625,9.765625,21.484375,-15.13671875,-6.8359375,-43.45703125,0.0
71.8515625,60.05859375,34.66796875,-21.484375,9.27734375,-3.90625,0.0
71.85546875,83.49609375,45.41015625,-0.9765625,16.6015625,32.71484375,0.0
71.859375,47.8515625,30.2734375,-20.01953125,2.9296875,15.13671875,0.0
71.86328125,14.6484375,36.62109375,-20.5078125,13.18359375,-5.859375,0.0
71.8671875,2.9296875,35.64453125,-15.625,9.765625,-13.18359375,0.0
71.87109375,22.94921875,15.13671875,-27.34375,-8.30078125,-47.36328125,0.0
71.875,60.546875,11.23046875,-10.7421875,3.90625,-52.734375,0.0
71.87890625,47.36328125,13.18359375,-17.578125,20.5078125,-74.21875,0.0
71.8828125,8.30078125,10.25390625,-35.15625,14.6484375,-48.828125,0.0
71.88671875,-38.0859375,-8.7890625,-37.109375,-16.11328125,-16.11328125,0.0
71.890625,-0.48828125,-16.11328125,-22.4609375,-16.6015625,46.875,0.0
71.89453125,60.546875,-4.39453125,-6.34765625,-12.20703125,44.921875,0.0
71.8984375,27.34375,-14.6484375,-21.97265625,-23.4375,-11.71875,0.0
71.90234375,-39.0625,-25.390625,-50.78125,-29.78515625,-6.34765625,0.0
71.90625,-31.25,-31.25,-68.359375,-28.80859375,0.0,0.0
71.91015625,19.53125,-43.45703125,-52.24609375,-29.296875,-35.64453125,0.0
71.9140625,51.26953125,-42.96875,-20.5078125,-30.76171875,-20.5078125,0.0
71.91796875,66.40625,-35.15625,-8.30078125,-11.71875,-38.57421875,0.0
71.921875,0.9765625,-38.0859375,-13.18359375,-29.296875,-79.1015625,0.0
71.92578125,-52.24609375,-46.875,-21.484375,-51.26953125,-16.6015625,0.0
71.9296875,-25.390625,-56.640625,-29.78515625,-40.0390625,-12.6953125,0.0
71.93359375,24.4140625,-52.24609375,-38.57421875,-33.69140625,-75.1953125,0.0
71.9375,36.1328125,-55.17578125,-26.3671875,-24.90234375,-77.1484375,0.0
71.94140625,-25.87890625,-66.89453125,-22.94921875,-31.25,-41.9921875,0.0
71.9453125,-86.9140625,-64.94140625,-21.97265625,-51.7578125,38.57421875,0.0
71.94921875,-68.359375,-65.91796875,-16.6015625,-38.57421875,8.30078125,0.0
71.953125,-24.4140625,-72.265625,3.41796875,-28.3203125,-49.31640625,0.0
71.95703125,-12.20703125,-66.40625,17.578125,-34.1796875,21.484375,0.0
71.9609375,-42.96875,-66.40625,-9.765625,-33.69140625,-0.9765625,0.0
71.96484375,-104.00390625,-84.47265625,-35.64453125,-48.33984375,-65.91796875,0.0
71.96875,-83.0078125,-99.609375,-27.83203125,-52.734375,-39.55078125,0.0
71.97265625,-11.23046875,-87.890625,-13.18359375,-33.69140625,-49.8046875,0.0
71.9765625,0.9765625,-83.0078125,-15.625,-25.87890625,-83.0078125,0.0
71.98046875,-41.50390625,-92.28515625,-23.92578125,-38.0859375,-44.43359375,0.0
71.984375,-81.54296875,-89.35546875,-16.6015625,-36.1328125,-30.2734375,0.0
71.98828125,-76.171875,-91.796875,-7.8125,-43.45703125,-95.703125,0.0
71.9921875,-2.44140625,-89.84375,-11.23046875,-42.96875,-80.56640625,0.0
71.99609375,24.90234375,-87.40234375,-13.18359375,-36.62109375,18.06640625,0.0
72.0,-36.1328125,-96.19140625,-18.06640625,-24.4140625,54.6875,0.0
72.00390625,-82.03125,-110.83984375,-29.78515625,-33.69140625,34.1796875,0.0
72.0078125,-62.01171875,-109.375,-51.7578125,-54.6875,53.22265625,0.0
72.01171875,2.44140625,-93.26171875,-31.25,-39.0625,35.15625,0.0
72.015625,36.62109375,-70.3125,15.13671875,-23.92578125,-1.46484375,0.0
72.01953125,-13.671875,-67.3828125,-5.859375,-27.34375,42.48046875,0.0
72.0234375,-77.1484375,-84.9609375,-27.83203125,-27.83203125,-17.578125,0.0
72.02734375,-77.1484375,-90.33203125,-6.8359375,-21.484375,-79.1015625,0.0
72.03125,-13.18359375,-90.8203125,0.9765625,-22.4609375,-77.63671875,0.0
72.03515625,30.76171875,-95.703125,-2.9296875,-15.13671875,20.99609375,0.0
72.0390625,-18.06640625,-97.16796875,-6.8359375,-17.578125,47.8515625,0.0
72.04296875,-73.73046875,-97.65625,-15.13671875,-35.15625,22.4609375,0.0
72.046875,-69.3359375,-115.72265625,-7.32421875,-34.1796875,71.2890625,0.0
72.05078125,-11.23046875,-111.328125,5.859375,3.41796875,1.953125,0.0
72.0546875,27.34375,-96.6796875,-5.859375,-5.37109375,-39.0625,0.0
72.05859375,-15.625,-103.515625,2.9296875,-38.57421875,-15.13671875,0.0
72.0625,-80.078125,-109.375,19.04296875,-32.2265625,-27.34375,0.0
72.06640625,-89.84375,-120.60546875,11.23046875,-38.57421875,-73.73046875,0.0
72.0703125,-51.26953125,-114.74609375,6.34765625,-54.19921875,-136.23046875,0.0
72.07421875,6.8359375,-90.33203125,11.23046875,-36.1328125,-115.72265625,0.0
72.078125,3.90625,-101.07421875,-2.9296875,-15.625,-65.4296875,0.0
72.08203125,-67.87109375,-119.140625,-22.4609375,-31.25,-46.38671875,0.0
72.0859375,-91.30859375,-109.375,-17.578125,-46.875,-37.109375,0.0
72.08984375,-61.5234375,-109.375,-28.80859375,-57.12890625,-84.9609375,0.0
72.09375,-23.4375,-121.58203125,-32.71484375,-43.45703125,-128.90625,0.0
72.09765625,-19.04296875,-115.234375,1.953125,-5.859375,-85.44921875,0.0
72.1015625,-69.3359375,-115.234375,5.859375,-21.97265625,12.6953125,0.0
72.10546875,-97.16796875,-131.8359375,-24.4140625,-44.43359375,38.0859375,0.0
72.109375,-60.546875,-119.62890625,-25.87890625,-22.94921875,-87.890625,0.0
72.11328125,20.5078125,-100.5859375,-11.71875,-17.08984375,-110.83984375,0.0
72.1171875,35.15625,-97.65625,-5.859375,6.8359375,-3.41796875,0.0
72.12109375,-50.29296875,-107.91015625,-21.484375,-4.8828125,-14.6484375,0.0
72.125,-85.44921875,-122.0703125,-46.875,-61.5234375,-69.82421875,0.0
72.12890625,-35.64453125,-126.46484375,-34.1796875,-62.98828125,-56.640625,0.0
72.1328125,16.6015625,-118.65234375,-22.4609375,-49.8046875,-131.8359375,0.0
72.13671875,15.625,-106.4453125,-34.1796875,-43.9453125,-104.4921875,0.0
72.140625,-14.6484375,-113.28125,-37.109375,-42.96875,-67.87109375,0.0
72.14453125,-45.41015625,-111.81640625,-28.80859375,-40.0390625,-31.73828125,0.0
72.1484375,-50.29296875,-104.4921875,-25.87890625,-44.921875,-23.92578125,0.0
72.15234375,7.32421875,-100.5859375,-37.59765625,-47.8515625,-82.03125,0.0
72.15625,35.64453125,-100.09765625,-40.52734375,-44.43359375,-1.953125,0.0
72.16015625,-15.13671875,-97.65625,-49.31640625,-46.38671875,22.4609375,0.0
72.1640625,-70.80078125,-84.9609375,-64.453125,-50.29296875,-18.5546875,0.0
72.16796875,-65.4296875,-89.35546875,-31.25,-33.69140625,-75.1953125,0.0
72.171875,-10.25390625,-98.14453125,5.859375,-33.69140625,-61.5234375,0.0
72.17578125,4.8828125,-94.23828125,3.41796875,-37.109375,-1.46484375,0.0
72.1796875,-28.80859375,-93.26171875,-7.32421875,-9.765625,-57.6171875,0.0
72.18359375,-57.6171875,-85.9375,-16.6015625,-2.9296875,-99.609375,0.0
72.1875,-44.921875,-87.40234375,-21.484375,-11.71875,-108.88671875,0.0
72.19140625,7.8125,-83.0078125,-8.30078125,-0.9765625,-30.76171875,0.0
72.1953125,40.52734375,-72.265625,3.90625,11.71875,-35.64453125,0.0
72.19921875,2.44140625,-77.1484375,-9.765625,7.8125,-42.48046875,0.0
72.203125,-37.109375,-87.40234375,-33.69140625,-7.32421875,-14.16015625,0.0
72.20703125,-36.1328125,-95.21484375,-25.87890625,-15.625,-86.42578125,0.0
72.2109375,-9.27734375,-97.16796875,-11.71875,-11.23046875,-68.359375,0.0
72.21484375,39.0625,-83.984375,-13.18359375,-6.34765625,-25.390625,0.0
72.21875,20.5078125,-92.7734375,-24.4140625,-13.671875,13.18359375,0.0
72.22265625,-44.43359375,-107.91015625,-42.48046875,-28.3203125,4.39453125,0.0
72.2265625,-63.4765625,-104.98046875,-34.1796875,-34.1796875,-26.85546875,0.0
72.23046875,-16.6015625,-114.2578125,-23.4375,-23.92578125,46.875,0.0
72.234375,37.109375,-103.515625,-28.3203125,15.13671875,-4.39453125,0.0
72.23828125,15.13671875,-84.9609375,-16.6015625,26.85546875,-24.90234375,0.0
72.2421875,-44.43359375,-83.984375,-4.39453125,-4.8828125,-11.23046875,0.0
72.24609375,-53.22265625,-88.8671875,5.859375,-19.04296875,-111.328125,0.0
72.25,-15.13671875,-98.6328125,-9.27734375,-29.78515625,-132.32421875,0.0
72.25390625,36.1328125,-92.7734375,-41.9921875,-18.5546875,-43.45703125,0.0
72.2578125,26.85546875,-83.984375,-31.73828125,-3.90625,-10.25390625,0.0
72.26171875,-36.62109375,-106.4453125,-32.71484375,-20.5078125,-30.76171875,0.0
72.265625,-53.22265625,-122.55859375,-37.109375,-39.55078125,-28.80859375,0.0
72.26953125,-20.5078125,-95.21484375,-1.46484375,-33.203125,-27.34375,0.0
72.2734375,21.97265625,-81.0546875,20.5078125,-32.71484375,-86.9140625,0.0
72.27734375,26.3671875,-75.68359375,13.671875,-30.2734375,-70.3125,0.0
72.28125,-21.484375,-79.58984375,-7.8125,-26.3671875,-27.83203125,0.0
72.28515625,-61.03515625,-97.16796875,-20.01953125,-38.0859375,-69.82421875,0.0
72.2890625,-40.0390625,-106.4453125,-20.99609375,-49.31640625,12.6953125,0.0
72.29296875,31.73828125,-89.35546875,-16.11328125,-33.203125,2.44140625,0.0
72.296875,41.015625,-73.73046875,-20.99609375,-29.78515625,-72.265625,0.0
72.30078125,-16.6015625,-85.9375,-18.5546875,-34.66796875,6.8359375,0.0
72.3046875,-55.6640625,-103.515625,0.48828125,-40.0390625,31.73828125,0.0
72.30859375,-47.8515625,-110.3515625,5.37109375,-48.828125,-58.59375,0.0
72.3125,0.9765625,-99.609375,20.5078125,-32.71484375,-41.9921875,0.0
72.31640625,16.6015625,-77.1484375,28.3203125,-22.94921875,18.5546875,0.0
72.3203125,-38.0859375,-78.61328125,11.23046875,-31.25,13.18359375,0.0
72.32421875,-93.75,-105.46875,-11.23046875,-39.0625,35.64453125,0.0
72.328125,-86.9140625,-102.05078125,-4.8828125,-30.76171875,45.41015625,0.0
72.33203125,-27.34375,-78.61328125,29.296875,-17.578125,89.84375,0.0
72.3359375,17.08984375,-72.265625,36.62109375,0.9765625,38.57421875,0.0
72.33984375,-10.7421875,-76.66015625,11.23046875,0.9765625,-34.1796875,0.0
72.34375,-56.15234375,-82.03125,-10.25390625,-21.97265625,-21.484375,0.0
72.34765625,-64.453125,-83.49609375,-38.57421875,-42.96875,-48.828125,0.0
72.3515625,-9.765625,-79.1015625,-30.2734375,-25.87890625,-66.40625,0.0
72.35546875,30.76171875,-77.1484375,-1.953125,-10.7421875,-54.19921875,0.0
72.359375,-4.8828125,-70.80078125,-0.48828125,-30.2734375,-12.6953125,0.0
72.36328125,-49.31640625,-69.82421875,3.41796875,-33.203125,3.90625,0.0
72.3671875,-56.640625,-73.73046875,-15.13671875,-40.0390625,-8.30078125,0.0
72.37109375,-9.765625,-79.1015625,-20.01953125,-41.015625,11.71875,0.0
72.375,34.66796875,-77.63671875,0.0,-23.4375,110.3515625,0.0
72.37890625,13.671875,-67.3828125,0.48828125,-15.625,101.5625,0.0
72.3828125,-37.59765625,-64.453125,-13.18359375,-35.15625,-66.89453125,0.0
72.38671875,-39.0625,-63.96484375,-13.671875,-48.828125,-80.56640625,0.0
72.390625,37.109375,-40.52734375,20.01953125,-32.71484375,-67.3828125,0.0
72.39453125,83.49609375,-45.8984375,37.109375,-28.3203125,-108.3984375,0.0
72.3984375,53.7109375,-73.73046875,23.4375,-41.015625,-76.171875,0.0
72.40234375,5.859375,-74.21875,13.18359375,-42.48046875,-11.23046875,0.0
72.40625,-3.90625,-78.125,7.32421875,-47.8515625,-57.6171875,0.0
72.41015625,51.26953125,-71.2890625,4.8828125,-39.55078125,-120.1171875,0.0
72.4140625,97.65625,-53.22265625,5.859375,-18.06640625,-17.08984375,0.0
72.41796875,66.89453125,-45.41015625,-2.9296875,-28.80859375,64.94140625,0.0
72.421875,8.30078125,-41.015625,-13.18359375,-35.64453125,42.96875,0.0
72.42578125,-8.30078125,-46.875,-11.23046875,-32.2265625,-31.73828125,0.0
72.4296875,8.30078125,-66.89453125,-1.953125,-49.8046875,7.32421875,0.0
72.43359375,62.01171875,-54.19921875,0.0,-41.50390625,22.4609375,0.0
72.4375,72.265625,-43.9453125,-5.37109375,-31.73828125,-6.34765625,0.0
72.44140625,-2.9296875,-64.94140625,-9.765625,-31.73828125,-5.37109375,0.0
72.4453125,-41.50390625,-57.12890625,-8.7890625,-43.9453125,6.8359375,0.0
72.44921875,-4.8828125,-51.26953125,-0.48828125,-60.546875,-11.23046875,0.0
72.453125,35.64453125,-42.96875,4.39453125,-41.9921875,-40.52734375,0.0
72.45703125,55.17578125,-15.13671875,12.20703125,-17.578125,-26.85546875,0.0
72.4609375,22.94921875,-32.71484375,6.34765625,-7.32421875,-48.33984375,0.0
72.46484375,-48.33984375,-76.171875,-18.06640625,-43.45703125,-130.37109375,0.0
72.46875,-37.109375,-81.54296875,-17.08984375,-82.51953125,-147.94921875,0.0
72.47265625,25.87890625,-52.24609375,10.25390625,-70.3125,-30.2734375,0.0
72.4765625,17.578125,-41.015625,4.8828125,-58.59375,5.859375,0.0
72.48046875,-43.9453125,-41.50390625,-21.484375,-60.05859375,-39.0625,0.0
72.484375,-106.93359375,-47.8515625,-35.15625,-57.6171875,-104.00390625,0.0
72.48828125,-91.30859375,-25.87890625,-20.5078125,-50.78125,-149.4140625,0.0
72.4921875,-35.15625,-11.23046875,-8.7890625,-41.9921875,-71.77734375,0.0
72.49609375,-23.92578125,-47.8515625,-20.5078125,-46.875,24.90234375,0.0
72.5,-81.0546875,-65.91796875,-36.1328125,-66.40625,-38.57421875,0.0
72.50390625,-156.25,-50.29296875,-47.36328125,-80.078125,-37.109375,0.0
72.5078125,-144.53125,-50.29296875,-29.78515625,-79.1015625,5.859375,0.0
72.51171875,-89.35546875,-50.78125,-16.6015625,-82.03125,-50.78125,0.0
72.515625,-77.63671875,-35.64453125,-20.99609375,-83.0078125,-21.484375,0.0
72.51953125,-122.0703125,-31.25,-35.64453125,-81.54296875,0.0,0.0
72.5234375,-159.1796875,-55.6640625,-48.33984375,-81.54296875,-31.73828125,0.0
72.52734375,-161.1328125,-29.296875,-46.38671875,-86.42578125,55.17578125,0.0
72.53125,-102.05078125,36.1328125,-8.7890625,-59.5703125,61.5234375,0.0
72.53515625,-59.5703125,-41.50390625,-6.8359375,-49.8046875,-59.5703125,0.0
72.5390625,-114.74609375,-134.27734375,-63.4765625,-101.07421875,-30.76171875,0.0
72.54296875,-174.31640625,-116.69921875,-83.49609375,-102.5390625,-1.953125,0.0
72.546875,-192.3828125,-90.33203125,-75.1953125,-91.796875,-62.01171875,0.0
72.55078125,-126.953125,-72.75390625,-53.7109375,-100.09765625,-34.66796875,0.0
72.5546875,-79.58984375,-65.91796875,-42.96875,-92.7734375,68.359375,0.0
72.55859375,-118.65234375,-73.73046875,-52.24609375,-91.30859375,78.125,0.0
72.5625,-166.015625,-124.0234375,-60.05859375,-100.5859375,-33.69140625,0.0
72.56640625,-166.015625,-148.92578125,-62.5,-106.4453125,-34.66796875,0.0
72.5703125,-113.28125,-88.8671875,-99.609375,-92.7734375,-27.34375,0.0
72.57421875,-76.66015625,-36.1328125,-123.046875,-86.9140625,-79.58984375,0.0
72.578125,-71.77734375,-2.9296875,-123.53515625,-93.26171875,-98.14453125,0.0
72.58203125,-99.609375,1.953125,-139.16015625,-90.33203125,-104.98046875,0.0
72.5859375,-117.1875,-21.484375,-132.8125,-85.44921875,-96.6796875,0.0
72.58984375,-59.5703125,8.7890625,-113.76953125,-77.63671875,-95.703125,0.0
72.59375,-10.7421875,103.02734375,-103.02734375,-98.14453125,-55.6640625,0.0
72.59765625,-53.22265625,191.89453125,-109.375,-107.421875,-53.22265625,0.0
72.6015625,-56.15234375,206.54296875,-112.79296875,-80.078125,-96.6796875,0.0
72.60546875,-49.8046875,255.37109375,-104.98046875,-84.9609375,-55.6640625,0.0
72.609375,-56.15234375,397.94921875,-110.3515625,-105.46875,-39.0625,0.0
72.61328125,-0.9765625,557.12890625,-60.546875,-79.1015625,-23.4375,0.0
72.6171875,34.1796875,618.1640625,-32.71484375,-53.7109375,38.0859375,0.0
72.62109375,15.13671875,619.140625,-92.7734375,-50.78125,41.9921875,0.0
72.625,-27.34375,734.86328125,-117.1875,-61.5234375,-46.38671875,0.0
72.62890625,-7.8125,919.43359375,-89.35546875,-73.2421875,-36.62109375,0.0
72.6328125,55.6640625,973.14453125,-33.203125,-43.9453125,6.34765625,0.0
72.63671875,37.109375,962.890625,-30.2734375,-40.52734375,13.671875,0.0
72.640625,-74.70703125,968.26171875,-86.42578125,-84.9609375,-20.5078125,0.0
72.64453125,-139.6484375,967.7734375,-90.33203125,-82.51953125,-98.14453125,0.0
72.6484375,-152.34375,968.26171875,-51.26953125,-84.9609375,-110.83984375,0.0
72.65234375,-112.79296875,968.26171875,-17.578125,-62.98828125,-110.3515625,0.0
72.65625,-100.5859375,967.7734375,16.11328125,-47.36328125,-75.68359375,0.0
72.66015625,-152.83203125,967.7734375,31.73828125,-52.24609375,-44.43359375,0.0
72.6640625,-234.86328125,968.26171875,38.57421875,-67.3828125,-77.63671875,0.0
72.66796875,-253.90625,968.26171875,50.29296875,-75.68359375,-36.1328125,0.0
72.671875,-188.96484375,968.26171875,50.29296875,-79.1015625,-18.5546875,0.0
72.67578125,-153.80859375,967.7734375,66.89453125,-84.47265625,-34.66796875,0.0
72.6796875,-224.609375,967.7734375,106.4453125,-65.91796875,37.59765625,0.0
72.68359375,-321.2890625,967.7734375,135.25390625,-72.75390625,20.01953125,0.0
72.6875,-313.4765625,967.7734375,175.78125,-78.61328125,-13.671875,0.0
72.69140625,-277.83203125,967.7734375,247.0703125,-74.21875,20.5078125,0.0
72.6953125,-296.38671875,967.7734375,320.3125,-41.015625,-47.8515625,0.0
72.69921875,-297.8515625,968.26171875,375.9765625,-7.8125,-81.0546875,0.0
72.703125,-362.3046875,967.7734375,393.06640625,-42.96875,-54.19921875,0.0
72.70703125,-373.53515625,968.26171875,407.2265625,-61.5234375,-27.34375,0.0
72.7109375,-276.85546875,967.7734375,435.546875,-38.0859375,-14.16015625,0.0
72.71484375,-209.9609375,967.7734375,444.82421875,-31.25,-3.41796875,0.0
72.71875,-250.48828125,968.26171875,419.43359375,-30.2734375,-40.0390625,0.0
72.72265625,-362.79296875,967.7734375,393.06640625,-45.8984375,-129.39453125,0.0
72.7265625,-387.6953125,967.7734375,412.59765625,-39.0625,-218.26171875,0.0
72.73046875,-311.5234375,968.26171875,443.359375,-33.69140625,-295.8984375,0.0
72.734375,-245.1171875,968.26171875,438.4765625,-30.2734375,-208.49609375,0.0
72.73828125,-290.0390625,967.7734375,406.25,-26.3671875,-151.3671875,0.0
72.7421875,-367.67578125,967.7734375,389.16015625,-33.69140625,-176.7578125,0.0
72.74609375,-384.765625,968.26171875,375.0,-29.78515625,-179.19921875,0.0
72.75,-338.8671875,968.26171875,362.79296875,-41.50390625,-150.87890625,0.0
72.75390625,-294.43359375,968.26171875,350.09765625,-45.8984375,-132.8125,0.0
72.7578125,-301.7578125,967.7734375,314.94140625,-42.48046875,-151.3671875,0.0
72.76171875,-344.23828125,967.7734375,291.9921875,-32.2265625,-122.0703125,0.0
72.765625,-386.71875,968.26171875,276.85546875,-28.3203125,-119.62890625,0.0
72.76953125,-333.0078125,967.7734375,276.85546875,-25.87890625,-195.3125,0.0
72.7734375,-248.046875,968.26171875,291.50390625,4.39453125,-249.0234375,0.0
72.77734375,-246.58203125,968.26171875,295.8984375,36.1328125,-147.4609375,0.0
72.78125,-270.99609375,967.7734375,285.15625,62.01171875,-17.08984375,0.0
72.78515625,-264.6484375,968.26171875,267.578125,61.03515625,-73.2421875,0.0
72.7890625,-195.3125,967.28515625,272.4609375,64.94140625,-137.20703125,0.0
72.79296875,-111.328125,966.30859375,279.296875,85.9375,-40.52734375,0.0
72.796875,-103.515625,970.21484375,268.5546875,84.9609375,-22.4609375,0.0
72.80078125,-142.08984375,928.22265625,255.859375,70.3125,-100.5859375,0.0
72.8046875,-155.76171875,849.609375,248.046875,70.3125,-112.3046875,0.0
72.80859375,-95.21484375,820.80078125,254.8828125,78.125,-120.60546875,0.0
72.8125,-1.953125,790.0390625,265.13671875,88.8671875,-83.0078125,0.0
72.81640625,13.18359375,746.58203125,248.53515625,84.9609375,25.87890625,0.0
72.8203125,-3.90625,712.40234375,222.16796875,81.54296875,54.6875,0.0
72.82421875,-12.20703125,668.45703125,211.9140625,68.84765625,34.1796875,0.0
72.828125,17.578125,627.44140625,216.30859375,66.89453125,2.44140625,0.0
72.83203125,93.75,582.03125,226.5625,62.98828125,-10.7421875,0.0
72.8359375,129.8828125,526.85546875,214.84375,70.80078125,-9.27734375,0.0
72.83984375,83.984375,458.49609375,185.546875,73.2421875,8.7890625,0.0
72.84375,12.6953125,394.04296875,158.203125,64.94140625,-17.578125,0.0
72.84765625,41.50390625,361.328125,151.3671875,69.3359375,-44.43359375,0.0
72.8515625,128.90625,323.73046875,169.43359375,68.359375,-49.8046875,0.0
72.85546875,167.48046875,309.5703125,172.36328125,53.22265625,13.18359375,0.0
72.859375,124.0234375,308.10546875,166.015625,51.7578125,181.640625,0.0
72.86328125,48.33984375,275.390625,146.97265625,54.19921875,175.78125,0.0
72.8671875,35.15625,242.1875,144.53125,44.43359375,150.87890625,0.0
72.87109375,103.02734375,227.5390625,158.203125,61.5234375,118.65234375,0.0
72.875,146.97265625,209.9609375,149.4140625,58.10546875,63.4765625,0.0
72.87890625,125.9765625,186.03515625,131.8359375,34.66796875,86.42578125,0.0
72.8828125,65.91796875,149.90234375,105.95703125,41.015625,49.8046875,0.0
72.88671875,53.7109375,132.32421875,98.14453125,49.31640625,-17.578125,0.0
72.890625,114.74609375,133.7890625,110.3515625,27.83203125,33.203125,0.0
72.89453125,157.2265625,152.83203125,107.421875,2.9296875,95.703125,0.0
72.8984375,148.4375,158.203125,95.21484375,26.85546875,32.2265625,0.0
72.90234375,88.37890625,118.1640625,75.1953125,36.62109375,-99.12109375,0.0
72.90625,38.57421875,102.05078125,72.75390625,40.0390625,-145.99609375,0.0
72.91015625,87.40234375,122.55859375,85.9375,43.45703125,-153.3203125,0.0
72.9140625,167.48046875,141.11328125,94.7265625,38.57421875,-178.7109375,0.0
72.91796875,119.140625,124.51171875,76.66015625,30.2734375,-168.45703125,0.0
72.921875,19.04296875,105.95703125,49.8046875,15.13671875,-153.3203125,0.0
72.92578125,-4.39453125,101.5625,58.59375,27.83203125,-160.64453125,0.0
72.9296875,30.2734375,94.23828125,72.75390625,25.87890625,-101.5625,0.0
72.93359375,83.49609375,102.5390625,71.2890625,11.23046875,4.8828125,0.0
72.9375,85.9375,112.3046875,59.08203125,27.83203125,103.02734375,0.0
72.94140625,1.46484375,99.12109375,35.64453125,7.8125,103.515625,0.0
72.9453125,-53.22265625,83.49609375,25.87890625,-3.90625,28.80859375,0.0
72.94921875,-13.18359375,65.91796875,24.90234375,4.8828125,2.44140625,0.0
72.953125,41.50390625,50.78125,17.578125,-18.06640625,72.75390625,0.0
72.95703125,35.15625,45.8984375,13.671875,-8.30078125,14.6484375,0.0
72.9609375,-46.38671875,18.5546875,-1.953125,-6.8359375,-28.80859375,0.0
72.96484375,-110.3515625,-5.37109375,-29.296875,-14.16015625,22.4609375,0.0
72.96875,-71.77734375,-14.6484375,-30.2734375,-20.01953125,-34.1796875,0.0
72.97265625,-5.859375,-8.30078125,-11.23046875,-25.87890625,-76.66015625,0.0
72.9765625,9.27734375,6.8359375,3.41796875,-0.9765625,-52.734375,0.0
72.98046875,-60.546875,12.6953125,-21.484375,-3.41796875,-13.671875,0.0
72.984375,-100.5859375,-10.25390625,-53.7109375,-28.3203125,-23.4375,0.0
72.98828125,-27.83203125,-25.87890625,-39.55078125,-13.18359375,-8.30078125,0.0
72.9921875,13.18359375,-30.76171875,-25.390625,-9.27734375,0.0,0.0
72.99609375,22.4609375,-27.83203125,-18.5546875,-8.30078125,24.90234375,0.0
73.0,-8.7890625,-45.41015625,-33.203125,0.0,36.1328125,0.0
73.00390625,-81.0546875,-89.35546875,-55.17578125,-3.41796875,-12.6953125,0.0
73.0078125,-79.58984375,-110.83984375,-57.12890625,-23.4375,-4.8828125,0.0
73.01171875,-5.37109375,-96.19140625,-47.36328125,-44.43359375,41.015625,0.0
73.015625,41.9921875,-112.3046875,-46.38671875,-29.78515625,76.171875,0.0
73.01953125,-5.37109375,-135.7421875,-65.4296875,-39.0625,74.21875,0.0
73.0234375,-57.12890625,-147.94921875,-62.01171875,-61.03515625,12.6953125,0.0
73.02734375,-24.4140625,-172.8515625,-41.50390625,-29.78515625,-5.859375,0.0
73.03125,60.546875,-161.1328125,-41.50390625,-9.27734375,36.62109375,0.0
73.03515625,96.6796875,-136.71875,-71.77734375,-46.875,33.203125,0.0
73.0390625,46.38671875,-155.76171875,-102.5390625,-48.33984375,-5.859375,0.0
73.04296875,-20.01953125,-181.15234375,-123.53515625,-33.203125,-55.6640625,0.0
73.046875,-22.4609375,-170.41015625,-129.39453125,-48.33984375,-75.68359375,0.0
73.05078125,19.53125,-169.921875,-110.3515625,-46.875,-36.62109375,0.0
73.0546875,66.40625,-168.9453125,-83.984375,-31.73828125,22.94921875,0.0
73.05859375,54.19921875,-159.66796875,-85.9375,-11.71875,-7.32421875,0.0
73.0625,-16.6015625,-172.8515625,-93.26171875,-22.94921875,-24.90234375,0.0
73.06640625,-44.921875,-190.91796875,-88.8671875,-53.22265625,3.90625,0.0
73.0703125,2.9296875,-190.91796875,-66.40625,-45.41015625,-34.1796875,0.0
73.07421875,66.40625,-177.734375,-59.5703125,-14.16015625,-58.10546875,0.0
73.078125,75.68359375,-165.0390625,-73.2421875,-6.34765625,-109.375,0.0
73.08203125,15.13671875,-165.52734375,-68.359375,-27.34375,-119.62890625,0.0
73.0859375,-38.0859375,-171.875,-59.5703125,-30.76171875,-89.35546875,0.0
73.08984375,-13.671875,-161.62109375,-40.0390625,-27.34375,-109.86328125,0.0
73.09375,45.41015625,-147.4609375,-25.87890625,-21.97265625,-114.2578125,0.0
73.09765625,71.77734375,-144.04296875,-26.85546875,21.97265625,-111.81640625,0.0
73.1015625,18.06640625,-154.296875,-44.43359375,41.9921875,14.6484375,0.0
73.10546875,-20.5078125,-178.22265625,-61.03515625,-10.7421875,104.98046875,0.0
73.109375,41.50390625,-176.26953125,-45.41015625,-17.08984375,31.73828125,0.0
73.11328125,98.6328125,-156.73828125,-20.01953125,4.8828125,29.78515625,0.0
73.1171875,94.23828125,-149.90234375,-17.08984375,-1.953125,56.640625,0.0
73.12109375,45.41015625,-155.76171875,-33.69140625,-5.37109375,29.78515625,0.0
73.125,16.11328125,-169.921875,-39.0625,-17.08984375,53.7109375,0.0
73.12890625,32.71484375,-175.29296875,-35.15625,-20.01953125,99.609375,0.0
73.1328125,112.79296875,-164.55078125,-20.99609375,7.32421875,48.828125,0.0
73.13671875,141.11328125,-173.33984375,-16.6015625,17.08984375,18.5546875,0.0
73.140625,85.44921875,-191.40625,-48.33984375,0.0,29.78515625,0.0
73.14453125,65.4296875,-203.125,-59.08203125,-12.6953125,-10.25390625,0.0
73.1484375,75.68359375,-194.82421875,-29.78515625,2.44140625,-0.9765625,0.0
73.15234375,121.09375,-187.98828125,-20.99609375,2.9296875,45.8984375,0.0
73.15625,142.08984375,-197.75390625,-11.23046875,-8.30078125,75.68359375,0.0
73.16015625,90.33203125,-191.89453125,-9.27734375,-13.671875,-5.37109375,0.0
73.1640625,26.85546875,-185.546875,-31.25,-29.296875,-91.796875,0.0
73.16796875,37.59765625,-180.6640625,-34.66796875,-35.64453125,-84.47265625,0.0
73.171875,110.83984375,-184.5703125,-25.390625,-40.52734375,-171.38671875,0.0
73.17578125,145.01953125,-204.1015625,-22.4609375,-39.0625,-112.79296875,0.0
73.1796875,78.61328125,-208.0078125,-39.55078125,-40.52734375,-0.9765625,0.0
73.18359375,0.0,-210.9375,-44.43359375,-39.55078125,-97.65625,0.0
73.1875,24.90234375,-217.28515625,-39.0625,-25.87890625,-222.16796875,0.0
73.19140625,96.19140625,-193.359375,-33.203125,-24.4140625,-218.75,0.0
73.1953125,130.859375,-164.55078125,-26.85546875,-30.2734375,-184.08203125,0.0
73.19921875,89.84375,-167.48046875,-52.24609375,-26.85546875,-151.85546875,0.0
73.203125,25.390625,-185.05859375,-63.96484375,-33.203125,-159.66796875,0.0
73.20703125,25.87890625,-198.73046875,-32.71484375,-32.2265625,-141.11328125,0.0
73.2109375,96.19140625,-184.5703125,-6.34765625,-8.30078125,-138.671875,0.0
73.21484375,146.97265625,-164.55078125,-4.39453125,-2.44140625,-86.9140625,0.0
73.21875,111.328125,-167.48046875,-20.01953125,-19.53125,55.17578125,0.0
73.22265625,37.109375,-179.19921875,-39.55078125,-29.296875,83.0078125,0.0
73.2265625,10.25390625,-177.24609375,-33.203125,-24.4140625,25.87890625,0.0
73.23046875,59.5703125,-181.15234375,-16.6015625,-24.4140625,18.06640625,0.0
73.234375,102.5390625,-177.734375,-11.23046875,-25.87890625,47.36328125,0.0
73.23828125,85.9375,-176.26953125,-23.4375,-25.87890625,80.078125,0.0
73.2421875,36.1328125,-190.4296875,-42.48046875,-26.85546875,80.078125,0.0
73.24609375,13.18359375,-196.2890625,-42.48046875,-8.30078125,50.29296875,0.0
73.25,58.10546875,-209.9609375,-32.2265625,-24.4140625,71.2890625,0.0
73.25390625,125.9765625,-220.21484375,-32.71484375,-37.59765625,65.4296875,0.0
73.2578125,111.81640625,-218.75,-23.92578125,-28.80859375,69.82421875,0.0
73.26171875,19.04296875,-230.46875,-53.22265625,-32.71484375,10.7421875,0.0
73.265625,-14.6484375,-236.328125,-70.3125,-31.25,-55.6640625,0.0
73.26953125,42.96875,-221.6796875,-26.85546875,-26.3671875,-8.30078125,0.0
73.2734375,108.88671875,-206.0546875,-5.37109375,-7.32421875,71.2890625,0.0
73.27734375,89.84375,-203.61328125,-17.578125,-10.25390625,116.69921875,0.0
73.28125,11.71875,-217.7734375,-28.3203125,-36.62109375,66.40625,0.0
73.28515625,-34.66796875,-238.76953125,-28.3203125,-44.921875,-53.22265625,0.0
73.2890625,-2.9296875,-250.48828125,-44.921875,-43.9453125,-45.41015625,0.0
73.29296875,63.96484375,-234.86328125,-41.50390625,-26.85546875,-46.875,0.0
73.296875,60.05859375,-231.4453125,-14.16015625,-40.52734375,-83.984375,0.0
73.30078125,4.39453125,-235.3515625,-12.6953125,-65.91796875,-81.54296875,0.0
73.3046875,-16.11328125,-220.21484375,-15.625,-62.01171875,-64.94140625,0.0
73.30859375,10.7421875,-200.1953125,0.0,-52.24609375,5.37109375,0.0
73.3125,52.734375,-191.40625,11.71875,-32.2265625,-33.203125,0.0
73.31640625,71.2890625,-169.43359375,9.765625,-16.11328125,-78.125,0.0
73.3203125,20.01953125,-158.69140625,-17.578125,-24.4140625,-78.61328125,0.0
73.32421875,-29.296875,-170.8984375,-22.4609375,-34.1796875,-110.3515625,0.0
73.328125,-5.37109375,-169.921875,-3.90625,-40.0390625,-83.0078125,0.0
73.33203125,53.22265625,-148.92578125,2.9296875,-47.8515625,25.390625,0.0
73.3359375,75.1953125,-113.28125,5.37109375,-31.73828125,11.23046875,0.0
73.33984375,26.85546875,-106.93359375,-8.30078125,-27.34375,-70.80078125,0.0
73.34375,-17.08984375,-121.58203125,-18.06640625,-25.390625,-16.11328125,0.0
73.34765625,2.9296875,-114.74609375,-7.32421875,-15.13671875,26.3671875,0.0
73.3515625,76.171875,-100.5859375,9.765625,-24.90234375,48.33984375,0.0
73.35546875,125.48828125,-104.98046875,2.44140625,-36.1328125,20.99609375,0.0
73.359375,91.796875,-113.76953125,-17.08984375,-18.06640625,58.59375,0.0
73.36328125,30.2734375,-128.41796875,-24.4140625,-20.99609375,73.73046875,0.0
73.3671875,44.921875,-133.30078125,-7.8125,-39.55078125,-2.44140625,0.0
73.37109375,117.1875,-126.46484375,22.94921875,-20.5078125,-1.953125,0.0
73.375,124.51171875,-139.16015625,32.71484375,-16.11328125,-16.6015625,0.0
73.37890625,62.01171875,-149.90234375,28.3203125,-20.5078125,37.59765625,0.0
73.3828125,-5.37109375,-155.76171875,8.7890625,-29.78515625,60.546875,0.0
73.38671875,-18.5546875,-159.66796875,-18.5546875,-36.1328125,-21.484375,0.0
73.390625,40.52734375,-160.15625,-14.6484375,-27.34375,-43.45703125,0.0
73.39453125,89.84375,-158.69140625,-0.48828125,-20.01953125,-31.73828125,0.0
73.3984375,81.0546875,-139.6484375,3.90625,-18.06640625,27.34375,0.0
73.40234375,11.71875,-141.6015625,-5.37109375,-24.90234375,-3.90625,0.0
73.40625,-44.43359375,-162.109375,-17.578125,-34.1796875,-11.23046875,0.0
73.41015625,17.578125,-156.73828125,-0.48828125,-30.76171875,4.39453125,0.0
73.4140625,91.796875,-143.06640625,-2.44140625,-11.71875,22.94921875,0.0
73.41796875,82.51953125,-129.8828125,-13.671875,5.859375,111.81640625,0.0
73.421875,17.578125,-135.7421875,-14.6484375,0.0,93.26171875,0.0
73.42578125,-32.2265625,-146.97265625,-13.671875,-20.99609375,6.8359375,0.0
73.4296875,1.46484375,-144.04296875,-10.7421875,-35.15625,-17.578125,0.0
73.43359375,65.4296875,-137.6953125,-14.6484375,-25.390625,-46.875,0.0
73.4375,42.48046875,-143.5546875,-9.765625,-24.4140625,-94.23828125,0.0
73.44140625,-9.765625,-139.6484375,4.39453125,-23.92578125,-64.94140625,0.0
73.4453125,-38.57421875,-135.7421875,8.30078125,-24.90234375,-94.23828125,0.0
73.44921875,-14.16015625,-137.6953125,19.53125,-27.83203125,-160.64453125,0.0
73.453125,58.59375,-125.48828125,35.15625,-19.53125,-133.7890625,0.0
73.45703125,50.29296875,-120.60546875,18.5546875,-28.80859375,-16.6015625,0.0
73.4609375,-2.44140625,-131.8359375,-1.46484375,-30.2734375,25.87890625,0.0
73.46484375,-27.83203125,-139.16015625,6.8359375,-12.6953125,-25.87890625,0.0
73.46875,-2.9296875,-160.15625,2.44140625,-25.390625,-40.52734375,0.0
73.47265625,54.6875,-149.4140625,4.39453125,-38.57421875,3.90625,0.0
73.4765625,67.3828125,-127.9296875,-3.41796875,-41.015625,-49.31640625,0.0
73.48046875,17.08984375,-136.71875,-18.06640625,-35.64453125,-71.2890625,0.0
73.484375,-22.4609375,-115.234375,-9.27734375,-34.1796875,-18.5546875,0.0
73.48828125,-6.34765625,-97.16796875,-9.765625,-42.48046875,-89.84375,0.0
73.4921875,51.7578125,-79.1015625,8.7890625,-30.76171875,-84.9609375,0.0
73.49609375,80.078125,-56.640625,27.83203125,-12.20703125,21.97265625,0.0
73.5,28.80859375,-69.82421875,9.765625,-19.04296875,9.27734375,0.0
73.50390625,-15.625,-93.75,5.37109375,-39.0625,-44.43359375,0.0
73.5078125,10.7421875,-95.21484375,22.94921875,-52.24609375,-54.6875,0.0
73.51171875,70.3125,-91.796875,37.109375,-34.66796875,-29.78515625,0.0
73.515625,78.125,-95.703125,27.34375,-20.01953125,-11.23046875,0.0
73.51953125,36.1328125,-102.5390625,-12.6953125,-43.9453125,-25.87890625,0.0
73.5234375,10.25390625,-111.81640625,-33.203125,-38.0859375,-69.3359375,0.0
73.52734375,2.9296875,-114.74609375,-23.4375,-42.96875,-81.54296875,0.0
73.53125,33.203125,-121.09375,4.8828125,-0.9765625,-55.17578125,0.0
73.53515625,89.35546875,-142.08984375,12.6953125,24.90234375,-19.53125,0.0
73.5390625,61.5234375,-154.78515625,-10.25390625,-12.20703125,-14.6484375,0.0
73.54296875,-5.37109375,-134.27734375,-5.859375,-20.99609375,-40.52734375,0.0
73.546875,9.27734375,-129.8828125,9.765625,-6.8359375,-95.21484375,0.0
73.55078125,62.01171875,-141.6015625,9.27734375,-7.8125,-79.1015625,0.0
73.5546875,95.21484375,-132.32421875,-4.8828125,-4.39453125,50.29296875,0.0
73.55859375,74.21875,-131.34765625,-23.4375,10.25390625,86.9140625,0.0
73.5625,17.08984375,-145.5078125,-25.390625,-16.6015625,54.6875,0.0
73.56640625,8.30078125,-146.97265625,-4.39453125,-28.3203125,41.9921875,0.0
73.5703125,61.5234375,-142.08984375,18.06640625,12.6953125,-8.7890625,0.0
73.57421875,112.3046875,-128.41796875,6.8359375,19.53125,-8.7890625,0.0
73.578125,95.21484375,-125.0,-3.90625,1.46484375,-36.1328125,0.0
73.58203125,70.3125,-138.671875,-2.9296875,14.6484375,-26.85546875,0.0
73.5859375,23.92578125,-163.0859375,1.953125,16.6015625,-32.71484375,0.0
73.58984375,48.33984375,-171.38671875,3.41796875,-19.53125,-77.1484375,0.0
73.59375,127.9296875,-138.671875,-4.8828125,-1.46484375,-66.89453125,0.0
73.59765625,84.47265625,-123.046875,7.8125,28.3203125,-46.875,0.0
73.6015625,-31.73828125,-146.484375,25.390625,-1.46484375,-45.8984375,0.0
73.60546875,-64.94140625,-168.45703125,24.4140625,-2.9296875,-15.625,0.0
73.609375,-15.13671875,-170.41015625,9.27734375,-12.6953125,40.52734375,0.0
73.61328125,27.83203125,-146.97265625,20.01953125,-3.90625,65.91796875,0.0
73.6171875,28.3203125,-115.72265625,62.98828125,20.99609375,67.3828125,0.0
73.62109375,-42.48046875,-139.16015625,55.6640625,-3.41796875,4.8828125,0.0
73.625,-99.609375,-161.1328125,41.015625,-49.8046875,-70.3125,0.0
73.62890625,-118.65234375,-162.109375,47.36328125,-52.734375,-68.359375,0.0
73.6328125,-97.16796875,-162.109375,59.08203125,-55.6640625,-46.875,0.0
73.63671875,-65.91796875,-149.90234375,72.75390625,-70.80078125,-36.62109375,0.0
73.640625,-62.01171875,-175.29296875,83.49609375,-50.29296875,-13.18359375,0.0
73.64453125,-84.47265625,-204.58984375,73.73046875,-32.2265625,-70.80078125,0.0
73.6484375,-65.91796875,-181.15234375,70.3125,-43.45703125,-63.4765625,0.0
73.65234375,9.27734375,-142.578125,109.375,-56.640625,75.68359375,0.0
73.65625,11.71875,-143.5546875,124.0234375,-52.24609375,55.6640625,0.0
73.66015625,-50.78125,-145.01953125,114.74609375,-38.57421875,-11.23046875,0.0
73.6640625,-88.8671875,-128.90625,91.796875,-63.4765625,-43.45703125,0.0
73.66796875,-85.9375,-139.16015625,85.9375,-65.4296875,-87.40234375,0.0
73.671875,-58.59375,-154.78515625,98.14453125,-29.78515625,-66.40625,0.0
73.67578125,-41.015625,-154.296875,67.87109375,-57.6171875,-75.68359375,0.0
73.6796875,-77.63671875,-184.08203125,26.3671875,-74.21875,-140.625,0.0
73.68359375,-93.26171875,-200.1953125,16.6015625,-31.25,-150.390625,0.0
73.6875,-90.33203125,-172.36328125,13.18359375,-64.453125,-182.6171875,0.0
73.69140625,-62.98828125,-154.296875,25.390625,-76.171875,-137.20703125,0.0
73.6953125,-29.78515625,-140.625,29.296875,-80.078125,-101.5625,0.0
73.69921875,-77.1484375,-129.39453125,33.203125,-74.21875,-201.171875,0.0
73.703125,-145.99609375,-125.9765625,29.78515625,-28.3203125,-182.6171875,0.0
73.70703125,-186.5234375,-135.25390625,11.71875,-43.45703125,-172.8515625,0.0
73.7109375,-157.2265625,-131.34765625,25.390625,-69.82421875,-122.55859375,0.0
73.71484375,-118.65234375,-133.7890625,45.41015625,-59.08203125,-7.8125,0.0
73.71875,-155.2734375,-151.3671875,41.015625,-60.05859375,14.6484375,0.0
73.72265625,-214.35546875,-134.27734375,35.64453125,-74.21875,-1.46484375,0.0
73.7265625,-261.71875,-137.6953125,49.8046875,-60.546875,-34.1796875,0.0
73.73046875,-245.60546875,-133.30078125,66.40625,-42.48046875,-41.9921875,0.0
73.734375,-216.30859375,-121.09375,72.75390625,-20.99609375,82.51953125,0.0
73.73828125,-245.60546875,-133.30078125,90.33203125,-41.50390625,116.2109375,0.0
73.7421875,-327.1484375,-150.390625,53.22265625,-70.3125,15.13671875,0.0
73.74609375,-392.578125,-168.9453125,22.4609375,-41.015625,-53.22265625,0.0
73.75,-328.125,-156.25,86.42578125,-23.92578125,-16.11328125,0.0
73.75390625,-268.5546875,-133.7890625,118.65234375,-37.109375,9.27734375,0.0
73.7578125,-322.265625,-153.80859375,67.87109375,-42.48046875,-15.625,0.0
73.76171875,-385.7421875,-186.03515625,24.4140625,-23.92578125,-67.3828125,0.0
73.765625,-427.734375,-205.56640625,15.625,-30.76171875,-6.34765625,0.0
73.76953125,-472.65625,-198.2421875,25.87890625,-44.43359375,-34.66796875,0.0
73.7734375,-425.29296875,-165.0390625,64.94140625,-35.64453125,-58.10546875,0.0
73.77734375,-393.06640625,-195.80078125,80.56640625,-28.80859375,2.9296875,0.0
73.78125,-433.59375,-217.7734375,43.9453125,-49.8046875,24.90234375,0.0
73.78515625,-469.7265625,-200.1953125,13.18359375,-56.15234375,11.71875,0.0
73.7890625,-458.984375,-207.51953125,26.3671875,-48.828125,-45.41015625,0.0
73.79296875,-381.8359375,-205.56640625,11.71875,-67.3828125,-4.39453125,0.0
73.796875,-348.14453125,-182.6171875,-19.53125,-60.546875,-30.76171875,0.0
73.80078125,-411.62109375,-169.43359375,-8.30078125,-53.22265625,-30.2734375,0.0
73.8046875,-430.17578125,-190.91796875,6.8359375,-60.05859375,-32.2265625,0.0
73.80859375,-401.3671875,-225.5859375,9.765625,-69.82421875,-165.0390625,0.0
73.8125,-391.11328125,-220.21484375,3.41796875,-119.140625,-167.48046875,0.0
73.81640625,-397.94921875,-199.21875,4.39453125,-115.234375,-101.07421875,0.0
73.8203125,-444.3359375,-188.96484375,10.25390625,-116.69921875,-9.27734375,0.0
73.82421875,-464.35546875,-211.42578125,-2.9296875,-130.859375,93.26171875,0.0
73.828125,-418.9453125,-231.93359375,-1.953125,-117.67578125,-3.41796875,0.0
73.83203125,-396.484375,-233.3984375,-20.01953125,-141.11328125,-30.2734375,0.0
73.8359375,-373.53515625,-238.76953125,-56.640625,-123.046875,17.08984375,0.0
73.83984375,-354.00390625,-233.88671875,-60.546875,-120.60546875,-5.37109375,0.0
73.84375,-431.640625,-225.5859375,-43.9453125,-150.87890625,-6.8359375,0.0
73.84765625,-437.98828125,-193.84765625,-20.5078125,-117.1875,13.671875,0.0
73.8515625,-370.60546875,-192.3828125,-41.015625,-132.32421875,-4.8828125,0.0
73.85546875,-327.63671875,-204.1015625,-72.265625,-116.69921875,31.73828125,0.0
73.859375,-333.0078125,-201.171875,-35.15625,-109.375,32.71484375,0.0
73.86328125,-404.78515625,-188.96484375,-0.9765625,-156.25,-75.68359375,0.0
73.8671875,-457.03125,-163.57421875,1.953125,-138.18359375,-149.4140625,0.0
73.87109375,-427.24609375,-163.0859375,-7.32421875,-132.8125,-116.69921875,0.0
73.875,-382.8125,-177.734375,-13.18359375,-108.3984375,-72.265625,0.0
73.87890625,-416.015625,-176.7578125,-6.8359375,-73.73046875,-43.9453125,0.0
73.8828125,-477.05078125,-152.83203125,29.78515625,-65.4296875,-8.30078125,0.0
73.88671875,-458.984375,-145.5078125,57.12890625,-76.66015625,-23.92578125,0.0
73.890625,-417.96875,-128.41796875,60.546875,-79.1015625,-27.34375,0.0
73.89453125,-465.33203125,-104.4921875,73.2421875,-79.58984375,-10.25390625,0.0
73.8984375,-507.8125,-109.375,72.75390625,-103.515625,2.44140625,0.0
73.90234375,-551.26953125,-120.60546875,44.921875,-100.5859375,-44.921875,0.0
73.90625,-590.8203125,-130.37109375,43.9453125,-71.2890625,-130.859375,0.0
73.91015625,-532.2265625,-140.13671875,52.734375,-76.171875,-196.2890625,0.0
73.9140625,-477.5390625,-141.6015625,52.734375,-76.66015625,-136.23046875,0.0
73.91796875,-510.7421875,-125.48828125,66.40625,-52.24609375,-74.70703125,0.0
73.921875,-585.44921875,-123.53515625,80.078125,-50.29296875,-116.69921875,0.0
73.92578125,-580.078125,-139.16015625,66.40625,-56.15234375,-75.68359375,0.0
73.9296875,-505.37109375,-125.0,83.0078125,-54.6875,-82.03125,0.0
73.93359375,-477.5390625,-101.07421875,106.4453125,-57.12890625,-138.18359375,0.0
73.9375,-483.88671875,-121.58203125,69.3359375,-48.33984375,-73.73046875,0.0
73.94140625,-494.62890625,-129.8828125,39.0625,-37.109375,-16.11328125,0.0
73.9453125,-504.8828125,-133.30078125,24.4140625,-60.546875,-109.86328125,0.0
73.94921875,-500.9765625,-157.71484375,36.62109375,-90.33203125,-146.484375,0.0
73.953125,-434.5703125,-165.0390625,24.4140625,-68.359375,-34.1796875,0.0
73.95703125,-406.25,-153.3203125,-2.9296875,-41.50390625,-68.359375,0.0
73.9609375,-431.640625,-130.37109375,-10.7421875,-39.0625,-112.3046875,0.0
73.96484375,-472.16796875,-129.39453125,11.71875,-59.5703125,-90.33203125,0.0
73.96875,-481.93359375,-136.23046875,64.94140625,-51.7578125,-152.83203125,0.0
73.97265625,-416.9921875,-115.234375,75.68359375,-51.26953125,-130.37109375,0.0
73.9765625,-412.109375,-110.83984375,53.7109375,-70.80078125,-46.875,0.0
73.98046875,-459.9609375,-126.46484375,12.20703125,-76.171875,-27.34375,0.0
73.984375,-482.421875,-129.39453125,-33.69140625,-75.68359375,-7.8125,0.0
73.98828125,-437.98828125,-123.046875,-36.1328125,-62.01171875,29.296875,0.0
73.9921875,-337.40234375,-112.3046875,-19.04296875,-38.57421875,99.609375,0.0
73.99609375,-299.8046875,-129.39453125,-66.40625,-45.8984375,139.6484375,0.0
74.0,-363.28125,-142.578125,-119.62890625,-62.5,90.33203125,0.0
74.00390625,-414.0625,-125.0,-80.56640625,-51.7578125,13.671875,0.0
74.0078125,-364.74609375,-119.62890625,-4.8828125,-40.52734375,98.14453125,0.0
74.01171875,-270.01953125,-129.39453125,41.9921875,-24.4140625,101.5625,0.0
74.015625,-260.25390625,-139.6484375,52.24609375,-21.97265625,59.08203125,0.0
74.01953125,-304.6875,-119.62890625,30.2734375,-25.390625,115.72265625,0.0
74.0234375,-314.94140625,-100.09765625,-0.9765625,-9.27734375,93.75,0.0
74.02734375,-267.08984375,-106.4453125,-0.48828125,-17.08984375,5.37109375,0.0
74.03125,-210.9375,-114.74609375,15.625,-32.71484375,-1.46484375,0.0
74.03515625,-209.9609375,-98.6328125,17.08984375,-12.20703125,2.9296875,0.0
74.0390625,-257.8125,-97.16796875,-12.20703125,-29.78515625,20.99609375,0.0
74.04296875,-281.25,-121.09375,-58.59375,-13.671875,59.5703125,0.0
74.046875,-280.76171875,-125.48828125,-73.73046875,16.11328125,61.5234375,0.0
74.05078125,-209.9609375,-103.515625,-62.01171875,-22.4609375,-1.46484375,0.0
74.0546875,-147.4609375,-94.7265625,-64.453125,-42.48046875,-20.5078125,0.0
74.05859375,-170.41015625,-83.49609375,-58.10546875,-25.87890625,59.08203125,0.0
74.0625,-226.5625,-83.984375,-67.3828125,-9.765625,-12.20703125,0.0
74.06640625,-238.76953125,-89.35546875,-63.4765625,-33.69140625,-126.953125,0.0
74.0703125,-147.94921875,-84.47265625,-37.109375,-22.4609375,-64.453125,0.0
74.07421875,-97.16796875,-83.49609375,-18.06640625,-19.04296875,-12.20703125,0.0
74.078125,-131.8359375,-91.30859375,-38.0859375,-45.41015625,-173.828125,0.0
74.08203125,-177.734375,-93.75,-44.43359375,-28.3203125,-197.265625,0.0
74.0859375,-193.84765625,-90.33203125,-19.53125,-31.25,-6.8359375,0.0
74.08984375,-181.640625,-114.2578125,-18.5546875,-66.40625,48.33984375,0.0
74.09375,-135.7421875,-109.86328125,-14.16015625,-49.31640625,39.55078125,0.0
74.09765625,-123.046875,-80.078125,-22.4609375,-32.2265625,84.9609375,0.0
74.1015625,-161.1328125,-86.42578125,-44.43359375,-61.5234375,69.3359375,0.0
74.10546875,-178.7109375,-91.796875,-32.71484375,-61.5234375,-21.97265625,0.0
74.109375,-158.203125,-86.9140625,-18.5546875,-36.1328125,-68.359375,0.0
74.11328125,-101.5625,-70.80078125,-6.8359375,-36.62109375,4.39453125,0.0
74.1171875,-105.95703125,-58.10546875,-0.48828125,-38.57421875,25.87890625,0.0
74.12109375,-164.0625,-75.68359375,-20.5078125,-56.15234375,16.6015625,0.0
74.125,-214.35546875,-102.05078125,-57.6171875,-63.96484375,61.5234375,0.0
74.12890625,-181.640625,-92.28515625,-45.41015625,-53.22265625,23.4375,0.0
74.1328125,-99.609375,-59.08203125,9.27734375,-3.90625,-20.5078125,0.0
74.13671875,-125.9765625,-51.26953125,2.9296875,-11.23046875,-39.0625,0.0
74.140625,-166.9921875,-76.171875,-25.87890625,-63.4765625,-56.640625,0.0
74.14453125,-182.6171875,-83.984375,-24.90234375,-50.78125,-54.19921875,0.0
74.1484375,-167.96875,-86.42578125,-6.8359375,-70.3125,-87.40234375,0.0
74.15234375,-109.86328125,-93.75,14.6484375,-61.03515625,-71.2890625,0.0
74.15625,-100.09765625,-85.9375,-3.90625,-34.1796875,5.37109375,0.0
74.16015625,-139.6484375,-95.21484375,-30.76171875,-38.0859375,30.2734375,0.0
74.1640625,-166.015625,-103.02734375,-45.41015625,-36.62109375,10.7421875,0.0
74.16796875,-160.64453125,-90.8203125,-44.921875,-37.109375,-12.20703125,0.0
74.171875,-99.12109375,-87.40234375,-27.34375,-47.8515625,-42.96875,0.0
74.17578125,-66.89453125,-76.171875,-18.5546875,-57.12890625,0.0,0.0
74.1796875,-107.421875,-73.2421875,-28.80859375,-37.109375,35.64453125,0.0
74.18359375,-142.578125,-85.44921875,-34.1796875,-42.48046875,-21.484375,0.0
74.1875,-106.93359375,-98.6328125,-52.734375,-56.15234375,-21.484375,0.0
74.19140625,-28.80859375,-104.4921875,-31.25,-39.0625,28.80859375,0.0
74.1953125,-7.8125,-92.28515625,9.765625,-23.4375,18.06640625,0.0
74.19921875,-58.10546875,-94.7265625,16.6015625,-23.4375,17.578125,0.0
74.203125,-109.86328125,-117.1875,4.8828125,-3.90625,-83.984375,0.0
74.20703125,-73.2421875,-113.76953125,-12.20703125,-29.296875,-28.3203125,0.0
74.2109375,-30.76171875,-95.21484375,-4.8828125,-47.8515625,118.65234375,0.0
74.21484375,-0.9765625,-97.16796875,2.44140625,-23.92578125,27.83203125,0.0
74.21875,7.32421875,-104.00390625,-19.53125,-34.1796875,-6.8359375,0.0
74.22265625,-51.26953125,-102.5390625,-13.671875,-43.9453125,11.23046875,0.0
74.2265625,-40.52734375,-82.03125,41.015625,-4.39453125,-9.765625,0.0
74.23046875,20.99609375,-79.58984375,44.43359375,-18.06640625,-14.6484375,0.0
74.234375,38.57421875,-89.35546875,20.99609375,-59.08203125,-32.2265625,0.0
74.23828125,8.30078125,-95.21484375,7.32421875,-40.52734375,-3.90625,0.0
74.2421875,-44.921875,-114.74609375,-31.73828125,-41.015625,78.61328125,0.0
74.24609375,-43.45703125,-108.88671875,-35.15625,-17.578125,55.17578125,0.0
74.25,17.08984375,-109.375,1.46484375,0.48828125,-44.43359375,0.0
74.25390625,59.5703125,-102.5390625,15.13671875,-26.85546875,-110.3515625,0.0
74.2578125,54.19921875,-79.1015625,-1.46484375,-43.9453125,-100.5859375,0.0
74.26171875,-15.13671875,-85.9375,-24.90234375,-17.578125,-70.80078125,0.0
74.265625,-56.640625,-97.65625,-13.18359375,3.41796875,-47.36328125,0.0
74.26953125,-3.41796875,-91.30859375,15.13671875,-13.671875,-14.6484375,0.0
74.2734375,58.10546875,-75.68359375,-0.48828125,-21.484375,53.7109375,0.0
74.27734375,65.91796875,-68.359375,-27.34375,-26.3671875,17.08984375,0.0
74.28125,3.41796875,-80.078125,-12.20703125,-46.38671875,-31.25,0.0
74.28515625,-48.33984375,-79.58984375,7.32421875,-25.87890625,41.9921875,0.0
74.2890625,-26.85546875,-62.5,18.06640625,-13.671875,6.34765625,0.0
74.29296875,33.203125,-62.01171875,16.6015625,-24.90234375,-84.47265625,0.0
74.296875,48.828125,-59.5703125,13.671875,-3.41796875,-26.3671875,0.0
74.30078125,7.32421875,-59.5703125,4.39453125,8.30078125,-13.671875,0.0
74.3046875,-24.90234375,-68.84765625,-19.53125,-36.62109375,-104.4921875,0.0
74.30859375,2.9296875,-62.5,-38.0859375,-59.5703125,-160.64453125,0.0
74.3125,67.87109375,-36.62109375,-58.59375,-43.9453125,-146.484375,0.0
74.31640625,71.2890625,-28.80859375,-42.96875,-17.08984375,-46.875,0.0
74.3203125,16.11328125,-43.45703125,-8.30078125,-6.34765625,-53.7109375,0.0
74.32421875,-47.8515625,-70.80078125,-1.953125,-26.3671875,-98.6328125,0.0
