timestamp,TP9,AF7,AF8,TP10,AUX,Marker,
294.00390625,-38.0859375,-29.296875,-18.06640625,-21.97265625,-81.54296875,0.0
294.0078125,-39.0625,-36.62109375,-23.4375,-29.296875,-75.68359375,0.0
294.01171875,-40.52734375,-38.0859375,-23.4375,-28.80859375,-41.50390625,0.0
294.015625,-19.53125,-38.0859375,-29.296875,-22.94921875,-20.5078125,0.0
294.01953125,-7.32421875,-36.62109375,-22.94921875,-16.6015625,36.62109375,0.0
294.0234375,-30.76171875,-24.90234375,-30.2734375,-20.99609375,-4.39453125,0.0
294.02734375,-39.55078125,-36.1328125,-31.73828125,-24.4140625,-123.53515625,0.0
294.03125,-32.71484375,-48.33984375,-30.2734375,-23.92578125,-86.42578125,0.0
294.03515625,-25.390625,-37.109375,-37.59765625,-9.27734375,-64.453125,0.0
294.0390625,-25.87890625,-28.80859375,-33.69140625,-14.6484375,-35.64453125,0.0
294.04296875,-25.87890625,-38.0859375,-18.5546875,-41.50390625,-22.94921875,0.0
294.046875,-25.87890625,-36.62109375,-9.765625,-29.78515625,-14.6484375,0.0
294.05078125,-46.875,-23.4375,-21.484375,-24.4140625,-32.71484375,0.0
294.0546875,-48.33984375,-39.0625,-28.80859375,-38.57421875,-76.66015625,0.0
294.05859375,-25.390625,-35.64453125,-34.1796875,-34.66796875,-37.109375,0.0
294.0625,-26.3671875,-41.9921875,-35.64453125,-34.66796875,-35.15625,0.0
294.06640625,-32.71484375,-39.0625,-30.76171875,-36.1328125,12.20703125,0.0
294.0703125,-37.59765625,-15.625,-31.73828125,-24.4140625,72.75390625,0.0
294.07421875,-41.9921875,-21.97265625,-34.66796875,-20.01953125,14.16015625,0.0
294.078125,-32.71484375,-31.73828125,-32.2265625,-17.08984375,-42.48046875,0.0
294.08203125,-39.55078125,-34.66796875,-24.90234375,-19.53125,43.45703125,0.0
294.0859375,-45.8984375,-33.69140625,-28.80859375,-25.87890625,11.23046875,0.0
294.08984375,-36.62109375,-44.43359375,-30.2734375,-23.4375,8.7890625,0.0
294.09375,-30.76171875,-52.734375,-19.53125,-11.71875,-48.828125,0.0
294.09765625,-38.0859375,-38.57421875,-24.90234375,-10.25390625,-116.2109375,0.0
294.1015625,-46.38671875,-29.296875,-41.9921875,-18.06640625,-19.04296875,0.0
294.10546875,-43.45703125,-24.4140625,-36.62109375,-21.484375,-6.8359375,0.0
294.109375,-49.31640625,-29.296875,-24.4140625,-24.90234375,26.3671875,0.0
294.11328125,-57.6171875,-36.62109375,-22.4609375,-21.484375,35.64453125,0.0
294.1171875,-50.29296875,-32.71484375,-20.99609375,-18.5546875,-29.296875,0.0
294.12109375,-49.31640625,-33.203125,-20.5078125,-28.3203125,20.5078125,0.0
294.125,-56.640625,-42.96875,-30.76171875,-36.62109375,11.23046875,0.0
294.12890625,-63.96484375,-46.875,-34.66796875,-36.62109375,-30.76171875,0.0
294.1328125,-63.96484375,-45.41015625,-34.1796875,-39.0625,33.203125,0.0
294.13671875,-55.6640625,-46.38671875,-40.0390625,-36.62109375,-17.578125,0.0
294.140625,-54.19921875,-35.64453125,-40.0390625,-31.73828125,-83.49609375,0.0
294.14453125,-66.89453125,-33.69140625,-39.0625,-37.59765625,-90.33203125,0.0
294.1484375,-69.82421875,-47.36328125,-37.109375,-33.69140625,-185.05859375,0.0
294.15234375,-68.84765625,-39.0625,-30.76171875,-32.2265625,-229.98046875,0.0
294.15625,-75.1953125,-20.5078125,-27.34375,-37.59765625,-154.78515625,0.0
294.16015625,-66.89453125,-20.99609375,-31.73828125,-30.76171875,-211.9140625,0.0
294.1640625,-52.734375,-19.53125,-29.296875,-31.25,-194.3359375,0.0
294.16796875,-46.38671875,-18.06640625,-5.37109375,-22.4609375,-163.57421875,0.0
294.171875,-54.6875,-31.25,-3.41796875,-21.484375,-109.86328125,0.0
294.17578125,-59.5703125,-33.69140625,-13.671875,-26.3671875,6.34765625,0.0
294.1796875,-41.015625,-24.4140625,-6.8359375,-20.99609375,-16.11328125,0.0
294.18359375,-22.94921875,-20.99609375,-27.34375,-26.3671875,-33.69140625,0.0
294.1875,-23.4375,-21.97265625,-40.52734375,-35.64453125,-19.04296875,0.0
294.19140625,-30.2734375,-27.34375,-24.4140625,-35.64453125,76.171875,0.0
294.1953125,-33.203125,-28.3203125,-20.99609375,-33.203125,74.21875,0.0
294.19921875,-26.3671875,-31.25,-23.92578125,-25.87890625,13.671875,0.0
294.203125,-23.92578125,-37.59765625,-26.85546875,-32.71484375,95.21484375,0.0
294.20703125,-23.92578125,-30.76171875,-31.73828125,-40.0390625,84.9609375,0.0
294.2109375,-19.04296875,-23.92578125,-34.1796875,-30.76171875,-26.85546875,0.0
294.21484375,-27.34375,-23.92578125,-22.4609375,-31.73828125,-4.8828125,0.0
294.21875,-30.76171875,-23.4375,-28.3203125,-33.69140625,-0.9765625,0.0
294.22265625,-30.76171875,-26.3671875,-35.64453125,-38.57421875,-34.1796875,0.0
294.2265625,-41.015625,-24.4140625,-26.85546875,-47.8515625,-14.16015625,0.0
294.23046875,-49.31640625,-24.90234375,-26.85546875,-44.921875,49.8046875,0.0
294.234375,-55.17578125,-34.66796875,-37.109375,-44.921875,78.61328125,0.0
294.23828125,-55.17578125,-33.69140625,-34.1796875,-39.0625,31.73828125,0.0
294.2421875,-53.7109375,-27.34375,-36.1328125,-33.69140625,51.26953125,0.0
294.24609375,-55.6640625,-35.64453125,-43.9453125,-42.96875,7.8125,0.0
294.25,-48.828125,-39.55078125,-24.90234375,-41.9921875,7.8125,0.0
294.25390625,-43.9453125,-29.296875,-21.97265625,-31.25,69.3359375,0.0
294.2578125,-51.7578125,-21.484375,-29.296875,-27.34375,80.56640625,0.0
294.26171875,-59.5703125,-23.92578125,-24.4140625,-35.64453125,27.34375,0.0
294.265625,-62.5,-28.3203125,-28.3203125,-37.109375,-31.73828125,0.0
294.26953125,-62.5,-27.34375,-27.83203125,-20.5078125,68.359375,0.0
294.2734375,-47.8515625,-24.4140625,-23.92578125,-4.39453125,56.640625,0.0
294.27734375,-41.9921875,-32.2265625,-28.80859375,-10.25390625,-9.765625,0.0
294.28125,-41.9921875,-36.1328125,-35.64453125,-34.1796875,4.39453125,0.0
294.28515625,-34.66796875,-29.78515625,-36.1328125,-55.17578125,-0.9765625,0.0
294.2890625,-36.62109375,-30.76171875,-44.921875,-61.03515625,-5.37109375,0.0
294.29296875,-44.43359375,-37.109375,-39.0625,-58.10546875,-7.8125,0.0
294.296875,-43.9453125,-35.64453125,-29.296875,-55.6640625,11.23046875,0.0
294.30078125,-43.9453125,-30.76171875,-34.1796875,-53.22265625,-3.41796875,0.0
294.3046875,-48.33984375,-38.0859375,-22.94921875,-54.6875,-93.26171875,0.0
294.30859375,-41.015625,-40.52734375,-23.92578125,-46.38671875,-120.1171875,0.0
294.3125,-41.9921875,-35.15625,-30.2734375,-40.0390625,-64.94140625,0.0
294.31640625,-53.22265625,-31.73828125,-28.80859375,-42.48046875,-218.26171875,0.0
294.3203125,-43.9453125,-21.97265625,-32.2265625,-36.62109375,-314.94140625,0.0
294.32421875,-47.36328125,-21.97265625,-30.2734375,-34.66796875,-104.98046875,0.0
294.328125,-46.875,-27.83203125,-30.76171875,-34.66796875,-83.49609375,0.0
294.33203125,-36.62109375,-40.0390625,-29.296875,-39.0625,-63.4765625,0.0
294.3359375,-39.0625,-42.48046875,-20.01953125,-40.0390625,61.5234375,0.0
294.33984375,-44.921875,-31.25,-24.90234375,-40.52734375,61.5234375,0.0
294.34375,-40.52734375,-22.94921875,-30.76171875,-40.0390625,34.1796875,0.0
294.34765625,-46.875,-24.4140625,-34.66796875,-41.015625,-33.203125,0.0
294.3515625,-57.12890625,-31.25,-44.43359375,-39.55078125,-78.125,0.0
294.35546875,-46.38671875,-32.71484375,-38.57421875,-29.78515625,30.76171875,0.0
294.359375,-29.296875,-29.296875,-27.34375,-26.3671875,69.3359375,0.0
294.36328125,-17.08984375,-27.83203125,-28.3203125,-23.92578125,52.24609375,0.0
294.3671875,-12.6953125,-30.2734375,-41.015625,-28.3203125,65.91796875,0.0
294.37109375,-11.23046875,-31.73828125,-51.7578125,-31.73828125,53.22265625,0.0
294.375,-20.99609375,-33.203125,-35.64453125,-29.78515625,48.828125,0.0
294.37890625,-27.83203125,-38.57421875,-19.04296875,-32.71484375,75.1953125,0.0
294.3828125,-50.78125,-44.921875,-22.4609375,-28.80859375,58.10546875,0.0
294.38671875,-81.0546875,-39.55078125,-31.73828125,-26.85546875,-22.4609375,0.0
294.390625,-69.82421875,-27.34375,-37.59765625,-27.34375,-24.90234375,0.0
294.39453125,-67.3828125,-26.85546875,-32.2265625,-23.4375,19.04296875,0.0
294.3984375,-77.1484375,-29.78515625,-37.109375,-39.0625,-4.8828125,0.0
294.40234375,-68.84765625,-30.76171875,-37.59765625,-48.828125,23.4375,0.0
294.40625,-56.15234375,-33.203125,-36.1328125,-42.48046875,19.04296875,0.0
294.41015625,-48.828125,-41.015625,-31.25,-35.15625,-40.0390625,0.0
294.4140625,-43.45703125,-40.52734375,-36.1328125,-30.76171875,-10.7421875,0.0
294.41796875,-31.25,-30.2734375,-44.921875,-36.1328125,-21.484375,0.0
294.421875,-6.8359375,-37.59765625,-55.17578125,-33.69140625,-128.41796875,0.0
294.42578125,-3.41796875,-40.0390625,-69.3359375,-34.66796875,-124.51171875,0.0
294.4296875,-20.99609375,-28.80859375,-33.203125,-36.62109375,-36.62109375,0.0
294.43359375,-26.3671875,-27.34375,-10.25390625,-36.62109375,25.390625,0.0
294.4375,-30.2734375,-27.83203125,-21.97265625,-40.0390625,-87.40234375,0.0
294.44140625,-39.55078125,-35.64453125,-25.390625,-43.45703125,-206.0546875,0.0
294.4453125,-29.296875,-34.66796875,-20.5078125,-40.0390625,-151.85546875,0.0
294.44921875,-9.27734375,-30.2734375,-26.85546875,-29.296875,-70.80078125,0.0
294.453125,-8.30078125,-34.1796875,-31.25,-24.4140625,-140.625,0.0
294.45703125,-34.1796875,-31.73828125,-29.78515625,-26.3671875,-145.99609375,0.0
294.4609375,-38.57421875,-31.25,-20.99609375,-23.92578125,-67.3828125,0.0
294.46484375,-26.85546875,-37.109375,-26.85546875,-28.80859375,-69.82421875,0.0
294.46875,-26.3671875,-40.52734375,-40.0390625,-31.25,-143.5546875,0.0
294.47265625,-28.80859375,-43.9453125,-28.3203125,-28.3203125,-219.7265625,0.0
294.4765625,-17.578125,-43.9453125,-17.578125,-25.390625,-231.4453125,0.0
294.48046875,-1.953125,-34.66796875,-22.4609375,-20.5078125,-149.90234375,0.0
294.484375,5.37109375,-32.71484375,-20.01953125,-20.99609375,-77.1484375,0.0
294.48828125,5.37109375,-33.203125,-17.08984375,-28.3203125,-89.35546875,0.0
294.4921875,-2.44140625,-38.0859375,-24.90234375,-34.1796875,-134.765625,0.0
294.49609375,-12.6953125,-38.0859375,-29.296875,-27.34375,-86.42578125,0.0
294.5,-8.30078125,-32.2265625,-22.94921875,-26.85546875,-54.6875,0.0
294.50390625,-12.20703125,-34.66796875,-28.80859375,-36.1328125,-63.96484375,0.0
294.5078125,-25.87890625,-39.0625,-37.59765625,-41.50390625,-25.390625,0.0
294.51171875,-25.390625,-45.41015625,-28.80859375,-35.64453125,11.23046875,0.0
294.515625,-22.4609375,-30.76171875,-29.296875,-31.25,25.87890625,0.0
294.51953125,-26.85546875,-18.5546875,-19.53125,-30.2734375,40.0390625,0.0
294.5234375,-34.66796875,-26.3671875,-20.01953125,-33.69140625,47.36328125,0.0
294.52734375,-41.9921875,-26.3671875,-29.296875,-36.1328125,90.8203125,0.0
294.53125,-45.41015625,-26.3671875,-36.62109375,-34.1796875,90.8203125,0.0
294.53515625,-41.50390625,-35.15625,-34.66796875,-29.296875,65.91796875,0.0
294.5390625,-33.69140625,-32.2265625,-27.83203125,-20.01953125,26.85546875,0.0
294.54296875,-29.78515625,-31.73828125,-41.50390625,-24.4140625,-5.859375,0.0
294.546875,-35.15625,-38.57421875,-18.5546875,-28.3203125,20.5078125,0.0
294.55078125,-37.109375,-45.8984375,-4.39453125,-26.85546875,-2.9296875,0.0
294.5546875,-44.43359375,-48.33984375,-23.4375,-28.3203125,14.16015625,0.0
294.55859375,-40.52734375,-38.57421875,-25.390625,-26.85546875,37.59765625,0.0
294.5625,-22.94921875,-34.66796875,-26.3671875,-26.3671875,-61.03515625,0.0
294.56640625,-33.69140625,-41.50390625,-31.73828125,-27.34375,-126.953125,0.0
294.5703125,-37.109375,-37.109375,-28.3203125,-14.6484375,-94.7265625,0.0
294.57421875,-22.4609375,-31.73828125,-25.390625,-9.765625,-20.5078125,0.0
294.578125,-21.97265625,-32.71484375,-28.80859375,-28.3203125,-37.109375,0.0
294.58203125,-12.20703125,-29.78515625,-32.71484375,-38.0859375,-53.7109375,0.0
294.5859375,-20.01953125,-20.99609375,-31.25,-37.59765625,-52.24609375,0.0
294.58984375,-29.296875,-28.80859375,-21.484375,-35.64453125,-57.6171875,0.0
294.59375,-24.90234375,-37.109375,-25.390625,-33.203125,-24.4140625,0.0
294.59765625,-26.85546875,-32.2265625,-30.76171875,-29.78515625,-45.41015625,0.0
294.6015625,-15.13671875,-26.3671875,-29.78515625,-33.203125,-89.35546875,0.0
294.60546875,-10.25390625,-21.97265625,-21.484375,-32.2265625,-82.03125,0.0
294.609375,-32.71484375,-27.83203125,-20.01953125,-22.94921875,-35.64453125,0.0
294.61328125,-27.34375,-32.2265625,-28.3203125,-26.85546875,-3.90625,0.0
294.6171875,-7.8125,-28.3203125,-21.97265625,-33.69140625,15.13671875,0.0
294.62109375,-33.203125,-27.34375,-17.578125,-25.87890625,81.0546875,0.0
294.625,-54.19921875,-32.2265625,-25.87890625,-29.296875,64.453125,0.0
294.62890625,-22.94921875,-28.80859375,-31.25,-37.59765625,-30.2734375,0.0
294.6328125,-43.45703125,-17.08984375,-34.66796875,-35.15625,-35.64453125,0.0
294.63671875,-115.72265625,-20.5078125,-35.64453125,-31.25,-62.5,0.0
294.640625,-65.91796875,-35.15625,-36.62109375,-25.87890625,-69.3359375,0.0
294.64453125,13.671875,-33.203125,-42.48046875,-29.78515625,-31.73828125,0.0
294.6484375,-62.98828125,-33.69140625,-41.9921875,-37.59765625,-14.16015625,0.0
294.65234375,-86.9140625,-41.50390625,-42.96875,-36.62109375,67.87109375,0.0
294.65625,-19.53125,-36.62109375,-43.9453125,-33.69140625,129.39453125,0.0
294.66015625,-18.06640625,-32.2265625,-47.36328125,-23.92578125,9.27734375,0.0
294.6640625,7.8125,-31.73828125,-46.875,-26.85546875,-75.1953125,0.0
294.66796875,47.8515625,-31.73828125,-28.3203125,-35.15625,-65.91796875,0.0
294.671875,46.875,-32.2265625,-21.97265625,-28.3203125,-104.4921875,0.0
294.67578125,37.109375,-26.3671875,-18.5546875,-21.484375,-25.390625,0.0
294.6796875,34.66796875,-12.20703125,-14.16015625,-16.11328125,28.3203125,0.0
294.68359375,22.94921875,-17.578125,-29.78515625,-28.3203125,-24.4140625,0.0
294.6875,17.578125,-34.66796875,-35.15625,-34.66796875,-11.71875,0.0
294.69140625,26.3671875,-24.90234375,-27.34375,-23.4375,-56.15234375,0.0
294.6953125,29.296875,-13.18359375,-29.78515625,-20.01953125,-75.68359375,0.0
294.69921875,17.08984375,-20.01953125,-35.15625,-25.87890625,-21.97265625,0.0
294.703125,30.2734375,-13.671875,-46.875,-29.296875,-55.6640625,0.0
294.70703125,48.33984375,-8.7890625,-49.31640625,-28.80859375,-62.98828125,0.0
294.7109375,22.4609375,-14.6484375,-37.59765625,-25.87890625,-21.97265625,0.0
294.71484375,24.4140625,-15.625,-33.69140625,-25.87890625,-3.90625,0.0
294.71875,54.6875,-10.25390625,-28.3203125,-17.578125,3.90625,0.0
294.72265625,27.34375,-14.16015625,-26.3671875,-23.92578125,20.5078125,0.0
294.7265625,-24.4140625,-26.3671875,-24.4140625,-35.15625,5.859375,0.0
294.73046875,-6.8359375,-24.90234375,-27.34375,-27.34375,-68.84765625,0.0
294.734375,44.921875,-14.6484375,-31.73828125,-15.13671875,-82.51953125,0.0
294.73828125,38.0859375,-7.32421875,-18.5546875,0.0,-56.640625,0.0
294.7421875,17.08984375,-6.34765625,-22.94921875,-16.11328125,-48.828125,0.0
294.74609375,19.53125,-10.25390625,-47.8515625,-39.0625,-57.12890625,0.0
294.75,25.87890625,-22.4609375,-42.96875,-42.48046875,-62.5,0.0
294.75390625,21.97265625,-27.83203125,-31.25,-38.57421875,-44.921875,0.0
294.7578125,8.7890625,-15.625,-29.78515625,-32.2265625,4.39453125,0.0
294.76171875,5.859375,-9.765625,-35.15625,-41.015625,-10.7421875,0.0
294.765625,14.6484375,-21.484375,-36.1328125,-39.0625,-23.4375,0.0
294.76953125,18.5546875,-33.203125,-26.3671875,-21.484375,-27.34375,0.0
294.7734375,22.4609375,-15.13671875,-25.390625,-20.01953125,-67.87109375,0.0
294.77734375,43.9453125,-3.41796875,-26.85546875,-22.94921875,-37.59765625,0.0
294.78125,43.45703125,-10.7421875,-23.4375,-23.92578125,35.64453125,0.0
294.78515625,20.5078125,-18.5546875,-26.3671875,-33.203125,19.53125,0.0
294.7890625,18.06640625,-23.92578125,-35.64453125,-34.1796875,-7.8125,0.0
294.79296875,7.8125,-23.4375,-37.109375,-31.73828125,-36.62109375,0.0
294.796875,39.0625,-29.78515625,-32.2265625,-29.296875,-130.859375,0.0
294.80078125,72.75390625,-30.76171875,-46.38671875,-26.3671875,-89.35546875,0.0
294.8046875,40.52734375,-20.99609375,-38.0859375,-27.34375,-6.34765625,0.0
294.80859375,-0.48828125,-17.578125,-12.6953125,-37.59765625,20.99609375,0.0
294.8125,10.25390625,-21.97265625,-18.5546875,-27.34375,-0.48828125,0.0
294.81640625,22.4609375,-25.390625,-24.4140625,-12.6953125,-32.71484375,0.0
294.8203125,24.90234375,-11.71875,-22.94921875,-25.87890625,31.73828125,0.0
294.82421875,41.9921875,-11.23046875,-29.78515625,-33.69140625,4.8828125,0.0
294.828125,29.296875,-20.5078125,-40.0390625,-34.66796875,-103.515625,0.0
294.83203125,-7.32421875,-20.01953125,-41.50390625,-31.73828125,-42.96875,0.0
294.8359375,-23.4375,-20.99609375,-36.1328125,-21.97265625,78.125,0.0
294.83984375,-6.8359375,-20.5078125,-33.203125,-17.08984375,46.875,0.0
294.84375,4.8828125,-23.4375,-32.71484375,-26.3671875,-20.99609375,0.0
294.84765625,-4.39453125,-34.1796875,-28.3203125,-39.55078125,30.2734375,0.0
294.8515625,-21.484375,-41.015625,-31.73828125,-32.71484375,47.36328125,0.0
294.85546875,-26.3671875,-44.43359375,-32.71484375,-22.94921875,-80.56640625,0.0
294.859375,-31.73828125,-39.0625,-22.94921875,-25.390625,-104.98046875,0.0
294.86328125,-24.4140625,-30.2734375,-20.01953125,-30.76171875,-63.4765625,0.0
294.8671875,-13.18359375,-25.390625,-27.83203125,-38.57421875,-62.5,0.0
294.87109375,-16.11328125,-23.4375,-24.4140625,-40.0390625,-33.203125,0.0
294.875,-30.2734375,-26.85546875,-26.85546875,-28.80859375,-35.64453125,0.0
294.87890625,-39.0625,-34.66796875,-33.203125,-19.04296875,-56.640625,0.0
294.8828125,-20.01953125,-32.71484375,-20.5078125,-31.73828125,-57.12890625,0.0
294.88671875,-7.32421875,-32.71484375,-22.4609375,-28.3203125,21.484375,0.0
294.890625,-8.7890625,-31.73828125,-45.8984375,-10.7421875,77.63671875,0.0
294.89453125,-17.578125,-36.1328125,-29.78515625,-22.94921875,-8.7890625,0.0
294.8984375,-17.08984375,-44.921875,-14.16015625,-20.01953125,11.71875,0.0
294.90234375,-24.4140625,-30.76171875,-38.57421875,-20.01953125,60.05859375,0.0
294.90625,-32.2265625,-28.80859375,-40.52734375,-45.41015625,69.3359375,0.0
294.91015625,-36.62109375,-43.45703125,-35.64453125,-52.734375,-49.8046875,0.0
294.9140625,-44.921875,-35.64453125,-51.26953125,-40.52734375,-98.6328125,0.0
294.91796875,-36.62109375,-16.6015625,-18.06640625,-42.96875,-57.12890625,0.0
294.921875,-20.01953125,-29.78515625,-9.27734375,-44.921875,-74.70703125,0.0
294.92578125,-29.296875,-42.96875,-27.83203125,-32.2265625,-29.296875,0.0
294.9296875,-30.2734375,-39.0625,-33.203125,-35.15625,45.8984375,0.0
294.93359375,-31.25,-40.0390625,-30.2734375,-35.64453125,-13.18359375,0.0
294.9375,-33.203125,-41.50390625,-22.94921875,-29.296875,-75.68359375,0.0
294.94140625,-30.2734375,-45.41015625,-27.83203125,-29.296875,-32.71484375,0.0
294.9453125,-35.64453125,-46.38671875,-30.76171875,-32.2265625,-51.26953125,0.0
294.94921875,-42.48046875,-43.9453125,-40.52734375,-37.109375,-68.359375,0.0
294.953125,-25.390625,-47.8515625,-37.59765625,-29.296875,-69.82421875,0.0
294.95703125,-20.99609375,-44.921875,-26.3671875,-27.83203125,-60.05859375,0.0
294.9609375,-30.76171875,-30.2734375,-18.06640625,-32.2265625,-30.76171875,0.0
294.96484375,-24.90234375,-24.90234375,-9.765625,-19.53125,-138.671875,0.0
294.96875,-41.015625,-31.73828125,-22.4609375,-16.11328125,-157.71484375,0.0
294.97265625,-76.171875,-44.43359375,-26.3671875,-29.78515625,-14.6484375,0.0
294.9765625,-70.3125,-46.38671875,-25.87890625,-25.87890625,-28.80859375,0.0
294.98046875,-52.734375,-42.96875,-40.0390625,-12.20703125,-83.984375,0.0
294.984375,-33.203125,-42.48046875,-35.64453125,-20.5078125,-78.125,0.0
294.98828125,-27.34375,-42.48046875,-30.2734375,-27.83203125,-85.9375,0.0
294.9921875,-41.9921875,-46.875,-40.52734375,-28.3203125,-141.6015625,0.0
294.99609375,-38.57421875,-49.8046875,-46.38671875,-26.85546875,-142.08984375,0.0
295.0,-53.22265625,-44.921875,-37.59765625,-33.69140625,-45.8984375,0.0
295.00390625,-59.5703125,-41.9921875,-34.66796875,-40.52734375,-0.48828125,0.0
295.0078125,-41.015625,-40.0390625,-41.015625,-36.1328125,-60.05859375,0.0
295.01171875,-53.22265625,-44.921875,-34.66796875,-37.59765625,-105.95703125,0.0
295.015625,-56.15234375,-49.8046875,-30.76171875,-24.4140625,-39.55078125,0.0
295.01953125,-46.875,-40.0390625,-37.109375,-9.27734375,-23.92578125,0.0
295.0234375,-52.24609375,-30.2734375,-28.80859375,-20.5078125,-64.94140625,0.0
295.02734375,-66.40625,-32.2265625,-32.2265625,-36.1328125,-60.546875,0.0
295.03125,-86.42578125,-42.48046875,-44.43359375,-34.66796875,-41.50390625,0.0
295.03515625,-94.7265625,-52.24609375,-42.48046875,-31.73828125,13.671875,0.0
295.0390625,-94.23828125,-49.31640625,-41.9921875,-14.16015625,-0.9765625,0.0
295.04296875,-100.09765625,-39.55078125,-54.6875,-23.4375,-49.31640625,0.0
295.046875,-99.12109375,-45.41015625,-60.05859375,-76.66015625,-55.6640625,0.0
295.05078125,-90.8203125,-52.734375,-37.59765625,-76.171875,-8.30078125,0.0
295.0546875,-103.515625,-40.52734375,-45.41015625,-51.7578125,-9.27734375,0.0
295.05859375,-97.65625,-29.78515625,-48.33984375,-47.8515625,-67.87109375,0.0
295.0625,-87.40234375,-25.390625,-21.484375,-57.6171875,-0.48828125,0.0
295.06640625,-112.3046875,-24.90234375,-17.08984375,-57.12890625,116.2109375,0.0
295.0703125,-118.65234375,-27.34375,-23.92578125,-35.15625,25.390625,0.0
295.07421875,-132.8125,-38.0859375,-30.2734375,-37.59765625,-74.21875,0.0
295.078125,-148.4375,-47.8515625,-26.85546875,-47.36328125,-56.640625,0.0
295.08203125,-116.2109375,-47.36328125,-27.34375,-44.921875,-53.22265625,0.0
295.0859375,-70.3125,-41.50390625,-42.48046875,-44.921875,-92.7734375,0.0
295.08984375,-109.375,-46.38671875,-47.8515625,-42.48046875,-13.671875,0.0
295.09375,-161.62109375,-46.38671875,-40.52734375,-29.78515625,59.08203125,0.0
295.09765625,-141.11328125,-37.59765625,-29.78515625,-30.76171875,53.22265625,0.0
295.1015625,-128.41796875,-33.203125,-23.4375,-33.69140625,74.21875,0.0
295.10546875,-127.44140625,-34.66796875,-31.73828125,-24.90234375,41.9921875,0.0
295.109375,-113.76953125,-44.921875,-29.296875,-25.87890625,11.23046875,0.0
295.11328125,-101.07421875,-51.7578125,-21.484375,-33.69140625,-64.453125,0.0
295.1171875,-87.890625,-41.015625,-46.38671875,-28.3203125,-93.75,0.0
295.12109375,-89.84375,-36.62109375,-56.15234375,-28.3203125,6.8359375,0.0
295.125,-106.93359375,-42.48046875,-22.94921875,-44.921875,11.23046875,0.0
295.12890625,-109.375,-50.78125,-20.5078125,-41.50390625,-40.0390625,0.0
295.1328125,-104.98046875,-50.78125,-43.9453125,-33.203125,25.390625,0.0
295.13671875,-125.9765625,-32.71484375,-43.9453125,-44.921875,22.4609375,0.0
295.140625,-137.20703125,-27.83203125,-25.87890625,-48.828125,-17.08984375,0.0
295.14453125,-125.0,-32.2265625,-17.08984375,-46.875,-16.6015625,0.0
295.1484375,-137.6953125,-31.73828125,-26.85546875,-49.31640625,-48.828125,0.0
295.15234375,-148.92578125,-32.2265625,-41.015625,-59.08203125,-78.125,0.0
295.15625,-120.60546875,-32.71484375,-39.55078125,-52.734375,-52.24609375,0.0
295.16015625,-120.60546875,-36.62109375,-26.3671875,-39.0625,-16.11328125,0.0
295.1640625,-139.6484375,-42.96875,-26.3671875,-55.6640625,0.0,0.0
295.16796875,-140.13671875,-38.0859375,-33.203125,-63.4765625,-61.5234375,0.0
295.171875,-138.671875,-31.73828125,-46.875,-60.546875,-82.03125,0.0
295.17578125,-116.69921875,-38.0859375,-51.7578125,-55.17578125,-2.44140625,0.0
295.1796875,-109.86328125,-42.48046875,-44.43359375,-54.19921875,52.24609375,0.0
295.18359375,-120.60546875,-36.1328125,-46.38671875,-57.6171875,48.828125,0.0
295.1875,-117.67578125,-31.73828125,-42.96875,-53.7109375,3.41796875,0.0
295.19140625,-124.0234375,-38.0859375,-21.484375,-63.4765625,-11.23046875,0.0
295.1953125,-116.2109375,-40.52734375,-10.7421875,-68.84765625,50.78125,0.0
295.19921875,-112.79296875,-35.64453125,-34.66796875,-61.03515625,74.70703125,0.0
295.203125,-109.375,-30.76171875,-45.8984375,-52.24609375,47.8515625,0.0
295.20703125,-77.1484375,-45.8984375,-22.4609375,-49.31640625,-38.57421875,0.0
295.2109375,-83.984375,-59.5703125,-28.3203125,-48.828125,-132.32421875,0.0
295.21484375,-106.4453125,-34.1796875,-40.0390625,-38.0859375,-135.7421875,0.0
295.21875,-120.1171875,-27.34375,-26.85546875,-44.921875,-114.2578125,0.0
295.22265625,-104.98046875,-35.64453125,-31.25,-58.59375,-10.25390625,0.0
295.2265625,-114.2578125,-32.71484375,-36.1328125,-58.59375,27.83203125,0.0
295.23046875,-110.3515625,-35.64453125,-29.78515625,-44.43359375,-45.8984375,0.0
295.234375,-70.3125,-49.8046875,-19.04296875,-40.52734375,-97.65625,0.0
295.23828125,-86.9140625,-48.828125,-18.06640625,-51.7578125,-119.62890625,0.0
295.2421875,-96.19140625,-33.203125,-25.87890625,-38.0859375,-68.84765625,0.0
295.24609375,-96.6796875,-29.296875,-27.34375,-40.0390625,-97.65625,0.0
295.25,-108.3984375,-25.87890625,-33.69140625,-50.29296875,-114.74609375,0.0
295.25390625,-85.44921875,-30.76171875,-30.2734375,-38.0859375,-22.94921875,0.0
295.2578125,-65.91796875,-29.296875,-40.52734375,-35.64453125,-32.71484375,0.0
295.26171875,-64.94140625,-30.2734375,-56.640625,-46.38671875,-43.45703125,0.0
295.265625,-68.359375,-38.57421875,-38.57421875,-56.15234375,12.6953125,0.0
295.26953125,-84.9609375,-34.1796875,-30.2734375,-72.265625,54.6875,0.0
295.2734375,-106.93359375,-36.62109375,-29.78515625,-94.7265625,-4.39453125,0.0
295.27734375,-96.19140625,-45.8984375,-25.390625,-72.75390625,-97.16796875,0.0
295.28125,-76.171875,-44.921875,-37.109375,-59.08203125,-44.921875,0.0
295.28515625,-105.46875,-41.50390625,-29.78515625,-82.51953125,-71.2890625,0.0
295.2890625,-109.86328125,-38.57421875,-41.015625,-61.03515625,-91.796875,0.0
295.29296875,-66.40625,-48.33984375,-57.12890625,-39.0625,-60.546875,0.0
295.296875,-50.78125,-52.734375,-44.43359375,-61.5234375,-93.75,0.0
295.30078125,-59.5703125,-38.0859375,-37.59765625,-63.4765625,-66.89453125,0.0
295.3046875,-59.5703125,-29.78515625,-38.57421875,-64.94140625,-65.91796875,0.0
295.30859375,-50.78125,-17.578125,-41.50390625,-51.7578125,-43.45703125,0.0
295.3125,-59.5703125,-35.15625,-52.734375,-45.8984375,31.25,0.0
295.31640625,-51.26953125,-43.9453125,-56.640625,-50.78125,-59.08203125,0.0
295.3203125,-37.59765625,-30.76171875,-28.3203125,-50.78125,-122.0703125,0.0
295.32421875,-58.59375,-29.78515625,-28.3203125,-70.3125,-41.50390625,0.0
295.328125,-50.78125,-37.59765625,-40.0390625,-64.94140625,11.71875,0.0
295.33203125,-32.2265625,-46.875,-40.0390625,-44.921875,-43.45703125,0.0
295.3359375,-37.59765625,-42.48046875,-38.0859375,-38.57421875,-116.69921875,0.0
295.33984375,-8.30078125,-40.0390625,-45.8984375,-56.640625,-10.7421875,0.0
295.34375,4.39453125,-52.24609375,-53.22265625,-56.640625,19.53125,0.0
295.34765625,-44.43359375,-49.8046875,-38.57421875,-40.0390625,-19.04296875,0.0
295.3515625,-44.921875,-27.34375,-24.90234375,-23.4375,-32.2265625,0.0
295.35546875,-12.6953125,-29.296875,-33.203125,-31.25,-117.1875,0.0
295.359375,-27.83203125,-39.0625,-38.57421875,-45.41015625,-93.75,0.0
295.36328125,-56.640625,-36.1328125,-26.3671875,-35.64453125,-54.6875,0.0
295.3671875,-55.6640625,-39.55078125,-24.4140625,-37.59765625,-76.171875,0.0
295.37109375,-38.57421875,-41.9921875,-25.390625,-31.25,9.765625,0.0
295.375,-18.5546875,-42.48046875,-22.94921875,-13.671875,70.80078125,0.0
295.37890625,-1.953125,-40.0390625,-28.3203125,-15.625,28.3203125,0.0
295.3828125,3.41796875,-35.15625,-31.73828125,-11.71875,-91.796875,0.0
295.38671875,17.578125,-38.0859375,-40.52734375,-1.953125,-78.125,0.0
295.390625,41.50390625,-37.109375,-47.8515625,2.44140625,-9.27734375,0.0
295.39453125,69.3359375,-30.2734375,-31.73828125,9.27734375,-36.62109375,0.0
295.3984375,92.7734375,-25.390625,-16.11328125,13.18359375,-34.1796875,0.0
295.40234375,104.4921875,-25.390625,-18.06640625,6.8359375,-15.625,0.0
295.40625,116.69921875,-31.73828125,-33.203125,3.41796875,8.7890625,0.0
295.41015625,121.58203125,-36.62109375,-44.921875,3.41796875,-18.06640625,0.0
295.4140625,131.34765625,-36.1328125,-26.85546875,7.32421875,13.18359375,0.0
295.41796875,148.4375,-31.73828125,-15.625,9.765625,-2.9296875,0.0
295.421875,151.85546875,-27.83203125,-23.92578125,5.859375,17.08984375,0.0
295.42578125,147.94921875,-28.80859375,-23.92578125,0.0,78.125,0.0
295.4296875,136.23046875,-30.76171875,-20.99609375,-3.90625,63.4765625,0.0
295.43359375,142.08984375,-33.69140625,-21.97265625,-1.953125,-6.34765625,0.0
295.4375,133.7890625,-36.62109375,-19.04296875,-6.34765625,-58.10546875,0.0
295.44140625,115.72265625,-38.0859375,-27.34375,-10.25390625,-60.05859375,0.0
295.4453125,109.86328125,-33.203125,-27.34375,-4.8828125,-26.3671875,0.0
295.44921875,96.19140625,-26.85546875,-21.97265625,-2.44140625,100.09765625,0.0
295.453125,86.42578125,-24.4140625,-31.25,3.90625,74.70703125,0.0
295.45703125,92.7734375,-23.92578125,-23.92578125,2.9296875,-25.390625,0.0
295.4609375,104.00390625,-28.80859375,-20.99609375,-16.6015625,49.8046875,0.0
295.46484375,102.05078125,-27.34375,-38.0859375,-22.4609375,6.34765625,0.0
295.46875,104.00390625,-20.01953125,-28.80859375,-20.5078125,-96.6796875,0.0
295.47265625,84.9609375,-26.3671875,-22.4609375,-34.66796875,-77.1484375,0.0
295.4765625,56.15234375,-28.3203125,-30.2734375,-39.0625,-40.52734375,0.0
295.48046875,41.9921875,-20.5078125,-31.73828125,-36.62109375,-15.625,0.0
295.484375,30.76171875,-28.80859375,-34.1796875,-21.484375,-28.80859375,0.0
295.48828125,15.625,-37.109375,-30.76171875,-1.953125,-106.93359375,0.0
295.4921875,0.9765625,-31.25,-31.25,11.71875,-145.01953125,0.0
295.49609375,2.9296875,-30.76171875,-22.4609375,6.8359375,-64.94140625,0.0
295.5,15.625,-25.87890625,-17.578125,-29.296875,-45.8984375,0.0
295.50390625,11.71875,-26.3671875,-42.96875,-63.4765625,-103.02734375,0.0
295.5078125,4.39453125,-31.25,-50.29296875,-63.96484375,-20.01953125,0.0
295.51171875,-10.7421875,-37.109375,-26.3671875,-62.01171875,60.05859375,0.0
295.515625,-15.13671875,-34.1796875,-9.27734375,-61.5234375,8.30078125,0.0
295.51953125,-11.23046875,-30.2734375,-17.08984375,-50.78125,-6.34765625,0.0
295.5234375,-16.11328125,-33.203125,-29.296875,-44.921875,-67.3828125,0.0
295.52734375,-12.20703125,-34.66796875,-37.109375,-34.1796875,-109.375,0.0
295.53125,-4.8828125,-33.69140625,-47.8515625,-35.64453125,-38.57421875,0.0
295.53515625,2.9296875,-26.85546875,-37.59765625,-48.33984375,-3.90625,0.0
295.5390625,8.30078125,-18.5546875,-26.3671875,-45.41015625,-88.8671875,0.0
295.54296875,12.6953125,-20.99609375,-32.2265625,-48.33984375,-145.99609375,0.0
295.546875,-2.44140625,-27.83203125,-38.57421875,-53.22265625,-104.4921875,0.0
295.55078125,-16.6015625,-37.109375,-41.9921875,-53.7109375,-194.82421875,0.0
295.5546875,12.20703125,-46.875,-43.45703125,-56.15234375,-233.3984375,0.0
295.55859375,22.4609375,-39.0625,-43.9453125,-44.43359375,-188.4765625,0.0
295.5625,-29.78515625,-26.3671875,-29.78515625,-31.25,-98.14453125,0.0
295.56640625,-36.1328125,-22.94921875,-14.6484375,-35.15625,-28.80859375,0.0
295.5703125,-11.71875,-15.13671875,-23.4375,-42.48046875,-10.25390625,0.0
295.57421875,3.90625,-10.25390625,-32.2265625,-36.62109375,-16.6015625,0.0
295.578125,-3.41796875,-18.5546875,-20.01953125,-20.99609375,-67.3828125,0.0
295.58203125,-36.62109375,-39.55078125,-18.5546875,-18.5546875,-85.9375,0.0
295.5859375,-42.48046875,-36.62109375,-30.2734375,-27.34375,-54.19921875,0.0
295.58984375,-26.85546875,-22.94921875,-34.66796875,-23.92578125,-8.30078125,0.0
295.59375,-17.08984375,-24.90234375,-33.203125,-24.4140625,0.9765625,0.0
295.59765625,-5.859375,-25.390625,-26.3671875,-30.2734375,32.2265625,0.0
295.6015625,-5.859375,-24.90234375,-31.25,-34.66796875,102.5390625,0.0
295.60546875,-11.23046875,-32.2265625,-35.15625,-37.109375,43.9453125,0.0
295.609375,-8.7890625,-36.1328125,-41.50390625,-32.71484375,30.2734375,0.0
295.61328125,-14.6484375,-38.0859375,-38.0859375,-27.34375,62.5,0.0
295.6171875,-13.671875,-35.15625,-15.625,-15.625,-8.30078125,0.0
295.62109375,-15.625,-28.80859375,-23.4375,-15.625,-9.765625,0.0
295.625,-15.13671875,-29.296875,-24.4140625,-16.6015625,19.53125,0.0
295.62890625,-11.71875,-32.71484375,-23.4375,-33.203125,51.26953125,0.0
295.6328125,-13.671875,-30.76171875,-22.94921875,-56.640625,64.94140625,0.0
295.63671875,-5.859375,-31.25,-19.53125,-42.96875,43.9453125,0.0
295.640625,-9.27734375,-33.69140625,-36.1328125,-40.52734375,23.4375,0.0
295.64453125,-13.671875,-30.76171875,-38.57421875,-39.55078125,16.6015625,0.0
295.6484375,-14.6484375,-35.64453125,-34.66796875,-29.78515625,43.9453125,0.0
295.65234375,-27.34375,-42.48046875,-35.15625,-22.94921875,81.54296875,0.0
295.65625,-22.94921875,-36.62109375,-36.62109375,-31.73828125,134.27734375,0.0
295.66015625,-9.27734375,-33.69140625,-39.0625,-41.50390625,39.55078125,0.0
295.6640625,-8.30078125,-27.34375,-36.1328125,-51.26953125,32.2265625,0.0
295.66796875,-6.8359375,-30.2734375,-49.8046875,-59.08203125,41.9921875,0.0
295.671875,-15.13671875,-43.45703125,-38.0859375,-61.03515625,-78.125,0.0
295.67578125,-15.13671875,-48.828125,-17.578125,-56.640625,-141.6015625,0.0
295.6796875,-11.23046875,-43.45703125,-32.2265625,-54.19921875,-115.72265625,0.0
295.68359375,-13.18359375,-36.62109375,-38.57421875,-60.546875,-47.8515625,0.0
295.6875,-21.484375,-40.52734375,-34.66796875,-55.17578125,-77.1484375,0.0
295.69140625,-46.875,-42.96875,-30.76171875,-48.828125,-49.8046875,0.0
295.6953125,-49.8046875,-38.57421875,-26.3671875,-41.50390625,6.34765625,0.0
295.69921875,-34.66796875,-39.55078125,-28.3203125,-34.1796875,-72.265625,0.0
295.703125,-30.76171875,-41.50390625,-36.1328125,-48.33984375,-43.9453125,0.0
295.70703125,-33.203125,-38.0859375,-35.64453125,-53.22265625,27.83203125,0.0
295.7109375,-31.73828125,-35.15625,-39.55078125,-39.55078125,9.27734375,0.0
295.71484375,-11.23046875,-30.2734375,-27.83203125,-34.1796875,-61.5234375,0.0
295.71875,9.27734375,-27.34375,-20.01953125,-41.015625,-87.40234375,0.0
295.72265625,8.30078125,-39.55078125,-31.73828125,-53.22265625,-3.41796875,0.0
295.7265625,-8.7890625,-43.45703125,-31.25,-42.48046875,36.62109375,0.0
295.73046875,-40.0390625,-33.69140625,-27.34375,-28.80859375,7.32421875,0.0
295.734375,-33.69140625,-36.62109375,-25.390625,-41.015625,-4.8828125,0.0
295.73828125,-7.8125,-37.109375,-25.87890625,-48.828125,-41.015625,0.0
295.7421875,-39.55078125,-29.296875,-34.1796875,-41.9921875,-55.17578125,0.0
295.74609375,-80.078125,-26.85546875,-36.62109375,-32.2265625,-99.609375,0.0
295.75,-73.73046875,-30.2734375,-33.203125,-31.25,-8.7890625,0.0
295.75390625,-67.87109375,-32.2265625,-32.2265625,-28.80859375,26.85546875,0.0
295.7578125,-60.05859375,-33.203125,-27.83203125,-26.3671875,-20.5078125,0.0
295.76171875,-39.0625,-30.2734375,-31.73828125,-35.64453125,48.828125,0.0
295.765625,-33.203125,-35.15625,-46.38671875,-45.41015625,-8.30078125,0.0
295.76953125,-30.2734375,-40.52734375,-39.55078125,-45.41015625,-85.44921875,0.0
295.7734375,-27.34375,-38.57421875,-20.5078125,-31.25,-141.11328125,0.0
295.77734375,-27.83203125,-39.55078125,-13.18359375,-32.2265625,-55.6640625,0.0
295.78125,-46.875,-42.48046875,-19.04296875,-43.45703125,27.83203125,0.0
295.78515625,-53.22265625,-36.62109375,-25.390625,-52.24609375,-9.765625,0.0
295.7890625,-41.50390625,-33.69140625,-29.78515625,-41.015625,-67.3828125,0.0
295.79296875,-36.62109375,-41.50390625,-29.78515625,-27.83203125,-12.6953125,0.0
295.796875,-19.53125,-47.36328125,-29.78515625,-19.53125,-4.39453125,0.0
295.80078125,-21.484375,-44.43359375,-32.71484375,-21.97265625,-18.06640625,0.0
295.8046875,-45.8984375,-38.57421875,-31.25,-27.34375,-21.97265625,0.0
295.80859375,-57.6171875,-44.43359375,-36.1328125,-23.4375,-43.45703125,0.0
295.8125,-30.2734375,-49.31640625,-40.0390625,-40.52734375,-48.33984375,0.0
295.81640625,5.37109375,-46.875,-35.15625,-45.41015625,-111.81640625,0.0
295.8203125,7.32421875,-39.0625,-37.59765625,-29.296875,-114.2578125,0.0
295.82421875,-6.8359375,-36.62109375,-39.55078125,-18.06640625,4.39453125,0.0
295.828125,-13.18359375,-41.015625,-27.83203125,-6.34765625,81.54296875,0.0
295.83203125,-14.6484375,-46.38671875,-46.875,-5.859375,-13.671875,0.0
295.8359375,-41.9921875,-51.26953125,-41.015625,-13.671875,-8.30078125,0.0
295.83984375,-68.84765625,-37.59765625,-17.578125,-39.55078125,37.109375,0.0
295.84375,-84.47265625,-27.83203125,-31.73828125,-69.3359375,25.390625,0.0
295.84765625,-116.2109375,-28.80859375,-34.66796875,-62.98828125,24.90234375,0.0
295.8515625,-108.88671875,-28.3203125,-25.87890625,-51.7578125,27.83203125,0.0
295.85546875,-85.9375,-33.69140625,-25.390625,-47.36328125,-52.24609375,0.0
295.859375,-86.9140625,-37.109375,-20.5078125,-41.9921875,-100.09765625,0.0
295.86328125,-54.6875,-30.2734375,-17.578125,-41.9921875,-71.2890625,0.0
295.8671875,-45.8984375,-31.25,-21.97265625,-40.0390625,-61.03515625,0.0
295.87109375,-98.14453125,-36.1328125,-25.87890625,-37.109375,-69.3359375,0.0
295.875,-84.9609375,-28.3203125,-35.15625,-41.015625,-51.7578125,0.0
295.87890625,-78.61328125,-22.94921875,-41.015625,-38.57421875,-17.08984375,0.0
295.8828125,-127.9296875,-26.3671875,-32.71484375,-33.203125,-60.05859375,0.0
295.88671875,-117.67578125,-34.66796875,-32.71484375,-25.87890625,-119.140625,0.0
295.890625,-85.44921875,-51.7578125,-40.52734375,-21.97265625,-119.140625,0.0
295.89453125,-52.734375,-42.48046875,-41.015625,-27.34375,-142.08984375,0.0
295.8984375,-7.8125,-20.99609375,-35.64453125,-26.3671875,-155.76171875,0.0
295.90234375,-2.44140625,-30.2734375,-28.3203125,-31.73828125,-88.8671875,0.0
295.90625,-12.6953125,-21.484375,-24.4140625,-35.64453125,-85.44921875,0.0
295.91015625,-21.97265625,-12.20703125,-34.66796875,-31.25,-120.1171875,0.0
295.9140625,0.9765625,-21.97265625,-35.64453125,-28.80859375,-102.5390625,0.0
295.91796875,23.92578125,-37.109375,-30.76171875,-29.78515625,-56.15234375,0.0
295.921875,5.859375,-37.109375,-37.109375,-41.015625,-31.73828125,0.0
295.92578125,20.5078125,-32.2265625,-41.50390625,-46.38671875,-51.7578125,0.0
295.9296875,24.4140625,-55.17578125,-41.50390625,-38.57421875,-64.453125,0.0
295.93359375,-2.44140625,-47.8515625,-47.36328125,-24.4140625,-83.0078125,0.0
295.9375,31.73828125,-19.04296875,-39.55078125,-8.30078125,-96.19140625,0.0
295.94140625,39.0625,-12.20703125,-27.83203125,-10.25390625,-109.86328125,0.0
295.9453125,2.9296875,-12.6953125,-22.94921875,-21.97265625,-122.55859375,0.0
295.94921875,-4.8828125,-20.01953125,-33.69140625,-38.57421875,-82.51953125,0.0
295.953125,4.8828125,-18.06640625,-48.33984375,-48.828125,-31.25,0.0
295.95703125,27.34375,-22.4609375,-25.87890625,-47.8515625,59.08203125,0.0
295.9609375,14.16015625,-25.390625,-22.94921875,-71.77734375,123.53515625,0.0
295.96484375,-13.18359375,-8.7890625,-35.64453125,-98.6328125,102.05078125,0.0
295.96875,-12.20703125,-27.83203125,-28.80859375,-98.14453125,32.2265625,0.0
295.97265625,-26.3671875,-45.8984375,-41.015625,-114.74609375,-14.16015625,0.0
295.9765625,-42.96875,-8.30078125,-51.7578125,-131.34765625,28.80859375,0.0
295.98046875,-44.43359375,12.6953125,-55.6640625,-142.578125,51.7578125,0.0
295.984375,-37.109375,-51.26953125,-59.08203125,-148.4375,1.953125,0.0
295.98828125,-87.890625,-27.83203125,-63.4765625,-179.6875,-16.6015625,0.0
295.9921875,-141.6015625,49.31640625,-76.171875,-209.47265625,28.80859375,0.0
295.99609375,-113.28125,45.8984375,-68.84765625,-199.21875,49.31640625,0.0
296.0,-102.05078125,36.62109375,-46.38671875,-208.49609375,-3.41796875,0.0
296.00390625,-101.5625,6.8359375,-62.01171875,-212.890625,-46.38671875,0.0
296.0078125,-124.51171875,5.37109375,-72.75390625,-221.19140625,-31.25,0.0
296.01171875,-146.484375,2.9296875,-51.26953125,-227.5390625,30.2734375,0.0
296.015625,-122.0703125,-2.44140625,-62.01171875,-204.58984375,-19.04296875,0.0
296.01953125,-123.046875,49.31640625,-78.61328125,-198.2421875,-21.97265625,0.0
296.0234375,-135.7421875,37.59765625,-88.8671875,-197.265625,35.64453125,0.0
296.02734375,-161.1328125,10.25390625,-75.68359375,-187.01171875,-16.11328125,0.0
296.03125,-152.83203125,10.25390625,-69.82421875,-170.8984375,-29.296875,0.0
296.03515625,-115.72265625,7.32421875,-82.03125,-152.34375,-38.57421875,0.0
296.0390625,-114.74609375,-4.8828125,-88.8671875,-139.16015625,-29.78515625,0.0
296.04296875,-133.30078125,-12.20703125,-107.421875,-126.46484375,58.10546875,0.0
296.046875,-117.1875,29.296875,-72.75390625,-127.44140625,58.10546875,0.0
296.05078125,-87.890625,39.0625,-46.38671875,-126.46484375,2.44140625,0.0
296.0546875,-70.80078125,9.765625,-69.3359375,-103.02734375,-67.3828125,0.0
296.05859375,-34.1796875,-29.78515625,-69.3359375,-84.9609375,-79.58984375,0.0
296.0625,-29.296875,-16.11328125,-65.4296875,-87.890625,-83.49609375,0.0
296.06640625,-46.38671875,0.0,-69.3359375,-77.63671875,-162.109375,0.0
296.0703125,-37.59765625,-26.3671875,-57.12890625,-60.05859375,-152.34375,0.0
296.07421875,-18.5546875,-10.7421875,-61.03515625,-47.8515625,-95.703125,0.0
296.078125,-14.6484375,11.23046875,-73.2421875,-37.109375,-79.58984375,0.0
296.08203125,-48.33984375,3.90625,-64.94140625,-45.8984375,-77.63671875,0.0
296.0859375,-20.99609375,-41.015625,-52.24609375,-24.4140625,-74.21875,0.0
296.08984375,13.18359375,-40.52734375,-41.9921875,6.34765625,-102.5390625,0.0
296.09375,-26.85546875,6.34765625,-54.19921875,-11.71875,-78.61328125,0.0
296.09765625,-31.73828125,-9.27734375,-62.5,-20.01953125,-91.796875,0.0
296.1015625,-22.4609375,-29.296875,-62.98828125,-14.6484375,-105.95703125,0.0
296.10546875,-25.390625,-28.3203125,-56.640625,-13.18359375,-19.04296875,0.0
296.109375,-42.48046875,-28.80859375,-49.8046875,-20.01953125,40.0390625,0.0
296.11328125,-49.8046875,-22.94921875,-40.52734375,-23.4375,46.875,0.0
296.1171875,-21.97265625,-25.390625,-33.69140625,-3.90625,55.6640625,0.0
296.12109375,-23.92578125,-13.671875,-42.48046875,-11.71875,21.484375,0.0
296.125,-38.57421875,-9.27734375,-40.52734375,-22.94921875,6.8359375,0.0
296.12890625,-32.71484375,-28.3203125,-36.62109375,-5.37109375,3.41796875,0.0
296.1328125,-42.48046875,-37.59765625,-43.9453125,-3.41796875,-35.64453125,0.0
296.13671875,-70.3125,-43.45703125,-33.69140625,-0.48828125,11.71875,0.0
296.140625,-83.49609375,-25.390625,-27.83203125,0.0,24.90234375,0.0
296.14453125,-74.70703125,-1.953125,-31.73828125,-8.7890625,-26.3671875,0.0
296.1484375,-63.96484375,5.37109375,-23.4375,3.90625,-60.546875,0.0
296.15234375,-53.7109375,-19.53125,-30.76171875,13.671875,-63.4765625,0.0
296.15625,-42.48046875,-35.64453125,-31.25,8.30078125,-31.25,0.0
296.16015625,-41.9921875,-16.6015625,-24.4140625,5.859375,-31.25,0.0
296.1640625,-57.6171875,-3.90625,-31.25,-8.30078125,-32.2265625,0.0
296.16796875,-78.61328125,-7.32421875,-32.71484375,-17.578125,6.8359375,0.0
296.171875,-86.9140625,-19.53125,-29.78515625,-10.7421875,-39.55078125,0.0
296.17578125,-71.2890625,-18.5546875,-17.578125,-1.953125,-50.29296875,0.0
296.1796875,-58.59375,-15.625,-11.71875,1.953125,5.859375,0.0
296.18359375,-62.98828125,-10.25390625,-39.0625,-17.08984375,25.87890625,0.0
296.1875,-55.17578125,-19.04296875,-52.24609375,-27.83203125,37.59765625,0.0
296.19140625,-38.0859375,-39.55078125,-31.25,-15.625,26.85546875,0.0
296.1953125,-69.82421875,-17.08984375,-24.90234375,-14.16015625,-31.25,0.0
296.19921875,-80.56640625,-24.90234375,-32.71484375,-24.4140625,22.94921875,0.0
296.203125,-62.98828125,-60.546875,-40.0390625,-30.2734375,93.26171875,0.0
296.20703125,-70.3125,-15.13671875,-42.96875,-31.73828125,40.52734375,0.0
296.2109375,-81.0546875,15.13671875,-33.203125,-34.1796875,-28.80859375,0.0
296.21484375,-88.8671875,-23.92578125,-25.87890625,-27.34375,-97.65625,0.0
296.21875,-89.35546875,-41.50390625,-27.83203125,-20.01953125,-64.453125,0.0
296.22265625,-72.75390625,-16.6015625,-33.69140625,-16.6015625,-82.51953125,0.0
296.2265625,-73.73046875,-0.48828125,-34.1796875,-17.08984375,-116.2109375,0.0
296.23046875,-90.33203125,-4.8828125,-39.0625,-25.87890625,-87.890625,0.0
296.234375,-86.9140625,-15.625,-31.73828125,-36.1328125,-131.34765625,0.0
296.23828125,-60.546875,-9.27734375,-15.13671875,-28.80859375,-235.83984375,0.0
296.2421875,-46.875,-32.71484375,-19.04296875,-30.2734375,-241.69921875,0.0
296.24609375,-62.98828125,-39.55078125,-33.203125,-53.7109375,-199.21875,0.0
296.25,-59.5703125,-13.671875,-34.66796875,-45.41015625,-207.03125,0.0
296.25390625,-36.1328125,-42.48046875,-31.25,-28.3203125,-117.67578125,0.0
296.2578125,-46.38671875,-51.26953125,-30.2734375,-42.96875,-119.62890625,0.0
296.26171875,-51.7578125,-9.765625,-32.2265625,-42.48046875,-193.84765625,0.0
296.265625,-74.70703125,18.06640625,-31.25,-26.85546875,-185.546875,0.0
296.26953125,-101.07421875,-2.9296875,-25.87890625,-30.2734375,-215.8203125,0.0
296.2734375,-91.30859375,-17.578125,-28.3203125,-22.4609375,-185.05859375,0.0
296.27734375,-53.7109375,-42.96875,-34.66796875,-16.6015625,-84.47265625,0.0
296.28125,-34.1796875,-39.55078125,-30.76171875,-17.578125,-140.13671875,0.0
296.28515625,-31.73828125,-6.8359375,-20.5078125,-21.484375,-115.72265625,0.0
296.2890625,-17.08984375,-9.765625,-33.203125,-34.1796875,-8.7890625,0.0
296.29296875,-23.92578125,-3.41796875,-48.33984375,-49.31640625,53.22265625,0.0
296.296875,-27.34375,-20.5078125,-55.17578125,-43.45703125,95.703125,0.0
296.30078125,-80.56640625,-33.69140625,-52.24609375,-29.78515625,46.875,0.0
296.3046875,-135.7421875,-39.55078125,-25.390625,-19.53125,-14.16015625,0.0
296.30859375,-112.3046875,-38.57421875,-20.5078125,-15.13671875,-50.29296875,0.0
296.3125,-119.62890625,-19.53125,-27.34375,-41.015625,-80.078125,0.0
296.31640625,-115.234375,-32.71484375,-30.76171875,-49.31640625,-8.7890625,0.0
296.3203125,-88.8671875,-57.6171875,-28.3203125,-41.50390625,62.98828125,0.0
296.32421875,-98.6328125,-43.9453125,-26.85546875,-50.78125,75.1953125,0.0
296.328125,-87.40234375,-20.99609375,-23.92578125,-56.640625,88.37890625,0.0
296.33203125,-117.1875,13.18359375,-25.87890625,-65.91796875,43.45703125,0.0
296.3359375,-155.2734375,6.8359375,-43.9453125,-55.6640625,19.04296875,0.0
296.33984375,-128.41796875,-19.04296875,-43.9453125,-33.203125,12.20703125,0.0
296.34375,-117.1875,-16.6015625,-35.64453125,-51.7578125,18.06640625,0.0
296.34765625,-126.46484375,-13.18359375,-31.25,-61.03515625,38.0859375,0.0
296.3515625,-122.55859375,-34.1796875,-23.4375,-35.64453125,-6.34765625,0.0
296.35546875,-119.140625,-36.62109375,-18.06640625,-38.57421875,-29.78515625,0.0
296.359375,-102.5390625,-16.11328125,-22.4609375,-39.55078125,15.625,0.0
296.36328125,-81.0546875,-62.5,-18.06640625,-33.203125,-28.3203125,0.0
296.3671875,-106.93359375,-71.2890625,-19.53125,-58.10546875,-49.8046875,0.0
296.37109375,-142.578125,15.625,-27.34375,-66.89453125,-3.41796875,0.0
296.375,-156.25,44.921875,-30.76171875,-74.70703125,-8.30078125,0.0
296.37890625,-168.9453125,21.97265625,-38.0859375,-89.84375,-1.953125,0.0
296.3828125,-178.22265625,-10.7421875,-38.57421875,-80.56640625,27.34375,0.0
296.38671875,-195.80078125,-20.5078125,-46.875,-77.63671875,17.08984375,0.0
296.390625,-194.82421875,-30.2734375,-44.921875,-91.796875,39.55078125,0.0
296.39453125,-186.03515625,-24.90234375,-38.57421875,-110.3515625,-37.109375,0.0
296.3984375,-174.8046875,-7.8125,-36.1328125,-91.30859375,-116.69921875,0.0
296.40234375,-178.22265625,-27.34375,-41.50390625,-90.33203125,-125.9765625,0.0
296.40625,-223.6328125,-3.41796875,-36.62109375,-108.3984375,-140.625,0.0
296.41015625,-248.53515625,15.13671875,-29.296875,-108.3984375,-72.75390625,0.0
296.4140625,-239.2578125,-3.90625,-35.64453125,-93.26171875,10.7421875,0.0
296.41796875,-224.12109375,-15.13671875,-36.1328125,-91.796875,61.03515625,0.0
296.421875,-241.2109375,-2.44140625,-39.0625,-105.46875,119.140625,0.0
296.42578125,-268.5546875,21.484375,-41.50390625,-101.5625,152.83203125,0.0
296.4296875,-286.1328125,22.94921875,-54.6875,-108.88671875,39.0625,0.0
296.43359375,-290.52734375,0.48828125,-55.6640625,-127.9296875,-50.78125,0.0
296.4375,-269.04296875,9.27734375,-44.43359375,-124.0234375,-42.48046875,0.0
296.44140625,-241.2109375,42.48046875,-62.5,-119.62890625,-57.12890625,0.0
296.4453125,-228.515625,52.24609375,-39.0625,-137.20703125,-32.2265625,0.0
296.44921875,-279.78515625,41.015625,-36.1328125,-172.36328125,-37.59765625,0.0
296.453125,-315.4296875,23.4375,-58.59375,-193.84765625,-87.40234375,0.0
296.45703125,-350.09765625,39.55078125,-29.78515625,-189.453125,-72.265625,0.0
296.4609375,-361.81640625,60.546875,-6.8359375,-200.1953125,-14.16015625,0.0
296.46484375,-330.078125,29.78515625,1.953125,-232.91015625,0.9765625,0.0
296.46875,-339.35546875,7.8125,-21.484375,-225.5859375,20.99609375,0.0
296.47265625,-378.41796875,-1.953125,-11.71875,-221.6796875,-52.24609375,0.0
296.4765625,-342.7734375,-86.9140625,-36.1328125,-190.91796875,-112.79296875,0.0
296.48046875,-313.96484375,-32.2265625,-36.1328125,-175.29296875,-50.78125,0.0
296.484375,-356.93359375,70.80078125,37.109375,-215.8203125,9.27734375,0.0
296.48828125,-373.046875,35.15625,-36.1328125,-222.65625,-41.9921875,0.0
296.4921875,-366.2109375,12.20703125,-28.80859375,-229.00390625,-64.94140625,0.0
296.49609375,-341.30859375,-7.32421875,-21.484375,-218.75,-0.9765625,0.0
296.5,-344.7265625,-14.16015625,-5.859375,-195.80078125,-49.8046875,0.0
296.50390625,-312.98828125,-31.25,70.3125,-178.7109375,-53.7109375,0.0
296.5078125,-269.04296875,-71.2890625,56.640625,-168.9453125,-57.12890625,0.0
296.51171875,-278.3203125,-53.7109375,23.4375,-157.2265625,-210.44921875,0.0
296.515625,-251.953125,-36.1328125,3.41796875,-120.60546875,-170.8984375,0.0
296.51953125,-201.171875,-28.3203125,1.46484375,-99.12109375,-13.671875,0.0
296.5234375,-194.82421875,1.46484375,-10.7421875,-84.47265625,22.94921875,0.0
296.52734375,-182.6171875,-41.50390625,-15.13671875,-98.6328125,57.6171875,0.0
296.53125,-154.78515625,-75.1953125,14.6484375,-79.58984375,62.5,0.0
296.53515625,-154.78515625,-81.0546875,33.69140625,-75.68359375,13.671875,0.0
296.5390625,-139.6484375,-55.6640625,5.37109375,-65.4296875,55.17578125,0.0
296.54296875,-121.58203125,-55.6640625,-33.69140625,-26.85546875,-27.83203125,0.0
296.546875,-131.34765625,-73.2421875,-40.52734375,-46.38671875,-44.921875,0.0
296.55078125,-102.05078125,-51.26953125,-22.94921875,5.37109375,-14.6484375,0.0
296.5546875,-80.078125,-54.6875,6.34765625,25.390625,-60.546875,0.0
296.55859375,-69.3359375,-68.359375,15.625,29.296875,-83.984375,0.0
296.5625,-52.734375,-91.796875,-6.34765625,64.94140625,-103.02734375,0.0
296.56640625,-35.64453125,-78.125,-25.390625,58.59375,-108.3984375,0.0
296.5703125,-9.27734375,-51.7578125,-20.5078125,74.21875,-159.1796875,0.0
296.57421875,-18.5546875,-61.03515625,-9.27734375,84.9609375,-79.1015625,0.0
296.578125,-7.8125,-37.59765625,-20.99609375,96.19140625,32.2265625,0.0
296.58203125,27.83203125,-75.68359375,-52.24609375,106.93359375,-10.25390625,0.0
296.5859375,22.4609375,-66.40625,-24.90234375,107.421875,-83.984375,0.0
296.58984375,-14.16015625,-12.20703125,1.46484375,86.42578125,-139.16015625,0.0
296.59375,-17.578125,-46.38671875,-34.1796875,78.61328125,-112.79296875,0.0
296.59765625,-20.01953125,-44.43359375,-40.0390625,66.89453125,1.46484375,0.0
296.6015625,-11.23046875,-33.203125,-30.76171875,61.03515625,62.01171875,0.0
296.60546875,18.06640625,-46.875,-38.57421875,92.28515625,77.1484375,0.0
296.609375,7.8125,-46.38671875,-49.31640625,90.8203125,18.06640625,0.0
296.61328125,20.99609375,-45.8984375,-18.06640625,98.6328125,-22.4609375,0.0
296.6171875,25.87890625,-40.52734375,-6.8359375,90.8203125,6.34765625,0.0
296.62109375,-9.27734375,-6.34765625,-51.26953125,52.734375,23.92578125,0.0
296.625,1.953125,-7.32421875,-51.26953125,53.22265625,-14.6484375,0.0
296.62890625,14.16015625,-30.2734375,-29.78515625,52.24609375,-26.3671875,0.0
296.6328125,12.20703125,-45.41015625,-33.69140625,69.3359375,31.25,0.0
296.63671875,3.41796875,-47.8515625,-50.29296875,63.96484375,7.8125,0.0
296.640625,2.44140625,-20.99609375,-34.1796875,52.24609375,-22.94921875,0.0
296.64453125,0.9765625,-15.13671875,-11.23046875,52.734375,-37.59765625,0.0
296.6484375,-34.1796875,-42.48046875,-20.01953125,28.3203125,-100.5859375,0.0
296.65234375,-40.0390625,-51.7578125,-29.78515625,21.97265625,-105.46875,0.0
296.65625,-7.32421875,-48.828125,-20.01953125,40.52734375,-37.59765625,0.0
296.66015625,0.9765625,-32.2265625,-9.27734375,43.9453125,-1.953125,0.0
296.6640625,-7.32421875,-15.625,-22.4609375,24.4140625,63.96484375,0.0
296.66796875,-0.9765625,-15.13671875,-35.15625,12.6953125,102.5390625,0.0
296.671875,-6.8359375,-27.83203125,-34.1796875,11.71875,65.91796875,0.0
296.67578125,-4.8828125,-22.4609375,-21.484375,3.41796875,-48.828125,0.0
296.6796875,11.23046875,-19.53125,-20.99609375,3.90625,-41.015625,0.0
296.68359375,15.625,-45.41015625,-34.66796875,13.18359375,-1.46484375,0.0
296.6875,24.90234375,-33.203125,-36.62109375,13.671875,-9.27734375,0.0
296.69140625,34.66796875,-13.671875,-18.5546875,15.13671875,-50.29296875,0.0
296.6953125,21.97265625,-44.43359375,-5.37109375,2.44140625,-98.6328125,0.0
296.69921875,25.390625,-42.48046875,-17.08984375,7.8125,-45.8984375,0.0
296.703125,37.109375,-12.20703125,-24.90234375,17.578125,-41.015625,0.0
296.70703125,36.1328125,9.27734375,-35.64453125,10.25390625,-14.16015625,0.0
296.7109375,32.2265625,-13.671875,-32.2265625,9.27734375,-23.4375,0.0
296.71484375,24.90234375,-24.90234375,-13.671875,3.41796875,-63.96484375,0.0
296.71875,32.2265625,-15.625,-29.78515625,7.32421875,-41.50390625,0.0
296.72265625,55.17578125,-14.16015625,-27.83203125,8.30078125,4.39453125,0.0
296.7265625,59.08203125,-15.625,-15.625,-17.08984375,22.4609375,0.0
296.73046875,60.05859375,-40.0390625,-16.6015625,-22.4609375,-8.30078125,0.0
296.734375,73.73046875,-40.52734375,-14.6484375,-16.11328125,-23.92578125,0.0
296.73828125,86.42578125,-6.34765625,-34.66796875,-15.625,62.98828125,0.0
296.7421875,98.6328125,-15.13671875,-27.34375,-8.30078125,51.7578125,0.0
296.74609375,108.3984375,-41.015625,-11.71875,2.44140625,-28.80859375,0.0
296.75,113.28125,-39.0625,-35.15625,-9.27734375,-66.40625,0.0
296.75390625,119.62890625,-27.34375,-44.43359375,-13.671875,-70.80078125,0.0
296.7578125,150.87890625,-32.2265625,-28.3203125,-1.46484375,-13.18359375,0.0
296.76171875,165.52734375,-48.33984375,-27.83203125,8.30078125,-27.34375,0.0
296.765625,139.6484375,-10.7421875,-26.3671875,-10.7421875,-96.6796875,0.0
296.76953125,120.1171875,1.953125,-10.7421875,-39.55078125,-34.1796875,0.0
296.7734375,110.83984375,-17.578125,-38.0859375,-36.62109375,-1.46484375,0.0
296.77734375,118.1640625,-16.6015625,-34.66796875,-18.5546875,-2.44140625,0.0
296.78125,121.58203125,-21.484375,1.46484375,-22.94921875,-32.2265625,0.0
296.78515625,98.6328125,-30.2734375,-8.30078125,-55.17578125,-147.4609375,0.0
296.7890625,81.0546875,-41.50390625,-14.16015625,-64.94140625,-78.61328125,0.0
296.79296875,85.44921875,-26.85546875,-1.46484375,-52.734375,-59.5703125,0.0
296.796875,72.75390625,-16.11328125,-41.50390625,-60.05859375,-92.7734375,0.0
296.80078125,52.24609375,-28.3203125,-32.2265625,-74.21875,-53.7109375,0.0
296.8046875,15.625,-26.85546875,34.1796875,-94.23828125,-2.9296875,0.0
296.80859375,-46.875,-14.6484375,17.08984375,-144.04296875,12.20703125,0.0
296.8125,-65.4296875,-5.37109375,-5.859375,-161.62109375,-14.16015625,0.0
296.81640625,-59.5703125,-1.46484375,-19.53125,-150.390625,-29.78515625,0.0
296.8203125,-100.5859375,-1.46484375,-7.8125,-186.03515625,-41.9921875,0.0
296.82421875,-134.27734375,-6.8359375,34.1796875,-211.9140625,36.62109375,0.0
296.828125,-132.32421875,-12.6953125,18.06640625,-212.40234375,18.06640625,0.0
296.83203125,-141.11328125,-34.1796875,-21.484375,-217.28515625,-121.09375,0.0
296.8359375,-134.27734375,-53.7109375,39.0625,-200.68359375,-142.578125,0.0
296.83984375,-126.46484375,-34.66796875,83.984375,-200.68359375,-104.00390625,0.0
296.84375,-126.953125,-33.69140625,50.78125,-201.171875,-112.79296875,0.0
296.84765625,-120.60546875,-45.41015625,29.78515625,-186.03515625,-112.3046875,0.0
296.8515625,-106.4453125,-30.76171875,36.1328125,-169.921875,-69.3359375,0.0
296.85546875,-107.421875,-41.9921875,43.45703125,-157.71484375,-99.609375,0.0
296.859375,-95.703125,-48.33984375,-1.953125,-136.23046875,-76.171875,0.0
296.86328125,-81.0546875,-36.1328125,-3.90625,-119.62890625,45.8984375,0.0
296.8671875,-92.28515625,-48.828125,52.734375,-128.41796875,12.20703125,0.0
296.87109375,-71.77734375,-52.24609375,35.64453125,-107.91015625,-73.2421875,0.0
296.875,-45.8984375,-72.265625,20.01953125,-85.44921875,-68.359375,0.0
296.87890625,-42.96875,-65.91796875,35.15625,-73.73046875,-50.29296875,0.0
296.8828125,-45.41015625,-30.76171875,27.34375,-61.03515625,-116.2109375,0.0
296.88671875,-65.91796875,-39.55078125,17.08984375,-74.70703125,-84.47265625,0.0
296.890625,-70.3125,-55.6640625,0.48828125,-72.265625,25.390625,0.0
296.89453125,-62.01171875,-61.5234375,3.41796875,-60.05859375,79.1015625,0.0
296.8984375,-41.50390625,-58.10546875,12.6953125,-51.7578125,19.04296875,0.0
296.90234375,-38.0859375,-57.6171875,6.34765625,-64.94140625,46.38671875,0.0
296.90625,-34.66796875,-69.82421875,0.0,-71.77734375,118.65234375,0.0
296.91015625,-12.6953125,-76.171875,-27.83203125,-42.96875,-18.06640625,0.0
296.9140625,2.9296875,-88.8671875,-7.32421875,-21.97265625,-61.5234375,0.0
296.91796875,-20.99609375,-70.3125,14.16015625,-44.921875,0.9765625,0.0
296.921875,-32.71484375,-31.25,18.06640625,-60.05859375,-0.9765625,0.0
296.92578125,-6.8359375,-27.34375,-5.37109375,-23.4375,19.04296875,0.0
296.9296875,-32.71484375,-27.34375,-25.87890625,-35.64453125,33.69140625,0.0
296.93359375,-41.9921875,-49.8046875,13.671875,-47.8515625,-7.32421875,0.0
296.9375,-23.92578125,-54.19921875,27.83203125,-27.83203125,-9.765625,0.0
296.94140625,-12.20703125,-45.8984375,-20.99609375,-16.6015625,-60.546875,0.0
296.9453125,-2.44140625,-62.01171875,-35.15625,-5.859375,-99.609375,0.0
296.94921875,9.765625,-88.8671875,2.9296875,-7.32421875,-60.546875,0.0
296.953125,20.5078125,-55.6640625,-14.6484375,0.9765625,2.44140625,0.0
296.95703125,37.59765625,-32.2265625,-29.296875,18.06640625,20.5078125,0.0
296.9609375,59.08203125,-65.91796875,-53.22265625,30.2734375,-10.7421875,0.0
296.96484375,49.31640625,-49.31640625,-50.29296875,31.25,0.0,0.0
296.96875,41.015625,-25.87890625,-33.69140625,36.1328125,-23.4375,0.0
296.97265625,51.7578125,-34.66796875,-57.6171875,47.36328125,-94.23828125,0.0
296.9765625,64.94140625,-42.48046875,-79.1015625,65.91796875,-126.46484375,0.0
296.98046875,92.28515625,-44.43359375,-83.49609375,84.47265625,-22.94921875,0.0
296.984375,117.1875,-57.12890625,-92.7734375,88.37890625,4.8828125,0.0
296.98828125,117.67578125,-58.10546875,-72.265625,97.16796875,-39.55078125,0.0
296.9921875,120.60546875,-41.9921875,-99.609375,110.83984375,-30.76171875,0.0
296.99609375,120.1171875,-40.52734375,-85.44921875,108.88671875,-11.71875,0.0
297.0,106.4453125,-47.36328125,-30.76171875,90.33203125,52.734375,0.0
297.00390625,105.95703125,-53.22265625,-65.91796875,76.66015625,61.03515625,0.0
297.0078125,108.3984375,-57.6171875,-83.984375,81.0546875,-11.71875,0.0
297.01171875,95.703125,-38.57421875,-86.42578125,87.40234375,-39.0625,0.0
297.015625,98.6328125,-24.4140625,-69.3359375,83.49609375,-36.62109375,0.0
297.01953125,101.5625,-39.0625,-63.4765625,83.0078125,-3.41796875,0.0
297.0234375,89.84375,-31.73828125,-68.84765625,73.2421875,-23.92578125,0.0
297.02734375,90.8203125,-35.15625,-69.82421875,77.63671875,-21.484375,0.0
297.03125,91.30859375,-44.921875,-80.56640625,75.1953125,-22.4609375,0.0
297.03515625,85.9375,-25.87890625,-90.8203125,66.40625,-28.3203125,0.0
297.0390625,93.26171875,-29.78515625,-69.82421875,69.3359375,36.1328125,0.0
297.04296875,90.33203125,-29.78515625,-54.6875,64.453125,5.859375,0.0
297.046875,77.63671875,-20.99609375,-75.1953125,64.453125,0.9765625,0.0
297.05078125,66.89453125,-28.80859375,-73.2421875,54.6875,-62.5,0.0
297.0546875,66.40625,-25.87890625,-52.734375,55.17578125,-92.28515625,0.0
297.05859375,65.4296875,-41.015625,-55.17578125,60.05859375,-14.6484375,0.0
297.0625,42.48046875,-43.9453125,-50.78125,33.203125,-64.453125,0.0
297.06640625,29.296875,-35.15625,-58.10546875,16.11328125,-71.2890625,0.0
297.0703125,39.55078125,-38.57421875,-54.19921875,26.85546875,26.85546875,0.0
297.07421875,48.828125,-33.203125,-49.31640625,35.15625,11.23046875,0.0
297.078125,48.33984375,-26.85546875,-42.48046875,35.64453125,-93.26171875,0.0
297.08203125,43.45703125,-28.80859375,-29.78515625,27.83203125,-76.66015625,0.0
297.0859375,32.71484375,-39.55078125,-42.48046875,12.20703125,-58.59375,0.0
297.08984375,33.203125,-45.41015625,-50.78125,16.11328125,-65.91796875,0.0
297.09375,32.2265625,-43.45703125,-54.6875,20.01953125,-115.72265625,0.0
297.09765625,42.48046875,-53.7109375,-58.10546875,19.04296875,-73.73046875,0.0
297.1015625,51.7578125,-53.7109375,-57.6171875,24.4140625,-5.37109375,0.0
297.10546875,34.1796875,-14.6484375,-59.5703125,12.6953125,-104.4921875,0.0
297.109375,13.671875,-16.6015625,-57.12890625,-7.8125,-111.328125,0.0
297.11328125,6.8359375,-27.83203125,-47.8515625,-9.27734375,-8.30078125,0.0
297.1171875,17.578125,-32.2265625,-36.1328125,3.41796875,-28.80859375,0.0
297.12109375,25.87890625,-28.80859375,-37.59765625,10.7421875,-49.31640625,0.0
297.125,14.6484375,-21.484375,-36.62109375,0.0,0.48828125,0.0
297.12890625,4.8828125,-30.2734375,-42.96875,-3.90625,-16.6015625,0.0
297.1328125,12.6953125,-36.62109375,-67.87109375,11.23046875,-34.1796875,0.0
297.13671875,17.578125,-37.59765625,-39.55078125,5.859375,26.3671875,0.0
297.140625,17.08984375,-40.52734375,-23.4375,-2.44140625,16.6015625,0.0
297.14453125,13.18359375,-44.921875,-29.296875,-11.71875,11.23046875,0.0
297.1484375,4.39453125,-37.109375,-22.94921875,-24.90234375,69.3359375,0.0
297.15234375,2.44140625,-30.2734375,-27.34375,-19.53125,-62.5,0.0
297.15625,9.765625,-31.73828125,-25.87890625,-17.578125,-167.96875,0.0
297.16015625,16.11328125,-37.109375,-30.2734375,-16.6015625,-150.87890625,0.0
297.1640625,3.90625,-44.43359375,-41.015625,-16.11328125,-178.22265625,0.0
297.16796875,3.41796875,-28.80859375,-47.36328125,-9.27734375,-224.609375,0.0
297.171875,5.859375,-36.62109375,-39.0625,-7.8125,-101.5625,0.0
297.17578125,4.39453125,-58.59375,-15.625,-10.7421875,14.16015625,0.0
297.1796875,-13.671875,-41.50390625,-15.13671875,-32.2265625,-4.8828125,0.0
297.18359375,-33.69140625,-4.8828125,-24.4140625,-48.828125,-47.36328125,0.0
297.1875,-27.83203125,-2.44140625,-41.015625,-44.43359375,-28.80859375,0.0
297.19140625,-18.5546875,-17.578125,-46.875,-36.62109375,2.9296875,0.0
297.1953125,-6.34765625,-31.73828125,-33.69140625,-27.34375,9.765625,0.0
297.19921875,6.8359375,-26.3671875,-36.62109375,-17.578125,32.71484375,0.0
297.203125,8.7890625,-16.11328125,-53.7109375,-13.671875,72.75390625,0.0
297.20703125,-17.08984375,-32.2265625,-56.640625,-27.34375,58.59375,0.0
297.2109375,-49.8046875,-36.1328125,-40.52734375,-37.109375,27.83203125,0.0
297.21484375,-43.9453125,-28.80859375,-37.109375,-26.85546875,23.4375,0.0
297.21875,-37.109375,-44.921875,-25.87890625,-20.5078125,-13.18359375,0.0
297.22265625,-42.96875,-52.24609375,10.25390625,-30.2734375,4.39453125,0.0
297.2265625,-48.33984375,-41.9921875,7.8125,-37.59765625,-66.40625,0.0
297.23046875,-55.6640625,-41.9921875,-10.25390625,-46.38671875,-133.30078125,0.0
297.234375,-52.734375,-39.0625,-19.53125,-48.33984375,-30.2734375,0.0
297.23828125,-44.921875,-25.390625,-30.2734375,-42.48046875,33.203125,0.0
297.2421875,-40.52734375,-38.0859375,-40.52734375,-41.50390625,39.0625,0.0
297.24609375,-38.57421875,-59.08203125,-28.80859375,-39.0625,-28.3203125,0.0
297.25,-35.15625,-43.9453125,-3.90625,-27.34375,-53.22265625,0.0
297.25390625,-33.203125,-29.296875,-15.625,-22.4609375,-57.6171875,0.0
297.2578125,-33.203125,-16.6015625,-25.87890625,-32.2265625,-94.7265625,0.0
297.26171875,-41.50390625,-17.578125,-14.16015625,-38.57421875,-110.3515625,0.0
297.265625,-44.43359375,-35.64453125,-31.25,-41.015625,-101.5625,0.0
297.26953125,-35.64453125,-48.33984375,-51.26953125,-28.80859375,-61.03515625,0.0
297.2734375,-41.9921875,-52.24609375,-10.25390625,-25.87890625,-51.7578125,0.0
297.27734375,-42.96875,-42.96875,17.08984375,-30.2734375,-68.84765625,0.0
297.28125,-28.80859375,-45.41015625,-6.8359375,-24.4140625,-55.17578125,0.0
297.28515625,-25.390625,-39.0625,-24.90234375,-27.83203125,-0.9765625,0.0
297.2890625,-38.0859375,-25.390625,-26.85546875,-36.62109375,25.390625,0.0
297.29296875,-33.203125,-37.109375,-35.15625,-36.1328125,10.7421875,0.0
297.296875,-16.6015625,-34.1796875,-31.73828125,-29.78515625,18.5546875,0.0
297.30078125,-15.13671875,-28.3203125,-35.15625,-30.76171875,-72.265625,0.0
297.3046875,-26.85546875,-27.83203125,-51.26953125,-36.1328125,-111.81640625,0.0
297.30859375,-36.1328125,-26.85546875,-34.1796875,-41.015625,-56.15234375,0.0
297.3125,-34.1796875,-31.25,-19.04296875,-30.2734375,-8.7890625,0.0
297.31640625,-26.85546875,-33.69140625,-22.94921875,-22.94921875,78.125,0.0
297.3203125,-16.11328125,-27.83203125,-23.92578125,-26.3671875,86.42578125,0.0
297.32421875,-10.7421875,-21.97265625,-21.484375,-25.87890625,40.52734375,0.0
297.328125,-8.30078125,-48.33984375,-21.484375,-22.4609375,-12.6953125,0.0
297.33203125,-12.20703125,-52.24609375,-22.94921875,-33.69140625,-36.62109375,0.0
297.3359375,-16.11328125,-24.90234375,-23.4375,-35.64453125,-22.4609375,0.0
297.33984375,-1.46484375,-36.1328125,-31.73828125,-27.83203125,-49.8046875,0.0
297.34375,0.9765625,-32.2265625,-60.05859375,-37.59765625,-55.17578125,0.0
297.34765625,-16.6015625,-20.01953125,-37.59765625,-50.29296875,-65.91796875,0.0
297.3515625,-30.76171875,-25.87890625,-13.18359375,-42.48046875,-69.3359375,0.0
297.35546875,-31.25,-21.484375,-38.57421875,-32.2265625,-16.11328125,0.0
297.359375,-17.08984375,-28.3203125,-28.80859375,-26.85546875,-10.25390625,0.0
297.36328125,-15.13671875,-40.0390625,-5.859375,-25.390625,-26.3671875,0.0
297.3671875,-18.06640625,-35.15625,-16.6015625,-27.83203125,-19.53125,0.0
297.37109375,-19.04296875,-36.1328125,-24.90234375,-29.296875,-55.17578125,0.0
297.375,-25.390625,-31.25,-34.1796875,-33.203125,-86.42578125,0.0
297.37890625,-18.5546875,-32.71484375,-37.109375,-28.80859375,-9.765625,0.0
297.3828125,-6.34765625,-28.3203125,-39.55078125,-29.296875,62.01171875,0.0
297.38671875,-18.5546875,-32.2265625,-20.99609375,-34.1796875,70.3125,0.0
297.390625,-30.2734375,-36.1328125,-16.11328125,-28.80859375,6.34765625,0.0
297.39453125,-34.66796875,-24.4140625,-31.25,-27.34375,-28.80859375,0.0
297.3984375,-35.15625,-21.97265625,-28.3203125,-26.85546875,-54.6875,0.0
297.40234375,-31.25,-24.90234375,-31.25,-36.62109375,-110.3515625,0.0
297.40625,-29.296875,-45.41015625,-38.57421875,-43.9453125,-138.18359375,0.0
297.41015625,-23.92578125,-48.33984375,-28.80859375,-37.59765625,-134.27734375,0.0
297.4140625,-33.69140625,-29.296875,-24.90234375,-36.62109375,-75.68359375,0.0
297.41796875,-36.62109375,-17.578125,-30.76171875,-34.66796875,-33.69140625,0.0
297.421875,-22.94921875,-11.23046875,-32.71484375,-28.80859375,-34.1796875,0.0
297.42578125,-27.34375,-23.92578125,-27.34375,-28.3203125,-41.015625,0.0
297.4296875,-28.3203125,-38.0859375,-30.76171875,-30.76171875,-42.96875,0.0
297.43359375,-21.484375,-25.390625,-28.3203125,-28.80859375,7.8125,0.0
297.4375,-21.484375,-31.73828125,-18.5546875,-26.85546875,12.20703125,0.0
297.44140625,-18.5546875,-31.73828125,-22.4609375,-30.2734375,-8.7890625,0.0
297.4453125,-22.4609375,-0.48828125,-46.38671875,-35.64453125,-20.99609375,0.0
297.44921875,-29.296875,-14.16015625,-59.08203125,-28.3203125,-56.15234375,0.0
297.453125,-15.625,-28.3203125,-27.83203125,-17.08984375,-42.48046875,0.0
297.45703125,-8.30078125,-17.578125,-10.7421875,-27.34375,-56.640625,0.0
297.4609375,-13.671875,-26.3671875,-20.99609375,-41.50390625,-76.66015625,0.0
297.46484375,-26.3671875,-38.0859375,-24.4140625,-41.9921875,-30.76171875,0.0
297.46875,-35.64453125,-26.85546875,-17.578125,-38.57421875,-48.33984375,0.0
297.47265625,-18.06640625,-75.1953125,-32.2265625,-20.99609375,-118.1640625,0.0
297.4765625,-6.34765625,-79.58984375,-34.1796875,-15.13671875,-92.7734375,0.0
297.48046875,-24.90234375,8.7890625,-13.18359375,-38.57421875,-18.5546875,0.0
297.484375,-33.203125,15.13671875,-19.53125,-52.734375,-29.296875,0.0
297.48828125,-28.80859375,-8.30078125,-33.203125,-51.7578125,-105.46875,0.0
297.4921875,-29.78515625,-22.94921875,-34.66796875,-44.43359375,-61.5234375,0.0
297.49609375,-25.87890625,-25.87890625,-28.3203125,-36.62109375,-12.6953125,0.0
297.5,-20.99609375,-27.34375,-16.11328125,-32.71484375,-7.8125,0.0
297.50390625,-29.296875,-38.57421875,-37.109375,-37.59765625,-46.875,0.0
297.5078125,-41.9921875,-40.0390625,-30.2734375,-39.55078125,-25.87890625,0.0
297.51171875,-33.203125,-45.8984375,-15.625,-29.78515625,24.90234375,0.0
297.515625,-25.87890625,-38.57421875,-33.69140625,-32.71484375,-32.71484375,0.0
297.51953125,-23.92578125,-24.4140625,-44.43359375,-36.1328125,-26.85546875,0.0
297.5234375,-21.97265625,-40.0390625,-33.203125,-40.52734375,-32.2265625,0.0
297.52734375,-25.390625,-45.8984375,-20.99609375,-52.734375,-58.59375,0.0
297.53125,-23.4375,-34.66796875,-34.66796875,-44.43359375,-1.953125,0.0
297.53515625,-7.32421875,-43.45703125,-30.2734375,-17.08984375,-54.6875,0.0
297.5390625,-16.11328125,-34.66796875,-16.6015625,-22.94921875,-41.015625,0.0
297.54296875,-36.62109375,-31.25,-43.9453125,-54.19921875,-6.8359375,0.0
297.546875,-37.109375,-25.87890625,-41.015625,-63.4765625,-90.8203125,0.0
297.55078125,-58.10546875,-10.7421875,-15.13671875,-77.63671875,-74.70703125,0.0
297.5546875,-66.89453125,-11.23046875,-19.53125,-90.8203125,-121.09375,0.0
297.55859375,-59.5703125,-16.6015625,-15.13671875,-86.9140625,-216.30859375,0.0
297.5625,-51.7578125,-21.484375,-22.4609375,-83.984375,-149.4140625,0.0
297.56640625,-42.48046875,-23.4375,-35.15625,-76.66015625,-105.95703125,0.0
297.5703125,-47.36328125,-35.64453125,-31.25,-72.75390625,-73.73046875,0.0
297.57421875,-41.9921875,-40.52734375,-24.90234375,-60.546875,-61.5234375,0.0
297.578125,-28.3203125,-14.16015625,-56.15234375,-45.8984375,-32.71484375,0.0
297.58203125,-33.203125,-10.25390625,-53.22265625,-57.6171875,-20.99609375,0.0
297.5859375,-39.55078125,-28.3203125,-23.4375,-58.59375,-12.20703125,0.0
297.58984375,-38.57421875,-32.71484375,-33.203125,-41.50390625,-17.578125,0.0
297.59375,-43.9453125,-33.69140625,-40.52734375,-41.015625,-18.06640625,0.0
297.59765625,-42.48046875,-36.62109375,-36.1328125,-44.921875,18.06640625,0.0
297.6015625,-43.45703125,-37.59765625,-26.85546875,-47.36328125,-40.52734375,0.0
297.60546875,-38.0859375,-40.0390625,-32.71484375,-47.8515625,-62.5,0.0
297.609375,-38.0859375,-33.69140625,-42.48046875,-46.38671875,-27.83203125,0.0
297.61328125,-43.9453125,-21.97265625,-50.78125,-46.38671875,32.2265625,0.0
297.6171875,-36.1328125,-16.11328125,-40.0390625,-37.109375,73.2421875,0.0
297.62109375,-33.203125,-26.85546875,-36.62109375,-38.57421875,3.90625,0.0
297.625,-32.71484375,-29.296875,-30.76171875,-40.0390625,-4.39453125,0.0
297.62890625,-37.59765625,-34.1796875,-24.90234375,-39.55078125,-37.59765625,0.0
297.6328125,-20.99609375,-43.9453125,-36.1328125,-18.06640625,-61.5234375,0.0
297.63671875,-8.30078125,-40.0390625,-28.3203125,-6.34765625,8.7890625,0.0
297.640625,-36.1328125,-27.34375,-20.99609375,-40.52734375,67.3828125,0.0
297.64453125,-47.36328125,-24.4140625,-30.76171875,-57.12890625,35.64453125,0.0
297.6484375,-33.203125,-23.92578125,-38.0859375,-40.0390625,-18.06640625,0.0
297.65234375,-26.85546875,-26.3671875,-47.8515625,-30.76171875,-6.8359375,0.0
297.65625,-22.94921875,-29.296875,-41.50390625,-23.92578125,-12.6953125,0.0
297.66015625,-25.390625,-34.1796875,-31.25,-20.01953125,-56.640625,0.0
297.6640625,-33.69140625,-44.43359375,-28.3203125,-40.52734375,-66.89453125,0.0
297.66796875,-23.4375,-37.59765625,-25.87890625,-45.8984375,-50.29296875,0.0
297.671875,-22.4609375,-38.57421875,-31.73828125,-41.9921875,-26.3671875,0.0
297.67578125,-16.11328125,-40.52734375,-25.390625,-24.4140625,-2.9296875,0.0
297.6796875,-10.7421875,-33.69140625,-29.296875,-11.23046875,20.5078125,0.0
297.68359375,-38.57421875,-27.34375,-40.52734375,-34.1796875,-30.2734375,0.0
297.6875,-44.921875,-16.6015625,-26.85546875,-40.52734375,-87.40234375,0.0
297.69140625,-38.57421875,-16.6015625,-14.6484375,-29.296875,-55.6640625,0.0
297.6953125,-20.01953125,-26.85546875,-0.9765625,-16.11328125,-132.8125,0.0
297.69921875,-9.765625,-27.34375,-24.4140625,-24.4140625,-150.87890625,0.0
297.703125,-20.99609375,-23.92578125,-40.52734375,-37.109375,-30.2734375,0.0
297.70703125,-34.1796875,-28.80859375,-39.55078125,-40.52734375,-62.01171875,0.0
297.7109375,-40.52734375,-43.45703125,-38.57421875,-39.55078125,-129.39453125,0.0
297.71484375,-34.66796875,-51.7578125,-30.76171875,-31.25,-183.59375,0.0
297.71875,-41.015625,-30.2734375,-45.8984375,-41.50390625,-159.66796875,0.0
297.72265625,-38.0859375,-25.87890625,-51.26953125,-41.9921875,-140.13671875,0.0
297.7265625,-28.3203125,-28.3203125,-35.64453125,-37.59765625,-206.0546875,0.0
297.73046875,-25.390625,-39.0625,-34.1796875,-27.83203125,-180.6640625,0.0
297.734375,-20.01953125,-36.1328125,-46.38671875,-15.13671875,-56.15234375,0.0
297.73828125,-1.46484375,-10.25390625,-19.04296875,-3.90625,25.87890625,0.0
297.7421875,-7.8125,-11.23046875,-6.34765625,-14.6484375,7.32421875,0.0
297.74609375,-28.3203125,-34.1796875,-32.71484375,-34.66796875,-41.9921875,0.0
297.75,-27.83203125,-45.41015625,-29.78515625,-30.2734375,4.8828125,0.0
297.75390625,-28.80859375,-35.64453125,-28.3203125,-25.87890625,34.66796875,0.0
297.7578125,-19.53125,-25.87890625,-28.80859375,-21.97265625,-33.69140625,0.0
297.76171875,-27.83203125,-26.3671875,-30.76171875,-31.73828125,14.6484375,0.0
297.765625,-29.78515625,-34.1796875,-49.8046875,-32.2265625,38.0859375,0.0
297.76953125,-23.92578125,-33.203125,-40.0390625,-20.99609375,-8.7890625,0.0
297.7734375,-35.15625,-31.73828125,-17.08984375,-26.3671875,-26.85546875,0.0
297.77734375,-20.99609375,-31.25,-19.53125,-26.3671875,-50.29296875,0.0
297.78125,-0.9765625,-30.2734375,-17.08984375,-18.06640625,0.48828125,0.0
297.78515625,1.46484375,-17.578125,-19.53125,-14.6484375,-19.04296875,0.0
297.7890625,-5.37109375,-1.46484375,-29.296875,-17.578125,9.765625,0.0
297.79296875,-9.765625,-17.578125,-24.90234375,-23.4375,27.83203125,0.0
297.796875,-7.32421875,-29.296875,-17.08984375,-20.5078125,-82.03125,0.0
297.80078125,-13.671875,-31.25,-30.76171875,-25.390625,-26.85546875,0.0
297.8046875,-14.16015625,-24.90234375,-47.36328125,-28.80859375,17.578125,0.0
297.80859375,-17.578125,-36.62109375,-34.66796875,-34.66796875,34.66796875,0.0
297.8125,-25.390625,-45.41015625,-21.484375,-41.50390625,35.15625,0.0
297.81640625,-20.5078125,-27.34375,-21.97265625,-34.66796875,13.671875,0.0
297.8203125,-22.94921875,-19.53125,-34.66796875,-36.1328125,15.13671875,0.0
297.82421875,-17.578125,-28.80859375,-34.1796875,-34.66796875,-7.32421875,0.0
297.828125,-6.8359375,-31.73828125,-30.76171875,-24.90234375,6.34765625,0.0
297.83203125,-12.20703125,-34.1796875,-39.55078125,-24.90234375,12.20703125,0.0
297.8359375,-20.5078125,-33.203125,-33.69140625,-26.3671875,67.3828125,0.0
297.83984375,-14.16015625,-19.04296875,-21.484375,-25.87890625,94.7265625,0.0
297.84375,-8.7890625,-20.5078125,-23.92578125,-32.71484375,-0.48828125,0.0
297.84765625,-17.08984375,-33.69140625,-34.66796875,-35.15625,-19.53125,0.0
297.8515625,-22.4609375,-43.45703125,-27.83203125,-40.0390625,14.6484375,0.0
297.85546875,-15.625,-36.62109375,-26.85546875,-42.48046875,24.4140625,0.0
297.859375,-9.27734375,-25.390625,-27.34375,-39.0625,2.9296875,0.0
297.86328125,-14.16015625,-28.80859375,-36.62109375,-41.9921875,19.04296875,0.0
297.8671875,-8.30078125,-31.73828125,-36.1328125,-37.109375,-21.484375,0.0
297.87109375,-1.953125,-19.53125,-16.11328125,-17.578125,0.48828125,0.0
297.875,-4.39453125,-19.04296875,-11.71875,-9.765625,9.765625,0.0
297.87890625,-4.8828125,-28.3203125,-32.2265625,-17.08984375,-23.4375,0.0
297.8828125,-11.23046875,-24.4140625,-47.36328125,-24.4140625,-22.94921875,0.0
297.88671875,-23.4375,-28.80859375,-30.2734375,-34.1796875,-43.45703125,0.0
297.890625,-29.296875,-35.15625,-26.3671875,-31.73828125,-41.50390625,0.0
297.89453125,-14.16015625,-46.875,-26.3671875,-20.5078125,-9.765625,0.0
297.8984375,5.859375,-51.7578125,-18.5546875,-18.06640625,-7.32421875,0.0
297.90234375,-6.8359375,-37.109375,-31.73828125,-26.85546875,0.9765625,0.0
297.90625,-22.4609375,-19.04296875,-28.3203125,-34.66796875,-14.16015625,0.0
297.91015625,-31.73828125,-14.16015625,-24.4140625,-42.48046875,-42.48046875,0.0
297.9140625,-28.80859375,-31.25,-29.296875,-39.0625,-107.421875,0.0
297.91796875,-13.671875,-28.3203125,-33.69140625,-27.34375,-87.890625,0.0
297.921875,-12.20703125,-23.4375,-31.73828125,-30.2734375,-24.90234375,0.0
297.92578125,-19.04296875,-29.296875,-10.25390625,-30.76171875,-56.15234375,0.0
297.9296875,-33.203125,-39.0625,-30.2734375,-31.25,-23.4375,0.0
297.93359375,-26.3671875,-37.59765625,-43.45703125,-25.390625,24.4140625,0.0
297.9375,-16.6015625,-29.296875,-18.5546875,-18.06640625,-13.671875,0.0
297.94140625,-30.76171875,-29.296875,-15.13671875,-33.203125,-45.41015625,0.0
297.9453125,-24.90234375,-28.80859375,-25.390625,-34.66796875,42.96875,0.0
297.94921875,-15.625,-39.55078125,-25.87890625,-27.34375,62.98828125,0.0
297.953125,-24.4140625,-35.64453125,-40.52734375,-28.80859375,-51.7578125,0.0
297.95703125,-25.87890625,-26.3671875,-41.015625,-25.390625,-79.58984375,0.0
297.9609375,-22.94921875,-33.203125,-20.01953125,-28.80859375,28.3203125,0.0
297.96484375,-25.390625,-35.64453125,-26.3671875,-38.0859375,43.45703125,0.0
297.96875,-36.62109375,-33.203125,-45.8984375,-43.9453125,21.97265625,0.0
297.97265625,-42.96875,-42.48046875,-42.96875,-38.0859375,-56.640625,0.0
297.9765625,-31.25,-38.57421875,-27.83203125,-27.34375,-200.1953125,0.0
297.98046875,-31.25,-31.25,-31.73828125,-31.25,-216.30859375,0.0
297.984375,-31.25,-34.66796875,-47.36328125,-37.109375,-120.60546875,0.0
297.98828125,-24.90234375,-48.828125,-42.48046875,-25.87890625,-96.6796875,0.0
297.9921875,-28.80859375,-48.33984375,-35.15625,-27.34375,-10.25390625,0.0
297.99609375,-38.57421875,-29.78515625,-21.97265625,-36.1328125,46.38671875,0.0
298.0,-44.921875,-19.04296875,-25.390625,-45.41015625,10.7421875,0.0
298.00390625,-42.48046875,-23.4375,-34.66796875,-45.41015625,0.0,0.0
298.0078125,-40.52734375,-26.85546875,-32.2265625,-30.2734375,3.90625,0.0
298.01171875,-48.828125,-24.90234375,-41.50390625,-25.390625,23.4375,0.0
298.015625,-53.22265625,-34.66796875,-36.1328125,-32.71484375,-34.66796875,0.0
298.01953125,-41.9921875,-40.52734375,-34.1796875,-30.2734375,-50.29296875,0.0
298.0234375,-30.2734375,-31.25,-30.76171875,-23.92578125,7.32421875,0.0
298.02734375,-33.203125,-27.34375,-23.92578125,-22.94921875,-0.48828125,0.0
298.03125,-22.4609375,-38.57421875,-34.1796875,-19.04296875,-27.83203125,0.0
298.03515625,-14.6484375,-41.015625,-41.50390625,-27.83203125,-82.51953125,0.0
298.0390625,-20.01953125,-27.83203125,-43.45703125,-31.73828125,-86.42578125,0.0
298.04296875,-24.90234375,-27.34375,-38.0859375,-26.85546875,-61.03515625,0.0
298.046875,-41.015625,-36.62109375,-30.2734375,-35.15625,-36.1328125,0.0
298.05078125,-45.41015625,-38.57421875,-17.08984375,-36.62109375,-34.66796875,0.0
298.0546875,-40.52734375,-21.97265625,-17.08984375,-29.296875,-23.4375,0.0
298.05859375,-36.62109375,-23.4375,-30.76171875,-34.1796875,-9.27734375,0.0
298.0625,-39.0625,-35.15625,-46.38671875,-45.41015625,-41.015625,0.0
298.06640625,-31.25,-38.0859375,-53.7109375,-33.203125,-80.078125,0.0
298.0703125,-22.94921875,-34.1796875,-22.94921875,-18.06640625,-42.96875,0.0
298.07421875,-29.296875,-41.9921875,-13.671875,-34.66796875,-6.8359375,0.0
298.078125,-16.11328125,-45.41015625,-32.71484375,-41.015625,3.41796875,0.0
298.08203125,-8.7890625,-23.4375,-43.45703125,-36.1328125,27.83203125,0.0
298.0859375,-25.87890625,-24.90234375,-41.015625,-42.48046875,-38.57421875,0.0
298.08984375,-36.1328125,-28.3203125,-24.4140625,-48.33984375,-90.33203125,0.0
298.09375,-30.2734375,-33.69140625,-29.296875,-49.8046875,-50.29296875,0.0
298.09765625,-21.97265625,-43.45703125,-41.015625,-44.921875,-1.953125,0.0
298.1015625,-7.32421875,-39.0625,-38.57421875,-36.62109375,4.39453125,0.0
298.10546875,-0.48828125,-41.9921875,-43.45703125,-34.1796875,27.34375,0.0
298.109375,-3.41796875,-35.64453125,-24.4140625,-31.25,20.99609375,0.0
298.11328125,-9.27734375,-27.83203125,-6.8359375,-38.57421875,-10.25390625,0.0
298.1171875,-15.13671875,-23.92578125,-6.34765625,-38.57421875,-45.8984375,0.0
298.12109375,-17.578125,-24.90234375,-22.94921875,-35.15625,-86.42578125,0.0
298.125,-15.13671875,-28.3203125,-42.96875,-35.15625,-75.1953125,0.0
298.12890625,-10.7421875,-39.0625,-48.33984375,-29.78515625,-56.15234375,0.0
298.1328125,-5.37109375,-67.87109375,-40.0390625,-22.4609375,-56.640625,0.0
298.13671875,-0.48828125,-32.2265625,-20.99609375,-12.20703125,-73.73046875,0.0
298.140625,-8.30078125,-4.8828125,-22.4609375,-29.78515625,-102.05078125,0.0
298.14453125,-13.18359375,-11.23046875,-73.2421875,-43.45703125,-44.921875,0.0
298.1484375,-24.4140625,-11.23046875,-49.8046875,-48.828125,56.15234375,0.0
298.15234375,-29.296875,-22.94921875,12.20703125,-47.36328125,60.546875,0.0
298.15625,-17.578125,-32.2265625,-6.34765625,-35.64453125,-4.39453125,0.0
298.16015625,-18.06640625,-37.59765625,-0.48828125,-39.0625,-31.25,0.0
298.1640625,-34.66796875,-49.8046875,1.46484375,-54.19921875,29.296875,0.0
298.16796875,-29.78515625,-43.45703125,-10.25390625,-60.05859375,34.1796875,0.0
298.171875,-34.1796875,-34.66796875,-4.8828125,-57.6171875,-18.06640625,0.0
298.17578125,-47.8515625,-27.34375,-12.6953125,-61.03515625,-27.34375,0.0
298.1796875,-62.01171875,-21.97265625,1.46484375,-78.61328125,32.71484375,0.0
298.18359375,-82.03125,-39.0625,22.4609375,-97.65625,16.6015625,0.0
298.1875,-98.6328125,-49.31640625,20.5078125,-105.95703125,-34.66796875,0.0
298.19140625,-113.76953125,-54.6875,15.13671875,-125.48828125,-71.77734375,0.0
298.1953125,-128.90625,-56.640625,30.76171875,-142.578125,-129.8828125,0.0
298.19921875,-138.671875,-45.8984375,27.34375,-147.94921875,-93.26171875,0.0
298.203125,-152.83203125,-40.0390625,41.015625,-160.15625,-85.9375,0.0
298.20703125,-170.8984375,-51.7578125,80.078125,-188.4765625,-32.2265625,0.0
298.2109375,-182.6171875,-54.6875,64.94140625,-191.40625,14.16015625,0.0
298.21484375,-174.8046875,-49.8046875,64.94140625,-176.7578125,-16.11328125,0.0
298.21875,-153.3203125,-51.7578125,14.16015625,-168.9453125,1.46484375,0.0
298.22265625,-134.27734375,-60.05859375,5.859375,-144.53125,-23.92578125,0.0
298.2265625,-141.11328125,-59.08203125,57.12890625,-145.01953125,-53.7109375,0.0
298.23046875,-158.203125,-53.22265625,35.64453125,-163.0859375,-95.703125,0.0
298.234375,-146.484375,-62.5,37.109375,-148.4375,-78.61328125,0.0
298.23828125,-122.55859375,-53.22265625,52.24609375,-132.32421875,18.5546875,0.0
298.2421875,-83.49609375,-55.17578125,13.671875,-107.91015625,-2.44140625,0.0
298.24609375,-60.546875,-46.875,-6.34765625,-73.2421875,-116.69921875,0.0
298.25,-72.265625,-20.99609375,1.46484375,-73.2421875,-156.73828125,0.0
298.25390625,-67.3828125,-16.6015625,-5.859375,-70.80078125,-60.546875,0.0
298.2578125,-54.19921875,-25.390625,-21.484375,-67.3828125,-45.8984375,0.0
298.26171875,-32.71484375,-33.69140625,-33.69140625,-61.03515625,-71.2890625,0.0
298.265625,-19.53125,-38.57421875,-18.06640625,-36.1328125,-2.44140625,0.0
298.26953125,6.34765625,-43.9453125,-62.5,-1.953125,49.8046875,0.0
298.2734375,35.15625,-51.26953125,-85.44921875,19.53125,35.15625,0.0
298.27734375,41.015625,-50.78125,-26.85546875,7.32421875,-81.0546875,0.0
298.28125,52.24609375,-39.55078125,-19.04296875,8.7890625,-51.7578125,0.0
298.28515625,56.640625,-46.38671875,-46.875,3.90625,-6.8359375,0.0
298.2890625,67.3828125,-34.1796875,-73.73046875,13.671875,-24.4140625,0.0
298.29296875,77.1484375,-30.76171875,-62.5,38.57421875,2.9296875,0.0
298.296875,64.94140625,-34.1796875,-51.26953125,16.6015625,10.25390625,0.0
298.30078125,63.96484375,-12.6953125,-62.5,10.25390625,-20.99609375,0.0
298.3046875,68.84765625,-8.7890625,-66.40625,24.90234375,-22.4609375,0.0
298.30859375,59.5703125,-24.4140625,-104.00390625,28.3203125,-41.9921875,0.0
298.3125,52.734375,-35.15625,-97.16796875,32.2265625,-126.953125,0.0
298.31640625,52.24609375,-30.2734375,-43.45703125,32.71484375,-113.28125,0.0
298.3203125,48.33984375,-35.15625,-64.453125,25.87890625,-126.46484375,0.0
298.32421875,41.50390625,-38.0859375,-70.80078125,20.01953125,-124.0234375,0.0
298.328125,45.41015625,-33.69140625,-57.12890625,28.3203125,-169.921875,0.0
298.33203125,39.0625,-34.66796875,-64.453125,29.78515625,-233.3984375,0.0
298.3359375,32.2265625,-26.3671875,-53.22265625,26.3671875,-238.76953125,0.0
298.33984375,42.48046875,-29.296875,-43.9453125,30.76171875,-208.49609375,0.0
298.34375,34.66796875,-36.62109375,-56.15234375,9.765625,-190.91796875,0.0
298.34765625,23.92578125,-39.0625,-77.1484375,2.9296875,-143.5546875,0.0
298.3515625,22.94921875,-26.3671875,-88.8671875,23.4375,-36.62109375,0.0
298.35546875,25.390625,-12.20703125,-57.12890625,29.78515625,-3.90625,0.0
298.359375,13.18359375,-27.34375,-13.18359375,26.3671875,-7.32421875,0.0
298.36328125,1.46484375,-36.1328125,-28.80859375,9.765625,-71.2890625,0.0
298.3671875,2.44140625,-33.69140625,-48.33984375,-7.8125,-37.109375,0.0
298.37109375,9.765625,-31.73828125,-53.22265625,4.39453125,22.4609375,0.0
298.375,20.01953125,-44.43359375,-55.17578125,23.4375,18.06640625,0.0
298.37890625,19.53125,-38.57421875,-43.9453125,20.99609375,29.296875,0.0
298.3828125,1.46484375,-8.30078125,-50.78125,9.765625,9.27734375,0.0
298.38671875,-6.8359375,-18.5546875,-61.5234375,6.34765625,93.75,0.0
298.390625,-1.46484375,-35.64453125,-57.6171875,18.06640625,46.875,0.0
298.39453125,3.90625,-38.0859375,-47.8515625,28.80859375,-44.921875,0.0
298.3984375,11.23046875,-17.578125,-19.53125,26.85546875,23.4375,0.0
298.40234375,12.20703125,-25.87890625,-31.73828125,15.625,39.55078125,0.0
298.40625,-6.8359375,-38.0859375,-55.17578125,-2.9296875,23.92578125,0.0
298.41015625,-18.06640625,-33.69140625,-56.15234375,-4.39453125,-25.390625,0.0
298.4140625,-15.13671875,-40.52734375,-45.8984375,1.953125,-49.31640625,0.0
298.41796875,-6.34765625,-40.52734375,-26.85546875,1.46484375,-7.8125,0.0
298.421875,-9.765625,-48.828125,-34.66796875,-1.46484375,-8.7890625,0.0
298.42578125,-14.16015625,-49.31640625,-53.7109375,-1.46484375,-20.01953125,0.0
298.4296875,-27.83203125,-16.6015625,-51.7578125,-4.8828125,16.11328125,0.0
298.43359375,-41.50390625,-12.20703125,-32.2265625,-6.8359375,-19.53125,0.0
298.4375,-32.2265625,-29.78515625,-27.83203125,-8.30078125,-63.96484375,0.0
298.44140625,-34.66796875,-31.73828125,-51.7578125,-7.32421875,-46.875,0.0
298.4453125,-38.0859375,-33.203125,-40.0390625,-0.48828125,-62.01171875,0.0
298.44921875,-34.66796875,-37.59765625,-21.484375,-18.5546875,-39.0625,0.0
298.453125,-41.50390625,-44.921875,-26.3671875,-26.85546875,-56.15234375,0.0
298.45703125,-36.62109375,-29.78515625,-31.73828125,-20.01953125,-55.17578125,0.0
298.4609375,-27.34375,-11.23046875,-49.8046875,-16.11328125,-29.296875,0.0
298.46484375,-20.01953125,-29.296875,-41.015625,-9.765625,-16.6015625,0.0
298.46875,-41.50390625,-38.0859375,-29.78515625,-32.2265625,-4.39453125,0.0
298.47265625,-54.19921875,-32.2265625,-40.52734375,-26.85546875,-41.50390625,0.0
298.4765625,-34.1796875,-25.87890625,-32.2265625,-8.30078125,-49.31640625,0.0
298.48046875,-32.2265625,-26.85546875,-32.71484375,-20.99609375,-28.3203125,0.0
298.484375,-37.59765625,-41.9921875,-40.0390625,-25.87890625,-44.921875,0.0
298.48828125,-39.0625,-38.0859375,-31.73828125,-12.20703125,-28.80859375,0.0
298.4921875,-41.015625,-33.69140625,-36.1328125,-8.30078125,21.97265625,0.0
298.49609375,-35.15625,-44.921875,-49.31640625,-16.11328125,-11.23046875,0.0
298.5,-48.33984375,-27.83203125,-30.2734375,-20.99609375,-2.9296875,0.0
298.50390625,-55.17578125,-21.484375,-8.7890625,-26.3671875,54.19921875,0.0
298.5078125,-47.36328125,-32.2265625,-13.671875,-19.53125,28.80859375,0.0
298.51171875,-51.26953125,-42.48046875,-25.87890625,-23.4375,31.25,0.0
298.515625,-41.9921875,-37.59765625,-36.62109375,-14.6484375,-1.46484375,0.0
298.51953125,-35.64453125,-15.13671875,-36.1328125,-9.765625,-26.3671875,0.0
298.5234375,-47.8515625,-16.11328125,-21.484375,-24.4140625,1.953125,0.0
298.52734375,-57.6171875,-24.4140625,-13.18359375,-18.5546875,-81.0546875,0.0
298.53125,-67.3828125,-29.296875,-11.71875,-15.625,-56.15234375,0.0
298.53515625,-60.05859375,-20.99609375,-10.25390625,-0.48828125,13.18359375,0.0
298.5390625,-50.29296875,-17.578125,-18.06640625,-5.859375,12.20703125,0.0
298.54296875,-60.05859375,-28.3203125,-43.9453125,-26.85546875,19.53125,0.0
298.546875,-74.70703125,-37.109375,-50.29296875,-24.4140625,26.3671875,0.0
298.55078125,-72.75390625,-42.48046875,-31.73828125,-14.16015625,43.9453125,0.0
298.5546875,-68.359375,-31.25,-53.22265625,1.46484375,40.52734375,0.0
298.55859375,-88.37890625,-29.296875,-18.5546875,-5.37109375,-3.90625,0.0
298.5625,-94.7265625,-48.828125,27.83203125,-17.08984375,87.890625,0.0
298.56640625,-92.7734375,-38.0859375,6.8359375,-6.34765625,157.71484375,0.0
298.5703125,-104.4921875,-31.25,-17.578125,-2.9296875,29.78515625,0.0
298.57421875,-109.375,-36.1328125,-21.97265625,-3.41796875,-62.01171875,0.0
298.578125,-96.19140625,-14.6484375,-24.4140625,1.953125,-96.6796875,0.0
298.58203125,-82.03125,-24.4140625,-31.25,-2.9296875,-67.87109375,0.0
298.5859375,-102.05078125,-34.1796875,-7.32421875,-25.390625,-81.54296875,0.0
298.58984375,-118.65234375,-25.87890625,-15.13671875,-16.11328125,-160.15625,0.0
298.59375,-125.48828125,-29.296875,-37.59765625,-2.44140625,-123.53515625,0.0
298.59765625,-110.3515625,-31.73828125,-30.2734375,-19.53125,-11.71875,0.0
298.6015625,-82.03125,-33.203125,-30.2734375,-14.6484375,52.24609375,0.0
298.60546875,-101.07421875,-32.71484375,-34.66796875,-20.5078125,-49.31640625,0.0
298.609375,-114.74609375,-29.296875,-39.55078125,-33.69140625,-115.234375,0.0
298.61328125,-87.40234375,-26.3671875,-33.203125,-11.23046875,-75.68359375,0.0
298.6171875,-67.3828125,-25.390625,-16.11328125,-18.5546875,-83.984375,0.0
298.62109375,-58.59375,-29.78515625,-35.64453125,-28.3203125,-105.46875,0.0
298.625,-40.0390625,-28.80859375,-45.41015625,-10.25390625,-26.85546875,0.0
298.62890625,-49.31640625,-56.640625,-30.76171875,-13.671875,-5.37109375,0.0
298.6328125,-65.91796875,-64.453125,-26.85546875,-23.92578125,-84.9609375,0.0
298.63671875,-53.7109375,-24.4140625,-9.765625,-26.85546875,-104.00390625,0.0
298.640625,-36.1328125,-20.01953125,-12.6953125,-20.01953125,-89.84375,0.0
298.64453125,-45.41015625,-18.06640625,-25.87890625,-29.78515625,-42.96875,0.0
298.6484375,-59.08203125,-15.13671875,-20.99609375,-35.64453125,14.6484375,0.0
298.65234375,-59.5703125,-20.99609375,-30.76171875,-28.3203125,-36.62109375,0.0
298.65625,-36.1328125,-31.73828125,-49.8046875,-20.99609375,-56.15234375,0.0
298.66015625,-29.78515625,-40.0390625,-50.78125,-26.85546875,-44.921875,0.0
298.6640625,-42.48046875,-30.2734375,-32.71484375,-39.55078125,-23.92578125,0.0
298.66796875,-39.0625,-16.6015625,-20.5078125,-26.3671875,-42.96875,0.0
298.671875,-36.1328125,-29.78515625,-40.52734375,-24.90234375,-52.24609375,0.0
298.67578125,-42.48046875,-32.2265625,-48.33984375,-34.66796875,-28.3203125,0.0
298.6796875,-26.85546875,-20.5078125,-16.6015625,-20.5078125,-48.33984375,0.0
298.68359375,-39.0625,-22.4609375,-10.7421875,-34.66796875,-42.48046875,0.0
298.6875,-63.4765625,-24.90234375,-19.04296875,-52.24609375,-24.90234375,0.0
298.69140625,-47.8515625,-24.90234375,-21.484375,-39.55078125,-8.7890625,0.0
298.6953125,-34.66796875,-19.04296875,-29.296875,-16.11328125,-42.48046875,0.0
298.69921875,-46.38671875,-26.3671875,-21.97265625,-20.01953125,-59.5703125,0.0
298.703125,-47.8515625,-32.2265625,-24.90234375,-42.48046875,-31.73828125,0.0
298.70703125,-51.26953125,-29.78515625,-28.80859375,-28.80859375,-19.53125,0.0
298.7109375,-52.24609375,-20.5078125,-28.3203125,-16.6015625,39.0625,0.0
298.71484375,-34.66796875,-9.765625,-10.25390625,-13.671875,-73.2421875,0.0
298.71875,-47.8515625,-23.4375,-20.01953125,-27.34375,-221.6796875,0.0
298.72265625,-60.546875,-33.69140625,-33.69140625,-41.015625,-190.4296875,0.0
298.7265625,-53.22265625,-26.85546875,-25.87890625,-40.52734375,-178.22265625,0.0
298.73046875,-48.33984375,-41.9921875,-23.4375,-41.50390625,-145.5078125,0.0
298.734375,-39.55078125,-42.96875,-20.5078125,-31.25,-153.80859375,0.0
298.73828125,-34.66796875,-35.15625,-27.83203125,-29.296875,-144.04296875,0.0
298.7421875,-47.36328125,-39.55078125,-26.3671875,-38.0859375,-137.6953125,0.0
298.74609375,-48.828125,-27.83203125,-16.6015625,-38.57421875,-92.7734375,0.0
298.75,-50.29296875,-17.578125,-25.390625,-35.15625,-43.45703125,0.0
298.75390625,-50.78125,-22.4609375,-31.73828125,-33.69140625,-56.15234375,0.0
298.7578125,-33.203125,-28.3203125,-19.53125,-34.66796875,-46.38671875,0.0
298.76171875,-28.3203125,-26.85546875,-17.578125,-33.69140625,-76.171875,0.0
298.765625,-37.59765625,-34.1796875,-31.73828125,-49.8046875,-31.25,0.0
298.76953125,-46.38671875,-43.45703125,-59.5703125,-51.7578125,-47.36328125,0.0
298.7734375,-39.0625,-34.66796875,-48.33984375,-34.1796875,-36.1328125,0.0
298.77734375,-21.484375,-20.01953125,-5.37109375,-42.96875,46.875,0.0
298.78125,-25.87890625,-31.25,-4.39453125,-46.875,82.51953125,0.0
298.78515625,-30.76171875,-39.55078125,-41.50390625,-36.62109375,0.48828125,0.0
298.7890625,-34.1796875,-45.8984375,-36.62109375,-32.2265625,-60.05859375,0.0
298.79296875,-29.296875,-22.94921875,-10.25390625,-31.25,-26.85546875,0.0
298.796875,-24.4140625,-0.48828125,-12.6953125,-30.2734375,-55.17578125,0.0
298.80078125,-25.87890625,-9.27734375,-33.69140625,-34.1796875,0.48828125,0.0
298.8046875,-19.04296875,-16.11328125,-40.52734375,-32.2265625,37.109375,0.0
298.80859375,-31.73828125,-25.390625,-28.3203125,-34.1796875,22.94921875,0.0
298.8125,-31.73828125,-28.80859375,-24.90234375,-34.66796875,50.78125,0.0
298.81640625,-18.5546875,-23.92578125,-20.99609375,-28.80859375,57.12890625,0.0
298.8203125,-12.6953125,-14.6484375,-21.484375,-26.85546875,20.01953125,0.0
298.82421875,-18.5546875,-32.2265625,-46.38671875,-34.66796875,-54.19921875,0.0
298.828125,-23.4375,-42.48046875,-54.6875,-43.9453125,-26.85546875,0.0
298.83203125,-20.5078125,-34.66796875,-29.296875,-50.78125,29.296875,0.0
298.8359375,-20.01953125,-35.64453125,-27.34375,-42.96875,18.5546875,0.0
298.83984375,-18.5546875,-30.76171875,-38.0859375,-35.64453125,59.08203125,0.0
298.84375,-17.08984375,-27.34375,-35.15625,-48.828125,68.84765625,0.0
298.84765625,-18.5546875,-33.69140625,-26.3671875,-42.96875,-10.7421875,0.0
298.8515625,-29.78515625,-33.203125,-29.296875,-36.1328125,-8.30078125,0.0
298.85546875,-36.62109375,-36.62109375,-30.2734375,-37.109375,29.78515625,0.0
298.859375,-34.66796875,-41.015625,-24.4140625,-45.8984375,73.73046875,0.0
298.86328125,-22.4609375,-21.97265625,-33.203125,-41.9921875,27.83203125,0.0
298.8671875,-29.78515625,-21.97265625,-60.546875,-30.76171875,-24.90234375,0.0
298.87109375,-36.1328125,-31.73828125,-52.734375,-34.66796875,-26.85546875,0.0
298.875,-23.92578125,-41.015625,-15.625,-31.73828125,-65.91796875,0.0
298.87890625,-31.73828125,-47.8515625,-10.7421875,-45.41015625,-81.54296875,0.0
298.8828125,-37.59765625,-32.71484375,-28.3203125,-54.6875,-52.24609375,0.0
298.88671875,-34.66796875,-18.5546875,-31.25,-38.57421875,-95.21484375,0.0
298.890625,-46.38671875,-30.76171875,-32.2265625,-41.9921875,-40.0390625,0.0
298.89453125,-40.52734375,-24.90234375,-34.66796875,-47.36328125,51.26953125,0.0
298.8984375,-20.99609375,-13.671875,-44.921875,-35.15625,31.25,0.0
298.90234375,-16.6015625,-19.53125,-69.3359375,-30.76171875,101.07421875,0.0
298.90625,-20.01953125,-13.671875,-45.41015625,-38.0859375,98.14453125,0.0
298.91015625,-29.78515625,-22.4609375,1.46484375,-48.33984375,-7.32421875,0.0
298.9140625,-31.25,-33.203125,-4.8828125,-47.36328125,-53.7109375,0.0
298.91796875,-17.578125,-22.94921875,-20.99609375,-40.0390625,-44.43359375,0.0
298.921875,2.9296875,-7.8125,-19.53125,-30.2734375,-13.18359375,0.0
298.92578125,4.39453125,0.0,-13.671875,-23.4375,50.29296875,0.0
298.9296875,-13.18359375,-12.20703125,-29.296875,-31.25,78.61328125,0.0
298.93359375,-29.296875,-22.94921875,-55.6640625,-32.71484375,-32.71484375,0.0
298.9375,-22.4609375,-23.4375,-43.9453125,-37.59765625,-15.625,0.0
298.94140625,-17.08984375,-25.390625,-10.7421875,-43.45703125,51.26953125,0.0
298.9453125,-19.04296875,-4.8828125,-8.30078125,-37.109375,-48.33984375,0.0
298.94921875,-23.92578125,-0.48828125,-15.13671875,-30.76171875,-73.2421875,0.0
298.953125,-28.80859375,-11.71875,-21.484375,-27.34375,-93.26171875,0.0
298.95703125,-21.97265625,-10.25390625,-20.5078125,-22.4609375,-125.48828125,0.0
298.9609375,-17.578125,-6.8359375,-36.1328125,-22.94921875,-63.4765625,0.0
298.96484375,-17.578125,-3.90625,-46.875,-36.62109375,-29.296875,0.0
298.96875,-20.99609375,1.953125,-43.9453125,-34.66796875,38.0859375,0.0
298.97265625,-22.4609375,-0.9765625,-51.26953125,-30.76171875,-1.46484375,0.0
298.9765625,-23.92578125,-18.5546875,-16.11328125,-34.66796875,-122.0703125,0.0
298.98046875,-18.5546875,-11.71875,10.25390625,-31.73828125,-102.05078125,0.0
298.984375,-27.34375,-1.953125,-5.859375,-34.66796875,-81.0546875,0.0
298.98828125,-25.390625,3.90625,-22.4609375,-31.25,-114.2578125,0.0
298.9921875,-20.01953125,14.6484375,-27.83203125,-34.1796875,-102.5390625,0.0
298.99609375,-17.08984375,24.4140625,-33.203125,-29.78515625,-19.53125,0.0
299.0,3.90625,22.4609375,-31.73828125,-12.6953125,34.1796875,0.0
299.00390625,-4.8828125,10.25390625,-33.69140625,-19.53125,65.4296875,1.0
299.0078125,-17.578125,3.41796875,-39.55078125,-25.87890625,-65.4296875,1.0
299.01171875,-9.27734375,8.30078125,-24.4140625,-15.13671875,-134.765625,1.0
299.015625,-11.71875,8.30078125,-18.5546875,-18.5546875,-11.71875,1.0
299.01953125,-24.4140625,2.44140625,-29.296875,-32.71484375,16.11328125,1.0
299.0234375,-13.18359375,12.20703125,-44.43359375,-35.15625,-15.625,1.0
299.02734375,-5.37109375,19.53125,-42.96875,-25.390625,-55.6640625,1.0
299.03125,-13.18359375,17.578125,-24.90234375,-19.04296875,-6.8359375,1.0
299.03515625,-5.37109375,10.25390625,-10.25390625,-18.06640625,41.015625,1.0
299.0390625,-0.48828125,12.6953125,-6.34765625,-19.04296875,22.4609375,1.0
299.04296875,-8.30078125,14.6484375,-25.87890625,-19.53125,-4.39453125,1.0
299.046875,-15.13671875,9.765625,-27.83203125,-27.83203125,-50.29296875,1.0
299.05078125,-20.01953125,4.39453125,-19.53125,-32.2265625,-49.31640625,1.0
299.0546875,-20.01953125,-8.7890625,-27.83203125,-31.73828125,-135.7421875,1.0
299.05859375,-7.32421875,-7.32421875,-38.57421875,-31.25,-78.61328125,1.0
299.0625,7.32421875,6.34765625,-27.83203125,-33.69140625,49.8046875,1.0
299.06640625,6.8359375,2.44140625,-22.4609375,-38.0859375,-50.29296875,1.0
299.0703125,0.48828125,12.20703125,-35.15625,-27.34375,-3.90625,1.0
299.07421875,-2.9296875,11.71875,-34.66796875,-16.6015625,44.43359375,1.0
299.078125,-11.71875,8.7890625,-36.62109375,-23.92578125,-4.8828125,1.0
299.08203125,-12.6953125,12.20703125,-42.48046875,-28.3203125,-6.8359375,1.0
299.0859375,-13.18359375,4.8828125,-38.0859375,-23.4375,-48.828125,1.0
299.08984375,-8.7890625,8.30078125,-6.8359375,-16.11328125,-54.6875,1.0
299.09375,-20.99609375,0.0,-12.6953125,-20.5078125,-29.296875,1.0
299.09765625,-28.3203125,-1.46484375,-30.76171875,-32.2265625,-57.12890625,1.0
299.1015625,-14.6484375,4.8828125,-28.3203125,-37.59765625,-16.11328125,1.0
299.10546875,-8.30078125,-7.32421875,-28.80859375,-39.0625,20.01953125,1.0
299.109375,-11.23046875,-5.859375,-36.62109375,-41.015625,13.18359375,1.0
299.11328125,-14.6484375,-2.9296875,-34.1796875,-24.90234375,19.53125,1.0
299.1171875,-8.30078125,-8.30078125,-39.0625,-22.94921875,-39.55078125,1.0
299.12109375,-12.20703125,-11.23046875,-43.45703125,-42.48046875,-98.14453125,1.0
299.125,-27.83203125,-12.20703125,-25.87890625,-47.36328125,-110.83984375,1.0
299.12890625,-30.2734375,-16.11328125,-33.69140625,-34.66796875,-56.15234375,1.0
299.1328125,-14.6484375,-10.7421875,-27.83203125,-21.97265625,-42.96875,1.0
299.13671875,-15.13671875,-3.41796875,-29.78515625,-20.5078125,-87.890625,1.0
299.140625,-21.484375,-6.8359375,-45.41015625,-28.80859375,-106.4453125,1.0
299.14453125,-20.99609375,-7.8125,-47.36328125,-34.66796875,-68.359375,1.0
299.1484375,-32.71484375,-3.90625,-48.33984375,-32.71484375,-17.578125,1.0
299.15234375,-33.69140625,-9.27734375,-31.73828125,-33.69140625,-33.69140625,1.0
299.15625,-28.3203125,-17.578125,-24.4140625,-38.57421875,-27.83203125,1.0
299.16015625,-24.4140625,-30.76171875,-33.69140625,-37.109375,-17.578125,1.0
299.1640625,-24.4140625,-30.2734375,-30.2734375,-38.57421875,-0.48828125,1.0
299.16796875,-21.484375,-14.16015625,-50.78125,-41.015625,-11.23046875,1.0
299.171875,-14.16015625,-18.06640625,-54.19921875,-35.15625,16.6015625,1.0
299.17578125,-19.53125,-20.5078125,-20.5078125,-28.3203125,-30.2734375,1.0
299.1796875,-26.3671875,-15.625,-16.11328125,-32.2265625,-11.71875,1.0
299.18359375,-24.4140625,-23.92578125,-31.25,-44.43359375,43.9453125,1.0
299.1875,-23.92578125,-26.3671875,-31.25,-44.921875,-31.25,1.0
299.19140625,-15.13671875,-23.92578125,-28.80859375,-36.1328125,-30.76171875,1.0
299.1953125,0.48828125,-17.08984375,-29.78515625,-19.53125,41.9921875,1.0
299.19921875,-14.6484375,-21.484375,-45.41015625,-29.296875,-7.8125,1.0
299.203125,-30.2734375,-38.57421875,-54.19921875,-48.828125,-95.703125,1.0
299.20703125,-24.90234375,-47.8515625,-54.19921875,-42.48046875,-50.78125,1.0
299.2109375,-31.25,-41.50390625,-41.015625,-41.015625,46.875,1.0
299.21484375,-32.2265625,-32.2265625,-21.484375,-40.52734375,71.77734375,1.0
299.21875,-27.34375,-22.4609375,-27.83203125,-39.0625,36.62109375,1.0
299.22265625,-22.94921875,-9.27734375,-40.52734375,-48.33984375,-36.62109375,1.0
299.2265625,-26.85546875,-10.25390625,-47.36328125,-51.7578125,-19.04296875,1.0
299.23046875,-40.0390625,-22.94921875,-48.828125,-48.33984375,17.08984375,1.0
299.234375,-39.55078125,-32.71484375,-34.66796875,-45.41015625,-14.6484375,1.0
299.23828125,-27.83203125,-30.76171875,-26.3671875,-36.62109375,-76.66015625,1.0
299.2421875,-27.83203125,-29.78515625,-35.64453125,-39.55078125,-125.48828125,1.0
299.24609375,-30.76171875,-34.1796875,-44.43359375,-44.921875,-15.625,1.0
299.25,-31.73828125,-36.1328125,-29.296875,-42.96875,29.296875,1.0
299.25390625,-38.57421875,-29.296875,-24.4140625,-39.55078125,-47.36328125,1.0
299.2578125,-30.2734375,-29.78515625,-29.78515625,-23.92578125,-28.80859375,1.0
299.26171875,-31.25,-32.71484375,-36.1328125,-28.80859375,-2.9296875,1.0
299.265625,-35.15625,-21.484375,-51.7578125,-34.66796875,17.08984375,1.0
299.26953125,-30.2734375,-15.625,-57.6171875,-29.78515625,-4.8828125,1.0
299.2734375,-28.80859375,-25.390625,-36.62109375,-33.69140625,-14.16015625,1.0
299.27734375,-21.484375,-20.5078125,-17.08984375,-33.203125,52.24609375,1.0
299.28125,-21.484375,-24.4140625,-28.3203125,-33.203125,23.4375,1.0
299.28515625,-20.5078125,-41.9921875,-33.203125,-27.83203125,-52.734375,1.0
299.2890625,-21.97265625,-31.73828125,-54.6875,-18.5546875,-79.1015625,1.0
299.29296875,-32.2265625,-25.390625,-45.8984375,-18.06640625,-40.0390625,1.0
299.296875,-29.296875,-23.92578125,-16.6015625,-21.484375,-43.9453125,1.0
299.30078125,-23.92578125,-32.71484375,-35.15625,-27.83203125,-88.8671875,1.0
299.3046875,-31.73828125,-39.0625,-31.73828125,-35.15625,-14.6484375,1.0
299.30859375,-37.109375,-33.203125,-18.06640625,-34.1796875,-23.92578125,1.0
299.3125,-32.2265625,-42.48046875,-20.01953125,-24.90234375,-87.40234375,1.0
299.31640625,-27.83203125,-40.0390625,-28.80859375,-32.71484375,-74.21875,1.0
299.3203125,-27.34375,-20.5078125,-43.9453125,-34.1796875,-69.82421875,1.0
299.32421875,-30.2734375,-22.4609375,-47.36328125,-32.2265625,-76.171875,1.0
299.328125,-30.76171875,-27.83203125,-24.4140625,-39.55078125,-48.33984375,1.0
299.33203125,-33.203125,-28.3203125,-20.99609375,-29.296875,-31.25,1.0
299.3359375,-25.87890625,-33.203125,-36.1328125,-20.5078125,-53.22265625,1.0
299.33984375,-16.6015625,-33.203125,-39.0625,-18.06640625,-37.59765625,1.0
299.34375,-18.5546875,-28.3203125,-53.22265625,-19.04296875,-58.59375,1.0
299.34765625,-21.484375,-34.1796875,-40.0390625,-24.90234375,-90.33203125,1.0
299.3515625,-23.4375,-40.0390625,-20.99609375,-29.78515625,-46.875,1.0
299.35546875,-26.85546875,-33.69140625,-23.4375,-28.3203125,-20.99609375,1.0
299.359375,-23.4375,-42.48046875,-34.66796875,-25.390625,-65.4296875,1.0
299.36328125,-22.94921875,-44.921875,-31.25,-30.76171875,-54.6875,1.0
299.3671875,-28.3203125,-33.203125,-17.578125,-39.55078125,-54.6875,1.0
299.37109375,-28.80859375,-27.83203125,-25.390625,-37.109375,-92.28515625,1.0
299.375,-17.578125,-20.01953125,-24.90234375,-21.484375,-44.921875,1.0
299.37890625,-15.13671875,-28.3203125,-18.5546875,-26.3671875,24.4140625,1.0
299.3828125,-21.484375,-33.203125,-31.25,-40.0390625,40.52734375,1.0
299.38671875,-31.73828125,-38.57421875,-42.96875,-38.0859375,17.578125,1.0
299.390625,-36.1328125,-45.8984375,-40.0390625,-33.69140625,-27.34375,1.0
299.39453125,-27.83203125,-35.64453125,-36.1328125,-22.94921875,-36.1328125,1.0
299.3984375,-21.484375,-26.3671875,-40.52734375,-16.11328125,-26.85546875,1.0
299.40234375,-21.484375,-22.4609375,-27.34375,-19.04296875,-14.6484375,1.0
299.40625,-32.71484375,-29.78515625,-28.3203125,-25.87890625,9.765625,1.0
299.41015625,-37.59765625,-36.1328125,-43.9453125,-25.390625,0.9765625,1.0
299.4140625,-21.484375,-30.76171875,-43.9453125,-14.6484375,57.12890625,1.0
299.41796875,-11.23046875,-21.484375,-21.97265625,-11.23046875,50.78125,1.0
299.421875,-19.53125,-35.64453125,0.9765625,-20.99609375,-78.125,1.0
299.42578125,-31.73828125,-41.015625,-11.23046875,-33.69140625,-62.01171875,1.0
299.4296875,-33.69140625,-29.78515625,-30.76171875,-40.52734375,-88.37890625,1.0
299.43359375,-19.04296875,-32.2265625,-34.66796875,-32.2265625,-141.11328125,1.0
299.4375,-11.71875,-39.0625,-27.83203125,-25.87890625,-42.48046875,1.0
299.44140625,-22.4609375,-34.66796875,-33.203125,-35.64453125,4.39453125,1.0
299.4453125,-27.83203125,-33.203125,-44.921875,-41.015625,5.37109375,1.0
299.44921875,-33.69140625,-36.1328125,-56.640625,-39.55078125,59.08203125,1.0
299.453125,-36.1328125,-34.66796875,-48.33984375,-31.25,-18.06640625,1.0
299.45703125,-31.25,-30.2734375,-40.52734375,-31.25,-40.52734375,1.0
299.4609375,-22.94921875,-38.0859375,-46.38671875,-37.59765625,53.22265625,1.0
299.46484375,-22.4609375,-48.828125,-13.18359375,-42.96875,-46.875,1.0
299.46875,-30.2734375,-38.57421875,-3.90625,-42.96875,-224.12109375,1.0
299.47265625,-28.80859375,-34.66796875,-23.92578125,-36.62109375,-146.97265625,1.0
299.4765625,-33.69140625,-42.48046875,-33.203125,-38.57421875,-6.34765625,1.0
299.48046875,-41.50390625,-42.48046875,-49.8046875,-49.31640625,48.33984375,1.0
299.484375,-30.76171875,-33.69140625,-43.45703125,-52.734375,41.50390625,1.0
299.48828125,-32.2265625,-38.0859375,-41.50390625,-53.22265625,22.4609375,1.0
299.4921875,-42.96875,-50.78125,-49.8046875,-51.26953125,-25.390625,1.0
299.49609375,-33.69140625,-49.8046875,-26.85546875,-43.45703125,-58.10546875,1.0
299.5,-30.76171875,-41.9921875,-24.90234375,-42.48046875,-42.48046875,1.0
299.50390625,-41.50390625,-42.96875,-34.66796875,-44.43359375,-84.47265625,1.0
299.5078125,-41.50390625,-43.9453125,-24.90234375,-41.50390625,-229.4921875,1.0
299.51171875,-32.71484375,-55.6640625,-22.4609375,-27.83203125,-240.72265625,1.0
299.515625,-31.25,-59.08203125,-31.73828125,-20.5078125,-90.8203125,1.0
299.51953125,-31.73828125,-40.0390625,-35.64453125,-32.71484375,-11.71875,1.0
299.5234375,-31.73828125,-29.296875,-35.64453125,-38.57421875,-22.4609375,1.0
299.52734375,-42.48046875,-30.76171875,-45.8984375,-41.015625,-102.05078125,1.0
299.53125,-44.43359375,-57.12890625,-39.0625,-42.48046875,-50.78125,1.0
299.53515625,-49.31640625,-61.03515625,-20.99609375,-49.31640625,-88.37890625,1.0
299.5390625,-62.5,-39.0625,-26.85546875,-59.08203125,-199.70703125,1.0
299.54296875,-47.8515625,-36.1328125,-33.69140625,-33.203125,-129.8828125,1.0
299.546875,-45.41015625,-31.73828125,-30.76171875,-38.0859375,-157.2265625,1.0
299.55078125,-72.75390625,-36.62109375,-29.296875,-72.75390625,-219.23828125,1.0
299.5546875,-67.87109375,-32.2265625,-16.6015625,-72.75390625,-202.1484375,1.0
299.55859375,-75.68359375,-25.87890625,-2.44140625,-95.21484375,-179.19921875,1.0
299.5625,-84.47265625,-26.85546875,-11.23046875,-105.95703125,-80.078125,1.0
299.56640625,-80.078125,-32.71484375,-13.671875,-111.328125,-21.484375,1.0
299.5703125,-88.8671875,-32.2265625,6.34765625,-116.69921875,-71.2890625,1.0
299.57421875,-112.3046875,-26.85546875,10.25390625,-133.30078125,0.0,1.0
299.578125,-125.0,-18.5546875,0.9765625,-158.203125,66.40625,1.0
299.58203125,-149.4140625,-20.01953125,-20.5078125,-184.5703125,23.92578125,1.0
299.5859375,-170.41015625,-33.69140625,-33.69140625,-202.1484375,84.9609375,1.0
299.58984375,-160.15625,-45.8984375,-14.16015625,-194.82421875,115.234375,1.0
299.59375,-163.57421875,-33.203125,5.37109375,-197.265625,100.5859375,1.0
299.59765625,-154.296875,2.9296875,-3.90625,-198.2421875,100.09765625,1.0
299.6015625,-151.3671875,-5.37109375,-21.97265625,-214.84375,51.26953125,1.0
299.60546875,-136.23046875,-22.4609375,-12.6953125,-208.49609375,-11.23046875,1.0
299.609375,-116.69921875,-15.625,-15.13671875,-175.78125,-41.9921875,1.0
299.61328125,-93.75,-12.6953125,-23.4375,-149.90234375,-11.71875,1.0
299.6171875,-59.5703125,-5.37109375,-32.71484375,-131.34765625,6.8359375,1.0
299.62109375,-40.52734375,-9.765625,-45.8984375,-115.234375,15.13671875,1.0
299.625,-21.484375,-28.80859375,-61.03515625,-87.40234375,-30.76171875,1.0
299.62890625,13.671875,-37.59765625,-75.68359375,-55.17578125,64.94140625,1.0
299.6328125,41.015625,-34.1796875,-71.2890625,-25.87890625,122.55859375,1.0
299.63671875,53.7109375,-2.44140625,-66.89453125,-2.9296875,17.578125,1.0
299.640625,70.3125,-5.37109375,-75.1953125,6.8359375,-8.7890625,1.0
299.64453125,84.47265625,-17.08984375,-75.1953125,18.06640625,20.5078125,1.0
299.6484375,92.7734375,-18.5546875,-66.40625,37.59765625,14.6484375,1.0
299.65234375,105.95703125,-22.4609375,-74.21875,66.89453125,34.1796875,1.0
299.65625,113.28125,-15.625,-73.73046875,77.63671875,9.765625,1.0
299.66015625,127.9296875,-23.92578125,-62.5,80.078125,-48.33984375,1.0
299.6640625,126.46484375,-51.26953125,-76.66015625,86.42578125,-15.13671875,1.0
299.66796875,110.83984375,-49.8046875,-73.2421875,92.28515625,-5.37109375,1.0
299.671875,101.07421875,-29.78515625,-63.96484375,84.9609375,-40.52734375,1.0
299.67578125,99.12109375,-28.3203125,-69.3359375,75.68359375,-77.63671875,1.0
299.6796875,108.88671875,-31.73828125,-60.05859375,82.03125,-87.40234375,1.0
299.68359375,111.81640625,-48.33984375,-56.640625,81.0546875,-33.69140625,1.0
299.6875,103.02734375,-52.734375,-63.4765625,76.171875,-38.0859375,1.0
299.69140625,91.796875,-42.48046875,-56.640625,72.265625,-57.12890625,1.0
299.6953125,92.7734375,-45.8984375,-45.8984375,65.91796875,-50.78125,1.0
299.69921875,88.37890625,-36.1328125,-44.921875,62.5,28.3203125,1.0
299.703125,81.54296875,-22.94921875,-58.10546875,53.22265625,76.171875,1.0
299.70703125,76.66015625,-41.015625,-60.05859375,46.875,87.40234375,1.0
299.7109375,67.87109375,-60.05859375,-54.6875,47.8515625,105.95703125,1.0
299.71484375,58.59375,-46.38671875,-45.8984375,41.015625,16.6015625,1.0
299.71875,50.78125,-41.50390625,-37.59765625,28.80859375,13.18359375,1.0
299.72265625,46.875,-50.78125,-47.8515625,18.06640625,63.4765625,1.0
299.7265625,44.43359375,-58.59375,-54.19921875,16.11328125,20.5078125,1.0
299.73046875,41.015625,-60.05859375,-43.9453125,26.85546875,3.41796875,1.0
299.734375,38.0859375,-53.7109375,-35.64453125,29.78515625,-25.87890625,1.0
299.73828125,43.45703125,-58.10546875,-37.59765625,30.2734375,-4.8828125,1.0
299.7421875,37.109375,-62.5,-37.59765625,26.85546875,6.34765625,1.0
299.74609375,25.390625,-41.9921875,-30.76171875,25.390625,-46.875,1.0
299.75,24.90234375,-33.69140625,-24.90234375,32.2265625,-68.84765625,1.0
299.75390625,22.4609375,-41.9921875,-30.2734375,25.87890625,-44.43359375,1.0
299.7578125,18.5546875,-41.9921875,-27.34375,20.5078125,-131.8359375,1.0
299.76171875,14.16015625,-48.33984375,-27.83203125,13.671875,-218.75,1.0
299.765625,15.625,-56.640625,-25.390625,4.39453125,-124.0234375,1.0
299.76953125,9.765625,-40.52734375,-28.3203125,1.953125,-81.0546875,1.0
299.7734375,12.20703125,-42.48046875,-29.78515625,12.6953125,-99.12109375,1.0
299.77734375,20.5078125,-52.24609375,-22.4609375,20.99609375,-67.87109375,1.0
299.78125,19.04296875,-40.0390625,-27.34375,10.25390625,-21.484375,1.0
299.78515625,11.71875,-43.45703125,-30.76171875,0.48828125,2.9296875,1.0
299.7890625,8.30078125,-41.50390625,-48.828125,0.48828125,-22.94921875,1.0
299.79296875,8.7890625,-38.0859375,-42.48046875,5.37109375,-2.44140625,1.0
299.796875,4.39453125,-53.7109375,-20.5078125,2.9296875,73.73046875,1.0
299.80078125,-4.8828125,-56.15234375,-32.2265625,-3.41796875,-34.66796875,1.0
299.8046875,-8.30078125,-40.52734375,-40.0390625,-9.765625,-98.14453125,1.0
299.80859375,-4.8828125,-40.52734375,-41.50390625,-9.27734375,-126.953125,1.0
299.8125,2.44140625,-83.984375,-40.0390625,-1.46484375,-184.5703125,1.0
299.81640625,4.39453125,-57.12890625,-39.55078125,1.953125,-156.73828125,1.0
299.8203125,0.48828125,-11.23046875,-37.59765625,-5.859375,-128.90625,1.0
299.82421875,-7.8125,-27.34375,-41.50390625,-13.671875,-110.3515625,1.0
299.828125,-7.8125,-44.921875,-40.0390625,-14.6484375,-95.21484375,1.0
299.83203125,11.23046875,-47.36328125,-25.87890625,-9.27734375,-39.0625,1.0
299.8359375,18.5546875,-37.109375,-20.99609375,-4.8828125,-32.71484375,1.0
299.83984375,18.06640625,-32.2265625,-18.5546875,-7.8125,-65.4296875,1.0
299.84375,20.99609375,-29.78515625,-30.2734375,-17.578125,-32.71484375,1.0
299.84765625,7.32421875,-41.50390625,-40.0390625,-25.87890625,8.7890625,1.0
299.8515625,1.46484375,-43.9453125,-37.59765625,-16.6015625,56.640625,1.0
299.85546875,7.8125,-56.15234375,-26.3671875,-3.41796875,99.609375,1.0
299.859375,-6.34765625,-49.8046875,-21.97265625,-10.7421875,48.828125,1.0
299.86328125,-22.94921875,-28.80859375,-41.015625,-28.80859375,-109.86328125,1.0
299.8671875,-24.4140625,-45.8984375,-46.875,-29.78515625,-129.8828125,1.0
299.87109375,-27.34375,-50.29296875,-28.3203125,-21.484375,-105.95703125,1.0
299.875,-25.87890625,-45.41015625,-26.85546875,-22.94921875,-129.39453125,1.0
299.87890625,-11.23046875,-49.31640625,-31.25,-22.4609375,-30.2734375,1.0
299.8828125,-13.18359375,-41.015625,-40.0390625,-21.97265625,-1.46484375,1.0
299.88671875,-20.01953125,-47.36328125,-45.41015625,-23.92578125,-91.30859375,1.0
299.890625,-18.06640625,-52.734375,-35.64453125,-23.4375,-102.5390625,1.0
299.89453125,-19.04296875,-46.38671875,-32.2265625,-26.85546875,-77.1484375,1.0
299.8984375,-6.34765625,-41.9921875,-25.390625,-20.5078125,-116.69921875,1.0
299.90234375,-11.23046875,-41.015625,-24.90234375,-24.90234375,-86.42578125,1.0
299.90625,-18.06640625,-42.96875,-38.57421875,-35.64453125,-3.90625,1.0
299.91015625,-12.6953125,-49.31640625,-31.73828125,-35.64453125,-14.6484375,1.0
299.9140625,-14.16015625,-47.8515625,-22.4609375,-28.80859375,-1.46484375,1.0
299.91796875,-20.01953125,-42.48046875,-26.85546875,-27.83203125,17.08984375,1.0
299.921875,-26.85546875,-44.43359375,-31.73828125,-38.57421875,54.6875,1.0
299.92578125,-30.76171875,-43.9453125,-29.78515625,-38.57421875,115.234375,1.0
299.9296875,-34.66796875,-47.36328125,-34.1796875,-32.2265625,53.7109375,1.0
299.93359375,-36.62109375,-66.89453125,-39.0625,-23.92578125,-36.1328125,1.0
299.9375,-17.578125,-59.08203125,-46.875,-15.625,-67.3828125,1.0
299.94140625,-24.90234375,-27.34375,-40.0390625,-39.0625,8.30078125,1.0
299.9453125,-46.875,-46.38671875,-20.5078125,-58.10546875,63.4765625,1.0
299.94921875,-36.62109375,-48.33984375,-29.78515625,-56.15234375,36.62109375,1.0
299.953125,-43.45703125,-23.92578125,-41.9921875,-60.05859375,3.90625,1.0
299.95703125,-46.38671875,-20.01953125,-41.50390625,-55.17578125,-71.2890625,1.0
299.9609375,-38.57421875,-26.85546875,-34.1796875,-61.5234375,-54.6875,1.0
299.96484375,-32.2265625,-34.1796875,-43.9453125,-57.12890625,17.578125,1.0
299.96875,-38.0859375,-42.96875,-37.109375,-46.875,-7.8125,1.0
299.97265625,-44.43359375,-47.36328125,-24.90234375,-46.38671875,-13.671875,1.0
299.9765625,-35.64453125,-51.7578125,-30.2734375,-46.875,1.46484375,1.0
299.98046875,-37.59765625,-51.26953125,-38.57421875,-49.31640625,-75.68359375,1.0
299.984375,-46.875,-46.875,-35.64453125,-48.33984375,-97.16796875,1.0
299.98828125,-48.828125,-58.59375,-32.2265625,-44.43359375,-44.921875,1.0
299.9921875,-48.33984375,-54.6875,-35.15625,-41.015625,-43.9453125,1.0
299.99609375,-41.015625,-38.0859375,-33.69140625,-47.36328125,-28.80859375,1.0
300.0,-41.50390625,-36.62109375,-41.9921875,-47.36328125,7.8125,1.0
300.00390625,-37.59765625,-41.50390625,-47.8515625,-40.0390625,26.3671875,1.0
300.0078125,-34.1796875,-49.31640625,-43.45703125,-41.50390625,10.7421875,1.0
300.01171875,-39.55078125,-53.7109375,-40.52734375,-37.109375,-58.10546875,1.0
300.015625,-38.57421875,-48.828125,-37.109375,-32.71484375,-78.61328125,1.0
300.01953125,-37.59765625,-49.31640625,-40.52734375,-31.25,-22.94921875,1.0
300.0234375,-35.64453125,-52.24609375,-40.0390625,-26.85546875,16.11328125,1.0
300.02734375,-39.0625,-34.66796875,-25.87890625,-21.484375,-40.0390625,1.0
300.03125,-48.33984375,-27.34375,-26.3671875,-26.3671875,-50.29296875,1.0
300.03515625,-41.015625,-41.015625,-24.90234375,-24.4140625,-61.03515625,1.0
300.0390625,-31.73828125,-57.6171875,-21.97265625,-19.53125,-127.9296875,1.0
300.04296875,-32.2265625,-41.9921875,-29.78515625,-23.4375,-83.984375,1.0
300.046875,-34.66796875,-29.296875,-27.34375,-35.15625,-92.28515625,1.0
300.05078125,-36.1328125,-37.109375,-32.2265625,-37.109375,-92.28515625,1.0
300.0546875,-35.15625,-38.57421875,-34.66796875,-25.87890625,2.9296875,1.0
300.05859375,-25.87890625,-45.8984375,-30.2734375,-33.203125,-31.25,1.0
300.0625,-24.90234375,-50.78125,-34.1796875,-41.015625,-71.2890625,1.0
300.06640625,-29.78515625,-52.734375,-35.64453125,-38.57421875,-83.984375,1.0
300.0703125,-24.90234375,-49.8046875,-29.78515625,-37.59765625,-20.01953125,1.0
300.07421875,-24.90234375,-40.0390625,-39.0625,-30.76171875,44.921875,1.0
300.078125,-18.06640625,-46.875,-34.66796875,-29.78515625,-25.87890625,1.0
300.08203125,-18.5546875,-44.43359375,-14.6484375,-31.25,-63.4765625,1.0
300.0859375,-24.4140625,-30.76171875,-22.94921875,-36.62109375,-23.92578125,1.0
300.08984375,-24.90234375,-34.66796875,-31.25,-36.1328125,18.5546875,1.0
300.09375,-24.90234375,-39.55078125,-29.78515625,-29.296875,87.40234375,1.0
300.09765625,-25.87890625,-36.62109375,-31.25,-30.2734375,43.9453125,1.0
300.1015625,-29.78515625,-45.8984375,-41.50390625,-33.203125,-51.26953125,1.0
300.10546875,-32.71484375,-54.6875,-42.96875,-29.296875,-28.3203125,1.0
300.109375,-21.484375,-58.59375,-37.109375,-26.85546875,-28.80859375,1.0
300.11328125,-13.18359375,-54.19921875,-28.80859375,-24.90234375,-24.4140625,1.0
300.1171875,-2.9296875,-71.2890625,-29.296875,-25.390625,-16.6015625,1.0
300.12109375,-3.90625,-66.89453125,-30.2734375,-29.296875,4.8828125,1.0
300.125,-24.90234375,-16.6015625,-24.4140625,-30.2734375,-46.38671875,1.0
300.12890625,-35.64453125,-28.3203125,-33.203125,-32.2265625,-56.15234375,1.0
300.1328125,-37.109375,-44.43359375,-35.15625,-33.69140625,-65.91796875,1.0
300.13671875,-27.34375,-36.62109375,-29.296875,-31.25,-76.66015625,1.0
300.140625,-22.94921875,-44.921875,-28.3203125,-39.0625,-83.49609375,1.0
300.14453125,-35.64453125,-55.17578125,-30.2734375,-50.78125,-98.6328125,1.0
300.1484375,-37.59765625,-46.38671875,-32.71484375,-45.8984375,-77.1484375,1.0
300.15234375,-28.80859375,-47.36328125,-28.3203125,-36.62109375,-72.265625,1.0
300.15625,-23.92578125,-52.734375,-32.2265625,-26.3671875,-15.625,1.0
300.16015625,-28.3203125,-45.8984375,-36.1328125,-32.2265625,-20.99609375,1.0
300.1640625,-26.85546875,-40.0390625,-33.69140625,-39.55078125,-70.80078125,1.0
300.16796875,-24.90234375,-46.38671875,-35.15625,-31.25,-72.265625,1.0
300.171875,-22.4609375,-56.640625,-33.203125,-36.1328125,-3.90625,1.0
300.17578125,-13.18359375,-48.828125,-27.34375,-31.25,21.484375,1.0
300.1796875,2.44140625,-44.43359375,-27.83203125,-14.16015625,60.05859375,1.0
300.18359375,-7.8125,-39.55078125,-37.59765625,-29.78515625,148.92578125,1.0
300.1875,-41.50390625,-41.015625,-41.9921875,-52.24609375,63.96484375,1.0
300.19140625,-41.9921875,-41.9921875,-37.109375,-42.48046875,-23.92578125,1.0
300.1953125,-36.1328125,-40.52734375,-36.1328125,-44.43359375,-37.109375,1.0
300.19921875,-33.69140625,-48.828125,-33.69140625,-50.29296875,60.05859375,1.0
300.203125,-26.3671875,-69.3359375,-29.78515625,-54.19921875,47.36328125,1.0
300.20703125,-41.9921875,-40.52734375,-33.69140625,-55.17578125,-64.453125,1.0
300.2109375,-40.52734375,-14.6484375,-31.25,-37.109375,-51.26953125,1.0
300.21484375,-29.296875,-30.76171875,-22.4609375,-26.3671875,-26.3671875,1.0
300.21875,-37.109375,-35.15625,-28.3203125,-37.109375,-83.984375,1.0
