timestamp,TP9,AF7,AF8,TP10,AUX,Marker,
3.00390625,-55.17578125,-40.52734375,-31.25,-40.52734375,-13.18359375,0.0
3.0078125,-37.109375,-41.9921875,-37.59765625,-32.71484375,-9.765625,0.0
3.01171875,-29.296875,-39.0625,-41.50390625,-33.69140625,-18.5546875,0.0
3.015625,-31.73828125,-34.1796875,-44.921875,-34.1796875,7.8125,0.0
3.01953125,-22.94921875,-40.0390625,-40.0390625,-34.1796875,2.44140625,0.0
3.0234375,-31.25,-41.50390625,-33.203125,-35.15625,-68.359375,0.0
3.02734375,-61.5234375,-45.41015625,-36.62109375,-38.0859375,-69.3359375,0.0
3.03125,-57.6171875,-52.24609375,-44.921875,-54.19921875,-35.15625,0.0
3.03515625,-42.96875,-47.36328125,-46.38671875,-56.640625,4.39453125,0.0
3.0390625,-43.45703125,-42.96875,-40.52734375,-39.0625,0.9765625,0.0
3.04296875,-29.78515625,-35.15625,-35.15625,-18.5546875,-56.15234375,0.0
3.046875,-51.26953125,-31.73828125,-31.25,-29.78515625,-23.92578125,0.0
3.05078125,-59.08203125,-42.96875,-36.1328125,-39.0625,21.484375,0.0
3.0546875,-26.85546875,-43.45703125,-37.109375,-34.66796875,20.01953125,0.0
3.05859375,-20.5078125,-38.57421875,-28.3203125,-44.43359375,-25.390625,0.0
3.0625,-53.7109375,-40.0390625,-24.4140625,-59.08203125,47.8515625,0.0
3.06640625,-40.52734375,-40.0390625,-24.4140625,-50.78125,106.93359375,0.0
3.0703125,-31.73828125,-37.59765625,-23.92578125,-34.66796875,96.6796875,0.0
3.07421875,-24.4140625,-34.1796875,-26.85546875,-48.828125,57.6171875,0.0
3.078125,-22.4609375,-35.15625,-22.4609375,-55.17578125,59.08203125,0.0
3.08203125,-41.9921875,-42.96875,-21.97265625,-43.45703125,63.4765625,0.0
3.0859375,-30.76171875,-40.0390625,-22.94921875,-31.73828125,29.296875,0.0
3.08984375,-38.0859375,-32.2265625,-29.78515625,-27.83203125,7.8125,0.0
3.09375,-65.4296875,-33.203125,-36.1328125,-41.9921875,15.13671875,0.0
3.09765625,-44.921875,-34.66796875,-30.76171875,-36.62109375,-64.453125,0.0
3.1015625,-35.64453125,-37.109375,-31.25,-32.71484375,-164.55078125,0.0
3.10546875,-31.25,-41.50390625,-37.109375,-37.109375,-164.55078125,0.0
3.109375,-28.80859375,-41.50390625,-42.48046875,-36.62109375,-130.37109375,0.0
3.11328125,-73.2421875,-41.50390625,-41.9921875,-52.24609375,-101.5625,0.0
3.1171875,-71.2890625,-37.109375,-38.57421875,-42.96875,-72.265625,0.0
3.12109375,-19.04296875,-34.66796875,-39.55078125,-22.94921875,-80.56640625,0.0
3.125,-34.66796875,-38.0859375,-42.48046875,-46.875,-93.75,0.0
3.12890625,-70.80078125,-43.45703125,-43.9453125,-54.6875,-31.73828125,0.0
3.1328125,-87.890625,-53.22265625,-47.8515625,-51.7578125,-42.96875,0.0
3.13671875,-79.58984375,-54.6875,-48.33984375,-54.19921875,-80.56640625,0.0
3.140625,-39.55078125,-48.33984375,-42.48046875,-37.109375,-85.9375,0.0
3.14453125,-36.1328125,-35.15625,-48.33984375,-56.640625,-59.5703125,0.0
3.1484375,-30.2734375,-38.57421875,-54.6875,-66.40625,24.4140625,0.0
3.15234375,-30.76171875,-48.828125,-50.78125,-45.41015625,7.8125,0.0
3.15625,-36.1328125,-48.33984375,-50.29296875,-41.015625,-141.11328125,0.0
3.16015625,-30.2734375,-42.48046875,-45.41015625,-40.52734375,-140.13671875,0.0
3.1640625,-49.31640625,-36.1328125,-41.50390625,-51.7578125,26.85546875,0.0
3.16796875,-57.6171875,-41.015625,-42.48046875,-58.10546875,27.83203125,0.0
3.171875,-46.38671875,-44.921875,-41.50390625,-39.0625,10.25390625,0.0
3.17578125,-31.73828125,-40.0390625,-44.43359375,-38.0859375,-18.5546875,0.0
3.1796875,-7.32421875,-37.109375,-40.0390625,-27.34375,-63.96484375,0.0
3.18359375,2.44140625,-33.69140625,-32.71484375,-34.66796875,-77.1484375,0.0
3.1875,-8.30078125,-33.69140625,-35.64453125,-36.62109375,-17.578125,0.0
3.19140625,-24.4140625,-22.4609375,-44.43359375,-35.15625,129.8828125,0.0
3.1953125,-25.87890625,-22.94921875,-44.921875,-43.9453125,92.7734375,0.0
3.19921875,-8.30078125,-39.55078125,-34.1796875,-32.2265625,13.18359375,0.0
3.203125,-4.8828125,-35.64453125,-29.78515625,-33.69140625,40.52734375,0.0
3.20703125,-38.57421875,-34.1796875,-35.15625,-24.4140625,64.453125,0.0
3.2109375,-46.875,-40.0390625,-37.109375,-20.99609375,76.171875,0.0
3.21484375,-53.22265625,-43.9453125,-34.66796875,-27.83203125,64.94140625,0.0
3.21875,-51.26953125,-48.33984375,-32.2265625,-37.109375,-83.984375,0.0
3.22265625,-68.359375,-39.55078125,-34.66796875,-62.01171875,-100.5859375,0.0
3.2265625,-60.546875,-33.69140625,-37.109375,-55.17578125,-38.0859375,0.0
3.23046875,-16.11328125,-44.921875,-37.59765625,-41.015625,4.39453125,0.0
3.234375,-20.99609375,-45.41015625,-37.59765625,-33.69140625,3.90625,0.0
3.23828125,-35.15625,-38.57421875,-34.1796875,-16.6015625,-25.390625,0.0
3.2421875,-28.3203125,-38.0859375,-28.3203125,-16.11328125,11.23046875,0.0
3.24609375,-28.80859375,-36.1328125,-27.34375,-18.5546875,37.59765625,0.0
3.25,-20.01953125,-41.015625,-38.57421875,-47.8515625,102.05078125,0.0
3.25390625,-18.06640625,-43.9453125,-45.8984375,-41.015625,76.171875,0.0
3.2578125,-25.87890625,-36.1328125,-41.015625,-32.2265625,-23.92578125,0.0
3.26171875,-25.87890625,-43.45703125,-40.52734375,-36.1328125,-60.05859375,0.0
3.265625,-38.57421875,-50.78125,-43.9453125,-28.3203125,-65.4296875,0.0
3.26953125,-53.7109375,-49.31640625,-41.50390625,-40.0390625,-143.06640625,0.0
3.2734375,-60.05859375,-48.33984375,-39.0625,-30.2734375,-205.56640625,0.0
3.27734375,-40.0390625,-43.45703125,-41.015625,-26.85546875,-232.421875,0.0
3.28125,-21.97265625,-39.0625,-39.55078125,-36.1328125,-278.3203125,0.0
3.28515625,-36.62109375,-30.76171875,-41.50390625,-56.640625,-130.37109375,0.0
3.2890625,-35.15625,-33.203125,-53.22265625,-54.19921875,7.32421875,0.0
3.29296875,-28.80859375,-40.52734375,-52.734375,-35.64453125,-58.59375,0.0
3.296875,-20.99609375,-39.55078125,-47.8515625,-34.66796875,-30.76171875,0.0
3.30078125,-10.25390625,-33.69140625,-43.45703125,-27.34375,-5.37109375,0.0
3.3046875,-13.671875,-35.15625,-35.64453125,-18.06640625,-16.6015625,0.0
3.30859375,-28.80859375,-39.55078125,-41.015625,-32.2265625,41.9921875,0.0
3.3125,-44.43359375,-39.0625,-47.8515625,-25.87890625,44.921875,0.0
3.31640625,-33.203125,-43.9453125,-40.0390625,-11.23046875,31.25,0.0
3.3203125,-29.296875,-44.921875,-26.3671875,-15.625,30.76171875,0.0
3.32421875,-15.625,-37.59765625,-22.94921875,-24.4140625,31.25,0.0
3.328125,-15.625,-33.69140625,-25.390625,-17.08984375,-24.4140625,0.0
3.33203125,-27.34375,-27.83203125,-28.80859375,-7.32421875,-62.98828125,0.0
3.3359375,-25.87890625,-28.80859375,-29.78515625,-28.80859375,-41.50390625,0.0
3.33984375,-41.015625,-29.78515625,-20.99609375,-26.3671875,-27.83203125,0.0
3.34375,-34.66796875,-36.62109375,-16.6015625,-20.99609375,-46.38671875,0.0
3.34765625,-35.15625,-39.55078125,-27.83203125,-18.06640625,1.953125,0.0
3.3515625,-36.62109375,-36.62109375,-34.66796875,-11.71875,36.62109375,0.0
3.35546875,-3.90625,-37.109375,-36.1328125,-20.5078125,-38.0859375,0.0
3.359375,-7.32421875,-31.25,-29.296875,-22.94921875,-77.63671875,0.0
3.36328125,-31.25,-32.71484375,-21.97265625,-21.484375,-41.9921875,0.0
3.3671875,-28.80859375,-35.64453125,-29.78515625,-13.18359375,-63.96484375,0.0
3.37109375,-20.99609375,-33.69140625,-42.48046875,-11.23046875,-33.203125,0.0
3.375,-19.04296875,-31.73828125,-46.38671875,-20.99609375,33.69140625,0.0
3.37890625,-2.9296875,-26.85546875,-38.0859375,-41.015625,24.90234375,0.0
3.3828125,0.48828125,-27.34375,-26.85546875,-38.0859375,44.921875,0.0
3.38671875,-10.7421875,-26.85546875,-22.4609375,-19.53125,82.51953125,0.0
3.390625,-23.4375,-31.25,-28.3203125,-16.6015625,12.20703125,0.0
3.39453125,-24.4140625,-35.15625,-33.203125,-34.1796875,33.69140625,0.0
3.3984375,18.5546875,-18.06640625,-34.1796875,-45.41015625,50.29296875,0.0
3.40234375,11.71875,-19.53125,-31.73828125,-51.7578125,13.18359375,0.0
3.40625,-85.9375,-47.36328125,-28.3203125,-44.921875,-18.06640625,0.0
3.41015625,-91.796875,-52.24609375,-36.62109375,-39.55078125,-55.6640625,0.0
3.4140625,-11.23046875,-39.0625,-37.109375,-32.2265625,-83.984375,0.0
3.41796875,-10.25390625,-34.1796875,-20.99609375,-31.25,-71.2890625,0.0
3.421875,-79.58984375,-40.0390625,-15.625,-68.84765625,-4.39453125,0.0
3.42578125,-99.609375,-39.0625,-19.53125,-57.6171875,-80.56640625,0.0
3.4296875,-83.49609375,-39.0625,-20.5078125,-41.9921875,-65.4296875,0.0
3.43359375,-88.37890625,-43.9453125,-24.4140625,-75.1953125,73.2421875,0.0
3.4375,-81.54296875,-51.26953125,-17.578125,-66.89453125,104.4921875,0.0
3.44140625,-77.1484375,-55.17578125,-5.37109375,-67.3828125,89.84375,0.0
3.4453125,-78.61328125,-63.4765625,-12.20703125,-89.84375,70.3125,0.0
3.44921875,-77.1484375,-82.51953125,-19.04296875,-78.61328125,33.203125,0.0
3.453125,-105.95703125,-88.37890625,-19.04296875,-84.9609375,-92.7734375,0.0
3.45703125,-97.16796875,-81.54296875,-11.71875,-83.0078125,-75.1953125,0.0
3.4609375,-62.01171875,-77.63671875,-8.7890625,-74.21875,-11.71875,0.0
3.46484375,-61.03515625,-75.1953125,-8.30078125,-75.1953125,-24.4140625,0.0
3.46875,-74.21875,-78.61328125,-1.953125,-72.265625,-35.15625,0.0
3.47265625,-65.91796875,-78.61328125,-1.953125,-77.1484375,26.85546875,0.0
3.4765625,-79.1015625,-80.56640625,-1.46484375,-66.89453125,-13.18359375,0.0
3.48046875,-115.72265625,-74.70703125,-1.953125,-34.1796875,-59.5703125,0.0
3.484375,-126.953125,-72.75390625,-4.39453125,-55.17578125,11.71875,0.0
3.48828125,-99.12109375,-70.3125,-15.13671875,-68.84765625,6.8359375,0.0
3.4921875,-90.8203125,-65.4296875,-23.4375,-56.640625,-36.62109375,0.0
3.49609375,-79.58984375,-68.359375,-19.53125,-43.45703125,-3.41796875,0.0
3.5,-56.15234375,-67.87109375,-20.5078125,-39.55078125,-34.66796875,0.0
3.50390625,-37.59765625,-67.3828125,-22.4609375,-26.85546875,-34.66796875,0.0
3.5078125,-47.36328125,-61.03515625,-24.90234375,-12.6953125,-4.39453125,0.0
3.51171875,-63.4765625,-52.734375,-30.2734375,-17.08984375,-51.26953125,0.0
3.515625,-41.015625,-48.828125,-25.87890625,-19.04296875,-22.4609375,0.0
3.51953125,-27.34375,-46.38671875,-18.06640625,-8.30078125,67.87109375,0.0
3.5234375,-2.44140625,-42.96875,-20.01953125,-22.4609375,27.83203125,0.0
3.52734375,-23.92578125,-41.50390625,-16.6015625,-22.4609375,45.8984375,0.0
3.53125,-33.203125,-47.8515625,-22.94921875,-1.953125,134.765625,0.0
3.53515625,-0.9765625,-48.33984375,-30.2734375,-19.53125,50.78125,0.0
3.5390625,3.90625,-41.9921875,-26.3671875,-36.62109375,-32.2265625,0.0
3.54296875,-10.25390625,-38.57421875,-18.06640625,-19.53125,8.7890625,0.0
3.546875,-33.69140625,-43.9453125,-14.6484375,-4.39453125,55.6640625,0.0
3.55078125,-75.68359375,-53.22265625,-20.99609375,0.0,-1.46484375,0.0
3.5546875,-68.359375,-55.17578125,-14.16015625,-12.20703125,-27.83203125,0.0
3.55859375,-20.01953125,-44.43359375,-9.765625,-20.5078125,-20.5078125,0.0
3.5625,-11.71875,-42.48046875,-19.04296875,-17.578125,30.76171875,0.0
3.56640625,-11.23046875,-46.38671875,-23.92578125,-13.18359375,-38.57421875,0.0
3.5703125,-17.578125,-48.828125,-28.3203125,-9.27734375,-115.72265625,0.0
3.57421875,-17.578125,-43.9453125,-33.69140625,-17.578125,-64.453125,0.0
3.578125,7.8125,-36.62109375,-29.296875,-27.83203125,-15.625,0.0
3.58203125,7.32421875,-40.0390625,-17.08984375,-38.0859375,-37.59765625,0.0
3.5859375,-23.4375,-38.57421875,-10.25390625,-20.01953125,-60.546875,0.0
3.58984375,-64.94140625,-35.15625,-17.578125,-3.90625,16.11328125,0.0
3.59375,-80.078125,-40.0390625,-24.4140625,-17.08984375,47.36328125,0.0
3.59765625,-56.640625,-37.59765625,-18.06640625,-21.484375,-4.8828125,0.0
3.6015625,-35.64453125,-37.59765625,-8.7890625,-22.94921875,-30.76171875,0.0
3.60546875,-30.76171875,-40.0390625,-12.20703125,-14.16015625,-14.6484375,0.0
3.609375,-24.90234375,-30.76171875,-21.97265625,-10.25390625,-1.953125,0.0
3.61328125,-20.99609375,-32.2265625,-29.296875,-25.390625,78.125,0.0
3.6171875,-15.625,-37.109375,-23.4375,-25.87890625,16.11328125,0.0
3.62109375,-8.7890625,-30.2734375,-14.6484375,-22.4609375,26.85546875,0.0
3.625,-15.625,-28.80859375,-16.6015625,-13.671875,41.9921875,0.0
3.62890625,-22.4609375,-38.0859375,-22.4609375,-8.30078125,-14.16015625,0.0
3.6328125,-13.671875,-43.9453125,-23.92578125,-0.9765625,-5.859375,0.0
3.63671875,-15.625,-42.48046875,-21.97265625,-0.48828125,-58.10546875,0.0
3.640625,-31.25,-36.62109375,-23.4375,-40.52734375,-113.28125,0.0
3.64453125,-18.06640625,-20.01953125,-29.296875,-58.59375,-1.953125,0.0
3.6484375,17.08984375,-17.578125,-38.0859375,-31.73828125,90.8203125,0.0
3.65234375,-1.953125,-29.296875,-40.0390625,-29.78515625,3.90625,0.0
3.65625,-84.47265625,-29.296875,-38.0859375,-42.48046875,19.53125,0.0
3.66015625,-81.54296875,-32.71484375,-37.109375,-40.0390625,63.96484375,0.0
3.6640625,-33.69140625,-28.80859375,-32.71484375,-43.45703125,-18.06640625,0.0
3.66796875,-35.15625,-23.92578125,-38.57421875,-36.1328125,65.4296875,0.0
3.671875,-39.0625,-41.9921875,-45.8984375,-29.296875,116.2109375,0.0
3.67578125,-47.36328125,-53.22265625,-45.8984375,-33.203125,39.55078125,0.0
3.6796875,-40.0390625,-44.43359375,-42.96875,-23.4375,-9.765625,0.0
3.68359375,-44.43359375,-28.80859375,-36.62109375,-23.4375,-1.953125,0.0
3.6875,-40.52734375,-35.15625,-41.015625,-38.57421875,-2.44140625,0.0
3.69140625,-38.57421875,-43.9453125,-48.828125,-44.43359375,-10.7421875,0.0
3.6953125,-45.41015625,-36.62109375,-48.828125,-37.59765625,17.08984375,0.0
3.69921875,-16.11328125,-31.73828125,-36.1328125,-25.87890625,7.8125,0.0
3.703125,20.99609375,-22.4609375,-31.25,-17.08984375,24.4140625,0.0
3.70703125,-28.80859375,-26.85546875,-36.62109375,-26.3671875,-26.85546875,0.0
3.7109375,-65.91796875,-40.0390625,-41.015625,-42.48046875,-74.70703125,0.0
3.71484375,-32.71484375,-39.0625,-41.50390625,-46.875,-76.171875,0.0
3.71875,-7.8125,-36.62109375,-33.203125,-18.5546875,-83.0078125,0.0
3.72265625,-9.27734375,-33.69140625,-30.2734375,-12.6953125,-62.5,0.0
3.7265625,-25.390625,-31.25,-30.76171875,-26.3671875,-62.98828125,0.0
3.73046875,-31.73828125,-32.71484375,-31.73828125,-29.78515625,-86.42578125,0.0
3.734375,-10.7421875,-36.62109375,-32.2265625,-31.25,-85.9375,0.0
3.73828125,-24.90234375,-37.59765625,-24.4140625,-36.62109375,-58.10546875,0.0
3.7421875,-67.3828125,-42.48046875,-23.4375,-39.55078125,-18.5546875,0.0
3.74609375,-73.2421875,-45.41015625,-28.3203125,-34.1796875,-8.30078125,0.0
3.75,-61.03515625,-43.45703125,-30.2734375,-23.4375,34.66796875,0.0
3.75390625,-37.59765625,-40.0390625,-39.0625,-15.625,33.69140625,0.0
3.7578125,-3.90625,-33.69140625,-41.50390625,-24.90234375,-44.921875,0.0
3.76171875,-33.69140625,-28.3203125,-34.1796875,-37.109375,-24.4140625,0.0
3.765625,-42.96875,-34.66796875,-34.1796875,-41.015625,11.71875,0.0
3.76953125,-25.87890625,-38.0859375,-33.69140625,-40.52734375,-6.34765625,0.0
3.7734375,-42.96875,-41.015625,-32.2265625,-29.296875,-13.18359375,0.0
3.77734375,-37.109375,-39.0625,-26.85546875,-14.6484375,-9.765625,0.0
3.78125,-10.25390625,-36.1328125,-20.99609375,-13.18359375,-84.47265625,0.0
3.78515625,-3.41796875,-29.78515625,-19.04296875,-26.3671875,-53.22265625,0.0
3.7890625,-44.43359375,-26.3671875,-20.99609375,-30.2734375,-2.9296875,0.0
3.79296875,-46.38671875,-42.48046875,-21.97265625,-34.66796875,-96.6796875,0.0
3.796875,-16.11328125,-39.0625,-18.06640625,-30.2734375,-146.97265625,0.0
3.80078125,-15.625,-29.78515625,-14.16015625,-21.97265625,-72.265625,0.0
3.8046875,3.90625,-31.25,-14.6484375,-20.99609375,-25.87890625,0.0
3.80859375,-8.30078125,-34.66796875,-19.53125,-28.80859375,-63.96484375,0.0
3.8125,-48.33984375,-34.66796875,-32.71484375,-51.7578125,-42.96875,0.0
3.81640625,-29.296875,-28.3203125,-32.71484375,-54.6875,-24.4140625,0.0
3.8203125,-32.71484375,-30.2734375,-20.01953125,-49.31640625,-57.12890625,0.0
3.82421875,-72.265625,-27.83203125,-17.08984375,-54.6875,-39.55078125,0.0
3.828125,-54.6875,-25.87890625,-25.390625,-49.31640625,-30.2734375,0.0
3.83203125,-48.828125,-31.73828125,-27.34375,-43.45703125,10.7421875,0.0
3.8359375,-45.8984375,-36.62109375,-30.2734375,-43.45703125,7.32421875,0.0
3.83984375,-19.53125,-30.76171875,-28.3203125,-51.26953125,5.859375,0.0
3.84375,-24.90234375,-23.4375,-19.53125,-35.64453125,69.3359375,0.0
3.84765625,-49.31640625,-30.2734375,-27.34375,-12.20703125,78.125,0.0
3.8515625,-59.5703125,-42.48046875,-35.15625,-18.5546875,73.2421875,0.0
3.85546875,-43.9453125,-39.55078125,-28.80859375,-20.5078125,20.5078125,0.0
3.859375,-19.53125,-33.203125,-27.83203125,-20.99609375,-15.13671875,0.0
3.86328125,-14.6484375,-40.0390625,-28.3203125,-24.4140625,2.9296875,0.0
3.8671875,-21.97265625,-41.015625,-26.3671875,-26.3671875,-41.015625,0.0
3.87109375,-37.59765625,-41.50390625,-29.78515625,-35.15625,-88.8671875,0.0
3.875,-60.05859375,-40.0390625,-32.71484375,-45.41015625,1.46484375,0.0
3.87890625,-53.7109375,-35.64453125,-29.78515625,-32.2265625,20.5078125,0.0
3.8828125,-40.0390625,-34.1796875,-21.484375,-22.4609375,-83.49609375,0.0
3.88671875,-35.64453125,-29.296875,-28.80859375,-35.15625,-75.68359375,0.0
3.890625,-37.109375,-30.76171875,-41.015625,-47.36328125,-11.71875,0.0
3.89453125,-38.57421875,-43.9453125,-36.1328125,-26.85546875,-49.8046875,0.0
3.8984375,-16.6015625,-42.96875,-31.25,-4.8828125,-76.171875,0.0
3.90234375,-8.7890625,-31.73828125,-25.390625,-10.7421875,3.90625,0.0
3.90625,-23.4375,-36.1328125,-31.25,-24.4140625,14.16015625,0.0
3.91015625,-26.85546875,-36.1328125,-38.57421875,-20.99609375,-2.9296875,0.0
3.9140625,-46.38671875,-37.109375,-39.0625,-31.25,-33.69140625,0.0
3.91796875,-59.08203125,-39.55078125,-39.55078125,-35.15625,-91.30859375,0.0
3.921875,-26.85546875,-30.76171875,-31.73828125,-25.390625,-52.24609375,0.0
3.92578125,4.39453125,-30.2734375,-30.2734375,-32.2265625,-23.92578125,0.0
3.9296875,-14.6484375,-35.64453125,-35.15625,-54.19921875,35.64453125,0.0
3.93359375,-51.26953125,-41.50390625,-38.57421875,-61.03515625,13.671875,0.0
3.9375,-56.15234375,-41.50390625,-37.59765625,-43.9453125,-63.4765625,0.0
3.94140625,-36.1328125,-34.1796875,-30.2734375,-31.25,-50.29296875,0.0
3.9453125,-41.9921875,-34.66796875,-30.2734375,-34.66796875,30.76171875,0.0
3.94921875,-55.17578125,-41.015625,-35.64453125,-46.875,64.453125,0.0
3.953125,-51.7578125,-43.45703125,-35.15625,-51.7578125,31.73828125,0.0
3.95703125,-39.55078125,-40.0390625,-25.390625,-34.66796875,-28.80859375,0.0
3.9609375,-48.828125,-36.62109375,-20.5078125,-20.99609375,-25.390625,0.0
3.96484375,-56.15234375,-41.50390625,-21.484375,-26.85546875,24.90234375,0.0
3.96875,-48.33984375,-41.50390625,-23.4375,-31.73828125,51.26953125,0.0
3.97265625,-32.71484375,-35.64453125,-32.2265625,-44.921875,-41.50390625,0.0
3.9765625,-25.87890625,-37.59765625,-35.64453125,-56.640625,-84.47265625,0.0
3.98046875,-22.94921875,-25.87890625,-33.203125,-56.15234375,-34.1796875,0.0
3.984375,-44.921875,-18.06640625,-28.80859375,-41.015625,58.59375,0.0
3.98828125,-62.5,-30.76171875,-31.73828125,-21.484375,79.58984375,0.0
3.9921875,-51.26953125,-36.62109375,-41.015625,-27.34375,2.44140625,0.0
3.99609375,-32.2265625,-30.76171875,-38.0859375,-43.45703125,-65.4296875,0.0
4.0,-39.0625,-23.92578125,-26.85546875,-47.8515625,38.57421875,0.0
4.00390625,-42.96875,-26.85546875,-23.4375,-43.45703125,108.88671875,0.0
4.0078125,-23.4375,-30.2734375,-29.78515625,-40.0390625,77.63671875,0.0
4.01171875,-42.96875,-31.25,-39.0625,-49.31640625,82.51953125,0.0
4.015625,-43.9453125,-39.55078125,-35.64453125,-41.9921875,22.4609375,0.0
4.01953125,-34.1796875,-42.48046875,-24.90234375,-38.0859375,13.18359375,0.0
4.0234375,-56.15234375,-37.59765625,-26.3671875,-56.640625,5.37109375,0.0
4.02734375,-53.7109375,-26.85546875,-33.203125,-48.828125,-14.6484375,0.0
4.03125,-43.45703125,-28.80859375,-39.0625,-42.48046875,-20.01953125,0.0
4.03515625,-24.4140625,-39.0625,-43.45703125,-60.05859375,-86.9140625,0.0
4.0390625,-20.01953125,-38.57421875,-41.015625,-66.89453125,-69.82421875,0.0
4.04296875,-54.6875,-34.66796875,-33.203125,-50.29296875,-41.50390625,0.0
4.046875,-48.828125,-41.50390625,-33.69140625,-40.0390625,-56.640625,0.0
4.05078125,-51.26953125,-40.52734375,-46.38671875,-42.96875,-73.73046875,0.0
4.0546875,-57.6171875,-37.109375,-44.921875,-36.62109375,-83.49609375,0.0
4.05859375,-35.15625,-34.1796875,-27.83203125,-32.71484375,-17.578125,0.0
4.0625,-32.2265625,-31.25,-21.97265625,-36.1328125,36.62109375,0.0
4.06640625,-24.90234375,-35.15625,-28.80859375,-41.9921875,-14.16015625,0.0
4.0703125,-17.08984375,-39.55078125,-30.76171875,-41.50390625,-25.87890625,0.0
4.07421875,-38.57421875,-39.0625,-28.80859375,-28.3203125,-72.75390625,0.0
4.078125,-38.57421875,-26.3671875,-30.2734375,-25.390625,-99.609375,0.0
4.08203125,-26.3671875,-27.83203125,-27.83203125,-28.3203125,-16.11328125,0.0
4.0859375,-20.01953125,-30.2734375,-18.5546875,-33.69140625,-4.39453125,0.0
4.08984375,-45.41015625,-20.5078125,-20.01953125,-34.66796875,44.921875,0.0
4.09375,-30.76171875,-30.76171875,-28.80859375,-37.109375,103.02734375,0.0
4.09765625,-15.13671875,-35.15625,-27.83203125,-45.8984375,40.52734375,0.0
4.1015625,-21.97265625,-25.390625,-23.4375,-35.64453125,-14.6484375,0.0
4.10546875,-27.83203125,-20.01953125,-24.4140625,-25.87890625,17.08984375,0.0
4.109375,-43.45703125,-25.390625,-33.203125,-24.4140625,14.16015625,0.0
4.11328125,-46.38671875,-26.85546875,-35.64453125,-22.94921875,25.390625,0.0
4.1171875,-54.19921875,-26.85546875,-32.2265625,-28.3203125,52.734375,0.0
4.12109375,-33.69140625,-23.4375,-23.92578125,-25.390625,10.7421875,0.0
4.125,-2.9296875,-22.94921875,-21.484375,-20.5078125,22.4609375,0.0
4.12890625,-17.08984375,-32.2265625,-34.66796875,-39.55078125,27.83203125,0.0
4.1328125,-47.8515625,-32.2265625,-44.43359375,-52.734375,-55.17578125,0.0
4.13671875,-64.453125,-32.2265625,-42.96875,-53.22265625,-74.70703125,0.0
4.140625,-49.8046875,-29.78515625,-31.25,-37.59765625,22.4609375,0.0
4.14453125,-10.7421875,-30.2734375,-26.3671875,-32.2265625,-23.4375,0.0
4.1484375,-22.94921875,-39.55078125,-26.85546875,-42.48046875,-195.3125,0.0
4.15234375,-40.0390625,-34.1796875,-32.71484375,-43.9453125,-162.59765625,0.0
4.15625,-54.6875,-36.1328125,-27.83203125,-44.43359375,-150.87890625,0.0
4.16015625,-46.38671875,-33.69140625,-20.5078125,-30.2734375,-109.86328125,0.0
4.1640625,-0.48828125,-25.87890625,-25.390625,-12.20703125,-80.56640625,0.0
4.16796875,-10.25390625,-21.484375,-22.94921875,-33.203125,-114.2578125,0.0
4.171875,-58.59375,-22.4609375,-34.1796875,-67.87109375,-103.515625,0.0
4.17578125,-55.17578125,-27.83203125,-41.015625,-66.40625,-131.8359375,0.0
4.1796875,-29.78515625,-21.97265625,-27.83203125,-66.40625,-157.2265625,0.0
4.18359375,-45.41015625,-13.671875,-21.97265625,-68.84765625,-98.14453125,0.0
4.1875,-85.44921875,-23.4375,-23.92578125,-62.01171875,-89.84375,0.0
4.19140625,-77.1484375,-40.0390625,-19.04296875,-61.03515625,-89.84375,0.0
4.1953125,-70.3125,-38.57421875,-26.85546875,-55.6640625,-122.55859375,0.0
4.19921875,-66.89453125,-27.83203125,-26.85546875,-57.6171875,-161.62109375,0.0
4.203125,-42.96875,-28.80859375,-20.5078125,-69.3359375,-141.11328125,0.0
4.20703125,-38.0859375,-26.3671875,-20.5078125,-62.98828125,-162.59765625,0.0
4.2109375,-49.8046875,-32.2265625,-23.4375,-53.22265625,-180.17578125,0.0
4.21484375,-38.0859375,-35.15625,-25.87890625,-52.24609375,-160.15625,0.0
4.21875,-28.3203125,-26.85546875,-24.4140625,-54.19921875,-83.984375,0.0
4.22265625,-24.4140625,-24.90234375,-24.90234375,-41.50390625,59.5703125,0.0
4.2265625,-9.765625,-29.296875,-28.80859375,-35.15625,92.7734375,0.0
4.23046875,-24.90234375,-33.69140625,-31.73828125,-24.90234375,100.5859375,0.0
4.234375,-35.64453125,-38.0859375,-35.15625,-33.69140625,11.23046875,0.0
4.23828125,-31.25,-40.0390625,-25.87890625,-36.62109375,-31.25,0.0
4.2421875,-54.19921875,-35.64453125,-19.53125,-20.01953125,8.30078125,0.0
4.24609375,-76.66015625,-34.1796875,-22.94921875,-37.109375,40.0390625,0.0
4.25,-71.77734375,-41.015625,-32.2265625,-61.5234375,95.703125,0.0
4.25390625,-58.10546875,-36.1328125,-39.0625,-53.22265625,20.5078125,0.0
4.2578125,-63.96484375,-40.52734375,-31.73828125,-40.0390625,-99.609375,0.0
4.26171875,-63.4765625,-44.43359375,-24.4140625,-37.109375,-129.8828125,0.0
4.265625,-21.484375,-36.1328125,-26.3671875,-35.64453125,-97.16796875,0.0
4.26953125,-14.16015625,-31.73828125,-30.76171875,-59.5703125,-31.73828125,0.0
4.2734375,-17.08984375,-30.2734375,-32.2265625,-75.68359375,7.8125,0.0
4.27734375,-8.7890625,-34.66796875,-27.34375,-53.22265625,53.22265625,0.0
4.28125,-21.97265625,-39.0625,-18.5546875,-22.4609375,129.39453125,0.0
4.28515625,-26.3671875,-34.66796875,-14.16015625,-5.859375,223.14453125,0.0
4.2890625,-18.5546875,-35.64453125,-17.578125,-14.6484375,183.59375,0.0
4.29296875,-17.08984375,-47.8515625,-31.25,-39.55078125,54.19921875,0.0
4.296875,-43.9453125,-48.33984375,-33.69140625,-43.9453125,-20.99609375,0.0
4.30078125,-62.5,-36.62109375,-26.85546875,-46.875,-12.20703125,0.0
4.3046875,-39.0625,-36.62109375,-26.85546875,-47.8515625,103.02734375,0.0
4.30859375,-35.64453125,-35.15625,-23.92578125,-38.57421875,142.08984375,0.0
4.3125,-64.453125,-38.0859375,-22.94921875,-43.45703125,35.15625,0.0
4.31640625,-55.17578125,-38.0859375,-23.4375,-39.55078125,3.41796875,0.0
4.3203125,-44.43359375,-27.83203125,-20.99609375,-41.9921875,-35.64453125,0.0
4.32421875,-41.50390625,-26.3671875,-17.578125,-44.43359375,-104.98046875,0.0
4.328125,-43.45703125,-32.2265625,-21.484375,-30.76171875,-55.17578125,0.0
4.33203125,-29.78515625,-33.69140625,-26.85546875,-24.90234375,-32.2265625,0.0
4.3359375,-12.6953125,-32.71484375,-24.90234375,-26.3671875,-36.62109375,0.0
4.33984375,-4.39453125,-34.1796875,-21.484375,-29.296875,-1.953125,0.0
4.34375,4.39453125,-36.1328125,-18.5546875,-9.765625,48.828125,0.0
4.34765625,17.08984375,-31.73828125,-25.87890625,-18.06640625,74.70703125,0.0
4.3515625,-6.8359375,-24.90234375,-31.73828125,-38.0859375,8.7890625,0.0
4.35546875,-66.40625,-30.2734375,-26.85546875,-22.94921875,29.296875,0.0
4.359375,-58.10546875,-38.57421875,-20.99609375,-29.296875,83.0078125,0.0
4.36328125,-61.5234375,-38.57421875,-17.578125,-48.828125,-5.37109375,0.0
4.3671875,-79.1015625,-40.0390625,-14.16015625,-23.92578125,-71.77734375,0.0
4.37109375,-52.24609375,-37.109375,-20.99609375,-17.08984375,-5.859375,0.0
4.375,-40.0390625,-31.25,-27.34375,-27.83203125,-1.46484375,0.0
4.37890625,-41.9921875,-38.0859375,-27.83203125,-35.64453125,-81.0546875,0.0
4.3828125,-22.4609375,-32.71484375,-24.4140625,-27.34375,-47.8515625,0.0
4.38671875,6.8359375,-27.83203125,-18.5546875,-17.08984375,6.34765625,0.0
4.390625,18.5546875,-31.25,-25.87890625,-32.71484375,53.7109375,0.0
4.39453125,-22.94921875,-40.0390625,-35.15625,-53.22265625,-37.59765625,0.0
4.3984375,-75.1953125,-46.38671875,-30.2734375,-56.15234375,-64.94140625,0.0
4.40234375,-83.0078125,-41.9921875,-23.4375,-34.1796875,10.25390625,0.0
4.40625,-61.5234375,-43.45703125,-19.53125,-16.6015625,-14.6484375,0.0
4.41015625,-55.17578125,-46.875,-29.78515625,-30.76171875,-6.8359375,0.0
4.4140625,-47.36328125,-44.43359375,-40.52734375,-53.22265625,-64.453125,0.0
4.41796875,-41.015625,-36.1328125,-37.59765625,-52.24609375,-125.9765625,0.0
4.421875,-46.38671875,-36.62109375,-29.296875,-41.015625,-94.7265625,0.0
4.42578125,-44.921875,-36.62109375,-34.1796875,-43.9453125,-12.20703125,0.0
4.4296875,-41.9921875,-32.2265625,-38.57421875,-33.203125,28.80859375,0.0
4.43359375,-51.7578125,-43.9453125,-36.1328125,-27.83203125,-18.5546875,0.0
4.4375,-33.203125,-45.41015625,-35.15625,-33.203125,-75.1953125,0.0
4.44140625,-17.08984375,-36.1328125,-26.3671875,-6.34765625,-4.39453125,0.0
4.4453125,-14.16015625,-24.4140625,-27.83203125,0.48828125,56.640625,0.0
4.44921875,-13.18359375,-28.80859375,-36.1328125,-19.53125,35.64453125,0.0
4.453125,-21.97265625,-43.9453125,-36.1328125,-35.15625,3.90625,0.0
4.45703125,-20.99609375,-42.96875,-33.203125,-43.9453125,32.2265625,0.0
4.4609375,4.8828125,-39.0625,-23.4375,-39.0625,22.94921875,0.0
4.46484375,2.44140625,-37.59765625,-20.5078125,-30.76171875,-54.6875,0.0
4.46875,-40.52734375,-38.0859375,-28.3203125,-48.33984375,-111.328125,0.0
4.47265625,-67.87109375,-45.41015625,-28.80859375,-45.8984375,-85.44921875,0.0
4.4765625,-63.96484375,-49.31640625,-28.80859375,-39.0625,51.7578125,0.0
4.48046875,-59.5703125,-43.45703125,-23.4375,-50.29296875,128.41796875,0.0
4.484375,-50.78125,-46.38671875,-20.01953125,-42.48046875,137.6953125,0.0
4.48828125,-45.41015625,-47.8515625,-28.3203125,-37.109375,95.703125,0.0
4.4921875,-46.38671875,-46.38671875,-34.1796875,-28.3203125,48.828125,0.0
4.49609375,-40.0390625,-42.48046875,-38.0859375,-25.87890625,42.96875,0.0
4.5,-32.71484375,-35.64453125,-34.1796875,-26.3671875,66.89453125,0.0
4.50390625,-44.43359375,-40.52734375,-28.3203125,-23.92578125,60.546875,0.0
4.5078125,-32.2265625,-51.7578125,-30.76171875,-41.015625,-53.22265625,0.0
4.51171875,-8.7890625,-49.8046875,-35.15625,-54.19921875,-74.21875,0.0
4.515625,-2.9296875,-46.875,-36.62109375,-33.69140625,-62.98828125,0.0
4.51953125,-25.390625,-45.8984375,-35.64453125,-20.99609375,-59.08203125,0.0
4.5234375,-37.59765625,-41.015625,-39.55078125,-33.203125,-43.9453125,0.0
4.52734375,-32.71484375,-37.109375,-39.0625,-27.83203125,-2.9296875,0.0
4.53125,-33.203125,-37.59765625,-45.41015625,-23.92578125,-1.953125,0.0
4.53515625,-37.109375,-44.43359375,-45.8984375,-25.390625,-67.3828125,0.0
4.5390625,-29.78515625,-49.8046875,-36.62109375,-24.90234375,-40.0390625,0.0
4.54296875,-41.015625,-42.48046875,-36.1328125,-24.4140625,13.18359375,0.0
4.546875,-46.38671875,-37.109375,-37.109375,-27.34375,22.4609375,0.0
4.55078125,-43.45703125,-41.50390625,-41.9921875,-30.2734375,9.765625,0.0
4.5546875,-44.43359375,-41.9921875,-47.8515625,-35.64453125,23.4375,0.0
4.55859375,-31.73828125,-42.48046875,-41.9921875,-44.921875,75.1953125,0.0
4.5625,-15.13671875,-38.57421875,-41.50390625,-42.96875,79.58984375,0.0
4.56640625,-8.30078125,-36.1328125,-37.59765625,-34.66796875,75.1953125,0.0
4.5703125,4.39453125,-43.45703125,-24.4140625,-22.94921875,55.17578125,0.0
4.57421875,-6.8359375,-43.45703125,-29.78515625,-16.11328125,16.6015625,0.0
4.578125,-47.36328125,-43.45703125,-25.390625,-23.4375,29.296875,0.0
4.58203125,-57.6171875,-38.57421875,-12.20703125,-20.01953125,48.33984375,0.0
4.5859375,-51.26953125,-33.69140625,-24.4140625,-18.06640625,9.765625,0.0
4.58984375,-45.41015625,-41.50390625,-31.25,-30.2734375,-72.75390625,0.0
4.59375,-34.66796875,-38.57421875,-32.2265625,-30.2734375,-85.9375,0.0
4.59765625,-30.2734375,-34.66796875,-34.66796875,-25.87890625,-44.921875,0.0
4.6015625,-32.71484375,-34.1796875,-35.15625,-30.2734375,-39.55078125,0.0
4.60546875,-25.87890625,-31.73828125,-36.1328125,-30.2734375,31.73828125,0.0
4.609375,-24.4140625,-34.66796875,-38.0859375,-39.0625,28.80859375,0.0
4.61328125,-32.71484375,-34.1796875,-37.109375,-41.50390625,-40.0390625,0.0
4.6171875,-35.64453125,-26.85546875,-37.109375,-20.01953125,-121.09375,0.0
4.62109375,-35.15625,-29.78515625,-31.73828125,-22.94921875,-121.58203125,0.0
4.625,-22.4609375,-34.66796875,-31.73828125,-43.9453125,-108.88671875,0.0
4.62890625,-9.27734375,-32.71484375,-40.0390625,-38.57421875,-131.8359375,0.0
4.6328125,-32.2265625,-32.71484375,-49.8046875,-39.0625,-53.7109375,0.0
4.63671875,-55.6640625,-36.1328125,-55.17578125,-48.33984375,24.4140625,0.0
4.640625,-45.8984375,-33.69140625,-44.43359375,-46.38671875,56.15234375,0.0
4.64453125,-40.0390625,-28.3203125,-35.15625,-44.921875,13.671875,0.0
4.6484375,-35.15625,-27.34375,-44.921875,-35.64453125,-59.08203125,0.0
4.65234375,-35.64453125,-27.34375,-52.24609375,-43.9453125,-101.07421875,0.0
4.65625,-59.5703125,-27.83203125,-47.36328125,-67.87109375,-128.41796875,0.0
4.66015625,-62.98828125,-21.97265625,-39.55078125,-57.12890625,-44.43359375,0.0
4.6640625,-38.0859375,-24.4140625,-34.1796875,-38.57421875,31.73828125,0.0
4.66796875,-35.15625,-29.296875,-40.0390625,-33.203125,-17.578125,0.0
4.671875,-46.38671875,-33.203125,-47.36328125,-42.48046875,-48.33984375,0.0
4.67578125,-31.25,-37.109375,-51.7578125,-41.50390625,-84.47265625,0.0
4.6796875,-46.38671875,-36.62109375,-52.24609375,-34.66796875,-105.95703125,0.0
4.68359375,-51.7578125,-33.203125,-52.24609375,-39.0625,-42.96875,0.0
4.6875,-37.109375,-34.66796875,-59.5703125,-38.0859375,-17.578125,0.0
4.69140625,-33.69140625,-41.50390625,-65.91796875,-24.4140625,-10.25390625,0.0
4.6953125,-38.57421875,-41.015625,-65.91796875,-21.97265625,-66.40625,0.0
4.69921875,-47.8515625,-34.66796875,-60.546875,-43.45703125,-68.359375,0.0
4.703125,-30.76171875,-32.71484375,-51.7578125,-55.6640625,24.90234375,0.0
4.70703125,-25.87890625,-29.78515625,-51.7578125,-48.33984375,13.671875,0.0
4.7109375,-41.015625,-31.73828125,-53.22265625,-46.38671875,-60.546875,0.0
4.71484375,-50.78125,-31.25,-54.19921875,-38.0859375,-51.26953125,0.0
4.71875,-29.78515625,-31.25,-49.8046875,-13.671875,6.8359375,0.0
4.72265625,10.25390625,-27.83203125,-32.2265625,-8.7890625,62.01171875,0.0
4.7265625,-27.83203125,-28.3203125,-31.25,-51.26953125,92.7734375,0.0
4.73046875,-71.77734375,-32.71484375,-42.96875,-62.01171875,7.32421875,0.0
4.734375,-63.4765625,-41.015625,-45.8984375,-48.33984375,-123.046875,0.0
4.73828125,-61.5234375,-44.921875,-41.015625,-49.31640625,-163.0859375,0.0
4.7421875,-64.453125,-35.15625,-36.1328125,-49.31640625,-92.7734375,0.0
4.74609375,-61.03515625,-29.78515625,-42.48046875,-51.7578125,-69.82421875,0.0
4.75,-72.265625,-37.109375,-55.17578125,-50.29296875,-150.390625,0.0
4.75390625,-68.359375,-39.0625,-64.453125,-53.22265625,-197.265625,0.0
4.7578125,-52.734375,-33.203125,-61.5234375,-66.40625,-181.15234375,0.0
4.76171875,-61.5234375,-30.2734375,-54.19921875,-71.77734375,-42.48046875,0.0
4.765625,-62.5,-27.83203125,-61.03515625,-63.96484375,69.82421875,0.0
4.76953125,-49.31640625,-30.76171875,-71.2890625,-58.59375,76.171875,0.0
4.7734375,-37.59765625,-27.34375,-78.125,-50.78125,6.8359375,0.0
4.77734375,-21.97265625,-25.390625,-74.21875,-41.015625,-55.6640625,0.0
4.78125,-26.85546875,-33.203125,-59.08203125,-41.50390625,-42.96875,0.0
4.78515625,-51.26953125,-42.96875,-59.5703125,-34.1796875,-5.859375,0.0
4.7890625,-46.38671875,-49.31640625,-63.96484375,-32.71484375,87.40234375,0.0
4.79296875,-29.78515625,-46.875,-59.5703125,-45.8984375,127.9296875,0.0
4.796875,-34.66796875,-41.015625,-60.05859375,-47.36328125,100.09765625,0.0
4.80078125,-38.57421875,-27.34375,-57.12890625,-50.29296875,113.76953125,0.0
4.8046875,-25.390625,-28.80859375,-56.15234375,-47.8515625,106.4453125,0.0
4.80859375,-22.4609375,-41.015625,-62.5,-41.015625,26.85546875,0.0
4.8125,-47.36328125,-49.31640625,-68.359375,-38.0859375,-72.75390625,0.0
4.81640625,-50.78125,-45.8984375,-66.89453125,-41.015625,-64.453125,0.0
4.8203125,-30.76171875,-36.1328125,-65.4296875,-45.41015625,11.23046875,0.0
4.82421875,-23.4375,-37.109375,-59.08203125,-24.90234375,54.19921875,0.0
4.828125,-32.71484375,-45.41015625,-51.7578125,-25.390625,40.0390625,0.0
4.83203125,-56.15234375,-42.96875,-60.05859375,-54.19921875,85.44921875,0.0
4.8359375,-61.5234375,-38.0859375,-61.5234375,-67.87109375,100.5859375,0.0
4.83984375,-26.3671875,-33.69140625,-52.734375,-52.24609375,39.0625,0.0
4.84375,-42.48046875,-30.2734375,-51.26953125,-38.57421875,37.59765625,0.0
4.84765625,-57.6171875,-33.69140625,-50.78125,-27.83203125,64.94140625,0.0
4.8515625,-49.8046875,-35.64453125,-52.24609375,-26.3671875,78.61328125,0.0
4.85546875,-36.1328125,-36.62109375,-53.22265625,-29.78515625,44.43359375,0.0
4.859375,-30.76171875,-44.43359375,-44.921875,-52.24609375,3.90625,0.0
4.86328125,-20.5078125,-40.52734375,-38.0859375,-61.5234375,9.27734375,0.0
4.8671875,-13.18359375,-27.83203125,-45.41015625,-41.015625,-16.6015625,0.0
4.87109375,-38.0859375,-35.15625,-48.828125,-41.015625,-36.62109375,0.0
4.875,-28.80859375,-41.015625,-47.8515625,-39.55078125,-36.62109375,0.0
4.87890625,-17.578125,-29.78515625,-44.43359375,-21.484375,-51.7578125,0.0
4.8828125,-30.76171875,-25.390625,-44.43359375,-20.5078125,-29.296875,0.0
4.88671875,-28.80859375,-23.92578125,-55.17578125,-57.6171875,-13.671875,0.0
4.890625,-54.19921875,-32.2265625,-55.17578125,-76.171875,-52.24609375,0.0
4.89453125,-57.12890625,-44.43359375,-49.31640625,-67.3828125,-19.53125,0.0
4.8984375,-48.828125,-33.203125,-47.8515625,-47.8515625,-13.18359375,0.0
4.90234375,-44.921875,-26.85546875,-46.38671875,-37.109375,6.34765625,0.0
4.90625,-34.1796875,-35.15625,-42.96875,-17.08984375,60.546875,0.0
4.91015625,-26.3671875,-36.1328125,-45.8984375,-27.83203125,67.87109375,0.0
4.9140625,-12.20703125,-36.1328125,-51.26953125,-48.828125,45.8984375,0.0
4.91796875,-37.59765625,-33.69140625,-51.7578125,-39.55078125,-106.4453125,0.0
4.921875,-37.59765625,-32.71484375,-44.43359375,-37.59765625,-105.95703125,0.0
4.92578125,-5.37109375,-37.59765625,-42.96875,-29.296875,15.625,0.0
4.9296875,-24.4140625,-35.64453125,-48.33984375,-7.32421875,-24.90234375,0.0
4.93359375,-48.33984375,-41.50390625,-55.17578125,-29.296875,-20.5078125,0.0
4.9375,-38.57421875,-58.10546875,-57.12890625,-48.828125,7.8125,0.0
4.94140625,-14.6484375,-53.7109375,-46.38671875,-30.2734375,-22.94921875,0.0
4.9453125,-26.3671875,-45.41015625,-39.0625,-20.99609375,-50.29296875,0.0
4.94921875,-39.55078125,-50.29296875,-41.9921875,-15.13671875,20.99609375,0.0
4.953125,-31.73828125,-57.12890625,-42.48046875,-11.71875,76.171875,0.0
4.95703125,-13.671875,-53.22265625,-40.52734375,-24.90234375,70.80078125,0.0
4.9609375,-22.4609375,-51.7578125,-27.83203125,-47.36328125,73.2421875,0.0
4.96484375,-49.8046875,-57.12890625,-21.97265625,-67.87109375,90.33203125,0.0
4.96875,-82.03125,-58.10546875,-30.2734375,-68.84765625,94.7265625,0.0
4.97265625,-89.84375,-62.5,-33.69140625,-53.22265625,26.85546875,0.0
4.9765625,-63.4765625,-61.03515625,-38.0859375,-43.9453125,-25.390625,0.0
4.98046875,-39.0625,-54.6875,-29.78515625,-34.1796875,-20.5078125,0.0
4.984375,-16.11328125,-49.8046875,-20.5078125,-32.2265625,18.06640625,0.0
4.98828125,-14.6484375,-44.43359375,-27.83203125,-46.875,46.38671875,0.0
4.9921875,-18.06640625,-48.33984375,-33.69140625,-52.734375,-51.26953125,0.0
4.99609375,-42.48046875,-54.19921875,-36.62109375,-24.4140625,-110.83984375,0.0
5.0,-71.77734375,-49.8046875,-40.0390625,-16.11328125,-33.203125,0.0
5.00390625,-89.35546875,-50.29296875,-43.45703125,-33.203125,44.921875,0.0
5.0078125,-55.6640625,-55.6640625,-50.29296875,-38.57421875,-10.25390625,0.0
5.01171875,-28.80859375,-57.12890625,-56.640625,-36.62109375,-78.61328125,0.0
5.015625,-36.1328125,-54.19921875,-55.17578125,-32.2265625,-40.0390625,0.0
5.01953125,-24.90234375,-42.96875,-41.9921875,-24.90234375,-0.9765625,0.0
5.0234375,-16.6015625,-35.64453125,-37.59765625,-22.4609375,-9.27734375,0.0
5.02734375,-30.2734375,-51.7578125,-37.109375,-36.1328125,-49.31640625,0.0
5.03125,-46.38671875,-55.6640625,-35.15625,-42.48046875,-51.26953125,0.0
5.03515625,-59.5703125,-50.29296875,-37.109375,-20.99609375,-84.47265625,0.0
5.0390625,-81.0546875,-44.921875,-36.1328125,-17.08984375,-145.01953125,0.0
5.04296875,-62.5,-33.69140625,-34.1796875,-26.3671875,-64.453125,0.0
5.046875,-29.296875,-38.57421875,-39.0625,-28.80859375,41.015625,0.0
5.05078125,-25.87890625,-46.875,-45.41015625,-25.87890625,24.4140625,0.0
5.0546875,-28.80859375,-39.55078125,-50.29296875,-27.83203125,-76.171875,0.0
5.05859375,-19.04296875,-27.34375,-44.921875,-27.83203125,-72.75390625,0.0
5.0625,-9.27734375,-27.34375,-40.52734375,-41.015625,13.18359375,0.0
5.06640625,-14.16015625,-27.83203125,-47.36328125,-49.31640625,21.484375,0.0
5.0703125,-28.3203125,-35.64453125,-49.8046875,-40.0390625,7.8125,0.0
5.07421875,-32.71484375,-38.57421875,-41.50390625,-25.87890625,49.8046875,0.0
5.078125,-20.5078125,-37.109375,-41.50390625,-9.27734375,-14.16015625,0.0
5.08203125,0.0,-37.109375,-45.8984375,-14.16015625,-77.1484375,0.0
5.0859375,-5.859375,-27.83203125,-41.50390625,-27.83203125,-38.0859375,0.0
5.08984375,-26.3671875,-26.85546875,-41.9921875,-18.5546875,58.59375,0.0
5.09375,-26.3671875,-38.0859375,-56.15234375,-32.2265625,50.29296875,0.0
5.09765625,-27.83203125,-46.38671875,-52.24609375,-32.2265625,-43.45703125,0.0
5.1015625,10.7421875,-38.0859375,-40.52734375,-10.25390625,-10.7421875,0.0
5.10546875,0.0,-32.2265625,-43.9453125,-20.5078125,67.87109375,0.0
5.109375,-48.33984375,-42.96875,-48.33984375,-30.2734375,62.98828125,0.0
5.11328125,-43.45703125,-47.8515625,-54.19921875,-25.390625,-0.48828125,0.0
5.1171875,-42.48046875,-45.41015625,-51.7578125,-32.71484375,-38.0859375,0.0
5.12109375,-21.97265625,-38.0859375,-42.96875,-46.875,-14.6484375,0.0
5.125,9.765625,-32.2265625,-41.9921875,-57.12890625,-45.8984375,0.0
5.12890625,-15.625,-42.96875,-43.9453125,-47.36328125,-40.52734375,0.0
5.1328125,-56.640625,-46.875,-39.0625,-31.73828125,24.90234375,0.0
5.13671875,-37.59765625,-41.015625,-42.96875,-41.015625,43.9453125,0.0
5.140625,-31.25,-46.38671875,-41.9921875,-43.45703125,24.4140625,0.0
5.14453125,-33.69140625,-50.29296875,-35.15625,-37.59765625,-29.78515625,0.0
5.1484375,-21.484375,-53.7109375,-43.45703125,-32.2265625,-45.41015625,0.0
5.15234375,-47.8515625,-51.26953125,-47.8515625,-41.50390625,-37.109375,0.0
5.15625,-64.94140625,-41.015625,-41.50390625,-32.2265625,-10.7421875,0.0
5.16015625,-62.01171875,-43.9453125,-41.015625,-21.484375,0.0,0.0
5.1640625,-56.15234375,-39.0625,-40.0390625,-47.8515625,7.32421875,0.0
5.16796875,-46.38671875,-38.57421875,-42.96875,-58.59375,-39.0625,0.0
5.171875,-46.38671875,-50.29296875,-44.921875,-29.78515625,-53.7109375,0.0
5.17578125,-25.87890625,-56.15234375,-34.66796875,11.23046875,17.08984375,0.0
5.1796875,-11.23046875,-44.921875,-27.34375,0.9765625,43.45703125,0.0
5.18359375,-23.4375,-32.2265625,-42.96875,-43.45703125,-37.109375,0.0
5.1875,-29.296875,-28.3203125,-59.5703125,-47.8515625,-47.36328125,0.0
5.19140625,-28.80859375,-32.2265625,-65.91796875,-48.33984375,-21.97265625,0.0
5.1953125,-22.94921875,-36.1328125,-66.89453125,-36.62109375,-57.12890625,0.0
5.19921875,-14.6484375,-26.3671875,-55.6640625,-18.5546875,-34.1796875,0.0
5.203125,-12.6953125,-22.4609375,-46.875,-34.66796875,25.87890625,0.0
5.20703125,11.23046875,-26.3671875,-51.26953125,-59.08203125,-1.46484375,0.0
5.2109375,8.30078125,-33.69140625,-57.12890625,-48.33984375,-35.15625,0.0
5.21484375,-1.953125,-30.2734375,-53.7109375,-25.87890625,-71.2890625,0.0
5.21875,-8.7890625,-25.390625,-44.921875,-18.5546875,-59.08203125,0.0
5.22265625,-31.73828125,-23.92578125,-33.203125,-8.7890625,24.90234375,0.0
5.2265625,-23.4375,-20.5078125,-28.3203125,-5.37109375,-5.859375,0.0
5.23046875,-17.578125,-20.99609375,-35.64453125,-7.32421875,-19.04296875,0.0
5.234375,-33.69140625,-21.484375,-41.015625,-35.64453125,-10.25390625,0.0
5.23828125,-28.80859375,-20.01953125,-31.25,-29.296875,-37.59765625,0.0
5.2421875,-31.25,-20.5078125,-15.13671875,-9.27734375,-38.0859375,0.0
5.24609375,-34.1796875,-23.4375,-13.671875,-2.9296875,-43.9453125,0.0
5.25,-18.06640625,-26.3671875,-26.85546875,1.953125,30.2734375,0.0
5.25390625,-27.83203125,-29.78515625,-32.71484375,-22.94921875,62.98828125,0.0
5.2578125,-33.69140625,-29.78515625,-28.3203125,-30.76171875,-29.296875,0.0
5.26171875,-17.08984375,-26.3671875,-25.390625,-9.27734375,-35.64453125,0.0
5.265625,-9.27734375,-30.2734375,-32.2265625,-20.99609375,-6.34765625,0.0
5.26953125,-12.20703125,-33.203125,-40.52734375,-28.3203125,-45.41015625,0.0
5.2734375,-16.11328125,-30.76171875,-36.62109375,-27.83203125,-71.77734375,0.0
5.27734375,-7.32421875,-29.296875,-27.83203125,-15.625,-160.64453125,0.0
5.28125,6.8359375,-38.0859375,-24.4140625,-12.6953125,-242.1875,0.0
5.28515625,14.6484375,-39.0625,-21.484375,-32.71484375,-204.1015625,0.0
5.2890625,20.5078125,-29.296875,-27.34375,-28.80859375,-154.78515625,0.0
5.29296875,-4.8828125,-35.15625,-32.2265625,-28.3203125,-142.578125,0.0
5.296875,-51.7578125,-41.9921875,-24.4140625,-25.87890625,-38.0859375,0.0
5.30078125,-37.59765625,-36.62109375,-17.578125,-15.13671875,102.5390625,0.0
5.3046875,-11.71875,-36.62109375,-18.5546875,-12.20703125,98.6328125,0.0
5.30859375,-11.23046875,-35.64453125,-24.4140625,-12.20703125,77.1484375,0.0
5.3125,-20.5078125,-36.62109375,-38.57421875,-17.08984375,42.96875,0.0
5.31640625,-33.69140625,-40.52734375,-33.69140625,-30.2734375,7.32421875,0.0
5.3203125,-52.734375,-38.0859375,-22.94921875,-26.3671875,22.94921875,0.0
5.32421875,-33.69140625,-32.71484375,-18.06640625,0.0,-32.71484375,0.0
5.328125,-19.53125,-40.0390625,-22.94921875,-6.8359375,12.6953125,0.0
5.33203125,-35.64453125,-46.38671875,-32.2265625,-13.671875,-10.25390625,0.0
5.3359375,-28.80859375,-43.45703125,-35.15625,-27.34375,-96.6796875,0.0
5.33984375,-10.7421875,-42.48046875,-33.203125,-46.38671875,-49.31640625,0.0
5.34375,-14.6484375,-37.109375,-27.83203125,-38.57421875,62.01171875,0.0
5.34765625,-34.1796875,-31.25,-32.2265625,-41.015625,88.37890625,0.0
5.3515625,-36.1328125,-31.73828125,-40.52734375,-43.9453125,22.94921875,0.0
5.35546875,-18.06640625,-32.71484375,-41.015625,-45.41015625,-12.20703125,0.0
5.359375,-42.48046875,-36.62109375,-29.296875,-27.83203125,-18.06640625,0.0
5.36328125,-41.9921875,-37.109375,-21.97265625,-24.4140625,-17.08984375,0.0
5.3671875,-20.01953125,-39.0625,-31.73828125,-43.9453125,29.78515625,0.0
5.37109375,0.9765625,-37.59765625,-40.52734375,-47.36328125,43.9453125,0.0
5.375,-12.6953125,-29.296875,-41.9921875,-44.43359375,9.27734375,0.0
5.37890625,-50.29296875,-38.57421875,-39.0625,-44.921875,21.97265625,0.0
5.3828125,-53.7109375,-39.0625,-26.3671875,-26.3671875,25.87890625,0.0
5.38671875,-36.1328125,-34.66796875,-33.69140625,-24.90234375,0.9765625,0.0
5.390625,-14.16015625,-41.015625,-46.875,-40.52734375,-85.9375,0.0
5.39453125,-25.87890625,-43.9453125,-43.9453125,-50.78125,-96.6796875,0.0
5.3984375,-46.38671875,-44.43359375,-40.52734375,-49.31640625,-17.578125,0.0
5.40234375,-54.19921875,-41.50390625,-37.109375,-48.828125,48.33984375,0.0
5.40625,-45.8984375,-42.48046875,-37.59765625,-45.8984375,28.3203125,0.0
5.41015625,-39.0625,-43.9453125,-38.57421875,-34.66796875,-24.4140625,0.0
5.4140625,-43.9453125,-41.015625,-41.9921875,-43.9453125,-34.1796875,0.0
5.41796875,-45.8984375,-46.875,-40.0390625,-44.921875,-8.7890625,0.0
5.421875,-44.43359375,-44.921875,-36.1328125,-54.6875,-25.87890625,0.0
5.42578125,-44.43359375,-37.59765625,-30.76171875,-48.828125,4.39453125,0.0
5.4296875,-44.43359375,-35.64453125,-32.2265625,-23.4375,-34.66796875,0.0
5.43359375,-28.3203125,-32.71484375,-35.15625,-22.4609375,-7.8125,0.0
5.4375,-14.6484375,-38.0859375,-29.296875,-29.78515625,-4.39453125,0.0
5.44140625,9.27734375,-38.57421875,-20.99609375,-27.83203125,-98.6328125,0.0
5.4453125,-0.9765625,-32.2265625,-26.85546875,-24.4140625,-92.28515625,0.0
5.44921875,-56.15234375,-39.55078125,-35.64453125,-22.94921875,-74.21875,0.0
5.453125,-41.9921875,-39.55078125,-33.203125,-31.73828125,-69.82421875,0.0
5.45703125,-39.55078125,-27.83203125,-25.390625,-47.8515625,-77.63671875,0.0
5.4609375,-53.7109375,-39.0625,-21.97265625,-51.26953125,-53.22265625,0.0
5.46484375,-38.0859375,-39.0625,-29.296875,-54.6875,60.05859375,0.0
5.46875,-36.62109375,-34.66796875,-32.71484375,-46.875,74.70703125,0.0
5.47265625,-13.18359375,-40.0390625,-26.3671875,-37.109375,42.96875,0.0
5.4765625,-29.78515625,-41.50390625,-20.5078125,-34.66796875,19.53125,0.0
5.48046875,-51.26953125,-30.2734375,-16.6015625,-29.296875,0.9765625,0.0
5.484375,-39.0625,-17.08984375,-20.5078125,-35.15625,16.11328125,0.0
5.48828125,-54.6875,-29.296875,-23.4375,-17.578125,5.859375,0.0
5.4921875,-46.38671875,-37.109375,-29.78515625,-23.92578125,-49.31640625,0.0
5.49609375,-49.31640625,-32.2265625,-28.3203125,-40.0390625,-66.89453125,0.0
5.5,-37.59765625,-28.80859375,-20.99609375,-29.78515625,-38.57421875,0.0
5.50390625,-10.25390625,-30.76171875,-24.4140625,-43.9453125,-66.89453125,0.0
5.5078125,-27.83203125,-35.64453125,-27.34375,-50.29296875,-43.9453125,0.0
5.51171875,-49.31640625,-36.1328125,-24.4140625,-23.92578125,31.73828125,0.0
5.515625,-44.921875,-35.15625,-23.92578125,-21.484375,6.34765625,0.0
5.51953125,-45.41015625,-36.1328125,-21.97265625,-30.76171875,-21.484375,0.0
5.5234375,-38.57421875,-34.66796875,-25.87890625,-31.73828125,47.8515625,0.0
5.52734375,-43.9453125,-33.69140625,-27.34375,-38.0859375,44.43359375,0.0
5.53125,-31.73828125,-32.71484375,-27.34375,-34.1796875,-34.66796875,0.0
5.53515625,-31.73828125,-29.78515625,-29.296875,-25.87890625,-19.04296875,0.0
5.5390625,-48.33984375,-24.90234375,-26.3671875,-28.80859375,2.9296875,0.0
5.54296875,-26.3671875,-25.390625,-25.87890625,-33.203125,-28.80859375,0.0
5.546875,-5.859375,-32.2265625,-26.3671875,-28.80859375,-106.93359375,0.0
5.55078125,-14.16015625,-37.59765625,-35.15625,-23.4375,-76.66015625,0.0
5.5546875,-39.0625,-39.0625,-37.59765625,-30.2734375,-45.41015625,0.0
5.55859375,-36.1328125,-30.76171875,-33.69140625,-25.390625,-51.26953125,0.0
5.5625,-24.90234375,-28.3203125,-29.296875,-39.0625,0.0,0.0
5.56640625,-31.25,-39.55078125,-32.2265625,-49.31640625,30.76171875,0.0
5.5703125,-60.05859375,-44.921875,-42.48046875,-41.9921875,11.23046875,0.0
5.57421875,-83.49609375,-40.52734375,-38.0859375,-33.69140625,-24.4140625,0.0
5.578125,-61.5234375,-32.71484375,-34.1796875,-42.48046875,-37.59765625,0.0
5.58203125,-32.71484375,-34.66796875,-33.69140625,-45.8984375,-14.6484375,0.0
5.5859375,-34.1796875,-38.57421875,-33.203125,-25.87890625,24.90234375,0.0
5.58984375,-26.85546875,-39.55078125,-37.59765625,-26.3671875,0.9765625,0.0
5.59375,-5.859375,-40.52734375,-41.50390625,-17.08984375,-25.390625,0.0
5.59765625,8.7890625,-34.66796875,-38.57421875,-7.8125,0.48828125,0.0
5.6015625,15.625,-22.4609375,-32.2265625,-41.50390625,6.34765625,0.0
5.60546875,-28.80859375,-26.85546875,-34.66796875,-57.6171875,-45.8984375,0.0
5.609375,-112.3046875,-47.36328125,-40.52734375,-47.8515625,-100.5859375,0.0
5.61328125,-109.375,-48.828125,-39.55078125,-48.828125,-101.5625,0.0
5.6171875,-64.94140625,-44.43359375,-35.64453125,-38.57421875,-20.01953125,0.0
5.62109375,-38.57421875,-37.59765625,-34.1796875,-29.296875,-12.6953125,0.0
5.625,-27.83203125,-26.3671875,-34.66796875,-38.0859375,9.27734375,0.0
5.62890625,-30.76171875,-27.34375,-38.57421875,-43.9453125,31.25,0.0
5.6328125,-39.55078125,-36.62109375,-41.015625,-34.66796875,-19.53125,0.0
5.63671875,-42.96875,-34.1796875,-33.69140625,-36.1328125,0.9765625,0.0
5.640625,-39.55078125,-28.3203125,-30.2734375,-40.0390625,53.22265625,0.0
5.64453125,-24.90234375,-24.4140625,-28.3203125,-34.1796875,8.7890625,0.0
5.6484375,-21.484375,-24.90234375,-37.59765625,-36.62109375,-30.2734375,0.0
5.65234375,-45.41015625,-29.296875,-44.43359375,-41.015625,23.4375,0.0
5.65625,-29.296875,-31.73828125,-38.0859375,-41.50390625,20.01953125,0.0
5.66015625,-11.23046875,-30.2734375,-33.203125,-40.0390625,-21.484375,0.0
5.6640625,-25.390625,-31.73828125,-33.69140625,-54.19921875,23.4375,0.0
5.66796875,-24.90234375,-28.3203125,-35.15625,-47.36328125,19.53125,0.0
5.671875,-14.6484375,-29.296875,-44.921875,-28.80859375,-20.5078125,0.0
5.67578125,-1.953125,-30.2734375,-53.7109375,-49.31640625,13.671875,0.0
5.6796875,-4.8828125,-23.92578125,-46.875,-51.7578125,14.16015625,0.0
5.68359375,-35.15625,-21.484375,-40.0390625,-34.1796875,-3.90625,0.0
5.6875,-60.05859375,-28.3203125,-43.9453125,-36.1328125,23.92578125,0.0
5.69140625,-83.49609375,-35.64453125,-56.640625,-41.50390625,-93.75,0.0
5.6953125,-66.89453125,-36.1328125,-58.10546875,-40.52734375,-96.19140625,0.0
5.69921875,-31.25,-30.2734375,-43.9453125,-46.38671875,16.6015625,0.0
5.703125,-33.203125,-30.2734375,-40.52734375,-48.828125,52.24609375,0.0
5.70703125,-28.3203125,-32.71484375,-38.57421875,-34.66796875,45.8984375,0.0
5.7109375,-21.97265625,-34.1796875,-44.43359375,-47.8515625,-7.32421875,0.0
5.71484375,-16.11328125,-36.1328125,-44.921875,-58.59375,20.01953125,0.0
5.71875,-31.73828125,-40.52734375,-31.25,-45.8984375,25.87890625,0.0
5.72265625,-58.59375,-43.9453125,-26.3671875,-41.50390625,19.53125,0.0
5.7265625,-46.875,-40.52734375,-29.78515625,-32.71484375,3.90625,0.0
5.73046875,-27.34375,-36.62109375,-32.71484375,-17.08984375,-39.0625,0.0
5.734375,-17.578125,-34.66796875,-39.0625,-29.296875,-34.1796875,0.0
5.73828125,19.04296875,-26.3671875,-33.203125,-57.12890625,-25.390625,0.0
5.7421875,2.44140625,-25.87890625,-27.83203125,-53.7109375,-20.01953125,0.0
5.74609375,-70.3125,-33.203125,-31.25,-33.69140625,68.84765625,0.0
5.75,-99.609375,-45.8984375,-30.76171875,-46.38671875,20.01953125,0.0
5.75390625,-76.171875,-47.8515625,-33.69140625,-49.8046875,-93.26171875,0.0
5.7578125,-48.33984375,-40.0390625,-30.76171875,-40.52734375,-89.35546875,0.0
5.76171875,-26.3671875,-35.15625,-28.3203125,-55.17578125,-58.59375,0.0
5.765625,-19.53125,-28.80859375,-40.0390625,-79.58984375,-1.953125,0.0
5.76953125,-23.4375,-34.1796875,-46.875,-69.82421875,12.6953125,0.0
5.7734375,-46.875,-37.109375,-41.9921875,-37.109375,16.6015625,0.0
5.77734375,-62.98828125,-35.64453125,-32.2265625,-25.390625,13.671875,0.0
5.78125,-35.15625,-31.25,-24.90234375,-39.0625,7.32421875,0.0
5.78515625,-27.83203125,-27.34375,-31.73828125,-54.6875,48.33984375,0.0
5.7890625,-51.26953125,-31.25,-41.015625,-48.33984375,3.90625,0.0
5.79296875,-53.22265625,-28.3203125,-38.0859375,-39.55078125,-78.61328125,0.0
5.796875,-36.62109375,-22.94921875,-37.59765625,-36.62109375,-131.8359375,0.0
5.80078125,-32.71484375,-24.4140625,-32.2265625,-28.3203125,-79.58984375,0.0
5.8046875,-38.0859375,-28.3203125,-28.3203125,-29.78515625,23.4375,0.0
5.80859375,-36.62109375,-30.2734375,-37.59765625,-40.0390625,28.80859375,0.0
5.8125,-56.640625,-32.2265625,-38.0859375,-35.15625,-45.8984375,0.0
5.81640625,-35.64453125,-31.73828125,-31.73828125,-28.80859375,-65.91796875,0.0
5.8203125,-21.97265625,-21.97265625,-29.296875,-41.9921875,9.765625,0.0
5.82421875,-1.953125,-16.6015625,-28.3203125,-49.31640625,25.390625,0.0
5.828125,20.5078125,-26.85546875,-41.015625,-40.0390625,14.6484375,0.0
5.83203125,-26.3671875,-34.1796875,-47.8515625,-45.41015625,-61.03515625,0.0
5.8359375,-52.734375,-31.25,-37.109375,-52.734375,-93.26171875,0.0
5.83984375,-27.34375,-25.87890625,-31.25,-36.1328125,-3.41796875,0.0
5.84375,-14.16015625,-27.34375,-33.203125,-40.52734375,19.04296875,0.0
5.84765625,-9.765625,-34.66796875,-42.48046875,-47.36328125,-19.53125,0.0
5.8515625,-17.08984375,-36.62109375,-50.29296875,-45.41015625,-46.38671875,0.0
5.85546875,-41.015625,-32.2265625,-46.875,-35.15625,-8.7890625,0.0
5.859375,-58.59375,-33.203125,-40.52734375,-35.64453125,-12.20703125,0.0
5.86328125,-47.8515625,-33.69140625,-36.1328125,-59.08203125,-36.1328125,0.0
5.8671875,-30.76171875,-35.15625,-41.015625,-62.01171875,-12.6953125,0.0
5.87109375,-17.08984375,-29.78515625,-47.36328125,-58.10546875,-17.578125,0.0
5.875,0.0,-28.3203125,-48.33984375,-57.12890625,-13.18359375,0.0
5.87890625,-6.8359375,-40.52734375,-41.015625,-31.25,47.8515625,0.0
5.8828125,-39.0625,-40.0390625,-37.109375,-35.15625,67.3828125,0.0
5.88671875,-59.5703125,-37.109375,-40.52734375,-50.78125,-14.6484375,0.0
5.890625,-54.6875,-38.0859375,-41.50390625,-48.828125,-24.90234375,0.0
5.89453125,-50.29296875,-46.875,-45.41015625,-54.6875,0.9765625,0.0
5.8984375,-38.57421875,-43.9453125,-42.48046875,-35.15625,-13.18359375,0.0
5.90234375,-21.484375,-32.2265625,-31.25,-29.296875,-12.6953125,0.0
5.90625,-23.4375,-31.25,-29.296875,-40.52734375,19.04296875,0.0
5.91015625,-18.5546875,-41.50390625,-31.25,-34.66796875,-45.41015625,0.0
5.9140625,-16.11328125,-41.9921875,-28.80859375,-34.1796875,-174.31640625,0.0
5.91796875,-19.04296875,-25.87890625,-22.4609375,-40.0390625,-106.4453125,0.0
5.921875,-10.7421875,-27.83203125,-14.6484375,-48.33984375,-40.0390625,0.0
5.92578125,-28.3203125,-33.69140625,-15.13671875,-43.9453125,9.27734375,0.0
5.9296875,-52.24609375,-36.62109375,-24.4140625,-32.71484375,-27.83203125,0.0
5.93359375,-28.80859375,-34.1796875,-36.62109375,-29.78515625,-76.171875,0.0
5.9375,1.953125,-29.78515625,-40.52734375,-44.921875,-77.1484375,0.0
5.94140625,4.8828125,-25.390625,-35.64453125,-63.4765625,-50.78125,0.0
5.9453125,-31.25,-21.97265625,-31.73828125,-49.8046875,-14.6484375,0.0
5.94921875,-52.24609375,-32.71484375,-37.109375,-32.2265625,-62.01171875,0.0
5.953125,-47.36328125,-35.15625,-41.015625,-47.8515625,-160.64453125,0.0
5.95703125,-32.71484375,-30.76171875,-24.90234375,-32.2265625,-157.2265625,0.0
5.9609375,-30.2734375,-29.296875,-17.08984375,-16.6015625,-41.50390625,0.0
5.96484375,-38.0859375,-28.80859375,-23.92578125,-43.9453125,-11.23046875,0.0
5.96875,-40.52734375,-36.1328125,-28.3203125,-34.66796875,-30.2734375,0.0
5.97265625,-11.71875,-40.52734375,-31.25,-29.296875,-78.125,0.0
5.9765625,-10.7421875,-31.73828125,-27.34375,-51.26953125,-89.84375,0.0
5.98046875,-25.390625,-38.57421875,-25.87890625,-26.3671875,-36.1328125,0.0
5.984375,-1.953125,-41.9921875,-35.64453125,-36.62109375,-30.2734375,0.0
5.98828125,-36.62109375,-34.66796875,-36.62109375,-66.40625,47.36328125,0.0
5.9921875,-47.36328125,-36.62109375,-35.15625,-55.17578125,110.83984375,0.0
5.99609375,-19.53125,-41.9921875,-33.69140625,-40.52734375,36.1328125,0.0
6.0,-19.53125,-41.015625,-28.80859375,-21.484375,-8.30078125,0.0
6.00390625,-23.92578125,-42.96875,-32.2265625,-20.5078125,-41.50390625,0.0
6.0078125,-44.43359375,-43.9453125,-40.52734375,-37.109375,-69.3359375,0.0
6.01171875,-61.03515625,-43.9453125,-44.43359375,-37.109375,-107.91015625,0.0
6.015625,-71.77734375,-53.7109375,-40.0390625,-27.34375,-181.15234375,0.0
6.01953125,-51.7578125,-45.8984375,-33.203125,-23.92578125,-117.67578125,0.0
6.0234375,0.0,-35.15625,-30.76171875,-38.0859375,-49.8046875,0.0
6.02734375,-31.25,-42.96875,-35.64453125,-37.109375,-66.89453125,0.0
6.03125,-65.91796875,-45.8984375,-44.43359375,-30.76171875,-67.87109375,0.0
6.03515625,-54.6875,-45.41015625,-43.9453125,-38.0859375,-16.11328125,0.0
6.0390625,-71.2890625,-45.8984375,-37.59765625,-53.22265625,38.57421875,0.0
6.04296875,-59.5703125,-44.43359375,-34.1796875,-50.29296875,43.9453125,0.0
6.046875,-46.38671875,-42.48046875,-40.52734375,-42.96875,17.08984375,0.0
6.05078125,-41.9921875,-39.55078125,-50.29296875,-40.0390625,36.62109375,0.0
6.0546875,-25.87890625,-44.43359375,-44.921875,-32.2265625,-3.90625,0.0
6.05859375,-22.4609375,-47.36328125,-33.203125,-20.5078125,-39.55078125,0.0
6.0625,-27.83203125,-42.96875,-29.296875,-16.6015625,17.08984375,0.0
6.06640625,-40.52734375,-41.9921875,-27.34375,-21.484375,19.53125,0.0
6.0703125,-29.296875,-40.52734375,-33.69140625,-37.109375,-51.26953125,0.0
6.07421875,-21.97265625,-49.31640625,-41.50390625,-39.0625,-49.8046875,0.0
6.078125,-22.94921875,-57.6171875,-36.1328125,-33.203125,-41.50390625,0.0
6.08203125,-10.25390625,-52.24609375,-34.66796875,-27.34375,-44.921875,0.0
6.0859375,-18.06640625,-46.875,-33.69140625,-49.8046875,-29.296875,0.0
6.08984375,-73.2421875,-41.9921875,-39.0625,-65.4296875,-38.0859375,0.0
6.09375,-78.125,-42.96875,-40.52734375,-41.015625,-83.0078125,0.0
6.09765625,-35.64453125,-47.36328125,-35.15625,-41.50390625,-107.91015625,0.0
6.1015625,-25.87890625,-41.9921875,-34.1796875,-49.8046875,-98.6328125,0.0
6.10546875,-26.3671875,-41.015625,-36.62109375,-53.7109375,-36.1328125,0.0
6.109375,-12.20703125,-40.0390625,-40.52734375,-51.7578125,-39.0625,0.0
6.11328125,-16.6015625,-34.66796875,-43.9453125,-45.41015625,-61.5234375,0.0
6.1171875,-36.1328125,-33.203125,-36.62109375,-17.08984375,25.87890625,0.0
6.12109375,-45.41015625,-31.73828125,-33.203125,-10.25390625,22.4609375,0.0
6.125,-61.5234375,-30.76171875,-38.0859375,-50.78125,-38.0859375,0.0
6.12890625,-47.8515625,-35.64453125,-41.9921875,-62.5,-54.19921875,0.0
6.1328125,-33.69140625,-38.57421875,-39.55078125,-43.9453125,-62.5,0.0
6.13671875,-34.1796875,-34.1796875,-35.15625,-43.45703125,-1.953125,0.0
6.140625,-38.0859375,-31.73828125,-30.2734375,-35.15625,13.671875,0.0
6.14453125,-49.8046875,-39.0625,-24.90234375,-20.99609375,9.27734375,0.0
6.1484375,-47.8515625,-40.0390625,-26.85546875,-25.87890625,-13.671875,0.0
6.15234375,-55.6640625,-34.66796875,-28.80859375,-23.4375,-18.5546875,0.0
6.15625,-53.7109375,-33.203125,-35.64453125,-47.8515625,-42.48046875,0.0
6.16015625,-39.0625,-26.3671875,-36.1328125,-57.12890625,-27.83203125,0.0
6.1640625,-38.57421875,-29.296875,-27.83203125,-22.4609375,-70.3125,0.0
6.16796875,-24.4140625,-33.203125,-24.4140625,-23.4375,-88.37890625,0.0
6.171875,-6.8359375,-36.1328125,-33.69140625,-58.10546875,-14.16015625,0.0
6.17578125,-43.9453125,-45.41015625,-40.52734375,-72.75390625,-98.14453125,0.0
6.1796875,-71.2890625,-41.9921875,-36.62109375,-73.73046875,-137.20703125,0.0
6.18359375,-47.8515625,-27.83203125,-30.2734375,-60.05859375,-48.828125,0.0
6.1875,-26.3671875,-22.4609375,-32.2265625,-40.52734375,41.9921875,0.0
6.19140625,0.48828125,-30.76171875,-41.50390625,-42.96875,33.69140625,0.0
6.1953125,-34.66796875,-37.109375,-40.52734375,-42.48046875,50.29296875,0.0
6.19921875,-72.265625,-40.52734375,-31.73828125,-29.78515625,74.21875,0.0
6.203125,-27.34375,-31.25,-38.0859375,-33.203125,5.37109375,0.0
6.20703125,-10.25390625,-25.87890625,-42.48046875,-29.296875,-15.625,0.0
6.2109375,-35.15625,-41.50390625,-35.15625,-21.484375,61.5234375,0.0
6.21484375,-45.41015625,-43.9453125,-35.64453125,-36.62109375,43.45703125,0.0
6.21875,-31.25,-37.109375,-36.1328125,-44.43359375,26.85546875,0.0
6.22265625,-31.73828125,-31.25,-32.71484375,-32.71484375,93.75,0.0
6.2265625,-70.3125,-26.85546875,-35.64453125,-22.4609375,50.78125,0.0
6.23046875,-80.078125,-34.1796875,-41.50390625,-34.1796875,6.34765625,0.0
6.234375,-42.48046875,-43.45703125,-40.52734375,-34.1796875,-86.9140625,0.0
6.23828125,-31.25,-38.57421875,-31.25,-12.6953125,-145.5078125,0.0
6.2421875,-21.484375,-25.87890625,-28.3203125,-16.6015625,-94.7265625,0.0
6.24609375,-9.765625,-23.92578125,-34.1796875,-45.41015625,-52.24609375,0.0
6.25,-43.9453125,-35.64453125,-46.875,-55.6640625,-60.546875,0.0
6.25390625,-63.96484375,-42.96875,-41.015625,-32.71484375,-53.22265625,0.0
6.2578125,-55.17578125,-36.62109375,-29.296875,-32.71484375,-27.34375,0.0
6.26171875,-21.97265625,-25.390625,-31.73828125,-49.31640625,-10.7421875,0.0
6.265625,-9.765625,-31.73828125,-33.69140625,-57.12890625,16.6015625,0.0
6.26953125,-50.29296875,-43.45703125,-37.109375,-43.45703125,56.15234375,0.0
6.2734375,-63.4765625,-46.38671875,-40.0390625,-43.45703125,-17.08984375,0.0
6.27734375,-31.25,-38.57421875,-33.203125,-41.9921875,-67.3828125,0.0
6.28125,-16.11328125,-30.76171875,-21.484375,-30.76171875,-11.23046875,0.0
6.28515625,-21.484375,-31.73828125,-26.3671875,-31.73828125,3.41796875,0.0
6.2890625,-42.48046875,-46.38671875,-39.55078125,-26.85546875,-141.6015625,0.0
6.29296875,-24.90234375,-44.921875,-35.15625,-24.90234375,-146.484375,0.0
6.296875,-13.671875,-40.52734375,-26.85546875,-43.9453125,-112.79296875,0.0
6.30078125,-20.5078125,-38.57421875,-22.4609375,-53.7109375,-154.296875,0.0
6.3046875,-17.578125,-29.296875,-25.87890625,-48.33984375,-81.54296875,0.0
6.30859375,-39.55078125,-35.15625,-37.59765625,-58.10546875,12.20703125,0.0
6.3125,-20.5078125,-45.8984375,-41.9921875,-47.36328125,103.02734375,0.0
6.31640625,10.7421875,-46.875,-37.109375,-31.25,123.53515625,0.0
6.3203125,-23.92578125,-43.45703125,-29.78515625,-24.90234375,40.0390625,0.0
6.32421875,-48.33984375,-34.66796875,-24.4140625,-20.01953125,-8.30078125,0.0
6.328125,-26.85546875,-28.80859375,-27.83203125,-32.71484375,25.87890625,0.0
6.33203125,-14.16015625,-38.57421875,-32.71484375,-25.390625,33.69140625,0.0
6.3359375,-2.44140625,-37.109375,-25.87890625,-22.4609375,46.875,0.0
6.33984375,28.3203125,-30.76171875,-17.578125,-31.73828125,20.5078125,0.0
6.34375,32.2265625,-33.69140625,-20.99609375,-59.5703125,-2.9296875,0.0
6.34765625,3.41796875,-37.109375,-28.80859375,-52.734375,-17.578125,0.0
6.3515625,-17.08984375,-35.64453125,-36.62109375,-50.29296875,-153.3203125,0.0
6.35546875,-33.69140625,-32.71484375,-39.55078125,-50.78125,-98.6328125,0.0
6.359375,-5.859375,-35.64453125,-30.76171875,-30.76171875,31.73828125,0.0
6.36328125,6.8359375,-31.73828125,-20.99609375,-42.48046875,-31.73828125,0.0
6.3671875,-35.15625,-25.390625,-27.83203125,-41.015625,-63.4765625,0.0
6.37109375,-53.7109375,-34.1796875,-34.66796875,-24.4140625,-21.484375,0.0
6.375,-33.69140625,-41.9921875,-29.78515625,-26.85546875,31.25,0.0
6.37890625,-16.11328125,-35.15625,-23.92578125,-27.83203125,119.140625,0.0
6.3828125,-26.85546875,-28.3203125,-22.94921875,-12.20703125,158.69140625,0.0
6.38671875,-12.6953125,-26.3671875,-29.296875,-13.671875,110.83984375,0.0
6.390625,-1.46484375,-31.25,-31.73828125,-30.2734375,12.6953125,0.0
6.39453125,-3.41796875,-36.1328125,-31.73828125,-55.17578125,-20.01953125,0.0
6.3984375,4.39453125,-33.203125,-25.87890625,-55.6640625,0.48828125,0.0
6.40234375,8.30078125,-27.83203125,-19.53125,-35.64453125,-10.7421875,0.0
6.40625,20.01953125,-33.203125,-24.4140625,-35.64453125,-11.23046875,0.0
6.41015625,5.859375,-35.15625,-35.64453125,-41.50390625,46.875,0.0
6.4140625,-1.953125,-28.80859375,-39.55078125,-47.36328125,26.3671875,0.0
6.41796875,4.8828125,-23.4375,-34.1796875,-38.57421875,-55.6640625,0.0
6.421875,-18.06640625,-21.97265625,-27.83203125,-26.3671875,-2.9296875,0.0
6.42578125,-26.3671875,-21.484375,-25.87890625,-43.45703125,55.6640625,0.0
6.4296875,-14.6484375,-28.3203125,-30.2734375,-31.73828125,111.81640625,0.0
6.43359375,15.13671875,-34.1796875,-32.2265625,-23.4375,98.6328125,0.0
6.4375,3.90625,-36.62109375,-27.83203125,-44.921875,-51.26953125,0.0
6.44140625,-19.53125,-36.62109375,-22.4609375,-36.62109375,-83.49609375,0.0
6.4453125,-20.5078125,-33.203125,-24.4140625,-15.625,-7.8125,0.0
6.44921875,-17.08984375,-33.69140625,-30.2734375,-16.6015625,52.734375,0.0
6.453125,-7.8125,-41.015625,-33.69140625,-34.1796875,22.94921875,0.0
6.45703125,-3.41796875,-31.73828125,-38.0859375,-44.43359375,-6.8359375,0.0
6.4609375,1.46484375,-22.4609375,-40.0390625,-36.62109375,20.01953125,0.0
6.46484375,-13.18359375,-38.57421875,-42.48046875,-34.1796875,73.2421875,0.0
6.46875,-39.0625,-50.78125,-49.8046875,-38.0859375,81.0546875,0.0
6.47265625,-37.109375,-50.78125,-46.38671875,-41.015625,17.08984375,0.0
6.4765625,1.46484375,-43.45703125,-36.62109375,-49.31640625,-18.5546875,0.0
6.48046875,39.0625,-29.296875,-33.203125,-45.8984375,20.99609375,0.0
6.484375,22.4609375,-26.3671875,-32.71484375,-32.71484375,8.30078125,0.0
6.48828125,-29.78515625,-31.73828125,-31.73828125,-39.0625,-35.64453125,0.0
6.4921875,-40.0390625,-39.0625,-32.2265625,-44.43359375,-6.34765625,0.0
6.49609375,-12.6953125,-42.96875,-33.203125,-38.0859375,5.37109375,0.0
6.5,-13.18359375,-38.0859375,-32.2265625,-26.3671875,-3.41796875,0.0
6.50390625,-23.4375,-38.57421875,-27.34375,-16.6015625,-18.06640625,0.0
6.5078125,-15.13671875,-41.015625,-36.1328125,-29.78515625,-19.53125,0.0
6.51171875,-20.5078125,-36.62109375,-41.015625,-38.0859375,33.203125,0.0
6.515625,-19.53125,-39.55078125,-31.73828125,-41.9921875,61.5234375,0.0
6.51953125,-12.20703125,-30.76171875,-24.4140625,-34.66796875,80.56640625,0.0
6.5234375,-6.8359375,-24.90234375,-24.4140625,-17.578125,36.1328125,0.0
6.52734375,-12.20703125,-34.1796875,-32.71484375,-32.71484375,2.44140625,0.0
6.53125,-15.625,-47.36328125,-41.015625,-40.52734375,6.8359375,0.0
6.53515625,-11.23046875,-44.43359375,-40.0390625,-42.48046875,-42.48046875,0.0
6.5390625,-4.39453125,-28.80859375,-33.69140625,-37.109375,-52.24609375,0.0
6.54296875,27.34375,-30.2734375,-27.34375,-25.390625,2.9296875,0.0
6.546875,30.76171875,-29.78515625,-27.83203125,-24.4140625,-32.71484375,0.0
6.55078125,16.6015625,-33.203125,-37.109375,-38.57421875,-83.984375,0.0
6.5546875,-3.41796875,-41.015625,-44.921875,-47.8515625,-19.04296875,0.0
6.55859375,4.8828125,-33.69140625,-35.15625,-48.33984375,23.4375,0.0
6.5625,-15.625,-27.83203125,-26.85546875,-38.57421875,62.98828125,0.0
6.56640625,-36.62109375,-34.1796875,-29.296875,-1.953125,33.69140625,0.0
6.5703125,-4.8828125,-42.48046875,-37.109375,-14.16015625,-10.25390625,0.0
6.57421875,8.30078125,-33.69140625,-41.50390625,-26.3671875,-28.80859375,0.0
6.578125,-4.8828125,-33.203125,-32.2265625,-20.01953125,-53.7109375,0.0
6.58203125,-4.8828125,-34.66796875,-20.5078125,-40.0390625,2.9296875,0.0
6.5859375,5.859375,-31.25,-23.4375,-42.48046875,-33.69140625,0.0
6.58984375,4.39453125,-38.57421875,-38.0859375,-33.69140625,-114.2578125,0.0
6.59375,0.48828125,-35.64453125,-43.9453125,-44.921875,-126.46484375,0.0
6.59765625,7.32421875,-32.71484375,-32.2265625,-41.015625,-107.91015625,0.0
6.6015625,16.6015625,-39.55078125,-20.5078125,-18.06640625,-100.09765625,0.0
6.60546875,-9.27734375,-41.50390625,-24.90234375,-37.59765625,4.39453125,0.0
6.609375,-42.48046875,-39.55078125,-38.57421875,-44.921875,36.62109375,0.0
6.61328125,-28.3203125,-44.921875,-35.64453125,-24.4140625,-63.4765625,0.0
6.6171875,-11.71875,-51.7578125,-36.1328125,-21.97265625,-100.09765625,0.0
6.62109375,-17.578125,-39.0625,-36.1328125,-42.96875,-66.40625,0.0
6.625,1.46484375,-41.50390625,-28.80859375,-33.69140625,-27.83203125,0.0
6.62890625,12.6953125,-45.41015625,-32.71484375,-32.2265625,-55.6640625,0.0
6.6328125,-9.765625,-41.015625,-42.48046875,-58.10546875,-33.203125,0.0
6.63671875,-9.765625,-39.0625,-42.96875,-41.015625,44.921875,0.0
6.640625,-3.41796875,-33.69140625,-31.25,-25.390625,25.87890625,0.0
6.64453125,-14.6484375,-40.0390625,-31.25,-24.4140625,-54.6875,0.0
6.6484375,-3.90625,-42.96875,-41.015625,-39.0625,-69.3359375,0.0
6.65234375,30.76171875,-37.109375,-40.52734375,-46.38671875,-35.64453125,0.0
6.65625,6.34765625,-36.1328125,-36.62109375,-26.85546875,47.8515625,0.0
6.66015625,-17.08984375,-26.85546875,-33.69140625,-12.6953125,54.19921875,0.0
6.6640625,-19.04296875,-21.484375,-31.73828125,-12.6953125,32.2265625,0.0
6.66796875,-56.15234375,-34.1796875,-30.76171875,-20.5078125,27.34375,0.0
6.671875,-27.83203125,-50.78125,-33.203125,-29.78515625,-25.390625,0.0
6.67578125,1.46484375,-45.8984375,-29.78515625,-26.85546875,-83.49609375,0.0
6.6796875,-15.13671875,-31.73828125,-30.2734375,-22.4609375,-88.37890625,0.0
6.68359375,-21.484375,-29.78515625,-31.73828125,-27.34375,-49.8046875,0.0
6.6875,-17.578125,-33.203125,-36.1328125,-26.85546875,47.8515625,0.0
6.69140625,0.48828125,-41.50390625,-46.875,-22.94921875,45.8984375,0.0
6.6953125,1.953125,-43.9453125,-46.875,-42.48046875,-57.12890625,0.0
6.69921875,-16.6015625,-41.50390625,-35.64453125,-40.0390625,-69.82421875,0.0
6.703125,-11.23046875,-36.62109375,-22.4609375,-20.5078125,-125.0,0.0
6.70703125,-12.20703125,-30.2734375,-27.34375,-22.4609375,-107.91015625,0.0
6.7109375,2.44140625,-34.1796875,-38.0859375,-40.0390625,-5.859375,0.0
6.71484375,-26.85546875,-44.43359375,-35.15625,-55.17578125,-53.7109375,0.0
6.71875,-29.296875,-51.26953125,-29.78515625,-45.8984375,-57.12890625,0.0
6.72265625,-17.08984375,-38.57421875,-20.99609375,-25.87890625,11.23046875,0.0
6.7265625,-16.6015625,-25.87890625,-22.4609375,-20.99609375,35.64453125,0.0
6.73046875,7.8125,-24.90234375,-38.57421875,-23.4375,32.71484375,0.0
6.734375,2.9296875,-33.69140625,-41.015625,-22.4609375,-55.6640625,0.0
6.73828125,2.44140625,-40.52734375,-26.85546875,-33.203125,-48.828125,0.0
6.7421875,-6.34765625,-33.69140625,-20.01953125,-43.45703125,20.01953125,0.0
6.74609375,10.7421875,-23.4375,-26.3671875,-28.80859375,87.40234375,0.0
6.75,41.015625,-26.3671875,-35.15625,-12.20703125,12.6953125,0.0
6.75390625,2.9296875,-34.66796875,-44.43359375,-27.83203125,-100.09765625,0.0
6.7578125,-34.1796875,-31.73828125,-38.0859375,-19.04296875,-95.21484375,0.0
6.76171875,-29.296875,-34.1796875,-25.87890625,-7.32421875,-16.6015625,0.0
6.765625,-5.37109375,-30.76171875,-32.71484375,-32.2265625,44.921875,0.0
6.76953125,-15.13671875,-30.76171875,-39.0625,-39.0625,27.83203125,0.0
6.7734375,-26.3671875,-32.2265625,-36.62109375,-29.78515625,-39.0625,0.0
6.77734375,-33.203125,-42.96875,-36.62109375,-11.23046875,-91.30859375,0.0
6.78125,-52.734375,-56.640625,-27.83203125,-1.46484375,0.9765625,0.0
6.78515625,-51.26953125,-44.43359375,-21.484375,-27.83203125,66.40625,0.0
6.7890625,-37.59765625,-31.73828125,-28.80859375,-40.0390625,8.30078125,0.0
6.79296875,-30.76171875,-33.203125,-27.34375,-25.87890625,54.19921875,0.0
6.796875,-6.8359375,-39.0625,-17.08984375,-10.7421875,63.4765625,0.0
6.80078125,15.625,-36.1328125,-14.16015625,-5.37109375,32.2265625,0.0
6.8046875,30.76171875,-29.296875,-21.484375,-28.3203125,56.15234375,0.0
6.80859375,-11.23046875,-35.64453125,-27.83203125,-37.59765625,-1.46484375,0.0
6.8125,-51.26953125,-47.36328125,-33.69140625,-48.828125,15.13671875,0.0
6.81640625,-26.3671875,-44.921875,-36.1328125,-52.24609375,-59.08203125,0.0
6.8203125,15.625,-35.15625,-29.296875,-27.34375,-73.73046875,0.0
6.82421875,-14.6484375,-42.48046875,-30.76171875,-32.2265625,-20.99609375,0.0
6.828125,-92.28515625,-54.19921875,-36.62109375,-38.0859375,-93.26171875,0.0
6.83203125,-104.4921875,-54.19921875,-40.52734375,-33.69140625,-191.89453125,0.0
6.8359375,-68.84765625,-53.7109375,-36.62109375,-29.78515625,-266.11328125,0.0
6.83984375,-49.8046875,-46.38671875,-26.3671875,-19.04296875,-199.21875,0.0
6.84375,-50.78125,-45.8984375,-23.92578125,-26.85546875,-92.7734375,0.0
6.84765625,-23.92578125,-43.9453125,-30.76171875,-40.52734375,-83.0078125,0.0
6.8515625,-8.30078125,-34.1796875,-39.55078125,-42.96875,-51.26953125,0.0
6.85546875,-39.55078125,-29.78515625,-36.62109375,-46.875,-76.171875,0.0
6.859375,11.23046875,-31.25,-28.3203125,-53.22265625,-0.48828125,0.0
6.86328125,43.45703125,-38.57421875,-27.83203125,-60.05859375,97.16796875,0.0
6.8671875,-52.734375,-46.38671875,-28.3203125,-13.18359375,77.1484375,0.0
6.87109375,-107.421875,-57.12890625,-30.76171875,-7.32421875,-15.625,0.0
6.875,-80.078125,-47.8515625,-37.59765625,-21.484375,27.34375,0.0
6.87890625,-45.8984375,-33.69140625,-37.59765625,-41.9921875,117.67578125,0.0
6.8828125,-28.80859375,-24.90234375,-27.83203125,-54.6875,123.046875,0.0
6.88671875,-27.34375,-18.5546875,-29.296875,-38.57421875,164.0625,0.0
6.890625,-41.9921875,-27.34375,-42.48046875,-35.64453125,150.87890625,0.0
6.89453125,-29.78515625,-36.62109375,-27.83203125,-29.296875,21.97265625,0.0
6.8984375,-69.82421875,-37.109375,-10.25390625,-42.48046875,-31.25,0.0
6.90234375,-100.5859375,-31.25,-10.7421875,-53.22265625,-21.484375,0.0
6.90625,-79.58984375,-41.015625,-16.11328125,-60.05859375,-32.2265625,0.0
6.91015625,-68.84765625,-44.43359375,-18.06640625,-76.66015625,20.99609375,0.0
6.9140625,-74.70703125,-39.0625,-11.23046875,-88.37890625,12.20703125,0.0
6.91796875,-104.98046875,-41.015625,-15.13671875,-105.95703125,-10.7421875,0.0
6.921875,-77.1484375,-30.76171875,-19.53125,-132.32421875,0.9765625,0.0
6.92578125,-67.3828125,-23.92578125,-30.2734375,-156.73828125,26.3671875,0.0
6.9296875,-91.30859375,-28.80859375,-42.96875,-169.43359375,31.73828125,0.0
6.93359375,-145.99609375,-33.69140625,-21.97265625,-168.45703125,-21.97265625,0.0
6.9375,-222.16796875,-26.85546875,-9.27734375,-148.4375,-0.9765625,0.0
6.94140625,-217.28515625,-18.06640625,-8.7890625,-169.43359375,52.734375,0.0
6.9453125,-194.3359375,-35.15625,-3.90625,-217.28515625,2.44140625,0.0
6.94921875,-184.08203125,-36.1328125,-18.06640625,-199.21875,-110.83984375,0.0
6.953125,-205.56640625,-67.3828125,-49.31640625,-166.9921875,-174.31640625,0.0
6.95703125,-189.453125,-83.984375,-60.546875,-174.31640625,-142.08984375,0.0
6.9609375,-146.484375,-65.91796875,-28.3203125,-174.31640625,-131.34765625,0.0
6.96484375,-165.0390625,-78.61328125,-43.45703125,-172.8515625,-111.81640625,0.0
6.96875,-161.1328125,-74.70703125,-58.10546875,-183.59375,-87.40234375,0.0
6.97265625,-132.8125,-32.71484375,10.25390625,-164.55078125,-42.48046875,0.0
6.9765625,-126.46484375,-62.01171875,26.3671875,-142.578125,-60.546875,0.0
6.98046875,-160.15625,-86.9140625,-7.32421875,-160.15625,-81.0546875,0.0
6.984375,-129.39453125,-56.640625,-28.80859375,-130.859375,22.94921875,0.0
6.98828125,-79.58984375,-77.1484375,-69.3359375,-118.65234375,90.8203125,0.0
6.9921875,-90.33203125,-77.1484375,-60.05859375,-136.23046875,96.6796875,0.0
6.99609375,-76.171875,-55.6640625,-25.390625,-127.44140625,14.6484375,0.0
7.0,-38.0859375,-49.8046875,-11.71875,-127.9296875,52.24609375,0.0
7.00390625,-16.11328125,-62.98828125,-7.8125,-120.60546875,94.7265625,0.0
7.0078125,4.39453125,-62.5,-15.13671875,-74.21875,-1.46484375,0.0
7.01171875,-10.25390625,-81.0546875,-19.04296875,-39.55078125,-82.03125,0.0
7.015625,-30.2734375,-84.9609375,7.32421875,-31.25,-54.6875,0.0
7.01953125,-4.39453125,-30.76171875,-6.34765625,-16.6015625,91.796875,0.0
7.0234375,-9.765625,-22.94921875,-7.8125,-1.46484375,159.1796875,0.0
7.02734375,-29.296875,-66.40625,39.55078125,0.0,99.12109375,0.0
7.03125,-21.97265625,-43.9453125,47.36328125,-9.765625,39.55078125,0.0
7.03515625,5.859375,-24.90234375,36.1328125,6.8359375,18.06640625,0.0
7.0390625,65.4296875,-30.2734375,-19.04296875,37.59765625,78.125,0.0
7.04296875,110.3515625,-33.69140625,-33.203125,37.109375,129.8828125,0.0
7.046875,109.375,-46.38671875,0.0,16.6015625,83.49609375,0.0
7.05078125,117.1875,-51.7578125,58.59375,25.87890625,10.7421875,0.0
7.0546875,109.375,-40.0390625,74.70703125,42.48046875,-31.25,0.0
7.05859375,106.93359375,-19.04296875,32.71484375,62.5,15.625,0.0
7.0625,139.6484375,-29.78515625,43.9453125,79.58984375,63.96484375,0.0
7.06640625,104.98046875,-42.96875,58.10546875,51.7578125,74.21875,0.0
7.0703125,59.08203125,-51.7578125,31.73828125,34.66796875,7.8125,0.0
7.07421875,19.53125,-18.5546875,-38.0859375,55.6640625,6.8359375,0.0
7.078125,62.5,26.85546875,-29.296875,79.58984375,-1.46484375,0.0
7.08203125,78.125,8.7890625,4.8828125,18.06640625,-52.24609375,0.0
7.0859375,19.53125,-3.41796875,-152.34375,-6.8359375,-78.125,0.0
7.08984375,0.0,-8.7890625,-399.4140625,21.484375,6.34765625,0.0
7.09375,13.18359375,-22.94921875,-538.0859375,40.0390625,26.3671875,0.0
7.09765625,57.12890625,-17.578125,-562.98828125,30.76171875,-47.36328125,0.0
7.1015625,98.14453125,-2.44140625,-540.0390625,25.390625,6.8359375,0.0
7.10546875,108.3984375,-5.859375,-522.94921875,24.4140625,-33.69140625,0.0
7.109375,57.6171875,-12.20703125,-504.39453125,33.69140625,-147.94921875,0.0
7.11328125,56.640625,-12.20703125,-397.94921875,49.8046875,-66.89453125,0.0
7.1171875,99.12109375,-10.7421875,-290.52734375,12.20703125,-6.8359375,0.0
7.12109375,107.421875,-6.34765625,-249.51171875,-0.9765625,-21.97265625,0.0
7.125,65.91796875,-3.90625,-219.7265625,12.6953125,9.765625,0.0
7.12890625,28.3203125,-16.6015625,-218.26171875,30.76171875,-73.2421875,0.0
7.1328125,4.8828125,-26.85546875,-216.30859375,36.1328125,-28.80859375,0.0
7.13671875,17.08984375,-18.06640625,-193.84765625,34.1796875,15.625,0.0
7.140625,33.69140625,-7.32421875,-181.15234375,41.9921875,-9.27734375,0.0
7.14453125,47.8515625,-1.953125,-184.5703125,21.97265625,16.11328125,0.0
7.1484375,62.01171875,-7.8125,-187.98828125,-8.30078125,34.66796875,0.0
7.15234375,50.78125,-6.8359375,-171.875,-28.3203125,-2.9296875,0.0
7.15625,12.6953125,-16.6015625,-187.98828125,-13.671875,-102.05078125,0.0
7.16015625,-24.4140625,-28.3203125,-285.15625,4.39453125,-72.265625,0.0
7.1640625,-40.52734375,-3.90625,-327.63671875,-12.6953125,46.875,0.0
7.16796875,-53.22265625,11.71875,-314.453125,-33.69140625,86.9140625,0.0
7.171875,-63.96484375,-20.99609375,-304.19921875,-13.18359375,19.53125,0.0
7.17578125,-169.921875,46.38671875,-304.19921875,-66.89453125,-33.69140625,0.0
7.1796875,-173.828125,-8.7890625,-272.94921875,-63.96484375,1.46484375,0.0
7.18359375,-4.39453125,-80.078125,-230.95703125,1.953125,-22.4609375,0.0
7.1875,-42.96875,8.7890625,-233.3984375,-43.9453125,-32.71484375,0.0
7.19140625,-139.16015625,-5.37109375,-240.234375,-17.578125,-40.52734375,0.0
7.1953125,-5.37109375,-69.3359375,-191.89453125,20.5078125,-37.59765625,0.0
7.19921875,83.984375,-51.7578125,2.9296875,6.8359375,-41.50390625,0.0
7.203125,89.84375,-48.33984375,147.4609375,42.96875,-44.921875,0.0
7.20703125,80.56640625,-47.8515625,170.8984375,47.36328125,5.859375,0.0
7.2109375,26.3671875,-34.66796875,189.94140625,0.0,-22.4609375,0.0
7.21484375,5.859375,-25.390625,204.58984375,-12.20703125,-113.76953125,0.0
7.21875,-7.8125,-18.06640625,210.44921875,-3.90625,-30.76171875,0.0
7.22265625,-42.96875,-25.87890625,214.84375,-10.7421875,32.2265625,0.0
7.2265625,-61.03515625,-32.71484375,203.61328125,-12.20703125,18.5546875,0.0
7.23046875,-22.94921875,-34.1796875,187.01171875,4.39453125,-4.39453125,0.0
7.234375,12.20703125,-32.2265625,182.12890625,-23.92578125,-28.3203125,0.0
7.23828125,39.55078125,-20.01953125,180.6640625,-41.50390625,30.76171875,0.0
7.2421875,26.85546875,-18.5546875,190.4296875,-12.20703125,53.22265625,0.0
7.24609375,-22.94921875,-23.4375,190.91796875,1.953125,74.21875,0.0
7.25,6.8359375,-24.4140625,188.4765625,5.859375,110.3515625,0.0
7.25390625,20.5078125,-30.2734375,190.4296875,31.25,17.08984375,0.0
7.2578125,-29.296875,-27.83203125,168.9453125,12.20703125,-109.86328125,0.0
7.26171875,7.8125,-19.53125,146.484375,-7.8125,-134.27734375,0.0
7.265625,35.64453125,-18.06640625,149.90234375,-4.8828125,-11.71875,0.0
7.26953125,14.16015625,-32.2265625,145.99609375,-15.13671875,40.0390625,0.0
7.2734375,4.39453125,-38.0859375,132.8125,-11.23046875,-29.78515625,0.0
7.27734375,0.48828125,-29.296875,125.48828125,23.92578125,-42.96875,0.0
7.28125,-9.765625,-21.484375,120.1171875,20.5078125,-41.50390625,0.0
7.28515625,4.8828125,-24.4140625,117.1875,8.30078125,1.953125,0.0
7.2890625,11.23046875,-33.69140625,101.07421875,32.2265625,17.08984375,0.0
7.29296875,40.0390625,-32.2265625,85.9375,1.953125,-18.5546875,0.0
7.296875,39.55078125,-29.296875,92.7734375,-13.671875,-22.4609375,0.0
7.30078125,-10.25390625,-33.203125,86.9140625,-14.16015625,-49.8046875,0.0
7.3046875,-24.4140625,-34.66796875,73.73046875,-18.5546875,6.34765625,0.0
7.30859375,33.203125,-32.71484375,68.84765625,52.734375,85.9375,0.0
7.3125,-9.27734375,-34.1796875,68.84765625,10.7421875,41.9921875,0.0
7.31640625,-69.82421875,-38.0859375,65.4296875,-67.87109375,15.13671875,0.0
7.3203125,-72.265625,-46.38671875,53.7109375,-9.27734375,-96.6796875,0.0
7.32421875,-114.74609375,-49.31640625,41.9921875,15.625,-85.9375,0.0
7.328125,-132.32421875,-48.33984375,43.9453125,-61.5234375,-111.81640625,0.0
7.33203125,-98.14453125,-42.48046875,65.4296875,-77.63671875,-240.72265625,0.0
7.3359375,-84.9609375,-42.96875,71.77734375,-55.6640625,-211.9140625,0.0
7.33984375,-84.47265625,-37.59765625,65.4296875,-51.26953125,-207.03125,0.0
7.34375,-29.296875,-49.8046875,74.70703125,-38.57421875,-218.75,0.0
7.34765625,-15.13671875,-17.08984375,60.05859375,-81.0546875,-47.36328125,0.0
7.3515625,-25.390625,36.62109375,37.109375,-81.0546875,56.640625,0.0
7.35546875,15.625,-39.0625,61.03515625,-31.73828125,12.6953125,0.0
7.359375,4.8828125,-58.10546875,64.453125,-21.484375,97.16796875,0.0
7.36328125,-58.59375,-44.43359375,51.26953125,-21.97265625,119.62890625,0.0
7.3671875,-78.61328125,-56.640625,56.15234375,-49.31640625,55.17578125,0.0
7.37109375,-57.12890625,-49.8046875,57.12890625,-49.8046875,-18.06640625,0.0
7.375,-28.3203125,-45.41015625,53.22265625,-36.1328125,2.44140625,0.0
7.37890625,-43.9453125,-47.8515625,52.24609375,-21.97265625,-6.8359375,0.0
7.3828125,-77.63671875,-38.0859375,55.6640625,-4.8828125,-2.9296875,0.0
7.38671875,-84.47265625,-47.36328125,48.828125,-5.37109375,-9.765625,0.0
7.390625,-52.734375,-60.05859375,46.38671875,1.953125,-37.109375,0.0
7.39453125,-6.34765625,-55.6640625,29.296875,-15.625,63.4765625,0.0
7.3984375,-5.37109375,-50.29296875,26.3671875,-29.296875,112.79296875,0.0
7.40234375,-37.109375,-40.52734375,35.64453125,-49.31640625,36.1328125,0.0
7.40625,-26.85546875,-39.55078125,33.203125,-57.6171875,-43.9453125,0.0
7.41015625,-1.953125,-43.9453125,27.34375,-23.92578125,-11.23046875,0.0
7.4140625,-30.2734375,-50.29296875,18.06640625,-22.4609375,-40.0390625,0.0
7.41796875,-45.8984375,-50.78125,21.484375,-29.78515625,-41.015625,0.0
7.421875,13.18359375,-49.8046875,25.87890625,-6.34765625,51.26953125,0.0
7.42578125,48.828125,-54.19921875,12.20703125,0.48828125,72.265625,0.0
7.4296875,-28.80859375,-50.29296875,-1.46484375,-21.484375,59.08203125,0.0
7.43359375,-60.546875,-44.43359375,-1.46484375,-57.12890625,75.68359375,0.0
7.4375,13.671875,-38.57421875,-1.953125,-50.78125,35.64453125,0.0
7.44140625,24.90234375,-36.62109375,5.37109375,-36.1328125,-50.78125,0.0
7.4453125,-20.01953125,-43.9453125,2.44140625,-46.38671875,-38.57421875,0.0
7.44921875,-40.0390625,-41.9921875,-10.25390625,-51.26953125,-18.06640625,0.0
7.453125,-29.296875,-44.921875,-10.25390625,-43.9453125,-83.984375,0.0
7.45703125,-29.78515625,-38.0859375,0.0,-34.1796875,-74.21875,0.0
7.4609375,-48.33984375,-38.0859375,2.9296875,-70.3125,-48.33984375,0.0
7.46484375,-12.20703125,-35.15625,-5.859375,-44.43359375,-32.2265625,0.0
7.46875,12.20703125,-36.1328125,-20.99609375,-38.57421875,-28.80859375,0.0
7.47265625,-20.01953125,-56.15234375,-14.6484375,-41.50390625,-54.6875,0.0
7.4765625,-51.7578125,-59.08203125,-11.23046875,-22.94921875,-51.7578125,0.0
7.48046875,-16.6015625,-43.45703125,-18.06640625,-41.015625,21.97265625,0.0
7.484375,35.15625,-29.78515625,-23.4375,-42.48046875,101.07421875,0.0
7.48828125,22.94921875,-35.15625,-27.83203125,-56.640625,103.515625,0.0
7.4921875,-35.15625,-49.31640625,-14.6484375,-28.3203125,14.16015625,0.0
7.49609375,-91.30859375,-49.31640625,-5.859375,-25.390625,-35.64453125,0.0
7.5,-98.6328125,-37.59765625,-3.41796875,-50.78125,-41.9921875,0.0
7.50390625,-46.875,-26.85546875,-11.71875,-37.59765625,-98.14453125,0.0
7.5078125,-13.671875,-41.9921875,-8.7890625,-1.46484375,-91.796875,0.0
7.51171875,-36.1328125,-52.24609375,-0.48828125,-6.8359375,-9.765625,0.0
7.515625,-33.203125,-38.0859375,-4.8828125,-37.109375,33.203125,0.0
7.51953125,0.48828125,-30.76171875,-1.953125,-11.23046875,-22.4609375,0.0
7.5234375,-21.484375,-34.66796875,-7.32421875,-11.23046875,-139.6484375,0.0
7.52734375,-51.7578125,-48.828125,-32.71484375,-50.78125,-171.875,0.0
7.53125,-42.48046875,-59.08203125,-33.203125,-32.2265625,-190.91796875,0.0
7.53515625,-48.828125,-51.26953125,-8.7890625,-17.08984375,-141.11328125,0.0
7.5390625,-36.1328125,-46.38671875,-7.8125,-24.90234375,-70.80078125,0.0
7.54296875,1.46484375,-37.109375,-7.32421875,-16.6015625,-90.8203125,0.0
7.546875,-43.9453125,-41.50390625,-25.87890625,-31.25,-101.5625,0.0
7.55078125,-83.49609375,-57.12890625,-37.59765625,-30.2734375,-124.51171875,0.0
7.5546875,-25.87890625,-38.57421875,-14.16015625,-13.18359375,-171.875,0.0
7.55859375,-6.34765625,-29.296875,-20.01953125,-69.3359375,-155.76171875,0.0
7.5625,-67.87109375,-47.36328125,-49.8046875,-104.00390625,-37.109375,0.0
7.56640625,-109.86328125,-55.17578125,-49.8046875,-82.51953125,47.36328125,0.0
7.5703125,-74.70703125,-42.48046875,-14.16015625,-40.0390625,-55.17578125,0.0
7.57421875,-40.0390625,-41.015625,12.20703125,-8.7890625,-45.41015625,0.0
7.578125,-45.41015625,-47.8515625,-1.953125,-31.25,53.22265625,0.0
7.58203125,-33.69140625,-38.57421875,-13.671875,-52.734375,62.01171875,0.0
7.5859375,-52.24609375,-43.45703125,-16.11328125,-52.24609375,171.38671875,0.0
7.58984375,-96.6796875,-41.9921875,-28.3203125,-57.12890625,205.56640625,0.0
7.59375,-81.54296875,-51.26953125,-33.69140625,-64.94140625,105.46875,0.0
7.59765625,-75.1953125,-44.921875,-25.390625,-63.96484375,54.19921875,0.0
7.6015625,-35.64453125,-33.203125,-34.66796875,-88.37890625,45.41015625,0.0
7.60546875,9.27734375,-46.875,-36.62109375,-46.875,73.73046875,0.0
7.609375,-68.84765625,-66.89453125,-43.45703125,-60.546875,78.125,0.0
7.61328125,-169.921875,-48.828125,-34.66796875,-127.9296875,105.95703125,0.0
7.6171875,-162.59765625,-21.484375,-6.8359375,-68.84765625,140.13671875,0.0
7.62109375,-87.890625,-30.2734375,-21.484375,-19.04296875,85.44921875,0.0
7.625,-15.13671875,-30.2734375,-31.73828125,-32.71484375,45.8984375,0.0
7.62890625,-6.8359375,-39.55078125,-30.76171875,-62.01171875,15.13671875,0.0
7.6328125,-50.29296875,-38.0859375,-42.96875,-39.0625,-31.73828125,0.0
7.63671875,-103.515625,-10.25390625,-23.4375,-57.12890625,-9.27734375,0.0
7.640625,-12.6953125,-40.0390625,-16.6015625,-41.9921875,-11.23046875,0.0
7.64453125,19.53125,-48.33984375,-10.7421875,4.39453125,-31.25,0.0
7.6484375,-59.08203125,-11.23046875,-15.13671875,-73.73046875,-15.625,0.0
7.65234375,-1.953125,-36.1328125,-37.59765625,-23.4375,-18.5546875,0.0
7.65625,48.828125,-48.828125,-39.55078125,48.828125,-37.59765625,0.0
7.66015625,50.29296875,-37.59765625,-41.9921875,42.48046875,-55.17578125,0.0
7.6640625,-3.90625,-45.8984375,-44.43359375,41.9921875,-7.32421875,0.0
7.66796875,5.37109375,-39.55078125,-66.40625,22.94921875,7.32421875,0.0
7.671875,10.25390625,-35.64453125,-84.47265625,8.7890625,-43.9453125,0.0
7.67578125,8.30078125,-30.2734375,-71.2890625,20.5078125,-21.97265625,0.0
7.6796875,12.20703125,-26.3671875,-57.12890625,33.203125,-25.390625,0.0
7.68359375,-20.01953125,-35.15625,-52.24609375,26.85546875,-28.3203125,0.0
7.6875,4.8828125,-36.62109375,-45.41015625,43.45703125,32.2265625,0.0
7.69140625,28.80859375,-31.25,-51.7578125,53.7109375,109.86328125,0.0
7.6953125,17.578125,-15.13671875,-62.5,15.625,45.8984375,0.0
7.69921875,11.23046875,-7.8125,-51.26953125,6.34765625,-41.015625,0.0
7.703125,9.27734375,-16.6015625,-43.45703125,33.69140625,12.20703125,0.0
7.70703125,12.20703125,-15.13671875,-49.8046875,27.34375,41.50390625,0.0
7.7109375,-7.32421875,-21.97265625,-49.8046875,3.90625,-24.90234375,0.0
7.71484375,-22.94921875,-33.69140625,-51.7578125,26.85546875,-65.91796875,0.0
7.71875,3.90625,-33.69140625,-52.24609375,34.66796875,-6.34765625,0.0
7.72265625,13.18359375,-12.20703125,-46.38671875,8.30078125,11.71875,0.0
7.7265625,19.04296875,-9.27734375,-51.7578125,-12.6953125,-31.73828125,0.0
7.73046875,25.87890625,-29.78515625,-53.7109375,-6.34765625,14.16015625,0.0
7.734375,26.85546875,-25.390625,-52.734375,20.99609375,54.19921875,0.0
7.73828125,18.06640625,-13.671875,-57.6171875,22.4609375,-19.04296875,0.0
7.7421875,14.6484375,-18.06640625,-53.7109375,6.8359375,-93.26171875,0.0
7.74609375,-14.16015625,-19.53125,-54.19921875,-5.37109375,-42.96875,0.0
7.75,-57.12890625,-27.83203125,-65.4296875,-14.6484375,66.89453125,0.0
7.75390625,-58.10546875,-36.1328125,-65.4296875,-2.9296875,32.2265625,0.0
7.7578125,-59.08203125,-31.73828125,-49.8046875,15.13671875,26.3671875,0.0
7.76171875,-44.43359375,-33.203125,-47.36328125,25.87890625,34.66796875,0.0
7.765625,-20.01953125,-26.3671875,-50.78125,-1.953125,-29.296875,0.0
7.76953125,-21.484375,-35.15625,-54.19921875,-27.83203125,-24.4140625,0.0
7.7734375,-15.13671875,-31.73828125,-54.6875,-29.296875,-30.76171875,0.0
7.77734375,-8.30078125,-20.01953125,-41.50390625,0.48828125,-15.13671875,0.0
7.78125,-32.71484375,-23.4375,-38.57421875,-11.71875,-45.8984375,0.0
7.78515625,-58.10546875,-33.203125,-48.33984375,-18.5546875,-62.98828125,0.0
7.7890625,-48.33984375,-31.25,-64.453125,-8.7890625,9.765625,0.0
7.79296875,-20.5078125,-16.6015625,-61.5234375,0.48828125,9.27734375,0.0
7.796875,-4.39453125,-22.94921875,-49.31640625,-3.41796875,34.1796875,0.0
7.80078125,-16.11328125,-38.57421875,-43.45703125,-17.08984375,42.48046875,0.0
7.8046875,-34.66796875,-39.55078125,-41.50390625,-5.859375,-75.68359375,0.0
7.80859375,-17.08984375,-36.1328125,-53.22265625,-42.96875,-22.94921875,0.0
7.8125,14.6484375,-35.64453125,-71.2890625,-38.0859375,-0.48828125,0.0
7.81640625,3.41796875,-27.83203125,-73.73046875,1.46484375,-89.35546875,0.0
7.8203125,-46.38671875,-19.53125,-78.61328125,-19.53125,-90.8203125,0.0
7.82421875,-0.9765625,-20.5078125,-80.56640625,-12.6953125,-78.61328125,0.0
7.828125,8.7890625,-27.34375,-80.078125,-15.625,-42.96875,0.0
7.83203125,-99.12109375,-45.8984375,-87.40234375,-32.2265625,24.90234375,0.0
7.8359375,-109.375,-41.015625,-81.0546875,-36.62109375,-22.94921875,0.0
7.83984375,-63.4765625,-26.3671875,-71.77734375,-36.1328125,-43.9453125,0.0
7.84375,-69.82421875,-33.69140625,-74.70703125,-34.1796875,5.859375,0.0
7.84765625,-73.73046875,-35.64453125,-77.1484375,-52.24609375,41.50390625,0.0
7.8515625,-56.640625,-37.109375,-90.8203125,-42.96875,5.859375,0.0
7.85546875,-39.0625,-37.109375,-83.984375,-30.2734375,-49.8046875,0.0
7.859375,-39.0625,-35.64453125,-64.94140625,-40.52734375,42.96875,0.0
7.86328125,-27.34375,-40.0390625,-62.5,-29.296875,78.61328125,0.0
7.8671875,-12.20703125,-44.43359375,-65.4296875,-37.59765625,-4.39453125,0.0
7.87109375,-9.27734375,-39.0625,-68.359375,-51.7578125,-47.36328125,0.0
7.875,-31.73828125,-40.0390625,-65.4296875,-61.5234375,2.44140625,0.0
7.87890625,-78.61328125,-50.78125,-55.17578125,-46.875,36.1328125,0.0
7.8828125,-116.69921875,-48.828125,-44.921875,-49.8046875,3.90625,0.0
7.88671875,-93.75,-46.38671875,-42.96875,-33.203125,-17.08984375,0.0
7.890625,-40.52734375,-36.1328125,-47.8515625,-22.4609375,-29.78515625,0.0
7.89453125,0.48828125,-24.90234375,-44.921875,-55.6640625,1.46484375,0.0
7.8984375,30.2734375,-20.5078125,-44.43359375,-70.3125,-1.953125,0.0
7.90234375,-27.34375,-21.97265625,-45.41015625,-60.546875,-39.0625,0.0
7.90625,-103.515625,-49.8046875,-41.9921875,-41.015625,-45.8984375,0.0
7.91015625,-113.28125,-70.3125,-40.52734375,-17.08984375,-39.55078125,0.0
7.9140625,-89.35546875,-47.8515625,-41.9921875,-40.52734375,-9.27734375,0.0
7.91796875,-81.0546875,-24.4140625,-36.1328125,-59.08203125,-75.68359375,0.0
7.921875,-93.75,-31.73828125,-28.3203125,-47.36328125,-54.19921875,0.0
7.92578125,-83.0078125,-44.43359375,-30.2734375,-54.19921875,58.59375,0.0
7.9296875,-57.12890625,-40.0390625,-41.9921875,-60.546875,69.3359375,0.0
7.93359375,-45.8984375,-36.62109375,-46.38671875,-67.3828125,-46.38671875,0.0
7.9375,-14.16015625,-33.203125,-41.015625,-52.24609375,-38.57421875,0.0
7.94140625,-20.5078125,-32.2265625,-18.06640625,-68.359375,16.11328125,0.0
7.9453125,-35.15625,-32.2265625,-20.99609375,-34.66796875,9.27734375,0.0
7.94921875,-29.296875,-33.203125,-34.66796875,-20.99609375,2.9296875,0.0
7.953125,-95.703125,-41.9921875,-13.671875,-55.6640625,-64.94140625,0.0
7.95703125,-143.5546875,-33.69140625,-16.11328125,-45.41015625,-103.02734375,0.0
7.9609375,-75.1953125,-29.296875,-29.78515625,-12.6953125,-72.75390625,0.0
7.96484375,-65.91796875,-39.0625,-21.97265625,-29.78515625,-58.59375,0.0
7.96875,-91.796875,-36.62109375,-36.1328125,-62.01171875,-112.79296875,0.0
7.97265625,-67.3828125,-30.76171875,-40.52734375,-26.85546875,-111.81640625,0.0
7.9765625,-61.03515625,-34.1796875,-22.4609375,21.97265625,-48.828125,0.0
7.98046875,-85.9375,-39.55078125,-9.27734375,-7.32421875,57.12890625,0.0
7.984375,-52.24609375,-27.34375,-38.0859375,-41.9921875,55.6640625,0.0
7.98828125,3.41796875,-34.66796875,-55.6640625,-17.578125,4.39453125,0.0
7.9921875,15.625,-35.15625,-43.9453125,4.8828125,20.5078125,0.0
7.99609375,-17.578125,-36.62109375,-43.45703125,-35.15625,50.29296875,0.0
8.0,-41.9921875,-46.875,-27.34375,-15.625,92.28515625,0.0
8.00390625,-33.69140625,-37.109375,-36.62109375,-23.4375,82.03125,0.0
8.0078125,-5.37109375,-27.83203125,-64.453125,-31.73828125,9.765625,0.0
8.01171875,25.390625,-30.76171875,-55.6640625,-16.11328125,-60.05859375,0.0
8.015625,35.64453125,-32.2265625,-36.1328125,-21.484375,-60.05859375,0.0
8.01953125,3.41796875,-31.25,-25.87890625,0.48828125,-26.85546875,0.0
8.0234375,-52.734375,-34.1796875,-12.6953125,22.94921875,-16.11328125,0.0
8.02734375,-57.6171875,-30.76171875,-19.04296875,2.44140625,-82.51953125,0.0
8.03125,-46.875,-33.203125,-32.71484375,3.41796875,-76.66015625,0.0
8.03515625,-30.2734375,-29.78515625,-29.78515625,-2.44140625,-0.48828125,0.0
8.0390625,-23.92578125,-32.71484375,-23.92578125,-8.7890625,7.32421875,0.0
8.04296875,-21.484375,-42.96875,-22.4609375,21.97265625,-34.66796875,0.0
8.046875,-34.1796875,-35.15625,-28.3203125,24.4140625,0.0,0.0
8.05078125,-40.0390625,-42.96875,-40.52734375,-3.41796875,-23.4375,0.0
8.0546875,0.48828125,-45.41015625,-31.73828125,18.06640625,-129.8828125,0.0
8.05859375,18.06640625,-26.85546875,-11.71875,42.96875,-113.28125,0.0
8.0625,28.3203125,-18.06640625,-19.04296875,1.953125,-45.41015625,0.0
8.06640625,9.765625,-21.484375,-32.71484375,0.9765625,-58.59375,0.0
8.0703125,-34.1796875,-35.15625,-29.78515625,-3.41796875,-18.06640625,0.0
8.07421875,-36.1328125,-27.34375,-35.64453125,-46.38671875,95.21484375,0.0
8.078125,-40.0390625,-32.2265625,-35.64453125,-41.9921875,55.6640625,0.0
8.08203125,-45.8984375,-37.59765625,-29.296875,-10.25390625,62.01171875,0.0
8.0859375,-21.97265625,-31.25,-32.71484375,4.39453125,134.765625,0.0
8.08984375,-7.8125,-35.64453125,-47.36328125,-36.1328125,53.22265625,0.0
8.09375,-22.94921875,-42.48046875,-46.875,-63.96484375,-29.296875,0.0
8.09765625,-46.875,-48.33984375,-30.2734375,-30.76171875,-32.71484375,0.0
8.1015625,-100.5859375,-49.31640625,-34.1796875,-50.29296875,23.4375,0.0
8.10546875,-56.640625,-43.9453125,-36.1328125,-82.51953125,35.15625,0.0
8.109375,-25.87890625,-44.43359375,-34.1796875,-53.7109375,-23.4375,0.0
8.11328125,-67.87109375,-47.36328125,-38.57421875,-53.22265625,-78.61328125,0.0
8.1171875,-39.0625,-54.19921875,-16.11328125,6.34765625,-28.80859375,0.0
8.12109375,-30.76171875,-42.48046875,-17.08984375,3.90625,24.4140625,0.0
8.125,-28.80859375,-29.78515625,-46.875,-103.02734375,-47.8515625,0.0
8.12890625,4.8828125,-31.73828125,-24.90234375,-47.8515625,-93.26171875,0.0
8.1328125,0.0,-28.80859375,-19.53125,-21.97265625,-124.51171875,0.0
8.13671875,-1.46484375,-24.4140625,-14.16015625,-31.73828125,-87.890625,0.0
8.140625,-5.37109375,-25.390625,8.7890625,2.9296875,16.11328125,0.0
8.14453125,-13.671875,-37.59765625,-7.32421875,-10.7421875,2.9296875,0.0
8.1484375,-38.57421875,-41.50390625,-21.97265625,-16.11328125,-49.31640625,0.0
8.15234375,-45.8984375,-38.0859375,-15.13671875,-17.578125,-104.4921875,0.0
8.15625,-51.26953125,-38.0859375,-17.08984375,-21.97265625,-84.47265625,0.0
8.16015625,-47.36328125,-42.48046875,-16.11328125,-8.30078125,-58.10546875,0.0
8.1640625,-44.921875,-42.96875,-18.5546875,-54.19921875,-36.1328125,0.0
8.16796875,-51.26953125,-32.71484375,-20.01953125,-38.57421875,49.31640625,0.0
8.171875,-63.96484375,-29.296875,-20.5078125,-20.99609375,58.10546875,0.0
8.17578125,-53.7109375,-35.15625,-15.13671875,-17.578125,10.25390625,0.0
8.1796875,-46.38671875,-31.73828125,-9.27734375,-11.23046875,66.89453125,0.0
8.18359375,-56.640625,-33.203125,-39.55078125,-57.6171875,52.734375,0.0
8.1875,-4.8828125,-29.296875,-55.17578125,-71.77734375,-11.23046875,0.0
8.19140625,8.7890625,-26.85546875,-33.203125,-28.80859375,-10.7421875,0.0
8.1953125,37.59765625,-26.85546875,-27.83203125,-8.30078125,-38.0859375,0.0
8.19921875,74.21875,-16.11328125,-31.73828125,1.46484375,31.73828125,0.0
8.203125,-1.953125,-13.671875,-23.4375,2.44140625,39.55078125,0.0
8.20703125,-70.3125,-19.04296875,-38.57421875,-20.5078125,30.76171875,0.0
8.2109375,-34.66796875,-24.90234375,-59.5703125,-37.59765625,40.52734375,0.0
8.21484375,-23.4375,-28.80859375,-56.640625,-32.71484375,-23.92578125,0.0
8.21875,-35.15625,-26.85546875,-52.734375,-8.7890625,-86.9140625,0.0
8.22265625,-42.96875,-36.62109375,-36.1328125,15.625,-55.6640625,0.0
8.2265625,-48.33984375,-41.9921875,-35.64453125,-3.41796875,-82.03125,0.0
8.23046875,8.7890625,-32.2265625,-57.12890625,-38.57421875,-48.828125,0.0
8.234375,22.4609375,-40.0390625,-63.96484375,-59.5703125,58.59375,0.0
8.23828125,10.7421875,-35.15625,-57.12890625,-44.921875,59.5703125,0.0
8.2421875,-29.296875,-30.2734375,-50.29296875,-20.99609375,33.69140625,0.0
8.24609375,-56.640625,-47.8515625,-42.48046875,-3.41796875,18.06640625,0.0
8.25,-7.8125,-43.9453125,-58.10546875,-48.33984375,-96.6796875,0.0
8.25390625,-5.37109375,-36.1328125,-61.5234375,-95.703125,-137.6953125,0.0
8.2578125,-48.33984375,-46.875,-37.59765625,-45.8984375,-70.80078125,0.0
8.26171875,-61.03515625,-49.31640625,-34.1796875,-41.50390625,-44.921875,0.0
8.265625,-36.62109375,-38.57421875,-30.2734375,-37.109375,-100.5859375,0.0
8.26953125,-44.43359375,-38.0859375,-37.59765625,6.8359375,-72.75390625,0.0
8.2734375,-49.31640625,-40.0390625,-54.6875,-37.59765625,-43.45703125,0.0
8.27734375,-11.71875,-38.0859375,-49.8046875,-55.6640625,-106.93359375,0.0
8.28125,2.9296875,-34.66796875,-34.1796875,-7.8125,-77.1484375,0.0
8.28515625,-12.20703125,-30.76171875,-35.64453125,-20.99609375,62.01171875,0.0
8.2890625,-41.015625,-39.0625,-34.66796875,-27.83203125,0.9765625,0.0
8.29296875,-4.39453125,-36.62109375,-34.1796875,-26.85546875,-16.11328125,0.0
8.296875,9.27734375,-27.83203125,-32.2265625,-45.41015625,-8.7890625,0.0
8.30078125,-23.4375,-35.64453125,-21.97265625,-20.01953125,24.4140625,0.0
8.3046875,-47.8515625,-41.9921875,-32.2265625,-26.85546875,0.9765625,0.0
8.30859375,7.32421875,-36.62109375,-42.96875,-33.69140625,-42.96875,0.0
8.3125,-1.46484375,-40.52734375,-40.0390625,-20.01953125,-55.17578125,0.0
8.31640625,-83.49609375,-47.36328125,-31.25,-37.109375,-139.6484375,0.0
8.3203125,-69.82421875,-32.2265625,-29.296875,-56.15234375,-67.87109375,0.0
8.32421875,-21.97265625,-23.4375,-30.76171875,-27.34375,-3.90625,0.0
8.328125,-22.94921875,-34.1796875,-34.1796875,-31.73828125,-11.71875,0.0
8.33203125,-48.828125,-41.50390625,-41.50390625,-43.9453125,-20.99609375,0.0
8.3359375,-36.1328125,-43.9453125,-34.66796875,-29.78515625,-87.40234375,0.0
8.33984375,-40.0390625,-35.15625,-26.3671875,-37.59765625,-10.7421875,0.0
8.34375,-62.98828125,-20.99609375,-37.109375,-61.03515625,115.72265625,0.0
8.34765625,-41.9921875,-37.109375,-37.109375,-54.19921875,89.84375,0.0
8.3515625,-14.6484375,-49.31640625,-37.59765625,-69.82421875,-1.953125,0.0
8.35546875,-34.1796875,-40.0390625,-32.71484375,-59.5703125,48.33984375,0.0
8.359375,-56.15234375,-33.203125,-23.4375,-41.015625,92.7734375,0.0
8.36328125,-36.62109375,-31.73828125,-26.3671875,-63.96484375,70.3125,0.0
8.3671875,-3.41796875,-37.109375,-35.15625,-53.22265625,47.36328125,0.0
8.37109375,-27.83203125,-37.59765625,-41.015625,-36.1328125,-25.390625,0.0
8.375,-102.5390625,-43.9453125,-33.203125,-38.57421875,-25.87890625,0.0
8.37890625,-85.44921875,-49.8046875,-23.92578125,-44.43359375,-9.765625,0.0
8.3828125,-57.6171875,-41.50390625,-32.71484375,-45.8984375,12.6953125,0.0
8.38671875,-73.73046875,-49.31640625,-34.1796875,-48.828125,45.41015625,0.0
8.390625,-51.7578125,-58.10546875,-28.80859375,-45.41015625,20.99609375,0.0
8.39453125,-55.6640625,-49.8046875,-26.85546875,-58.10546875,-25.390625,0.0
8.3984375,-84.9609375,-36.62109375,-20.5078125,-105.95703125,-37.59765625,0.0
8.40234375,-72.75390625,-52.24609375,3.41796875,-79.58984375,-7.32421875,0.0
8.40625,-14.6484375,-50.29296875,-14.6484375,-21.97265625,9.27734375,0.0
8.41015625,-21.97265625,-32.71484375,-34.66796875,-38.0859375,-28.80859375,0.0
8.4140625,-88.8671875,-31.73828125,-16.11328125,-87.890625,2.44140625,0.0
8.41796875,-81.0546875,-38.0859375,-17.08984375,-79.58984375,27.83203125,0.0
8.421875,-63.4765625,-33.203125,-24.4140625,-21.484375,53.22265625,0.0
8.42578125,-89.84375,-22.4609375,-31.25,-57.12890625,118.1640625,0.0
8.4296875,-34.1796875,-34.66796875,-46.875,-9.27734375,128.41796875,0.0
8.43359375,-0.48828125,-54.6875,-30.76171875,60.05859375,20.5078125,0.0
8.4375,10.25390625,-45.8984375,-14.16015625,-5.37109375,-41.015625,0.0
8.44140625,46.875,-24.90234375,-26.3671875,-7.8125,-96.6796875,0.0
8.4453125,12.6953125,-31.73828125,-30.2734375,14.16015625,-112.3046875,0.0
8.44921875,-26.85546875,-34.66796875,-26.85546875,-22.4609375,-74.70703125,0.0
8.453125,-16.11328125,-34.1796875,-29.78515625,-8.7890625,-58.59375,0.0
8.45703125,17.578125,-29.296875,-24.4140625,22.94921875,-14.6484375,0.0
8.4609375,-8.7890625,-29.296875,-18.06640625,11.23046875,-79.58984375,0.0
8.46484375,-43.9453125,-21.484375,-23.92578125,47.36328125,-104.4921875,0.0
8.46875,-28.80859375,-26.3671875,-22.4609375,31.73828125,-57.6171875,0.0
8.47265625,-2.44140625,-41.50390625,-19.53125,-6.8359375,-62.5,0.0
8.4765625,3.41796875,-33.203125,-25.87890625,2.9296875,-33.203125,0.0
8.48046875,-19.04296875,-19.04296875,-25.390625,7.32421875,70.80078125,0.0
8.484375,-47.8515625,-20.99609375,-26.85546875,-4.39453125,114.74609375,0.0
8.48828125,-36.62109375,-36.1328125,-32.71484375,-3.41796875,122.55859375,0.0
8.4921875,-17.08984375,-34.1796875,-37.109375,-24.4140625,116.69921875,0.0
8.49609375,-2.9296875,-33.203125,-33.69140625,-23.92578125,-5.859375,0.0
8.5,12.6953125,-31.73828125,-28.80859375,9.765625,-34.1796875,0.0
8.50390625,39.55078125,-21.97265625,-30.2734375,23.92578125,3.41796875,0.0
8.5078125,14.16015625,-20.99609375,-38.0859375,12.6953125,-18.06640625,0.0
8.51171875,-23.92578125,-20.5078125,-44.921875,0.0,-49.31640625,0.0
8.515625,-29.78515625,-24.4140625,-35.64453125,16.11328125,-97.65625,0.0
8.51953125,-11.71875,-29.296875,-21.97265625,9.27734375,-67.3828125,0.0
8.5234375,11.71875,-24.90234375,-21.97265625,-5.859375,-74.21875,0.0
8.52734375,15.13671875,-19.53125,-33.203125,-3.41796875,-182.6171875,0.0
8.53125,1.46484375,-16.6015625,-39.0625,4.8828125,-102.05078125,0.0
8.53515625,-15.625,-18.5546875,-39.55078125,-8.7890625,-28.80859375,0.0
8.5390625,14.6484375,-12.6953125,-36.62109375,-15.625,-28.3203125,0.0
8.54296875,48.33984375,-17.578125,-32.2265625,3.90625,13.671875,0.0
8.546875,20.01953125,-33.203125,-41.9921875,8.7890625,17.578125,0.0
8.55078125,7.32421875,-35.64453125,-42.48046875,4.39453125,0.48828125,0.0
8.5546875,-20.01953125,-28.80859375,-38.57421875,5.859375,-38.57421875,0.0
8.55859375,-51.26953125,-27.83203125,-47.36328125,-13.671875,-59.08203125,0.0
8.5625,-45.8984375,-23.4375,-53.7109375,-44.43359375,-30.2734375,0.0
8.56640625,-32.2265625,-28.3203125,-57.12890625,-45.41015625,-4.39453125,0.0
8.5703125,-35.64453125,-40.52734375,-58.59375,-19.53125,-24.90234375,0.0
8.57421875,-53.22265625,-37.109375,-51.26953125,-18.5546875,-127.44140625,0.0
8.578125,-34.66796875,-30.2734375,-50.29296875,-33.69140625,-84.47265625,0.0
8.58203125,3.41796875,-30.2734375,-51.26953125,-24.90234375,45.8984375,0.0
8.5859375,-16.11328125,-30.2734375,-51.26953125,-8.7890625,106.4453125,0.0
8.58984375,-48.828125,-35.15625,-55.17578125,-15.625,109.375,0.0
8.59375,-8.30078125,-38.0859375,-59.08203125,-33.203125,54.6875,0.0
8.59765625,19.53125,-30.2734375,-49.31640625,-30.76171875,83.49609375,0.0
8.6015625,-20.99609375,-28.3203125,-43.45703125,-19.04296875,126.953125,0.0
8.60546875,-64.453125,-31.25,-50.78125,-19.04296875,53.22265625,0.0
8.609375,-43.9453125,-34.66796875,-55.6640625,-52.734375,-90.33203125,0.0
8.61328125,-0.48828125,-40.52734375,-55.17578125,-45.41015625,-136.23046875,0.0
8.6171875,7.32421875,-32.71484375,-55.6640625,-36.1328125,-62.01171875,0.0
8.62109375,3.90625,-22.94921875,-46.38671875,-62.5,-15.625,0.0
8.625,-13.18359375,-26.3671875,-46.38671875,-56.15234375,-6.8359375,0.0
8.62890625,-1.46484375,-34.66796875,-45.8984375,-26.3671875,30.76171875,0.0
8.6328125,19.53125,-42.48046875,-37.109375,-26.85546875,44.921875,0.0
8.63671875,-33.203125,-40.0390625,-32.2265625,-44.43359375,-10.25390625,0.0
8.640625,-42.48046875,-33.69140625,-33.203125,-40.0390625,-64.453125,0.0
8.64453125,-23.4375,-44.921875,-28.80859375,-17.578125,-47.36328125,0.0
8.6484375,-20.99609375,-41.50390625,-34.1796875,-1.953125,23.4375,0.0
8.65234375,-34.66796875,-48.828125,-40.0390625,-29.78515625,56.15234375,0.0
8.65625,-55.17578125,-57.12890625,-35.15625,-62.98828125,-2.44140625,0.0
8.66015625,-48.33984375,-42.96875,-30.2734375,-39.0625,15.13671875,0.0
8.6640625,-34.66796875,-28.80859375,-33.203125,-41.50390625,46.38671875,0.0
8.66796875,-37.109375,-33.203125,-41.015625,-37.59765625,12.20703125,0.0
8.671875,-35.15625,-36.62109375,-43.45703125,-41.50390625,-4.8828125,0.0
8.67578125,-20.01953125,-35.64453125,-41.50390625,-57.6171875,-25.87890625,0.0
8.6796875,-12.6953125,-36.62109375,-37.59765625,-57.12890625,-72.75390625,0.0
8.68359375,-30.76171875,-45.8984375,-16.6015625,-22.4609375,-58.59375,0.0
8.6875,-29.78515625,-41.015625,-15.625,-16.6015625,-34.1796875,0.0
8.69140625,-21.97265625,-29.78515625,-27.34375,-27.34375,-30.2734375,0.0
8.6953125,-12.20703125,-40.52734375,-13.18359375,-17.08984375,39.0625,0.0
8.69921875,-11.23046875,-45.41015625,-7.8125,-25.87890625,44.43359375,0.0
8.703125,-8.7890625,-34.66796875,-19.04296875,-35.64453125,-15.13671875,0.0
8.70703125,-6.34765625,-35.15625,-20.01953125,-22.94921875,19.53125,0.0
8.7109375,-8.30078125,-40.52734375,-19.53125,-23.92578125,26.3671875,0.0
8.71484375,-30.76171875,-37.109375,-26.3671875,-40.0390625,14.6484375,0.0
8.71875,-13.18359375,-41.50390625,-14.16015625,-27.34375,-33.69140625,0.0
8.72265625,11.23046875,-32.2265625,-8.30078125,-23.92578125,-133.7890625,0.0
8.7265625,-19.04296875,-25.87890625,-22.4609375,-67.87109375,-68.359375,0.0
8.73046875,-52.734375,-36.1328125,-20.99609375,-70.80078125,-47.8515625,0.0
8.734375,-75.68359375,-39.55078125,-8.7890625,-63.4765625,-36.1328125,0.0
8.73828125,-71.77734375,-35.64453125,-7.8125,-67.3828125,68.359375,0.0
8.7421875,-60.546875,-31.73828125,-15.13671875,-70.3125,-10.7421875,0.0
8.74609375,-41.015625,-31.73828125,-18.06640625,-67.3828125,-65.4296875,0.0
8.75,-19.04296875,-31.25,-22.94921875,-52.734375,-51.26953125,0.0
8.75390625,-11.71875,-39.55078125,-13.18359375,-35.64453125,-25.87890625,0.0
8.7578125,20.5078125,-29.296875,0.48828125,-65.4296875,12.20703125,0.0
8.76171875,0.9765625,-33.203125,3.90625,-46.38671875,41.9921875,0.0
8.765625,-13.671875,-39.55078125,-9.27734375,-28.80859375,-7.32421875,0.0
8.76953125,22.94921875,-24.4140625,-17.08984375,-39.0625,-12.6953125,0.0
8.7734375,-40.52734375,-38.57421875,-12.6953125,-41.50390625,10.25390625,0.0
8.77734375,-41.9921875,-43.9453125,-24.4140625,-75.1953125,56.640625,0.0
8.78125,-23.92578125,-41.50390625,-21.484375,-54.19921875,51.26953125,0.0
8.78515625,-44.921875,-38.57421875,-21.484375,-30.76171875,39.55078125,0.0
8.7890625,-59.08203125,-40.52734375,-32.71484375,-70.3125,19.53125,0.0
8.79296875,-53.7109375,-48.33984375,-35.15625,-70.3125,-94.23828125,0.0
8.796875,-53.22265625,-39.0625,-39.0625,-62.98828125,-80.078125,0.0
8.80078125,-41.015625,-27.83203125,-41.50390625,-71.2890625,-19.04296875,0.0
8.8046875,-47.36328125,-32.2265625,-27.83203125,-45.41015625,-27.83203125,0.0
8.80859375,-46.875,-44.43359375,-23.4375,-14.6484375,2.44140625,0.0
8.8125,-89.84375,-47.36328125,-37.109375,-25.390625,-2.9296875,0.0
8.81640625,-82.03125,-49.8046875,-26.3671875,-24.90234375,-5.859375,0.0
8.8203125,-20.01953125,-44.921875,-20.5078125,-26.3671875,17.08984375,0.0
8.82421875,-23.92578125,-29.78515625,-37.109375,-40.52734375,53.22265625,0.0
8.828125,-41.015625,-37.59765625,-45.41015625,-37.59765625,48.828125,0.0
8.83203125,-35.64453125,-46.38671875,-42.96875,-37.109375,-12.20703125,0.0
8.8359375,-51.26953125,-31.73828125,-36.62109375,-21.97265625,-39.55078125,0.0
8.83984375,-69.3359375,-28.80859375,-33.69140625,-36.62109375,-4.8828125,0.0
8.84375,-65.4296875,-37.109375,-27.83203125,-53.22265625,19.53125,0.0
8.84765625,-27.34375,-31.73828125,-31.25,-27.34375,-53.22265625,0.0
8.8515625,-5.37109375,-34.1796875,-33.203125,-9.765625,-71.2890625,0.0
8.85546875,-47.36328125,-43.45703125,-24.90234375,-23.92578125,-52.734375,0.0
8.859375,-66.40625,-35.64453125,-32.2265625,-51.26953125,-43.9453125,0.0
8.86328125,-40.52734375,-29.78515625,-35.64453125,-52.734375,-17.578125,0.0
8.8671875,-29.78515625,-40.52734375,-39.0625,-41.9921875,46.875,0.0
8.87109375,-33.69140625,-46.38671875,-47.8515625,-44.43359375,10.7421875,0.0
8.875,-42.48046875,-50.29296875,-43.9453125,-35.64453125,1.46484375,0.0
8.87890625,-33.203125,-46.38671875,-33.203125,-30.2734375,41.9921875,0.0
8.8828125,-18.5546875,-37.109375,-28.3203125,-36.62109375,-34.1796875,0.0
8.88671875,-33.69140625,-31.25,-34.66796875,-26.3671875,-32.71484375,0.0
8.890625,-41.9921875,-40.0390625,-42.48046875,-15.13671875,30.76171875,0.0
8.89453125,-28.80859375,-40.52734375,-38.57421875,-31.73828125,-37.109375,0.0
8.8984375,-25.87890625,-32.71484375,-40.52734375,-42.48046875,-96.6796875,0.0
8.90234375,-18.06640625,-34.1796875,-45.41015625,-49.31640625,-92.7734375,0.0
8.90625,-19.53125,-35.64453125,-41.015625,-37.109375,-95.703125,0.0
8.91015625,-40.52734375,-38.0859375,-46.875,-39.55078125,-18.5546875,0.0
8.9140625,-31.73828125,-38.57421875,-54.19921875,-62.5,99.12109375,0.0
8.91796875,-18.5546875,-38.0859375,-41.015625,-41.50390625,60.546875,0.0
8.921875,-42.48046875,-35.15625,-29.78515625,-30.2734375,-15.625,0.0
8.92578125,-24.4140625,-37.109375,-34.66796875,-46.38671875,-12.20703125,0.0
8.9296875,-22.4609375,-40.0390625,-42.96875,-46.38671875,-5.37109375,0.0
8.93359375,-53.7109375,-32.71484375,-43.9453125,-42.48046875,-14.16015625,0.0
8.9375,-56.640625,-28.3203125,-36.62109375,-44.921875,27.83203125,0.0
8.94140625,-41.015625,-31.25,-23.4375,-20.99609375,71.2890625,0.0
8.9453125,-40.52734375,-28.80859375,-27.83203125,-43.9453125,69.3359375,0.0
8.94921875,-26.85546875,-23.92578125,-35.15625,-70.80078125,64.94140625,0.0
8.953125,7.32421875,-30.76171875,-30.76171875,-38.0859375,32.2265625,0.0
8.95703125,2.44140625,-38.0859375,-21.484375,-16.11328125,32.71484375,0.0
8.9609375,-28.3203125,-31.73828125,-18.06640625,-32.71484375,38.57421875,0.0
8.96484375,-73.2421875,-36.1328125,-13.671875,-43.45703125,46.875,0.0
8.96875,-55.6640625,-46.875,-21.97265625,-40.52734375,-19.53125,0.0
8.97265625,-22.4609375,-44.43359375,-33.69140625,-45.8984375,-56.15234375,0.0
8.9765625,-36.1328125,-35.15625,-33.69140625,-50.78125,-50.78125,0.0
8.98046875,-17.578125,-21.97265625,-30.2734375,-57.6171875,-65.4296875,0.0
8.984375,11.23046875,-26.3671875,-18.06640625,-48.33984375,-37.59765625,0.0
8.98828125,-24.90234375,-40.0390625,-21.97265625,-52.734375,47.36328125,0.0
8.9921875,-76.171875,-41.50390625,-38.57421875,-70.3125,140.625,0.0
8.99609375,-22.94921875,-37.59765625,-37.59765625,-66.89453125,26.85546875,0.0
9.0,-18.5546875,-34.1796875,-28.80859375,-80.078125,-90.33203125,0.0
9.00390625,-71.77734375,-28.80859375,-29.296875,-60.05859375,-138.18359375,0.0
9.0078125,-67.87109375,-37.109375,-37.59765625,-37.59765625,-176.7578125,0.0
9.01171875,-39.0625,-40.0390625,-40.0390625,-34.1796875,-212.890625,0.0
9.015625,-40.52734375,-36.1328125,-27.83203125,-45.8984375,-259.27734375,0.0
9.01953125,-69.82421875,-32.71484375,-15.13671875,-44.43359375,-260.7421875,0.0
9.0234375,-62.5,-27.34375,-16.6015625,-51.7578125,-232.91015625,0.0
9.02734375,-43.9453125,-27.34375,-31.25,-52.734375,-229.00390625,0.0
9.03125,-48.33984375,-33.69140625,-37.109375,-35.15625,-244.62890625,0.0
9.03515625,-62.98828125,-49.31640625,-23.4375,-12.6953125,-232.421875,0.0
9.0390625,-61.5234375,-48.828125,-14.6484375,-23.4375,-138.18359375,0.0
9.04296875,-32.71484375,-27.83203125,-21.97265625,-55.6640625,-101.5625,0.0
9.046875,-17.08984375,-24.4140625,-22.4609375,-48.828125,-50.78125,0.0
9.05078125,-32.2265625,-34.1796875,-20.99609375,-24.4140625,-14.6484375,0.0
9.0546875,-26.85546875,-35.15625,-24.90234375,-47.8515625,-27.83203125,0.0
9.05859375,-34.1796875,-35.15625,-18.06640625,-38.0859375,-31.25,0.0
9.0625,-33.203125,-39.0625,-17.08984375,-22.4609375,-21.484375,0.0
9.06640625,-43.9453125,-46.38671875,-25.390625,-40.52734375,-39.0625,0.0
9.0703125,-83.0078125,-52.24609375,-31.25,-38.0859375,-35.64453125,0.0
9.07421875,-80.078125,-45.41015625,-40.0390625,-59.5703125,-38.0859375,0.0
9.078125,-49.31640625,-38.0859375,-35.64453125,-52.24609375,-48.33984375,0.0
9.08203125,-18.5546875,-35.64453125,-31.25,-42.96875,19.53125,0.0
9.0859375,-41.50390625,-32.71484375,-35.64453125,-57.12890625,42.96875,0.0
9.08984375,-70.3125,-37.59765625,-39.0625,-49.8046875,-12.20703125,0.0
9.09375,-52.734375,-43.45703125,-42.48046875,-51.7578125,0.0,0.0
9.09765625,-42.48046875,-33.203125,-37.109375,-51.26953125,82.03125,0.0
9.1015625,-41.015625,-34.66796875,-26.85546875,-25.87890625,54.19921875,0.0
9.10546875,-18.5546875,-36.1328125,-32.2265625,-39.0625,55.17578125,0.0
9.109375,-44.921875,-37.59765625,-42.48046875,-55.6640625,149.90234375,0.0
9.11328125,-77.63671875,-39.0625,-43.45703125,-44.43359375,77.1484375,0.0
9.1171875,-69.3359375,-33.203125,-41.9921875,-41.015625,-47.8515625,0.0
9.12109375,-55.6640625,-34.66796875,-37.109375,-30.76171875,-66.89453125,0.0
9.125,-27.83203125,-38.57421875,-39.0625,-31.73828125,4.8828125,0.0
9.12890625,-40.0390625,-39.55078125,-41.9921875,-51.7578125,29.296875,0.0
9.1328125,-46.38671875,-40.0390625,-41.015625,-53.22265625,-50.29296875,0.0
9.13671875,-39.0625,-38.0859375,-30.2734375,-25.390625,-50.29296875,0.0
9.140625,-45.41015625,-35.64453125,-19.53125,-4.39453125,-16.11328125,0.0
9.14453125,-53.7109375,-31.25,-27.83203125,-28.3203125,29.78515625,0.0
9.1484375,-58.10546875,-34.66796875,-32.71484375,-41.015625,53.22265625,0.0
9.15234375,-35.15625,-33.203125,-29.296875,-61.03515625,56.15234375,0.0
9.15625,-28.80859375,-34.1796875,-26.85546875,-54.6875,25.87890625,0.0
9.16015625,-44.43359375,-39.55078125,-20.99609375,-30.76171875,-17.08984375,0.0
9.1640625,-51.7578125,-38.57421875,-18.5546875,-33.203125,95.703125,0.0
9.16796875,-37.109375,-39.0625,-27.34375,-31.73828125,107.421875,0.0
9.171875,-43.9453125,-35.64453125,-28.80859375,-47.36328125,-6.34765625,0.0
9.17578125,-43.45703125,-40.0390625,-25.390625,-32.71484375,22.4609375,0.0
9.1796875,-31.25,-52.24609375,-25.390625,-13.671875,-77.63671875,0.0
9.18359375,-18.06640625,-45.41015625,-26.85546875,-49.31640625,-184.5703125,0.0
9.1875,-5.859375,-30.76171875,-34.1796875,-37.59765625,-212.40234375,0.0
9.19140625,-9.27734375,-34.66796875,-32.2265625,-39.55078125,-175.78125,0.0
9.1953125,-48.33984375,-36.1328125,-30.76171875,-55.17578125,-111.81640625,0.0
9.19921875,-28.3203125,-34.66796875,-30.2734375,-27.83203125,-95.21484375,0.0
9.203125,-19.04296875,-41.50390625,-25.87890625,-16.11328125,-167.96875,0.0
9.20703125,-52.24609375,-41.50390625,-36.1328125,-42.96875,-83.0078125,0.0
9.2109375,-9.765625,-38.0859375,-40.0390625,-70.3125,14.6484375,0.0
9.21484375,-12.6953125,-37.109375,-34.1796875,-54.19921875,-85.9375,0.0
9.21875,-46.875,-39.0625,-35.15625,-37.59765625,-62.5,0.0
9.22265625,-36.1328125,-45.41015625,-31.25,-44.43359375,-44.43359375,0.0
9.2265625,-64.94140625,-38.0859375,-37.59765625,-51.7578125,-13.671875,0.0
9.23046875,-105.46875,-35.15625,-43.9453125,-45.8984375,147.94921875,0.0
9.234375,-53.22265625,-41.9921875,-42.96875,-39.55078125,120.60546875,0.0
9.23828125,-8.7890625,-36.1328125,-40.0390625,-51.7578125,47.8515625,0.0
9.2421875,-3.41796875,-31.73828125,-38.57421875,-55.17578125,64.94140625,0.0
9.24609375,-17.08984375,-25.87890625,-44.43359375,-33.69140625,65.91796875,0.0
9.25,-63.4765625,-26.3671875,-50.78125,-29.296875,105.46875,0.0
9.25390625,-44.921875,-40.0390625,-46.875,-50.78125,96.6796875,0.0
9.2578125,-21.484375,-39.55078125,-33.69140625,-25.87890625,11.23046875,0.0
9.26171875,-14.16015625,-31.73828125,-30.76171875,-8.7890625,23.92578125,0.0
9.265625,-59.5703125,-38.0859375,-39.0625,-29.296875,69.82421875,0.0
9.26953125,-59.08203125,-36.1328125,-46.38671875,-33.69140625,9.27734375,0.0
9.2734375,-30.76171875,-29.296875,-44.921875,-40.52734375,-19.04296875,0.0
9.27734375,-43.9453125,-30.76171875,-34.1796875,-32.2265625,15.13671875,0.0
9.28125,-40.0390625,-36.1328125,-29.78515625,-25.390625,13.18359375,0.0
9.28515625,-40.52734375,-39.0625,-30.76171875,-49.8046875,-4.8828125,0.0
9.2890625,-39.0625,-33.203125,-41.9921875,-47.8515625,-16.11328125,0.0
9.29296875,-38.57421875,-29.296875,-42.96875,-36.1328125,19.04296875,0.0
9.296875,-29.78515625,-32.2265625,-36.1328125,-32.71484375,-54.19921875,0.0
9.30078125,-8.30078125,-33.69140625,-35.15625,-37.59765625,-57.12890625,0.0
9.3046875,-2.44140625,-29.78515625,-32.2265625,-43.9453125,27.83203125,0.0
9.30859375,27.34375,-22.94921875,-34.66796875,-50.78125,48.828125,0.0
9.3125,38.0859375,-28.80859375,-42.96875,-49.31640625,59.5703125,0.0
9.31640625,28.80859375,-21.484375,-38.0859375,-38.0859375,0.48828125,0.0
9.3203125,-49.8046875,-14.6484375,-22.94921875,-13.18359375,8.7890625,0.0
9.32421875,-88.8671875,-32.71484375,-23.4375,-21.97265625,105.46875,0.0
9.328125,-50.29296875,-29.78515625,-30.76171875,-26.85546875,115.234375,0.0
9.33203125,-28.80859375,-31.25,-28.3203125,-2.9296875,-17.08984375,0.0
9.3359375,-5.859375,-31.25,-26.3671875,-28.3203125,-68.84765625,0.0
9.33984375,-6.34765625,-17.08984375,-22.4609375,-39.55078125,-22.94921875,0.0
9.34375,3.90625,-18.06640625,-24.4140625,-26.3671875,-16.11328125,0.0
9.34765625,-16.6015625,-23.92578125,-28.80859375,-20.99609375,-42.48046875,0.0
9.3515625,-49.31640625,-31.73828125,-21.97265625,-32.2265625,-83.0078125,0.0
9.35546875,-25.390625,-21.484375,-30.76171875,-68.84765625,-46.875,0.0
9.359375,-14.6484375,-13.671875,-33.69140625,-51.7578125,54.6875,0.0
9.36328125,-36.62109375,-27.34375,-29.78515625,-32.2265625,31.73828125,0.0
9.3671875,-43.45703125,-32.2265625,-30.2734375,-33.69140625,-87.890625,0.0
9.37109375,-20.01953125,-26.85546875,-34.1796875,-29.78515625,-96.19140625,0.0
9.375,18.5546875,-24.4140625,-41.9921875,-44.43359375,-20.5078125,0.0
9.37890625,-12.20703125,-24.90234375,-33.69140625,-33.203125,57.12890625,0.0
9.3828125,-59.08203125,-31.25,-27.34375,-20.5078125,55.17578125,0.0
9.38671875,-50.29296875,-36.1328125,-33.69140625,-30.2734375,-12.20703125,0.0
9.390625,-23.4375,-32.71484375,-35.15625,-58.59375,-42.48046875,0.0
9.39453125,-23.92578125,-37.59765625,-27.34375,-54.6875,-26.85546875,0.0
