timestamp,TP9,AF7,AF8,TP10,AUX,Marker,
4.00390625,-301.26953125,-163.57421875,-97.65625,-143.5546875,-40.52734375,0.0
4.0078125,-284.66796875,-155.76171875,-104.98046875,-156.25,8.30078125,0.0
4.01171875,-251.953125,-163.0859375,-95.703125,-143.06640625,33.203125,0.0
4.015625,-272.4609375,-175.29296875,-81.0546875,-137.6953125,-14.16015625,0.0
4.01953125,-324.21875,-182.6171875,-82.03125,-145.99609375,-71.77734375,0.0
4.0234375,-326.171875,-186.5234375,-93.75,-141.11328125,-66.89453125,0.0
4.02734375,-293.9453125,-187.01171875,-82.51953125,-121.58203125,-10.7421875,0.0
4.03125,-277.83203125,-183.59375,-71.2890625,-113.76953125,-87.890625,0.0
4.03515625,-303.22265625,-176.26953125,-73.2421875,-122.55859375,-207.03125,0.0
4.0390625,-314.453125,-172.8515625,-59.5703125,-129.8828125,-217.28515625,0.0
4.04296875,-294.921875,-173.828125,-59.5703125,-138.671875,-211.42578125,0.0
4.046875,-287.109375,-171.875,-57.6171875,-132.32421875,-96.19140625,0.0
4.05078125,-285.15625,-165.0390625,-51.7578125,-126.46484375,-12.20703125,0.0
4.0546875,-279.296875,-166.015625,-68.84765625,-121.09375,-127.44140625,0.0
4.05859375,-288.0859375,-177.24609375,-68.359375,-122.55859375,-227.05078125,0.0
4.0625,-305.17578125,-163.57421875,-53.22265625,-126.46484375,-117.1875,0.0
4.06640625,-304.19921875,-158.203125,-56.15234375,-123.53515625,55.17578125,0.0
4.0703125,-299.8046875,-167.48046875,-62.5,-142.08984375,21.484375,0.0
4.07421875,-302.734375,-167.48046875,-63.4765625,-159.66796875,13.671875,0.0
4.078125,-308.10546875,-171.875,-67.87109375,-141.11328125,-3.90625,0.0
4.08203125,-309.5703125,-158.69140625,-58.59375,-112.79296875,-27.83203125,0.0
4.0859375,-329.1015625,-158.203125,-54.6875,-122.55859375,39.55078125,0.0
4.08984375,-308.10546875,-166.015625,-65.91796875,-132.8125,38.57421875,0.0
4.09375,-302.734375,-164.0625,-82.03125,-140.13671875,-7.8125,0.0
4.09765625,-340.33203125,-171.38671875,-93.75,-147.94921875,-23.4375,0.0
4.1015625,-333.0078125,-164.55078125,-92.7734375,-130.859375,-64.453125,0.0
4.10546875,-314.94140625,-145.5078125,-70.3125,-109.86328125,-66.40625,0.0
4.109375,-305.6640625,-141.11328125,-61.03515625,-105.95703125,-85.44921875,0.0
4.11328125,-313.4765625,-148.4375,-65.91796875,-118.65234375,-127.44140625,0.0
4.1171875,-304.19921875,-134.765625,-53.22265625,-115.72265625,-121.58203125,0.0
4.12109375,-299.8046875,-125.0,-51.7578125,-109.375,23.92578125,0.0
4.125,-307.12890625,-145.99609375,-74.21875,-109.375,53.7109375,0.0
4.12890625,-324.21875,-157.2265625,-80.078125,-117.1875,-25.87890625,0.0
4.1328125,-327.1484375,-147.94921875,-73.73046875,-128.90625,-41.9921875,0.0
4.13671875,-311.5234375,-145.5078125,-82.51953125,-140.13671875,-73.2421875,0.0
4.140625,-315.4296875,-150.390625,-88.8671875,-139.16015625,-68.84765625,0.0
4.14453125,-319.82421875,-145.01953125,-81.0546875,-140.13671875,-53.22265625,0.0
4.1484375,-304.19921875,-128.41796875,-72.265625,-133.7890625,-2.44140625,0.0
4.15234375,-328.125,-110.3515625,-65.4296875,-102.5390625,40.52734375,0.0
4.15625,-367.1875,-117.67578125,-63.96484375,-105.95703125,49.8046875,0.0
4.16015625,-371.58203125,-135.25390625,-74.70703125,-136.71875,20.5078125,0.0
4.1640625,-358.88671875,-135.7421875,-81.0546875,-147.4609375,4.39453125,0.0
4.16796875,-334.9609375,-134.27734375,-71.77734375,-126.46484375,1.46484375,0.0
4.171875,-340.8203125,-131.8359375,-59.5703125,-119.140625,11.71875,0.0
4.17578125,-341.30859375,-134.27734375,-59.08203125,-120.1171875,49.8046875,0.0
4.1796875,-338.8671875,-137.6953125,-57.6171875,-101.5625,23.4375,0.0
4.18359375,-358.3984375,-140.625,-58.59375,-81.54296875,-24.4140625,0.0
4.1875,-351.5625,-135.7421875,-63.4765625,-66.40625,-48.33984375,0.0
4.19140625,-339.84375,-125.0,-59.5703125,-90.33203125,-49.31640625,0.0
4.1953125,-323.73046875,-120.60546875,-62.01171875,-110.3515625,-52.734375,0.0
4.19921875,-308.10546875,-123.046875,-58.59375,-112.3046875,-49.8046875,0.0
4.203125,-326.66015625,-128.41796875,-53.22265625,-123.046875,-65.4296875,0.0
4.20703125,-335.44921875,-129.8828125,-69.3359375,-120.60546875,-47.36328125,0.0
4.2109375,-333.49609375,-130.37109375,-77.1484375,-129.39453125,3.41796875,0.0
4.21484375,-314.453125,-138.18359375,-73.73046875,-122.0703125,-16.11328125,0.0
4.21875,-310.05859375,-142.578125,-55.17578125,-102.05078125,-121.58203125,0.0
4.22265625,-343.26171875,-149.4140625,-52.734375,-103.02734375,-81.54296875,0.0
4.2265625,-342.28515625,-144.04296875,-52.24609375,-109.86328125,46.875,0.0
4.23046875,-333.984375,-121.58203125,-43.9453125,-119.140625,22.94921875,0.0
4.234375,-333.984375,-115.72265625,-46.875,-106.93359375,12.6953125,0.0
4.23828125,-339.35546875,-110.83984375,-49.31640625,-104.4921875,-17.578125,0.0
4.2421875,-351.5625,-100.5859375,-55.6640625,-111.328125,-38.0859375,0.0
4.24609375,-331.54296875,-99.12109375,-59.5703125,-120.60546875,-2.9296875,0.0
4.25,-305.17578125,-99.609375,-58.59375,-113.76953125,1.953125,0.0
4.25390625,-296.38671875,-105.95703125,-58.59375,-101.5625,-38.0859375,0.0
4.2578125,-301.26953125,-108.3984375,-60.05859375,-111.328125,-32.71484375,0.0
4.26171875,-329.1015625,-110.3515625,-64.94140625,-113.76953125,-44.43359375,0.0
4.265625,-350.09765625,-114.2578125,-68.84765625,-123.53515625,-95.21484375,0.0
4.26953125,-310.05859375,-115.234375,-60.546875,-114.2578125,-149.90234375,0.0
4.2734375,-313.4765625,-130.859375,-66.40625,-115.234375,-71.77734375,0.0
4.27734375,-344.7265625,-145.5078125,-85.9375,-119.62890625,23.92578125,0.0
4.28125,-328.125,-143.06640625,-91.30859375,-110.3515625,-42.96875,0.0
4.28515625,-319.82421875,-131.34765625,-85.9375,-121.58203125,-59.08203125,0.0
4.2890625,-333.984375,-128.41796875,-78.125,-127.44140625,-30.2734375,0.0
4.29296875,-328.125,-131.34765625,-78.61328125,-128.41796875,-27.83203125,0.0
4.296875,-298.828125,-123.53515625,-78.125,-141.6015625,-57.12890625,0.0
4.30078125,-309.08203125,-123.046875,-81.0546875,-140.625,-63.4765625,0.0
4.3046875,-322.75390625,-125.9765625,-87.40234375,-112.3046875,-23.92578125,0.0
4.30859375,-323.73046875,-128.90625,-81.0546875,-113.28125,-54.19921875,0.0
4.3125,-354.98046875,-132.32421875,-77.1484375,-135.7421875,-103.02734375,0.0
4.31640625,-373.53515625,-144.04296875,-79.58984375,-142.08984375,-132.8125,0.0
4.3203125,-364.74609375,-147.94921875,-74.21875,-141.11328125,-95.703125,0.0
4.32421875,-372.55859375,-147.4609375,-75.1953125,-128.90625,-14.16015625,0.0
4.328125,-373.046875,-141.11328125,-77.1484375,-128.90625,18.06640625,0.0
4.33203125,-360.3515625,-134.765625,-76.171875,-134.765625,32.71484375,0.0
4.3359375,-360.83984375,-148.4375,-94.23828125,-153.80859375,-4.8828125,0.0
4.33984375,-354.00390625,-159.1796875,-101.5625,-177.734375,28.3203125,0.0
4.34375,-363.28125,-168.45703125,-103.02734375,-189.94140625,75.68359375,0.0
4.34765625,-370.1171875,-179.19921875,-118.1640625,-188.4765625,71.77734375,0.0
4.3515625,-363.28125,-169.43359375,-106.93359375,-178.7109375,38.0859375,0.0
4.35546875,-368.1640625,-163.57421875,-93.26171875,-183.10546875,-0.9765625,0.0
4.359375,-365.72265625,-162.59765625,-86.9140625,-172.36328125,-47.36328125,0.0
4.36328125,-378.41796875,-174.8046875,-99.609375,-184.08203125,-38.57421875,0.0
4.3671875,-382.8125,-186.5234375,-111.81640625,-220.21484375,41.9921875,0.0
4.37109375,-364.2578125,-179.6875,-119.140625,-212.40234375,61.5234375,0.0
4.375,-356.93359375,-180.6640625,-120.1171875,-190.4296875,-40.52734375,0.0
4.37890625,-359.86328125,-182.12890625,-109.86328125,-182.6171875,-57.6171875,0.0
4.3828125,-350.5859375,-180.17578125,-103.02734375,-170.41015625,-48.33984375,0.0
4.38671875,-356.93359375,-171.38671875,-100.09765625,-167.96875,-63.96484375,0.0
4.390625,-344.7265625,-162.59765625,-104.4921875,-169.43359375,-58.59375,0.0
4.39453125,-309.5703125,-165.52734375,-114.74609375,-179.19921875,-15.13671875,0.0
4.3984375,-260.25390625,-165.0390625,-111.328125,-186.5234375,9.27734375,0.0
4.40234375,-203.125,-159.1796875,-99.609375,-167.96875,-16.6015625,0.0
4.40625,-199.70703125,-163.57421875,-81.54296875,-174.8046875,-50.29296875,0.0
4.41015625,-212.890625,-169.921875,-73.2421875,-192.3828125,-29.78515625,0.0
4.4140625,-235.83984375,-162.109375,-72.75390625,-167.48046875,16.6015625,0.0
4.41796875,-276.3671875,-160.64453125,-78.61328125,-176.26953125,-1.46484375,0.0
4.421875,-274.4140625,-161.1328125,-81.54296875,-184.5703125,2.9296875,0.0
4.42578125,-279.296875,-153.80859375,-71.2890625,-171.38671875,-67.87109375,0.0
4.4296875,-302.24609375,-145.99609375,-55.17578125,-168.9453125,-97.65625,0.0
4.43359375,-265.625,-134.27734375,-37.109375,-157.2265625,-89.84375,0.0
4.4375,-266.6015625,-121.58203125,-28.80859375,-132.32421875,-88.8671875,0.0
4.44140625,-312.01171875,-118.1640625,-31.73828125,-121.58203125,-66.40625,0.0
4.4453125,-311.5234375,-112.79296875,-38.57421875,-130.37109375,-68.84765625,0.0
4.44921875,-287.59765625,-106.4453125,-31.25,-135.25390625,25.390625,0.0
4.453125,-291.50390625,-128.41796875,-49.8046875,-157.71484375,65.91796875,0.0
4.45703125,-305.6640625,-138.18359375,-73.2421875,-171.875,-67.3828125,0.0
4.4609375,-301.26953125,-134.27734375,-76.171875,-192.87109375,-94.23828125,0.0
4.46484375,-312.01171875,-143.5546875,-76.66015625,-180.6640625,-112.3046875,0.0
4.46875,-333.49609375,-144.04296875,-80.078125,-185.05859375,-55.6640625,0.0
4.47265625,-320.3125,-125.9765625,-76.66015625,-189.453125,-20.01953125,0.0
4.4765625,-303.22265625,-120.60546875,-68.84765625,-161.1328125,-40.0390625,0.0
4.48046875,-321.2890625,-110.3515625,-64.453125,-148.4375,-37.109375,0.0
4.484375,-317.3828125,-97.65625,-53.22265625,-140.625,-15.625,0.0
4.48828125,-296.38671875,-101.5625,-48.828125,-132.32421875,7.32421875,0.0
4.4921875,-289.55078125,-96.6796875,-57.12890625,-130.859375,-9.765625,0.0
4.49609375,-300.29296875,-86.42578125,-60.05859375,-149.4140625,-2.9296875,0.0
4.5,-331.54296875,-97.65625,-75.1953125,-154.296875,56.640625,0.0
4.50390625,-360.83984375,-111.328125,-99.12109375,-177.24609375,9.765625,0.0
4.5078125,-347.16796875,-110.3515625,-95.703125,-192.87109375,-81.54296875,0.0
4.51171875,-356.93359375,-115.72265625,-100.09765625,-205.078125,-71.2890625,0.0
4.515625,-344.7265625,-111.81640625,-103.02734375,-212.890625,21.97265625,0.0
4.51953125,-304.6875,-102.5390625,-95.703125,-187.01171875,25.390625,0.0
4.5234375,-316.89453125,-100.5859375,-91.30859375,-187.98828125,-7.32421875,0.0
4.52734375,-313.4765625,-96.19140625,-79.58984375,-193.359375,-72.75390625,0.0
4.53125,-313.4765625,-111.328125,-85.9375,-188.4765625,-76.66015625,0.0
4.53515625,-326.66015625,-128.41796875,-100.5859375,-193.84765625,-26.3671875,0.0
4.5390625,-327.1484375,-122.55859375,-101.07421875,-185.05859375,10.7421875,0.0
4.54296875,-321.2890625,-119.140625,-107.421875,-186.03515625,-26.3671875,0.0
4.546875,-309.08203125,-112.79296875,-108.3984375,-187.01171875,-44.921875,0.0
4.55078125,-310.546875,-107.91015625,-106.93359375,-190.91796875,-0.9765625,0.0
4.5546875,-320.3125,-113.76953125,-110.3515625,-180.6640625,16.6015625,0.0
4.55859375,-340.8203125,-119.140625,-112.3046875,-173.828125,75.68359375,0.0
4.5625,-350.09765625,-109.86328125,-120.60546875,-181.640625,-23.4375,0.0
4.56640625,-351.07421875,-118.65234375,-134.765625,-187.98828125,-137.20703125,0.0
4.5703125,-336.42578125,-123.046875,-142.578125,-173.828125,-131.8359375,0.0
4.57421875,-322.75390625,-115.234375,-145.01953125,-165.0390625,-46.38671875,0.0
4.578125,-313.4765625,-112.79296875,-141.6015625,-182.12890625,-39.55078125,0.0
4.58203125,-293.9453125,-112.79296875,-134.765625,-174.8046875,41.50390625,0.0
4.5859375,-273.4375,-117.1875,-134.765625,-162.59765625,97.65625,0.0
4.58984375,-245.1171875,-123.53515625,-133.30078125,-170.41015625,23.4375,0.0
4.59375,-244.140625,-112.3046875,-127.9296875,-162.59765625,-9.27734375,0.0
4.59765625,-266.11328125,-107.91015625,-137.6953125,-160.64453125,-28.3203125,0.0
4.6015625,-266.11328125,-107.91015625,-127.44140625,-155.2734375,-55.17578125,0.0
4.60546875,-268.5546875,-94.7265625,-108.3984375,-128.41796875,-95.21484375,0.0
4.609375,-279.78515625,-101.07421875,-121.09375,-141.11328125,-46.38671875,0.0
4.61328125,-282.71484375,-112.79296875,-126.46484375,-175.78125,-34.1796875,0.0
4.6171875,-295.41015625,-111.81640625,-117.1875,-171.875,-67.87109375,0.0
4.62109375,-313.96484375,-109.86328125,-112.79296875,-165.0390625,12.6953125,0.0
4.625,-301.26953125,-104.00390625,-104.4921875,-165.52734375,-26.85546875,0.0
4.62890625,-295.8984375,-96.6796875,-104.00390625,-155.76171875,-166.015625,0.0
4.6328125,-325.68359375,-86.42578125,-100.5859375,-143.06640625,-102.5390625,0.0
4.63671875,-359.375,-80.078125,-100.09765625,-137.6953125,9.765625,0.0
4.640625,-374.0234375,-91.30859375,-109.375,-137.6953125,50.78125,0.0
4.64453125,-374.51171875,-99.609375,-108.88671875,-130.37109375,137.6953125,0.0
4.6484375,-394.53125,-96.19140625,-105.46875,-139.16015625,174.8046875,0.0
4.65234375,-416.015625,-99.609375,-102.5390625,-143.5546875,5.859375,0.0
4.65625,-436.03515625,-92.7734375,-98.14453125,-127.44140625,-48.33984375,0.0
4.66015625,-458.984375,-80.56640625,-80.56640625,-120.1171875,-55.6640625,0.0
4.6640625,-449.21875,-81.54296875,-74.70703125,-136.71875,-51.7578125,0.0
4.66796875,-418.9453125,-87.890625,-84.9609375,-143.06640625,-36.1328125,0.0
4.671875,-395.99609375,-95.703125,-84.47265625,-120.60546875,-102.05078125,0.0
4.67578125,-392.578125,-96.6796875,-85.44921875,-117.67578125,-68.359375,0.0
4.6796875,-410.64453125,-104.4921875,-95.21484375,-140.625,-79.1015625,0.0
4.68359375,-412.109375,-112.3046875,-107.421875,-165.0390625,-140.13671875,0.0
4.6875,-375.0,-91.30859375,-104.98046875,-172.36328125,-133.7890625,0.0
4.69140625,-378.90625,-81.54296875,-99.609375,-167.48046875,-89.35546875,0.0
4.6953125,-417.96875,-89.84375,-108.3984375,-164.0625,-28.80859375,0.0
4.69921875,-393.5546875,-89.84375,-106.93359375,-161.1328125,34.66796875,0.0
4.703125,-375.9765625,-103.515625,-107.91015625,-157.71484375,81.0546875,0.0
4.70703125,-370.60546875,-116.2109375,-106.4453125,-159.1796875,1.953125,0.0
4.7109375,-342.7734375,-114.2578125,-103.02734375,-167.48046875,-87.40234375,0.0
4.71484375,-352.5390625,-116.69921875,-106.93359375,-158.203125,-29.296875,0.0
4.71875,-375.0,-116.69921875,-109.86328125,-143.06640625,23.92578125,0.0
4.72265625,-374.0234375,-102.5390625,-116.69921875,-160.64453125,-33.69140625,0.0
4.7265625,-383.30078125,-102.5390625,-125.9765625,-199.21875,-77.63671875,0.0
4.73046875,-381.34765625,-117.67578125,-133.30078125,-214.35546875,-36.62109375,0.0
4.734375,-374.51171875,-129.39453125,-133.7890625,-219.7265625,82.51953125,0.0
4.73828125,-360.83984375,-127.44140625,-129.8828125,-211.42578125,-4.39453125,0.0
4.7421875,-351.07421875,-112.3046875,-116.2109375,-184.5703125,-41.50390625,0.0
4.74609375,-357.421875,-117.1875,-114.74609375,-195.80078125,121.09375,0.0
4.75,-331.0546875,-125.48828125,-116.69921875,-191.89453125,63.96484375,0.0
4.75390625,-312.98828125,-110.83984375,-104.00390625,-179.19921875,-74.70703125,0.0
4.7578125,-313.4765625,-112.79296875,-109.375,-179.6875,-32.71484375,0.0
4.76171875,-307.12890625,-130.859375,-119.140625,-189.94140625,-50.29296875,0.0
4.765625,-316.40625,-132.32421875,-112.3046875,-185.05859375,-59.5703125,0.0
4.76953125,-313.4765625,-121.58203125,-104.00390625,-169.43359375,-5.859375,0.0
4.7734375,-321.77734375,-112.3046875,-108.88671875,-167.96875,-71.77734375,0.0
4.77734375,-334.47265625,-105.46875,-104.4921875,-167.96875,-71.77734375,0.0
4.78125,-327.1484375,-99.12109375,-96.6796875,-159.66796875,-2.44140625,0.0
4.78515625,-331.0546875,-104.98046875,-97.65625,-158.69140625,14.16015625,0.0
4.7890625,-333.0078125,-105.46875,-87.40234375,-176.7578125,-21.97265625,0.0
4.79296875,-315.4296875,-94.7265625,-88.37890625,-166.50390625,-44.43359375,0.0
4.796875,-332.51953125,-96.6796875,-102.05078125,-166.9921875,0.48828125,0.0
4.80078125,-361.328125,-114.74609375,-114.74609375,-173.33984375,-41.015625,0.0
4.8046875,-364.74609375,-116.2109375,-114.2578125,-167.96875,-115.234375,0.0
4.80859375,-332.03125,-106.4453125,-110.3515625,-151.3671875,-67.3828125,0.0
4.8125,-314.453125,-98.6328125,-97.16796875,-148.4375,-20.01953125,0.0
4.81640625,-333.49609375,-104.98046875,-94.7265625,-165.52734375,-60.05859375,0.0
4.8203125,-334.9609375,-108.3984375,-108.88671875,-149.90234375,-42.48046875,0.0
4.82421875,-317.3828125,-97.65625,-116.2109375,-152.34375,-11.23046875,0.0
4.828125,-304.6875,-87.890625,-129.39453125,-160.64453125,-65.4296875,0.0
4.83203125,-306.640625,-94.7265625,-140.13671875,-160.15625,-40.52734375,0.0
4.8359375,-329.58984375,-94.23828125,-136.71875,-161.62109375,-38.0859375,0.0
4.83984375,-330.56640625,-87.40234375,-137.20703125,-156.25,-92.28515625,0.0
4.84375,-316.40625,-92.28515625,-137.6953125,-144.04296875,-1.953125,0.0
4.84765625,-332.51953125,-94.7265625,-136.71875,-137.20703125,-11.71875,0.0
4.8515625,-329.1015625,-93.75,-136.23046875,-137.6953125,-48.33984375,0.0
4.85546875,-318.84765625,-90.8203125,-135.25390625,-125.0,-1.46484375,0.0
4.859375,-318.84765625,-88.37890625,-135.7421875,-103.515625,-18.5546875,0.0
4.86328125,-330.56640625,-94.23828125,-133.7890625,-129.8828125,-60.05859375,0.0
4.8671875,-342.7734375,-100.09765625,-135.25390625,-150.87890625,-73.73046875,0.0
4.87109375,-343.75,-95.21484375,-141.6015625,-144.04296875,17.08984375,0.0
4.875,-342.28515625,-95.703125,-135.7421875,-164.0625,46.875,0.0
4.87890625,-347.65625,-98.6328125,-135.7421875,-171.875,-38.57421875,0.0
4.8828125,-337.890625,-91.796875,-149.4140625,-156.73828125,-32.2265625,0.0
4.88671875,-326.66015625,-90.8203125,-152.34375,-163.0859375,19.53125,0.0
4.890625,-335.44921875,-98.6328125,-150.390625,-178.22265625,36.1328125,0.0
4.89453125,-319.82421875,-101.5625,-147.4609375,-185.546875,2.9296875,0.0
4.8984375,-323.2421875,-99.12109375,-142.08984375,-187.98828125,-23.4375,0.0
4.90234375,-327.1484375,-108.3984375,-143.06640625,-183.59375,-4.39453125,0.0
4.90625,-307.6171875,-118.65234375,-140.625,-183.10546875,2.44140625,0.0
4.91015625,-299.31640625,-122.55859375,-127.9296875,-175.29296875,3.41796875,0.0
4.9140625,-308.10546875,-111.328125,-127.44140625,-173.828125,15.625,0.0
4.91796875,-319.3359375,-106.4453125,-129.8828125,-177.24609375,-7.8125,0.0
4.921875,-321.2890625,-107.91015625,-124.51171875,-189.453125,-83.984375,0.0
4.92578125,-319.3359375,-106.4453125,-112.79296875,-191.89453125,-51.26953125,0.0
4.9296875,-314.94140625,-108.88671875,-104.98046875,-181.15234375,3.90625,0.0
4.93359375,-312.01171875,-113.28125,-117.1875,-184.08203125,8.30078125,0.0
4.9375,-310.546875,-105.95703125,-128.90625,-179.6875,-47.8515625,0.0
4.94140625,-333.49609375,-104.00390625,-121.58203125,-166.015625,-78.125,0.0
4.9453125,-341.796875,-111.328125,-112.79296875,-164.0625,-50.78125,0.0
4.94921875,-336.9140625,-111.81640625,-108.88671875,-149.90234375,-64.453125,0.0
4.953125,-339.35546875,-109.375,-96.6796875,-129.8828125,-107.421875,0.0
4.95703125,-335.44921875,-106.93359375,-91.796875,-134.765625,-8.7890625,0.0
4.9609375,-339.84375,-96.6796875,-91.796875,-135.7421875,92.28515625,0.0
4.96484375,-326.66015625,-84.47265625,-85.44921875,-120.1171875,37.109375,0.0
4.96875,-312.5,-83.0078125,-79.58984375,-113.28125,18.06640625,0.0
4.97265625,-299.31640625,-84.47265625,-74.21875,-116.69921875,-4.39453125,0.0
4.9765625,-310.546875,-87.890625,-75.1953125,-113.76953125,24.4140625,0.0
4.98046875,-325.68359375,-101.07421875,-76.171875,-105.95703125,50.78125,0.0
4.984375,-336.42578125,-108.3984375,-78.61328125,-118.65234375,-43.9453125,0.0
4.98828125,-344.23828125,-101.5625,-84.47265625,-120.1171875,-28.3203125,0.0
4.9921875,-332.51953125,-89.35546875,-81.0546875,-110.3515625,-79.1015625,0.0
4.99609375,-327.1484375,-84.47265625,-80.078125,-112.79296875,-140.625,0.0
5.0,-337.890625,-86.42578125,-76.66015625,-120.1171875,-115.72265625,0.0
5.00390625,-346.6796875,-90.8203125,-69.3359375,-115.72265625,-122.0703125,0.0
5.0078125,-334.9609375,-77.1484375,-62.01171875,-100.5859375,-28.3203125,0.0
5.01171875,-320.3125,-72.265625,-57.12890625,-116.69921875,-25.390625,0.0
5.015625,-318.359375,-84.9609375,-56.640625,-121.09375,-113.28125,0.0
5.01953125,-302.734375,-76.171875,-57.6171875,-104.4921875,-45.8984375,0.0
5.0234375,-282.2265625,-78.61328125,-51.26953125,-115.234375,-35.64453125,0.0
5.02734375,-287.59765625,-83.0078125,-47.8515625,-131.34765625,-67.3828125,0.0
5.03125,-305.17578125,-84.47265625,-55.6640625,-128.41796875,-13.18359375,0.0
5.03515625,-295.8984375,-90.8203125,-61.5234375,-125.9765625,-3.90625,0.0
5.0390625,-270.01953125,-83.984375,-53.7109375,-120.60546875,-17.08984375,0.0
5.04296875,-249.0234375,-82.03125,-43.45703125,-106.4453125,-25.390625,0.0
5.046875,-240.72265625,-77.1484375,-42.96875,-116.2109375,-74.70703125,0.0
5.05078125,-240.234375,-71.77734375,-49.8046875,-126.953125,-13.18359375,0.0
5.0546875,-255.859375,-78.61328125,-58.10546875,-136.71875,95.703125,0.0
5.05859375,-263.18359375,-80.078125,-63.96484375,-124.51171875,63.4765625,0.0
5.0625,-284.66796875,-77.63671875,-75.1953125,-127.9296875,-12.20703125,0.0
5.06640625,-310.546875,-76.66015625,-72.75390625,-124.51171875,-15.13671875,0.0
5.0703125,-301.7578125,-84.47265625,-67.3828125,-119.62890625,-37.59765625,0.0
5.07421875,-310.546875,-95.703125,-75.1953125,-143.06640625,-97.65625,0.0
5.078125,-312.5,-106.4453125,-81.54296875,-133.30078125,-88.8671875,0.0
5.08203125,-302.734375,-105.46875,-83.49609375,-118.65234375,-2.9296875,0.0
5.0859375,-308.59375,-107.421875,-86.42578125,-126.46484375,22.94921875,0.0
5.08984375,-297.8515625,-112.3046875,-86.9140625,-126.46484375,-56.640625,0.0
5.09375,-289.0625,-105.95703125,-85.44921875,-122.0703125,-41.015625,0.0
5.09765625,-280.2734375,-89.35546875,-80.56640625,-106.4453125,-10.25390625,0.0
5.1015625,-284.66796875,-86.42578125,-79.58984375,-110.83984375,-160.64453125,0.0
5.10546875,-292.96875,-93.26171875,-78.61328125,-126.953125,-149.90234375,0.0
5.109375,-276.3671875,-89.35546875,-81.0546875,-122.55859375,-64.94140625,0.0
5.11328125,-270.5078125,-94.23828125,-93.26171875,-133.30078125,-41.50390625,0.0
5.1171875,-268.5546875,-98.14453125,-90.33203125,-139.6484375,-82.03125,0.0
5.12109375,-254.39453125,-91.796875,-72.75390625,-117.1875,-95.703125,0.0
5.125,-235.83984375,-84.9609375,-56.15234375,-102.5390625,-36.62109375,0.0
5.12890625,-210.9375,-76.66015625,-46.38671875,-107.421875,19.53125,0.0
5.1328125,-214.35546875,-70.3125,-50.78125,-119.140625,-18.06640625,0.0
5.13671875,-250.0,-67.3828125,-57.6171875,-112.3046875,-5.859375,0.0
5.140625,-247.55859375,-53.22265625,-57.6171875,-110.83984375,-60.05859375,0.0
5.14453125,-216.30859375,-44.43359375,-41.9921875,-95.703125,-81.54296875,0.0
5.1484375,-247.55859375,-56.15234375,-32.71484375,-80.078125,11.71875,0.0
5.15234375,-294.921875,-58.59375,-41.50390625,-94.7265625,3.41796875,0.0
5.15625,-277.83203125,-46.875,-28.80859375,-90.33203125,-45.41015625,0.0
5.16015625,-279.78515625,-56.640625,-26.3671875,-89.84375,5.37109375,0.0
5.1640625,-282.2265625,-65.4296875,-39.55078125,-85.9375,-0.48828125,0.0
5.16796875,-262.6953125,-56.640625,-34.66796875,-78.125,-84.47265625,0.0
5.171875,-248.046875,-57.6171875,-28.80859375,-81.0546875,-87.890625,0.0
5.17578125,-240.234375,-54.6875,-23.92578125,-64.453125,6.8359375,0.0
5.1796875,-233.88671875,-47.36328125,-22.94921875,-52.734375,79.1015625,0.0
5.18359375,-241.69921875,-49.8046875,-29.296875,-59.08203125,45.41015625,0.0
5.1875,-238.76953125,-50.78125,-20.99609375,-57.12890625,35.15625,0.0
5.19140625,-216.30859375,-43.9453125,-18.5546875,-50.78125,21.97265625,0.0
5.1953125,-214.84375,-41.015625,-32.71484375,-45.8984375,-47.36328125,0.0
5.19921875,-220.703125,-46.38671875,-36.62109375,-30.2734375,-51.7578125,0.0
5.203125,-217.28515625,-55.6640625,-37.59765625,-35.64453125,-39.0625,0.0
5.20703125,-223.14453125,-65.4296875,-43.45703125,-61.03515625,-105.95703125,0.0
5.2109375,-240.234375,-63.96484375,-40.52734375,-55.17578125,-120.1171875,0.0
5.21484375,-244.140625,-58.10546875,-29.296875,-28.80859375,-55.6640625,0.0
5.21875,-243.1640625,-59.5703125,-33.203125,-47.8515625,-38.0859375,0.0
5.22265625,-232.421875,-59.5703125,-35.15625,-61.5234375,-20.01953125,0.0
5.2265625,-225.5859375,-62.01171875,-31.73828125,-54.6875,-73.73046875,0.0
5.23046875,-213.8671875,-57.6171875,-26.85546875,-55.17578125,-124.51171875,0.0
5.234375,-181.15234375,-43.45703125,-24.4140625,-59.5703125,-54.19921875,0.0
5.23828125,-171.875,-57.12890625,-31.25,-61.5234375,-73.73046875,0.0
5.2421875,-203.61328125,-80.078125,-37.59765625,-64.453125,-91.30859375,0.0
5.24609375,-196.77734375,-76.171875,-44.921875,-69.82421875,-70.80078125,0.0
5.25,-174.8046875,-74.21875,-44.43359375,-74.70703125,-32.2265625,0.0
5.25390625,-186.5234375,-69.82421875,-35.64453125,-55.6640625,-17.08984375,0.0
5.2578125,-225.5859375,-67.3828125,-37.109375,-41.50390625,-23.4375,0.0
5.26171875,-253.41796875,-83.49609375,-48.828125,-49.8046875,18.06640625,0.0
5.265625,-250.48828125,-92.28515625,-57.12890625,-49.8046875,-36.62109375,0.0
5.26953125,-210.9375,-78.125,-45.8984375,-41.9921875,-49.31640625,0.0
5.2734375,-170.8984375,-65.4296875,-30.76171875,-43.9453125,-90.8203125,0.0
5.27734375,-162.109375,-66.40625,-39.0625,-53.22265625,-104.00390625,0.0
5.28125,-139.6484375,-71.2890625,-42.48046875,-46.875,-118.65234375,0.0
5.28515625,-134.27734375,-73.73046875,-38.57421875,-32.71484375,-188.96484375,0.0
5.2890625,-132.32421875,-68.84765625,-33.203125,-29.296875,-118.65234375,0.0
5.29296875,-133.30078125,-66.89453125,-27.34375,-28.3203125,7.8125,0.0
5.296875,-133.7890625,-72.265625,-33.203125,-14.16015625,-10.25390625,0.0
5.30078125,-119.62890625,-80.078125,-36.1328125,-13.671875,-112.3046875,0.0
5.3046875,-107.91015625,-70.3125,-26.3671875,-27.34375,-127.9296875,0.0
5.30859375,-104.00390625,-63.4765625,-16.6015625,-20.5078125,12.20703125,0.0
5.3125,-101.07421875,-62.98828125,-13.671875,-16.11328125,53.7109375,0.0
5.31640625,-105.95703125,-62.98828125,-20.01953125,-11.23046875,-7.8125,0.0
5.3203125,-103.02734375,-57.6171875,-13.671875,13.671875,-29.78515625,0.0
5.32421875,-94.23828125,-44.43359375,-3.41796875,20.5078125,-15.13671875,0.0
5.328125,-99.609375,-34.66796875,-4.39453125,28.80859375,38.57421875,0.0
5.33203125,-105.46875,-32.71484375,-15.13671875,26.85546875,40.0390625,0.0
5.3359375,-105.95703125,-30.76171875,-15.625,10.7421875,3.41796875,0.0
5.33984375,-113.28125,-30.2734375,-4.39453125,2.9296875,7.32421875,0.0
5.34375,-120.60546875,-37.109375,-5.859375,-5.37109375,-55.6640625,0.0
5.34765625,-82.51953125,-29.296875,-7.8125,0.48828125,-114.2578125,0.0
5.3515625,-72.265625,-21.97265625,-10.7421875,-12.20703125,-100.5859375,0.0
5.35546875,-100.09765625,-27.34375,-18.06640625,-27.34375,-181.640625,0.0
5.359375,-105.46875,-39.0625,-44.921875,-58.10546875,-116.69921875,0.0
5.36328125,-101.07421875,-44.43359375,-61.5234375,-64.453125,-18.06640625,0.0
5.3671875,-105.46875,-40.52734375,-45.41015625,-34.66796875,5.37109375,0.0
5.37109375,-95.703125,-40.52734375,-31.73828125,-16.6015625,41.9921875,0.0
5.375,-79.58984375,-42.96875,-26.85546875,-20.99609375,-3.41796875,0.0
5.37890625,-79.1015625,-37.59765625,-11.23046875,-10.25390625,63.4765625,0.0
5.3828125,-88.37890625,-42.96875,-1.953125,2.44140625,83.49609375,0.0
5.38671875,-94.7265625,-41.50390625,-4.8828125,-5.37109375,58.59375,0.0
5.390625,-83.0078125,-36.1328125,-3.90625,-3.41796875,59.08203125,0.0
5.39453125,-88.37890625,-33.203125,4.8828125,2.9296875,-35.15625,0.0
5.3984375,-73.73046875,-14.6484375,21.97265625,13.18359375,-82.03125,0.0
5.40234375,-49.31640625,-4.8828125,23.4375,15.625,-41.015625,0.0
5.40625,-36.1328125,-3.41796875,22.94921875,18.5546875,-21.97265625,0.0
5.41015625,-22.4609375,-3.41796875,26.85546875,20.5078125,-5.859375,0.0
5.4140625,-5.859375,0.0,32.2265625,28.3203125,13.671875,0.0
5.41796875,2.44140625,0.48828125,31.73828125,31.73828125,-15.13671875,0.0
5.421875,-3.41796875,-4.39453125,15.13671875,22.94921875,-60.546875,0.0
5.42578125,2.9296875,-8.30078125,5.859375,16.11328125,-97.16796875,0.0
5.4296875,16.11328125,-8.7890625,13.18359375,13.18359375,-116.69921875,0.0
5.43359375,27.34375,1.953125,22.4609375,17.578125,-55.6640625,0.0
5.4375,30.76171875,0.48828125,25.87890625,9.27734375,-0.9765625,0.0
5.44140625,0.48828125,-13.671875,20.01953125,1.46484375,-89.35546875,0.0
5.4453125,-1.953125,-9.765625,23.92578125,17.08984375,-66.89453125,0.0
5.44921875,24.90234375,-4.39453125,29.296875,24.90234375,-18.06640625,0.0
5.453125,28.3203125,-6.34765625,29.78515625,22.94921875,-42.48046875,0.0
5.45703125,36.1328125,-4.39453125,37.109375,18.5546875,-38.0859375,0.0
5.4609375,65.4296875,7.32421875,41.50390625,22.94921875,-6.8359375,0.0
5.46484375,75.1953125,8.7890625,41.9921875,21.97265625,40.0390625,0.0
5.46875,76.171875,8.7890625,45.8984375,9.765625,9.27734375,0.0
5.47265625,66.40625,14.6484375,52.734375,10.7421875,-93.75,0.0
5.4765625,17.08984375,17.08984375,52.734375,9.27734375,-101.5625,0.0
5.48046875,4.39453125,13.18359375,59.5703125,11.71875,-59.5703125,0.0
5.484375,17.578125,7.8125,59.5703125,21.97265625,-30.2734375,0.0
5.48828125,25.390625,6.34765625,58.59375,21.484375,13.18359375,0.0
5.4921875,44.43359375,12.20703125,66.40625,10.25390625,62.01171875,0.0
5.49609375,11.71875,7.8125,73.2421875,20.5078125,29.296875,0.0
5.5,-34.66796875,-0.9765625,76.66015625,22.4609375,12.20703125,0.0
5.50390625,-33.69140625,4.8828125,74.21875,22.4609375,-47.8515625,0.0
5.5078125,-4.8828125,16.11328125,75.1953125,31.73828125,-151.85546875,0.0
5.51171875,3.41796875,20.99609375,82.03125,16.6015625,-104.4921875,0.0
5.515625,-2.9296875,24.90234375,79.1015625,5.859375,9.765625,0.0
5.51953125,9.27734375,23.4375,81.0546875,12.20703125,61.5234375,0.0
5.5234375,18.06640625,11.71875,80.078125,-0.48828125,33.69140625,0.0
5.52734375,15.625,13.18359375,69.82421875,1.953125,-2.9296875,0.0
5.53125,25.87890625,19.53125,72.265625,15.13671875,-21.484375,0.0
5.53515625,34.66796875,10.25390625,73.2421875,17.08984375,2.9296875,0.0
5.5390625,41.50390625,10.25390625,66.40625,12.6953125,2.44140625,0.0
5.54296875,44.921875,11.71875,62.5,16.11328125,0.0,0.0
5.546875,69.82421875,16.11328125,73.2421875,28.3203125,-79.1015625,0.0
5.55078125,102.05078125,31.73828125,81.0546875,37.59765625,-145.99609375,0.0
5.5546875,101.5625,41.015625,77.63671875,26.85546875,-60.05859375,0.0
5.55859375,92.7734375,48.33984375,71.77734375,4.39453125,-27.83203125,0.0
5.5625,97.65625,49.8046875,70.80078125,-4.8828125,-59.5703125,0.0
5.56640625,93.75,34.66796875,67.3828125,-4.8828125,-64.453125,0.0
5.5703125,80.078125,25.390625,64.94140625,-2.44140625,-95.21484375,0.0
5.57421875,61.03515625,27.34375,66.40625,4.8828125,-85.9375,0.0
5.578125,53.22265625,36.1328125,54.19921875,-3.90625,13.18359375,0.0
5.58203125,65.4296875,43.9453125,49.8046875,-1.953125,77.1484375,0.0
5.5859375,76.171875,50.29296875,68.84765625,0.9765625,11.23046875,0.0
5.58984375,88.37890625,56.640625,73.73046875,-15.13671875,-38.0859375,0.0
5.59375,91.30859375,59.5703125,65.91796875,-2.44140625,-16.6015625,0.0
5.59765625,93.26171875,61.5234375,66.40625,8.30078125,-37.109375,0.0
5.6015625,109.86328125,68.84765625,69.3359375,2.9296875,-38.57421875,0.0
5.60546875,126.46484375,69.82421875,73.2421875,5.859375,-59.5703125,0.0
5.609375,127.9296875,63.4765625,82.03125,3.90625,-78.125,0.0
5.61328125,141.6015625,65.91796875,84.47265625,10.25390625,-54.6875,0.0
5.6171875,139.16015625,70.3125,74.70703125,17.578125,-15.625,0.0
5.62109375,128.90625,71.77734375,78.125,20.99609375,56.15234375,0.0
5.625,125.0,61.03515625,77.1484375,18.06640625,26.3671875,0.0
5.62890625,119.62890625,34.66796875,62.5,-2.9296875,-15.625,0.0
5.6328125,126.953125,35.64453125,52.734375,0.48828125,-25.390625,0.0
5.63671875,128.90625,52.24609375,53.22265625,21.97265625,-74.21875,0.0
5.640625,116.69921875,50.78125,56.15234375,25.390625,-28.80859375,0.0
5.64453125,99.12109375,51.7578125,59.5703125,18.5546875,20.01953125,0.0
5.6484375,80.56640625,54.6875,54.19921875,-9.27734375,-89.35546875,0.0
5.65234375,90.33203125,45.41015625,49.31640625,-23.92578125,-138.671875,0.0
5.65625,125.48828125,42.96875,60.05859375,0.48828125,1.46484375,0.0
5.66015625,141.6015625,48.33984375,58.10546875,6.8359375,43.45703125,0.0
5.6640625,152.34375,53.7109375,53.7109375,-15.625,-30.76171875,0.0
5.66796875,169.43359375,64.453125,73.2421875,7.8125,-12.6953125,0.0
5.671875,177.24609375,73.2421875,83.0078125,34.1796875,-2.44140625,0.0
5.67578125,155.2734375,70.3125,77.1484375,23.92578125,-28.3203125,0.0
5.6796875,153.3203125,74.70703125,74.21875,30.2734375,-1.46484375,0.0
5.68359375,163.0859375,83.0078125,77.63671875,31.73828125,-11.71875,0.0
5.6875,171.38671875,91.30859375,84.9609375,34.66796875,-77.1484375,0.0
5.69140625,187.98828125,102.05078125,85.44921875,40.52734375,-98.6328125,0.0
5.6953125,198.2421875,105.95703125,88.37890625,38.57421875,-65.91796875,0.0
5.69921875,207.51953125,106.4453125,85.44921875,47.8515625,-42.96875,0.0
5.703125,208.984375,99.609375,84.47265625,50.78125,-49.8046875,0.0
5.70703125,213.8671875,104.00390625,93.75,48.33984375,-11.71875,0.0
5.7109375,202.63671875,111.328125,96.6796875,38.57421875,13.671875,0.0
5.71484375,198.73046875,102.05078125,90.8203125,32.2265625,-19.53125,0.0
5.71875,191.40625,88.37890625,86.42578125,33.69140625,-6.34765625,0.0
5.72265625,202.63671875,101.5625,97.65625,39.55078125,-8.30078125,0.0
5.7265625,224.12109375,117.67578125,106.4453125,55.17578125,1.953125,0.0
5.73046875,226.07421875,114.74609375,105.95703125,50.29296875,-34.66796875,0.0
5.734375,217.7734375,113.76953125,104.4921875,35.64453125,-93.26171875,0.0
5.73828125,214.35546875,117.1875,104.00390625,58.59375,-46.875,0.0
5.7421875,220.21484375,116.69921875,106.4453125,78.61328125,3.90625,0.0
5.74609375,237.79296875,112.79296875,96.19140625,65.91796875,-50.29296875,0.0
5.75,257.8125,118.65234375,93.75,67.3828125,-85.9375,0.0
5.75390625,255.37109375,120.60546875,96.19140625,66.89453125,-16.11328125,0.0
5.7578125,255.37109375,114.74609375,91.30859375,54.6875,23.92578125,0.0
5.76171875,252.9296875,109.375,83.49609375,49.31640625,16.6015625,0.0
5.765625,232.91015625,113.28125,87.40234375,56.15234375,-59.08203125,0.0
5.76953125,229.00390625,124.51171875,104.00390625,67.87109375,-88.37890625,0.0
5.7734375,228.515625,131.34765625,103.02734375,67.87109375,-119.140625,0.0
5.77734375,226.07421875,131.8359375,89.84375,62.01171875,-126.953125,0.0
5.78125,219.7265625,129.8828125,92.28515625,57.12890625,-50.29296875,0.0
5.78515625,203.61328125,121.58203125,90.33203125,53.7109375,9.765625,0.0
5.7890625,210.9375,122.0703125,91.796875,56.15234375,-17.08984375,0.0
5.79296875,229.98046875,126.953125,88.37890625,47.36328125,-20.99609375,0.0
5.796875,213.37890625,117.67578125,78.61328125,37.59765625,-41.015625,0.0
5.80078125,198.2421875,100.5859375,74.21875,31.73828125,-80.56640625,0.0
5.8046875,211.9140625,92.7734375,71.77734375,17.578125,-120.1171875,0.0
5.80859375,222.65625,106.4453125,87.890625,24.90234375,-175.29296875,0.0
5.8125,198.73046875,119.62890625,89.84375,29.296875,-170.8984375,0.0
5.81640625,174.31640625,111.81640625,83.984375,21.97265625,-149.90234375,0.0
5.8203125,180.6640625,107.421875,83.49609375,20.5078125,-141.6015625,0.0
5.82421875,173.828125,103.515625,81.54296875,29.296875,-164.55078125,0.0
5.828125,166.015625,95.21484375,82.03125,24.4140625,-149.90234375,0.0
5.83203125,176.26953125,106.93359375,87.40234375,20.99609375,-115.234375,0.0
5.8359375,181.640625,116.2109375,89.35546875,30.2734375,-154.296875,0.0
5.83984375,192.87109375,106.4453125,85.9375,21.97265625,-128.90625,0.0
5.84375,208.984375,98.14453125,84.47265625,23.92578125,-76.66015625,0.0
5.84765625,205.078125,97.16796875,90.8203125,37.59765625,-39.0625,0.0
5.8515625,207.03125,99.609375,83.984375,31.25,37.59765625,0.0
5.85546875,196.2890625,101.07421875,64.94140625,18.06640625,42.48046875,0.0
5.859375,193.359375,97.65625,66.89453125,20.01953125,59.08203125,0.0
5.86328125,199.21875,95.703125,67.87109375,16.6015625,55.6640625,0.0
5.8671875,203.61328125,104.00390625,65.4296875,23.4375,76.66015625,0.0
5.87109375,204.58984375,92.28515625,58.10546875,17.08984375,99.12109375,0.0
5.875,181.640625,69.82421875,36.62109375,-2.9296875,78.61328125,0.0
5.87890625,185.05859375,87.890625,43.45703125,18.5546875,62.5,0.0
5.8828125,184.5703125,104.4921875,54.19921875,28.3203125,53.22265625,0.0
5.88671875,208.49609375,107.91015625,58.10546875,25.87890625,121.58203125,0.0
5.890625,243.65234375,108.3984375,67.3828125,38.57421875,92.28515625,0.0
5.89453125,236.328125,107.91015625,66.89453125,37.109375,71.2890625,0.0
5.8984375,222.16796875,112.79296875,59.08203125,39.0625,24.4140625,0.0
5.90234375,201.66015625,107.91015625,45.8984375,48.33984375,-30.2734375,0.0
5.90625,194.82421875,105.95703125,41.015625,47.8515625,32.71484375,0.0
5.91015625,181.15234375,104.00390625,41.9921875,27.83203125,18.06640625,0.0
5.9140625,160.64453125,94.23828125,36.62109375,-1.46484375,23.92578125,0.0
5.91796875,161.62109375,94.23828125,24.4140625,-20.5078125,34.66796875,0.0
5.921875,150.390625,83.49609375,7.32421875,-28.80859375,-86.42578125,0.0
5.92578125,151.3671875,78.125,1.953125,-11.23046875,-74.70703125,0.0
5.9296875,168.45703125,96.6796875,11.71875,4.39453125,-51.26953125,0.0
5.93359375,157.71484375,96.6796875,15.13671875,-13.671875,-16.6015625,0.0
5.9375,146.484375,87.890625,15.13671875,-7.32421875,-41.50390625,0.0
5.94140625,141.6015625,93.26171875,21.484375,4.8828125,-63.4765625,0.0
5.9453125,145.01953125,102.5390625,28.80859375,-3.41796875,-20.01953125,0.0
5.94921875,144.04296875,111.328125,31.73828125,-8.7890625,-3.90625,0.0
5.953125,144.53125,101.07421875,28.80859375,-2.44140625,8.30078125,0.0
5.95703125,168.45703125,101.07421875,42.96875,20.01953125,14.6484375,0.0
5.9609375,172.36328125,115.234375,50.29296875,34.1796875,-9.27734375,0.0
5.96484375,172.8515625,116.69921875,50.78125,39.0625,-66.89453125,0.0
5.96875,197.75390625,110.83984375,55.17578125,47.36328125,-79.58984375,0.0
5.97265625,203.61328125,117.1875,61.03515625,55.17578125,-26.3671875,0.0
5.9765625,168.9453125,117.67578125,64.94140625,51.7578125,-100.5859375,0.0
5.98046875,158.69140625,107.421875,50.78125,40.52734375,-177.24609375,0.0
5.984375,179.6875,106.93359375,48.33984375,34.66796875,-81.0546875,0.0
5.98828125,186.5234375,104.98046875,64.94140625,19.04296875,-51.7578125,0.0
5.9921875,197.75390625,110.83984375,65.4296875,23.92578125,-79.58984375,0.0
5.99609375,241.69921875,127.9296875,67.3828125,49.31640625,-32.2265625,0.0
6.0,236.81640625,134.27734375,67.3828125,58.10546875,-46.38671875,0.0
6.00390625,193.359375,121.09375,68.359375,61.03515625,-63.4765625,0.0
6.0078125,181.640625,118.1640625,81.0546875,58.59375,-14.16015625,0.0
6.01171875,166.9921875,125.9765625,74.21875,64.453125,35.15625,0.0
6.015625,168.9453125,130.859375,71.2890625,64.453125,-10.7421875,0.0
6.01953125,167.48046875,129.8828125,72.75390625,46.875,-74.70703125,0.0
6.0234375,166.50390625,132.32421875,69.82421875,46.38671875,-37.109375,0.0
6.02734375,175.78125,126.46484375,68.359375,50.78125,-2.44140625,0.0
6.03125,166.015625,121.09375,62.5,50.78125,39.0625,0.0
6.03515625,168.9453125,123.046875,55.17578125,54.6875,20.01953125,0.0
6.0390625,157.71484375,118.65234375,42.48046875,46.875,36.1328125,0.0
6.04296875,150.87890625,113.76953125,36.62109375,39.55078125,70.80078125,0.0
6.046875,161.62109375,116.69921875,39.55078125,38.57421875,2.9296875,0.0
6.05078125,175.78125,123.53515625,39.0625,25.87890625,-55.17578125,0.0
6.0546875,184.08203125,123.046875,29.296875,27.34375,27.34375,0.0
6.05859375,183.59375,120.1171875,17.08984375,38.57421875,139.16015625,0.0
6.0625,181.640625,124.51171875,18.06640625,34.66796875,60.05859375,0.0
6.06640625,171.875,119.140625,23.4375,23.92578125,-73.2421875,0.0
6.0703125,176.26953125,108.3984375,25.390625,20.99609375,-72.75390625,0.0
6.07421875,178.22265625,117.67578125,12.6953125,27.83203125,-49.31640625,0.0
6.078125,166.9921875,114.2578125,5.859375,36.1328125,-107.91015625,0.0
6.08203125,155.2734375,106.4453125,12.20703125,36.1328125,-54.6875,0.0
6.0859375,141.6015625,114.2578125,21.484375,32.2265625,-7.32421875,0.0
6.08984375,129.8828125,107.421875,22.94921875,24.90234375,-14.16015625,0.0
6.09375,140.13671875,100.5859375,16.6015625,14.16015625,-21.484375,0.0
6.09765625,135.25390625,90.33203125,0.9765625,-2.9296875,-45.41015625,0.0
6.1015625,95.703125,68.84765625,-27.83203125,-25.87890625,55.17578125,0.0
6.10546875,70.80078125,67.3828125,-34.66796875,-35.15625,79.1015625,0.0
6.109375,70.3125,71.77734375,-34.66796875,-32.71484375,11.71875,0.0
6.11328125,76.66015625,70.3125,-35.64453125,-28.3203125,-7.32421875,0.0
6.1171875,70.3125,70.80078125,-32.71484375,-32.2265625,16.11328125,0.0
6.12109375,83.49609375,87.40234375,-10.25390625,-11.23046875,27.83203125,0.0
6.125,113.28125,105.46875,23.92578125,13.671875,25.87890625,0.0
6.12890625,128.90625,114.74609375,36.1328125,17.578125,-21.97265625,0.0
6.1328125,142.578125,124.0234375,33.203125,24.4140625,-55.6640625,0.0
6.13671875,146.484375,125.0,35.64453125,34.66796875,-51.7578125,0.0
6.140625,144.53125,120.1171875,35.15625,37.109375,-20.99609375,0.0
6.14453125,138.671875,124.51171875,31.25,41.50390625,-6.8359375,0.0
6.1484375,142.578125,136.23046875,30.76171875,31.25,-80.078125,0.0
6.15234375,154.296875,129.8828125,26.3671875,23.92578125,-63.96484375,0.0
6.15625,144.04296875,120.60546875,27.34375,29.78515625,-66.89453125,0.0
6.16015625,148.4375,111.81640625,33.203125,40.52734375,-130.37109375,0.0
6.1640625,184.08203125,105.46875,36.62109375,71.77734375,-166.015625,0.0
6.16796875,197.265625,121.58203125,25.390625,68.359375,-172.8515625,0.0
6.171875,148.4375,134.27734375,18.06640625,16.6015625,-126.46484375,0.0
6.17578125,121.09375,137.20703125,16.6015625,8.7890625,-119.140625,0.0
6.1796875,137.20703125,136.71875,10.25390625,14.16015625,-114.2578125,0.0
6.18359375,138.671875,134.27734375,25.87890625,19.04296875,-39.55078125,0.0
6.1875,142.578125,127.9296875,29.78515625,19.04296875,-3.41796875,0.0
6.19140625,134.765625,113.76953125,19.53125,7.8125,-19.04296875,0.0
6.1953125,138.671875,111.81640625,16.6015625,11.23046875,10.7421875,0.0
6.19921875,144.04296875,115.234375,11.71875,21.97265625,68.84765625,0.0
6.203125,138.18359375,110.83984375,7.8125,19.04296875,13.671875,0.0
6.20703125,133.7890625,109.86328125,2.44140625,-12.20703125,-28.3203125,0.0
6.2109375,129.8828125,113.76953125,3.41796875,-17.578125,24.90234375,0.0
6.21484375,119.140625,107.421875,4.39453125,7.8125,47.36328125,0.0
6.21875,113.76953125,109.375,0.48828125,21.484375,-22.94921875,0.0
6.22265625,115.234375,118.1640625,6.8359375,14.16015625,-34.66796875,0.0
6.2265625,125.0,122.0703125,13.18359375,9.27734375,-72.75390625,0.0
6.23046875,148.92578125,114.2578125,9.765625,17.578125,-37.109375,0.0
6.234375,131.34765625,107.421875,7.32421875,23.92578125,-0.9765625,0.0
6.23828125,91.796875,109.375,-4.8828125,24.4140625,-160.15625,0.0
6.2421875,96.6796875,115.234375,-14.16015625,13.18359375,-170.41015625,0.0
6.24609375,117.67578125,111.328125,-10.7421875,0.0,-90.33203125,0.0
6.25,127.9296875,111.81640625,-8.30078125,9.27734375,-8.7890625,0.0
6.25390625,124.51171875,116.69921875,-12.20703125,15.13671875,-42.96875,0.0
6.2578125,124.0234375,114.74609375,-6.8359375,12.6953125,-56.15234375,0.0
6.26171875,119.140625,97.16796875,-6.8359375,21.484375,-78.125,0.0
6.265625,131.34765625,91.30859375,-12.6953125,17.08984375,-151.85546875,0.0
6.26953125,166.9921875,104.00390625,1.46484375,32.71484375,-114.74609375,0.0
6.2734375,180.17578125,102.05078125,11.23046875,45.41015625,-52.24609375,0.0
6.27734375,187.98828125,97.65625,11.71875,32.71484375,-107.421875,0.0
6.28125,196.2890625,97.65625,17.578125,39.0625,-115.72265625,0.0
6.28515625,183.10546875,92.28515625,18.5546875,43.45703125,-19.53125,0.0
6.2890625,168.9453125,91.796875,19.53125,36.1328125,-56.640625,0.0
6.29296875,185.546875,90.33203125,27.83203125,37.59765625,-109.86328125,0.0
6.296875,210.9375,90.33203125,30.76171875,44.921875,-77.63671875,0.0
6.30078125,206.54296875,94.23828125,21.97265625,44.921875,-89.84375,0.0
6.3046875,195.3125,99.609375,12.6953125,48.33984375,-104.00390625,0.0
6.30859375,203.125,105.46875,20.99609375,57.6171875,14.6484375,0.0
6.3125,208.984375,105.46875,24.4140625,54.6875,83.984375,0.0
6.31640625,218.26171875,119.140625,23.4375,57.6171875,101.07421875,0.0
6.3203125,215.33203125,129.39453125,25.390625,69.3359375,83.984375,0.0
6.32421875,216.30859375,128.90625,34.1796875,67.3828125,17.578125,0.0
6.328125,226.07421875,143.06640625,52.24609375,69.3359375,-57.6171875,0.0
6.33203125,246.58203125,158.69140625,58.10546875,67.87109375,-27.34375,0.0
6.3359375,259.27734375,168.45703125,65.91796875,68.359375,1.46484375,0.0
6.33984375,247.0703125,168.45703125,70.3125,70.80078125,-1.46484375,0.0
6.34375,234.86328125,162.59765625,63.4765625,72.75390625,7.8125,0.0
6.34765625,228.02734375,161.62109375,64.453125,78.125,-23.4375,0.0
6.3515625,218.26171875,167.48046875,60.546875,80.56640625,-20.01953125,0.0
6.35546875,227.5390625,177.24609375,59.08203125,87.890625,20.01953125,0.0
6.359375,240.234375,174.8046875,63.4765625,87.40234375,13.18359375,0.0
6.36328125,242.67578125,171.38671875,62.5,90.8203125,-1.46484375,0.0
6.3671875,264.16015625,174.31640625,73.73046875,98.14453125,-50.78125,0.0
6.37109375,291.50390625,178.7109375,82.03125,100.5859375,-73.2421875,0.0
6.375,272.94921875,182.6171875,68.359375,104.00390625,-55.6640625,0.0
6.37890625,251.953125,187.01171875,60.546875,106.4453125,-64.94140625,0.0
6.3828125,265.625,191.89453125,61.03515625,92.7734375,-44.43359375,0.0
6.38671875,266.6015625,187.01171875,60.05859375,89.35546875,-5.37109375,0.0
6.390625,266.11328125,179.19921875,62.01171875,100.5859375,-33.203125,0.0
6.39453125,250.9765625,175.78125,60.05859375,106.4453125,-69.82421875,0.0
6.3984375,216.30859375,161.62109375,56.15234375,97.65625,-68.84765625,0.0
6.40234375,214.84375,154.78515625,43.9453125,82.51953125,-68.84765625,0.0
6.40625,230.95703125,165.0390625,43.45703125,96.6796875,-75.1953125,0.0
6.41015625,219.7265625,155.2734375,52.734375,105.46875,-6.34765625,0.0
6.4140625,221.19140625,147.94921875,61.03515625,101.5625,2.44140625,0.0
6.41796875,239.74609375,145.5078125,56.640625,110.3515625,-62.98828125,0.0
6.421875,225.5859375,140.13671875,40.0390625,111.81640625,-43.45703125,0.0
6.42578125,220.703125,139.16015625,36.1328125,102.5390625,-26.85546875,0.0
6.4296875,251.953125,141.11328125,44.921875,114.74609375,-54.6875,0.0
6.43359375,261.71875,138.18359375,37.109375,114.2578125,-53.7109375,0.0
6.4375,261.23046875,132.32421875,31.25,111.328125,-56.15234375,0.0
6.44140625,269.04296875,139.6484375,29.296875,114.2578125,-104.4921875,0.0
6.4453125,266.11328125,148.92578125,25.390625,113.76953125,-68.359375,0.0
6.44921875,262.20703125,150.390625,35.15625,116.69921875,-19.53125,0.0
6.453125,264.16015625,142.08984375,49.31640625,109.86328125,8.30078125,0.0
6.45703125,248.046875,128.90625,46.38671875,117.1875,38.0859375,0.0
6.4609375,233.3984375,128.41796875,46.875,121.58203125,28.80859375,0.0
6.46484375,245.60546875,130.37109375,59.08203125,124.51171875,-4.39453125,0.0
6.46875,256.34765625,131.34765625,61.03515625,133.30078125,-12.20703125,0.0
6.47265625,286.1328125,145.01953125,71.77734375,149.4140625,-14.6484375,0.0
6.4765625,304.19921875,161.62109375,77.1484375,125.0,44.921875,0.0
6.48046875,288.0859375,156.73828125,59.08203125,87.890625,89.84375,0.0
6.484375,291.9921875,145.01953125,40.0390625,105.46875,33.203125,0.0
6.48828125,289.55078125,148.4375,39.0625,109.375,-24.4140625,0.0
6.4921875,294.921875,151.85546875,48.33984375,98.6328125,47.36328125,0.0
6.49609375,298.33984375,137.20703125,45.8984375,108.88671875,51.26953125,0.0
6.5,292.96875,117.1875,40.0390625,119.140625,-71.2890625,0.0
6.50390625,313.96484375,137.20703125,53.22265625,141.6015625,-59.08203125,0.0
6.5078125,329.58984375,151.3671875,53.22265625,139.6484375,-68.84765625,0.0
6.51171875,321.77734375,137.20703125,41.015625,116.69921875,-92.28515625,0.0
6.515625,338.37890625,147.94921875,56.640625,126.953125,-37.59765625,0.0
6.51953125,366.69921875,156.73828125,74.21875,127.9296875,-18.5546875,0.0
6.5234375,375.9765625,166.50390625,73.2421875,145.5078125,21.484375,0.0
6.52734375,370.1171875,173.33984375,77.63671875,173.33984375,44.921875,0.0
6.53125,381.34765625,172.36328125,83.0078125,168.45703125,4.39453125,0.0
6.53515625,425.78125,182.12890625,87.890625,177.24609375,-44.921875,0.0
6.5390625,432.12890625,176.26953125,79.58984375,182.12890625,-87.890625,0.0
6.54296875,410.15625,167.48046875,59.08203125,164.55078125,-71.77734375,0.0
6.546875,435.05859375,169.43359375,71.77734375,178.7109375,-25.390625,0.0
6.55078125,435.546875,163.57421875,90.33203125,181.640625,-61.5234375,0.0
6.5546875,445.3125,169.43359375,85.9375,167.96875,-113.76953125,0.0
6.55859375,457.51953125,175.78125,85.9375,177.734375,-165.52734375,0.0
6.5625,465.33203125,191.89453125,100.09765625,202.63671875,-205.078125,0.0
6.56640625,484.375,210.44921875,103.515625,224.12109375,-146.97265625,0.0
6.5703125,492.1875,212.890625,93.26171875,231.4453125,-93.26171875,0.0
6.57421875,468.75,206.54296875,82.51953125,210.9375,-81.0546875,0.0
6.578125,455.078125,209.47265625,84.9609375,200.68359375,34.66796875,0.0
6.58203125,457.03125,213.8671875,98.6328125,207.51953125,33.203125,0.0
6.5859375,446.77734375,213.8671875,100.09765625,209.47265625,-7.32421875,0.0
6.58984375,450.68359375,213.8671875,94.7265625,221.19140625,41.015625,0.0
6.59375,469.7265625,210.44921875,102.05078125,234.86328125,102.05078125,0.0
6.59765625,476.5625,203.125,99.12109375,232.421875,20.01953125,0.0
6.6015625,472.16796875,201.171875,94.23828125,231.93359375,-56.15234375,0.0
6.60546875,453.125,197.265625,91.796875,236.81640625,29.296875,0.0
6.609375,435.546875,198.2421875,98.14453125,241.2109375,8.30078125,0.0
6.61328125,432.12890625,202.1484375,113.76953125,241.2109375,-35.15625,0.0
6.6171875,429.6875,201.66015625,119.62890625,241.69921875,-6.8359375,0.0
6.62109375,441.89453125,204.58984375,125.48828125,244.62890625,53.22265625,0.0
6.625,452.63671875,195.3125,129.39453125,261.71875,38.57421875,0.0
6.62890625,452.63671875,190.91796875,130.859375,273.4375,16.11328125,0.0
6.6328125,461.42578125,193.359375,123.53515625,259.27734375,54.19921875,0.0
6.63671875,474.12109375,187.01171875,115.234375,252.44140625,34.1796875,0.0
6.640625,479.00390625,190.4296875,119.140625,264.16015625,-106.93359375,0.0
6.64453125,480.95703125,189.453125,123.53515625,270.01953125,-169.43359375,0.0
6.6484375,458.0078125,171.875,118.65234375,268.5546875,-116.69921875,0.0
6.65234375,460.44921875,181.15234375,125.48828125,282.2265625,-96.6796875,0.0
6.65625,468.26171875,194.3359375,136.71875,298.828125,-44.921875,0.0
6.66015625,483.88671875,200.68359375,141.6015625,302.24609375,81.0546875,0.0
6.6640625,509.765625,210.44921875,142.578125,308.59375,32.71484375,0.0
6.66796875,518.06640625,220.21484375,139.16015625,299.31640625,-65.91796875,0.0
6.671875,536.62109375,232.421875,140.625,307.6171875,-56.640625,0.0
6.67578125,540.52734375,236.328125,140.625,325.68359375,-47.8515625,0.0
6.6796875,521.97265625,229.4921875,129.39453125,331.0546875,-32.71484375,0.0
6.68359375,552.24609375,231.4453125,132.8125,323.73046875,-44.43359375,0.0
6.6875,579.58984375,237.79296875,142.08984375,326.171875,-66.89453125,0.0
6.69140625,604.98046875,237.3046875,140.625,339.35546875,-56.15234375,0.0
6.6953125,649.90234375,247.55859375,142.578125,334.9609375,-66.89453125,0.0
6.69921875,651.85546875,255.37109375,146.97265625,324.21875,-67.87109375,0.0
6.703125,647.94921875,255.37109375,145.01953125,324.21875,-21.484375,0.0
6.70703125,656.25,251.46484375,137.6953125,331.54296875,6.8359375,0.0
6.7109375,663.0859375,243.65234375,131.34765625,317.3828125,-73.2421875,0.0
6.71484375,677.734375,239.74609375,128.41796875,313.4765625,-67.3828125,0.0
6.71875,699.70703125,240.234375,123.046875,312.98828125,-60.546875,0.0
6.72265625,687.5,247.55859375,129.8828125,307.12890625,-134.765625,0.0
6.7265625,671.38671875,256.34765625,146.484375,314.453125,-102.5390625,0.0
6.73046875,691.40625,254.8828125,137.20703125,318.359375,-39.0625,0.0
6.734375,709.47265625,253.90625,126.46484375,318.84765625,-50.78125,0.0
6.73828125,686.03515625,250.0,126.46484375,327.63671875,-90.33203125,0.0
6.7421875,652.34375,246.58203125,127.9296875,309.5703125,-92.7734375,0.0
6.74609375,636.23046875,238.76953125,130.37109375,304.19921875,-14.6484375,0.0
6.75,643.5546875,234.86328125,136.23046875,308.59375,-0.48828125,0.0
6.75390625,676.7578125,232.91015625,146.484375,312.01171875,18.5546875,0.0
6.7578125,699.21875,236.328125,157.2265625,330.078125,41.9921875,0.0
6.76171875,705.56640625,236.328125,156.25,341.30859375,10.25390625,0.0
6.765625,718.26171875,228.515625,158.203125,331.54296875,-6.8359375,0.0
6.76953125,707.51953125,229.98046875,159.1796875,318.84765625,-44.43359375,0.0
6.7734375,655.2734375,228.515625,154.296875,310.546875,10.25390625,0.0
6.77734375,631.8359375,231.93359375,151.85546875,316.89453125,59.5703125,0.0
6.78125,633.30078125,236.328125,141.11328125,327.1484375,-17.08984375,0.0
6.78515625,625.48828125,226.5625,131.8359375,329.58984375,-67.87109375,0.0
6.7890625,650.87890625,228.515625,134.765625,330.56640625,-67.3828125,0.0
6.79296875,703.61328125,240.234375,145.99609375,340.8203125,39.0625,0.0
6.796875,711.9140625,249.0234375,155.2734375,355.95703125,98.14453125,0.0
6.80078125,695.3125,242.1875,159.66796875,348.6328125,-22.4609375,0.0
6.8046875,688.96484375,240.234375,161.1328125,338.8671875,-49.8046875,0.0
6.80859375,690.91796875,249.0234375,156.25,349.12109375,46.875,0.0
6.8125,684.5703125,241.69921875,144.53125,344.23828125,83.49609375,0.0
6.81640625,671.38671875,235.3515625,144.53125,338.8671875,18.5546875,0.0
6.8203125,664.0625,237.79296875,148.92578125,361.328125,-38.0859375,0.0
6.82421875,666.015625,244.140625,152.83203125,375.0,-65.4296875,0.0
6.828125,679.6875,238.76953125,162.59765625,374.0234375,-40.52734375,0.0
6.83203125,683.10546875,226.07421875,165.0390625,375.48828125,-56.640625,0.0
6.8359375,682.6171875,236.81640625,167.96875,368.65234375,-51.7578125,0.0
6.83984375,687.5,252.9296875,186.03515625,380.37109375,28.3203125,0.0
6.84375,686.5234375,252.44140625,190.91796875,385.25390625,52.24609375,0.0
6.84765625,711.42578125,254.39453125,187.01171875,399.4140625,3.90625,0.0
6.8515625,729.98046875,263.18359375,188.4765625,420.41015625,36.62109375,0.0
6.85546875,703.125,269.53125,191.89453125,414.55078125,6.34765625,0.0
6.859375,700.68359375,271.484375,199.21875,413.0859375,-78.125,0.0
6.86328125,701.66015625,268.5546875,198.2421875,399.4140625,-47.8515625,0.0
6.8671875,688.4765625,264.16015625,188.96484375,392.08984375,8.30078125,0.0
6.87109375,699.21875,261.23046875,178.7109375,396.97265625,-26.85546875,0.0
6.875,715.8203125,252.44140625,182.6171875,386.23046875,-40.52734375,0.0
6.87890625,719.23828125,253.41796875,189.453125,385.7421875,-30.2734375,0.0
6.8828125,696.2890625,268.5546875,188.96484375,391.11328125,-27.83203125,0.0
6.88671875,687.98828125,269.53125,185.546875,383.7890625,-29.78515625,0.0
6.890625,711.9140625,268.5546875,187.5,389.16015625,-34.1796875,0.0
6.89453125,723.6328125,284.66796875,187.98828125,387.20703125,-8.30078125,0.0
6.8984375,713.37890625,293.45703125,184.08203125,391.6015625,38.0859375,0.0
6.90234375,694.3359375,291.50390625,189.94140625,400.87890625,38.0859375,0.0
6.90625,685.05859375,293.9453125,193.84765625,388.18359375,-12.6953125,0.0
6.91015625,699.70703125,293.45703125,186.03515625,380.859375,-92.28515625,0.0
6.9140625,719.7265625,281.73828125,187.01171875,397.94921875,-107.91015625,0.0
6.91796875,727.5390625,277.83203125,195.3125,398.4375,-58.59375,0.0
6.921875,720.21484375,283.69140625,197.265625,383.7890625,-37.59765625,0.0
6.92578125,724.12109375,287.109375,199.21875,395.99609375,-26.85546875,0.0
6.9296875,738.28125,281.73828125,192.87109375,390.625,65.91796875,0.0
6.93359375,740.234375,273.92578125,181.15234375,389.16015625,36.62109375,0.0
6.9375,718.26171875,271.484375,183.59375,395.99609375,18.5546875,0.0
6.94140625,697.75390625,277.83203125,198.2421875,382.32421875,43.9453125,0.0
6.9453125,715.8203125,282.2265625,197.75390625,395.99609375,-5.37109375,0.0
6.94921875,740.72265625,269.53125,192.87109375,421.38671875,-87.890625,0.0
6.953125,747.55859375,260.25390625,187.01171875,437.01171875,-109.375,0.0
6.95703125,749.51171875,255.859375,178.22265625,424.31640625,-89.35546875,0.0
6.9609375,765.13671875,265.625,184.5703125,422.8515625,-87.40234375,0.0
6.96484375,780.76171875,278.3203125,186.5234375,455.56640625,-131.8359375,0.0
6.96875,791.9921875,286.62109375,191.89453125,469.23828125,-110.83984375,0.0
6.97265625,805.6640625,294.921875,197.75390625,468.26171875,-27.34375,0.0
6.9765625,817.87109375,302.734375,198.2421875,466.30859375,-40.0390625,0.0
6.98046875,803.7109375,308.10546875,192.87109375,456.0546875,-146.97265625,0.0
6.984375,788.0859375,298.33984375,175.78125,453.61328125,-89.35546875,0.0
6.98828125,795.8984375,294.43359375,176.26953125,466.30859375,-20.5078125,0.0
6.9921875,814.94140625,288.57421875,170.8984375,470.21484375,-85.9375,0.0
6.99609375,813.96484375,287.109375,166.015625,463.37890625,-33.69140625,0.0
7.0,793.9453125,291.50390625,173.828125,449.70703125,-50.29296875,0.0
