timestamp,TP9,AF7,AF8,TP10,AUX,Marker,
199.00390625,-2.44140625,-35.64453125,-51.7578125,-1.46484375,37.59765625,0.0
199.0078125,-13.18359375,8.30078125,-51.7578125,-6.34765625,0.0,0.0
199.01171875,-8.30078125,-17.578125,-50.78125,-9.27734375,-23.4375,0.0
199.015625,-14.6484375,-51.26953125,-54.6875,-7.8125,-33.69140625,0.0
199.01953125,-6.34765625,-28.80859375,-59.08203125,-1.953125,22.94921875,0.0
199.0234375,-8.7890625,-13.18359375,-53.22265625,-13.671875,72.265625,0.0
199.02734375,-30.2734375,-11.71875,-19.04296875,-20.01953125,76.171875,0.0
199.03125,-32.2265625,-26.85546875,-15.13671875,-17.578125,91.796875,0.0
199.03515625,-36.62109375,-51.26953125,-29.78515625,-27.83203125,-16.11328125,0.0
199.0390625,-34.66796875,-58.59375,-50.78125,-30.2734375,-96.19140625,0.0
199.04296875,-20.01953125,-25.87890625,-71.2890625,-10.7421875,-1.46484375,0.0
199.046875,-8.30078125,-33.69140625,-63.4765625,-10.7421875,10.7421875,0.0
199.05078125,0.0,-33.69140625,-51.7578125,-9.27734375,-38.57421875,0.0
199.0546875,10.7421875,5.859375,-35.15625,6.34765625,-134.765625,0.0
199.05859375,-18.5546875,-16.11328125,-39.0625,-14.6484375,-139.16015625,0.0
199.0625,-44.921875,-44.921875,-54.6875,-35.15625,-4.8828125,0.0
199.06640625,-27.34375,-36.1328125,-58.59375,-27.83203125,-5.859375,0.0
199.0703125,-14.6484375,-36.1328125,-62.01171875,-22.94921875,-72.75390625,0.0
199.07421875,-21.484375,-56.15234375,-30.76171875,-32.71484375,-116.69921875,0.0
199.078125,-22.4609375,-80.078125,-9.27734375,-19.53125,-145.01953125,0.0
199.08203125,-30.2734375,-52.24609375,-26.85546875,-8.7890625,-43.9453125,0.0
199.0859375,-25.87890625,-3.90625,-31.73828125,-23.92578125,4.8828125,0.0
199.08984375,-15.625,-3.41796875,-45.41015625,-31.73828125,-3.41796875,0.0
199.09375,-23.4375,-29.296875,-51.26953125,-31.73828125,-60.546875,0.0
199.09765625,-30.2734375,-34.66796875,-48.33984375,-24.4140625,-167.48046875,0.0
199.1015625,-39.55078125,-16.6015625,-61.5234375,-33.69140625,-138.18359375,0.0
199.10546875,-29.78515625,-19.04296875,-62.01171875,-25.87890625,-4.39453125,0.0
199.109375,-20.01953125,-49.31640625,-51.26953125,-9.27734375,9.765625,0.0
199.11328125,-1.46484375,-65.91796875,-16.11328125,0.9765625,-15.13671875,0.0
199.1171875,12.6953125,-32.71484375,-11.23046875,8.30078125,-104.00390625,0.0
199.12109375,-20.5078125,-17.578125,-57.6171875,-20.5078125,-77.1484375,0.0
199.125,-51.26953125,-32.71484375,-64.453125,-50.29296875,-6.34765625,0.0
199.12890625,-46.875,-29.296875,-32.2265625,-38.57421875,-29.78515625,0.0
199.1328125,-40.0390625,-13.18359375,-41.9921875,-27.34375,13.18359375,0.0
199.13671875,-41.50390625,-18.5546875,-58.10546875,-28.3203125,-20.01953125,0.0
199.140625,-26.3671875,-15.13671875,-20.5078125,-20.5078125,23.4375,0.0
199.14453125,-21.97265625,-27.83203125,-6.8359375,-20.5078125,89.84375,0.0
199.1484375,-20.5078125,-35.64453125,-26.3671875,-20.01953125,14.6484375,0.0
199.15234375,-24.4140625,-29.296875,-37.109375,-24.4140625,-89.84375,0.0
199.15625,-31.73828125,-35.15625,-35.15625,-20.01953125,-173.33984375,0.0
199.16015625,-38.0859375,-23.92578125,-29.78515625,-9.27734375,-71.77734375,0.0
199.1640625,-54.6875,-21.97265625,-43.9453125,-11.71875,57.6171875,0.0
199.16796875,-46.875,-23.4375,-59.08203125,-6.34765625,72.265625,0.0
199.171875,-18.5546875,-18.06640625,-44.921875,5.859375,25.87890625,0.0
199.17578125,-5.37109375,-15.13671875,-35.64453125,22.94921875,-31.25,0.0
199.1796875,-13.671875,-6.8359375,-44.921875,13.18359375,7.32421875,0.0
199.18359375,-25.390625,-8.7890625,-33.69140625,5.37109375,121.09375,0.0
199.1875,-23.4375,-35.64453125,-19.04296875,4.39453125,67.87109375,0.0
199.19140625,-12.6953125,-37.59765625,-24.90234375,0.0,-137.20703125,0.0
199.1953125,-16.6015625,-5.859375,-56.15234375,-3.41796875,-188.96484375,0.0
199.19921875,-23.4375,-15.13671875,-42.48046875,8.7890625,-53.7109375,0.0
199.203125,-14.16015625,-34.1796875,-10.25390625,16.6015625,71.2890625,0.0
199.20703125,-3.41796875,-20.01953125,-16.11328125,11.71875,72.265625,0.0
199.2109375,-13.18359375,-5.859375,-20.5078125,13.671875,3.90625,0.0
199.21484375,-14.16015625,-12.20703125,-25.87890625,5.859375,-23.4375,0.0
199.21875,-20.01953125,-51.26953125,-52.24609375,-2.44140625,-44.43359375,0.0
199.22265625,-33.203125,-49.8046875,-54.19921875,-2.44140625,-20.99609375,0.0
199.2265625,-23.4375,-9.765625,-36.1328125,0.48828125,72.75390625,0.0
199.23046875,-10.25390625,-17.08984375,-23.92578125,1.46484375,37.59765625,0.0
199.234375,-22.94921875,-38.57421875,-32.2265625,-13.671875,-64.94140625,0.0
199.23828125,-26.85546875,-37.109375,-30.76171875,-19.04296875,-54.6875,0.0
199.2421875,0.9765625,-36.1328125,-27.83203125,1.46484375,23.4375,0.0
199.24609375,-6.34765625,-15.625,-43.9453125,5.859375,37.59765625,0.0
199.25,-46.875,0.9765625,-41.015625,-26.85546875,18.5546875,0.0
199.25390625,-59.08203125,-31.25,-33.69140625,-53.22265625,-41.50390625,0.0
199.2578125,-49.31640625,-39.0625,-40.0390625,-56.15234375,-219.23828125,0.0
199.26171875,-36.62109375,-29.78515625,-41.50390625,-50.78125,-197.265625,0.0
199.265625,-28.80859375,-31.25,-44.43359375,-50.29296875,50.29296875,0.0
199.26953125,-31.73828125,-31.25,-29.296875,-52.734375,77.63671875,0.0
199.2734375,-51.26953125,-17.578125,-26.85546875,-45.41015625,-23.4375,0.0
199.27734375,-54.6875,-15.13671875,-25.390625,-43.45703125,-11.23046875,0.0
199.28125,-36.1328125,-41.50390625,-14.16015625,-28.3203125,48.828125,0.0
199.28515625,-28.80859375,-39.0625,-31.25,-24.4140625,73.2421875,0.0
199.2890625,-36.1328125,-19.53125,-32.71484375,-35.64453125,32.2265625,0.0
199.29296875,-32.71484375,-32.2265625,-32.71484375,-17.08984375,-38.0859375,0.0
199.296875,-28.3203125,-38.0859375,-57.12890625,-20.01953125,-120.60546875,0.0
199.30078125,-13.18359375,-37.59765625,-60.05859375,-23.92578125,-146.484375,0.0
199.3046875,4.8828125,-46.875,-41.50390625,2.44140625,11.71875,0.0
199.30859375,8.30078125,-18.5546875,-27.83203125,3.41796875,72.75390625,0.0
199.3125,-3.90625,0.0,-23.92578125,-16.11328125,-62.5,0.0
199.31640625,-21.484375,-14.6484375,-21.484375,-33.69140625,-110.83984375,0.0
199.3203125,-25.87890625,-6.8359375,-32.71484375,-29.78515625,-85.44921875,0.0
199.32421875,-30.2734375,-22.94921875,-53.7109375,-23.92578125,-43.45703125,0.0
199.328125,-24.90234375,-30.76171875,-58.59375,-12.6953125,-38.57421875,0.0
199.33203125,-18.5546875,-15.625,-27.83203125,-1.953125,-115.72265625,0.0
199.3359375,-20.01953125,-16.6015625,4.8828125,-5.37109375,-112.79296875,0.0
199.33984375,-16.11328125,-33.203125,0.48828125,1.953125,-62.98828125,0.0
199.34375,-19.04296875,-58.10546875,-39.0625,-0.9765625,23.4375,0.0
199.34765625,-14.6484375,-35.15625,-56.640625,7.8125,39.0625,0.0
199.3515625,-3.41796875,-5.37109375,-31.25,20.5078125,-81.0546875,0.0
199.35546875,-22.4609375,-13.671875,-28.3203125,11.23046875,-122.55859375,0.0
199.359375,-40.52734375,-20.01953125,-30.2734375,-8.7890625,-24.90234375,0.0
199.36328125,-17.578125,-25.87890625,-28.80859375,-8.7890625,-11.71875,0.0
199.3671875,3.41796875,-34.66796875,-31.25,10.25390625,-12.6953125,0.0
199.37109375,-12.6953125,-34.66796875,-37.59765625,3.90625,-21.484375,0.0
199.375,-28.3203125,-28.3203125,-44.921875,-13.18359375,-170.8984375,0.0
199.37890625,-21.97265625,-23.92578125,-29.78515625,-5.37109375,-224.12109375,0.0
199.3828125,-8.30078125,-10.7421875,-3.41796875,3.41796875,-116.69921875,0.0
199.38671875,1.46484375,-54.19921875,-6.8359375,3.41796875,-12.6953125,0.0
199.390625,-21.484375,-66.40625,-47.8515625,-19.53125,-13.671875,0.0
199.39453125,-44.921875,-20.01953125,-66.40625,-32.2265625,-91.30859375,0.0
199.3984375,-38.57421875,-17.578125,-54.19921875,-19.53125,-195.3125,0.0
199.40234375,-19.04296875,-44.921875,-34.1796875,-17.08984375,-113.76953125,0.0
199.40625,-13.18359375,-44.921875,-33.203125,-21.97265625,11.71875,0.0
199.41015625,-18.06640625,-26.85546875,-54.19921875,-23.4375,30.2734375,0.0
199.4140625,-27.83203125,-21.97265625,-52.24609375,-22.94921875,-67.87109375,0.0
199.41796875,-30.76171875,-18.06640625,-33.69140625,-12.20703125,-191.89453125,0.0
199.421875,-15.625,-40.52734375,-3.90625,7.8125,-90.33203125,0.0
199.42578125,2.44140625,-69.82421875,13.18359375,27.83203125,15.625,0.0
199.4296875,-2.44140625,-64.453125,-17.08984375,23.92578125,-101.5625,0.0
199.43359375,-23.92578125,-61.03515625,-41.50390625,6.34765625,-210.9375,0.0
199.4375,-37.109375,-44.43359375,-51.7578125,-7.32421875,-115.234375,0.0
199.44140625,-35.15625,-23.4375,-47.8515625,-24.4140625,-66.40625,0.0
199.4453125,-22.4609375,-19.04296875,-32.2265625,-17.08984375,24.4140625,0.0
199.44921875,-9.765625,-41.015625,-38.57421875,-0.48828125,80.078125,0.0
199.453125,-1.953125,-48.33984375,-39.0625,1.46484375,-41.015625,0.0
199.45703125,-14.16015625,-24.90234375,-33.203125,-10.25390625,-114.2578125,0.0
199.4609375,-14.6484375,-23.92578125,-28.3203125,-12.6953125,-82.51953125,0.0
199.46484375,-15.625,-26.85546875,-33.203125,-14.16015625,-22.94921875,0.0
199.46875,-32.71484375,-46.38671875,-34.1796875,-23.4375,-60.546875,0.0
199.47265625,-30.76171875,-62.5,-32.2265625,-23.92578125,-111.328125,0.0
199.4765625,-24.90234375,-28.80859375,-27.83203125,-24.4140625,-172.36328125,0.0
199.48046875,-24.90234375,-26.3671875,-34.66796875,-34.66796875,-130.859375,0.0
199.484375,-25.390625,-41.50390625,-28.80859375,-37.59765625,-66.40625,0.0
199.48828125,-21.484375,-37.109375,-20.99609375,-24.90234375,-62.01171875,0.0
199.4921875,-34.66796875,-42.48046875,-38.57421875,-26.85546875,-56.640625,0.0
199.49609375,-40.0390625,-32.71484375,-39.0625,-26.3671875,-110.83984375,0.0
199.5,-22.94921875,-29.78515625,-26.85546875,-23.92578125,-108.88671875,0.0
199.50390625,-14.6484375,-40.0390625,-27.34375,-23.92578125,1.46484375,0.0
199.5078125,-1.46484375,-32.71484375,-20.01953125,-14.6484375,108.88671875,0.0
199.51171875,-4.8828125,-39.55078125,-35.15625,-19.53125,72.265625,0.0
199.515625,-20.5078125,-35.15625,-54.6875,-20.99609375,-63.96484375,0.0
199.51953125,-32.71484375,-14.16015625,-23.4375,-19.04296875,-115.72265625,0.0
199.5234375,-48.33984375,-12.6953125,-19.53125,-29.78515625,-20.01953125,0.0
199.52734375,-35.64453125,-43.9453125,-34.1796875,-20.99609375,67.3828125,0.0
199.53125,-2.9296875,-71.77734375,-20.5078125,0.9765625,-1.953125,0.0
199.53515625,2.9296875,-33.69140625,-23.4375,-9.27734375,-110.3515625,0.0
199.5390625,-21.484375,-7.8125,-39.0625,-28.3203125,-90.8203125,0.0
199.54296875,-24.4140625,-14.6484375,-46.38671875,-22.4609375,49.31640625,0.0
199.546875,-25.390625,-25.390625,-30.2734375,-22.94921875,160.64453125,0.0
199.55078125,-31.73828125,-33.203125,-21.97265625,-45.41015625,75.1953125,0.0
199.5546875,-6.34765625,-25.87890625,-35.15625,-35.15625,-111.328125,0.0
199.55859375,-3.41796875,-46.875,-34.1796875,-28.3203125,-135.7421875,0.0
199.5625,-22.94921875,-55.17578125,-38.57421875,-39.0625,-87.890625,0.0
199.56640625,-13.671875,-23.4375,-27.34375,-29.78515625,-58.59375,0.0
199.5703125,-17.578125,-7.32421875,-20.5078125,-23.4375,-50.29296875,0.0
199.57421875,-46.38671875,-20.99609375,-36.62109375,-24.4140625,-137.20703125,0.0
199.578125,-39.0625,-45.41015625,-43.45703125,-3.90625,-184.5703125,0.0
199.58203125,-23.4375,-49.8046875,-37.109375,0.9765625,-136.23046875,0.0
199.5859375,-24.90234375,-43.45703125,-41.50390625,-24.4140625,-106.4453125,0.0
199.58984375,-37.109375,-44.921875,-51.26953125,-27.83203125,-184.08203125,0.0
199.59375,-29.78515625,-47.36328125,-42.96875,-10.25390625,-244.140625,0.0
199.59765625,-28.80859375,-28.3203125,-40.52734375,-20.5078125,-194.3359375,0.0
199.6015625,-22.94921875,-18.06640625,-39.0625,-27.34375,-64.94140625,0.0
199.60546875,-13.18359375,-25.87890625,-42.48046875,-30.2734375,6.34765625,0.0
199.609375,-24.4140625,-41.50390625,-66.40625,-45.41015625,-26.85546875,0.0
199.61328125,-30.76171875,-47.8515625,-76.66015625,-41.50390625,-141.11328125,0.0
199.6171875,-29.78515625,-35.64453125,-40.0390625,-29.78515625,-204.58984375,0.0
199.62109375,-40.0390625,-26.85546875,-17.08984375,-24.90234375,-126.953125,0.0
199.625,-46.38671875,-37.109375,-38.0859375,-29.296875,14.6484375,0.0
199.62890625,-36.62109375,-41.50390625,-48.33984375,-28.80859375,18.5546875,0.0
199.6328125,-41.50390625,-45.8984375,-36.1328125,-33.203125,-98.6328125,0.0
199.63671875,-52.734375,-38.57421875,-33.203125,-36.62109375,-139.6484375,0.0
199.640625,-51.26953125,-39.55078125,-47.36328125,-43.9453125,-100.09765625,0.0
199.64453125,-16.6015625,-62.98828125,-47.8515625,-28.80859375,10.25390625,0.0
199.6484375,-0.9765625,-49.31640625,-44.43359375,-12.20703125,125.9765625,0.0
199.65234375,-24.90234375,-20.5078125,-35.64453125,-25.87890625,86.9140625,0.0
199.65625,-32.71484375,-28.80859375,-41.50390625,-22.4609375,-20.5078125,0.0
199.66015625,-31.25,-30.2734375,-54.19921875,-29.296875,-90.33203125,0.0
199.6640625,-22.4609375,-30.2734375,-37.109375,-43.45703125,-60.05859375,0.0
199.66796875,-18.06640625,-66.40625,-43.9453125,-44.921875,77.1484375,0.0
199.671875,-13.18359375,-73.2421875,-54.19921875,-31.73828125,36.62109375,0.0
199.67578125,-20.5078125,-57.6171875,-58.10546875,-33.203125,3.90625,0.0
199.6796875,-32.2265625,-51.26953125,-58.10546875,-41.50390625,64.94140625,0.0
199.68359375,-21.484375,-35.15625,-32.2265625,-30.76171875,43.9453125,0.0
199.6875,-8.30078125,-23.92578125,-31.73828125,-27.83203125,8.30078125,0.0
199.69140625,-10.7421875,-18.5546875,-41.50390625,-30.76171875,43.9453125,0.0
199.6953125,-36.1328125,-14.16015625,-26.3671875,-37.109375,31.25,0.0
199.69921875,-52.24609375,-46.38671875,-34.66796875,-45.41015625,-61.5234375,0.0
199.703125,-34.1796875,-63.4765625,-48.33984375,-35.15625,-36.62109375,0.0
199.70703125,-17.578125,-36.1328125,-45.41015625,-21.484375,84.9609375,0.0
199.7109375,-15.625,-20.01953125,-50.29296875,-30.76171875,30.2734375,0.0
199.71484375,-18.06640625,-43.9453125,-61.5234375,-40.52734375,-69.82421875,0.0
199.71875,-36.1328125,-72.75390625,-64.453125,-45.8984375,-95.21484375,0.0
199.72265625,-56.640625,-36.1328125,-46.38671875,-44.43359375,-16.11328125,0.0
199.7265625,-39.55078125,-19.53125,-30.2734375,-36.1328125,42.48046875,0.0
199.73046875,-23.4375,-33.203125,-34.66796875,-22.4609375,-2.9296875,0.0
199.734375,-24.90234375,-37.59765625,-33.203125,-2.9296875,-56.15234375,0.0
199.73828125,-17.08984375,-46.875,-24.90234375,-5.859375,-95.703125,0.0
199.7421875,-20.5078125,-40.52734375,-30.76171875,-25.87890625,-34.66796875,0.0
199.74609375,-43.9453125,-28.3203125,-55.17578125,-32.71484375,47.36328125,0.0
199.75,-45.8984375,-32.71484375,-62.5,-27.34375,-57.12890625,0.0
199.75390625,-23.4375,-30.76171875,-50.78125,-16.11328125,-216.30859375,0.0
199.7578125,-13.671875,-14.6484375,-32.2265625,1.953125,-192.3828125,0.0
199.76171875,-25.390625,-7.32421875,-31.73828125,9.27734375,-78.125,0.0
199.765625,-43.45703125,-35.15625,-55.6640625,-3.90625,2.44140625,0.0
199.76953125,-46.875,-51.7578125,-67.87109375,-17.08984375,-79.58984375,0.0
199.7734375,-34.1796875,-47.36328125,-30.2734375,-0.48828125,-250.0,0.0
199.77734375,-25.87890625,-35.64453125,-14.16015625,20.99609375,-185.546875,0.0
199.78125,-33.203125,-20.99609375,-29.296875,13.18359375,-69.3359375,0.0
199.78515625,-34.66796875,-38.0859375,-31.73828125,16.6015625,-5.37109375,0.0
199.7890625,-35.15625,-57.6171875,-42.96875,9.765625,20.5078125,0.0
199.79296875,-34.1796875,-68.84765625,-37.109375,-0.48828125,-55.17578125,0.0
199.796875,-27.83203125,-36.62109375,-20.5078125,11.23046875,-108.88671875,0.0
199.80078125,-37.59765625,-7.8125,-43.45703125,4.8828125,-18.5546875,0.0
199.8046875,-39.0625,-22.94921875,-45.8984375,7.32421875,70.3125,0.0
199.80859375,-22.94921875,-36.62109375,-41.015625,23.4375,79.1015625,0.0
199.8125,-14.16015625,-67.3828125,-43.45703125,26.3671875,17.578125,0.0
199.81640625,-33.69140625,-82.03125,-48.828125,26.3671875,-123.046875,0.0
199.8203125,-43.9453125,-40.52734375,-45.41015625,26.3671875,-93.26171875,0.0
199.82421875,-37.109375,-15.13671875,-18.06640625,20.01953125,-4.39453125,0.0
199.828125,-46.38671875,-34.66796875,-28.80859375,-2.9296875,25.390625,0.0
199.83203125,-37.59765625,-51.26953125,-39.0625,-2.44140625,-170.8984375,0.0
199.8359375,-26.3671875,-57.12890625,-35.15625,14.16015625,-145.5078125,0.0
199.83984375,-18.06640625,-58.10546875,-28.3203125,23.4375,0.0,0.0
199.84375,-5.37109375,-29.296875,-38.0859375,11.71875,23.4375,0.0
199.84765625,-6.34765625,-26.85546875,-41.015625,0.9765625,-56.640625,0.0
199.8515625,-12.6953125,-53.22265625,-22.4609375,9.765625,-27.83203125,0.0
199.85546875,-9.765625,-73.73046875,-21.484375,12.6953125,68.84765625,0.0
199.859375,-22.4609375,-54.19921875,-27.83203125,-0.48828125,103.515625,0.0
199.86328125,-47.8515625,-32.2265625,-36.1328125,-15.13671875,12.6953125,0.0
199.8671875,-33.203125,-55.6640625,-30.2734375,-12.6953125,-73.2421875,0.0
199.87109375,-9.27734375,-45.8984375,-23.4375,4.8828125,-95.21484375,0.0
199.875,-23.4375,-26.3671875,-27.83203125,0.9765625,-71.2890625,0.0
199.87890625,-45.41015625,-41.015625,-40.0390625,-10.7421875,-83.984375,0.0
199.8828125,-41.50390625,-41.015625,-44.921875,-10.25390625,108.88671875,0.0
199.88671875,-32.2265625,-43.45703125,-51.26953125,-15.625,108.3984375,0.0
199.890625,-33.69140625,-65.91796875,-48.828125,-13.671875,39.0625,0.0
199.89453125,-13.18359375,-68.84765625,-14.16015625,-7.8125,-7.32421875,0.0
199.8984375,-17.578125,-50.78125,-17.08984375,-24.4140625,-169.43359375,0.0
199.90234375,-35.15625,-43.45703125,-32.71484375,-23.4375,-288.57421875,0.0
199.90625,-29.296875,-39.55078125,-37.109375,-21.97265625,-310.05859375,0.0
199.91015625,-21.484375,-36.62109375,-43.45703125,-29.78515625,-212.890625,0.0
199.9140625,-10.25390625,-49.31640625,-50.29296875,-24.90234375,-169.921875,0.0
199.91796875,-2.44140625,-38.0859375,-54.6875,-19.04296875,-135.25390625,0.0
199.921875,-18.5546875,-20.5078125,-43.45703125,-30.76171875,22.4609375,0.0
199.92578125,-29.296875,-31.73828125,-39.0625,-34.1796875,62.98828125,0.0
199.9296875,-10.7421875,-44.921875,-39.55078125,-23.4375,55.6640625,0.0
199.93359375,-33.203125,-62.5,-37.59765625,-38.57421875,-19.04296875,0.0
199.9375,-36.1328125,-76.66015625,-39.0625,-33.203125,-108.3984375,0.0
199.94140625,-8.7890625,-76.66015625,-55.17578125,-18.5546875,-52.734375,0.0
199.9453125,-23.4375,-53.7109375,-75.68359375,-27.34375,59.08203125,0.0
199.94921875,-36.1328125,-39.55078125,-50.78125,-22.4609375,83.49609375,0.0
199.953125,-38.0859375,-46.875,-30.2734375,-10.25390625,-38.57421875,0.0
199.95703125,-48.828125,-44.921875,-42.96875,-19.04296875,-39.0625,0.0
199.9609375,-48.33984375,-43.45703125,-41.50390625,-30.76171875,-34.1796875,0.0
199.96484375,-33.203125,-52.734375,-33.69140625,-26.85546875,24.4140625,0.0
199.96875,-33.203125,-60.05859375,-34.66796875,-32.71484375,102.5390625,0.0
199.97265625,-35.64453125,-46.875,-53.7109375,-40.0390625,-36.62109375,0.0
199.9765625,-46.875,-31.73828125,-73.2421875,-36.62109375,-153.80859375,0.0
199.98046875,-57.6171875,-49.8046875,-53.22265625,-44.43359375,-144.04296875,0.0
199.984375,-45.41015625,-65.91796875,-28.3203125,-44.43359375,-68.84765625,0.0
199.98828125,-18.5546875,-53.7109375,-18.5546875,-32.2265625,-62.5,0.0
199.9921875,-15.625,-24.4140625,-26.3671875,-35.15625,-114.74609375,0.0
199.99609375,-34.66796875,-10.25390625,-34.1796875,-40.0390625,-103.02734375,0.0
200.0,-42.96875,-27.83203125,-26.3671875,-33.203125,-66.40625,0.0
200.00390625,-36.62109375,-41.015625,-36.1328125,-29.296875,66.40625,0.0
200.0078125,-23.4375,-68.359375,-44.43359375,-26.3671875,181.15234375,0.0
200.01171875,-37.59765625,-75.68359375,-41.9921875,-27.34375,49.8046875,0.0
200.015625,-42.48046875,-36.1328125,-57.6171875,-30.76171875,-105.46875,0.0
200.01953125,-24.4140625,-27.83203125,-56.640625,-31.73828125,-62.5,0.0
200.0234375,-25.87890625,-41.015625,-33.203125,-21.97265625,-27.83203125,0.0
200.02734375,-43.45703125,-42.96875,-28.80859375,-16.6015625,1.46484375,0.0
200.03125,-59.08203125,-45.8984375,-53.22265625,-32.71484375,5.37109375,0.0
200.03515625,-52.734375,-56.15234375,-51.7578125,-37.109375,-9.27734375,0.0
200.0390625,-26.85546875,-60.05859375,-30.76171875,-36.62109375,19.53125,0.0
200.04296875,-18.06640625,-26.85546875,-34.1796875,-38.0859375,-13.18359375,0.0
200.046875,-12.6953125,-40.52734375,-54.6875,-29.296875,-115.234375,0.0
200.05078125,-8.30078125,-91.796875,-88.8671875,0.48828125,-172.8515625,0.0
200.0546875,-9.27734375,-64.453125,-67.87109375,7.32421875,-178.7109375,0.0
200.05859375,-9.27734375,-28.3203125,-20.01953125,-15.13671875,-185.05859375,0.0
200.0625,3.90625,-29.78515625,-7.8125,-22.4609375,-83.49609375,0.0
200.06640625,11.71875,-27.34375,-24.4140625,-5.859375,93.26171875,0.0
200.0703125,-12.20703125,-18.06640625,-48.828125,0.0,115.234375,0.0
200.07421875,-29.296875,-18.06640625,-54.6875,-15.13671875,45.8984375,0.0
200.078125,-30.76171875,-27.83203125,-44.921875,-31.25,20.99609375,0.0
200.08203125,-26.85546875,-46.38671875,-32.71484375,-38.57421875,37.109375,0.0
200.0859375,-6.8359375,-60.546875,-28.3203125,-24.90234375,86.9140625,0.0
200.08984375,-16.11328125,-58.10546875,-47.8515625,-28.80859375,11.71875,0.0
200.09375,-37.109375,-27.83203125,-64.453125,-40.52734375,-141.11328125,0.0
200.09765625,-41.50390625,-32.2265625,-53.22265625,-48.828125,-106.93359375,0.0
200.1015625,-27.34375,-47.36328125,-41.015625,-39.55078125,18.5546875,0.0
200.10546875,-6.8359375,-40.52734375,-29.296875,-16.6015625,105.95703125,0.0
200.109375,-5.859375,-34.66796875,-22.4609375,-8.7890625,95.703125,0.0
200.11328125,-18.06640625,-41.9921875,-24.90234375,-2.44140625,-3.90625,0.0
200.1171875,-20.01953125,-53.22265625,-21.97265625,4.8828125,-110.3515625,0.0
200.12109375,-38.0859375,-36.1328125,-48.828125,-17.08984375,-115.72265625,0.0
200.125,-53.7109375,-12.6953125,-63.96484375,-31.73828125,-29.78515625,0.0
200.12890625,-45.8984375,-33.203125,-32.71484375,-29.78515625,-9.27734375,0.0
200.1328125,-52.734375,-40.0390625,-48.33984375,-34.66796875,-70.80078125,0.0
200.13671875,-44.921875,-29.78515625,-78.125,-44.43359375,-118.65234375,0.0
200.140625,-40.52734375,-54.6875,-50.29296875,-44.43359375,-28.3203125,0.0
200.14453125,-26.3671875,-51.7578125,-29.296875,-33.69140625,62.01171875,0.0
200.1484375,-32.71484375,-41.9921875,-39.55078125,-36.62109375,47.36328125,0.0
200.15234375,-51.7578125,-41.015625,-38.0859375,-37.109375,4.39453125,0.0
200.15625,-33.203125,-48.33984375,-34.1796875,-32.71484375,-121.09375,0.0
200.16015625,-5.859375,-75.68359375,-32.71484375,-20.99609375,-118.1640625,0.0
200.1640625,-14.6484375,-70.3125,-30.2734375,-16.11328125,-9.27734375,0.0
200.16796875,-42.48046875,-35.64453125,-25.87890625,-36.62109375,7.32421875,0.0
200.171875,-45.41015625,-12.20703125,-45.8984375,-55.6640625,11.23046875,0.0
200.17578125,-41.9921875,-15.13671875,-62.98828125,-57.6171875,-106.93359375,0.0
200.1796875,-49.31640625,-41.50390625,-55.6640625,-57.6171875,-155.76171875,0.0
200.18359375,-41.9921875,-55.6640625,-36.62109375,-45.41015625,1.953125,0.0
200.1875,-33.203125,-54.6875,-26.3671875,-50.29296875,48.33984375,0.0
200.19140625,-26.85546875,-64.453125,-44.43359375,-68.84765625,-17.08984375,0.0
200.1953125,-24.90234375,-60.546875,-62.98828125,-78.125,-101.5625,0.0
200.19921875,-29.78515625,-48.828125,-55.17578125,-72.265625,-141.11328125,0.0
200.203125,-37.109375,-38.57421875,-44.43359375,-71.77734375,-43.9453125,0.0
200.20703125,-30.2734375,-40.0390625,-48.828125,-61.5234375,-44.921875,0.0
200.2109375,-32.2265625,-46.38671875,-47.36328125,-54.6875,-105.46875,0.0
200.21484375,-34.1796875,-66.40625,-40.0390625,-53.22265625,-122.55859375,0.0
200.21875,-34.1796875,-79.1015625,-21.97265625,-41.50390625,-226.07421875,0.0
200.22265625,-44.43359375,-36.62109375,-17.08984375,-46.875,-186.03515625,0.0
200.2265625,-46.38671875,-14.16015625,-31.73828125,-52.734375,-18.5546875,0.0
200.23046875,-27.34375,-44.43359375,-44.921875,-47.36328125,-2.44140625,0.0
200.234375,-9.27734375,-66.89453125,-51.7578125,-48.828125,-29.78515625,0.0
200.23828125,-33.69140625,-58.10546875,-47.8515625,-56.15234375,-98.6328125,0.0
200.2421875,-48.828125,-39.55078125,-52.734375,-60.546875,-34.1796875,0.0
200.24609375,-23.4375,-61.03515625,-46.875,-60.05859375,151.85546875,0.0
200.25,-18.5546875,-73.2421875,-34.66796875,-42.96875,100.5859375,0.0
200.25390625,-30.76171875,-44.921875,-41.015625,-39.0625,0.9765625,0.0
200.2578125,-21.97265625,-48.33984375,-49.8046875,-40.0390625,-43.9453125,0.0
200.26171875,-3.90625,-34.1796875,-41.015625,-34.1796875,-26.3671875,0.0
200.265625,-1.46484375,-11.23046875,-19.04296875,-36.62109375,30.2734375,0.0
200.26953125,-11.23046875,-28.3203125,-19.04296875,-36.62109375,55.17578125,0.0
200.2734375,-18.06640625,-33.69140625,-29.78515625,-37.109375,-16.11328125,0.0
200.27734375,-24.90234375,-47.36328125,-36.62109375,-40.0390625,-196.77734375,0.0
200.28125,-17.08984375,-69.3359375,-40.52734375,-48.33984375,-117.67578125,0.0
200.28515625,-4.39453125,-46.38671875,-26.85546875,-41.9921875,86.9140625,0.0
200.2890625,-12.20703125,-25.87890625,-23.4375,-36.1328125,80.078125,0.0
200.29296875,-12.20703125,-31.73828125,-37.59765625,-45.8984375,-58.10546875,0.0
200.296875,-9.765625,-18.5546875,-22.94921875,-37.59765625,-194.82421875,0.0
200.30078125,-19.53125,-34.66796875,-17.578125,-43.9453125,-118.65234375,0.0
200.3046875,-20.5078125,-48.828125,-19.04296875,-56.640625,4.39453125,0.0
200.30859375,-10.7421875,-42.48046875,-17.578125,-42.48046875,51.26953125,0.0
200.3125,-11.71875,-51.7578125,-23.92578125,-52.24609375,58.59375,0.0
200.31640625,-58.10546875,-53.22265625,-37.109375,-78.125,-37.59765625,0.0
200.3203125,-101.07421875,-27.83203125,-47.8515625,-77.63671875,-81.54296875,0.0
200.32421875,-66.40625,-3.90625,-27.83203125,-40.52734375,25.87890625,0.0
200.328125,-63.4765625,-10.7421875,-24.4140625,-51.7578125,113.28125,0.0
200.33203125,-104.98046875,-29.296875,-39.0625,-117.1875,77.63671875,0.0
200.3359375,-106.93359375,-52.734375,-27.34375,-124.51171875,-65.91796875,0.0
200.33984375,-103.02734375,-41.9921875,-26.85546875,-110.83984375,-179.19921875,0.0
200.34375,-103.02734375,-21.484375,-25.87890625,-114.2578125,-90.33203125,0.0
200.34765625,-99.609375,-16.11328125,-19.04296875,-116.69921875,-30.2734375,0.0
200.3515625,-104.00390625,-6.8359375,-34.66796875,-122.55859375,-176.7578125,0.0
200.35546875,-114.2578125,-26.85546875,-37.59765625,-127.9296875,-277.83203125,0.0
200.359375,-129.39453125,-50.78125,-24.4140625,-128.41796875,-270.5078125,0.0
200.36328125,-130.859375,-53.7109375,-46.875,-120.60546875,-137.20703125,0.0
200.3671875,-102.5390625,-20.5078125,-38.0859375,-101.5625,-47.36328125,0.0
200.37109375,-96.6796875,10.7421875,-32.2265625,-99.609375,-95.21484375,0.0
200.375,-111.81640625,-25.390625,-45.41015625,-117.67578125,-109.375,0.0
200.37890625,-113.76953125,-45.8984375,-38.57421875,-117.1875,-42.48046875,0.0
200.3828125,-84.9609375,-33.69140625,-48.828125,-108.88671875,51.26953125,0.0
200.38671875,-60.05859375,-70.80078125,-50.78125,-98.14453125,82.03125,0.0
200.390625,-74.21875,-81.0546875,-56.640625,-86.9140625,52.734375,0.0
200.39453125,-97.16796875,-13.671875,-57.12890625,-87.40234375,-1.953125,0.0
200.3984375,-88.8671875,-9.27734375,-44.43359375,-82.51953125,-5.859375,0.0
200.40234375,-45.41015625,-37.109375,-49.31640625,-60.05859375,78.125,0.0
200.40625,-10.25390625,-48.828125,-76.171875,-39.55078125,156.25,0.0
200.41015625,-7.32421875,-50.78125,-75.1953125,-36.62109375,11.71875,0.0
200.4140625,-8.7890625,-46.875,-58.10546875,-20.5078125,-111.81640625,0.0
200.41796875,-4.39453125,-80.078125,-53.7109375,-6.34765625,-64.453125,0.0
200.421875,-6.8359375,-83.49609375,-60.05859375,-12.6953125,-27.83203125,0.0
200.42578125,2.9296875,-39.55078125,-76.66015625,-15.13671875,8.30078125,0.0
200.4296875,33.69140625,-35.64453125,-91.796875,16.6015625,-27.34375,0.0
200.43359375,43.9453125,-57.6171875,-88.8671875,29.296875,-115.234375,0.0
200.4375,22.4609375,-58.59375,-75.1953125,5.37109375,-59.5703125,0.0
200.44140625,-0.48828125,-72.75390625,-48.828125,15.13671875,6.8359375,0.0
200.4453125,-0.48828125,-60.546875,-28.3203125,38.57421875,61.03515625,0.0
200.44921875,9.765625,-57.12890625,-35.15625,38.0859375,30.76171875,0.0
200.453125,26.85546875,-80.56640625,-53.7109375,43.45703125,-24.4140625,0.0
200.45703125,34.1796875,-54.6875,-63.96484375,40.52734375,-65.4296875,0.0
200.4609375,16.11328125,-11.23046875,-72.265625,16.6015625,-68.359375,0.0
200.46484375,-2.9296875,-33.69140625,-78.61328125,10.25390625,-1.46484375,0.0
200.46875,-3.90625,-83.49609375,-77.63671875,11.23046875,20.01953125,0.0
200.47265625,7.8125,-58.59375,-55.6640625,16.11328125,-32.2265625,0.0
200.4765625,15.625,-45.8984375,-35.64453125,25.87890625,-120.60546875,0.0
200.48046875,3.41796875,-59.08203125,-54.6875,21.97265625,-94.7265625,0.0
200.484375,-3.41796875,-35.64453125,-72.265625,18.5546875,-7.32421875,0.0
200.48828125,20.01953125,-51.7578125,-60.05859375,26.3671875,-62.98828125,0.0
200.4921875,19.53125,-53.7109375,-57.12890625,11.71875,-69.3359375,0.0
200.49609375,4.39453125,-30.76171875,-65.4296875,-5.859375,-60.546875,0.0
200.5,9.765625,-72.75390625,-59.5703125,6.34765625,-86.9140625,0.0
200.50390625,21.97265625,-78.61328125,-48.828125,18.06640625,-4.39453125,0.0
200.5078125,22.4609375,-15.13671875,-53.7109375,12.6953125,-47.36328125,0.0
200.51171875,13.18359375,-20.01953125,-64.453125,15.13671875,-74.70703125,0.0
200.515625,8.30078125,-42.96875,-49.31640625,23.4375,8.30078125,0.0
200.51953125,7.32421875,-48.33984375,-27.83203125,29.296875,14.6484375,0.0
200.5234375,3.90625,-61.03515625,-32.71484375,20.99609375,-10.7421875,0.0
200.52734375,2.44140625,-54.6875,-42.96875,4.8828125,26.3671875,0.0
200.53125,11.23046875,-39.0625,-45.41015625,7.8125,42.48046875,0.0
200.53515625,18.06640625,-49.31640625,-71.77734375,8.7890625,-84.47265625,0.0
200.5390625,4.39453125,-47.8515625,-59.08203125,16.11328125,-187.5,0.0
200.54296875,-3.90625,-53.7109375,-30.2734375,16.11328125,-176.26953125,0.0
200.546875,5.37109375,-83.49609375,-47.8515625,4.8828125,-142.08984375,0.0
200.55078125,1.953125,-40.52734375,-38.0859375,11.71875,-87.40234375,0.0
200.5546875,-12.20703125,-18.06640625,-39.0625,-3.90625,-94.7265625,0.0
200.55859375,-17.08984375,-56.15234375,-51.26953125,-14.16015625,-96.6796875,0.0
200.5625,-21.97265625,-70.3125,-55.17578125,-0.48828125,24.90234375,0.0
200.56640625,-13.671875,-64.94140625,-49.31640625,0.9765625,94.7265625,0.0
200.5703125,8.30078125,-65.4296875,-42.96875,1.46484375,33.69140625,0.0
200.57421875,-9.27734375,-55.17578125,-46.875,2.44140625,-13.671875,0.0
200.578125,-26.85546875,-55.17578125,-36.1328125,-5.37109375,-80.078125,0.0
200.58203125,-6.8359375,-45.41015625,-26.85546875,-14.6484375,-53.7109375,0.0
200.5859375,10.7421875,-33.69140625,-31.73828125,-8.7890625,-13.18359375,0.0
200.58984375,2.44140625,-7.8125,-37.59765625,-7.32421875,24.4140625,0.0
200.59375,-20.99609375,-18.5546875,-48.828125,-11.71875,-11.23046875,0.0
200.59765625,-21.484375,-68.359375,-67.3828125,-6.8359375,-46.875,0.0
200.6015625,-6.8359375,-52.24609375,-54.6875,5.859375,-45.41015625,0.0
200.60546875,-8.30078125,-25.87890625,-26.85546875,0.0,2.44140625,0.0
200.609375,-15.625,-37.59765625,-27.34375,-16.6015625,33.69140625,0.0
200.61328125,-15.625,-43.9453125,-29.296875,-20.5078125,0.9765625,0.0
200.6171875,-28.3203125,-79.1015625,-28.80859375,-22.4609375,-35.64453125,0.0
200.62109375,-10.25390625,-90.33203125,-28.80859375,-16.11328125,-49.8046875,0.0
200.625,0.48828125,-36.62109375,-47.8515625,3.90625,-5.37109375,0.0
200.62890625,-25.87890625,-25.390625,-62.98828125,1.46484375,85.9375,0.0
200.6328125,-24.4140625,-31.73828125,-31.25,-15.13671875,66.40625,0.0
200.63671875,-28.80859375,-11.71875,-24.90234375,-20.01953125,47.8515625,0.0
200.640625,-40.52734375,-22.4609375,-48.33984375,-44.43359375,30.2734375,0.0
200.64453125,-42.96875,-39.0625,-53.22265625,-54.19921875,17.578125,0.0
200.6484375,-32.2265625,-59.5703125,-48.33984375,-22.94921875,13.18359375,0.0
200.65234375,-25.390625,-61.03515625,-32.2265625,-3.90625,-49.8046875,0.0
200.65625,-22.4609375,-39.55078125,-25.87890625,-9.27734375,-50.29296875,0.0
200.66015625,-36.62109375,-59.5703125,-45.41015625,-28.80859375,13.18359375,0.0
200.6640625,-46.38671875,-57.12890625,-52.734375,-25.87890625,38.57421875,0.0
200.66796875,-50.78125,-44.43359375,-49.8046875,-37.59765625,100.5859375,0.0
200.671875,-54.19921875,-60.05859375,-50.29296875,-68.359375,64.453125,0.0
200.67578125,-34.1796875,-47.36328125,-50.78125,-53.22265625,-115.234375,0.0
200.6796875,-19.04296875,-28.3203125,-56.640625,-32.2265625,-153.3203125,0.0
200.68359375,-11.71875,-47.36328125,-55.6640625,-35.64453125,-35.15625,0.0
200.6875,-34.66796875,-53.7109375,-43.9453125,-36.62109375,36.62109375,0.0
200.69140625,-62.98828125,-38.0859375,-47.36328125,-86.9140625,-19.53125,0.0
200.6953125,-55.6640625,-66.40625,-60.546875,-83.0078125,-104.00390625,0.0
200.69921875,-37.59765625,-84.47265625,-51.7578125,-54.6875,-132.32421875,0.0
200.703125,-22.94921875,-46.38671875,-30.76171875,-55.6640625,8.30078125,0.0
200.70703125,-39.55078125,-26.3671875,-45.41015625,-52.24609375,106.93359375,0.0
200.7109375,-65.91796875,-41.50390625,-69.3359375,-78.61328125,16.6015625,0.0
200.71484375,-51.26953125,-60.05859375,-61.5234375,-64.94140625,-154.296875,0.0
200.71875,-39.55078125,-57.6171875,-41.50390625,-36.1328125,-243.1640625,0.0
200.72265625,-46.875,-24.90234375,-46.38671875,-56.640625,-110.83984375,0.0
200.7265625,-46.875,-6.34765625,-51.7578125,-69.82421875,21.97265625,0.0
200.73046875,-34.1796875,-45.8984375,-43.9453125,-70.3125,44.43359375,0.0
200.734375,-23.4375,-65.4296875,-48.828125,-62.98828125,28.3203125,0.0
200.73828125,-32.2265625,-31.25,-48.33984375,-48.828125,4.39453125,0.0
200.7421875,-39.55078125,-20.99609375,-31.25,-44.921875,45.41015625,0.0
200.74609375,-32.2265625,-12.6953125,-39.0625,-26.3671875,56.15234375,0.0
200.75,-39.0625,-28.3203125,-40.52734375,6.34765625,-41.9921875,0.0
200.75390625,-39.55078125,-42.48046875,-41.9921875,28.80859375,-112.3046875,0.0
200.7578125,-32.2265625,-45.8984375,-71.77734375,8.7890625,-82.51953125,0.0
200.76171875,-24.4140625,-39.55078125,-54.19921875,22.4609375,-70.3125,0.0
200.765625,0.0,-28.80859375,-5.37109375,64.94140625,-110.3515625,0.0
200.76953125,-12.20703125,-23.92578125,-14.16015625,33.203125,-120.60546875,0.0
200.7734375,-38.0859375,-23.92578125,-41.50390625,-7.8125,-100.5859375,0.0
200.77734375,-33.69140625,-42.48046875,-38.57421875,-2.9296875,-90.8203125,0.0
200.78125,-11.23046875,-44.43359375,-29.78515625,22.94921875,-89.84375,0.0
200.78515625,-8.7890625,-37.109375,-32.2265625,18.06640625,-40.0390625,0.0
200.7890625,-26.3671875,-45.8984375,-41.9921875,-16.11328125,-8.7890625,0.0
200.79296875,-39.55078125,-62.01171875,-63.4765625,-21.97265625,-98.6328125,0.0
200.796875,-48.828125,-66.89453125,-57.6171875,-5.37109375,-178.22265625,0.0
200.80078125,-36.62109375,-68.84765625,-35.15625,45.41015625,-83.49609375,0.0
200.8046875,-20.99609375,-50.78125,-33.203125,74.70703125,-18.06640625,0.0
200.80859375,-29.78515625,-19.53125,-47.8515625,47.8515625,-6.8359375,0.0
200.8125,-28.80859375,-32.71484375,-40.52734375,50.29296875,76.66015625,0.0
200.81640625,-26.3671875,-38.57421875,-10.7421875,78.61328125,46.875,0.0
200.8203125,-42.48046875,-22.4609375,-10.7421875,93.75,0.48828125,0.0
200.82421875,-38.57421875,-35.64453125,-33.203125,112.79296875,57.6171875,0.0
200.828125,-11.23046875,-58.59375,-42.96875,121.58203125,41.50390625,0.0
200.83203125,-11.23046875,-63.4765625,-28.80859375,120.1171875,-38.57421875,0.0
200.8359375,-17.08984375,-56.640625,-25.390625,120.60546875,-41.9921875,0.0
200.83984375,-13.671875,-42.96875,-34.66796875,130.37109375,17.08984375,0.0
200.84375,-37.109375,-25.87890625,-42.48046875,119.62890625,82.51953125,0.0
200.84765625,-39.55078125,-19.04296875,-29.78515625,122.55859375,8.30078125,0.0
200.8515625,-23.92578125,-17.08984375,-23.92578125,135.25390625,-81.54296875,0.0
200.85546875,-8.7890625,-50.29296875,-34.66796875,148.92578125,-61.03515625,0.0
200.859375,-12.20703125,-59.08203125,-21.97265625,165.52734375,-52.734375,0.0
200.86328125,-29.78515625,-59.08203125,-32.2265625,127.44140625,-5.37109375,0.0
200.8671875,-27.83203125,-54.6875,-38.57421875,124.51171875,83.984375,0.0
200.87109375,-22.94921875,-34.66796875,-23.92578125,177.24609375,50.78125,0.0
200.875,-1.953125,-25.87890625,-28.3203125,183.59375,-31.25,0.0
200.87890625,-4.39453125,-39.0625,-30.2734375,193.84765625,-1.46484375,0.0
200.8828125,-26.3671875,-60.546875,-55.17578125,178.7109375,55.6640625,0.0
200.88671875,-31.73828125,-68.359375,-79.1015625,161.1328125,17.578125,0.0
200.890625,-33.203125,-29.78515625,-46.875,164.0625,-67.87109375,0.0
200.89453125,-28.3203125,-8.30078125,-18.06640625,164.55078125,-44.43359375,0.0
200.8984375,-37.59765625,-40.0390625,-14.16015625,172.8515625,-108.3984375,0.0
200.90234375,-35.15625,-54.6875,-4.8828125,175.78125,-127.44140625,0.0
200.90625,-32.71484375,-38.57421875,-12.6953125,163.0859375,-52.24609375,0.0
200.91015625,-31.73828125,-32.71484375,-38.57421875,137.20703125,-39.55078125,0.0
200.9140625,-25.390625,-42.48046875,-71.2890625,143.5546875,-6.34765625,0.0
200.91796875,-22.94921875,-57.12890625,-50.78125,158.203125,-5.859375,0.0
200.921875,-22.4609375,-58.59375,-13.18359375,128.90625,18.06640625,0.0
200.92578125,-30.2734375,-37.59765625,-18.5546875,111.81640625,3.90625,0.0
200.9296875,-19.53125,-31.25,-23.92578125,114.74609375,-138.18359375,0.0
200.93359375,-17.08984375,-44.43359375,-24.90234375,109.375,-237.3046875,0.0
200.9375,-26.3671875,-43.45703125,-15.13671875,150.390625,-166.50390625,0.0
200.94140625,-26.85546875,-28.80859375,-19.04296875,168.45703125,-56.15234375,0.0
200.9453125,-30.76171875,-20.99609375,-22.4609375,164.55078125,37.109375,0.0
200.94921875,-33.203125,-40.0390625,-38.57421875,142.578125,98.6328125,0.0
200.953125,-35.64453125,-67.87109375,-65.4296875,133.30078125,0.0,0.0
200.95703125,-28.80859375,-78.125,-33.203125,137.20703125,-126.46484375,0.0
200.9609375,-1.46484375,-82.51953125,-17.578125,157.2265625,-82.03125,0.0
200.96484375,15.13671875,-49.8046875,-32.71484375,208.49609375,-30.2734375,0.0
200.96875,-10.7421875,-9.765625,-27.34375,237.3046875,-55.6640625,0.0
200.97265625,-25.87890625,-18.5546875,-28.80859375,252.9296875,-34.1796875,0.0
200.9765625,-24.4140625,-26.85546875,-31.25,278.80859375,-80.56640625,0.0
200.98046875,-28.3203125,-50.78125,-28.80859375,309.5703125,-35.15625,0.0
200.984375,-20.5078125,-85.9375,-33.203125,323.73046875,112.79296875,0.0
200.98828125,-12.6953125,-66.89453125,-33.203125,337.890625,63.96484375,0.0
200.9921875,-13.671875,-50.78125,-41.50390625,336.42578125,-73.2421875,0.0
200.99609375,-18.5546875,-46.38671875,-56.15234375,321.2890625,-140.13671875,0.0
201.0,-31.25,-57.6171875,-54.6875,325.1953125,-127.44140625,0.0
201.00390625,-36.62109375,-66.40625,-38.0859375,329.1015625,-24.4140625,0.0
201.0078125,-14.16015625,-51.26953125,-18.06640625,321.77734375,-33.203125,0.0
201.01171875,-13.18359375,-69.3359375,-19.53125,318.359375,-65.91796875,0.0
201.015625,-33.203125,-66.89453125,-31.73828125,308.59375,-81.54296875,0.0
201.01953125,-27.83203125,-41.015625,-41.015625,312.98828125,-170.8984375,0.0
201.0234375,0.9765625,-20.01953125,-21.97265625,317.87109375,-170.8984375,0.0
201.02734375,-19.53125,-34.1796875,-26.3671875,291.50390625,-97.16796875,0.0
201.03125,-65.4296875,-55.17578125,-51.26953125,268.06640625,-145.5078125,0.0
201.03515625,-49.8046875,-70.3125,-38.0859375,268.5546875,-121.09375,0.0
201.0390625,-39.55078125,-65.4296875,-43.9453125,244.140625,-10.7421875,0.0
201.04296875,-32.2265625,-44.921875,-43.9453125,235.3515625,13.671875,0.0
201.046875,-27.83203125,-49.31640625,-33.203125,237.79296875,81.0546875,0.0
201.05078125,-46.875,-55.6640625,-53.7109375,216.30859375,8.7890625,0.0
201.0546875,-69.3359375,-38.57421875,-57.12890625,190.91796875,-89.84375,0.0
201.05859375,-47.8515625,-36.1328125,-39.55078125,187.01171875,-98.14453125,0.0
201.0625,-9.765625,-48.828125,-28.3203125,176.26953125,-113.28125,0.0
201.06640625,-77.1484375,-24.90234375,-47.8515625,118.65234375,-34.1796875,0.0
201.0703125,-130.859375,-34.66796875,-34.1796875,111.328125,-46.875,0.0
201.07421875,-17.578125,-71.2890625,-9.27734375,141.11328125,-129.8828125,0.0
201.078125,-6.8359375,-17.08984375,-54.19921875,106.93359375,-98.6328125,0.0
201.08203125,-47.8515625,-56.15234375,-60.546875,110.83984375,-50.29296875,0.0
201.0859375,32.2265625,-155.2734375,-9.765625,134.27734375,-7.32421875,0.0
201.08984375,-21.484375,-86.9140625,-23.92578125,71.77734375,5.37109375,0.0
201.09375,-64.453125,-23.92578125,-50.29296875,25.87890625,-10.25390625,0.0
201.09765625,22.94921875,-88.37890625,-29.296875,21.97265625,-57.12890625,0.0
201.1015625,16.6015625,-100.09765625,-24.90234375,-29.296875,-65.91796875,0.0
201.10546875,-20.99609375,-69.82421875,-25.390625,-76.171875,30.76171875,0.0
201.109375,-37.109375,-55.6640625,-28.3203125,-112.3046875,70.3125,0.0
201.11328125,-65.4296875,-16.6015625,-43.9453125,-159.66796875,21.97265625,0.0
201.1171875,-48.828125,-19.04296875,-46.875,-179.19921875,-36.62109375,0.0
201.12109375,-16.11328125,-62.98828125,-24.90234375,-193.359375,-33.203125,0.0
201.125,-12.20703125,-76.66015625,-14.16015625,-224.609375,27.83203125,0.0
201.12890625,-17.578125,-80.078125,-32.71484375,-252.9296875,-1.46484375,0.0
201.1328125,-40.52734375,-59.5703125,-62.01171875,-279.78515625,-148.92578125,0.0
201.13671875,-49.31640625,-43.9453125,-60.546875,-297.36328125,-192.3828125,0.0
201.140625,-57.12890625,-43.9453125,-51.7578125,-323.2421875,-70.3125,0.0
201.14453125,-56.15234375,-69.82421875,-43.45703125,-347.16796875,27.83203125,0.0
201.1484375,-31.25,-65.91796875,-37.59765625,-345.21484375,4.8828125,0.0
201.15234375,-16.11328125,-35.15625,-24.90234375,-340.8203125,-61.5234375,0.0
201.15625,-47.36328125,-61.03515625,-30.76171875,-358.3984375,-80.078125,0.0
201.16015625,-55.17578125,-88.37890625,-47.8515625,-374.0234375,-36.62109375,0.0
201.1640625,-25.390625,-52.24609375,-39.55078125,-381.8359375,13.671875,0.0
201.16796875,-6.8359375,-56.640625,-27.34375,-368.65234375,-28.3203125,0.0
201.171875,-9.765625,-83.0078125,-36.62109375,-365.72265625,-54.19921875,0.0
201.17578125,-15.625,-62.01171875,-51.26953125,-383.7890625,-57.12890625,0.0
201.1796875,-8.30078125,-31.73828125,-41.9921875,-362.79296875,-34.1796875,0.0
201.18359375,-7.8125,-16.6015625,-47.8515625,-339.84375,-17.08984375,0.0
201.1875,0.9765625,-58.59375,-36.1328125,-342.28515625,74.70703125,0.0
201.19140625,-0.48828125,-95.21484375,-31.25,-337.890625,50.78125,0.0
201.1953125,-2.44140625,-63.4765625,-42.96875,-335.9375,-99.609375,0.0
201.19921875,-16.6015625,-30.76171875,-39.55078125,-339.84375,-104.4921875,0.0
201.203125,-34.66796875,-66.89453125,-27.34375,-329.58984375,-75.1953125,0.0
201.20703125,-23.4375,-83.49609375,-34.66796875,-318.84765625,-17.578125,0.0
201.2109375,-12.6953125,-49.31640625,-38.57421875,-304.19921875,-95.703125,0.0
201.21484375,-19.53125,-34.1796875,-30.76171875,-286.1328125,-167.48046875,0.0
201.21875,-25.390625,-67.3828125,-45.41015625,-284.1796875,-160.64453125,0.0
201.22265625,-29.296875,-87.890625,-42.48046875,-281.25,-125.48828125,0.0
201.2265625,-40.0390625,-61.03515625,-40.52734375,-255.37109375,14.6484375,0.0
201.23046875,-29.296875,-37.109375,-43.9453125,-234.375,26.3671875,0.0
201.234375,-30.76171875,-41.015625,-58.10546875,-237.79296875,-74.70703125,0.0
201.23828125,-39.55078125,-80.56640625,-66.89453125,-227.5390625,-140.13671875,0.0
201.2421875,-36.62109375,-103.02734375,-55.17578125,-211.9140625,-96.6796875,0.0
201.24609375,-39.0625,-59.5703125,-59.08203125,-208.984375,5.37109375,0.0
201.25,-37.109375,-41.50390625,-31.73828125,-203.61328125,-58.59375,0.0
201.25390625,-19.53125,-63.96484375,-14.6484375,-185.546875,-91.796875,0.0
201.2578125,-23.4375,-46.875,-36.1328125,-185.546875,-87.890625,0.0
201.26171875,-38.0859375,-22.94921875,-42.96875,-190.4296875,14.6484375,0.0
201.265625,-33.203125,-23.4375,-36.62109375,-167.96875,108.3984375,0.0
201.26953125,-28.3203125,-43.9453125,-36.62109375,-149.4140625,84.9609375,0.0
201.2734375,-29.296875,-63.4765625,-38.57421875,-142.08984375,-16.11328125,0.0
201.27734375,-22.94921875,-60.05859375,-58.10546875,-136.23046875,-98.6328125,0.0
201.28125,-15.625,-48.828125,-58.10546875,-127.44140625,-133.7890625,0.0
201.28515625,-30.2734375,-52.24609375,-49.8046875,-131.8359375,-97.16796875,0.0
201.2890625,-51.26953125,-49.31640625,-43.45703125,-136.71875,-67.87109375,0.0
201.29296875,-43.9453125,-24.90234375,-15.625,-125.48828125,-139.16015625,0.0
201.296875,-40.0390625,-20.5078125,-24.4140625,-129.8828125,-154.296875,0.0
201.30078125,-42.96875,-50.29296875,-42.96875,-121.58203125,-187.98828125,0.0
201.3046875,-29.296875,-59.5703125,-31.25,-95.21484375,-181.15234375,0.0
201.30859375,-17.08984375,-72.75390625,-27.34375,-79.58984375,-88.8671875,0.0
201.3125,-17.578125,-69.3359375,-32.2265625,-62.98828125,3.90625,0.0
201.31640625,-15.13671875,-40.0390625,-32.2265625,-61.03515625,-19.53125,0.0
201.3203125,-14.16015625,-29.296875,-41.9921875,-77.1484375,-109.86328125,0.0
201.32421875,-29.296875,-33.69140625,-44.921875,-90.33203125,-5.859375,0.0
201.328125,-32.71484375,-47.36328125,-26.85546875,-69.3359375,135.7421875,0.0
201.33203125,-18.5546875,-37.59765625,-22.4609375,-55.6640625,75.68359375,0.0
201.3359375,-25.390625,-31.73828125,-20.01953125,-68.359375,55.6640625,0.0
201.33984375,-24.90234375,-57.12890625,-0.9765625,-59.08203125,63.96484375,0.0
201.34375,-6.8359375,-67.87109375,-7.32421875,-47.36328125,45.41015625,0.0
201.34765625,-28.80859375,-38.0859375,-33.203125,-68.359375,92.7734375,0.0
201.3515625,-54.6875,-31.25,-32.2265625,-74.21875,77.63671875,0.0
201.35546875,-40.0390625,-42.48046875,-22.4609375,-64.94140625,101.5625,0.0
201.359375,-41.50390625,-61.5234375,-24.4140625,-71.77734375,70.80078125,0.0
201.36328125,-50.78125,-67.87109375,-16.6015625,-55.6640625,-75.68359375,0.0
201.3671875,-49.8046875,-36.1328125,-14.16015625,-46.38671875,-94.7265625,0.0
201.37109375,-69.3359375,-27.34375,-21.97265625,-63.96484375,-85.9375,0.0
201.375,-72.75390625,-21.97265625,-24.4140625,-68.359375,-101.07421875,0.0
201.37890625,-68.84765625,-29.296875,-14.6484375,-78.61328125,-186.5234375,0.0
201.3828125,-87.40234375,-38.57421875,-14.6484375,-103.515625,-184.5703125,0.0
201.38671875,-106.4453125,-36.62109375,-29.296875,-110.83984375,-30.76171875,0.0
201.390625,-114.2578125,-55.17578125,-9.27734375,-104.4921875,-29.78515625,0.0
201.39453125,-113.28125,-74.21875,9.27734375,-103.515625,-93.26171875,0.0
201.3984375,-119.62890625,-26.85546875,-10.7421875,-111.328125,-66.89453125,0.0
201.40234375,-125.0,-7.8125,-10.7421875,-122.0703125,18.06640625,0.0
201.40625,-121.09375,-43.45703125,-8.7890625,-131.34765625,55.6640625,0.0
201.41015625,-118.65234375,-42.96875,-12.6953125,-136.23046875,46.875,0.0
201.4140625,-124.0234375,-32.71484375,-14.16015625,-140.13671875,-6.34765625,0.0
201.41796875,-128.41796875,-54.6875,-48.33984375,-132.8125,-109.86328125,0.0
201.421875,-139.6484375,-57.12890625,-50.29296875,-137.6953125,-109.86328125,0.0
201.42578125,-147.4609375,-31.25,-25.390625,-139.16015625,-7.32421875,0.0
201.4296875,-134.765625,-32.71484375,-21.97265625,-130.859375,20.5078125,0.0
201.43359375,-130.859375,-36.1328125,-26.85546875,-130.859375,14.6484375,0.0
201.4375,-97.16796875,-30.2734375,-16.6015625,-114.74609375,19.04296875,0.0
201.44140625,-62.5,-49.31640625,-40.0390625,-87.890625,-39.55078125,0.0
201.4453125,-58.10546875,-73.2421875,-70.3125,-64.453125,7.32421875,0.0
201.44921875,-52.24609375,-68.359375,-31.25,-43.45703125,120.60546875,0.0
201.453125,-46.875,-88.8671875,-20.01953125,-28.3203125,35.64453125,0.0
201.45703125,-39.0625,-78.125,-62.01171875,-27.83203125,-35.64453125,0.0
201.4609375,-29.296875,-17.08984375,-52.734375,-22.4609375,-13.671875,0.0
201.46484375,-35.15625,-24.4140625,-41.015625,-21.484375,35.15625,0.0
201.46875,-25.87890625,-57.12890625,-57.6171875,-3.90625,81.0546875,0.0
201.47265625,-5.37109375,-74.70703125,-59.5703125,18.06640625,-106.93359375,0.0
201.4765625,-11.71875,-75.1953125,-45.8984375,19.53125,-185.546875,0.0
201.48046875,-1.46484375,-69.3359375,-37.59765625,40.0390625,-101.5625,0.0
201.484375,13.671875,-79.1015625,-28.3203125,62.01171875,15.625,0.0
201.48828125,1.953125,-74.70703125,-22.4609375,55.6640625,42.96875,0.0
201.4921875,3.90625,-59.5703125,-38.57421875,43.9453125,-28.80859375,0.0
201.49609375,10.7421875,-62.5,-41.9921875,45.8984375,-179.6875,0.0
201.5,3.41796875,-89.35546875,-48.828125,48.828125,-296.38671875,0.0
201.50390625,2.44140625,-83.49609375,-68.84765625,51.26953125,-166.50390625,0.0
201.5078125,9.765625,-60.546875,-70.3125,50.78125,-89.84375,0.0
201.51171875,8.7890625,-68.359375,-50.78125,41.9921875,-72.75390625,0.0
201.515625,14.16015625,-61.5234375,-59.5703125,34.66796875,-145.01953125,0.0
201.51953125,20.5078125,-53.22265625,-56.640625,30.76171875,-247.0703125,0.0
201.5234375,0.9765625,-58.59375,-39.55078125,18.5546875,-144.53125,0.0
201.52734375,3.90625,-75.1953125,-43.9453125,9.765625,-60.05859375,0.0
201.53125,14.16015625,-76.66015625,-48.33984375,17.578125,-64.94140625,0.0
201.53515625,9.765625,-55.6640625,-43.9453125,23.4375,-14.16015625,0.0
201.5390625,18.5546875,-33.69140625,-34.66796875,22.4609375,-17.578125,0.0
201.54296875,6.8359375,-38.0859375,-48.33984375,15.625,96.19140625,0.0
201.546875,-0.48828125,-59.5703125,-40.0390625,20.99609375,179.6875,0.0
201.55078125,9.27734375,-54.19921875,-22.4609375,30.76171875,109.86328125,0.0
201.5546875,10.7421875,-44.921875,-29.78515625,35.15625,38.0859375,0.0
201.55859375,-1.953125,-72.265625,-39.0625,16.11328125,-62.01171875,0.0
201.5625,-15.625,-69.82421875,-41.015625,-14.16015625,-38.0859375,0.0
201.56640625,-22.94921875,-58.59375,-39.55078125,-25.390625,52.734375,0.0
201.5703125,-22.94921875,-74.21875,-56.640625,-21.484375,-12.6953125,0.0
201.57421875,-14.16015625,-83.0078125,-56.640625,-6.8359375,-42.96875,0.0
201.578125,-0.9765625,-63.96484375,-49.8046875,5.37109375,-6.8359375,0.0
201.58203125,0.0,-42.48046875,-44.43359375,2.9296875,5.37109375,0.0
201.5859375,-16.11328125,-61.5234375,-30.76171875,-0.9765625,25.390625,0.0
201.58984375,-21.484375,-75.1953125,-49.31640625,-2.9296875,-25.390625,0.0
201.59375,-19.04296875,-66.89453125,-71.2890625,5.37109375,-100.09765625,0.0
201.59765625,8.30078125,-59.5703125,-38.0859375,32.2265625,-65.91796875,0.0
201.6015625,12.6953125,-69.82421875,-14.16015625,16.6015625,-71.2890625,0.0
201.60546875,-18.5546875,-83.984375,-34.66796875,-26.3671875,-45.8984375,0.0
201.609375,-12.20703125,-53.7109375,-48.828125,-29.296875,-65.4296875,0.0
201.61328125,-4.8828125,-37.59765625,-55.17578125,-20.99609375,-264.6484375,0.0
201.6171875,2.9296875,-52.24609375,-39.55078125,-1.46484375,-239.74609375,0.0
201.62109375,19.53125,-76.171875,-42.96875,15.625,-107.91015625,0.0
201.625,9.27734375,-67.87109375,-69.3359375,0.48828125,-49.8046875,0.0
201.62890625,-7.32421875,-45.8984375,-58.10546875,-2.44140625,-38.0859375,0.0
201.6328125,-20.01953125,-59.08203125,-38.0859375,3.90625,-105.95703125,0.0
201.63671875,-13.18359375,-78.125,-31.25,7.32421875,-265.625,0.0
201.640625,-5.859375,-91.796875,-35.15625,10.7421875,-110.83984375,0.0
201.64453125,8.30078125,-74.21875,-49.8046875,16.6015625,104.98046875,0.0
201.6484375,19.04296875,-47.36328125,-50.29296875,24.90234375,6.34765625,0.0
201.65234375,-4.39453125,-56.640625,-39.0625,7.8125,-96.6796875,0.0
201.65625,-20.01953125,-51.7578125,-33.69140625,4.8828125,-82.03125,0.0
201.66015625,-17.578125,-62.5,-40.0390625,16.6015625,-22.94921875,0.0
201.6640625,-16.6015625,-83.0078125,-49.31640625,11.23046875,17.08984375,0.0
201.66796875,-12.6953125,-73.73046875,-45.41015625,-1.46484375,10.7421875,0.0
201.671875,-11.23046875,-82.03125,-45.41015625,-4.39453125,-5.859375,0.0
201.67578125,-16.11328125,-65.91796875,-47.36328125,3.41796875,-83.0078125,0.0
201.6796875,-4.8828125,-61.03515625,-38.0859375,19.04296875,-102.5390625,0.0
201.68359375,7.32421875,-71.2890625,-17.578125,20.5078125,9.765625,0.0
201.6875,-25.390625,-64.94140625,-30.2734375,0.48828125,120.1171875,0.0
201.69140625,-47.8515625,-64.94140625,-52.734375,-3.90625,78.125,0.0
201.6953125,-36.62109375,-58.59375,-61.5234375,-13.18359375,2.9296875,0.0
201.69921875,-24.4140625,-71.2890625,-61.03515625,-15.625,23.92578125,0.0
201.703125,-22.94921875,-79.1015625,-46.38671875,-8.30078125,133.30078125,0.0
201.70703125,-18.5546875,-74.21875,-41.015625,1.46484375,168.45703125,0.0
201.7109375,-10.25390625,-70.3125,-50.29296875,6.34765625,65.91796875,0.0
201.71484375,-13.671875,-56.640625,-38.0859375,3.90625,-44.43359375,0.0
201.71875,-31.73828125,-60.05859375,-26.3671875,0.0,-22.4609375,0.0
201.72265625,-19.53125,-61.5234375,-25.87890625,5.37109375,9.765625,0.0
201.7265625,2.9296875,-47.36328125,-23.92578125,14.16015625,-22.94921875,0.0
201.73046875,-11.23046875,-48.828125,-45.41015625,12.6953125,1.953125,0.0
201.734375,-37.59765625,-61.03515625,-60.05859375,-8.7890625,-13.671875,0.0
201.73828125,-45.8984375,-104.00390625,-52.24609375,-23.4375,-77.1484375,0.0
201.7421875,-26.3671875,-73.73046875,-41.015625,-9.765625,-31.25,0.0
201.74609375,-15.13671875,-20.5078125,-27.34375,3.90625,4.8828125,0.0
201.75,-16.11328125,-37.109375,-41.9921875,-0.48828125,-31.25,0.0
201.75390625,-11.71875,-39.0625,-54.19921875,-6.8359375,-47.36328125,0.0
201.7578125,-15.625,-44.43359375,-37.59765625,8.30078125,-91.30859375,0.0
201.76171875,-11.23046875,-71.77734375,-34.1796875,8.30078125,-63.4765625,0.0
201.765625,-7.32421875,-66.40625,-36.62109375,-6.34765625,-22.94921875,0.0
201.76953125,-18.06640625,-49.31640625,-47.36328125,-6.8359375,-34.1796875,0.0
201.7734375,-31.73828125,-58.10546875,-65.91796875,-22.4609375,-86.9140625,0.0
201.77734375,-13.18359375,-58.10546875,-64.453125,-13.671875,-132.32421875,0.0
201.78125,8.30078125,-57.12890625,-37.59765625,8.7890625,-114.74609375,0.0
201.78515625,-7.8125,-75.68359375,-23.4375,-4.8828125,-43.45703125,0.0
201.7890625,-24.4140625,-70.3125,-34.1796875,-16.11328125,6.8359375,0.0
201.79296875,-23.4375,-44.43359375,-31.73828125,-4.39453125,-1.953125,0.0
201.796875,-26.85546875,-48.828125,-27.83203125,6.34765625,-57.6171875,0.0
201.80078125,-41.015625,-69.3359375,-30.2734375,-12.20703125,-56.15234375,0.0
201.8046875,-34.1796875,-79.58984375,-44.43359375,-12.6953125,7.32421875,0.0
201.80859375,-12.20703125,-83.49609375,-43.45703125,15.625,-35.64453125,0.0
201.8125,-24.4140625,-69.3359375,-32.2265625,3.90625,-33.203125,0.0
201.81640625,-28.3203125,-74.21875,-47.8515625,-20.01953125,-8.30078125,0.0
201.8203125,-9.27734375,-52.24609375,-39.55078125,-10.25390625,-15.625,0.0
201.82421875,-2.9296875,-17.578125,-31.73828125,9.27734375,-6.34765625,0.0
201.828125,4.39453125,-28.80859375,-28.80859375,16.6015625,-17.578125,0.0
201.83203125,-12.20703125,-61.5234375,-34.66796875,3.41796875,-67.3828125,0.0
201.8359375,-42.96875,-81.54296875,-48.33984375,-10.7421875,-120.1171875,0.0
201.83984375,-47.8515625,-82.51953125,-60.546875,-15.13671875,-71.77734375,0.0
201.84375,-24.90234375,-72.265625,-55.6640625,0.48828125,25.390625,0.0
201.84765625,-23.4375,-64.94140625,-30.2734375,14.6484375,44.921875,0.0
201.8515625,-32.2265625,-61.5234375,-21.97265625,7.32421875,47.8515625,0.0
201.85546875,-37.59765625,-47.36328125,-47.8515625,-6.8359375,-20.99609375,0.0
201.859375,-41.50390625,-29.78515625,-54.6875,-1.46484375,-80.078125,0.0
201.86328125,-23.92578125,-42.96875,-25.390625,8.30078125,-101.07421875,0.0
201.8671875,-5.37109375,-62.5,-29.296875,5.859375,-193.359375,0.0
201.87109375,-13.671875,-76.171875,-54.19921875,0.9765625,-117.67578125,0.0
201.875,-28.3203125,-70.80078125,-47.8515625,-6.34765625,-32.71484375,0.0
201.87890625,-31.25,-65.4296875,-44.43359375,-0.9765625,-83.0078125,0.0
201.8828125,-30.2734375,-71.2890625,-36.62109375,6.34765625,-47.8515625,0.0
201.88671875,-30.76171875,-66.89453125,-30.2734375,0.48828125,53.7109375,0.0
201.890625,-25.87890625,-75.68359375,-38.0859375,-3.41796875,-38.0859375,0.0
201.89453125,-33.69140625,-58.59375,-45.41015625,-8.7890625,-160.64453125,0.0
201.8984375,-38.0859375,-61.5234375,-47.36328125,-12.20703125,-163.0859375,0.0
201.90234375,-41.50390625,-65.4296875,-38.0859375,-15.625,-45.8984375,0.0
201.90625,-55.17578125,-47.8515625,-53.7109375,-20.01953125,1.46484375,0.0
201.91015625,-44.43359375,-49.31640625,-51.7578125,-2.9296875,12.6953125,0.0
201.9140625,-33.203125,-61.5234375,-40.0390625,2.44140625,-70.80078125,0.0
201.91796875,-31.25,-84.47265625,-45.8984375,-12.6953125,-214.35546875,0.0
201.921875,-33.203125,-77.1484375,-58.10546875,-4.39453125,-170.8984375,0.0
201.92578125,-44.921875,-61.5234375,-57.12890625,3.41796875,-51.7578125,0.0
201.9296875,-23.4375,-69.82421875,-16.6015625,17.578125,2.44140625,0.0
201.93359375,-16.11328125,-81.0546875,-4.39453125,29.78515625,-61.03515625,0.0
201.9375,-44.921875,-59.5703125,-21.97265625,4.8828125,-76.171875,0.0
201.94140625,-47.36328125,-41.9921875,-33.203125,-6.8359375,-4.39453125,0.0
201.9453125,-40.0390625,-50.29296875,-26.3671875,0.9765625,19.53125,0.0
201.94921875,-25.390625,-61.5234375,-22.94921875,1.953125,124.0234375,0.0
201.953125,-22.4609375,-65.91796875,-65.4296875,-10.25390625,29.78515625,0.0
201.95703125,-38.0859375,-69.3359375,-77.1484375,-29.296875,-90.33203125,0.0
201.9609375,-28.80859375,-61.03515625,-33.203125,-13.671875,-61.5234375,0.0
201.96484375,-16.6015625,-59.5703125,-23.4375,10.7421875,66.40625,0.0
201.96875,-21.97265625,-58.10546875,-29.78515625,12.6953125,149.4140625,0.0
201.97265625,-30.76171875,-51.26953125,-29.296875,4.39453125,-2.44140625,0.0
201.9765625,-33.203125,-56.640625,-31.73828125,1.953125,-110.3515625,0.0
201.98046875,-33.69140625,-62.5,-47.8515625,1.46484375,-83.49609375,0.0
201.984375,-22.94921875,-50.29296875,-33.203125,7.8125,75.68359375,0.0
201.98828125,-8.7890625,-29.296875,-13.671875,16.6015625,87.40234375,0.0
201.9921875,-14.16015625,-54.19921875,-35.15625,6.8359375,-19.53125,0.0
201.99609375,-18.06640625,-56.15234375,-31.25,9.765625,-140.625,0.0
202.0,-18.06640625,-66.89453125,-20.01953125,24.90234375,-180.17578125,0.0
202.00390625,-28.80859375,-71.77734375,-34.66796875,9.765625,-88.8671875,0.0
202.0078125,-31.25,-57.12890625,-47.36328125,-7.8125,-70.80078125,0.0
202.01171875,-41.9921875,-65.91796875,-42.96875,-17.08984375,-143.06640625,0.0
202.015625,-41.015625,-67.87109375,-54.6875,-13.671875,-190.91796875,0.0
202.01953125,-16.6015625,-60.05859375,-55.6640625,2.44140625,-187.5,0.0
202.0234375,-31.25,-41.9921875,-38.57421875,-13.18359375,-150.87890625,0.0
202.02734375,-48.33984375,-37.109375,-29.78515625,-25.87890625,-66.40625,0.0
202.03125,-39.55078125,-46.38671875,-15.13671875,-16.6015625,-74.21875,0.0
202.03515625,-43.45703125,-62.98828125,-33.203125,-20.01953125,-123.53515625,0.0
202.0390625,-41.015625,-61.03515625,-47.8515625,-22.4609375,-152.34375,0.0
202.04296875,-31.73828125,-71.2890625,-49.31640625,-20.99609375,-107.91015625,0.0
202.046875,-49.8046875,-95.21484375,-65.91796875,-39.55078125,-104.00390625,0.0
202.05078125,-55.6640625,-61.03515625,-65.4296875,-48.828125,-178.7109375,0.0
202.0546875,-42.48046875,-36.1328125,-46.875,-43.9453125,-149.90234375,0.0
202.05859375,-45.41015625,-60.05859375,-40.0390625,-43.9453125,-93.75,0.0
202.0625,-40.52734375,-66.89453125,-35.64453125,-32.2265625,-57.6171875,0.0
202.06640625,-31.25,-59.08203125,-32.71484375,-25.390625,18.06640625,0.0
202.0703125,-34.66796875,-61.5234375,-32.2265625,-27.83203125,30.2734375,0.0
202.07421875,-24.90234375,-65.4296875,-25.87890625,-14.6484375,19.04296875,0.0
202.078125,-28.3203125,-72.265625,-37.109375,-21.484375,-17.578125,0.0
202.08203125,-45.41015625,-67.87109375,-45.8984375,-36.62109375,-4.8828125,0.0
202.0859375,-43.45703125,-67.87109375,-48.33984375,-35.64453125,110.83984375,0.0
202.08984375,-45.41015625,-66.89453125,-57.6171875,-36.62109375,71.77734375,0.0
202.09375,-56.15234375,-53.7109375,-57.6171875,-39.55078125,-111.328125,0.0
202.09765625,-44.43359375,-44.43359375,-42.96875,-29.78515625,-187.98828125,0.0
202.1015625,-20.99609375,-77.1484375,-37.59765625,-14.6484375,-187.98828125,0.0
202.10546875,-16.6015625,-103.02734375,-37.109375,-11.23046875,-87.40234375,0.0
202.109375,-23.4375,-55.6640625,-27.83203125,-21.484375,14.6484375,0.0
202.11328125,-34.66796875,-25.87890625,-29.78515625,-43.45703125,-10.7421875,0.0
202.1171875,-38.0859375,-40.0390625,-18.5546875,-41.015625,-22.94921875,0.0
202.12109375,-28.3203125,-73.2421875,-23.4375,-31.73828125,16.11328125,0.0
202.125,-24.90234375,-75.68359375,-48.33984375,-30.76171875,5.37109375,0.0
202.12890625,-36.62109375,-52.734375,-40.52734375,-27.34375,11.23046875,0.0
202.1328125,-25.87890625,-41.50390625,-23.92578125,-13.671875,-55.6640625,0.0
202.13671875,-10.25390625,-58.10546875,-42.96875,-15.625,-100.5859375,0.0
202.140625,-24.90234375,-57.12890625,-62.01171875,-26.3671875,-64.453125,0.0
202.14453125,-24.4140625,-54.19921875,-37.59765625,-13.18359375,7.32421875,0.0
202.1484375,-20.01953125,-70.3125,-36.62109375,-3.90625,55.6640625,0.0
202.15234375,-20.99609375,-67.87109375,-44.921875,5.859375,-36.1328125,0.0
202.15625,-27.83203125,-72.75390625,-34.1796875,-10.7421875,-146.97265625,0.0
202.16015625,-33.69140625,-67.3828125,-30.2734375,-25.390625,-101.5625,0.0
202.1640625,-20.01953125,-55.17578125,-8.30078125,-4.39453125,-24.4140625,0.0
202.16796875,-29.78515625,-59.08203125,-25.390625,-11.71875,21.97265625,0.0
202.171875,-41.9921875,-70.80078125,-46.38671875,-30.76171875,28.3203125,0.0
202.17578125,-43.9453125,-65.91796875,-43.45703125,-30.76171875,-139.6484375,0.0
202.1796875,-40.52734375,-62.01171875,-38.57421875,-19.53125,-231.93359375,0.0
202.18359375,-25.87890625,-73.2421875,-13.671875,-5.37109375,-133.30078125,0.0
202.1875,-20.01953125,-68.359375,-33.203125,-1.953125,-30.76171875,0.0
202.19140625,-38.0859375,-69.82421875,-55.17578125,-10.25390625,-34.66796875,0.0
202.1953125,-48.828125,-70.3125,-37.59765625,-18.5546875,2.9296875,0.0
202.19921875,-53.7109375,-83.0078125,-37.109375,-29.296875,33.203125,0.0
202.203125,-47.36328125,-93.75,-37.109375,-36.62109375,34.1796875,0.0
202.20703125,-43.45703125,-63.4765625,-37.109375,-36.1328125,45.41015625,0.0
202.2109375,-49.8046875,-65.91796875,-35.64453125,-39.55078125,9.765625,0.0
202.21484375,-53.22265625,-86.9140625,-32.71484375,-40.0390625,-36.62109375,0.0
202.21875,-64.94140625,-69.82421875,-41.50390625,-46.38671875,-60.546875,0.0
202.22265625,-52.24609375,-58.59375,-43.9453125,-43.9453125,-6.34765625,0.0
202.2265625,-46.38671875,-48.828125,-42.48046875,-37.59765625,88.37890625,0.0
202.23046875,-36.62109375,-61.03515625,-54.6875,-18.5546875,103.515625,0.0
202.234375,-23.92578125,-84.47265625,-42.96875,-7.32421875,13.671875,0.0
202.23828125,-29.78515625,-103.02734375,-19.04296875,-15.625,-64.94140625,0.0
202.2421875,-21.484375,-80.078125,-20.99609375,-10.25390625,-50.78125,0.0
202.24609375,-20.5078125,-40.52734375,-36.62109375,-5.859375,8.7890625,0.0
202.25,-39.55078125,-47.36328125,-42.96875,-10.7421875,-39.55078125,0.0
202.25390625,-36.1328125,-61.5234375,-26.3671875,-15.13671875,-29.296875,0.0
202.2578125,-29.296875,-63.96484375,-25.87890625,-18.06640625,-45.41015625,0.0
202.26171875,-42.48046875,-72.75390625,-30.2734375,-20.99609375,-49.31640625,0.0
202.265625,-35.15625,-73.2421875,-38.57421875,-25.390625,54.6875,0.0
202.26953125,-22.4609375,-81.54296875,-62.98828125,-21.484375,31.25,0.0
202.2734375,-20.5078125,-100.09765625,-41.9921875,-10.25390625,-29.296875,0.0
202.27734375,-23.92578125,-99.609375,-26.85546875,-10.25390625,-149.4140625,0.0
202.28125,-37.109375,-88.37890625,-53.22265625,-28.3203125,-174.8046875,0.0
202.28515625,-31.25,-72.75390625,-55.6640625,-35.64453125,-61.5234375,0.0
202.2890625,-22.4609375,-66.89453125,-32.71484375,-32.2265625,41.9921875,0.0
202.29296875,-40.52734375,-66.89453125,-14.16015625,-48.33984375,-12.20703125,0.0
202.296875,-51.26953125,-69.3359375,-23.4375,-61.03515625,-89.84375,0.0
202.30078125,-54.6875,-74.70703125,-44.43359375,-57.12890625,-20.99609375,0.0
202.3046875,-37.109375,-93.26171875,-39.0625,-42.48046875,105.95703125,0.0
202.30859375,-12.6953125,-82.03125,-27.83203125,-31.73828125,85.44921875,0.0
202.3125,-11.23046875,-35.15625,-25.390625,-37.59765625,8.7890625,0.0
202.31640625,-40.0390625,-37.109375,-30.2734375,-41.50390625,-23.4375,0.0
202.3203125,-52.24609375,-48.33984375,-43.9453125,-43.9453125,-95.21484375,0.0
202.32421875,-38.57421875,-61.5234375,-41.015625,-39.55078125,3.41796875,0.0
202.328125,-24.4140625,-77.63671875,-39.55078125,-29.78515625,67.3828125,0.0
202.33203125,-12.20703125,-67.87109375,-27.83203125,-29.78515625,8.30078125,0.0
202.3359375,-24.90234375,-65.4296875,-21.484375,-44.921875,-94.7265625,0.0
202.33984375,-35.64453125,-68.359375,-23.4375,-48.33984375,-152.34375,0.0
202.34375,-45.41015625,-63.4765625,-35.15625,-48.33984375,-63.96484375,0.0
202.34765625,-38.57421875,-70.3125,-43.45703125,-39.55078125,40.0390625,0.0
202.3515625,-22.4609375,-71.2890625,-44.921875,-29.78515625,13.18359375,0.0
202.35546875,-24.90234375,-82.51953125,-36.62109375,-30.2734375,-71.77734375,0.0
202.359375,-20.5078125,-83.0078125,-34.1796875,-20.01953125,-109.375,0.0
202.36328125,-15.13671875,-36.62109375,-50.29296875,-7.8125,-134.27734375,0.0
202.3671875,-27.34375,-26.3671875,-22.94921875,-15.625,-81.0546875,0.0
202.37109375,-38.57421875,-79.1015625,-19.53125,-39.55078125,-50.29296875,0.0
202.375,-15.625,-70.80078125,-36.1328125,-25.87890625,-52.734375,0.0
202.37890625,-19.04296875,-59.5703125,-28.80859375,-7.8125,-68.84765625,0.0
202.3828125,-16.6015625,-40.0390625,-26.85546875,7.32421875,-37.59765625,0.0
202.38671875,-0.9765625,-20.01953125,-31.73828125,11.71875,0.0,0.0
202.390625,-33.203125,-62.98828125,-29.296875,-21.97265625,-23.4375,0.0
202.39453125,-56.640625,-83.984375,-26.3671875,-27.34375,-75.68359375,0.0
202.3984375,-31.25,-89.84375,-32.2265625,-12.20703125,-118.1640625,0.0
202.40234375,-11.71875,-89.84375,-41.9921875,-8.30078125,-124.51171875,0.0
202.40625,-13.18359375,-73.2421875,-36.62109375,-0.9765625,-83.984375,0.0
202.41015625,0.9765625,-53.22265625,-18.5546875,0.48828125,-73.2421875,0.0
202.4140625,0.9765625,-36.1328125,-19.53125,2.44140625,-71.77734375,0.0
202.41796875,-21.484375,-24.4140625,-22.4609375,4.39453125,19.04296875,0.0
202.421875,-35.64453125,-49.31640625,-26.85546875,-13.18359375,11.23046875,0.0
202.42578125,-35.64453125,-81.54296875,-50.29296875,-23.4375,-2.9296875,0.0
202.4296875,-33.203125,-77.63671875,-48.828125,-14.6484375,28.80859375,0.0
202.43359375,-29.78515625,-83.0078125,-41.50390625,-16.6015625,-52.24609375,0.0
202.4375,-32.2265625,-107.421875,-37.109375,-20.99609375,-111.328125,0.0
202.44140625,-36.1328125,-88.8671875,-38.0859375,-14.16015625,-20.99609375,0.0
202.4453125,-38.0859375,-47.36328125,-34.66796875,-17.578125,53.7109375,0.0
202.44921875,-25.390625,-40.52734375,-2.9296875,-8.30078125,44.921875,0.0
202.453125,-22.94921875,-48.33984375,-15.13671875,0.9765625,-17.578125,0.0
202.45703125,-47.36328125,-64.453125,-45.41015625,-19.53125,-125.48828125,0.0
202.4609375,-38.0859375,-84.9609375,-34.1796875,-19.53125,-116.2109375,0.0
202.46484375,-12.6953125,-78.125,-26.3671875,0.9765625,33.203125,0.0
202.46875,-28.3203125,-57.12890625,-39.55078125,4.39453125,30.76171875,0.0
202.47265625,-39.0625,-80.078125,-41.9921875,-5.859375,-74.70703125,0.0
202.4765625,-34.1796875,-81.54296875,-35.15625,-27.83203125,-71.2890625,0.0
202.48046875,-47.36328125,-49.8046875,-34.66796875,-32.71484375,-133.7890625,0.0
202.484375,-53.7109375,-55.6640625,-38.0859375,-23.92578125,-198.2421875,0.0
202.48828125,-30.2734375,-71.2890625,-31.73828125,-10.7421875,-136.71875,0.0
202.4921875,-24.4140625,-74.70703125,-45.41015625,-4.39453125,-121.58203125,0.0
202.49609375,-26.85546875,-59.5703125,-66.89453125,0.48828125,-102.05078125,0.0
202.5,-30.2734375,-56.640625,-46.38671875,-5.37109375,-35.15625,0.0
202.50390625,-25.87890625,-64.94140625,-20.01953125,-11.23046875,6.8359375,0.0
202.5078125,-25.87890625,-69.82421875,-25.390625,-1.953125,36.62109375,0.0
202.51171875,-45.41015625,-81.54296875,-49.31640625,-6.8359375,-0.9765625,0.0
202.515625,-40.0390625,-94.23828125,-45.41015625,6.34765625,-71.2890625,0.0
202.51953125,-41.9921875,-81.0546875,-22.4609375,6.8359375,-63.96484375,0.0
202.5234375,-51.26953125,-82.51953125,-37.109375,-15.625,-25.390625,0.0
202.52734375,-39.0625,-74.70703125,-39.55078125,-8.30078125,28.3203125,0.0
202.53125,-32.71484375,-52.734375,-23.4375,2.9296875,5.37109375,0.0
202.53515625,-39.55078125,-79.1015625,-50.29296875,5.859375,-125.48828125,0.0
202.5390625,-33.69140625,-83.984375,-45.41015625,18.5546875,-119.62890625,0.0
202.54296875,-39.55078125,-58.59375,-19.53125,15.13671875,-8.7890625,0.0
202.546875,-47.36328125,-60.05859375,-26.85546875,13.18359375,31.73828125,0.0
202.55078125,-15.625,-61.03515625,-43.45703125,24.4140625,-5.37109375,0.0
202.5546875,-27.34375,-73.2421875,-51.26953125,2.44140625,-84.9609375,0.0
202.55859375,-58.59375,-73.73046875,-34.1796875,-14.6484375,9.765625,0.0
202.5625,-43.45703125,-78.61328125,-28.3203125,-12.6953125,107.421875,0.0
202.56640625,-25.390625,-101.5625,-45.41015625,-11.71875,73.2421875,0.0
202.5703125,-15.13671875,-85.9375,-62.01171875,-3.90625,34.1796875,0.0
202.57421875,-19.04296875,-61.5234375,-54.19921875,-8.30078125,-58.59375,0.0
202.578125,-27.83203125,-59.08203125,-19.53125,-4.8828125,-105.95703125,0.0
202.58203125,-18.06640625,-60.546875,-2.9296875,14.6484375,-30.2734375,0.0
202.5859375,-10.25390625,-60.546875,-19.53125,11.23046875,1.46484375,0.0
202.58984375,-30.76171875,-62.98828125,-46.38671875,-5.859375,-42.96875,0.0
202.59375,-41.015625,-81.0546875,-50.29296875,-13.671875,-141.11328125,0.0
202.59765625,-21.484375,-65.91796875,-36.62109375,-1.46484375,-159.66796875,0.0
202.6015625,-26.85546875,-88.37890625,-45.41015625,3.90625,-98.14453125,0.0
202.60546875,-49.31640625,-117.67578125,-53.7109375,-16.6015625,5.37109375,0.0
202.609375,-47.36328125,-75.68359375,-34.1796875,-19.04296875,76.171875,0.0
202.61328125,-34.1796875,-57.6171875,-20.99609375,-1.953125,32.2265625,0.0
202.6171875,-28.80859375,-49.8046875,-41.50390625,-4.8828125,-26.85546875,0.0
202.62109375,-32.2265625,-48.33984375,-49.8046875,-13.18359375,21.97265625,0.0
202.625,-38.0859375,-71.2890625,-40.52734375,-11.23046875,81.0546875,0.0
202.62890625,-44.43359375,-72.75390625,-64.94140625,-15.625,7.32421875,0.0
202.6328125,-47.36328125,-63.4765625,-42.48046875,-28.3203125,-33.69140625,0.0
202.63671875,-41.015625,-59.08203125,-9.765625,-33.203125,-71.77734375,0.0
202.640625,-22.4609375,-80.078125,-18.5546875,-7.8125,-111.328125,0.0
202.64453125,-19.04296875,-100.09765625,-26.85546875,4.39453125,2.44140625,0.0
202.6484375,-34.1796875,-82.51953125,-39.55078125,-18.5546875,85.44921875,0.0
202.65234375,-45.41015625,-56.640625,-57.12890625,-32.2265625,35.15625,0.0
202.65625,-51.7578125,-56.15234375,-52.734375,-29.78515625,-95.21484375,0.0
202.66015625,-46.38671875,-59.5703125,-46.38671875,-21.97265625,-77.63671875,0.0
202.6640625,-19.53125,-36.62109375,-54.6875,0.48828125,41.015625,0.0
202.66796875,-10.25390625,-69.3359375,-45.8984375,5.37109375,36.62109375,0.0
202.671875,-23.92578125,-111.328125,-23.92578125,-10.7421875,19.53125,0.0
202.67578125,-27.34375,-90.33203125,-18.06640625,-7.8125,-88.8671875,0.0
202.6796875,-41.50390625,-61.5234375,-45.8984375,-4.39453125,-198.2421875,0.0
202.68359375,-53.7109375,-52.24609375,-48.33984375,-23.92578125,-172.36328125,0.0
202.6875,-40.0390625,-37.59765625,-37.109375,-25.390625,-73.73046875,0.0
202.69140625,-30.2734375,-34.1796875,-38.57421875,-16.6015625,-49.8046875,0.0
202.6953125,-17.08984375,-60.546875,-43.45703125,-6.8359375,-92.28515625,0.0
202.69921875,-25.87890625,-82.51953125,-46.38671875,-6.8359375,-118.65234375,0.0
202.703125,-51.26953125,-78.61328125,-36.1328125,-23.92578125,-184.08203125,0.0
202.70703125,-41.50390625,-47.8515625,-32.2265625,-30.76171875,-172.36328125,0.0
202.7109375,-23.92578125,-53.22265625,-28.3203125,-29.296875,-138.18359375,0.0
202.71484375,-27.34375,-84.9609375,-33.69140625,-30.76171875,-247.55859375,0.0
202.71875,-33.69140625,-82.51953125,-30.76171875,-36.1328125,-269.04296875,0.0
202.72265625,-17.578125,-52.734375,-11.23046875,-23.92578125,-152.34375,0.0
202.7265625,-18.06640625,-41.50390625,-24.4140625,-22.4609375,-115.234375,0.0
202.73046875,-41.9921875,-67.3828125,-49.31640625,-41.9921875,-111.328125,0.0
202.734375,-51.26953125,-71.2890625,-37.109375,-46.38671875,-127.44140625,0.0
202.73828125,-42.48046875,-70.3125,-29.296875,-38.0859375,-59.5703125,0.0
202.7421875,-39.55078125,-54.19921875,-35.15625,-41.015625,-45.8984375,0.0
202.74609375,-41.50390625,-43.45703125,-32.2265625,-47.8515625,37.59765625,0.0
202.75,-27.83203125,-58.10546875,-19.53125,-42.96875,73.73046875,0.0
202.75390625,-20.5078125,-78.125,-17.578125,-30.2734375,66.40625,0.0
202.7578125,-16.11328125,-72.265625,-45.8984375,-26.85546875,24.90234375,0.0
202.76171875,-20.01953125,-53.22265625,-52.24609375,-35.15625,15.625,0.0
202.765625,-22.94921875,-51.7578125,-19.53125,-36.1328125,-57.6171875,0.0
202.76953125,-20.01953125,-71.77734375,-29.296875,-33.203125,-185.05859375,0.0
202.7734375,-33.203125,-82.51953125,-55.6640625,-32.2265625,-129.8828125,0.0
202.77734375,-49.31640625,-73.2421875,-41.50390625,-14.16015625,-8.7890625,0.0
202.78125,-45.8984375,-58.59375,-21.97265625,0.0,28.80859375,0.0
202.78515625,-42.96875,-49.31640625,-13.671875,-12.20703125,3.90625,0.0
202.7890625,-37.59765625,-51.26953125,-0.9765625,-15.625,17.08984375,0.0
202.79296875,-36.62109375,-55.6640625,-40.0390625,-22.4609375,-85.44921875,0.0
202.796875,-50.29296875,-69.3359375,-57.12890625,-37.109375,-176.7578125,0.0
202.80078125,-46.875,-61.5234375,-31.73828125,-33.69140625,-101.07421875,0.0
202.8046875,-21.484375,-38.57421875,-41.015625,-22.4609375,-55.6640625,0.0
202.80859375,-4.8828125,-52.734375,-32.71484375,-24.4140625,-30.76171875,0.0
202.8125,-8.7890625,-69.3359375,-18.06640625,-20.99609375,-15.13671875,0.0
202.81640625,-19.04296875,-62.98828125,-37.59765625,-9.765625,-150.87890625,0.0
202.8203125,-32.71484375,-73.2421875,-39.55078125,-23.92578125,-101.07421875,0.0
202.82421875,-38.0859375,-80.078125,-32.71484375,-32.2265625,52.734375,0.0
202.828125,-38.57421875,-69.3359375,-39.55078125,-20.99609375,44.43359375,0.0
202.83203125,-40.0390625,-45.8984375,-38.57421875,-17.08984375,20.01953125,0.0
202.8359375,-20.99609375,-47.36328125,-32.2265625,-5.859375,11.23046875,0.0
202.83984375,-1.46484375,-83.0078125,-22.94921875,0.48828125,20.5078125,0.0
202.84375,4.8828125,-89.35546875,-18.5546875,8.7890625,73.2421875,0.0
202.84765625,-1.46484375,-33.69140625,-26.85546875,-0.9765625,165.0390625,0.0
202.8515625,-28.3203125,-15.13671875,-44.43359375,-36.62109375,118.1640625,0.0
202.85546875,-39.55078125,-48.828125,-54.19921875,-42.96875,-81.54296875,0.0
202.859375,-39.0625,-63.4765625,-75.68359375,-40.52734375,-127.44140625,0.0
202.86328125,-36.1328125,-73.73046875,-61.5234375,-34.66796875,-66.89453125,0.0
202.8671875,-31.25,-67.3828125,-21.484375,-22.94921875,-41.015625,0.0
202.87109375,-11.71875,-55.6640625,-4.8828125,-17.578125,-22.94921875,0.0
202.875,10.25390625,-79.58984375,-20.99609375,-20.99609375,-5.859375,0.0
202.87890625,6.34765625,-80.56640625,-25.390625,-25.87890625,-26.3671875,0.0
202.8828125,-21.97265625,-64.94140625,-16.11328125,-35.64453125,-60.05859375,0.0
202.88671875,-42.96875,-55.17578125,-48.33984375,-44.43359375,61.5234375,0.0
202.890625,-42.96875,-63.4765625,-55.6640625,-45.41015625,150.87890625,0.0
202.89453125,-30.76171875,-60.546875,-36.1328125,-30.2734375,-52.734375,0.0
202.8984375,-21.97265625,-63.4765625,-29.296875,-7.8125,-249.51171875,0.0
202.90234375,-34.1796875,-94.7265625,-39.0625,-8.30078125,-164.55078125,0.0
202.90625,-28.80859375,-79.1015625,-45.8984375,-12.20703125,-55.17578125,0.0
202.91015625,-11.23046875,-64.453125,-18.06640625,-4.8828125,-58.10546875,0.0
202.9140625,-22.94921875,-72.75390625,-11.71875,0.48828125,-119.62890625,0.0
202.91796875,-48.33984375,-70.80078125,-36.1328125,-10.25390625,-191.40625,0.0
202.921875,-54.19921875,-81.54296875,-29.78515625,-12.6953125,-70.80078125,0.0
202.92578125,-40.52734375,-86.42578125,-27.34375,-7.8125,96.6796875,0.0
202.9296875,-32.2265625,-71.2890625,-23.92578125,-7.8125,-16.11328125,0.0
202.93359375,-25.87890625,-74.21875,-31.25,-9.765625,-91.30859375,0.0
202.9375,-10.25390625,-88.8671875,-46.875,-7.8125,-66.89453125,0.0
202.94140625,-5.859375,-62.01171875,-43.45703125,-4.8828125,-9.765625,0.0
202.9453125,-20.01953125,-39.55078125,-36.1328125,-9.27734375,108.3984375,0.0
202.94921875,-20.99609375,-44.921875,0.9765625,-13.671875,146.97265625,0.0
202.953125,-31.25,-65.4296875,-9.27734375,-34.66796875,48.33984375,0.0
202.95703125,-38.57421875,-79.58984375,-31.25,-49.8046875,-99.609375,0.0
202.9609375,-35.15625,-62.98828125,-27.83203125,-51.7578125,-137.6953125,0.0
202.96484375,-52.24609375,-65.4296875,-46.38671875,-45.8984375,-78.61328125,0.0
202.96875,-57.6171875,-87.890625,-49.8046875,-43.45703125,20.01953125,0.0
202.97265625,-41.9921875,-79.1015625,-48.828125,-35.64453125,141.6015625,0.0
202.9765625,-18.5546875,-46.38671875,-38.57421875,-10.25390625,143.06640625,0.0
202.98046875,-14.16015625,-37.109375,-23.4375,-11.71875,1.46484375,0.0
202.984375,-31.73828125,-50.78125,-28.3203125,-36.62109375,-8.7890625,0.0
202.98828125,-31.25,-45.41015625,-19.04296875,-38.0859375,50.29296875,0.0
202.9921875,-29.78515625,-46.875,-17.578125,-35.64453125,67.87109375,0.0
202.99609375,-33.69140625,-68.84765625,-34.66796875,-43.9453125,38.57421875,0.0
203.0,-44.43359375,-79.1015625,-34.66796875,-45.41015625,-39.0625,0.0
203.00390625,-42.96875,-88.8671875,-29.78515625,-45.8984375,-86.9140625,0.0
203.0078125,-31.25,-107.421875,-41.015625,-42.96875,-66.40625,0.0
203.01171875,-36.1328125,-87.40234375,-45.8984375,-35.15625,41.50390625,0.0
203.015625,-34.66796875,-50.29296875,-51.7578125,-35.15625,57.12890625,0.0
203.01953125,-24.4140625,-32.2265625,-30.2734375,-25.87890625,95.703125,0.0
203.0234375,-24.90234375,-22.4609375,-12.6953125,-15.13671875,85.44921875,0.0
203.02734375,-26.85546875,-48.828125,-33.69140625,-24.90234375,31.73828125,0.0
203.03125,-30.2734375,-84.47265625,-42.48046875,-38.0859375,35.15625,0.0
203.03515625,-39.0625,-78.125,-35.15625,-36.1328125,77.63671875,0.0
203.0390625,-50.29296875,-73.73046875,-36.62109375,-42.48046875,60.05859375,0.0
203.04296875,-54.19921875,-84.9609375,-29.78515625,-49.31640625,26.85546875,0.0
203.046875,-46.875,-92.28515625,-33.69140625,-41.015625,-47.8515625,0.0
203.05078125,-36.62109375,-77.63671875,-47.36328125,-36.62109375,-170.41015625,0.0
203.0546875,-27.83203125,-55.6640625,-50.29296875,-40.52734375,-104.98046875,0.0
203.05859375,-37.59765625,-67.3828125,-48.828125,-46.875,-8.7890625,0.0
203.0625,-44.43359375,-85.9375,-38.57421875,-35.64453125,99.609375,0.0
203.06640625,-35.64453125,-88.37890625,-28.80859375,-16.6015625,30.2734375,0.0
203.0703125,-28.80859375,-72.265625,-20.5078125,-12.6953125,-129.8828125,0.0
203.07421875,-25.87890625,-55.6640625,-46.875,-14.6484375,-133.30078125,0.0
203.078125,-9.765625,-55.17578125,-62.5,-0.48828125,-36.62109375,0.0
203.08203125,-23.92578125,-69.82421875,-18.5546875,-0.48828125,61.03515625,0.0
203.0859375,-55.6640625,-59.5703125,-26.85546875,-25.390625,-41.9921875,0.0
203.08984375,-62.98828125,-52.734375,-52.734375,-47.36328125,-98.6328125,0.0
203.09375,-53.22265625,-71.2890625,-41.50390625,-44.43359375,-76.66015625,0.0
203.09765625,-38.0859375,-71.77734375,-37.59765625,-32.71484375,-78.61328125,0.0
203.1015625,-32.71484375,-67.3828125,-35.15625,-31.73828125,-48.33984375,0.0
203.10546875,-32.71484375,-68.84765625,-24.90234375,-27.83203125,-54.19921875,0.0
203.109375,-12.20703125,-78.61328125,-13.18359375,-9.27734375,-183.10546875,0.0
203.11328125,-0.48828125,-62.98828125,-18.5546875,-1.46484375,-251.46484375,0.0
203.1171875,-12.6953125,-66.40625,-52.24609375,-18.06640625,-104.98046875,0.0
203.12109375,-27.34375,-84.47265625,-55.17578125,-35.15625,20.5078125,0.0
203.125,-29.78515625,-66.89453125,-50.29296875,-29.296875,10.7421875,0.0
203.12890625,-20.99609375,-69.82421875,-52.24609375,-6.8359375,-86.9140625,0.0
203.1328125,-44.43359375,-67.87109375,-27.83203125,-13.18359375,-136.23046875,0.0
203.13671875,-47.8515625,-53.7109375,-24.90234375,-22.4609375,-120.1171875,0.0
203.140625,-45.41015625,-61.5234375,-36.62109375,-16.11328125,-106.4453125,0.0
203.14453125,-48.33984375,-64.453125,-34.66796875,-4.8828125,-49.8046875,0.0
203.1484375,-26.3671875,-70.3125,-21.97265625,10.7421875,-65.91796875,0.0
203.15234375,-18.5546875,-78.125,-25.390625,7.8125,-122.0703125,0.0
203.15625,-21.97265625,-72.265625,-46.875,2.9296875,-78.61328125,0.0
203.16015625,-37.109375,-67.87109375,-46.38671875,-8.30078125,31.25,0.0
203.1640625,-40.0390625,-66.89453125,-32.2265625,-9.27734375,17.08984375,0.0
203.16796875,-28.3203125,-60.05859375,-24.90234375,-1.46484375,4.39453125,0.0
203.171875,-40.52734375,-67.87109375,-28.80859375,-8.30078125,-4.8828125,0.0
203.17578125,-47.36328125,-82.51953125,-44.43359375,-12.20703125,-25.87890625,0.0
203.1796875,-35.15625,-73.73046875,-40.52734375,-8.7890625,40.52734375,0.0
203.18359375,-49.8046875,-64.94140625,-28.80859375,-9.27734375,54.6875,0.0
203.1875,-62.98828125,-68.359375,-39.55078125,-9.765625,-6.34765625,0.0
203.19140625,-54.19921875,-65.4296875,-28.80859375,-6.8359375,-55.17578125,0.0
203.1953125,-37.59765625,-54.6875,-6.34765625,-2.44140625,-45.41015625,0.0
203.19921875,-42.48046875,-69.82421875,-13.671875,-10.7421875,44.43359375,0.0
203.203125,-48.828125,-85.44921875,-26.85546875,-18.06640625,105.46875,0.0
203.20703125,-43.45703125,-63.96484375,-46.38671875,-27.34375,43.45703125,0.0
203.2109375,-47.8515625,-63.96484375,-41.9921875,-31.73828125,-71.77734375,0.0
203.21484375,-65.4296875,-89.35546875,-33.69140625,-30.76171875,-54.19921875,0.0
203.21875,-60.546875,-68.359375,-28.80859375,-26.85546875,13.671875,0.0
203.22265625,-62.01171875,-49.8046875,-10.7421875,-39.0625,17.08984375,0.0
203.2265625,-78.125,-50.29296875,-23.92578125,-59.5703125,-32.2265625,0.0
203.23046875,-80.56640625,-51.26953125,-34.66796875,-53.7109375,-145.99609375,0.0
203.234375,-77.63671875,-66.40625,-22.4609375,-49.31640625,-153.3203125,0.0
203.23828125,-70.3125,-66.40625,-25.390625,-53.7109375,-64.453125,0.0
203.2421875,-70.80078125,-49.31640625,-37.59765625,-47.8515625,-36.62109375,0.0
203.24609375,-78.61328125,-42.96875,-8.7890625,-57.6171875,-80.078125,0.0
203.25,-95.21484375,-44.921875,5.37109375,-81.54296875,-128.90625,0.0
203.25390625,-112.3046875,-56.15234375,-14.16015625,-96.19140625,-110.83984375,0.0
203.2578125,-128.90625,-41.50390625,-20.5078125,-97.16796875,-14.6484375,0.0
203.26171875,-131.8359375,-36.1328125,-31.73828125,-85.9375,63.96484375,0.0
203.265625,-135.25390625,-39.0625,-26.3671875,-90.33203125,23.92578125,0.0
203.26953125,-116.2109375,-61.5234375,-1.953125,-85.44921875,-30.76171875,0.0
203.2734375,-89.35546875,-64.453125,0.9765625,-93.26171875,-61.5234375,0.0
203.27734375,-105.46875,-30.76171875,-4.39453125,-115.72265625,-26.85546875,0.0
203.28125,-117.67578125,-51.26953125,-11.23046875,-108.88671875,36.1328125,0.0
203.28515625,-122.0703125,-41.015625,-27.34375,-100.09765625,-9.27734375,0.0
203.2890625,-136.71875,-11.23046875,-43.9453125,-100.5859375,-82.51953125,0.0
203.29296875,-129.39453125,-30.2734375,-31.25,-99.609375,-39.0625,0.0
203.296875,-112.79296875,-49.31640625,-10.7421875,-87.890625,86.9140625,0.0
203.30078125,-106.93359375,-50.78125,-13.671875,-73.73046875,98.6328125,0.0
203.3046875,-105.95703125,-58.10546875,-10.25390625,-69.82421875,-10.7421875,0.0
203.30859375,-91.796875,-67.87109375,-30.2734375,-67.87109375,-52.734375,0.0
203.3125,-62.01171875,-78.125,-46.875,-62.5,-73.73046875,0.0
203.31640625,-57.6171875,-82.03125,-25.390625,-53.22265625,-29.296875,0.0
203.3203125,-59.5703125,-55.17578125,-22.94921875,-33.203125,14.16015625,0.0
203.32421875,-47.36328125,-58.10546875,-57.12890625,-21.97265625,-73.73046875,0.0
203.328125,-48.828125,-71.2890625,-75.68359375,-20.5078125,-137.20703125,0.0
203.33203125,-54.6875,-85.9375,-61.03515625,-15.625,-88.8671875,0.0
203.3359375,-52.734375,-108.88671875,-43.9453125,-20.99609375,-80.56640625,0.0
203.33984375,-45.41015625,-103.02734375,-50.78125,-5.859375,-7.32421875,0.0
203.34375,-29.296875,-92.28515625,-74.70703125,16.6015625,27.34375,0.0
203.34765625,-11.23046875,-95.703125,-74.70703125,17.08984375,-82.51953125,0.0
203.3515625,-6.34765625,-85.9375,-57.6171875,30.2734375,-69.3359375,0.0
203.35546875,5.859375,-65.91796875,-42.48046875,51.7578125,-42.48046875,0.0
203.359375,25.390625,-54.6875,-16.11328125,66.89453125,-25.87890625,0.0
203.36328125,14.6484375,-72.75390625,-28.80859375,50.78125,-54.19921875,0.0
203.3671875,6.8359375,-90.8203125,-68.359375,40.0390625,-116.69921875,0.0
203.37109375,19.04296875,-107.91015625,-81.54296875,68.84765625,-180.17578125,0.0
203.375,5.859375,-127.9296875,-74.21875,67.87109375,-220.703125,0.0
203.37890625,0.48828125,-97.65625,-48.33984375,53.22265625,-49.8046875,0.0
203.3828125,2.9296875,-64.453125,-47.36328125,45.8984375,109.375,0.0
203.38671875,3.41796875,-75.68359375,-71.2890625,33.203125,55.6640625,0.0
203.390625,1.953125,-88.37890625,-76.66015625,30.76171875,-125.48828125,0.0
203.39453125,7.32421875,-82.03125,-55.17578125,36.62109375,-148.92578125,0.0
203.3984375,5.859375,-73.73046875,-52.24609375,27.34375,-39.55078125,0.0
203.40234375,4.39453125,-80.56640625,-66.40625,26.3671875,0.9765625,0.0
203.40625,6.8359375,-93.26171875,-50.78125,42.48046875,-10.7421875,0.0
203.41015625,3.90625,-88.37890625,-56.640625,43.45703125,-79.1015625,0.0
203.4140625,12.6953125,-65.4296875,-82.03125,46.38671875,-80.078125,0.0
203.41796875,2.9296875,-65.4296875,-58.59375,44.921875,44.921875,0.0
203.421875,-19.04296875,-91.796875,-31.25,34.1796875,86.9140625,0.0
203.42578125,-14.6484375,-95.21484375,-27.34375,35.15625,-0.48828125,0.0
203.4296875,6.34765625,-70.3125,-30.2734375,46.875,-109.375,0.0
203.43359375,18.06640625,-68.84765625,-30.2734375,58.10546875,-108.88671875,0.0
203.4375,10.25390625,-90.33203125,-27.83203125,65.4296875,27.34375,0.0
203.44140625,10.25390625,-99.12109375,-39.55078125,67.3828125,-8.7890625,0.0
203.4453125,20.99609375,-84.9609375,-32.71484375,63.4765625,-4.8828125,0.0
203.44921875,20.5078125,-58.59375,-23.4375,60.05859375,-26.85546875,0.0
203.453125,6.8359375,-51.7578125,-42.48046875,45.41015625,-12.20703125,0.0
203.45703125,7.32421875,-46.38671875,-58.10546875,32.2265625,24.4140625,0.0
203.4609375,10.7421875,-45.8984375,-75.68359375,26.3671875,-16.11328125,0.0
203.46484375,-4.39453125,-63.96484375,-54.6875,15.625,19.53125,0.0
203.46875,-8.7890625,-80.56640625,-19.04296875,19.53125,33.69140625,0.0
203.47265625,-2.9296875,-81.54296875,-18.5546875,22.4609375,-16.6015625,0.0
203.4765625,-9.27734375,-76.66015625,-20.99609375,11.23046875,-34.66796875,0.0
203.48046875,-6.34765625,-77.63671875,-39.55078125,3.90625,-62.01171875,0.0
203.484375,15.625,-57.12890625,-50.29296875,16.6015625,-71.77734375,0.0
203.48828125,7.8125,-54.19921875,-33.203125,8.30078125,-65.4296875,0.0
203.4921875,-7.32421875,-66.40625,-45.41015625,-8.30078125,-57.12890625,0.0
203.49609375,-7.32421875,-74.70703125,-59.08203125,-13.671875,-55.17578125,0.0
203.5,-8.7890625,-99.12109375,-49.8046875,-6.8359375,-29.78515625,0.0
203.50390625,-13.18359375,-100.5859375,-49.8046875,3.41796875,6.34765625,0.0
203.5078125,-5.859375,-62.01171875,-59.08203125,-1.46484375,-119.140625,0.0
203.51171875,-0.48828125,-48.828125,-51.7578125,-15.13671875,-180.6640625,0.0
203.515625,-0.9765625,-82.03125,-18.06640625,-9.765625,-115.234375,0.0
203.51953125,-14.6484375,-89.84375,-7.32421875,-10.25390625,-32.71484375,0.0
203.5234375,-33.203125,-80.56640625,-45.8984375,-40.0390625,23.4375,0.0
203.52734375,-23.4375,-81.54296875,-68.84765625,-33.203125,-23.4375,0.0
203.53125,-23.4375,-82.03125,-41.9921875,-25.390625,-39.0625,0.0
203.53515625,-15.625,-82.03125,-21.97265625,-17.578125,-31.73828125,0.0
203.5390625,-7.8125,-66.89453125,-25.390625,-10.25390625,-15.13671875,0.0
203.54296875,-31.73828125,-68.359375,-42.96875,-17.578125,32.71484375,0.0
203.546875,-30.76171875,-88.37890625,-40.0390625,-3.90625,75.1953125,0.0
203.55078125,-38.0859375,-104.00390625,-58.10546875,1.46484375,-16.11328125,0.0
203.5546875,-65.4296875,-93.26171875,-64.453125,-14.6484375,16.11328125,0.0
203.55859375,-62.98828125,-80.56640625,-31.25,-18.5546875,107.91015625,0.0
203.5625,-52.734375,-77.1484375,-29.78515625,-17.08984375,0.48828125,0.0
203.56640625,-38.0859375,-66.89453125,-21.484375,-12.20703125,-109.86328125,0.0
203.5703125,-29.78515625,-68.359375,-25.390625,-16.11328125,-93.26171875,0.0
203.57421875,-46.38671875,-98.6328125,-37.59765625,-18.06640625,-26.3671875,0.0
203.578125,-42.96875,-112.79296875,-30.76171875,-7.32421875,27.83203125,0.0
203.58203125,-27.83203125,-78.61328125,-32.71484375,-2.9296875,61.5234375,0.0
203.5859375,-17.578125,-77.1484375,-34.1796875,9.765625,18.06640625,0.0
203.58984375,-22.4609375,-93.75,-38.57421875,19.04296875,-106.93359375,0.0
203.59375,-41.015625,-77.1484375,-43.9453125,12.6953125,-124.0234375,0.0
203.59765625,-40.0390625,-59.5703125,-22.4609375,8.7890625,8.7890625,0.0
203.6015625,-34.66796875,-60.546875,-13.671875,0.48828125,108.3984375,0.0
203.60546875,-17.578125,-64.453125,-30.2734375,8.30078125,8.30078125,0.0
203.609375,-21.97265625,-73.73046875,-33.203125,2.9296875,-166.50390625,0.0
203.61328125,-47.8515625,-84.9609375,-40.0390625,-17.08984375,-208.0078125,0.0
203.6171875,-43.9453125,-71.77734375,-37.59765625,-18.06640625,-100.09765625,0.0
203.62109375,-28.3203125,-72.75390625,-29.78515625,-6.34765625,-73.2421875,0.0
203.625,-30.76171875,-78.61328125,-44.921875,4.39453125,-96.19140625,0.0
203.62890625,-36.1328125,-63.96484375,-32.2265625,12.6953125,-175.78125,0.0
203.6328125,-36.62109375,-67.87109375,-28.80859375,22.4609375,-249.51171875,0.0
203.63671875,-33.203125,-83.0078125,-36.1328125,31.73828125,-106.93359375,0.0
203.640625,-13.671875,-62.98828125,-15.13671875,47.36328125,37.59765625,0.0
203.64453125,-29.296875,-40.0390625,-20.5078125,19.04296875,52.24609375,0.0
203.6484375,-38.57421875,-62.5,-43.45703125,-18.06640625,-22.4609375,0.0
203.65234375,-25.390625,-74.21875,-50.78125,-10.7421875,-96.19140625,0.0
203.65625,-34.66796875,-51.7578125,-57.12890625,-11.71875,-43.45703125,0.0
203.66015625,-35.15625,-56.640625,-59.5703125,-14.16015625,13.18359375,0.0
203.6640625,-24.4140625,-68.84765625,-60.546875,-11.23046875,-62.01171875,0.0
203.66796875,-11.23046875,-60.546875,-56.15234375,-13.18359375,-133.30078125,0.0
203.671875,-3.90625,-51.7578125,-44.43359375,3.90625,-161.62109375,0.0
203.67578125,-18.5546875,-69.82421875,-29.78515625,2.9296875,-105.95703125,0.0
203.6796875,-33.69140625,-88.8671875,-32.71484375,-23.4375,-84.47265625,0.0
203.68359375,-37.59765625,-77.63671875,-48.33984375,-21.484375,-95.703125,0.0
203.6875,-53.22265625,-60.05859375,-53.7109375,-31.73828125,-72.75390625,0.0
203.69140625,-36.1328125,-61.03515625,-41.9921875,-44.43359375,-55.17578125,0.0
203.6953125,-20.01953125,-55.6640625,-39.0625,-42.96875,-14.16015625,0.0
203.69921875,-20.01953125,-46.875,-42.96875,-36.1328125,-18.06640625,0.0
203.703125,-14.6484375,-49.8046875,-34.1796875,-26.3671875,-28.3203125,0.0
203.70703125,-32.71484375,-68.359375,-31.73828125,-38.57421875,-61.5234375,0.0
203.7109375,-43.45703125,-73.2421875,-51.7578125,-43.9453125,-137.6953125,0.0
203.71484375,-37.59765625,-92.7734375,-61.03515625,-39.55078125,-82.51953125,0.0
203.71875,-29.296875,-85.9375,-45.41015625,-34.1796875,55.6640625,0.0
203.72265625,-33.203125,-62.01171875,-40.52734375,-41.50390625,66.40625,0.0
203.7265625,-28.3203125,-68.359375,-12.6953125,-44.921875,39.0625,0.0
203.73046875,-13.671875,-49.8046875,-13.18359375,-36.1328125,-40.52734375,0.0
203.734375,-40.0390625,-35.15625,-48.828125,-61.5234375,-83.984375,0.0
203.73828125,-64.453125,-54.19921875,-42.96875,-77.1484375,29.78515625,0.0
203.7421875,-52.734375,-57.6171875,-31.73828125,-62.98828125,47.8515625,0.0
203.74609375,-25.390625,-59.08203125,-23.4375,-47.36328125,-76.171875,0.0
203.75,-6.8359375,-84.47265625,-31.73828125,-31.73828125,-78.61328125,0.0
203.75390625,-13.671875,-87.890625,-55.17578125,-32.2265625,-41.9921875,0.0
203.7578125,-18.06640625,-56.640625,-30.76171875,-20.01953125,27.34375,0.0
203.76171875,-9.27734375,-42.96875,0.48828125,-1.46484375,87.40234375,0.0
203.765625,-15.625,-55.17578125,-23.4375,-15.625,-23.4375,0.0
203.76953125,-20.99609375,-55.6640625,-46.875,-28.80859375,-102.5390625,0.0
203.7734375,-15.13671875,-67.87109375,-38.57421875,-31.25,-79.58984375,0.0
203.77734375,-3.41796875,-52.734375,-8.7890625,-15.13671875,4.8828125,0.0
203.78125,-13.18359375,-49.31640625,-4.39453125,-14.6484375,27.83203125,0.0
203.78515625,-34.1796875,-86.42578125,-35.15625,-47.36328125,-21.484375,0.0
203.7890625,-33.69140625,-109.375,-41.015625,-36.1328125,-116.2109375,0.0
203.79296875,-36.62109375,-108.3984375,-53.7109375,-15.625,-145.5078125,0.0
203.796875,-39.0625,-78.125,-48.828125,-6.34765625,-46.38671875,0.0
203.80078125,-47.36328125,-68.359375,-31.73828125,-4.8828125,-3.90625,0.0
203.8046875,-48.33984375,-51.7578125,-50.78125,-21.97265625,34.1796875,0.0
203.80859375,-35.15625,-34.66796875,-38.57421875,-15.13671875,-91.796875,0.0
203.8125,-46.875,-44.43359375,-14.16015625,-12.6953125,-195.80078125,0.0
203.81640625,-57.6171875,-57.12890625,-25.87890625,-17.578125,-64.94140625,0.0
203.8203125,-47.36328125,-76.171875,-26.3671875,-5.37109375,25.87890625,0.0
203.82421875,-33.69140625,-100.09765625,-15.13671875,-2.44140625,-4.39453125,0.0
203.828125,-30.76171875,-83.0078125,-35.15625,-21.97265625,-87.40234375,0.0
203.83203125,-34.66796875,-63.4765625,-54.19921875,-36.62109375,-113.28125,0.0
203.8359375,-46.875,-49.8046875,-53.7109375,-46.38671875,-78.125,0.0
203.83984375,-43.45703125,-60.05859375,-42.48046875,-35.64453125,50.29296875,0.0
203.84375,-46.875,-82.51953125,-27.83203125,-32.71484375,86.42578125,0.0
203.84765625,-50.78125,-103.515625,-34.1796875,-29.78515625,-66.89453125,0.0
203.8515625,-44.43359375,-110.3515625,-41.9921875,-22.4609375,-154.296875,0.0
203.85546875,-44.43359375,-82.51953125,-41.50390625,-27.34375,-120.60546875,0.0
203.859375,-38.0859375,-60.546875,-54.19921875,-15.625,4.8828125,0.0
203.86328125,-41.9921875,-58.59375,-59.08203125,-12.20703125,83.984375,0.0
203.8671875,-42.48046875,-63.96484375,-51.7578125,-11.71875,62.01171875,0.0
203.87109375,-45.41015625,-65.4296875,-51.7578125,-24.4140625,-47.8515625,0.0
203.875,-61.5234375,-83.984375,-57.6171875,-37.59765625,-62.01171875,0.0
203.87890625,-43.9453125,-79.1015625,-47.8515625,-20.01953125,48.828125,0.0
203.8828125,-20.99609375,-59.5703125,-38.57421875,-12.6953125,16.11328125,0.0
203.88671875,-21.484375,-83.49609375,-37.109375,-18.06640625,-61.03515625,0.0
203.890625,-13.18359375,-94.23828125,-18.06640625,-5.37109375,-73.73046875,0.0
203.89453125,-15.625,-82.03125,-13.671875,3.41796875,-100.09765625,0.0
203.8984375,-30.76171875,-70.3125,-36.62109375,-5.37109375,-101.07421875,0.0
203.90234375,-41.015625,-69.82421875,-49.31640625,-13.18359375,-22.94921875,0.0
203.90625,-26.3671875,-68.84765625,-53.22265625,-3.41796875,-35.15625,0.0
203.91015625,-21.484375,-68.359375,-54.6875,-0.48828125,-132.8125,0.0
203.9140625,-25.87890625,-73.73046875,-33.69140625,0.48828125,-98.14453125,0.0
203.91796875,-16.6015625,-69.82421875,-18.06640625,9.765625,74.21875,0.0
203.921875,-26.3671875,-66.40625,-47.36328125,-4.8828125,86.9140625,0.0
203.92578125,-35.15625,-62.98828125,-55.6640625,-21.97265625,55.17578125,0.0
203.9296875,-24.90234375,-38.57421875,-12.20703125,-20.5078125,0.48828125,0.0
203.93359375,-34.66796875,-43.9453125,-20.5078125,-24.90234375,-130.37109375,0.0
203.9375,-43.9453125,-78.61328125,-35.64453125,-36.1328125,-54.6875,0.0
203.94140625,-43.45703125,-82.51953125,-36.62109375,-38.57421875,62.5,0.0
203.9453125,-20.5078125,-90.8203125,-38.57421875,-28.3203125,-33.69140625,0.0
203.94921875,-11.23046875,-88.37890625,-39.55078125,-18.5546875,-94.23828125,0.0
203.953125,-30.76171875,-75.68359375,-50.78125,-8.7890625,-86.9140625,0.0
203.95703125,-35.15625,-69.82421875,-33.69140625,-16.11328125,-72.75390625,0.0
203.9609375,-40.52734375,-53.7109375,-44.921875,-32.71484375,32.2265625,0.0
203.96484375,-38.57421875,-56.15234375,-46.38671875,-18.06640625,24.4140625,0.0
203.96875,-41.50390625,-49.31640625,-21.484375,-10.25390625,-140.13671875,0.0
203.97265625,-48.828125,-61.5234375,-21.97265625,-22.94921875,-197.75390625,0.0
203.9765625,-47.36328125,-94.7265625,-30.2734375,-36.1328125,-104.98046875,0.0
203.98046875,-47.36328125,-98.6328125,-27.34375,-54.6875,40.0390625,0.0
203.984375,-38.57421875,-107.421875,-33.203125,-51.26953125,45.41015625,0.0
203.98828125,-15.625,-105.95703125,-30.76171875,-25.87890625,-86.9140625,0.0
203.9921875,-9.765625,-68.359375,-24.90234375,-22.94921875,-109.375,0.0
203.99609375,-32.2265625,-63.96484375,-55.17578125,-34.66796875,-41.9921875,0.0
204.0,-53.7109375,-69.82421875,-76.66015625,-44.921875,-19.04296875,0.0
204.00390625,-57.6171875,-74.70703125,-54.6875,-58.59375,-6.34765625,0.0
204.0078125,-41.50390625,-72.75390625,-36.1328125,-54.19921875,11.71875,0.0
204.01171875,-28.3203125,-78.61328125,-25.87890625,-37.109375,13.671875,0.0
204.015625,-33.203125,-96.6796875,-18.5546875,-35.15625,-35.15625,0.0
204.01953125,-38.57421875,-78.61328125,-48.33984375,-34.1796875,20.01953125,0.0
204.0234375,-22.94921875,-59.5703125,-39.55078125,-29.78515625,-22.4609375,0.0
204.02734375,-13.671875,-54.6875,-12.6953125,-45.41015625,-152.34375,0.0
204.03125,-24.90234375,-58.59375,-20.5078125,-52.24609375,-161.1328125,0.0
204.03515625,-21.97265625,-78.61328125,-28.3203125,-42.96875,-114.74609375,0.0
204.0390625,-24.90234375,-89.84375,-36.1328125,-41.50390625,7.8125,0.0
204.04296875,-12.6953125,-85.44921875,-49.31640625,-33.69140625,118.65234375,0.0
204.046875,-1.953125,-55.6640625,-48.33984375,-29.296875,79.58984375,0.0
204.05078125,-25.87890625,-37.109375,-30.76171875,-43.45703125,27.83203125,0.0
204.0546875,-37.109375,-65.4296875,-21.97265625,-30.76171875,4.8828125,0.0
204.05859375,-26.85546875,-90.8203125,-26.3671875,-17.08984375,34.1796875,0.0
204.0625,-12.6953125,-80.56640625,-21.484375,-23.92578125,89.35546875,0.0
204.06640625,-6.8359375,-71.2890625,0.9765625,-10.25390625,83.49609375,0.0
204.0703125,-40.52734375,-90.33203125,-22.4609375,-34.66796875,-3.90625,0.0
204.07421875,-62.5,-81.54296875,-54.6875,-60.546875,-155.2734375,0.0
204.078125,-44.921875,-47.36328125,-51.7578125,-43.45703125,-92.28515625,0.0
204.08203125,-41.50390625,-44.921875,-42.48046875,-41.015625,-8.7890625,0.0
204.0859375,-51.7578125,-68.359375,-50.78125,-52.24609375,-49.31640625,0.0
204.08984375,-53.22265625,-82.03125,-54.6875,-55.17578125,-109.86328125,0.0
204.09375,-41.50390625,-68.359375,-33.203125,-37.59765625,-202.63671875,0.0
204.09765625,-36.1328125,-62.01171875,-15.625,-29.78515625,-158.203125,0.0
204.1015625,-45.8984375,-68.359375,-40.52734375,-49.31640625,-77.1484375,0.0
204.10546875,-40.52734375,-97.16796875,-60.546875,-45.8984375,-43.45703125,0.0
204.109375,-26.85546875,-97.65625,-31.25,-38.0859375,-68.359375,0.0
204.11328125,-28.80859375,-53.7109375,-30.76171875,-47.8515625,-162.59765625,0.0
204.1171875,-26.85546875,-44.921875,-41.9921875,-49.31640625,-184.08203125,0.0
204.12109375,-21.97265625,-50.29296875,-42.48046875,-47.36328125,-37.109375,0.0
204.125,-32.71484375,-52.24609375,-32.71484375,-45.8984375,56.15234375,0.0
204.12890625,-20.99609375,-53.22265625,-10.7421875,-24.90234375,-83.49609375,0.0
204.1328125,-14.6484375,-71.2890625,-54.19921875,-18.06640625,-161.1328125,0.0
204.13671875,-48.828125,-84.47265625,-66.89453125,-46.38671875,-6.8359375,0.0
204.140625,-66.89453125,-74.21875,-27.34375,-60.546875,78.125,0.0
204.14453125,-54.6875,-56.640625,-29.78515625,-52.24609375,-41.50390625,0.0
204.1484375,-33.203125,-50.78125,-43.9453125,-26.85546875,-64.453125,0.0
204.15234375,-20.5078125,-78.125,-45.41015625,-6.34765625,-68.84765625,0.0
204.15625,-40.52734375,-89.35546875,-33.203125,-3.41796875,-108.88671875,0.0
204.16015625,-59.5703125,-77.1484375,-27.34375,17.08984375,-74.70703125,0.0
204.1640625,-52.24609375,-63.96484375,-38.0859375,37.109375,-45.41015625,0.0
204.16796875,-43.9453125,-65.91796875,-40.52734375,38.0859375,11.71875,0.0
204.171875,-42.48046875,-79.1015625,-33.69140625,44.43359375,-88.37890625,0.0
204.17578125,-41.9921875,-82.03125,-38.57421875,44.43359375,-81.54296875,0.0
204.1796875,-42.96875,-75.1953125,-35.64453125,46.38671875,28.3203125,0.0
204.18359375,-45.41015625,-41.50390625,-22.94921875,56.15234375,-4.39453125,0.0
204.1875,-53.22265625,-49.31640625,-37.59765625,40.52734375,-104.98046875,0.0
204.19140625,-52.24609375,-89.84375,-31.73828125,23.92578125,-162.59765625,0.0
204.1953125,-50.29296875,-102.05078125,-17.578125,32.2265625,-83.49609375,0.0
204.19921875,-46.38671875,-86.9140625,-18.5546875,44.43359375,-48.33984375,0.0
204.203125,-37.109375,-55.17578125,-21.484375,54.6875,-58.59375,0.0
204.20703125,-47.36328125,-36.1328125,-27.34375,56.640625,-74.21875,0.0
204.2109375,-42.48046875,-44.921875,-17.578125,54.19921875,-150.87890625,0.0
204.21484375,-33.69140625,-60.05859375,-16.11328125,47.36328125,-51.7578125,0.0
204.21875,-36.62109375,-76.66015625,-32.2265625,54.6875,93.26171875,0.0
204.22265625,-29.78515625,-91.30859375,-32.71484375,63.96484375,131.34765625,0.0
204.2265625,-14.16015625,-77.63671875,-22.94921875,51.26953125,88.8671875,0.0
204.23046875,-11.71875,-49.8046875,-25.390625,27.83203125,-24.4140625,0.0
204.234375,-30.76171875,-60.05859375,-24.4140625,4.8828125,-10.7421875,0.0
204.23828125,-38.0859375,-77.1484375,-20.5078125,-2.44140625,-38.0859375,0.0
204.2421875,-29.78515625,-62.01171875,-32.2265625,1.46484375,-12.20703125,0.0
204.24609375,-26.85546875,-53.22265625,-36.62109375,13.18359375,29.296875,0.0
204.25,-24.4140625,-61.5234375,-32.71484375,14.6484375,-104.98046875,0.0
204.25390625,-25.390625,-63.4765625,-43.9453125,-5.37109375,-124.0234375,0.0
204.2578125,-16.11328125,-70.3125,-47.8515625,-20.01953125,-30.2734375,0.0
204.26171875,-2.9296875,-74.70703125,-39.55078125,-26.3671875,67.3828125,0.0
204.265625,0.0,-58.10546875,-33.203125,-40.0390625,55.17578125,0.0
204.26953125,-3.90625,-50.29296875,-40.52734375,-57.6171875,-22.94921875,0.0
204.2734375,-2.44140625,-57.6171875,-51.26953125,-61.5234375,-37.109375,0.0
204.27734375,-23.4375,-64.94140625,-39.0625,-66.89453125,41.015625,0.0
204.28125,-35.15625,-52.24609375,-17.08984375,-66.40625,50.78125,0.0
204.28515625,-27.34375,-39.0625,-26.3671875,-61.03515625,-36.62109375,0.0
204.2890625,-25.87890625,-73.73046875,-40.52734375,-67.87109375,-24.90234375,0.0
204.29296875,-19.04296875,-108.3984375,-44.43359375,-63.4765625,-41.9921875,0.0
204.296875,-15.625,-88.37890625,-38.57421875,-41.9921875,-21.484375,0.0
204.30078125,-30.2734375,-57.12890625,-34.66796875,-55.6640625,76.171875,0.0
204.3046875,-33.69140625,-35.64453125,-35.64453125,-68.359375,41.015625,0.0
204.30859375,-25.87890625,-39.55078125,-27.83203125,-48.33984375,-64.453125,0.0
204.3125,-28.80859375,-52.24609375,-40.0390625,-41.50390625,-44.921875,0.0
204.31640625,-42.48046875,-68.84765625,-64.94140625,-55.6640625,-19.53125,0.0
204.3203125,-38.57421875,-63.4765625,-45.41015625,-51.7578125,-16.11328125,0.0
204.32421875,-26.3671875,-64.94140625,-16.11328125,-39.0625,15.625,0.0
204.328125,-18.06640625,-89.84375,-28.80859375,-32.71484375,41.50390625,0.0
204.33203125,-29.78515625,-61.5234375,-42.48046875,-37.59765625,-36.1328125,0.0
204.3359375,-41.9921875,-38.0859375,-22.94921875,-41.9921875,-172.8515625,0.0
204.33984375,-38.57421875,-57.6171875,-20.99609375,-37.59765625,-75.68359375,0.0
204.34375,-33.203125,-78.125,-43.45703125,-37.109375,11.23046875,0.0
204.34765625,-27.83203125,-77.1484375,-49.8046875,-29.78515625,-73.73046875,0.0
204.3515625,-41.015625,-53.7109375,-32.71484375,-36.1328125,-105.46875,0.0
204.35546875,-37.59765625,-53.22265625,-30.2734375,-31.25,-132.32421875,0.0
204.359375,-29.296875,-58.10546875,-46.38671875,-26.85546875,-124.0234375,0.0
204.36328125,-30.2734375,-68.359375,-32.71484375,-45.8984375,25.390625,0.0
204.3671875,-32.2265625,-77.1484375,-43.45703125,-64.94140625,-23.92578125,0.0
204.37109375,-33.203125,-71.2890625,-46.38671875,-74.70703125,-248.046875,0.0
204.375,-38.0859375,-70.80078125,-31.25,-80.078125,-280.76171875,0.0
204.37890625,-46.38671875,-62.01171875,-33.203125,-86.9140625,-160.15625,0.0
204.3828125,-57.6171875,-65.91796875,-34.1796875,-86.9140625,-83.984375,0.0
204.38671875,-62.98828125,-70.80078125,-34.66796875,-70.3125,-16.11328125,0.0
204.390625,-40.0390625,-64.453125,-35.15625,-45.8984375,-65.91796875,0.0
204.39453125,-31.25,-62.98828125,-34.66796875,-39.55078125,-57.12890625,0.0
204.3984375,-61.5234375,-57.6171875,-32.71484375,-56.15234375,40.0390625,0.0
204.40234375,-76.171875,-71.77734375,-48.33984375,-61.5234375,43.9453125,0.0
204.40625,-74.70703125,-72.265625,-79.58984375,-63.4765625,1.953125,0.0
204.41015625,-53.7109375,-62.98828125,-50.78125,-42.48046875,-22.4609375,0.0
204.4140625,-37.59765625,-72.265625,-9.27734375,-21.484375,-30.2734375,0.0
204.41796875,-49.31640625,-66.89453125,-34.1796875,-26.3671875,4.8828125,0.0
204.421875,-50.78125,-69.82421875,-38.57421875,-27.83203125,75.1953125,0.0
204.42578125,-44.43359375,-86.42578125,-33.203125,-20.99609375,40.52734375,0.0
204.4296875,-42.96875,-78.125,-40.52734375,-20.5078125,-54.6875,0.0
204.43359375,-49.8046875,-63.4765625,-34.66796875,-28.80859375,-60.05859375,0.0
204.4375,-41.015625,-70.80078125,-15.625,-13.671875,-29.78515625,0.0
204.44140625,-20.01953125,-61.5234375,-2.44140625,-15.13671875,62.5,0.0
204.4453125,-20.99609375,-49.8046875,-42.48046875,-25.390625,92.7734375,0.0
204.44921875,-39.0625,-53.7109375,-62.98828125,-9.27734375,25.390625,0.0
204.453125,-50.29296875,-56.15234375,-36.1328125,-3.41796875,-82.51953125,0.0
204.45703125,-53.22265625,-75.1953125,-27.83203125,-14.6484375,-193.359375,0.0
204.4609375,-53.22265625,-68.359375,-37.109375,-34.1796875,-64.453125,0.0
204.46484375,-47.8515625,-56.15234375,-30.2734375,-41.50390625,1.953125,0.0
204.46875,-41.015625,-65.4296875,-12.20703125,-33.203125,-154.78515625,0.0
204.47265625,-38.57421875,-41.50390625,-23.4375,-32.71484375,-252.9296875,0.0
204.4765625,-44.921875,-20.99609375,-34.66796875,-37.109375,-223.6328125,0.0
204.48046875,-55.17578125,-46.875,-20.5078125,-38.0859375,-98.14453125,0.0
204.484375,-39.55078125,-75.68359375,-20.5078125,-30.76171875,-62.5,0.0
204.48828125,-35.15625,-82.03125,-34.66796875,-33.203125,-80.56640625,0.0
204.4921875,-54.19921875,-68.359375,-50.29296875,-39.0625,-139.16015625,0.0
204.49609375,-64.94140625,-57.12890625,-67.87109375,-33.203125,-119.140625,0.0
204.5,-72.75390625,-74.70703125,-54.19921875,-26.85546875,-79.58984375,0.0
204.50390625,-55.17578125,-83.49609375,-20.01953125,-4.39453125,-84.9609375,0.0
204.5078125,-35.15625,-73.2421875,-10.7421875,17.08984375,-166.9921875,0.0
204.51171875,-38.57421875,-40.52734375,-28.3203125,14.16015625,-244.62890625,0.0
204.515625,-35.64453125,-48.828125,-36.1328125,-7.8125,-132.32421875,0.0
204.51953125,-48.33984375,-89.35546875,-39.55078125,-44.43359375,-81.54296875,0.0
204.5234375,-63.96484375,-75.68359375,-33.203125,-41.9921875,-97.16796875,0.0
204.52734375,-48.828125,-58.10546875,-41.50390625,-6.34765625,-134.27734375,0.0
204.53125,-34.66796875,-56.15234375,-48.33984375,12.20703125,-139.16015625,0.0
204.53515625,-42.96875,-64.94140625,-31.25,-1.953125,-2.44140625,0.0
204.5390625,-46.875,-77.63671875,-43.45703125,-18.06640625,82.03125,0.0
204.54296875,-38.57421875,-77.1484375,-63.4765625,-11.71875,108.3984375,0.0
204.546875,-27.83203125,-73.2421875,-53.22265625,5.37109375,55.6640625,0.0
204.55078125,-27.34375,-86.42578125,-31.25,-1.46484375,-59.5703125,0.0
204.5546875,-43.9453125,-71.2890625,-19.53125,-15.625,-34.66796875,0.0
204.55859375,-57.6171875,-34.66796875,-20.99609375,-23.92578125,41.015625,0.0
204.5625,-63.4765625,-40.52734375,-38.57421875,-34.66796875,93.75,0.0
204.56640625,-46.875,-56.15234375,-42.48046875,-21.97265625,114.74609375,0.0
204.5703125,-36.62109375,-44.921875,-41.50390625,-19.04296875,33.69140625,0.0
204.57421875,-31.73828125,-50.78125,-38.0859375,-16.6015625,-201.66015625,0.0
204.578125,-12.20703125,-72.265625,-30.2734375,10.25390625,-222.16796875,0.0
204.58203125,-16.11328125,-79.58984375,-24.90234375,11.71875,82.51953125,0.0
204.5859375,-25.87890625,-60.546875,-34.1796875,2.44140625,114.2578125,0.0
204.58984375,-19.53125,-62.5,-50.78125,4.8828125,-23.92578125,0.0
204.59375,-24.4140625,-64.453125,-37.109375,-4.8828125,-57.12890625,0.0
204.59765625,-29.296875,-41.015625,-35.64453125,-8.7890625,-40.0390625,0.0
204.6015625,-32.2265625,-24.4140625,-37.59765625,-1.953125,38.0859375,0.0
204.60546875,-30.2734375,-37.59765625,-36.1328125,-1.46484375,77.63671875,0.0
204.609375,-28.80859375,-55.17578125,-48.33984375,-5.859375,-31.73828125,0.0
204.61328125,-35.64453125,-110.83984375,-33.203125,5.859375,-51.7578125,0.0
204.6171875,-47.8515625,-102.05078125,-38.0859375,14.6484375,-12.20703125,0.0
204.62109375,-41.015625,-33.69140625,-39.55078125,10.7421875,40.52734375,0.0
204.625,-30.76171875,-31.73828125,-22.4609375,0.48828125,86.9140625,0.0
204.62890625,-26.3671875,-54.6875,-49.31640625,-8.30078125,-19.04296875,0.0
204.6328125,-29.78515625,-63.4765625,-56.640625,-23.4375,-138.671875,0.0
204.63671875,-45.41015625,-56.640625,-30.2734375,-28.3203125,-106.93359375,0.0
204.640625,-53.7109375,-59.08203125,-18.06640625,-24.90234375,-49.31640625,0.0
204.64453125,-41.9921875,-62.5,-31.25,-28.80859375,-84.47265625,0.0
204.6484375,-39.0625,-60.05859375,-43.9453125,-29.296875,-147.4609375,0.0
204.65234375,-32.71484375,-68.84765625,-43.45703125,-16.11328125,-145.5078125,0.0
204.65625,-11.23046875,-59.5703125,-28.3203125,0.0,-103.02734375,0.0
204.66015625,-12.6953125,-67.3828125,0.48828125,-4.8828125,-21.97265625,0.0
204.6640625,-41.9921875,-64.94140625,-16.6015625,-40.0390625,8.30078125,0.0
204.66796875,-58.10546875,-64.453125,-47.8515625,-50.78125,-79.1015625,0.0
204.671875,-38.0859375,-94.23828125,-73.73046875,-26.85546875,-134.765625,0.0
204.67578125,-17.08984375,-57.12890625,-59.5703125,-14.6484375,-87.890625,0.0
204.6796875,-32.71484375,-5.859375,-19.04296875,-16.6015625,28.3203125,0.0
204.68359375,-62.5,-30.2734375,-22.94921875,-20.99609375,71.2890625,0.0
204.6875,-38.57421875,-67.3828125,-31.25,-6.8359375,75.1953125,0.0
204.69140625,-21.97265625,-93.75,-36.62109375,-2.9296875,-4.8828125,0.0
204.6953125,-29.296875,-86.9140625,-49.31640625,-13.671875,-107.91015625,0.0
204.69921875,5.859375,-41.9921875,-28.80859375,0.48828125,-71.2890625,0.0
204.703125,22.94921875,-68.84765625,6.34765625,7.32421875,59.08203125,0.0
204.70703125,-14.16015625,-60.05859375,-0.9765625,0.48828125,94.23828125,0.0
204.7109375,-50.29296875,2.44140625,-37.59765625,-9.765625,-60.05859375,0.0
204.71484375,-42.96875,-29.78515625,-35.64453125,-10.25390625,-108.3984375,0.0
204.71875,-36.1328125,-81.54296875,-20.99609375,-11.23046875,15.13671875,0.0
204.72265625,-54.19921875,-71.2890625,-40.52734375,-23.92578125,85.9375,0.0
204.7265625,-42.48046875,-52.24609375,-35.64453125,-11.71875,-5.37109375,0.0
204.73046875,-25.87890625,-65.91796875,-48.33984375,-7.32421875,-168.9453125,0.0
204.734375,-17.08984375,-60.546875,-81.0546875,-8.7890625,-87.40234375,0.0
204.73828125,-14.6484375,-60.05859375,-52.24609375,-0.48828125,109.86328125,0.0
204.7421875,-36.62109375,-85.44921875,-15.625,-13.671875,60.546875,0.0
204.74609375,-21.484375,-87.890625,-27.34375,-23.92578125,-71.2890625,0.0
204.75,8.30078125,-80.078125,-40.52734375,-15.625,-169.921875,0.0
204.75390625,-13.18359375,-49.31640625,-22.94921875,-24.90234375,-185.05859375,0.0
204.7578125,10.25390625,-3.41796875,-12.6953125,-5.859375,-83.984375,0.0
204.76171875,37.109375,-11.71875,-28.80859375,14.6484375,5.859375,0.0
204.765625,-1.46484375,-38.57421875,-13.671875,-18.5546875,-13.671875,0.0
204.76953125,-76.171875,-73.73046875,-25.87890625,-78.61328125,-37.59765625,0.0
204.7734375,-101.07421875,-100.09765625,-51.7578125,-99.609375,-166.50390625,0.0
204.77734375,-72.265625,-91.30859375,-42.96875,-58.10546875,-126.953125,0.0
204.78125,-18.5546875,-75.1953125,-32.71484375,-11.71875,30.76171875,0.0
204.78515625,12.6953125,-63.4765625,-25.87890625,4.39453125,16.6015625,0.0
204.7890625,-15.13671875,-54.19921875,-27.34375,0.9765625,-37.59765625,0.0
204.79296875,-13.671875,-30.2734375,-26.3671875,8.7890625,-64.453125,0.0
204.796875,-19.04296875,-23.4375,-4.8828125,24.90234375,-13.671875,0.0
204.80078125,-45.41015625,-32.71484375,-5.859375,19.53125,31.25,0.0
204.8046875,-26.3671875,-33.69140625,-5.859375,28.3203125,-16.11328125,0.0
204.80859375,-9.27734375,-49.8046875,-6.8359375,45.8984375,-35.15625,0.0
204.8125,-32.2265625,-76.66015625,-25.87890625,39.55078125,-47.36328125,0.0
204.81640625,-41.9921875,-77.1484375,-22.94921875,11.23046875,-118.65234375,0.0
204.8203125,-26.3671875,-23.4375,-12.20703125,2.9296875,-78.125,0.0
204.82421875,-19.04296875,-28.3203125,-2.9296875,7.32421875,-34.66796875,0.0
204.828125,-2.9296875,-70.80078125,-7.32421875,7.8125,-61.03515625,0.0
204.83203125,-6.8359375,-22.94921875,-11.71875,10.25390625,-44.921875,0.0
204.8359375,-36.1328125,-4.39453125,-16.6015625,-14.16015625,-17.578125,0.0
204.83984375,-48.828125,-40.0390625,-27.34375,-41.015625,52.24609375,0.0
204.84375,-13.18359375,-56.640625,-8.30078125,-21.484375,115.72265625,0.0
204.84765625,13.671875,-74.70703125,-0.9765625,-7.8125,-50.29296875,0.0
204.8515625,-21.484375,-65.91796875,-37.59765625,-44.43359375,-155.2734375,0.0
204.85546875,-19.53125,-62.98828125,-17.08984375,-38.0859375,-102.5390625,0.0
204.859375,-0.48828125,-47.8515625,19.04296875,-13.18359375,19.04296875,0.0
204.86328125,-38.0859375,-20.5078125,-3.41796875,-47.8515625,30.76171875,0.0
204.8671875,-27.34375,1.46484375,-0.9765625,-30.2734375,-82.03125,0.0
204.87109375,-0.48828125,-24.4140625,4.8828125,-10.25390625,-98.6328125,0.0
204.875,-29.296875,-65.91796875,-39.55078125,-59.08203125,-90.33203125,0.0
204.87890625,-26.3671875,-48.33984375,-49.8046875,-62.5,30.2734375,0.0
204.8828125,-20.5078125,-59.5703125,-20.01953125,-28.3203125,61.5234375,0.0
204.88671875,-33.203125,-95.21484375,-9.765625,-43.45703125,16.6015625,0.0
204.890625,-41.015625,-56.15234375,-20.5078125,-64.453125,-49.31640625,0.0
204.89453125,-46.38671875,-12.6953125,-23.4375,-54.19921875,-62.01171875,0.0
204.8984375,-52.24609375,-38.0859375,-30.76171875,-55.6640625,4.39453125,0.0
204.90234375,-29.78515625,-55.17578125,-30.2734375,-24.90234375,65.91796875,0.0
204.90625,18.06640625,-35.15625,-21.484375,19.53125,44.921875,0.0
204.91015625,19.04296875,-17.578125,-10.7421875,18.06640625,-91.30859375,0.0
204.9140625,-18.06640625,-46.38671875,-4.8828125,-17.08984375,-135.25390625,0.0
204.91796875,-43.9453125,-71.77734375,-26.3671875,-41.015625,-62.01171875,0.0
204.921875,-49.8046875,-38.0859375,-39.55078125,-28.80859375,-35.64453125,0.0
204.92578125,-47.36328125,-39.0625,-38.0859375,-18.5546875,-37.109375,0.0
204.9296875,-49.31640625,-43.45703125,-36.62109375,-20.99609375,-54.19921875,0.0
204.93359375,-20.99609375,-4.39453125,-18.06640625,-3.90625,-65.4296875,0.0
204.9375,-0.48828125,0.0,-13.671875,0.9765625,-31.73828125,0.0
204.94140625,-12.20703125,-61.5234375,-42.48046875,-24.90234375,38.0859375,0.0
204.9453125,-30.76171875,-115.234375,-39.55078125,-40.0390625,107.91015625,0.0
204.94921875,-28.3203125,-80.56640625,-25.390625,-49.31640625,30.76171875,0.0
204.953125,-21.484375,-21.97265625,-46.875,-55.6640625,-77.63671875,0.0
204.95703125,-32.71484375,-20.99609375,-44.43359375,-34.66796875,-58.10546875,0.0
204.9609375,-24.90234375,-37.59765625,-22.94921875,-23.4375,-27.83203125,0.0
204.96484375,-27.34375,-58.59375,-24.90234375,-43.45703125,-56.640625,0.0
204.96875,-26.3671875,-60.05859375,-30.76171875,-42.48046875,-109.375,0.0
204.97265625,-17.08984375,-61.03515625,-42.48046875,-25.390625,-74.21875,0.0
204.9765625,1.953125,-63.96484375,-30.76171875,-3.41796875,1.953125,0.0
204.98046875,-0.48828125,-37.109375,-17.08984375,-8.7890625,29.296875,0.0
204.984375,-37.109375,-30.76171875,-29.78515625,-35.64453125,47.8515625,0.0
204.98828125,-41.015625,-35.64453125,-43.45703125,-41.015625,-27.34375,0.0
204.9921875,-42.48046875,-36.62109375,-38.57421875,-52.734375,-96.6796875,0.0
204.99609375,-52.734375,-49.31640625,-25.390625,-47.8515625,-78.61328125,0.0
205.0,-26.3671875,-64.453125,-20.99609375,-8.7890625,-30.2734375,0.0
205.00390625,-13.671875,-62.5,-39.55078125,-15.13671875,23.4375,0.0
205.0078125,-22.94921875,-32.2265625,-27.34375,-41.015625,22.94921875,0.0
205.01171875,-21.484375,-74.70703125,-2.9296875,-33.69140625,-48.33984375,0.0
205.015625,-16.11328125,-99.609375,-20.01953125,-31.25,-148.4375,0.0
205.01953125,-16.6015625,-21.484375,-33.203125,-32.2265625,-104.00390625,0.0
205.0234375,-22.94921875,-2.9296875,-27.34375,-34.66796875,-43.45703125,0.0
205.02734375,-44.921875,-26.85546875,-31.25,-50.29296875,-135.7421875,0.0
205.03125,-33.69140625,-33.203125,-43.9453125,-36.62109375,-139.6484375,0.0
205.03515625,-12.20703125,-46.38671875,-45.41015625,-16.6015625,-80.56640625,0.0
205.0390625,-26.3671875,-59.5703125,-26.3671875,-26.3671875,-40.0390625,0.0
205.04296875,-23.4375,-60.05859375,-20.01953125,-15.625,25.87890625,0.0
205.046875,-20.01953125,-67.87109375,-17.578125,-9.27734375,-55.6640625,0.0
205.05078125,-45.8984375,-78.61328125,-29.296875,-21.97265625,-125.48828125,0.0
205.0546875,-36.62109375,-40.52734375,-43.9453125,-9.765625,-109.375,0.0
205.05859375,-20.5078125,-20.01953125,-21.484375,5.37109375,-89.35546875,0.0
205.0625,-26.85546875,-41.9921875,-3.41796875,4.8828125,-11.71875,0.0
205.06640625,-5.859375,-51.26953125,-21.97265625,1.953125,20.99609375,0.0
205.0703125,3.41796875,-54.6875,-40.0390625,15.13671875,-11.71875,0.0
205.07421875,-13.671875,-58.59375,-40.52734375,28.80859375,-64.453125,0.0
205.078125,-27.34375,-44.43359375,-27.34375,16.11328125,-63.96484375,0.0
205.08203125,-39.0625,-16.6015625,-41.015625,-2.44140625,-10.25390625,0.0
205.0859375,-44.43359375,-8.7890625,-44.43359375,0.9765625,-23.4375,0.0
205.08984375,-30.76171875,-37.59765625,-17.578125,5.859375,-180.6640625,0.0
205.09375,-23.4375,-52.734375,-24.90234375,9.765625,-226.07421875,0.0
205.09765625,-32.2265625,-56.15234375,-45.41015625,10.7421875,-52.24609375,0.0
205.1015625,6.34765625,-52.734375,-23.4375,30.76171875,18.5546875,0.0
205.10546875,30.2734375,-43.9453125,6.34765625,58.59375,-52.734375,0.0
205.109375,-31.25,-60.05859375,-23.4375,36.1328125,-126.953125,0.0
205.11328125,-51.26953125,-31.25,-38.57421875,13.671875,-125.9765625,0.0
205.1171875,-37.109375,-16.6015625,-25.390625,13.18359375,-62.01171875,0.0
205.12109375,-53.7109375,-44.921875,-39.0625,-0.9765625,64.453125,0.0
205.125,-53.7109375,-45.41015625,-51.26953125,-6.34765625,22.4609375,0.0
205.12890625,-31.73828125,-44.43359375,-39.0625,13.18359375,-48.828125,0.0
205.1328125,-28.3203125,-52.734375,-40.0390625,29.78515625,-34.66796875,0.0
205.13671875,-31.73828125,-71.77734375,-34.1796875,21.97265625,-23.92578125,0.0
205.140625,-32.2265625,-57.12890625,-19.04296875,-6.8359375,73.2421875,0.0
205.14453125,-30.76171875,-22.94921875,-41.015625,-27.34375,90.8203125,0.0
205.1484375,-17.578125,-35.64453125,-37.109375,-20.01953125,-14.6484375,0.0
205.15234375,-24.90234375,-51.7578125,-19.04296875,-23.4375,-107.91015625,0.0
205.15625,-45.41015625,-76.171875,-31.25,-41.015625,-77.1484375,0.0
205.16015625,-18.5546875,-74.70703125,-22.94921875,-13.18359375,-17.08984375,0.0
205.1640625,-11.71875,-27.34375,-22.4609375,0.0,-44.921875,0.0
205.16796875,-34.1796875,-28.80859375,-52.24609375,-21.97265625,-65.4296875,0.0
205.171875,-27.34375,-36.1328125,-46.875,-17.578125,-81.0546875,0.0
205.17578125,-20.99609375,-67.3828125,-30.76171875,-0.9765625,-45.8984375,0.0
205.1796875,-16.6015625,-77.63671875,-20.01953125,4.39453125,-42.96875,0.0
205.18359375,-19.53125,-28.80859375,-30.76171875,-16.6015625,-53.22265625,0.0
205.1875,-31.25,-23.4375,-35.64453125,-18.06640625,-59.08203125,0.0
205.19140625,-55.17578125,-53.22265625,-34.1796875,-10.25390625,-160.64453125,0.0
205.1953125,-61.5234375,-59.08203125,-39.0625,-21.484375,-158.69140625,0.0
205.19921875,-37.59765625,-54.19921875,-21.97265625,-20.5078125,-81.0546875,0.0
205.203125,-32.2265625,-72.265625,-35.64453125,-30.76171875,-97.16796875,0.0
205.20703125,-37.109375,-48.828125,-47.8515625,-40.0390625,-137.6953125,0.0
205.2109375,-38.57421875,-26.3671875,-31.73828125,-34.66796875,-186.5234375,0.0
205.21484375,-33.69140625,-54.6875,-33.203125,-26.85546875,-213.8671875,0.0
205.21875,-39.55078125,-51.7578125,-29.296875,-25.87890625,-66.40625,0.0
