timestamp,TP9,AF7,AF8,TP10,AUX,Marker,
349.00390625,17.08984375,-27.34375,-28.3203125,-30.76171875,-52.734375,0.0
349.0078125,-7.8125,-36.1328125,-24.4140625,-21.97265625,-79.1015625,0.0
349.01171875,-34.1796875,-47.36328125,-18.5546875,-13.18359375,8.7890625,0.0
349.015625,23.92578125,-32.71484375,-16.11328125,-12.6953125,-30.76171875,0.0
349.01953125,52.734375,-12.20703125,-26.3671875,-9.27734375,-113.28125,0.0
349.0234375,-12.20703125,-24.90234375,-45.41015625,-5.859375,-80.56640625,0.0
349.02734375,-28.80859375,-35.64453125,-38.57421875,-2.44140625,53.7109375,0.0
349.03125,-7.32421875,-29.296875,-28.3203125,-43.9453125,4.8828125,0.0
349.03515625,-21.97265625,-22.94921875,-32.2265625,-56.15234375,-132.8125,0.0
349.0390625,-30.76171875,-22.94921875,-24.90234375,-29.78515625,-147.94921875,0.0
349.04296875,-33.69140625,-20.99609375,-21.97265625,-19.04296875,-55.6640625,0.0
349.046875,-48.828125,-26.3671875,-27.34375,-4.8828125,-34.66796875,0.0
349.05078125,-10.25390625,-27.83203125,-24.4140625,-13.18359375,-133.7890625,0.0
349.0546875,26.85546875,-19.04296875,-14.6484375,-23.4375,-72.265625,0.0
349.05859375,-7.8125,-21.97265625,-15.625,-19.04296875,-7.32421875,0.0
349.0625,-28.80859375,-28.3203125,-20.5078125,6.34765625,38.0859375,0.0
349.06640625,6.8359375,-39.0625,-18.5546875,-2.9296875,96.19140625,0.0
349.0703125,-8.30078125,-46.38671875,-11.71875,-14.6484375,104.00390625,0.0
349.07421875,-25.87890625,-43.9453125,-8.7890625,-17.578125,0.0,0.0
349.078125,-33.69140625,-30.76171875,-20.99609375,-25.87890625,-2.44140625,0.0
349.08203125,-28.3203125,-28.3203125,-33.203125,-45.8984375,-13.671875,0.0
349.0859375,13.671875,-30.2734375,-28.3203125,-18.5546875,-91.796875,0.0
349.08984375,11.23046875,-33.69140625,-27.83203125,13.18359375,-17.578125,0.0
349.09375,-50.29296875,-41.9921875,-30.76171875,-3.41796875,-46.38671875,0.0
349.09765625,-69.3359375,-42.96875,-28.80859375,-15.625,-117.67578125,0.0
349.1015625,2.44140625,-44.43359375,-28.80859375,-20.5078125,-161.62109375,0.0
349.10546875,-4.39453125,-44.921875,-26.3671875,-26.85546875,-202.1484375,0.0
349.109375,-44.921875,-31.73828125,-26.85546875,-35.15625,-83.984375,0.0
349.11328125,-32.2265625,-22.4609375,-30.76171875,-5.37109375,6.8359375,0.0
349.1171875,-20.01953125,-19.04296875,-18.06640625,-20.99609375,-100.09765625,0.0
349.12109375,-38.57421875,-27.34375,-20.01953125,-39.0625,-114.74609375,0.0
349.125,-56.640625,-35.64453125,-32.71484375,-32.2265625,1.46484375,0.0
349.12890625,-56.15234375,-45.41015625,-30.2734375,-42.96875,-13.18359375,0.0
349.1328125,-58.10546875,-44.43359375,-22.4609375,-53.22265625,-51.26953125,0.0
349.13671875,-73.2421875,-37.59765625,-31.25,-63.4765625,-48.33984375,0.0
349.140625,-72.75390625,-36.62109375,-41.50390625,-67.3828125,-27.34375,0.0
349.14453125,-58.59375,-35.64453125,-32.71484375,-46.875,-106.4453125,0.0
349.1484375,-75.68359375,-41.015625,-29.78515625,-40.52734375,-135.25390625,0.0
349.15234375,-53.7109375,-40.0390625,-30.76171875,-20.5078125,-48.33984375,0.0
349.15625,-52.734375,-26.85546875,-36.1328125,-19.53125,-22.94921875,0.0
349.16015625,-38.0859375,-28.80859375,-36.62109375,-63.96484375,-62.01171875,0.0
349.1640625,-22.4609375,-35.64453125,-34.1796875,-64.94140625,-37.109375,0.0
349.16796875,-55.6640625,-31.73828125,-37.59765625,-59.08203125,6.34765625,0.0
349.171875,-33.203125,-33.69140625,-38.0859375,-45.8984375,9.27734375,0.0
349.17578125,-57.12890625,-38.0859375,-36.62109375,-61.03515625,11.71875,0.0
349.1796875,-51.26953125,-41.9921875,-35.64453125,-69.82421875,-26.85546875,0.0
349.18359375,-18.06640625,-40.52734375,-35.15625,-57.6171875,30.76171875,0.0
349.1875,-90.8203125,-41.50390625,-39.0625,-41.015625,33.69140625,0.0
349.19140625,-112.79296875,-48.33984375,-34.1796875,-47.8515625,-55.6640625,0.0
349.1953125,-50.29296875,-41.015625,-25.390625,-48.828125,-92.28515625,0.0
349.19921875,-57.12890625,-38.0859375,-26.3671875,-34.66796875,-106.93359375,0.0
349.203125,-84.9609375,-37.59765625,-20.5078125,-4.39453125,-53.7109375,0.0
349.20703125,-56.15234375,-38.0859375,-7.32421875,0.0,14.6484375,0.0
349.2109375,-82.03125,-48.828125,-15.13671875,-31.73828125,-28.80859375,0.0
349.21484375,-71.77734375,-51.26953125,-26.85546875,-28.3203125,-59.5703125,0.0
349.21875,-56.15234375,-48.33984375,-34.1796875,-9.27734375,10.25390625,0.0
349.22265625,-85.9375,-41.015625,-44.921875,-45.41015625,-18.5546875,0.0
349.2265625,-121.09375,-44.43359375,-47.36328125,-35.15625,-66.89453125,0.0
349.23046875,-109.375,-40.0390625,-35.15625,-5.859375,-38.57421875,0.0
349.234375,-63.4765625,-46.38671875,-26.3671875,12.20703125,-7.8125,0.0
349.23828125,-48.828125,-50.29296875,-22.4609375,12.20703125,-42.96875,0.0
349.2421875,-60.546875,-36.62109375,-21.97265625,-35.15625,-56.640625,0.0
349.24609375,-12.6953125,-44.43359375,-25.87890625,-5.37109375,-74.21875,0.0
349.25,-33.69140625,-44.43359375,-20.5078125,14.16015625,-85.44921875,0.0
349.25390625,-96.19140625,-40.0390625,-23.92578125,14.16015625,-67.87109375,0.0
349.2578125,-72.265625,-45.41015625,-28.80859375,19.04296875,-15.625,0.0
349.26171875,-56.640625,-49.31640625,-30.2734375,-6.8359375,-20.99609375,0.0
349.265625,-62.01171875,-45.41015625,-22.94921875,3.41796875,-77.63671875,0.0
349.26953125,-34.66796875,-37.109375,-24.4140625,-1.46484375,-56.15234375,0.0
349.2734375,-42.96875,-42.48046875,-30.76171875,3.90625,-0.9765625,0.0
349.27734375,-72.75390625,-41.015625,-31.73828125,25.87890625,-37.59765625,0.0
349.28125,-49.8046875,-37.109375,-35.15625,29.78515625,-154.296875,0.0
349.28515625,-1.46484375,-31.73828125,-28.80859375,25.87890625,-147.94921875,0.0
349.2890625,-14.16015625,-24.4140625,-26.85546875,-1.46484375,-68.359375,0.0
349.29296875,-55.17578125,-26.3671875,-28.80859375,3.90625,-61.03515625,0.0
349.296875,-54.19921875,-28.3203125,-35.64453125,7.32421875,-98.6328125,0.0
349.30078125,-34.66796875,-39.55078125,-39.0625,20.01953125,-97.16796875,0.0
349.3046875,-75.1953125,-34.1796875,-36.62109375,11.71875,-34.66796875,0.0
349.30859375,-60.05859375,-24.4140625,-35.64453125,-5.859375,-100.5859375,0.0
349.3125,-32.71484375,-45.8984375,-30.76171875,20.5078125,-147.4609375,0.0
349.31640625,-83.49609375,-47.8515625,-25.87890625,34.1796875,-95.21484375,0.0
349.3203125,-108.3984375,-36.62109375,-29.78515625,-24.90234375,-80.56640625,0.0
349.32421875,-57.12890625,-30.2734375,-35.15625,-32.71484375,-54.19921875,0.0
349.328125,-49.8046875,-23.4375,-31.73828125,1.953125,-11.71875,0.0
349.33203125,-79.1015625,-31.73828125,-30.76171875,-0.9765625,24.4140625,0.0
349.3359375,-55.17578125,-33.69140625,-29.296875,7.8125,21.97265625,0.0
349.33984375,-70.80078125,-30.2734375,-17.578125,24.90234375,20.99609375,0.0
349.34375,-21.484375,-36.1328125,-14.6484375,24.90234375,32.2265625,0.0
349.34765625,-7.32421875,-34.1796875,-26.3671875,34.66796875,55.6640625,0.0
349.3515625,-17.578125,-24.90234375,-29.296875,14.6484375,41.9921875,0.0
349.35546875,-13.18359375,-34.66796875,-32.71484375,2.44140625,2.44140625,0.0
349.359375,-40.0390625,-55.6640625,-41.015625,-17.578125,-58.59375,0.0
349.36328125,-6.34765625,-55.6640625,-45.8984375,-27.34375,-87.890625,0.0
349.3671875,-17.578125,-41.015625,-33.69140625,34.66796875,-64.453125,0.0
349.37109375,-28.80859375,-33.69140625,-24.90234375,27.34375,15.13671875,0.0
349.375,-13.18359375,-32.2265625,-30.76171875,-1.953125,113.28125,0.0
349.37890625,-3.41796875,-28.80859375,-32.2265625,43.45703125,104.98046875,0.0
349.3828125,-25.390625,-37.109375,-32.71484375,43.45703125,21.484375,0.0
349.38671875,-38.57421875,-44.43359375,-33.203125,-4.8828125,-28.3203125,0.0
349.390625,-44.43359375,-42.48046875,-28.80859375,-11.23046875,-28.3203125,0.0
349.39453125,-29.78515625,-38.0859375,-25.87890625,-10.7421875,-16.11328125,0.0
349.3984375,-8.7890625,-26.3671875,-20.5078125,-32.2265625,-12.6953125,0.0
349.40234375,-43.45703125,-29.78515625,-28.80859375,-2.44140625,-8.30078125,0.0
349.40625,-74.70703125,-39.55078125,-35.15625,4.39453125,14.6484375,0.0
349.41015625,-4.39453125,-41.015625,-28.3203125,-15.13671875,47.36328125,0.0
349.4140625,-15.625,-35.64453125,-40.52734375,-22.4609375,16.6015625,0.0
349.41796875,-114.74609375,-30.2734375,-50.78125,-21.484375,-7.8125,0.0
349.421875,-105.95703125,-52.734375,-43.9453125,-21.97265625,-31.25,0.0
349.42578125,-82.03125,-58.10546875,-34.66796875,-16.6015625,-67.87109375,0.0
349.4296875,-79.58984375,-41.50390625,-28.80859375,-30.76171875,-93.75,0.0
349.43359375,-74.21875,-41.50390625,-36.62109375,-35.15625,-76.171875,0.0
349.4375,-39.0625,-48.33984375,-41.50390625,-20.99609375,-7.32421875,0.0
349.44140625,-15.13671875,-42.48046875,-32.71484375,-20.5078125,31.73828125,0.0
349.4453125,-8.7890625,-36.62109375,-28.3203125,-18.5546875,-41.50390625,0.0
349.44921875,7.32421875,-41.50390625,-29.78515625,-9.27734375,-52.734375,0.0
349.453125,6.8359375,-46.875,-30.2734375,-19.04296875,-10.25390625,0.0
349.45703125,-21.97265625,-35.15625,-28.80859375,-21.97265625,54.6875,0.0
349.4609375,-17.08984375,-29.78515625,-23.4375,-5.859375,-13.671875,0.0
349.46484375,20.99609375,-41.015625,-29.78515625,-41.9921875,-125.48828125,0.0
349.46875,0.9765625,-53.22265625,-34.1796875,-39.0625,-79.58984375,0.0
349.47265625,-52.734375,-56.15234375,-38.0859375,-22.4609375,-43.9453125,0.0
349.4765625,-52.734375,-41.015625,-45.8984375,-47.8515625,-72.265625,0.0
349.48046875,-31.25,-34.66796875,-34.66796875,-38.57421875,-22.94921875,0.0
349.484375,-23.92578125,-34.1796875,-27.83203125,6.34765625,6.8359375,0.0
349.48828125,-51.26953125,-41.50390625,-33.69140625,5.859375,-72.75390625,0.0
349.4921875,-70.80078125,-40.0390625,-27.34375,-37.59765625,-96.6796875,0.0
349.49609375,-45.41015625,-41.015625,-28.3203125,-53.22265625,-52.734375,0.0
349.5,-44.921875,-48.33984375,-41.9921875,-28.3203125,-50.78125,0.0
349.50390625,-31.25,-33.69140625,-38.0859375,-21.97265625,-54.6875,0.0
349.5078125,-44.43359375,-31.25,-27.34375,-6.34765625,-30.2734375,0.0
349.51171875,-42.48046875,-42.48046875,-30.2734375,2.9296875,-60.05859375,0.0
349.515625,-34.1796875,-44.43359375,-25.87890625,-34.1796875,-128.41796875,0.0
349.51953125,-61.03515625,-43.45703125,-24.4140625,-27.83203125,-228.02734375,0.0
349.5234375,-41.015625,-34.66796875,-26.85546875,-39.0625,-194.3359375,0.0
349.52734375,-13.671875,-34.1796875,-29.296875,-49.8046875,-59.5703125,0.0
349.53125,-24.90234375,-43.9453125,-29.296875,-35.15625,-58.10546875,0.0
349.53515625,-58.10546875,-40.52734375,-24.4140625,-22.4609375,-107.91015625,0.0
349.5390625,-40.52734375,-45.41015625,-25.390625,-6.34765625,-109.375,0.0
349.54296875,-25.87890625,-52.24609375,-27.34375,1.953125,-128.41796875,0.0
349.546875,-47.8515625,-50.78125,-27.34375,1.46484375,-106.4453125,0.0
349.55078125,-20.5078125,-40.0390625,-25.390625,7.8125,3.41796875,0.0
349.5546875,-15.625,-31.73828125,-24.4140625,-8.30078125,59.5703125,0.0
349.55859375,-15.13671875,-31.73828125,-34.66796875,-41.50390625,101.07421875,0.0
349.5625,-8.7890625,-32.71484375,-38.57421875,-38.57421875,89.84375,0.0
349.56640625,-14.6484375,-35.15625,-32.71484375,-26.3671875,76.66015625,0.0
349.5703125,-3.90625,-36.1328125,-29.296875,-34.66796875,114.2578125,0.0
349.57421875,-9.27734375,-39.0625,-32.71484375,-46.875,74.21875,0.0
349.578125,-46.38671875,-39.55078125,-31.25,-35.15625,26.85546875,0.0
349.58203125,-54.19921875,-44.43359375,-17.578125,-18.5546875,16.6015625,0.0
349.5859375,-10.25390625,-61.5234375,-21.484375,-32.2265625,23.92578125,0.0
349.58984375,14.16015625,-51.26953125,-31.73828125,-26.85546875,41.015625,0.0
349.59375,-21.97265625,-31.73828125,-33.203125,-13.18359375,-4.39453125,0.0
349.59765625,-43.9453125,-31.73828125,-30.76171875,-11.23046875,-61.5234375,0.0
349.6015625,-5.37109375,-37.109375,-43.45703125,-57.12890625,-45.8984375,0.0
349.60546875,36.1328125,-35.15625,-48.33984375,-68.84765625,-5.37109375,0.0
349.609375,-43.45703125,-40.0390625,-31.73828125,-36.1328125,60.05859375,0.0
349.61328125,-64.453125,-40.52734375,-23.4375,-25.87890625,27.34375,0.0
349.6171875,-7.8125,-34.66796875,-21.97265625,-6.34765625,-34.66796875,0.0
349.62109375,-49.31640625,-38.0859375,-26.3671875,-19.04296875,-63.96484375,0.0
349.625,-24.4140625,-20.5078125,-27.83203125,-21.484375,-97.65625,0.0
349.62890625,-16.6015625,-13.18359375,-26.85546875,-6.8359375,-66.89453125,0.0
349.6328125,-83.984375,-38.57421875,-35.15625,-2.44140625,-81.54296875,0.0
349.63671875,-53.7109375,-27.83203125,-33.203125,25.390625,-90.33203125,0.0
349.640625,-31.25,-21.484375,-30.76171875,-39.55078125,-48.33984375,0.0
349.64453125,-41.50390625,-45.41015625,-31.25,-29.78515625,-53.22265625,0.0
349.6484375,-28.3203125,-46.38671875,-29.296875,-9.765625,-61.5234375,0.0
349.65234375,-32.2265625,-31.25,-30.2734375,-29.296875,-6.8359375,0.0
349.65625,-57.6171875,-35.15625,-27.34375,-12.6953125,-32.2265625,0.0
349.66015625,-78.125,-42.96875,-23.4375,-4.39453125,-85.9375,0.0
349.6640625,-52.734375,-42.96875,-24.90234375,15.625,-57.6171875,0.0
349.66796875,-23.92578125,-29.78515625,-32.2265625,-5.859375,-87.40234375,0.0
349.671875,0.9765625,-27.34375,-27.83203125,-49.31640625,-133.30078125,0.0
349.67578125,-25.390625,-36.1328125,-25.87890625,-25.390625,-37.109375,0.0
349.6796875,-32.71484375,-24.4140625,-30.2734375,5.37109375,47.8515625,0.0
349.68359375,-33.203125,-25.87890625,-40.0390625,-35.64453125,-13.671875,0.0
349.6875,-50.78125,-30.76171875,-44.921875,-38.0859375,-48.828125,0.0
349.69140625,-56.640625,-42.96875,-36.62109375,-29.296875,-57.6171875,0.0
349.6953125,-57.12890625,-51.7578125,-29.78515625,-44.921875,-68.84765625,0.0
349.69921875,-66.40625,-52.24609375,-37.59765625,-21.97265625,-42.96875,0.0
349.703125,-82.51953125,-46.38671875,-41.015625,-17.08984375,15.625,0.0
349.70703125,-37.59765625,-34.1796875,-33.69140625,-34.1796875,-10.7421875,0.0
349.7109375,-12.20703125,-26.85546875,-35.64453125,-29.78515625,-50.29296875,0.0
349.71484375,-43.45703125,-33.203125,-27.34375,-26.85546875,-34.66796875,0.0
349.71875,-33.69140625,-32.2265625,-20.5078125,-33.203125,-30.2734375,0.0
349.72265625,-22.94921875,-26.3671875,-26.85546875,-39.0625,49.8046875,0.0
349.7265625,-83.49609375,-28.80859375,-31.25,-25.390625,114.2578125,0.0
349.73046875,-101.07421875,-31.73828125,-32.71484375,6.34765625,28.3203125,0.0
349.734375,-72.265625,-31.73828125,-29.296875,0.48828125,48.828125,0.0
349.73828125,-82.51953125,-33.203125,-27.34375,-10.25390625,87.40234375,0.0
349.7421875,-80.56640625,-36.1328125,-25.390625,15.13671875,69.82421875,0.0
349.74609375,-50.78125,-28.80859375,-20.5078125,16.6015625,67.87109375,0.0
349.75,-12.20703125,-31.73828125,-33.69140625,-21.97265625,-47.8515625,0.0
349.75390625,-5.37109375,-33.203125,-31.25,-34.1796875,-125.48828125,0.0
349.7578125,-73.2421875,-33.203125,-16.6015625,-25.87890625,-164.0625,0.0
349.76171875,-67.87109375,-41.015625,-11.23046875,0.0,-152.83203125,0.0
349.765625,-67.3828125,-43.9453125,-16.6015625,5.859375,-151.85546875,0.0
349.76953125,-83.984375,-40.52734375,-26.3671875,-34.66796875,-137.6953125,0.0
349.7734375,-79.1015625,-36.1328125,-27.34375,-27.83203125,-55.17578125,0.0
349.77734375,-74.70703125,-32.71484375,-26.3671875,-28.3203125,-57.12890625,0.0
349.78125,-56.15234375,-34.1796875,-31.25,-20.5078125,-169.43359375,0.0
349.78515625,-49.31640625,-38.57421875,-25.87890625,-12.20703125,-211.42578125,0.0
349.7890625,-61.5234375,-32.2265625,-19.53125,-22.4609375,-177.24609375,0.0
349.79296875,-66.40625,-28.3203125,-25.390625,-38.0859375,-57.6171875,0.0
349.796875,-57.6171875,-31.73828125,-34.1796875,-46.38671875,59.5703125,0.0
349.80078125,-58.10546875,-28.80859375,-32.71484375,-26.3671875,92.7734375,0.0
349.8046875,-49.8046875,-26.3671875,-31.25,-13.18359375,133.30078125,0.0
349.80859375,-15.625,-33.203125,-33.203125,-23.92578125,65.91796875,0.0
349.8125,-36.62109375,-38.57421875,-35.64453125,-37.59765625,78.61328125,0.0
349.81640625,-59.5703125,-40.52734375,-41.015625,-38.57421875,116.69921875,0.0
349.8203125,-37.59765625,-28.80859375,-25.390625,-30.76171875,3.41796875,0.0
349.82421875,-25.390625,-28.3203125,-20.01953125,3.41796875,-41.9921875,0.0
349.828125,-4.8828125,-33.69140625,-26.3671875,0.0,-37.109375,0.0
349.83203125,-57.6171875,-19.04296875,-21.97265625,-16.11328125,8.30078125,0.0
349.8359375,-24.4140625,-10.25390625,-11.23046875,-4.8828125,96.6796875,0.0
349.83984375,28.3203125,-17.08984375,-24.4140625,-55.6640625,58.10546875,0.0
349.84375,-44.43359375,-31.25,-42.96875,-48.33984375,36.1328125,0.0
349.84765625,-73.73046875,-25.390625,-41.9921875,-28.3203125,62.5,0.0
349.8515625,-34.66796875,-21.484375,-37.109375,-38.57421875,43.9453125,0.0
349.85546875,0.9765625,-23.92578125,-31.73828125,-19.53125,43.9453125,0.0
349.859375,-18.06640625,-24.90234375,-29.78515625,-2.44140625,69.82421875,0.0
349.86328125,-43.45703125,-21.97265625,-22.4609375,-32.71484375,55.17578125,0.0
349.8671875,0.48828125,-11.71875,-18.06640625,-14.6484375,32.71484375,0.0
349.87109375,-26.3671875,-22.94921875,-29.78515625,5.859375,3.41796875,0.0
349.875,-38.0859375,-36.62109375,-28.3203125,-29.78515625,-36.1328125,0.0
349.87890625,31.73828125,-36.1328125,-26.3671875,-34.66796875,18.06640625,0.0
349.8828125,41.50390625,-24.90234375,-31.25,-39.0625,-3.90625,0.0
349.88671875,-4.8828125,-29.296875,-30.2734375,-41.50390625,-69.3359375,0.0
349.890625,-18.06640625,-29.296875,-34.1796875,-43.45703125,-94.23828125,0.0
349.89453125,21.97265625,-21.484375,-38.0859375,-40.52734375,-51.7578125,0.0
349.8984375,23.4375,-36.1328125,-35.64453125,-22.4609375,-21.484375,0.0
349.90234375,0.48828125,-41.50390625,-29.78515625,1.953125,-69.3359375,0.0
349.90625,-21.484375,-38.0859375,-31.73828125,-15.625,-51.7578125,0.0
349.91015625,-20.5078125,-32.71484375,-25.87890625,-21.484375,-68.84765625,0.0
349.9140625,-28.3203125,-25.87890625,-26.3671875,-3.90625,-61.5234375,0.0
349.91796875,-33.203125,-22.4609375,-35.15625,-17.08984375,-41.015625,0.0
349.921875,1.46484375,-21.97265625,-34.66796875,-28.3203125,-53.22265625,0.0
349.92578125,31.25,-18.06640625,-25.390625,-14.16015625,-48.828125,0.0
349.9296875,-11.71875,-19.53125,-23.92578125,-5.859375,-39.0625,0.0
349.93359375,-40.52734375,-37.109375,-36.1328125,-16.11328125,25.87890625,0.0
349.9375,-29.296875,-42.96875,-38.57421875,-11.23046875,-53.7109375,0.0
349.94140625,-27.34375,-32.2265625,-34.1796875,-27.83203125,-88.37890625,0.0
349.9453125,-28.3203125,-22.4609375,-35.15625,-38.0859375,5.859375,0.0
349.94921875,-37.59765625,-18.06640625,-40.52734375,-12.6953125,-4.39453125,0.0
349.953125,-19.53125,-21.97265625,-43.45703125,8.30078125,-103.02734375,0.0
349.95703125,6.34765625,-14.6484375,-31.73828125,-30.2734375,-150.87890625,0.0
349.9609375,-33.203125,-18.5546875,-23.92578125,-48.33984375,-79.1015625,0.0
349.96484375,-53.22265625,-41.9921875,-31.73828125,-56.15234375,40.52734375,0.0
349.96875,-36.1328125,-44.43359375,-27.34375,-38.57421875,59.08203125,0.0
349.97265625,-48.828125,-38.57421875,-23.92578125,15.13671875,25.390625,0.0
349.9765625,-82.03125,-38.57421875,-27.34375,-24.90234375,-5.37109375,0.0
349.98046875,-84.9609375,-31.25,-32.2265625,-55.6640625,-24.90234375,0.0
349.984375,-47.8515625,-29.78515625,-32.2265625,-44.43359375,19.53125,0.0
349.98828125,0.48828125,-25.87890625,-41.015625,-49.8046875,-32.71484375,0.0
349.9921875,-14.6484375,-25.87890625,-45.8984375,-63.96484375,-89.35546875,0.0
349.99609375,-85.44921875,-39.0625,-35.15625,-52.24609375,-44.43359375,0.0
350.0,-72.75390625,-27.34375,-26.85546875,-20.5078125,-2.44140625,0.0
350.00390625,-52.24609375,-19.04296875,-32.2265625,-31.73828125,-40.0390625,0.0
350.0078125,-41.015625,-34.66796875,-33.203125,-55.17578125,-57.12890625,0.0
350.01171875,-35.15625,-42.96875,-28.3203125,-52.734375,19.04296875,0.0
350.015625,-15.625,-26.85546875,-22.94921875,-15.625,8.30078125,0.0
350.01953125,8.7890625,-21.484375,-22.94921875,-2.44140625,-72.75390625,0.0
350.0234375,-55.17578125,-35.64453125,-39.55078125,-59.5703125,-137.20703125,0.0
350.02734375,-59.5703125,-35.15625,-39.0625,-70.80078125,-200.68359375,0.0
350.03125,-40.0390625,-31.25,-35.15625,-32.71484375,-207.03125,0.0
350.03515625,-49.8046875,-39.0625,-32.2265625,-31.73828125,-110.3515625,0.0
350.0390625,-47.8515625,-41.015625,-29.296875,-54.19921875,-33.203125,0.0
350.04296875,-26.3671875,-40.0390625,-30.2734375,-44.921875,-75.1953125,0.0
350.046875,-25.87890625,-29.296875,-24.4140625,-23.4375,-26.3671875,0.0
350.05078125,1.46484375,-35.15625,-28.80859375,-25.87890625,20.5078125,0.0
350.0546875,13.671875,-38.0859375,-31.73828125,-31.73828125,12.6953125,0.0
350.05859375,-43.9453125,-29.78515625,-20.99609375,-44.921875,19.53125,0.0
350.0625,-45.41015625,-29.78515625,-21.484375,-55.6640625,-59.08203125,0.0
350.06640625,-12.20703125,-34.1796875,-30.76171875,-29.78515625,-69.82421875,0.0
350.0703125,5.37109375,-33.203125,-28.3203125,6.8359375,-30.76171875,0.0
350.07421875,-8.30078125,-31.25,-23.4375,-46.38671875,-59.5703125,0.0
350.078125,-18.06640625,-37.109375,-23.4375,-43.9453125,-32.71484375,0.0
350.08203125,-41.9921875,-32.2265625,-21.484375,5.859375,7.32421875,0.0
350.0859375,-23.92578125,-28.3203125,-20.5078125,-27.83203125,28.3203125,0.0
350.08984375,-4.8828125,-25.87890625,-11.23046875,-25.390625,29.78515625,0.0
350.09375,-50.78125,-33.69140625,-8.30078125,13.671875,-23.92578125,0.0
350.09765625,-24.90234375,-38.57421875,-22.94921875,-23.92578125,12.20703125,0.0
350.1015625,-14.16015625,-34.66796875,-33.203125,-36.62109375,20.5078125,0.0
350.10546875,-53.22265625,-41.50390625,-34.1796875,-44.43359375,1.46484375,0.0
350.109375,-8.7890625,-36.1328125,-25.87890625,-60.546875,49.31640625,0.0
350.11328125,5.37109375,-25.87890625,-23.4375,-35.15625,58.10546875,0.0
350.1171875,-27.34375,-24.90234375,-28.3203125,-9.765625,-18.06640625,0.0
350.12109375,-7.8125,-19.53125,-19.04296875,-23.4375,-11.23046875,0.0
350.125,1.46484375,-24.90234375,-19.53125,-31.73828125,22.94921875,0.0
350.12890625,-23.92578125,-33.69140625,-29.78515625,-62.01171875,-61.03515625,0.0
350.1328125,-30.76171875,-35.15625,-28.3203125,-47.8515625,-40.0390625,0.0
350.13671875,-19.04296875,-30.2734375,-18.06640625,-17.578125,-15.625,0.0
350.140625,-32.2265625,-29.296875,-25.87890625,-26.85546875,-5.859375,0.0
350.14453125,-24.90234375,-31.25,-32.71484375,-8.7890625,66.40625,0.0
350.1484375,-23.4375,-41.50390625,-28.80859375,-9.27734375,-20.5078125,0.0
350.15234375,-37.59765625,-42.96875,-20.99609375,-5.37109375,-117.67578125,0.0
350.15625,-31.73828125,-36.62109375,-30.2734375,-30.76171875,-139.6484375,0.0
350.16015625,-38.0859375,-45.41015625,-36.62109375,-42.96875,-141.6015625,0.0
350.1640625,-71.77734375,-47.36328125,-32.2265625,-39.0625,-79.58984375,0.0
350.16796875,-82.51953125,-44.43359375,-37.59765625,-38.57421875,-12.20703125,0.0
350.171875,-71.2890625,-42.48046875,-38.0859375,-30.2734375,-5.859375,0.0
350.17578125,-85.9375,-27.83203125,-33.69140625,-30.2734375,-65.4296875,0.0
350.1796875,-52.734375,-4.8828125,-14.16015625,-22.4609375,-109.375,0.0
350.18359375,-24.4140625,-5.859375,-16.11328125,-41.9921875,-47.8515625,0.0
350.1875,-28.3203125,-21.97265625,-29.296875,-60.05859375,26.3671875,0.0
350.19140625,-25.87890625,-24.90234375,-29.296875,-28.80859375,11.71875,0.0
350.1953125,-55.17578125,-29.78515625,-28.3203125,-29.296875,-37.109375,0.0
350.19921875,-77.1484375,-38.0859375,-27.83203125,-31.73828125,-90.33203125,0.0
350.203125,-46.38671875,-33.203125,-38.0859375,-44.921875,-35.15625,0.0
350.20703125,-53.7109375,-42.48046875,-40.52734375,-62.5,-57.12890625,0.0
350.2109375,-70.80078125,-40.0390625,-23.92578125,-24.4140625,-141.11328125,0.0
350.21484375,-34.66796875,-38.57421875,-21.97265625,-21.97265625,-88.37890625,0.0
350.21875,-6.34765625,-33.203125,-23.4375,-43.45703125,-37.109375,0.0
350.22265625,-37.59765625,-33.69140625,-22.94921875,-10.25390625,-26.3671875,0.0
350.2265625,-60.05859375,-38.0859375,-34.66796875,6.8359375,-13.18359375,0.0
350.23046875,-56.15234375,-26.3671875,-38.57421875,-47.8515625,-83.984375,0.0
350.234375,-67.3828125,-19.04296875,-41.015625,-87.40234375,10.7421875,0.0
350.23828125,-46.875,-23.92578125,-36.62109375,-70.80078125,73.2421875,0.0
350.2421875,-24.90234375,-20.5078125,-18.06640625,-34.66796875,-27.34375,0.0
350.24609375,-60.546875,-28.3203125,-25.390625,-8.7890625,-7.32421875,0.0
350.25,-18.06640625,-31.73828125,-38.0859375,-56.15234375,3.41796875,0.0
350.25390625,14.6484375,-26.3671875,-32.2265625,-62.5,-19.53125,0.0
350.2578125,-5.37109375,-22.4609375,-24.4140625,-30.76171875,-68.84765625,0.0
350.26171875,0.0,-20.5078125,-31.25,-20.5078125,-176.26953125,0.0
350.265625,-18.06640625,-26.3671875,-34.1796875,-38.57421875,-81.54296875,0.0
350.26953125,19.04296875,-24.4140625,-28.3203125,-49.8046875,7.8125,0.0
350.2734375,42.96875,-32.2265625,-21.97265625,-45.41015625,-35.15625,0.0
350.27734375,-34.1796875,-38.0859375,-23.92578125,-46.875,4.8828125,0.0
350.28125,-35.64453125,-26.85546875,-35.64453125,-47.36328125,38.0859375,0.0
350.28515625,23.4375,-21.97265625,-29.296875,-20.01953125,5.37109375,0.0
350.2890625,51.7578125,-23.92578125,-23.4375,-0.9765625,-32.2265625,0.0
350.29296875,0.48828125,-36.62109375,-36.62109375,-29.78515625,-83.0078125,0.0
350.296875,-10.7421875,-41.50390625,-34.1796875,-52.24609375,-122.55859375,0.0
350.30078125,7.8125,-30.2734375,-20.5078125,-17.08984375,-65.4296875,0.0
350.3046875,-44.921875,-36.1328125,-27.34375,-1.46484375,-20.5078125,0.0
350.30859375,-45.8984375,-42.48046875,-33.203125,-43.9453125,-7.8125,0.0
350.3125,3.41796875,-22.4609375,-27.83203125,-30.2734375,20.5078125,0.0
350.31640625,3.90625,-25.390625,-36.1328125,-31.73828125,7.8125,0.0
350.3203125,-7.32421875,-35.64453125,-36.62109375,-58.59375,-6.8359375,0.0
350.32421875,20.99609375,-33.69140625,-34.66796875,-33.69140625,-70.80078125,0.0
350.328125,58.59375,-28.80859375,-43.45703125,-41.015625,-41.9921875,0.0
350.33203125,5.37109375,-26.3671875,-38.0859375,-82.51953125,40.52734375,0.0
350.3359375,-40.0390625,-30.2734375,-33.203125,-59.08203125,-16.6015625,0.0
350.33984375,-20.01953125,-32.71484375,-35.15625,-29.78515625,-17.08984375,0.0
350.34375,15.13671875,-35.15625,-34.66796875,-25.87890625,-1.46484375,0.0
350.34765625,10.7421875,-43.9453125,-38.57421875,-54.6875,-36.1328125,0.0
350.3515625,-17.08984375,-40.0390625,-40.52734375,-70.80078125,34.66796875,0.0
350.35546875,-10.7421875,-31.25,-28.3203125,-37.109375,144.53125,0.0
350.359375,33.69140625,-32.71484375,-21.484375,1.953125,24.90234375,0.0
350.36328125,69.3359375,-24.4140625,-25.390625,-8.7890625,-92.28515625,0.0
350.3671875,29.296875,-29.296875,-22.4609375,-30.76171875,-92.28515625,0.0
350.37109375,9.765625,-40.52734375,-29.78515625,-30.2734375,-96.6796875,0.0
350.375,16.6015625,-25.87890625,-32.71484375,21.97265625,-72.75390625,0.0
350.37890625,18.06640625,-23.4375,-22.94921875,-12.20703125,-74.21875,0.0
350.3828125,29.78515625,-31.73828125,-26.3671875,-57.6171875,-90.33203125,0.0
350.38671875,17.578125,-33.69140625,-24.4140625,-28.3203125,-68.359375,0.0
350.390625,10.25390625,-26.85546875,-20.01953125,-12.20703125,-53.7109375,0.0
350.39453125,20.01953125,-20.99609375,-17.578125,-21.97265625,-40.0390625,0.0
350.3984375,-30.2734375,-32.71484375,-17.578125,-19.04296875,-48.33984375,0.0
350.40234375,-20.01953125,-37.109375,-12.20703125,5.859375,-45.41015625,0.0
350.40625,35.64453125,-28.80859375,-6.34765625,6.34765625,-34.66796875,0.0
350.41015625,-22.4609375,-35.64453125,-24.4140625,-15.625,-12.20703125,0.0
350.4140625,-45.8984375,-34.1796875,-33.69140625,-35.15625,-1.953125,0.0
350.41796875,3.41796875,-23.92578125,-24.90234375,-22.4609375,-33.203125,0.0
350.421875,-0.48828125,-31.25,-19.53125,-13.18359375,-80.56640625,0.0
350.42578125,-27.83203125,-34.1796875,-17.08984375,-14.6484375,-50.78125,0.0
350.4296875,-31.25,-27.83203125,-27.83203125,-4.8828125,-63.4765625,0.0
350.43359375,-25.390625,-36.62109375,-31.73828125,-20.99609375,-33.203125,0.0
350.4375,-49.8046875,-39.55078125,-17.08984375,-1.46484375,46.875,0.0
350.44140625,-73.2421875,-35.15625,-23.92578125,-43.45703125,-25.87890625,0.0
350.4453125,-61.03515625,-33.69140625,-31.25,-53.7109375,-15.13671875,0.0
350.44921875,-19.04296875,-26.3671875,-27.83203125,-0.9765625,58.59375,0.0
350.453125,-44.43359375,-29.296875,-24.4140625,-23.4375,41.9921875,0.0
350.45703125,-7.8125,-25.390625,-29.296875,-6.34765625,-77.63671875,0.0
350.4609375,-14.6484375,-27.34375,-31.25,16.6015625,-161.1328125,0.0
350.46484375,-64.94140625,-28.3203125,-19.53125,11.71875,-90.8203125,0.0
350.46875,-34.66796875,-22.4609375,-17.578125,49.8046875,-74.70703125,0.0
350.47265625,-34.1796875,-35.64453125,-23.92578125,18.5546875,-69.3359375,0.0
350.4765625,-15.13671875,-39.55078125,-19.04296875,-47.8515625,33.203125,0.0
350.48046875,-29.78515625,-23.4375,-17.08984375,-12.6953125,30.76171875,0.0
350.484375,-58.10546875,-26.3671875,-20.5078125,-3.90625,-22.94921875,0.0
350.48828125,-57.6171875,-36.1328125,-20.99609375,-2.44140625,28.3203125,0.0
350.4921875,-28.3203125,-31.73828125,-17.578125,34.66796875,28.80859375,0.0
350.49609375,-49.8046875,-34.1796875,-12.6953125,-8.30078125,11.23046875,0.0
350.5,-70.80078125,-39.0625,-21.484375,-33.203125,-2.9296875,0.0
350.50390625,-37.109375,-37.59765625,-25.87890625,-20.5078125,-13.671875,0.0
350.5078125,-39.55078125,-34.1796875,-20.01953125,-3.90625,-37.109375,0.0
350.51171875,-29.78515625,-14.6484375,-7.32421875,12.20703125,32.2265625,0.0
350.515625,9.27734375,-15.625,-17.578125,-7.8125,116.2109375,0.0
350.51953125,23.92578125,-28.80859375,-38.0859375,-26.3671875,30.76171875,0.0
350.5234375,-36.62109375,-22.94921875,-43.45703125,-36.62109375,33.69140625,0.0
350.52734375,-66.40625,-33.69140625,-30.2734375,-16.6015625,51.26953125,0.0
350.53125,-35.64453125,-37.59765625,-25.87890625,-38.0859375,-102.5390625,0.0
350.53515625,-70.3125,-38.0859375,-28.80859375,-52.734375,-152.83203125,0.0
350.5390625,-74.70703125,-41.50390625,-24.4140625,-12.6953125,-122.0703125,0.0
350.54296875,-21.97265625,-35.64453125,-28.80859375,-18.5546875,-59.5703125,0.0
350.546875,-19.53125,-40.52734375,-33.203125,-37.109375,8.7890625,0.0
350.55078125,-22.4609375,-43.9453125,-33.69140625,-58.10546875,-26.3671875,0.0
350.5546875,-31.73828125,-35.64453125,-26.85546875,-40.0390625,-145.99609375,0.0
350.55859375,-17.578125,-26.85546875,-27.83203125,-37.109375,-109.86328125,0.0
350.5625,-27.34375,-36.1328125,-32.71484375,-39.55078125,-23.4375,0.0
350.56640625,-48.828125,-41.50390625,-30.76171875,-42.96875,-99.609375,0.0
350.5703125,-53.22265625,-41.50390625,-17.578125,-46.38671875,-92.7734375,0.0
350.57421875,-41.50390625,-40.52734375,-18.5546875,-37.59765625,16.11328125,0.0
350.578125,-44.921875,-34.1796875,-36.1328125,-20.5078125,47.8515625,0.0
350.58203125,-44.43359375,-34.66796875,-34.1796875,-37.109375,-23.4375,0.0
350.5859375,-11.23046875,-19.04296875,-27.34375,-49.31640625,-82.51953125,0.0
350.58984375,15.13671875,-27.34375,-33.203125,-54.6875,2.9296875,0.0
350.59375,-15.625,-49.8046875,-31.73828125,-13.18359375,48.33984375,0.0
350.59765625,-33.203125,-41.015625,-23.92578125,-35.64453125,43.45703125,0.0
350.6015625,11.23046875,-20.01953125,-22.4609375,-80.56640625,13.18359375,0.0
350.60546875,9.765625,-10.25390625,-29.296875,-66.89453125,9.765625,0.0
350.609375,-33.69140625,-6.8359375,-31.25,-54.19921875,156.73828125,0.0
350.61328125,-31.73828125,-19.53125,-23.4375,-41.015625,107.91015625,0.0
350.6171875,-7.32421875,-24.4140625,-10.25390625,1.46484375,24.4140625,0.0
350.62109375,-21.97265625,-27.83203125,-22.4609375,-34.1796875,31.25,0.0
350.625,-75.1953125,-44.43359375,-30.2734375,-52.24609375,8.7890625,0.0
350.62890625,-47.36328125,-45.8984375,-20.99609375,-17.578125,-53.22265625,0.0
350.6328125,4.39453125,-39.0625,-26.3671875,2.9296875,-24.90234375,0.0
350.63671875,1.953125,-41.50390625,-34.1796875,-36.62109375,9.27734375,0.0
350.640625,-24.4140625,-39.0625,-34.1796875,-41.50390625,-66.89453125,0.0
350.64453125,1.46484375,-29.78515625,-35.15625,-7.8125,10.7421875,0.0
350.6484375,-5.859375,-31.25,-35.15625,-47.36328125,40.0390625,0.0
350.65234375,-51.26953125,-37.59765625,-39.55078125,-44.921875,-89.84375,0.0
350.65625,-54.6875,-37.109375,-38.57421875,-24.4140625,-47.36328125,0.0
350.66015625,-56.15234375,-34.1796875,-19.04296875,-20.5078125,-16.6015625,0.0
350.6640625,-34.1796875,-26.3671875,-10.7421875,-29.78515625,-33.69140625,0.0
350.66796875,-43.9453125,-24.4140625,-22.94921875,-19.04296875,-4.8828125,0.0
350.671875,-37.59765625,-31.25,-26.85546875,-40.0390625,14.6484375,0.0
350.67578125,2.9296875,-24.90234375,-12.6953125,-41.50390625,-3.90625,0.0
350.6796875,-12.20703125,-29.296875,-17.08984375,-21.484375,22.4609375,0.0
350.68359375,-32.71484375,-34.1796875,-29.296875,-18.5546875,15.13671875,0.0
350.6875,-35.64453125,-23.92578125,-26.3671875,-39.0625,-79.58984375,0.0
350.69140625,17.578125,-13.18359375,-25.390625,-71.2890625,-24.4140625,0.0
350.6953125,5.859375,-10.7421875,-27.83203125,-20.5078125,22.4609375,0.0
350.69921875,-28.3203125,-35.15625,-23.4375,-20.5078125,-25.390625,0.0
350.703125,-30.2734375,-35.15625,-13.671875,-49.8046875,-106.4453125,0.0
350.70703125,-41.50390625,-17.08984375,-3.90625,-12.6953125,-112.79296875,0.0
350.7109375,-42.96875,-35.15625,-20.01953125,-16.6015625,31.25,0.0
350.71484375,-26.85546875,-37.59765625,-31.73828125,-50.29296875,43.9453125,0.0
350.71875,-37.109375,-38.0859375,-24.4140625,-13.18359375,-5.859375,0.0
350.72265625,-56.640625,-45.41015625,-21.97265625,0.9765625,17.578125,0.0
350.7265625,-39.55078125,-40.52734375,-33.203125,-37.109375,21.97265625,0.0
350.73046875,18.06640625,-40.0390625,-41.50390625,-32.71484375,21.97265625,0.0
350.734375,-51.26953125,-29.296875,-23.4375,0.48828125,67.3828125,0.0
350.73828125,-112.3046875,-24.90234375,-15.625,-10.25390625,77.1484375,0.0
350.7421875,-58.10546875,-36.62109375,-33.69140625,-25.390625,31.25,0.0
350.74609375,-22.94921875,-45.8984375,-35.64453125,-24.90234375,-33.69140625,0.0
350.75,-40.52734375,-28.80859375,-20.5078125,-23.4375,-49.31640625,0.0
350.75390625,-72.265625,-20.01953125,-20.99609375,-10.25390625,-11.23046875,0.0
350.7578125,-50.29296875,-32.2265625,-35.15625,-33.69140625,-41.50390625,0.0
350.76171875,-9.27734375,-34.66796875,-32.2265625,-22.94921875,-45.8984375,0.0
350.765625,4.39453125,-33.203125,-23.92578125,-4.8828125,38.0859375,0.0
350.76953125,-46.875,-32.71484375,-29.78515625,-7.8125,0.48828125,0.0
350.7734375,-69.3359375,-30.76171875,-32.2265625,-20.5078125,-56.15234375,0.0
350.77734375,-38.57421875,-30.76171875,-28.3203125,-19.53125,22.4609375,0.0
350.78125,-26.3671875,-31.73828125,-23.4375,2.44140625,7.8125,0.0
350.78515625,-30.76171875,-21.484375,-29.78515625,-11.71875,-65.91796875,0.0
350.7890625,-43.45703125,-24.4140625,-32.2265625,-61.5234375,-17.08984375,0.0
350.79296875,-30.76171875,-33.69140625,-26.3671875,-49.31640625,34.66796875,0.0
350.796875,8.30078125,-23.92578125,-17.08984375,-26.85546875,73.73046875,0.0
350.80078125,-44.921875,-29.78515625,-23.92578125,-37.59765625,45.41015625,0.0
350.8046875,-91.30859375,-41.50390625,-31.25,-41.015625,-21.484375,0.0
350.80859375,-59.5703125,-36.1328125,-19.04296875,-42.96875,-44.921875,0.0
350.8125,-40.52734375,-30.2734375,-19.04296875,-20.5078125,-74.21875,0.0
350.81640625,-17.08984375,-25.390625,-32.2265625,-0.9765625,-36.62109375,0.0
350.8203125,-53.7109375,-37.59765625,-45.8984375,-18.5546875,-5.859375,0.0
350.82421875,-93.75,-49.8046875,-38.57421875,-50.29296875,5.859375,0.0
350.828125,-114.74609375,-49.31640625,-43.45703125,-68.84765625,-45.41015625,0.0
350.83203125,-121.58203125,-49.31640625,-55.17578125,-104.00390625,-95.703125,0.0
350.8359375,-130.37109375,-56.640625,-56.640625,-144.53125,-117.1875,0.0
350.83984375,-168.9453125,-49.8046875,-51.7578125,-195.80078125,-129.8828125,0.0
350.84375,-206.54296875,-39.0625,-43.45703125,-196.2890625,-102.05078125,0.0
350.84765625,-268.5546875,-67.3828125,-59.08203125,-201.66015625,-137.20703125,0.0
350.8515625,-275.390625,-75.68359375,-62.01171875,-231.4453125,-131.8359375,0.0
350.85546875,-268.5546875,-68.359375,-60.546875,-241.69921875,-37.59765625,0.0
350.859375,-247.55859375,-69.82421875,-61.03515625,-250.9765625,-23.4375,0.0
350.86328125,-257.32421875,-70.3125,-54.6875,-255.37109375,-74.70703125,0.0
350.8671875,-311.03515625,-70.80078125,-48.33984375,-214.84375,-63.96484375,0.0
350.87109375,-250.48828125,-49.8046875,-28.80859375,-156.73828125,-38.0859375,0.0
350.875,-239.2578125,-42.96875,-33.69140625,-221.6796875,-65.4296875,0.0
350.87890625,-267.578125,-49.31640625,-46.875,-243.65234375,-45.8984375,0.0
350.8828125,-225.09765625,-57.12890625,-41.50390625,-192.3828125,16.11328125,0.0
350.88671875,-207.51953125,-59.08203125,-35.64453125,-156.25,-86.42578125,0.0
350.890625,-227.05078125,-60.546875,-37.59765625,-141.6015625,-176.26953125,0.0
350.89453125,-197.75390625,-63.4765625,-37.109375,-155.2734375,-186.03515625,0.0
350.8984375,-162.59765625,-56.640625,-35.64453125,-115.234375,-215.8203125,0.0
350.90234375,-110.83984375,-45.41015625,-44.43359375,-93.75,-229.4921875,0.0
350.90625,-99.609375,-42.96875,-49.31640625,-105.95703125,-209.9609375,0.0
350.91015625,-100.09765625,-52.24609375,-48.828125,-77.63671875,-220.703125,0.0
350.9140625,-83.0078125,-48.33984375,-48.828125,-52.24609375,-245.60546875,0.0
350.91796875,-93.26171875,-42.48046875,-45.8984375,-43.45703125,-167.96875,0.0
350.921875,-83.984375,-48.828125,-41.9921875,2.9296875,-113.28125,0.0
350.92578125,-36.1328125,-49.31640625,-42.96875,-4.8828125,-174.31640625,0.0
350.9296875,21.484375,-36.1328125,-37.59765625,-27.83203125,-220.21484375,0.0
350.93359375,0.0,-34.1796875,-33.203125,10.25390625,-160.15625,0.0
350.9375,-11.71875,-30.76171875,-41.50390625,20.5078125,-123.046875,0.0
350.94140625,10.7421875,-35.64453125,-41.015625,27.34375,-136.23046875,0.0
350.9453125,-22.94921875,-48.33984375,-38.0859375,59.5703125,13.671875,0.0
350.94921875,-28.80859375,-45.41015625,-37.109375,1.953125,105.46875,0.0
350.953125,-3.90625,-39.55078125,-35.64453125,2.44140625,74.21875,0.0
350.95703125,21.97265625,-38.0859375,-35.15625,51.7578125,104.00390625,0.0
350.9609375,32.71484375,-24.4140625,-21.484375,41.9921875,101.07421875,0.0
350.96484375,48.828125,-14.6484375,-19.04296875,32.2265625,121.09375,0.0
350.96875,86.9140625,-16.11328125,-32.71484375,20.01953125,82.51953125,0.0
350.97265625,63.4765625,-9.27734375,-35.15625,16.11328125,89.35546875,0.0
350.9765625,52.24609375,-22.94921875,-32.2265625,46.875,92.28515625,0.0
350.98046875,39.55078125,-40.0390625,-33.69140625,44.921875,50.29296875,0.0
350.984375,31.25,-37.59765625,-44.921875,6.8359375,83.49609375,0.0
350.98828125,35.64453125,-35.15625,-45.8984375,26.3671875,31.73828125,0.0
350.9921875,63.4765625,-23.4375,-27.34375,35.64453125,9.765625,0.0
350.99609375,24.4140625,-25.390625,-25.87890625,23.92578125,38.0859375,0.0
351.0,-2.9296875,-33.203125,-28.80859375,25.390625,-1.46484375,0.0
351.00390625,17.578125,-23.92578125,-28.80859375,33.203125,20.5078125,0.0
351.0078125,25.390625,-19.53125,-29.296875,-0.48828125,46.875,0.0
351.01171875,11.23046875,-26.3671875,-27.83203125,-41.50390625,68.84765625,0.0
351.015625,-2.9296875,-32.2265625,-29.78515625,-15.13671875,82.51953125,0.0
351.01953125,31.73828125,-20.99609375,-26.85546875,6.34765625,5.859375,0.0
351.0234375,-4.39453125,-13.671875,-24.4140625,10.25390625,-28.80859375,0.0
351.02734375,-30.76171875,-26.85546875,-28.80859375,9.27734375,-32.71484375,0.0
351.03125,-3.41796875,-23.4375,-25.87890625,30.2734375,-48.828125,0.0
351.03515625,-4.8828125,-2.9296875,-8.30078125,41.015625,-7.8125,0.0
351.0390625,-7.8125,-7.8125,-13.18359375,20.5078125,55.6640625,0.0
351.04296875,-2.9296875,-29.78515625,-30.2734375,12.20703125,-4.8828125,0.0
351.046875,33.69140625,-20.01953125,-13.671875,18.06640625,-8.7890625,0.0
351.05078125,28.80859375,-5.859375,4.8828125,22.4609375,32.71484375,0.0
351.0546875,-24.90234375,-29.78515625,-17.08984375,10.7421875,32.2265625,0.0
351.05859375,-32.71484375,-37.59765625,-30.2734375,-9.27734375,-41.9921875,0.0
351.0625,-5.37109375,-27.34375,-20.99609375,16.11328125,-110.83984375,0.0
351.06640625,4.8828125,-24.4140625,-14.6484375,20.01953125,-93.26171875,0.0
351.0703125,10.25390625,-28.80859375,-18.06640625,-7.8125,-59.5703125,0.0
351.07421875,-7.32421875,-44.921875,-22.4609375,-2.44140625,-1.46484375,0.0
351.078125,-42.96875,-36.1328125,-16.6015625,34.66796875,60.546875,0.0
351.08203125,-20.5078125,-4.39453125,5.859375,37.59765625,-11.71875,0.0
351.0859375,-9.27734375,-20.99609375,-11.71875,2.44140625,-120.1171875,0.0
351.08984375,-24.4140625,-37.59765625,-35.64453125,-15.625,-125.9765625,0.0
351.09375,-51.7578125,-33.203125,-35.15625,-8.7890625,-127.9296875,0.0
351.09765625,-29.78515625,-28.80859375,-34.1796875,-2.44140625,-100.5859375,0.0
351.1015625,-12.20703125,-30.2734375,-32.2265625,-7.32421875,-12.20703125,0.0
351.10546875,-19.04296875,-38.0859375,-26.3671875,-29.296875,77.1484375,0.0
351.109375,-8.7890625,-37.109375,-24.4140625,-33.69140625,118.65234375,0.0
351.11328125,-19.04296875,-33.69140625,-34.66796875,-8.7890625,-11.23046875,0.0
351.1171875,-11.23046875,-27.34375,-30.76171875,16.11328125,-52.24609375,0.0
351.12109375,-23.92578125,-32.71484375,-32.71484375,15.625,49.31640625,0.0
351.125,-45.8984375,-28.3203125,-13.671875,0.48828125,-16.6015625,0.0
351.12890625,-30.2734375,-18.06640625,4.8828125,-1.953125,-75.68359375,0.0
351.1328125,-24.4140625,-27.83203125,-25.390625,-21.484375,-38.57421875,0.0
351.13671875,-16.11328125,-36.1328125,-31.25,-3.90625,-53.7109375,0.0
351.140625,-13.671875,-42.48046875,-18.06640625,-13.671875,-23.4375,0.0
351.14453125,-27.83203125,-39.0625,-29.296875,-51.26953125,28.3203125,0.0
351.1484375,-42.96875,-30.76171875,-30.76171875,-43.45703125,-63.96484375,0.0
351.15234375,-23.4375,-29.296875,-24.90234375,-36.1328125,-96.6796875,0.0
351.15625,-15.13671875,-20.99609375,-20.99609375,-13.671875,16.6015625,0.0
351.16015625,-6.34765625,-26.85546875,-25.390625,-19.53125,2.44140625,0.0
351.1640625,-4.39453125,-41.50390625,-31.73828125,-19.53125,-36.1328125,0.0
351.16796875,-29.296875,-39.55078125,-29.78515625,-12.6953125,0.9765625,0.0
351.171875,-19.53125,-23.92578125,-13.18359375,-3.41796875,-53.22265625,0.0
351.17578125,-13.18359375,-30.2734375,-12.6953125,22.4609375,-11.23046875,0.0
351.1796875,-3.90625,-40.0390625,-21.484375,-4.39453125,26.3671875,0.0
351.18359375,-16.11328125,-33.203125,-24.90234375,-37.59765625,-53.7109375,0.0
351.1875,-46.38671875,-30.76171875,-34.1796875,-28.3203125,-78.125,0.0
351.19140625,-51.7578125,-30.2734375,-39.0625,-27.83203125,-11.23046875,0.0
351.1953125,-28.80859375,-37.109375,-26.85546875,-12.20703125,-7.32421875,0.0
351.19921875,-22.4609375,-36.62109375,-25.390625,-42.96875,-15.13671875,0.0
351.203125,-39.0625,-36.1328125,-24.90234375,-60.546875,32.2265625,0.0
351.20703125,-35.15625,-37.59765625,-27.34375,-43.45703125,-5.37109375,0.0
351.2109375,-32.2265625,-30.2734375,-31.25,-50.29296875,34.1796875,0.0
351.21484375,-22.94921875,-17.578125,-7.32421875,-24.90234375,104.00390625,0.0
351.21875,-0.9765625,-23.92578125,-5.37109375,-19.04296875,95.703125,0.0
351.22265625,-27.34375,-36.62109375,-26.3671875,-37.109375,24.4140625,0.0
351.2265625,-46.38671875,-33.203125,-33.69140625,-30.2734375,-48.828125,0.0
351.23046875,8.7890625,-21.484375,-25.87890625,-47.36328125,-88.37890625,0.0
351.234375,6.34765625,-23.92578125,-22.94921875,-51.26953125,-102.05078125,0.0
351.23828125,-47.8515625,-35.15625,-26.3671875,-25.87890625,-111.328125,0.0
351.2421875,-63.96484375,-36.62109375,-32.2265625,-28.80859375,-64.94140625,0.0
351.24609375,-61.03515625,-33.203125,-33.69140625,-31.25,-8.30078125,0.0
351.25,-56.15234375,-34.1796875,-31.73828125,-47.8515625,-1.953125,0.0
351.25390625,-70.3125,-37.59765625,-29.78515625,-54.6875,-65.4296875,0.0
351.2578125,-66.40625,-34.66796875,-32.71484375,-40.0390625,-115.72265625,0.0
351.26171875,-11.23046875,-17.08984375,-25.390625,-20.5078125,-83.984375,0.0
351.265625,-18.06640625,-22.4609375,-39.0625,-23.4375,-80.56640625,0.0
351.26953125,-55.6640625,-38.0859375,-48.33984375,-41.9921875,-127.9296875,0.0
351.2734375,-53.7109375,-35.15625,-35.64453125,-37.59765625,-76.66015625,0.0
351.27734375,-50.78125,-29.296875,-26.3671875,-18.06640625,-25.87890625,0.0
351.28125,-16.6015625,-21.484375,-24.90234375,-14.16015625,-54.19921875,0.0
351.28515625,-42.48046875,-22.94921875,-24.4140625,-10.7421875,-46.875,0.0
351.2890625,-45.41015625,-21.484375,-18.06640625,4.39453125,-46.875,0.0
351.29296875,-5.37109375,-16.6015625,-10.7421875,17.08984375,0.48828125,0.0
351.296875,2.9296875,-25.87890625,-25.390625,7.32421875,14.16015625,0.0
351.30078125,18.5546875,-34.1796875,-39.55078125,-18.5546875,-113.28125,0.0
351.3046875,-13.671875,-19.53125,-26.3671875,-17.578125,-128.90625,0.0
351.30859375,-34.66796875,-20.5078125,-26.3671875,-17.578125,-88.37890625,0.0
351.3125,-35.64453125,-37.59765625,-35.15625,-11.71875,-55.6640625,0.0
351.31640625,-32.2265625,-29.296875,-23.92578125,-25.87890625,27.34375,0.0
351.3203125,12.20703125,-12.20703125,-8.7890625,-62.01171875,60.05859375,0.0
351.32421875,9.27734375,-18.06640625,-14.16015625,-58.59375,-13.671875,0.0
351.328125,-49.31640625,-33.203125,-26.3671875,-45.8984375,-27.34375,0.0
351.33203125,-59.08203125,-27.83203125,-22.4609375,-25.390625,5.859375,0.0
351.3359375,-24.90234375,-15.625,-4.8828125,0.9765625,-106.4453125,0.0
351.33984375,-25.390625,-33.69140625,-10.7421875,-35.15625,-81.54296875,0.0
351.34375,-43.45703125,-47.8515625,-29.78515625,-57.12890625,23.4375,0.0
351.34765625,-28.80859375,-33.69140625,-33.69140625,-25.390625,60.546875,0.0
351.3515625,-23.92578125,-16.11328125,-18.5546875,14.16015625,61.5234375,0.0
351.35546875,-31.25,-20.99609375,-21.484375,7.8125,63.96484375,0.0
351.359375,-24.4140625,-22.4609375,-34.1796875,12.20703125,12.6953125,0.0
351.36328125,-20.5078125,-19.04296875,-34.1796875,17.578125,-89.84375,0.0
351.3671875,-30.2734375,-25.390625,-29.296875,3.90625,-83.0078125,0.0
351.37109375,-61.5234375,-30.76171875,-35.64453125,-4.39453125,-6.34765625,0.0
351.375,-70.80078125,-31.25,-36.62109375,-16.11328125,1.46484375,0.0
351.37890625,-34.1796875,-30.2734375,-27.34375,8.30078125,-38.57421875,0.0
351.3828125,-16.11328125,-19.04296875,-30.76171875,24.90234375,-52.734375,0.0
351.38671875,8.30078125,-19.53125,-40.52734375,26.3671875,-2.9296875,0.0
351.390625,-25.390625,-30.76171875,-39.0625,39.0625,12.6953125,0.0
351.39453125,-42.48046875,-26.3671875,-31.73828125,20.01953125,15.13671875,0.0
351.3984375,-48.828125,-32.2265625,-31.73828125,10.7421875,23.92578125,0.0
351.40234375,-69.82421875,-41.015625,-37.109375,-10.25390625,17.08984375,0.0
351.40625,-62.5,-30.76171875,-36.62109375,10.25390625,84.47265625,0.0
351.41015625,-33.203125,-13.18359375,-20.5078125,48.33984375,27.83203125,0.0
351.4140625,-31.25,-19.04296875,-14.16015625,-6.8359375,-94.23828125,0.0
351.41796875,-61.5234375,-41.50390625,-37.59765625,-31.25,-73.2421875,0.0
351.421875,-88.37890625,-40.52734375,-38.57421875,-11.23046875,-62.01171875,0.0
351.42578125,-71.77734375,-20.99609375,-18.5546875,14.16015625,19.04296875,0.0
351.4296875,-95.21484375,-25.390625,-23.4375,8.30078125,47.36328125,0.0
351.43359375,-110.3515625,-30.2734375,-31.25,9.27734375,38.0859375,0.0
351.4375,-58.10546875,-26.3671875,-30.76171875,14.6484375,5.37109375,0.0
351.44140625,-59.08203125,-31.25,-34.66796875,0.48828125,7.32421875,0.0
351.4453125,-68.84765625,-38.0859375,-32.71484375,-6.34765625,21.97265625,0.0
351.44921875,-60.05859375,-41.015625,-33.203125,-21.97265625,19.53125,0.0
351.453125,-74.70703125,-29.78515625,-29.78515625,-16.6015625,16.11328125,0.0
351.45703125,-78.125,-5.859375,-6.34765625,0.48828125,-34.66796875,0.0
351.4609375,-50.78125,-20.99609375,-20.5078125,-4.39453125,-35.15625,0.0
351.46484375,-35.64453125,-40.0390625,-40.52734375,-51.7578125,-35.15625,0.0
351.46875,-57.6171875,-30.76171875,-34.66796875,-69.82421875,-96.6796875,0.0
351.47265625,-87.40234375,-32.2265625,-31.73828125,-60.05859375,-96.19140625,0.0
351.4765625,-75.68359375,-35.64453125,-34.66796875,-87.40234375,-36.1328125,0.0
351.48046875,-86.42578125,-41.50390625,-34.1796875,-117.67578125,-22.94921875,0.0
351.484375,-96.6796875,-40.52734375,-32.71484375,-110.3515625,21.97265625,0.0
351.48828125,-54.6875,-37.109375,-34.66796875,-93.26171875,52.24609375,0.0
351.4921875,-88.8671875,-42.48046875,-31.25,-109.86328125,-48.828125,0.0
351.49609375,-102.05078125,-40.0390625,-25.87890625,-116.2109375,-59.5703125,0.0
351.5,-47.8515625,-27.83203125,-16.6015625,-86.42578125,-46.875,0.0
351.50390625,-64.94140625,-29.78515625,-18.06640625,-100.09765625,-60.05859375,0.0
351.5078125,-105.46875,-24.4140625,-35.64453125,-90.33203125,46.38671875,0.0
351.51171875,-92.7734375,-20.99609375,-40.0390625,-86.9140625,63.4765625,0.0
351.515625,-60.546875,-25.390625,-23.4375,-83.0078125,67.3828125,0.0
351.51953125,-90.33203125,-36.62109375,-24.4140625,-71.2890625,47.36328125,0.0
351.5234375,-112.3046875,-44.921875,-33.203125,-99.609375,-5.859375,0.0
351.52734375,-78.125,-44.43359375,-33.69140625,-82.03125,2.44140625,0.0
351.53125,-68.359375,-34.66796875,-36.1328125,-107.421875,-18.5546875,0.0
351.53515625,-109.86328125,-26.85546875,-37.109375,-134.27734375,-80.56640625,0.0
351.5390625,-113.28125,-41.9921875,-37.109375,-107.421875,-86.9140625,0.0
351.54296875,-80.56640625,-38.57421875,-29.78515625,-65.91796875,18.5546875,0.0
351.546875,-51.26953125,-21.97265625,-20.99609375,-71.2890625,36.62109375,0.0
351.55078125,-71.77734375,-26.85546875,-37.59765625,-98.14453125,-55.17578125,0.0
351.5546875,-73.73046875,-24.90234375,-46.875,-88.8671875,-108.88671875,0.0
351.55859375,-68.359375,-15.625,-42.48046875,-92.7734375,-141.6015625,0.0
351.5625,-83.49609375,-23.92578125,-41.9921875,-103.02734375,-81.54296875,0.0
351.56640625,-97.16796875,-29.296875,-41.015625,-67.3828125,27.83203125,0.0
351.5703125,-122.55859375,-41.9921875,-39.0625,-66.40625,31.73828125,0.0
351.57421875,-104.98046875,-47.36328125,-32.2265625,-65.91796875,20.01953125,0.0
351.578125,-104.4921875,-36.62109375,-35.64453125,-46.875,37.109375,0.0
351.58203125,-92.28515625,-34.66796875,-34.1796875,-36.62109375,76.171875,0.0
351.5859375,-80.078125,-31.25,-28.3203125,-65.91796875,95.21484375,0.0
351.58984375,-68.359375,-19.53125,-22.4609375,-61.5234375,47.36328125,0.0
351.59375,-70.80078125,-18.06640625,-19.04296875,-46.38671875,-34.66796875,0.0
351.59765625,-90.33203125,-30.76171875,-27.34375,-70.3125,-58.10546875,0.0
351.6015625,-68.84765625,-20.99609375,-25.390625,-66.89453125,-54.19921875,0.0
351.60546875,-74.70703125,-16.11328125,-30.2734375,-63.4765625,-28.80859375,0.0
351.609375,-73.2421875,-25.390625,-34.66796875,-95.21484375,-32.2265625,0.0
351.61328125,-59.08203125,-35.64453125,-28.3203125,-81.54296875,-75.1953125,0.0
351.6171875,-91.796875,-35.64453125,-19.04296875,-56.15234375,-97.16796875,0.0
351.62109375,-85.9375,-21.97265625,-3.90625,-66.40625,-77.1484375,0.0
351.625,-81.54296875,-25.87890625,-9.27734375,-93.75,16.11328125,0.0
351.62890625,-96.19140625,-32.71484375,-23.4375,-102.5390625,63.4765625,0.0
351.6328125,-85.9375,-23.92578125,-23.92578125,-98.14453125,71.2890625,0.0
351.63671875,-74.21875,-18.06640625,-19.53125,-87.40234375,38.57421875,0.0
351.640625,-72.75390625,-37.109375,-23.92578125,-76.66015625,-67.3828125,0.0
351.64453125,-34.1796875,-44.43359375,-28.80859375,-63.96484375,-94.7265625,0.0
351.6484375,-37.109375,-37.109375,-26.3671875,-80.56640625,-101.07421875,0.0
351.65234375,-66.40625,-34.1796875,-29.296875,-77.63671875,-88.37890625,0.0
351.65625,-92.28515625,-32.2265625,-34.1796875,-67.87109375,14.6484375,0.0
351.66015625,-75.68359375,-36.1328125,-37.109375,-71.2890625,60.05859375,0.0
351.6640625,-57.6171875,-36.1328125,-39.55078125,-71.77734375,-7.32421875,0.0
351.66796875,-50.29296875,-27.83203125,-44.921875,-52.24609375,-73.73046875,0.0
351.671875,-75.1953125,-26.85546875,-30.2734375,-44.921875,-47.36328125,0.0
351.67578125,-110.83984375,-30.76171875,-21.97265625,-79.1015625,-83.49609375,0.0
351.6796875,-83.984375,-16.11328125,-21.484375,-77.63671875,-100.09765625,0.0
351.68359375,-63.4765625,-20.01953125,-14.6484375,-34.1796875,-79.58984375,0.0
351.6875,-41.9921875,-36.1328125,-29.78515625,-47.36328125,-72.265625,0.0
351.69140625,-35.64453125,-29.296875,-36.62109375,-103.515625,-44.921875,0.0
351.6953125,-65.4296875,-30.76171875,-25.87890625,-93.26171875,-49.31640625,0.0
351.69921875,-72.265625,-34.66796875,-13.671875,-55.17578125,-53.7109375,0.0
351.703125,-60.546875,-35.15625,-19.04296875,-63.4765625,-38.57421875,0.0
351.70703125,-45.41015625,-41.50390625,-39.0625,-69.82421875,-41.9921875,0.0
351.7109375,-64.94140625,-33.203125,-33.69140625,-50.29296875,-51.7578125,0.0
351.71484375,-54.6875,-30.76171875,-27.83203125,-62.98828125,-75.68359375,0.0
351.71875,-25.87890625,-35.64453125,-29.78515625,-48.33984375,-21.97265625,0.0
351.72265625,-62.01171875,-35.64453125,-29.78515625,-51.7578125,7.8125,0.0
351.7265625,-67.87109375,-42.48046875,-39.0625,-75.1953125,-21.97265625,0.0
351.73046875,-81.54296875,-44.43359375,-34.66796875,-67.87109375,-2.44140625,0.0
351.734375,-98.6328125,-43.45703125,-27.83203125,-46.38671875,-26.3671875,0.0
351.73828125,-65.4296875,-37.59765625,-27.83203125,-16.6015625,-0.48828125,0.0
351.7421875,-71.77734375,-30.2734375,-9.765625,-32.71484375,24.4140625,0.0
351.74609375,-49.31640625,-40.52734375,-14.16015625,-62.01171875,21.484375,0.0
351.75,-20.5078125,-36.1328125,-31.25,-57.6171875,11.23046875,0.0
351.75390625,-37.59765625,-35.64453125,-20.99609375,-60.05859375,-35.64453125,0.0
351.7578125,-54.19921875,-32.71484375,-21.97265625,-51.26953125,-7.8125,0.0
351.76171875,-52.734375,-27.34375,-31.73828125,-44.43359375,-19.04296875,0.0
351.765625,-41.50390625,-34.66796875,-34.66796875,-103.515625,-41.50390625,0.0
351.76953125,-50.78125,-39.55078125,-35.64453125,-91.796875,-41.015625,0.0
351.7734375,-47.36328125,-37.59765625,-36.62109375,-50.78125,-101.07421875,0.0
351.77734375,-35.64453125,-33.203125,-39.55078125,-45.41015625,-87.890625,0.0
351.78125,-55.6640625,-30.2734375,-39.55078125,-58.59375,-70.3125,0.0
351.78515625,-35.15625,-15.13671875,-20.01953125,-48.828125,-123.046875,0.0
351.7890625,-30.2734375,-13.18359375,-21.484375,-25.390625,41.9921875,0.0
351.79296875,-43.45703125,-33.203125,-35.64453125,-28.3203125,180.17578125,0.0
351.796875,-48.33984375,-39.55078125,-28.3203125,-53.7109375,52.734375,0.0
351.80078125,-44.43359375,-27.83203125,-18.5546875,-48.828125,0.9765625,0.0
351.8046875,-62.5,-45.41015625,-36.62109375,-83.984375,39.55078125,0.0
351.80859375,-60.546875,-72.75390625,-41.50390625,-114.74609375,-45.8984375,0.0
351.8125,-73.73046875,-86.42578125,-32.2265625,-109.375,-47.8515625,0.0
351.81640625,-53.7109375,-87.890625,-39.0625,-102.5390625,-67.3828125,0.0
351.8203125,-41.9921875,-66.40625,-40.0390625,-85.9375,-98.6328125,0.0
351.82421875,-148.4375,-63.96484375,-58.10546875,-143.5546875,-15.625,0.0
351.828125,-213.37890625,-68.359375,-49.8046875,-140.625,-26.3671875,0.0
351.83203125,-208.984375,-24.90234375,-28.3203125,-115.234375,-93.26171875,0.0
351.8359375,-200.68359375,-33.203125,-42.48046875,-170.8984375,-61.03515625,0.0
351.83984375,-177.734375,-82.51953125,-38.57421875,-143.06640625,-103.02734375,0.0
351.84375,-193.359375,-76.66015625,-24.4140625,-148.92578125,-135.7421875,0.0
351.84765625,-189.453125,-78.61328125,-20.99609375,-172.8515625,-156.73828125,0.0
351.8515625,-159.66796875,-83.0078125,-33.69140625,-170.41015625,-278.80859375,0.0
351.85546875,-147.94921875,-86.42578125,-20.5078125,-126.953125,-219.7265625,0.0
351.859375,-166.50390625,-85.9375,-17.578125,-113.28125,-36.1328125,0.0
351.86328125,-189.94140625,-54.6875,-42.96875,-106.4453125,33.69140625,0.0
351.8671875,-185.546875,-28.80859375,-26.85546875,-83.984375,43.9453125,0.0
351.87109375,-159.66796875,-37.59765625,-13.18359375,-129.8828125,25.390625,0.0
351.875,-164.55078125,-34.66796875,-19.04296875,-102.5390625,-44.921875,0.0
351.87890625,-159.1796875,-30.76171875,-35.64453125,-111.81640625,-34.1796875,0.0
351.8828125,-123.046875,-33.203125,-48.828125,-170.41015625,18.5546875,0.0
351.88671875,-118.1640625,-15.13671875,-28.3203125,-144.53125,-50.29296875,0.0
351.890625,-119.62890625,-30.2734375,-22.4609375,-99.609375,-37.59765625,0.0
351.89453125,-106.93359375,-29.78515625,-41.015625,-57.12890625,16.6015625,0.0
351.8984375,-102.05078125,-27.83203125,-46.875,-58.10546875,-13.671875,0.0
351.90234375,-115.234375,-32.2265625,-22.4609375,-104.98046875,-86.42578125,0.0
351.90625,-111.328125,-17.578125,-42.48046875,-104.00390625,-86.9140625,0.0
351.91015625,-76.66015625,-18.5546875,-355.95703125,-92.7734375,-31.25,0.0
351.9140625,-79.58984375,-16.6015625,-643.5546875,-80.56640625,5.859375,0.0
351.91796875,-85.44921875,-19.04296875,-684.08203125,-56.640625,-21.97265625,0.0
351.921875,-62.5,-27.34375,-697.265625,-41.50390625,-57.12890625,0.0
351.92578125,-41.50390625,-34.66796875,-722.65625,-50.29296875,14.16015625,0.0
351.9296875,-46.875,-28.80859375,-734.375,-62.5,69.82421875,0.0
351.93359375,-68.84765625,-16.6015625,-699.21875,-25.390625,61.03515625,0.0
351.9375,-35.64453125,-19.53125,-678.22265625,1.46484375,4.39453125,0.0
351.94140625,-14.6484375,-8.7890625,-657.2265625,-20.99609375,-1.953125,0.0
351.9453125,-6.34765625,3.90625,-613.28125,-49.31640625,39.0625,0.0
351.94921875,25.390625,1.46484375,-569.82421875,-31.25,-13.18359375,0.0
351.953125,34.1796875,0.0,-547.36328125,-17.578125,-84.9609375,0.0
351.95703125,18.06640625,0.9765625,-546.875,-40.52734375,-95.21484375,0.0
351.9609375,-26.3671875,-5.859375,-522.4609375,-37.59765625,-28.80859375,0.0
351.96484375,-50.78125,-18.06640625,-504.8828125,-41.015625,-19.04296875,0.0
351.96875,-36.1328125,-12.6953125,-494.62890625,-39.55078125,-81.54296875,0.0
351.97265625,-17.08984375,7.8125,-479.98046875,-58.10546875,-84.47265625,0.0
351.9765625,-7.8125,-6.34765625,-461.9140625,-83.984375,-43.9453125,0.0
351.98046875,-36.62109375,-21.97265625,-447.265625,-62.98828125,-1.46484375,0.0
351.984375,-6.34765625,0.48828125,-414.55078125,-23.4375,69.82421875,0.0
351.98828125,0.9765625,3.90625,-392.578125,-10.25390625,127.9296875,0.0
351.9921875,13.671875,-18.5546875,-392.578125,-15.625,11.23046875,0.0
351.99609375,28.80859375,-18.5546875,-382.8125,-2.44140625,-38.0859375,0.0
352.0,12.20703125,-12.6953125,-396.97265625,14.6484375,1.953125,0.0
352.00390625,37.109375,-8.30078125,-358.3984375,53.22265625,-111.81640625,0.0
352.0078125,68.359375,-7.8125,-317.3828125,33.203125,-181.640625,0.0
352.01171875,70.3125,-1.46484375,-341.796875,-1.46484375,-69.82421875,0.0
352.015625,55.17578125,-12.6953125,-349.609375,11.71875,-27.83203125,0.0
352.01953125,77.1484375,-17.578125,-340.8203125,13.18359375,-22.4609375,0.0
352.0234375,89.84375,-15.13671875,-345.703125,-1.953125,-20.99609375,0.0
352.02734375,73.73046875,-18.5546875,-348.6328125,-1.953125,41.015625,0.0
352.03125,66.40625,-9.27734375,-345.21484375,15.13671875,78.125,0.0
352.03515625,42.96875,-3.90625,-359.86328125,-0.48828125,-52.24609375,0.0
352.0390625,16.6015625,-15.13671875,-334.47265625,3.41796875,-165.0390625,0.0
352.04296875,31.73828125,-0.9765625,-302.24609375,36.62109375,-104.00390625,0.0
352.046875,52.24609375,-4.39453125,-304.6875,26.3671875,37.59765625,0.0
352.05078125,79.58984375,-37.109375,-305.17578125,36.1328125,74.21875,0.0
352.0546875,67.3828125,-23.4375,-290.52734375,45.41015625,12.6953125,0.0
352.05859375,10.25390625,-3.90625,-311.5234375,24.4140625,-18.06640625,0.0
352.0625,9.765625,8.7890625,-321.2890625,12.20703125,-39.55078125,0.0
352.06640625,-15.625,12.6953125,-250.48828125,9.765625,-53.7109375,0.0
352.0703125,-15.625,-8.7890625,-175.78125,41.015625,-61.5234375,0.0
352.07421875,8.30078125,-7.8125,-153.80859375,-34.66796875,-20.5078125,0.0
352.078125,-1.953125,11.71875,-145.5078125,-141.6015625,-45.41015625,0.0
352.08203125,29.78515625,1.953125,-147.94921875,-170.41015625,-56.15234375,0.0
352.0859375,48.828125,1.953125,-158.69140625,-187.5,5.859375,0.0
352.08984375,17.08984375,10.7421875,-144.53125,-169.921875,71.2890625,0.0
352.09375,-0.9765625,19.04296875,-122.0703125,-149.90234375,94.7265625,0.0
352.09765625,-29.296875,7.8125,-106.4453125,-145.99609375,68.84765625,0.0
352.1015625,-13.671875,-12.20703125,-89.35546875,-148.4375,57.12890625,0.0
352.10546875,13.18359375,-13.18359375,-67.87109375,-137.20703125,26.85546875,0.0
352.109375,1.46484375,-3.90625,-67.3828125,-118.65234375,-15.13671875,0.0
352.11328125,16.6015625,7.32421875,-65.4296875,-132.32421875,-70.80078125,0.0
352.1171875,25.87890625,16.11328125,-46.875,-154.296875,-43.45703125,0.0
352.12109375,2.9296875,12.6953125,-77.63671875,-166.50390625,16.6015625,0.0
352.125,11.71875,27.83203125,-115.72265625,-172.36328125,-19.53125,0.0
352.12890625,10.25390625,22.94921875,-107.421875,-136.71875,-59.5703125,0.0
352.1328125,-6.34765625,-1.953125,-107.421875,-149.90234375,-7.8125,0.0
352.13671875,-5.37109375,-2.9296875,-89.84375,-127.9296875,28.3203125,0.0
352.140625,-7.8125,11.71875,-73.2421875,-68.84765625,-24.4140625,0.0
352.14453125,-25.390625,8.30078125,-86.9140625,-83.984375,-28.80859375,0.0
352.1484375,-22.94921875,-4.39453125,-106.4453125,-94.7265625,10.25390625,0.0
352.15234375,-5.859375,-1.953125,-116.2109375,-83.0078125,62.5,0.0
352.15625,5.37109375,0.0,-105.46875,-90.8203125,28.3203125,0.0
352.16015625,15.625,-17.578125,-71.2890625,-86.9140625,33.69140625,0.0
352.1640625,27.34375,-13.18359375,-47.36328125,-94.7265625,60.05859375,0.0
352.16796875,-8.7890625,-4.8828125,-48.828125,-74.21875,76.66015625,0.0
352.171875,-17.578125,-12.20703125,-66.40625,-64.94140625,41.50390625,0.0
352.17578125,-1.46484375,-3.90625,-76.171875,-83.49609375,-51.7578125,0.0
352.1796875,-11.23046875,0.0,-57.6171875,-77.63671875,-45.41015625,0.0
352.18359375,-5.859375,0.9765625,-64.94140625,-65.4296875,-10.7421875,0.0
352.1875,3.90625,4.39453125,-85.44921875,-64.94140625,0.0,0.0
352.19140625,12.6953125,-5.859375,-68.359375,-61.03515625,-24.4140625,0.0
352.1953125,43.9453125,-5.859375,-34.1796875,-42.96875,-64.94140625,0.0
352.19921875,43.45703125,-10.25390625,-26.3671875,-27.34375,-38.0859375,0.0
352.203125,25.87890625,-31.25,-18.5546875,-21.484375,-130.37109375,0.0
352.20703125,36.1328125,-21.97265625,-12.20703125,-12.20703125,-190.91796875,0.0
352.2109375,29.296875,2.44140625,-27.83203125,16.11328125,-139.16015625,0.0
352.21484375,41.9921875,0.0,-51.7578125,-0.48828125,-186.5234375,0.0
352.21875,54.19921875,-9.765625,-52.24609375,-17.578125,-162.59765625,0.0
352.22265625,16.6015625,-6.34765625,-50.29296875,-5.859375,-119.62890625,0.0
352.2265625,-21.484375,-4.8828125,-66.40625,-20.99609375,-166.015625,0.0
352.23046875,-9.765625,-9.765625,-80.078125,-47.8515625,-152.83203125,0.0
352.234375,20.99609375,1.953125,-60.05859375,-47.8515625,-135.7421875,0.0
352.23828125,39.0625,-1.46484375,-78.61328125,-24.4140625,-156.73828125,0.0
352.2421875,43.45703125,-19.04296875,-141.6015625,-5.37109375,-51.7578125,0.0
352.24609375,25.87890625,-8.30078125,-177.24609375,12.20703125,-25.390625,0.0
352.25,24.90234375,13.671875,-194.3359375,12.6953125,-85.44921875,0.0
352.25390625,9.27734375,6.8359375,-204.1015625,3.41796875,-39.55078125,0.0
352.2578125,11.23046875,-2.9296875,-186.03515625,28.3203125,-14.16015625,0.0
352.26171875,51.26953125,5.37109375,-175.29296875,12.6953125,-42.96875,0.0
352.265625,37.59765625,11.23046875,-187.01171875,2.44140625,-34.66796875,0.0
352.26953125,-28.3203125,-3.41796875,-193.84765625,28.3203125,41.015625,0.0
352.2734375,-20.5078125,-3.41796875,-173.828125,3.41796875,148.92578125,0.0
352.27734375,19.04296875,4.39453125,-174.8046875,-2.9296875,180.6640625,0.0
352.28125,22.94921875,1.953125,-179.19921875,-7.32421875,132.32421875,0.0
352.28515625,29.296875,6.34765625,-166.9921875,-7.8125,50.29296875,0.0
352.2890625,36.1328125,16.11328125,-139.16015625,-11.71875,38.0859375,0.0
352.29296875,24.90234375,12.6953125,-125.48828125,-48.828125,70.3125,0.0
352.296875,13.671875,-6.8359375,-132.32421875,-42.48046875,64.453125,0.0
352.30078125,0.9765625,-12.20703125,-139.16015625,-30.2734375,-14.6484375,0.0
352.3046875,3.90625,-15.13671875,-126.953125,-22.94921875,7.32421875,0.0
352.30859375,15.13671875,-29.296875,-107.91015625,-23.92578125,39.55078125,0.0
352.3125,5.37109375,-31.25,-129.39453125,-48.33984375,-44.921875,0.0
352.31640625,-2.9296875,-20.99609375,-125.0,-42.48046875,-44.921875,0.0
352.3203125,-30.2734375,-29.296875,-96.19140625,-19.53125,41.50390625,0.0
352.32421875,-41.50390625,-43.45703125,-87.40234375,-16.6015625,30.76171875,0.0
352.328125,-46.875,-40.52734375,-71.2890625,-41.9921875,-28.3203125,0.0
352.33203125,-53.22265625,-23.4375,-53.22265625,-11.71875,-70.80078125,0.0
352.3359375,-22.94921875,-12.6953125,-43.45703125,6.8359375,-40.52734375,0.0
352.33984375,-10.25390625,-20.5078125,-48.828125,-10.7421875,7.8125,0.0
352.34375,-29.78515625,-35.15625,-64.453125,-8.7890625,-48.828125,0.0
352.34765625,-54.19921875,-33.69140625,-69.82421875,-14.16015625,-110.3515625,0.0
352.3515625,-28.3203125,-17.578125,-72.75390625,5.859375,-77.1484375,0.0
352.35546875,-14.16015625,-34.1796875,-71.77734375,13.671875,-9.27734375,0.0
352.359375,-46.875,-47.36328125,-71.77734375,-8.7890625,28.80859375,0.0
352.36328125,-48.33984375,-31.25,-62.01171875,-22.4609375,9.765625,0.0
352.3671875,-34.1796875,-14.6484375,-34.1796875,9.765625,-29.78515625,0.0
352.37109375,-6.34765625,-3.90625,-6.34765625,-5.37109375,28.3203125,0.0
352.375,-13.671875,-2.9296875,-5.37109375,-61.03515625,-10.25390625,0.0
352.37890625,-39.0625,-10.7421875,-5.37109375,-44.921875,-27.34375,0.0
352.3828125,-66.89453125,-21.484375,-2.9296875,-35.15625,52.734375,0.0
352.38671875,-44.43359375,-25.390625,-7.8125,-15.625,-24.4140625,0.0
352.390625,-25.87890625,-18.5546875,-10.7421875,-5.37109375,-72.265625,0.0
352.39453125,-68.359375,-4.39453125,-18.5546875,-32.2265625,-110.83984375,0.0
352.3984375,-52.734375,-7.32421875,-19.04296875,-2.9296875,-137.20703125,0.0
352.40234375,18.5546875,-8.7890625,-35.15625,7.8125,-98.14453125,0.0
352.40625,-2.9296875,-2.9296875,-54.19921875,0.9765625,-109.375,0.0
352.41015625,-22.4609375,-2.9296875,-27.83203125,13.18359375,-201.66015625,0.0
352.4140625,-22.94921875,-5.37109375,-19.04296875,3.90625,-209.47265625,0.0
352.41796875,-40.52734375,-12.20703125,-36.62109375,-8.30078125,-57.6171875,0.0
352.421875,-26.3671875,-17.08984375,-27.34375,16.11328125,-1.46484375,0.0
352.42578125,-62.5,-14.16015625,-20.5078125,-14.6484375,17.08984375,0.0
352.4296875,-76.66015625,-9.27734375,-35.15625,-13.18359375,46.38671875,0.0
352.43359375,-51.7578125,-11.71875,-43.45703125,23.92578125,36.1328125,0.0
352.4375,-50.29296875,-32.71484375,-29.296875,17.08984375,-19.04296875,0.0
352.44140625,-37.109375,-21.97265625,-41.015625,9.27734375,-54.6875,0.0
352.4453125,-12.6953125,-8.7890625,-41.50390625,-10.7421875,-104.4921875,0.0
352.44921875,-46.38671875,-27.34375,-42.96875,-0.9765625,-115.234375,0.0
352.453125,-68.359375,-19.04296875,-54.6875,13.671875,-57.6171875,0.0
352.45703125,-47.36328125,-16.6015625,-37.109375,22.94921875,-6.8359375,0.0
352.4609375,-55.17578125,-31.25,-36.62109375,0.48828125,-20.99609375,0.0
352.46484375,-83.0078125,-20.99609375,-54.19921875,-36.62109375,22.4609375,0.0
352.46875,-120.1171875,-2.9296875,-43.45703125,-27.83203125,87.40234375,0.0
352.47265625,-123.046875,-0.48828125,-45.8984375,1.46484375,55.17578125,0.0
352.4765625,-82.03125,-4.8828125,-55.17578125,-13.671875,-17.578125,0.0
352.48046875,-71.2890625,-19.04296875,-50.78125,2.9296875,-40.0390625,0.0
352.484375,-90.33203125,-17.08984375,-39.0625,0.9765625,1.46484375,0.0
352.48828125,-94.23828125,-20.01953125,-39.55078125,-51.26953125,-2.9296875,0.0
352.4921875,-65.4296875,-32.71484375,-46.875,-42.96875,-28.3203125,0.0
352.49609375,-62.01171875,-30.2734375,-28.80859375,-9.765625,-83.49609375,0.0
352.5,-63.96484375,-18.5546875,-29.78515625,-8.7890625,-112.3046875,0.0
352.50390625,-71.2890625,-16.6015625,-49.31640625,-16.6015625,-24.90234375,0.0
352.5078125,-55.17578125,-3.41796875,-54.19921875,-17.08984375,-1.953125,0.0
352.51171875,-54.19921875,-8.7890625,-60.546875,-17.578125,-66.40625,0.0
352.515625,-81.0546875,-17.578125,-52.734375,-19.04296875,-47.36328125,0.0
352.51953125,-67.87109375,-16.6015625,-50.78125,-17.08984375,-30.2734375,0.0
352.5234375,-62.98828125,-31.25,-56.640625,-37.109375,-32.71484375,0.0
352.52734375,-39.55078125,-25.87890625,-63.96484375,-41.015625,-60.546875,0.0
352.53125,12.6953125,-2.9296875,-63.96484375,-19.04296875,-119.62890625,0.0
352.53515625,-21.97265625,-5.859375,-74.70703125,-20.5078125,-97.16796875,0.0
352.5390625,-38.0859375,-28.3203125,-83.49609375,-9.765625,-12.6953125,0.0
352.54296875,-10.25390625,-21.484375,-62.5,-5.859375,-26.3671875,0.0
352.546875,-38.0859375,-14.6484375,-41.9921875,-49.31640625,-45.41015625,0.0
352.55078125,-34.1796875,-12.6953125,-39.55078125,-52.734375,16.11328125,0.0
352.5546875,-42.96875,-22.94921875,-43.45703125,0.0,-9.27734375,0.0
352.55859375,-65.91796875,-31.25,-44.921875,-7.8125,70.3125,0.0
352.5625,-72.75390625,-16.11328125,-44.43359375,-32.71484375,118.1640625,0.0
352.56640625,-51.26953125,-14.16015625,-40.52734375,5.859375,7.32421875,0.0
352.5703125,-17.578125,-3.90625,-36.1328125,29.296875,30.2734375,0.0
352.57421875,-16.11328125,-2.9296875,-59.08203125,-18.06640625,55.17578125,0.0
352.578125,-50.78125,-25.390625,-51.7578125,-69.3359375,19.04296875,0.0
352.58203125,-71.2890625,-30.76171875,-38.0859375,-63.4765625,-43.9453125,0.0
352.5859375,-29.78515625,-29.78515625,-56.640625,-46.875,-119.62890625,0.0
352.58984375,-19.04296875,-26.3671875,-54.19921875,-32.71484375,-120.60546875,0.0
352.59375,-50.78125,-13.671875,-48.828125,-14.16015625,-77.1484375,0.0
352.59765625,-24.4140625,-20.5078125,-53.7109375,-6.8359375,-41.50390625,0.0
352.6015625,-12.20703125,-31.25,-57.6171875,-10.7421875,-21.484375,0.0
352.60546875,-56.640625,-34.66796875,-46.38671875,-11.71875,8.30078125,0.0
352.609375,-54.6875,-36.62109375,-37.59765625,-27.34375,-49.31640625,0.0
352.61328125,-64.453125,-40.0390625,-46.875,-58.10546875,-154.78515625,0.0
352.6171875,-73.2421875,-26.85546875,-47.8515625,-60.546875,-194.3359375,0.0
352.62109375,-37.109375,-20.5078125,-49.31640625,-20.99609375,-120.1171875,0.0
352.625,-45.8984375,-16.6015625,-55.6640625,-43.9453125,-63.96484375,0.0
352.62890625,-48.828125,-15.13671875,-63.96484375,-49.8046875,-96.6796875,0.0
352.6328125,-29.296875,-29.296875,-55.17578125,-45.8984375,-69.3359375,0.0
352.63671875,-33.203125,-29.78515625,-24.90234375,-48.33984375,-20.01953125,0.0
352.640625,-74.70703125,-22.94921875,-19.04296875,-51.7578125,-43.9453125,0.0
352.64453125,-96.19140625,-36.1328125,-16.6015625,-36.62109375,-2.44140625,0.0
352.6484375,-72.75390625,-41.50390625,-18.5546875,-21.484375,56.640625,0.0
352.65234375,-68.84765625,-32.71484375,-47.8515625,-17.578125,-10.25390625,0.0
352.65625,-62.01171875,-19.53125,-44.921875,-12.6953125,-99.12109375,0.0
352.66015625,-37.109375,-5.37109375,-44.921875,-42.48046875,-156.25,0.0
352.6640625,-50.78125,-9.765625,-68.84765625,-27.34375,-52.24609375,0.0
352.66796875,-29.78515625,-18.5546875,-58.10546875,7.8125,21.97265625,0.0
352.671875,8.7890625,-18.06640625,-54.6875,24.90234375,27.34375,0.0
352.67578125,-37.109375,-39.55078125,-46.875,24.4140625,4.39453125,0.0
352.6796875,-83.49609375,-48.33984375,-24.4140625,4.39453125,-38.57421875,0.0
352.68359375,-80.078125,-26.85546875,-20.5078125,-1.953125,-52.24609375,0.0
352.6875,-69.3359375,-16.6015625,-0.9765625,-17.08984375,-0.9765625,0.0
352.69140625,-65.4296875,-15.625,-10.25390625,-31.25,16.6015625,0.0
352.6953125,-66.40625,-22.94921875,-29.296875,-23.4375,-41.015625,0.0
352.69921875,-64.453125,-19.53125,-15.13671875,-28.3203125,19.04296875,0.0
352.703125,-77.63671875,-12.6953125,-10.25390625,-26.3671875,62.98828125,0.0
352.70703125,-53.7109375,-14.6484375,-6.8359375,-28.3203125,19.04296875,0.0
352.7109375,-53.22265625,-18.5546875,-8.7890625,-28.3203125,-18.5546875,0.0
352.71484375,-57.12890625,-24.4140625,9.765625,-10.7421875,1.953125,0.0
352.71875,-3.90625,-29.296875,7.8125,-11.71875,-12.20703125,0.0
352.72265625,-31.25,-41.9921875,-33.203125,-47.36328125,-46.875,0.0
352.7265625,-62.5,-41.50390625,-43.9453125,-74.70703125,-135.25390625,0.0
352.73046875,-42.48046875,-30.76171875,-26.85546875,-61.5234375,-168.45703125,0.0
352.734375,-38.57421875,-14.6484375,-23.92578125,-47.36328125,-96.6796875,0.0
352.73828125,-46.875,-16.6015625,-43.45703125,-62.01171875,-15.625,0.0
352.7421875,-47.36328125,-21.97265625,-42.96875,-60.546875,-83.0078125,0.0
352.74609375,-46.38671875,-21.484375,-30.76171875,-58.59375,-97.16796875,0.0
352.75,-5.859375,-16.6015625,-21.97265625,-46.875,-40.0390625,0.0
352.75390625,0.9765625,-19.04296875,-21.484375,-53.22265625,-63.96484375,0.0
352.7578125,-18.06640625,-20.5078125,-30.2734375,-43.45703125,4.39453125,0.0
352.76171875,-27.83203125,-20.5078125,-30.2734375,-16.6015625,16.6015625,0.0
352.765625,-40.0390625,-31.25,-5.37109375,-22.94921875,-34.1796875,0.0
352.76953125,-35.15625,-28.80859375,-3.90625,-38.0859375,-26.85546875,0.0
352.7734375,-18.5546875,-10.25390625,-23.92578125,-40.52734375,-34.1796875,0.0
352.77734375,-22.4609375,-17.08984375,-19.53125,-40.52734375,-41.9921875,0.0
352.78125,-11.23046875,-31.25,-15.13671875,-36.62109375,-42.96875,0.0
352.78515625,12.20703125,-16.6015625,-17.578125,-15.625,-37.59765625,0.0
352.7890625,26.3671875,-8.7890625,-28.3203125,12.20703125,-25.390625,0.0
352.79296875,31.25,-15.625,-14.6484375,16.6015625,-22.94921875,0.0
352.796875,-8.7890625,-26.3671875,-2.9296875,-23.4375,1.953125,0.0
352.80078125,-20.5078125,-21.484375,-17.08984375,-27.34375,1.953125,0.0
352.8046875,-12.20703125,-6.8359375,-19.04296875,-22.94921875,28.80859375,0.0
352.80859375,-3.90625,-11.71875,0.48828125,-11.71875,48.33984375,0.0
352.8125,21.484375,-21.97265625,4.39453125,7.32421875,66.89453125,0.0
352.81640625,33.203125,-17.08984375,11.71875,-36.1328125,44.921875,0.0
352.8203125,10.25390625,-29.296875,32.71484375,-42.96875,-34.66796875,0.0
352.82421875,-4.39453125,-41.50390625,18.5546875,-39.0625,-93.75,0.0
352.828125,7.8125,-26.85546875,3.41796875,-39.0625,12.6953125,0.0
352.83203125,-16.6015625,-16.6015625,4.8828125,-26.85546875,2.44140625,0.0
352.8359375,-37.59765625,-21.484375,-1.46484375,-29.78515625,-186.5234375,0.0
352.83984375,-22.94921875,-16.11328125,-7.32421875,-22.4609375,-186.5234375,0.0
352.84375,-31.25,-13.18359375,1.953125,-45.8984375,-171.875,0.0
352.84765625,-26.3671875,-25.87890625,8.7890625,-66.89453125,-168.45703125,0.0
352.8515625,-23.92578125,-37.109375,2.44140625,-60.546875,-101.07421875,0.0
352.85546875,-44.43359375,-25.87890625,4.8828125,-33.203125,6.8359375,0.0
352.859375,-46.38671875,-17.578125,6.8359375,-22.94921875,62.01171875,0.0
352.86328125,7.32421875,-17.578125,23.4375,-6.8359375,108.88671875,0.0
352.8671875,17.578125,-8.30078125,71.77734375,-29.78515625,58.59375,0.0
352.87109375,-17.08984375,-17.08984375,88.8671875,-47.8515625,20.99609375,0.0
352.875,7.8125,-24.90234375,117.67578125,-45.41015625,47.8515625,0.0
352.87890625,10.7421875,-22.94921875,190.91796875,-52.24609375,-54.19921875,0.0
352.8828125,-8.7890625,-39.0625,248.046875,9.765625,-39.55078125,0.0
352.88671875,-3.90625,-37.59765625,290.52734375,48.828125,-13.671875,0.0
352.890625,-14.6484375,-19.04296875,295.8984375,39.55078125,-30.2734375,0.0
352.89453125,-16.6015625,1.953125,288.57421875,21.484375,5.859375,0.0
352.8984375,-5.859375,1.46484375,322.75390625,1.46484375,-42.96875,0.0
352.90234375,2.9296875,-19.04296875,318.359375,3.41796875,-95.21484375,0.0
352.90625,13.671875,-20.99609375,289.55078125,5.37109375,-67.87109375,0.0
352.91015625,4.39453125,-18.06640625,291.015625,17.08984375,-17.08984375,0.0
352.9140625,-2.44140625,-15.625,314.94140625,37.59765625,98.6328125,0.0
352.91796875,3.41796875,-22.4609375,314.94140625,32.2265625,86.42578125,0.0
352.921875,-13.18359375,-36.62109375,299.31640625,43.9453125,-8.7890625,0.0
352.92578125,-28.80859375,-30.2734375,304.6875,38.0859375,-0.48828125,0.0
352.9296875,-31.25,-22.4609375,309.08203125,-15.625,-1.953125,0.0
352.93359375,-10.25390625,-20.01953125,329.58984375,-19.53125,-20.01953125,0.0
352.9375,24.90234375,-15.13671875,350.5859375,37.109375,-33.69140625,0.0
352.94140625,15.13671875,-20.5078125,348.14453125,29.78515625,-46.38671875,0.0
352.9453125,-34.1796875,-9.27734375,297.8515625,-15.13671875,-38.0859375,0.0
352.94921875,-37.59765625,-5.859375,256.8359375,-15.13671875,-53.7109375,0.0
352.953125,-28.80859375,-13.671875,248.046875,26.85546875,-87.40234375,0.0
352.95703125,-10.7421875,-23.92578125,247.0703125,35.64453125,-80.56640625,0.0
352.9609375,-22.94921875,-35.64453125,247.0703125,40.52734375,-90.33203125,0.0
352.96484375,8.30078125,-27.83203125,208.49609375,41.9921875,5.859375,0.0
352.96875,13.18359375,-33.69140625,175.78125,22.94921875,45.8984375,0.0
352.97265625,-40.0390625,-31.25,153.3203125,10.7421875,-47.8515625,0.0
352.9765625,-34.1796875,-22.94921875,121.09375,-20.01953125,-14.6484375,0.0
352.98046875,-7.32421875,-37.109375,100.09765625,-35.15625,85.44921875,0.0
352.984375,-3.41796875,-33.69140625,100.09765625,-24.4140625,28.80859375,0.0
352.98828125,-10.25390625,-15.625,84.9609375,-19.53125,-23.4375,0.0
352.9921875,-13.671875,-27.34375,72.75390625,10.25390625,-13.671875,0.0
352.99609375,8.30078125,-48.828125,84.9609375,39.55078125,-30.76171875,0.0
353.0,-23.4375,-31.25,60.546875,7.32421875,-89.84375,0.0
353.00390625,-45.41015625,-27.34375,56.15234375,-26.3671875,-23.4375,0.0
353.0078125,-32.71484375,-20.5078125,71.77734375,2.9296875,26.3671875,0.0
353.01171875,-37.109375,-3.41796875,63.96484375,-0.48828125,7.8125,0.0
353.015625,-5.859375,8.30078125,87.40234375,-23.4375,77.63671875,0.0
353.01953125,8.7890625,-0.48828125,103.515625,-27.83203125,34.1796875,0.0
353.0234375,-47.8515625,-21.97265625,93.26171875,-7.8125,-62.98828125,0.0
353.02734375,-67.87109375,-14.16015625,97.16796875,20.99609375,-110.3515625,0.0
353.03125,-68.359375,-16.11328125,143.06640625,-15.625,-92.28515625,0.0
353.03515625,-59.5703125,-36.1328125,185.05859375,-60.05859375,-17.08984375,0.0
353.0390625,-44.43359375,-22.4609375,187.5,-74.21875,8.7890625,0.0
353.04296875,-57.6171875,-1.46484375,176.26953125,-63.4765625,11.71875,0.0
353.046875,-44.43359375,-8.30078125,110.83984375,-53.7109375,-17.08984375,0.0
353.05078125,-35.15625,-2.9296875,46.38671875,-26.3671875,22.4609375,0.0
353.0546875,-33.203125,2.44140625,106.93359375,-12.20703125,41.9921875,0.0
353.05859375,-34.66796875,-14.6484375,184.5703125,-44.43359375,-87.40234375,0.0
353.0625,-41.50390625,-27.34375,274.4140625,-55.6640625,-153.3203125,0.0
353.06640625,-55.17578125,-30.76171875,419.921875,-41.015625,-157.71484375,0.0
353.0703125,-73.2421875,-20.01953125,457.03125,-62.98828125,-193.84765625,0.0
353.07421875,-83.984375,-12.6953125,432.6171875,-116.2109375,-127.9296875,0.0
353.078125,-80.078125,-26.85546875,395.5078125,-132.32421875,2.44140625,0.0
353.08203125,-44.43359375,-16.6015625,361.328125,-136.71875,7.8125,0.0
353.0859375,-47.8515625,5.37109375,357.421875,-130.37109375,-7.32421875,0.0
353.08984375,-95.21484375,-21.484375,324.70703125,-112.79296875,-35.64453125,0.0
353.09375,-96.19140625,-41.50390625,310.05859375,-103.515625,-24.4140625,0.0
353.09765625,-70.3125,-34.1796875,309.5703125,-88.37890625,52.24609375,0.0
353.1015625,-66.89453125,-30.2734375,283.69140625,-87.40234375,25.390625,0.0
353.10546875,-85.44921875,-20.5078125,262.6953125,-87.40234375,7.32421875,0.0
353.109375,-81.54296875,-15.625,250.0,-100.09765625,-0.9765625,0.0
353.11328125,-101.07421875,-20.01953125,235.83984375,-82.51953125,-23.92578125,0.0
353.1171875,-124.0234375,-16.11328125,211.9140625,-68.84765625,-27.34375,0.0
353.12109375,-95.21484375,-16.6015625,193.84765625,-80.078125,-55.6640625,0.0
353.125,-62.98828125,-18.5546875,176.26953125,-49.31640625,-38.0859375,0.0
353.12890625,-64.94140625,-26.85546875,167.48046875,10.7421875,-0.9765625,0.0
353.1328125,-72.265625,-28.3203125,162.59765625,-1.953125,-36.62109375,0.0
353.13671875,-57.12890625,-36.62109375,133.7890625,-9.27734375,-60.05859375,0.0
353.140625,-50.78125,-38.57421875,131.8359375,41.015625,-10.7421875,0.0
353.14453125,-40.52734375,-19.53125,124.51171875,47.8515625,14.6484375,0.0
353.1484375,-60.546875,-21.484375,104.4921875,37.109375,19.04296875,0.0
353.15234375,-77.63671875,-48.33984375,129.8828125,48.33984375,19.53125,0.0
353.15625,-56.15234375,-47.8515625,108.88671875,25.390625,-30.76171875,0.0
353.16015625,-50.78125,-33.203125,89.84375,27.34375,-52.734375,0.0
353.1640625,-49.8046875,-21.97265625,109.86328125,28.3203125,9.27734375,0.0
353.16796875,-40.52734375,-19.53125,89.35546875,20.99609375,64.453125,0.0
353.171875,-33.203125,-16.6015625,56.640625,14.6484375,21.97265625,0.0
353.17578125,18.5546875,-10.7421875,66.89453125,-5.859375,19.53125,0.0
353.1796875,22.94921875,-25.87890625,92.28515625,27.34375,29.296875,0.0
353.18359375,-9.27734375,-49.31640625,49.8046875,9.765625,-1.46484375,0.0
353.1875,-14.16015625,-43.9453125,18.06640625,3.90625,-37.59765625,0.0
353.19140625,-29.78515625,-44.43359375,58.10546875,21.97265625,-36.1328125,0.0
353.1953125,-6.8359375,-28.80859375,56.640625,2.44140625,-15.13671875,0.0
353.19921875,6.8359375,-10.7421875,28.80859375,4.39453125,-31.73828125,0.0
353.203125,-44.43359375,-26.85546875,44.43359375,16.11328125,-46.38671875,0.0
353.20703125,-58.59375,-29.78515625,54.6875,-14.6484375,-43.9453125,0.0
353.2109375,-15.625,-24.4140625,55.17578125,-20.01953125,-97.65625,0.0
353.21484375,-30.2734375,-41.50390625,34.1796875,9.27734375,-47.8515625,0.0
353.21875,-23.92578125,-40.0390625,9.765625,-5.859375,-28.80859375,0.0
353.22265625,-34.1796875,-15.625,13.671875,15.625,-17.578125,0.0
353.2265625,-31.25,-10.25390625,13.671875,36.62109375,-3.90625,0.0
353.23046875,-3.41796875,-16.11328125,15.13671875,15.625,-14.6484375,0.0
353.234375,-19.04296875,-18.5546875,18.5546875,5.37109375,14.16015625,0.0
353.23828125,-8.7890625,-25.390625,14.16015625,7.32421875,-28.80859375,0.0
353.2421875,19.53125,-18.06640625,20.99609375,-20.5078125,-10.7421875,0.0
353.24609375,24.4140625,-18.5546875,10.25390625,-0.48828125,31.25,0.0
353.25,-12.20703125,-23.92578125,-12.6953125,-1.46484375,8.7890625,0.0
353.25390625,-44.43359375,-18.5546875,-20.5078125,-43.9453125,-10.25390625,0.0
353.2578125,-22.94921875,-25.87890625,-8.7890625,-18.06640625,-33.69140625,0.0
353.26171875,1.953125,-36.62109375,8.7890625,-6.8359375,-86.42578125,0.0
353.265625,-26.85546875,-34.1796875,4.39453125,-53.7109375,-90.8203125,0.0
353.26953125,-16.11328125,-21.97265625,-15.625,-30.2734375,-77.63671875,0.0
353.2734375,29.78515625,-17.578125,-27.83203125,13.18359375,-123.53515625,0.0
353.27734375,25.390625,-33.203125,-19.53125,-12.6953125,-125.0,0.0
353.28125,25.87890625,-22.94921875,-7.32421875,-1.953125,-122.55859375,0.0
353.28515625,42.96875,-6.8359375,0.48828125,-27.34375,-71.77734375,0.0
353.2890625,25.390625,10.25390625,-2.44140625,-26.3671875,11.23046875,0.0
353.29296875,-2.44140625,6.8359375,-11.23046875,-9.765625,2.9296875,0.0
353.296875,-3.41796875,-26.3671875,-26.3671875,10.25390625,-41.50390625,0.0
353.30078125,-1.46484375,-38.0859375,-34.1796875,31.73828125,-18.06640625,0.0
353.3046875,-5.859375,-35.15625,-31.25,-22.94921875,8.30078125,0.0
353.30859375,-6.34765625,-33.69140625,-19.04296875,-11.23046875,-44.921875,0.0
353.3125,15.625,-34.66796875,-12.20703125,14.16015625,-83.49609375,0.0
353.31640625,21.97265625,-28.3203125,-29.78515625,-14.6484375,-28.3203125,0.0
353.3203125,21.97265625,-20.99609375,-12.20703125,12.20703125,28.3203125,0.0
353.32421875,45.8984375,-15.625,7.32421875,36.1328125,66.40625,0.0
353.328125,29.78515625,-22.94921875,-40.0390625,-6.34765625,111.328125,0.0
353.33203125,-19.04296875,-28.3203125,-66.40625,-20.99609375,42.48046875,0.0
353.3359375,2.44140625,-44.921875,-32.2265625,-6.34765625,62.01171875,0.0
353.33984375,37.109375,-39.55078125,-10.7421875,7.8125,52.24609375,0.0
353.34375,25.390625,-25.87890625,-25.390625,20.99609375,30.2734375,0.0
353.34765625,-4.8828125,-24.4140625,-31.25,-12.20703125,-13.671875,0.0
353.3515625,-12.20703125,-22.4609375,-37.59765625,-25.87890625,-81.54296875,0.0
353.35546875,-23.4375,-21.97265625,-20.5078125,19.04296875,-25.390625,0.0
353.359375,-6.8359375,-31.25,-21.484375,14.6484375,16.11328125,0.0
353.36328125,6.8359375,-34.1796875,-40.52734375,-0.9765625,-38.57421875,0.0
353.3671875,-18.5546875,-46.38671875,-17.578125,-2.44140625,-79.58984375,0.0
353.37109375,-37.109375,-54.19921875,-9.27734375,-22.94921875,-0.48828125,0.0
353.375,-28.80859375,-34.66796875,-17.578125,-63.96484375,11.71875,0.0
353.37890625,-8.30078125,-29.78515625,-26.85546875,-53.7109375,-12.20703125,0.0
353.3828125,-38.57421875,-26.85546875,-24.90234375,-30.76171875,-15.625,0.0
353.38671875,-51.26953125,-20.01953125,-21.97265625,-29.296875,-42.48046875,0.0
353.390625,-32.71484375,-30.76171875,-26.85546875,-34.1796875,-22.4609375,0.0
353.39453125,-4.8828125,-33.203125,-20.99609375,-47.8515625,-97.16796875,0.0
353.3984375,-7.8125,-19.04296875,-39.0625,-48.33984375,-127.9296875,0.0
353.40234375,-2.9296875,-26.3671875,-40.52734375,4.8828125,-70.3125,0.0
353.40625,13.18359375,-32.2265625,-16.11328125,0.48828125,-104.00390625,0.0
353.41015625,-3.41796875,-12.20703125,-16.6015625,-39.0625,-112.3046875,0.0
353.4140625,-6.8359375,-11.23046875,-36.1328125,-27.34375,-97.65625,0.0
353.41796875,13.671875,-11.71875,-31.25,-25.390625,-75.1953125,0.0
353.421875,0.48828125,-5.859375,-18.06640625,-20.01953125,-80.56640625,0.0
353.42578125,-28.3203125,-16.11328125,-36.62109375,-1.953125,-95.21484375,0.0
353.4296875,-11.71875,-23.4375,-42.48046875,-0.48828125,-69.3359375,0.0
353.43359375,-24.90234375,-17.08984375,-28.3203125,-35.15625,-41.9921875,0.0
353.4375,-0.9765625,-21.484375,-28.3203125,0.9765625,-33.203125,0.0
353.44140625,36.1328125,-27.83203125,-46.875,39.55078125,-45.41015625,0.0
353.4453125,12.6953125,-24.90234375,-47.36328125,-36.62109375,-46.875,0.0
353.44921875,-31.25,-28.3203125,-19.53125,-38.57421875,-40.52734375,0.0
353.453125,-74.21875,-31.25,-21.484375,-42.96875,48.828125,0.0
353.45703125,-50.29296875,-24.90234375,-29.296875,-23.92578125,43.45703125,0.0
353.4609375,-26.85546875,-30.2734375,-19.53125,-12.20703125,-10.25390625,0.0
353.46484375,-81.54296875,-33.203125,-29.296875,-65.4296875,-52.24609375,0.0
353.46875,-93.26171875,-37.59765625,-44.921875,-50.29296875,-25.87890625,0.0
353.47265625,-60.05859375,-53.22265625,-28.80859375,-49.8046875,84.9609375,0.0
353.4765625,-58.10546875,-38.57421875,-17.08984375,-58.10546875,57.12890625,0.0
353.48046875,-33.69140625,-20.99609375,-47.8515625,-37.109375,44.921875,0.0
353.484375,-15.625,-34.66796875,-43.9453125,-60.546875,76.66015625,0.0
353.48828125,-15.625,-37.59765625,-12.6953125,-80.078125,83.984375,0.0
353.4921875,-53.22265625,-32.71484375,-29.78515625,-93.26171875,75.1953125,0.0
353.49609375,-67.87109375,-33.69140625,-36.1328125,-71.77734375,40.0390625,0.0
353.5,-20.99609375,-17.08984375,-36.62109375,-4.8828125,24.90234375,0.0
353.50390625,-33.203125,-6.8359375,-29.296875,38.0859375,-15.625,0.0
353.5078125,-89.84375,-16.11328125,-31.25,-10.7421875,-25.390625,0.0
353.51171875,-77.63671875,-15.625,-50.29296875,-30.76171875,4.39453125,0.0
353.515625,-40.52734375,-19.53125,-57.12890625,0.0,-51.26953125,0.0
353.51953125,-63.96484375,-26.85546875,-45.8984375,-14.16015625,-77.63671875,0.0
353.5234375,-59.08203125,-14.16015625,-37.109375,-18.06640625,-11.23046875,0.0
353.52734375,-62.98828125,-20.99609375,-31.73828125,0.9765625,-46.875,0.0
353.53125,-79.1015625,-40.52734375,-15.625,14.16015625,-88.8671875,0.0
353.53515625,-74.21875,-16.6015625,-19.53125,-19.04296875,-2.44140625,0.0
353.5390625,-60.546875,0.48828125,-26.85546875,-8.30078125,40.52734375,0.0
353.54296875,-12.20703125,-9.765625,-27.83203125,27.83203125,-8.7890625,0.0
353.546875,-23.92578125,-16.11328125,-38.0859375,38.57421875,-42.48046875,0.0
353.55078125,-72.75390625,-15.625,-48.828125,24.90234375,-120.60546875,0.0
353.5546875,-48.33984375,-9.765625,-33.69140625,29.296875,-186.5234375,0.0
353.55859375,-27.34375,-16.11328125,-20.99609375,44.921875,-143.06640625,0.0
353.5625,-57.6171875,-20.99609375,-29.78515625,10.7421875,-105.46875,0.0
353.56640625,-61.5234375,-19.04296875,-23.4375,-25.390625,-77.63671875,0.0
353.5703125,-46.875,-18.06640625,-25.390625,-21.484375,-96.6796875,0.0
353.57421875,-41.9921875,-5.37109375,-36.62109375,-18.06640625,-83.984375,0.0
353.578125,-69.3359375,-4.39453125,-38.57421875,-36.1328125,-39.55078125,0.0
353.58203125,-70.80078125,-11.23046875,-41.50390625,-21.484375,-58.59375,0.0
353.5859375,-32.2265625,-7.32421875,-48.828125,-54.6875,-18.06640625,0.0
353.58984375,-33.69140625,-26.85546875,-50.29296875,-99.609375,44.921875,0.0
353.59375,-28.80859375,-25.390625,-33.203125,-65.4296875,27.34375,0.0
353.59765625,-12.6953125,-9.765625,-20.01953125,-2.44140625,27.34375,0.0
353.6015625,-2.44140625,-10.25390625,-16.11328125,-19.04296875,8.30078125,0.0
353.60546875,-3.41796875,-12.20703125,-23.92578125,-57.12890625,20.5078125,0.0
353.609375,-0.9765625,-32.2265625,-36.1328125,-21.484375,19.53125,0.0
353.61328125,-12.6953125,-20.01953125,-52.734375,-31.73828125,-12.20703125,0.0
353.6171875,-17.08984375,0.48828125,-36.1328125,-77.63671875,-27.34375,0.0
353.62109375,-3.90625,-9.27734375,-8.30078125,-59.08203125,-1.46484375,0.0
353.625,10.7421875,-15.625,-8.7890625,-63.4765625,-17.08984375,0.0
353.62890625,-29.78515625,-27.34375,-13.18359375,-87.890625,12.6953125,0.0
353.6328125,-24.90234375,-20.5078125,-36.62109375,-78.61328125,-15.13671875,0.0
353.63671875,-7.8125,-11.23046875,-57.6171875,-103.515625,-85.9375,0.0
353.640625,-29.78515625,-19.53125,-32.2265625,-99.12109375,-105.46875,0.0
353.64453125,-41.015625,-15.13671875,-22.4609375,-130.859375,-99.609375,0.0
353.6484375,-106.4453125,-23.4375,-50.29296875,-201.66015625,-50.29296875,0.0
353.65234375,-151.3671875,-55.17578125,-60.546875,-260.25390625,-75.68359375,0.0
353.65625,-155.2734375,-70.80078125,-45.8984375,-249.51171875,-98.14453125,0.0
353.66015625,-109.86328125,-58.10546875,-26.3671875,-192.87109375,-92.7734375,0.0
353.6640625,-133.30078125,-46.875,-47.8515625,-212.40234375,-82.03125,0.0
353.66796875,-154.78515625,-42.48046875,-50.29296875,-232.421875,-70.3125,0.0
353.671875,-132.32421875,-52.734375,-33.203125,-209.47265625,-10.25390625,0.0
353.67578125,-167.96875,-49.31640625,-62.01171875,-245.60546875,-14.6484375,0.0
353.6796875,-193.84765625,-31.73828125,-70.3125,-272.4609375,-75.68359375,0.0
353.68359375,-190.91796875,-17.578125,-73.73046875,-267.08984375,-19.04296875,0.0
353.6875,-199.70703125,-7.32421875,-69.3359375,-296.875,-6.34765625,0.0
353.69140625,-213.8671875,-14.6484375,-54.6875,-321.77734375,-22.4609375,0.0
353.6953125,-230.95703125,-14.6484375,-41.015625,-358.88671875,25.87890625,0.0
353.69921875,-229.00390625,9.765625,-12.20703125,-344.23828125,52.24609375,0.0
353.703125,-241.69921875,13.671875,-32.2265625,-338.37890625,62.01171875,0.0
353.70703125,-242.67578125,-4.8828125,-59.08203125,-344.23828125,15.625,0.0
353.7109375,-212.40234375,-9.765625,-57.12890625,-289.55078125,-24.90234375,0.0
353.71484375,-170.41015625,0.0,-47.8515625,-254.39453125,4.8828125,0.0
353.71875,-173.33984375,12.20703125,-42.48046875,-284.66796875,36.1328125,0.0
353.72265625,-152.83203125,16.11328125,-42.96875,-283.203125,-10.25390625,0.0
353.7265625,-62.01171875,12.6953125,-32.71484375,-248.046875,-59.08203125,0.0
353.73046875,-21.97265625,19.53125,-44.43359375,-194.82421875,28.80859375,0.0
353.734375,-11.23046875,29.296875,-63.4765625,-182.6171875,35.64453125,0.0
353.73828125,-36.1328125,9.27734375,-42.48046875,-154.296875,-19.04296875,0.0
353.7421875,-57.12890625,14.6484375,-37.109375,-151.85546875,15.625,0.0
353.74609375,-65.4296875,9.27734375,-41.50390625,-142.08984375,-19.04296875,0.0
353.75,-84.47265625,-3.41796875,-46.38671875,-152.83203125,-21.484375,0.0
353.75390625,-75.68359375,34.66796875,-53.22265625,-166.9921875,-15.13671875,0.0
353.7578125,-95.21484375,32.2265625,-47.8515625,-62.98828125,-64.94140625,0.0
353.76171875,-91.30859375,40.0390625,-46.875,14.6484375,-38.0859375,0.0
353.765625,-89.84375,45.8984375,-46.875,-47.36328125,-19.53125,0.0
353.76953125,-114.2578125,24.90234375,-44.43359375,-72.265625,-32.2265625,0.0
353.7734375,-104.4921875,19.04296875,-34.66796875,-13.671875,-34.66796875,0.0
353.77734375,-101.07421875,24.90234375,-59.5703125,14.6484375,-67.3828125,0.0
353.78125,-134.765625,27.34375,-64.94140625,9.765625,-112.79296875,0.0
353.78515625,-125.0,24.90234375,-64.453125,25.87890625,-96.19140625,0.0
353.7890625,-62.01171875,25.87890625,-72.75390625,62.5,6.8359375,0.0
353.79296875,-34.1796875,10.25390625,-46.875,61.03515625,64.453125,0.0
353.796875,-48.33984375,12.20703125,-44.43359375,23.92578125,31.73828125,0.0
353.80078125,-48.33984375,25.390625,-69.82421875,-4.39453125,73.2421875,0.0
353.8046875,-61.5234375,-5.37109375,-65.4296875,44.921875,86.9140625,0.0
353.80859375,-104.4921875,-31.73828125,-70.80078125,50.78125,7.8125,0.0
353.8125,-61.5234375,-20.5078125,-73.2421875,40.52734375,56.15234375,0.0
353.81640625,-40.0390625,-17.578125,-56.15234375,51.7578125,58.59375,0.0
353.8203125,-32.71484375,-16.6015625,-44.43359375,64.453125,26.3671875,0.0
353.82421875,48.828125,-8.30078125,-53.7109375,88.8671875,13.18359375,0.0
353.828125,9.765625,-32.2265625,-74.70703125,141.6015625,-28.3203125,0.0
353.83203125,22.4609375,-35.15625,-50.29296875,168.9453125,22.4609375,0.0
353.8359375,74.70703125,-9.27734375,-30.76171875,141.11328125,-36.62109375,0.0
353.83984375,40.0390625,-31.73828125,-46.875,106.4453125,-106.4453125,0.0
353.84375,54.19921875,-50.29296875,-65.4296875,88.8671875,-100.5859375,0.0
353.84765625,54.19921875,-53.7109375,-60.546875,20.5078125,-119.140625,0.0
353.8515625,28.80859375,-28.80859375,-70.80078125,-44.43359375,-73.73046875,0.0
353.85546875,27.83203125,3.41796875,-90.8203125,-41.015625,-50.78125,0.0
353.859375,52.734375,-4.8828125,-75.1953125,-25.390625,6.34765625,0.0
353.86328125,74.21875,-26.85546875,-48.33984375,-21.484375,21.97265625,0.0
353.8671875,152.34375,-17.578125,-59.5703125,-70.3125,-28.80859375,0.0
353.87109375,163.0859375,5.859375,-92.28515625,-57.12890625,-50.78125,0.0
353.875,196.2890625,-20.01953125,-54.6875,-57.12890625,-69.82421875,0.0
353.87890625,192.87109375,-55.6640625,-42.96875,-96.6796875,-10.7421875,0.0
353.8828125,161.62109375,-26.3671875,-88.37890625,-167.48046875,-32.2265625,0.0
353.88671875,208.49609375,-1.46484375,-80.56640625,-197.265625,-39.0625,0.0
353.890625,191.89453125,-26.3671875,-65.91796875,-188.4765625,-52.24609375,0.0
353.89453125,196.77734375,-44.921875,-61.03515625,-192.3828125,-70.80078125,0.0
353.8984375,189.453125,-34.1796875,-58.10546875,-140.13671875,-98.6328125,0.0
353.90234375,154.296875,-15.13671875,-64.94140625,-140.13671875,-54.19921875,0.0
353.90625,143.5546875,-30.2734375,-55.6640625,-156.73828125,17.08984375,0.0
353.91015625,118.1640625,-45.8984375,-51.26953125,-67.87109375,-21.484375,0.0
353.9140625,99.609375,-42.48046875,-59.5703125,-24.4140625,-54.19921875,0.0
353.91796875,85.44921875,-47.8515625,-90.8203125,-60.05859375,-41.50390625,0.0
353.921875,113.28125,-28.3203125,-80.078125,-21.484375,-33.203125,0.0
353.92578125,162.109375,-19.53125,-59.08203125,36.62109375,44.43359375,0.0
353.9296875,155.76171875,-31.73828125,-74.21875,-30.76171875,31.25,0.0
353.93359375,158.203125,-39.0625,-80.078125,-41.015625,-45.41015625,0.0
353.9375,187.01171875,-31.25,-62.01171875,-10.25390625,-2.44140625,0.0
353.94140625,114.74609375,-25.390625,-35.15625,-22.94921875,93.75,0.0
353.9453125,118.1640625,-35.15625,-51.26953125,-17.578125,111.328125,0.0
353.94921875,170.8984375,-41.50390625,-69.3359375,-44.921875,3.41796875,0.0
353.953125,114.2578125,-30.2734375,-42.96875,-85.9375,-11.71875,0.0
353.95703125,86.9140625,-37.109375,-43.9453125,-60.546875,6.8359375,0.0
353.9609375,131.8359375,-29.78515625,-58.59375,-58.59375,24.4140625,0.0
353.96484375,155.76171875,-10.25390625,-59.5703125,-42.48046875,19.53125,0.0
353.96875,145.01953125,-32.2265625,-65.4296875,-62.5,37.109375,0.0
353.97265625,126.46484375,-60.05859375,-40.52734375,-82.03125,54.6875,0.0
353.9765625,103.515625,-48.33984375,-10.25390625,-53.22265625,-23.92578125,0.0
353.98046875,94.23828125,-34.1796875,-23.4375,-54.6875,-61.5234375,0.0
353.984375,64.453125,-28.80859375,-38.0859375,-42.48046875,-17.578125,0.0
353.98828125,92.28515625,-26.85546875,-27.34375,13.18359375,11.71875,0.0
353.9921875,137.6953125,-32.2265625,-26.3671875,18.5546875,3.90625,0.0
353.99609375,135.7421875,-38.0859375,-31.25,-17.08984375,-70.80078125,0.0
354.0,137.20703125,-26.3671875,-32.2265625,-42.48046875,-50.78125,0.0
354.00390625,109.86328125,-24.90234375,-38.57421875,-2.44140625,-132.8125,0.0
354.0078125,116.2109375,-32.71484375,-32.2265625,33.203125,-155.76171875,0.0
354.01171875,146.97265625,-20.01953125,-32.2265625,21.484375,-47.8515625,0.0
354.015625,117.1875,-20.01953125,-41.50390625,23.92578125,-54.6875,0.0
354.01953125,65.4296875,-48.33984375,-42.96875,30.76171875,-85.44921875,0.0
354.0234375,65.91796875,-37.59765625,-35.64453125,28.3203125,-77.1484375,0.0
354.02734375,37.59765625,-35.64453125,-22.4609375,29.78515625,34.66796875,0.0
354.03125,3.90625,-59.08203125,-12.6953125,52.734375,67.87109375,0.0
354.03515625,75.1953125,-44.921875,-20.01953125,86.42578125,37.109375,0.0
354.0390625,106.4453125,-24.4140625,-33.203125,62.01171875,-0.9765625,0.0
354.04296875,90.33203125,-29.78515625,-35.64453125,22.4609375,-32.71484375,0.0
354.046875,92.7734375,-43.45703125,-36.1328125,42.96875,-80.078125,0.0
354.05078125,80.078125,-39.55078125,-26.85546875,52.24609375,-114.74609375,0.0
354.0546875,84.9609375,-42.48046875,-28.80859375,81.0546875,-106.4453125,0.0
354.05859375,24.4140625,-42.48046875,-38.57421875,101.5625,-67.3828125,0.0
354.0625,-41.50390625,-40.52734375,-32.71484375,86.9140625,-118.1640625,0.0
354.06640625,-19.53125,-52.734375,-37.59765625,78.125,-231.4453125,0.0
354.0703125,-22.94921875,-47.8515625,-38.0859375,104.00390625,-174.8046875,0.0
354.07421875,-74.21875,-21.97265625,-41.015625,98.6328125,-144.53125,0.0
354.078125,-60.05859375,-23.92578125,-47.8515625,102.05078125,-42.48046875,0.0
354.08203125,-37.59765625,20.01953125,-41.50390625,118.1640625,90.33203125,0.0
354.0859375,-92.28515625,23.92578125,-40.52734375,98.6328125,31.25,0.0
354.08984375,-119.140625,-98.6328125,6.8359375,145.99609375,16.6015625,0.0
354.09375,-130.37109375,-65.91796875,-5.859375,177.24609375,32.2265625,0.0
354.09765625,-107.91015625,-25.390625,-52.734375,152.34375,-16.11328125,0.0
354.1015625,-122.0703125,2.9296875,-52.734375,159.66796875,-73.73046875,0.0
354.10546875,-127.44140625,39.0625,-33.203125,200.1953125,-9.27734375,0.0
354.109375,-117.67578125,-59.5703125,-23.4375,209.9609375,-4.8828125,0.0
354.11328125,-175.78125,-27.34375,-50.78125,140.625,-41.50390625,0.0
354.1171875,-184.5703125,20.01953125,-59.08203125,125.0,-84.9609375,0.0
354.12109375,-175.29296875,-51.26953125,-23.92578125,165.0390625,-125.9765625,0.0
354.125,-124.0234375,-90.8203125,-14.16015625,166.9921875,-124.51171875,0.0
354.12890625,-125.9765625,-79.1015625,-21.484375,170.8984375,-73.2421875,0.0
354.1328125,-196.2890625,-5.859375,-40.52734375,158.203125,2.44140625,0.0
354.13671875,-183.59375,-21.97265625,-302.734375,120.60546875,-15.13671875,0.0
354.140625,-177.24609375,-56.640625,-563.96484375,171.38671875,-35.15625,0.0
354.14453125,-179.6875,-26.3671875,-648.4375,122.55859375,8.7890625,0.0
354.1484375,-95.21484375,-41.015625,-706.54296875,78.125,-3.90625,0.0
354.15234375,-149.4140625,-19.04296875,-728.515625,127.44140625,-64.453125,0.0
354.15625,-182.6171875,-13.18359375,-708.49609375,136.71875,0.0,0.0
354.16015625,-149.90234375,-19.04296875,-688.4765625,98.6328125,22.4609375,0.0
354.1640625,-198.2421875,-10.25390625,-675.29296875,73.73046875,-53.7109375,0.0
354.16796875,-221.6796875,-34.1796875,-647.4609375,51.26953125,-45.41015625,0.0
354.171875,-180.6640625,-78.125,-606.93359375,70.3125,-5.859375,0.0
354.17578125,-177.24609375,-40.0390625,-587.40234375,36.62109375,-6.34765625,0.0
354.1796875,-156.73828125,-0.9765625,-597.65625,-38.0859375,0.48828125,0.0
354.18359375,-157.71484375,-45.8984375,-563.4765625,-2.9296875,8.7890625,0.0
354.1875,-168.9453125,-23.4375,-538.0859375,34.66796875,-3.41796875,0.0
354.19140625,-119.62890625,31.25,-537.109375,-41.9921875,27.83203125,0.0
354.1953125,-114.74609375,-14.6484375,-520.01953125,-46.875,6.34765625,0.0
354.19921875,-107.91015625,-44.43359375,-511.71875,-22.94921875,-33.203125,0.0
354.203125,-103.02734375,-27.83203125,-498.53515625,-67.3828125,-39.55078125,0.0
354.20703125,-66.89453125,-2.9296875,-477.5390625,-98.6328125,-39.0625,0.0
354.2109375,-25.87890625,-46.38671875,-433.59375,-33.203125,-58.59375,0.0
354.21484375,-28.80859375,-48.33984375,-410.15625,-19.04296875,-116.69921875,0.0
354.21875,53.22265625,-29.296875,-402.83203125,-64.453125,-104.00390625,0.0
354.22265625,36.62109375,-25.390625,-407.2265625,-120.1171875,-14.16015625,0.0
354.2265625,37.59765625,-29.78515625,-394.53125,-134.27734375,-53.7109375,0.0
354.23046875,123.53515625,-55.6640625,-355.95703125,-129.8828125,-41.9921875,0.0
354.234375,133.7890625,-66.40625,-324.70703125,-179.19921875,46.875,0.0
354.23828125,161.62109375,-46.875,-310.05859375,-229.98046875,22.94921875,0.0
354.2421875,148.4375,-24.90234375,-291.015625,-220.703125,-27.34375,0.0
354.24609375,108.3984375,-34.1796875,-266.11328125,-212.40234375,-21.484375,0.0
354.25,97.16796875,-42.96875,-264.16015625,-218.26171875,41.50390625,0.0
354.25390625,38.0859375,-40.0390625,-239.2578125,-214.84375,78.125,0.0
354.2578125,-5.859375,-40.52734375,-193.359375,-170.8984375,20.01953125,0.0
354.26171875,33.203125,-55.6640625,-171.38671875,-144.53125,-41.015625,0.0
354.265625,43.45703125,-33.203125,-192.87109375,-173.33984375,-51.26953125,0.0
354.26953125,27.34375,-23.92578125,-208.49609375,-165.0390625,-62.5,0.0
354.2734375,13.671875,-35.64453125,-202.63671875,-132.32421875,-76.66015625,0.0
354.27734375,6.8359375,-49.31640625,-174.31640625,-101.07421875,-58.10546875,0.0
354.28125,-31.73828125,-71.77734375,-128.41796875,-94.23828125,-32.71484375,0.0
354.28515625,-34.1796875,-33.69140625,-126.953125,-125.48828125,-81.0546875,0.0
354.2890625,34.1796875,-40.52734375,-144.04296875,-139.6484375,-60.05859375,0.0
354.29296875,25.390625,-48.33984375,-154.78515625,-155.76171875,-84.9609375,0.0
354.296875,47.36328125,-37.59765625,-144.04296875,-162.109375,-96.19140625,0.0
354.30078125,14.6484375,-59.08203125,-129.8828125,-215.8203125,-46.38671875,0.0
354.3046875,-21.484375,-53.7109375,-132.32421875,-207.51953125,-28.80859375,0.0
354.30859375,34.66796875,-40.52734375,-116.2109375,-138.671875,-45.41015625,0.0
354.3125,42.48046875,-35.15625,-89.35546875,-106.93359375,-80.56640625,0.0
354.31640625,17.08984375,9.27734375,-88.8671875,-130.859375,-11.71875,0.0
354.3203125,13.671875,-15.625,-96.19140625,-121.58203125,46.875,0.0
354.32421875,0.0,-55.6640625,-69.3359375,-113.28125,-47.36328125,0.0
354.328125,18.5546875,-25.390625,-35.64453125,-106.93359375,-150.87890625,0.0
354.33203125,89.84375,-45.8984375,-53.22265625,-58.10546875,-111.81640625,0.0
354.3359375,96.19140625,-45.8984375,-70.80078125,-115.234375,-80.56640625,0.0
354.33984375,83.49609375,-27.34375,-80.56640625,-154.296875,-37.109375,0.0
354.34375,68.84765625,-37.109375,-99.12109375,-141.6015625,4.39453125,0.0
354.34765625,54.6875,-14.6484375,-98.6328125,-167.96875,-20.5078125,0.0
354.3515625,111.328125,-40.52734375,-68.359375,-153.80859375,-44.921875,0.0
354.35546875,147.94921875,-74.21875,-73.2421875,-178.22265625,6.34765625,0.0
354.359375,191.40625,-11.71875,-102.5390625,-218.26171875,65.91796875,0.0
354.36328125,328.125,-25.390625,-94.23828125,-219.7265625,102.05078125,0.0
354.3671875,319.82421875,-43.9453125,-99.12109375,-295.41015625,88.8671875,0.0
354.37109375,314.94140625,-52.24609375,-108.3984375,-354.98046875,93.26171875,0.0
354.375,374.51171875,-43.9453125,-101.5625,-333.49609375,83.0078125,0.0
354.37890625,361.81640625,-77.63671875,-84.9609375,-312.98828125,-38.57421875,0.0
354.3828125,294.43359375,-47.36328125,-75.68359375,-318.359375,-28.3203125,0.0
354.38671875,318.359375,-37.109375,-84.9609375,-333.49609375,23.92578125,0.0
354.390625,310.546875,-77.1484375,-97.16796875,-353.515625,57.12890625,0.0
354.39453125,289.55078125,-42.96875,-97.16796875,-322.265625,23.92578125,0.0
354.3984375,353.02734375,-67.87109375,-87.40234375,-305.6640625,-87.40234375,0.0
354.40234375,474.609375,-80.078125,-79.1015625,-286.1328125,-70.3125,0.0
354.40625,506.8359375,-45.41015625,-87.40234375,-294.921875,-30.2734375,0.0
354.41015625,500.0,-60.546875,-95.21484375,-307.12890625,-41.9921875,0.0
354.4140625,481.93359375,-79.1015625,-91.796875,-259.27734375,-46.38671875,0.0
354.41796875,438.4765625,-28.80859375,-88.8671875,-248.53515625,-41.9921875,0.0
354.421875,439.94140625,11.71875,-94.7265625,-297.8515625,-11.23046875,0.0
354.42578125,408.69140625,-9.765625,-69.3359375,-268.06640625,6.8359375,0.0
354.4296875,420.8984375,-43.9453125,-35.64453125,-179.19921875,-19.04296875,0.0
354.43359375,404.296875,-14.16015625,-37.109375,-147.4609375,-29.78515625,0.0
354.4375,364.74609375,-1.953125,-43.9453125,-139.6484375,-1.46484375,0.0
354.44140625,367.67578125,-34.1796875,-30.76171875,-99.12109375,20.5078125,0.0
354.4453125,370.1171875,-23.4375,-30.2734375,-94.7265625,40.0390625,0.0
354.44921875,344.7265625,-4.39453125,-41.50390625,-89.84375,6.8359375,0.0
354.453125,317.87109375,20.99609375,-56.640625,-112.79296875,-89.35546875,0.0
354.45703125,324.70703125,27.83203125,-59.5703125,-113.76953125,-68.359375,0.0
354.4609375,286.62109375,13.671875,-51.26953125,-96.19140625,-68.84765625,0.0
354.46484375,230.46875,-15.625,-48.33984375,-111.328125,-63.96484375,0.0
354.46875,206.0546875,-27.34375,-35.64453125,-85.44921875,-1.46484375,0.0
354.47265625,202.63671875,-15.13671875,-22.94921875,-61.5234375,38.57421875,0.0
354.4765625,230.46875,0.0,-18.5546875,-41.9921875,34.1796875,0.0
354.48046875,224.12109375,16.6015625,-30.2734375,-16.11328125,-11.23046875,0.0
354.484375,208.49609375,10.25390625,-54.6875,-54.19921875,-23.92578125,0.0
354.48828125,272.94921875,-20.5078125,-59.5703125,-47.8515625,1.46484375,0.0
354.4921875,253.41796875,13.671875,-78.125,-46.875,21.484375,0.0
354.49609375,162.59765625,-5.37109375,-81.54296875,-47.36328125,-33.69140625,0.0
354.5,163.57421875,0.9765625,-68.84765625,-31.73828125,-89.84375,0.0
354.50390625,203.61328125,23.92578125,-66.40625,-31.25,-51.7578125,0.0
354.5078125,210.44921875,-35.15625,-83.984375,-48.828125,7.32421875,0.0
354.51171875,227.5390625,-40.52734375,-96.19140625,-69.3359375,-36.62109375,0.0
354.515625,237.79296875,-10.7421875,-58.10546875,-15.625,-99.609375,0.0
354.51953125,228.515625,-7.32421875,-55.17578125,-29.296875,-66.40625,0.0
354.5234375,206.54296875,-25.390625,-71.77734375,-51.7578125,-33.69140625,0.0
354.52734375,149.90234375,-34.1796875,-57.6171875,-17.08984375,-73.73046875,0.0
354.53125,103.02734375,-29.296875,-56.15234375,-47.36328125,-60.546875,0.0
354.53515625,140.625,-32.71484375,-52.24609375,-53.7109375,-100.5859375,0.0
354.5390625,165.52734375,-39.0625,-62.98828125,-36.62109375,-102.05078125,0.0
354.54296875,166.50390625,-35.64453125,-71.77734375,-51.26953125,-43.9453125,0.0
354.546875,175.29296875,-5.859375,-54.19921875,-26.3671875,-54.19921875,0.0
354.55078125,145.99609375,29.78515625,-86.42578125,-60.546875,-44.43359375,0.0
354.5546875,125.9765625,-34.66796875,-87.40234375,-43.9453125,-7.32421875,0.0
354.55859375,128.90625,-20.99609375,-67.3828125,-3.90625,26.3671875,0.0
354.5625,125.0,-0.48828125,-64.94140625,-9.27734375,-52.24609375,0.0
354.56640625,175.78125,-81.54296875,-50.78125,56.15234375,-130.37109375,0.0
354.5703125,99.609375,-58.10546875,-57.12890625,61.03515625,-101.07421875,0.0
354.57421875,94.7265625,-47.8515625,-56.640625,5.37109375,-105.95703125,0.0
354.578125,173.33984375,-62.5,-51.26953125,19.53125,-103.02734375,0.0
354.58203125,148.4375,-34.66796875,-53.7109375,34.66796875,-36.62109375,0.0
354.5859375,138.18359375,-24.90234375,-49.31640625,27.34375,-78.61328125,0.0
354.58984375,120.1171875,-18.5546875,-34.66796875,24.90234375,-151.85546875,0.0
354.59375,96.6796875,-14.6484375,-26.3671875,26.85546875,-93.26171875,0.0
354.59765625,116.69921875,-40.52734375,-31.73828125,43.45703125,-2.44140625,0.0
354.6015625,88.8671875,-53.7109375,-26.85546875,42.48046875,-27.34375,0.0
354.60546875,71.77734375,-41.9921875,-42.48046875,26.3671875,-85.9375,0.0
354.609375,63.4765625,-38.57421875,-58.10546875,27.34375,-93.75,0.0
354.61328125,16.6015625,-67.3828125,-55.17578125,-4.8828125,-99.609375,0.0
354.6171875,24.4140625,-44.43359375,-55.6640625,-12.20703125,-42.96875,0.0
354.62109375,88.37890625,-53.7109375,-60.546875,-9.765625,51.26953125,0.0
354.625,87.40234375,-53.22265625,-66.40625,-14.6484375,27.34375,0.0
354.62890625,93.26171875,-25.390625,-59.08203125,-12.6953125,-26.3671875,0.0
354.6328125,91.30859375,-51.26953125,-40.0390625,-11.23046875,-98.6328125,0.0
354.63671875,61.03515625,-60.05859375,-47.8515625,-5.37109375,-86.42578125,0.0
354.640625,87.40234375,-41.50390625,-51.7578125,32.2265625,-60.546875,0.0
354.64453125,101.07421875,-47.36328125,-45.41015625,19.04296875,-3.41796875,0.0
354.6484375,119.62890625,-41.015625,-58.10546875,33.69140625,14.6484375,0.0
354.65234375,115.72265625,-39.0625,-60.05859375,43.9453125,-48.33984375,0.0
354.65625,77.1484375,-41.015625,-56.15234375,-9.765625,-4.8828125,0.0
354.66015625,86.42578125,-41.50390625,-56.15234375,15.625,9.27734375,0.0
354.6640625,92.28515625,-41.50390625,-50.29296875,32.71484375,-8.30078125,0.0
354.66796875,31.25,-44.921875,-42.48046875,20.99609375,-24.90234375,0.0
354.671875,9.27734375,-43.9453125,-32.71484375,20.99609375,-60.546875,0.0
354.67578125,100.09765625,-23.92578125,-32.2265625,34.66796875,-51.26953125,0.0
354.6796875,20.99609375,-14.6484375,-27.34375,30.2734375,-59.5703125,0.0
354.68359375,33.69140625,-44.43359375,-8.7890625,32.71484375,-118.1640625,0.0
354.6875,68.359375,-67.3828125,-15.13671875,22.4609375,-99.12109375,0.0
354.69140625,26.3671875,-49.8046875,-25.390625,18.06640625,-11.23046875,0.0
354.6953125,12.6953125,-49.8046875,-21.484375,28.80859375,38.0859375,0.0
354.69921875,29.296875,-40.0390625,-41.50390625,48.828125,11.71875,0.0
354.703125,102.05078125,-26.85546875,-55.17578125,17.578125,-15.13671875,0.0
354.70703125,102.5390625,-38.0859375,-42.96875,5.37109375,-17.578125,0.0
354.7109375,24.90234375,-26.3671875,-10.7421875,29.296875,-12.6953125,0.0
354.71484375,-2.9296875,-44.921875,-22.94921875,19.53125,23.4375,0.0
354.71875,15.625,-62.01171875,-47.8515625,-5.859375,1.953125,0.0
354.72265625,29.78515625,-55.6640625,-43.45703125,-16.6015625,53.7109375,0.0
354.7265625,32.2265625,-58.59375,-34.1796875,11.71875,81.54296875,0.0
354.73046875,20.01953125,-53.7109375,-38.0859375,7.32421875,41.50390625,0.0
354.734375,21.484375,-39.0625,-40.52734375,-28.80859375,11.71875,0.0
354.73828125,73.73046875,-45.8984375,-9.765625,4.8828125,29.296875,0.0
354.7421875,92.7734375,-49.31640625,9.27734375,5.859375,20.01953125,0.0
354.74609375,3.90625,-41.015625,-3.90625,-26.3671875,6.34765625,0.0
354.75,-2.44140625,-51.26953125,-13.18359375,-7.8125,37.59765625,0.0
354.75390625,4.8828125,-57.6171875,1.953125,30.76171875,-97.65625,0.0
354.7578125,11.23046875,-33.69140625,20.99609375,63.96484375,-86.42578125,0.0
354.76171875,29.78515625,-24.90234375,13.671875,78.61328125,2.9296875,0.0
354.765625,20.5078125,-30.2734375,2.9296875,-26.3671875,27.34375,0.0
354.76953125,48.33984375,-23.4375,-2.44140625,-73.73046875,40.52734375,0.0
354.7734375,47.36328125,-24.90234375,-17.08984375,-5.859375,10.7421875,0.0
354.77734375,40.0390625,-47.36328125,-48.828125,-16.6015625,19.04296875,0.0
354.78125,4.39453125,-46.875,-65.4296875,-49.31640625,59.5703125,0.0
354.78515625,-5.859375,-62.01171875,-77.1484375,-72.75390625,56.15234375,0.0
354.7890625,48.33984375,-78.125,-88.8671875,-48.33984375,-44.921875,0.0
354.79296875,16.11328125,-72.265625,-71.2890625,-20.99609375,-84.47265625,0.0
354.796875,-49.31640625,-62.01171875,-58.10546875,-83.0078125,6.34765625,0.0
354.80078125,-1.46484375,-45.8984375,-57.6171875,-57.12890625,39.55078125,0.0
354.8046875,23.92578125,-36.62109375,-62.98828125,-44.43359375,10.7421875,0.0
354.80859375,19.53125,-39.0625,-66.40625,-83.49609375,7.32421875,0.0
354.8125,41.9921875,-41.9921875,-70.3125,-148.4375,-47.8515625,0.0
354.81640625,6.8359375,-50.29296875,-76.171875,-210.9375,-72.75390625,0.0
354.8203125,-12.20703125,-70.3125,-75.68359375,-236.81640625,9.27734375,0.0
354.82421875,19.53125,-73.2421875,-70.80078125,-233.88671875,78.61328125,0.0
354.828125,67.87109375,-63.4765625,-73.2421875,-244.62890625,-39.55078125,0.0
354.83203125,6.8359375,-67.3828125,-86.42578125,-274.90234375,-144.04296875,0.0
354.8359375,-15.625,-59.5703125,-76.66015625,-250.0,-192.87109375,0.0
354.83984375,24.90234375,-56.640625,-52.734375,-212.890625,-188.4765625,0.0
354.84375,13.671875,-68.359375,-48.828125,-212.890625,-116.69921875,0.0
354.84765625,-21.97265625,-54.19921875,-48.33984375,-218.26171875,-184.5703125,0.0
354.8515625,-25.390625,-33.69140625,-34.1796875,-190.4296875,-190.91796875,0.0
354.85546875,16.11328125,-31.25,-23.4375,-171.875,-143.06640625,0.0
354.859375,11.71875,-27.34375,-10.7421875,-166.9921875,-183.59375,0.0
354.86328125,22.94921875,-20.5078125,-11.71875,-172.8515625,-159.66796875,0.0
354.8671875,25.390625,-17.578125,-13.671875,-169.43359375,-119.62890625,0.0
354.87109375,26.3671875,-20.5078125,-4.39453125,-105.95703125,-7.32421875,0.0
354.875,36.62109375,-36.62109375,-12.20703125,-117.67578125,132.32421875,0.0
354.87890625,20.5078125,-33.69140625,-14.6484375,-148.92578125,62.01171875,0.0
354.8828125,-67.3828125,-35.15625,-2.9296875,-124.51171875,-17.578125,0.0
354.88671875,-97.16796875,-36.62109375,-14.16015625,-164.55078125,39.55078125,0.0
354.890625,-62.01171875,-28.3203125,-44.43359375,-177.734375,60.546875,0.0
354.89453125,-45.41015625,-52.24609375,-43.45703125,-156.25,13.18359375,0.0
354.8984375,-37.59765625,-61.03515625,-35.64453125,-137.6953125,-2.44140625,0.0
354.90234375,39.0625,-60.05859375,-33.69140625,-133.7890625,69.82421875,0.0
354.90625,31.25,-45.8984375,-24.90234375,-85.44921875,45.8984375,0.0
354.91015625,-81.0546875,-26.85546875,-23.4375,-132.8125,-62.01171875,0.0
354.9140625,-20.01953125,-45.8984375,-5.859375,-141.11328125,-44.43359375,0.0
354.91796875,34.1796875,-55.17578125,-8.7890625,-122.55859375,-20.5078125,0.0
354.921875,0.48828125,-62.01171875,-48.828125,-182.12890625,0.9765625,0.0
354.92578125,-12.20703125,-57.12890625,-44.43359375,-168.9453125,16.6015625,0.0
354.9296875,-4.39453125,-51.7578125,-21.484375,-167.96875,38.0859375,0.0
354.93359375,-1.953125,-55.17578125,-21.484375,-139.6484375,55.6640625,0.0
354.9375,-37.59765625,-48.828125,-18.06640625,-110.83984375,7.8125,0.0
354.94140625,58.10546875,-66.89453125,5.859375,-130.859375,-20.01953125,0.0
354.9453125,136.71875,-65.4296875,13.18359375,-100.09765625,-71.2890625,0.0
354.94921875,-33.69140625,-64.453125,-4.39453125,-81.54296875,-20.99609375,0.0
354.953125,2.9296875,-65.4296875,-1.46484375,-98.6328125,98.14453125,0.0
354.95703125,114.74609375,-48.33984375,-2.9296875,-93.26171875,58.59375,0.0
354.9609375,34.1796875,-42.48046875,-10.25390625,-95.703125,-165.0390625,0.0
354.96484375,-2.9296875,-47.8515625,-13.671875,-100.09765625,-211.9140625,0.0
354.96875,10.25390625,-51.26953125,-34.1796875,-90.8203125,-131.8359375,0.0
354.97265625,20.01953125,-58.59375,-25.390625,-54.19921875,-106.4453125,0.0
354.9765625,50.78125,-57.6171875,-12.6953125,-53.22265625,-70.80078125,0.0
354.98046875,67.3828125,-45.41015625,-17.08984375,-49.31640625,-43.9453125,0.0
354.984375,113.28125,-30.2734375,-16.6015625,-39.55078125,-7.32421875,0.0
354.98828125,170.41015625,-16.6015625,-20.5078125,-49.8046875,38.57421875,0.0
354.9921875,149.4140625,-29.78515625,-29.296875,-84.9609375,0.48828125,0.0
354.99609375,119.62890625,-79.1015625,-48.33984375,-99.12109375,-52.734375,0.0
355.0,196.2890625,-62.5,-45.8984375,-59.08203125,31.25,0.0
355.00390625,210.44921875,-33.203125,-20.01953125,-35.15625,35.64453125,0.0
355.0078125,198.73046875,-52.734375,-13.671875,-49.31640625,46.38671875,0.0
355.01171875,172.36328125,-77.63671875,-47.36328125,-51.26953125,116.69921875,0.0
355.015625,166.9921875,-52.24609375,-42.96875,-48.33984375,84.47265625,0.0
355.01953125,220.703125,-25.390625,-21.484375,-54.6875,60.05859375,0.0
355.0234375,295.41015625,-28.80859375,-22.94921875,-14.6484375,4.8828125,0.0
355.02734375,263.671875,-30.2734375,-29.296875,-11.71875,32.71484375,0.0
355.03125,230.46875,-24.4140625,-28.3203125,-39.55078125,-29.78515625,0.0
355.03515625,282.2265625,-24.90234375,-12.20703125,-17.08984375,-46.875,0.0
355.0390625,317.87109375,-17.578125,-4.8828125,4.8828125,-41.9921875,0.0
355.04296875,322.75390625,-27.83203125,-26.85546875,-14.6484375,-81.54296875,0.0
355.046875,273.4375,-31.73828125,-41.50390625,-24.90234375,78.61328125,0.0
355.05078125,214.84375,-31.73828125,-42.96875,-4.39453125,105.46875,0.0
355.0546875,183.10546875,-43.9453125,-50.78125,15.625,11.23046875,0.0
355.05859375,187.01171875,-51.7578125,-70.3125,6.34765625,58.59375,0.0
355.0625,236.81640625,-47.36328125,-81.0546875,-10.7421875,25.390625,0.0
355.06640625,221.19140625,-41.9921875,-78.125,-16.6015625,-17.578125,0.0
355.0703125,188.96484375,-31.73828125,-79.58984375,-64.453125,-42.96875,0.0
355.07421875,128.90625,-46.38671875,-77.63671875,-66.40625,-122.55859375,0.0
355.078125,130.859375,-41.9921875,-77.63671875,-22.4609375,-73.73046875,0.0
355.08203125,125.9765625,-29.296875,-79.1015625,-55.6640625,-72.265625,0.0
355.0859375,103.515625,-53.7109375,-81.54296875,-69.3359375,-110.3515625,0.0
355.08984375,137.6953125,-53.22265625,-85.9375,-72.265625,-51.7578125,0.0
355.09375,176.7578125,-41.9921875,-83.0078125,-75.1953125,-32.71484375,0.0
355.09765625,112.79296875,-53.22265625,-78.125,-29.296875,-132.8125,0.0
355.1015625,98.6328125,-41.015625,-82.03125,-83.984375,-140.625,0.0
355.10546875,110.3515625,-32.71484375,-93.75,-125.0,-49.8046875,0.0
355.109375,101.5625,-35.15625,-99.12109375,-62.98828125,-86.9140625,0.0
355.11328125,161.1328125,-47.8515625,-100.5859375,-76.171875,-89.35546875,0.0
355.1171875,124.51171875,-57.12890625,-107.421875,-117.67578125,-63.96484375,0.0
355.12109375,79.58984375,-45.41015625,-82.51953125,-77.63671875,-23.92578125,0.0
355.125,136.23046875,-50.29296875,-76.171875,-95.703125,42.48046875,0.0
355.12890625,113.28125,-49.8046875,-94.7265625,-128.90625,-21.97265625,0.0
355.1328125,100.5859375,-40.0390625,-87.890625,-65.91796875,-84.9609375,0.0
355.13671875,152.34375,-24.90234375,-62.98828125,-41.9921875,-32.2265625,0.0
355.140625,84.47265625,-22.94921875,-25.87890625,-86.9140625,-79.1015625,0.0
355.14453125,-16.11328125,-29.78515625,7.8125,-114.74609375,-76.66015625,0.0
355.1484375,-14.6484375,-38.0859375,50.29296875,-144.53125,-18.06640625,0.0
355.15234375,-7.8125,-36.1328125,50.29296875,-148.92578125,13.18359375,0.0
355.15625,-37.109375,-24.90234375,54.6875,-130.37109375,39.0625,0.0
355.16015625,-8.7890625,-39.55078125,154.296875,-109.86328125,-32.71484375,0.0
355.1640625,13.671875,-49.8046875,199.70703125,-106.93359375,-30.76171875,0.0
355.16796875,24.4140625,-43.45703125,219.7265625,-151.3671875,20.99609375,0.0
355.171875,23.4375,-55.6640625,244.140625,-180.6640625,68.84765625,0.0
355.17578125,-65.91796875,-63.96484375,201.171875,-205.078125,34.1796875,0.0
355.1796875,-159.1796875,-78.61328125,186.03515625,-275.87890625,-5.859375,0.0
355.18359375,-158.69140625,-86.9140625,169.921875,-283.69140625,-79.58984375,0.0
355.1875,-67.87109375,-105.95703125,109.375,-299.31640625,-161.62109375,0.0
355.19140625,-142.08984375,-130.37109375,100.09765625,-331.0546875,-191.40625,0.0
355.1953125,-232.421875,-129.8828125,136.71875,-328.125,-217.28515625,0.0
355.19921875,-228.515625,-147.4609375,184.08203125,-300.29296875,-129.39453125,0.0
355.203125,-287.109375,-157.2265625,165.0390625,-315.4296875,-59.08203125,0.0
355.20703125,-400.390625,-169.43359375,72.265625,-369.62890625,-24.90234375,0.0
355.2109375,-455.078125,-175.29296875,31.25,-372.0703125,22.94921875,0.0
355.21484375,-487.3046875,-185.05859375,65.4296875,-362.3046875,59.08203125,0.0
355.21875,-517.578125,-207.03125,84.9609375,-380.859375,-2.44140625,0.0
355.22265625,-448.73046875,-180.6640625,49.31640625,-368.1640625,16.11328125,0.0
355.2265625,-439.453125,-177.24609375,62.98828125,-305.17578125,-8.30078125,0.0
355.23046875,-449.70703125,-198.2421875,69.3359375,-246.58203125,-66.40625,0.0
355.234375,-408.69140625,-183.59375,10.25390625,-246.09375,-100.5859375,0.0
355.23828125,-381.34765625,-170.41015625,-24.4140625,-241.2109375,-117.1875,0.0
355.2421875,-314.94140625,-170.41015625,-55.17578125,-213.37890625,-53.7109375,0.0
