timestamp,TP9,AF7,AF8,TP10,AUX,Marker,
310.00390625,-41.50390625,-66.89453125,-102.05078125,-43.9453125,-33.69140625,0.0
310.0078125,-53.7109375,-67.3828125,-103.515625,-43.9453125,-46.38671875,0.0
310.01171875,-62.98828125,-71.77734375,-103.02734375,-51.7578125,-88.37890625,0.0
310.015625,-50.78125,-71.77734375,-89.35546875,-45.41015625,-115.72265625,0.0
310.01953125,-29.296875,-63.96484375,-74.70703125,-21.484375,-23.4375,0.0
310.0234375,-20.99609375,-69.3359375,-76.171875,-20.01953125,56.640625,0.0
310.02734375,-38.0859375,-73.73046875,-85.44921875,-37.109375,-73.73046875,0.0
310.03125,-43.9453125,-65.91796875,-85.9375,-40.0390625,-95.21484375,0.0
310.03515625,-19.04296875,-58.59375,-82.03125,-24.90234375,-25.87890625,0.0
310.0390625,-14.6484375,-62.01171875,-84.9609375,-27.83203125,-36.1328125,0.0
310.04296875,-26.3671875,-63.96484375,-84.47265625,-43.45703125,-3.41796875,0.0
310.046875,-23.92578125,-67.3828125,-86.42578125,-40.52734375,-0.9765625,0.0
310.05078125,-24.90234375,-71.2890625,-86.9140625,-39.55078125,-93.26171875,0.0
310.0546875,-25.87890625,-71.77734375,-81.54296875,-42.96875,-87.40234375,0.0
310.05859375,-32.2265625,-68.359375,-81.0546875,-45.41015625,12.20703125,0.0
310.0625,-43.9453125,-70.3125,-88.37890625,-36.1328125,2.9296875,0.0
310.06640625,-45.8984375,-74.70703125,-98.6328125,-36.1328125,8.7890625,0.0
310.0703125,-38.0859375,-79.1015625,-91.30859375,-41.50390625,0.0,0.0
310.07421875,-32.71484375,-78.125,-76.171875,-37.109375,1.953125,0.0
310.078125,-24.90234375,-71.77734375,-75.68359375,-31.25,40.0390625,0.0
310.08203125,-12.20703125,-67.3828125,-84.47265625,-30.76171875,-6.34765625,0.0
310.0859375,-19.53125,-67.87109375,-89.35546875,-49.31640625,-65.91796875,0.0
310.08984375,-21.484375,-77.63671875,-85.9375,-46.875,-84.9609375,0.0
310.09375,-10.7421875,-84.9609375,-84.9609375,-37.109375,-95.703125,0.0
310.09765625,-8.7890625,-78.125,-80.078125,-39.0625,-185.05859375,0.0
310.1015625,0.48828125,-72.265625,-79.58984375,-46.875,-271.97265625,0.0
310.10546875,-26.3671875,-77.63671875,-87.40234375,-40.52734375,-252.9296875,0.0
310.109375,-51.7578125,-83.49609375,-89.84375,-28.3203125,-171.38671875,0.0
310.11328125,-37.109375,-82.03125,-87.40234375,-37.109375,-58.59375,0.0
310.1171875,-44.921875,-74.21875,-81.54296875,-51.7578125,-60.05859375,0.0
310.12109375,-42.96875,-69.82421875,-71.2890625,-45.8984375,-125.0,0.0
310.125,-33.69140625,-71.77734375,-74.21875,-48.828125,-43.45703125,0.0
310.12890625,-38.57421875,-80.078125,-86.9140625,-62.01171875,0.48828125,0.0
310.1328125,-37.109375,-79.58984375,-87.40234375,-52.734375,21.484375,0.0
310.13671875,-28.3203125,-71.2890625,-78.125,-41.9921875,97.16796875,0.0
310.140625,-36.62109375,-74.21875,-77.63671875,-36.1328125,66.89453125,0.0
310.14453125,-45.8984375,-67.3828125,-76.171875,-37.109375,58.10546875,0.0
310.1484375,-31.73828125,-62.01171875,-76.66015625,-41.015625,130.37109375,0.0
310.15234375,-20.01953125,-72.265625,-71.77734375,-32.2265625,117.67578125,0.0
310.15625,-27.83203125,-74.21875,-66.40625,-31.73828125,56.15234375,0.0
310.16015625,-32.71484375,-64.453125,-71.2890625,-42.48046875,30.76171875,0.0
310.1640625,-34.1796875,-60.05859375,-75.68359375,-31.73828125,49.31640625,0.0
310.16796875,-54.6875,-75.1953125,-84.47265625,-26.3671875,0.0,0.0
310.171875,-61.03515625,-81.0546875,-83.984375,-41.015625,9.765625,0.0
310.17578125,-28.80859375,-74.70703125,-81.0546875,-48.33984375,-12.20703125,0.0
310.1796875,-9.27734375,-70.3125,-80.078125,-43.45703125,-121.09375,0.0
310.18359375,-35.15625,-62.01171875,-83.984375,-29.296875,-97.16796875,0.0
310.1875,-54.6875,-69.3359375,-95.21484375,-37.109375,-130.37109375,0.0
310.19140625,-56.640625,-77.63671875,-91.796875,-39.0625,-102.5390625,0.0
310.1953125,-54.19921875,-72.265625,-83.0078125,-39.0625,-22.94921875,0.0
310.19921875,-53.22265625,-65.4296875,-77.63671875,-39.55078125,42.96875,0.0
310.203125,-37.59765625,-68.84765625,-81.0546875,-19.04296875,36.1328125,0.0
310.20703125,-22.4609375,-78.61328125,-90.8203125,-33.203125,-49.8046875,0.0
310.2109375,-12.20703125,-60.546875,-88.8671875,-41.50390625,6.8359375,0.0
310.21484375,-12.6953125,-51.26953125,-70.80078125,-22.94921875,70.80078125,0.0
310.21875,-34.66796875,-69.3359375,-64.94140625,-19.53125,95.21484375,0.0
310.22265625,-46.38671875,-79.58984375,-77.63671875,-23.4375,122.0703125,0.0
310.2265625,-44.921875,-80.078125,-87.40234375,-33.203125,114.74609375,0.0
310.23046875,-30.2734375,-75.68359375,-87.40234375,-32.71484375,83.49609375,0.0
310.234375,-26.3671875,-65.4296875,-85.44921875,-26.85546875,79.58984375,0.0
310.23828125,-41.50390625,-60.546875,-75.1953125,-22.4609375,16.6015625,0.0
310.2421875,-45.41015625,-63.96484375,-65.4296875,-29.296875,-43.45703125,0.0
310.24609375,-35.15625,-74.70703125,-69.82421875,-28.80859375,55.17578125,0.0
310.25,-39.55078125,-83.0078125,-71.77734375,-28.3203125,78.61328125,0.0
310.25390625,-38.0859375,-78.125,-81.54296875,-33.69140625,32.71484375,0.0
310.2578125,-18.5546875,-68.84765625,-82.51953125,-33.203125,-18.5546875,0.0
310.26171875,-23.92578125,-68.359375,-78.125,-34.66796875,-79.1015625,0.0
310.265625,-30.2734375,-72.265625,-84.9609375,-35.15625,-114.74609375,0.0
310.26953125,-26.85546875,-72.265625,-81.0546875,-34.1796875,-120.1171875,0.0
310.2734375,-21.97265625,-71.2890625,-69.3359375,-36.62109375,-140.13671875,0.0
310.27734375,-26.3671875,-80.56640625,-66.89453125,-20.01953125,-121.09375,0.0
310.28125,-45.41015625,-79.58984375,-76.66015625,-10.7421875,-90.33203125,0.0
310.28515625,-38.0859375,-84.47265625,-83.0078125,-19.04296875,-102.5390625,0.0
310.2890625,-20.5078125,-92.28515625,-86.9140625,-36.1328125,-99.12109375,0.0
310.29296875,-29.78515625,-85.44921875,-84.9609375,-41.015625,-14.16015625,0.0
310.296875,-28.3203125,-78.61328125,-82.03125,-25.390625,27.34375,0.0
310.30078125,-29.296875,-81.0546875,-78.61328125,-22.4609375,-6.34765625,0.0
310.3046875,-40.0390625,-90.8203125,-74.70703125,-34.1796875,-11.23046875,0.0
310.30859375,-48.33984375,-89.35546875,-73.2421875,-39.55078125,-63.4765625,0.0
310.3125,-46.875,-80.078125,-70.80078125,-39.0625,-16.6015625,0.0
310.31640625,-32.71484375,-79.1015625,-69.3359375,-35.15625,77.1484375,0.0
310.3203125,-14.6484375,-84.9609375,-68.359375,-26.3671875,-25.87890625,0.0
310.32421875,-42.48046875,-88.8671875,-67.87109375,-17.578125,-54.19921875,0.0
310.328125,-59.5703125,-90.8203125,-70.3125,-27.34375,67.87109375,0.0
310.33203125,-51.26953125,-86.9140625,-74.70703125,-37.59765625,112.79296875,0.0
310.3359375,-52.24609375,-75.68359375,-67.3828125,-33.203125,13.671875,0.0
310.33984375,-28.3203125,-74.21875,-61.5234375,-26.85546875,-21.484375,0.0
310.34375,-14.6484375,-83.49609375,-65.91796875,-23.4375,98.14453125,0.0
310.34765625,-24.90234375,-85.44921875,-72.265625,-33.203125,125.48828125,0.0
310.3515625,-23.4375,-78.61328125,-77.1484375,-53.22265625,-55.17578125,0.0
310.35546875,-28.3203125,-79.1015625,-68.84765625,-46.38671875,-170.8984375,0.0
310.359375,-21.484375,-84.47265625,-61.03515625,-27.34375,-26.85546875,0.0
310.36328125,-29.296875,-85.44921875,-69.3359375,-31.73828125,36.1328125,0.0
310.3671875,-38.57421875,-88.37890625,-81.0546875,-38.0859375,-48.828125,0.0
310.37109375,-29.296875,-85.44921875,-78.61328125,-42.96875,-35.64453125,0.0
310.375,-46.38671875,-87.40234375,-76.171875,-44.43359375,78.125,0.0
310.37890625,-52.734375,-83.984375,-75.68359375,-38.57421875,40.52734375,0.0
310.3828125,-26.3671875,-85.44921875,-78.125,-33.203125,-40.0390625,0.0
310.38671875,-31.25,-85.44921875,-88.37890625,-33.203125,9.27734375,0.0
310.390625,-48.828125,-82.51953125,-90.33203125,-27.83203125,108.3984375,0.0
310.39453125,-37.109375,-84.47265625,-90.33203125,-22.4609375,60.05859375,0.0
310.3984375,-25.87890625,-85.9375,-91.30859375,-25.390625,4.8828125,0.0
310.40234375,-41.015625,-89.84375,-96.19140625,-32.71484375,-28.3203125,0.0
310.40625,-43.9453125,-83.0078125,-102.5390625,-48.33984375,23.4375,0.0
310.41015625,-29.296875,-77.1484375,-105.46875,-55.6640625,53.7109375,0.0
310.4140625,-8.7890625,-89.84375,-103.515625,-29.296875,-23.4375,0.0
310.41796875,-1.953125,-99.609375,-102.5390625,-20.01953125,-3.41796875,0.0
310.421875,-35.64453125,-100.09765625,-106.4453125,-42.96875,37.109375,0.0
310.42578125,-54.19921875,-98.6328125,-113.28125,-44.921875,70.3125,0.0
310.4296875,-51.7578125,-97.16796875,-107.91015625,-29.78515625,56.15234375,0.0
310.43359375,-44.43359375,-94.23828125,-101.5625,-21.484375,-25.87890625,0.0
310.4375,-40.0390625,-87.40234375,-101.5625,-17.08984375,21.484375,0.0
310.44140625,-36.62109375,-82.51953125,-108.3984375,-21.484375,58.59375,0.0
310.4453125,-27.34375,-92.7734375,-110.83984375,-26.85546875,-37.109375,0.0
310.44921875,-29.296875,-98.6328125,-110.3515625,-23.4375,-146.484375,0.0
310.453125,-31.73828125,-90.8203125,-107.421875,-18.5546875,-92.7734375,0.0
310.45703125,-23.4375,-81.0546875,-91.796875,-11.23046875,41.50390625,0.0
310.4609375,-18.5546875,-80.078125,-96.19140625,-11.71875,-13.671875,0.0
310.46484375,-16.6015625,-87.40234375,-103.02734375,-29.78515625,-143.5546875,0.0
310.46875,-4.39453125,-91.796875,-102.05078125,-33.69140625,-118.65234375,0.0
310.47265625,2.9296875,-96.6796875,-98.6328125,-22.4609375,-71.77734375,0.0
310.4765625,-15.13671875,-93.26171875,-83.984375,-16.6015625,-84.9609375,0.0
310.48046875,-20.01953125,-80.078125,-83.984375,-13.18359375,1.46484375,0.0
310.484375,-8.30078125,-82.51953125,-100.5859375,-2.44140625,37.59765625,0.0
310.48828125,-27.83203125,-104.4921875,-105.95703125,-11.23046875,-41.9921875,0.0
310.4921875,-42.48046875,-108.88671875,-100.09765625,-31.25,-78.125,0.0
310.49609375,-13.18359375,-106.4453125,-89.35546875,-24.90234375,-50.29296875,0.0
310.5,-10.25390625,-102.05078125,-83.49609375,-18.5546875,-11.71875,0.0
310.50390625,-41.50390625,-95.21484375,-81.54296875,-26.3671875,40.0390625,0.0
310.5078125,-49.31640625,-100.09765625,-81.0546875,-27.34375,52.24609375,0.0
310.51171875,-36.62109375,-104.00390625,-84.9609375,-27.34375,3.41796875,0.0
310.515625,-35.15625,-106.93359375,-86.9140625,-32.71484375,-15.13671875,0.0
310.51953125,-22.4609375,-97.65625,-82.03125,-33.69140625,-6.34765625,0.0
310.5234375,-18.06640625,-83.0078125,-83.984375,-27.34375,-85.9375,0.0
310.52734375,-21.97265625,-97.65625,-88.37890625,-31.73828125,-54.6875,0.0
310.53125,-27.83203125,-104.00390625,-86.42578125,-46.875,-45.41015625,0.0
310.53515625,-51.26953125,-96.19140625,-80.56640625,-41.9921875,-56.640625,0.0
310.5390625,-31.73828125,-91.796875,-77.63671875,-42.48046875,-19.04296875,0.0
310.54296875,-31.73828125,-87.40234375,-85.9375,-52.734375,-0.9765625,0.0
310.546875,-58.10546875,-94.23828125,-88.8671875,-44.43359375,-22.4609375,0.0
310.55078125,-32.71484375,-94.23828125,-82.51953125,-35.64453125,-76.66015625,0.0
310.5546875,-18.06640625,-93.26171875,-81.0546875,-50.29296875,-16.11328125,0.0
310.55859375,-15.13671875,-89.84375,-82.03125,-34.66796875,59.5703125,0.0
310.5625,-21.97265625,-93.75,-83.984375,-19.04296875,62.01171875,0.0
310.56640625,-50.29296875,-100.09765625,-88.8671875,-36.1328125,21.97265625,0.0
310.5703125,-65.4296875,-97.65625,-91.30859375,-49.31640625,-26.3671875,0.0
310.57421875,-49.31640625,-98.6328125,-83.0078125,-42.48046875,73.2421875,0.0
310.578125,-27.83203125,-95.703125,-78.61328125,-34.1796875,92.7734375,0.0
310.58203125,-36.1328125,-94.7265625,-83.984375,-40.0390625,-18.06640625,0.0
310.5859375,-38.0859375,-105.95703125,-88.8671875,-49.31640625,-51.26953125,0.0
310.58984375,-40.52734375,-106.93359375,-86.42578125,-41.015625,-26.3671875,0.0
310.59375,-42.48046875,-98.14453125,-81.54296875,-34.1796875,34.1796875,0.0
310.59765625,-15.13671875,-96.6796875,-72.265625,-30.2734375,19.04296875,0.0
310.6015625,22.4609375,-98.14453125,-69.82421875,-34.66796875,-24.90234375,0.0
310.60546875,8.7890625,-93.26171875,-76.171875,-41.015625,-59.08203125,0.0
310.609375,-62.98828125,-103.515625,-76.66015625,-33.203125,-69.82421875,0.0
310.61328125,-74.21875,-104.4921875,-72.75390625,-27.34375,36.1328125,0.0
310.6171875,-46.38671875,-91.796875,-81.54296875,-37.59765625,51.7578125,0.0
310.62109375,-25.87890625,-90.8203125,-95.21484375,-30.2734375,21.97265625,0.0
310.625,-9.765625,-93.75,-102.05078125,-37.59765625,-9.27734375,0.0
310.62890625,-50.78125,-90.8203125,-95.21484375,-54.6875,-72.265625,0.0
310.6328125,-59.5703125,-93.26171875,-87.890625,-36.62109375,-124.51171875,0.0
310.63671875,-39.0625,-96.19140625,-92.7734375,-35.15625,-59.08203125,0.0
310.640625,-35.15625,-89.84375,-90.33203125,-52.24609375,22.4609375,0.0
310.64453125,-34.1796875,-92.28515625,-92.7734375,-56.640625,-30.76171875,0.0
310.6484375,-47.36328125,-105.95703125,-98.14453125,-43.9453125,-41.015625,0.0
310.65234375,-50.78125,-93.75,-91.30859375,-36.62109375,-33.203125,0.0
310.65625,-36.62109375,-89.84375,-84.47265625,-45.41015625,-119.62890625,0.0
310.66015625,-36.1328125,-104.98046875,-87.40234375,-48.33984375,-88.37890625,0.0
310.6640625,-53.22265625,-110.83984375,-101.07421875,-59.08203125,-60.05859375,0.0
310.66796875,-53.7109375,-107.421875,-102.5390625,-61.03515625,-46.875,0.0
310.671875,-48.828125,-101.07421875,-94.7265625,-44.921875,46.38671875,0.0
310.67578125,-45.41015625,-99.609375,-87.40234375,-35.15625,67.87109375,0.0
310.6796875,-35.15625,-98.6328125,-82.03125,-42.48046875,51.7578125,0.0
310.68359375,-22.4609375,-92.7734375,-71.77734375,-52.24609375,70.3125,0.0
310.6875,-32.71484375,-92.28515625,-76.171875,-46.875,79.58984375,0.0
310.69140625,-40.0390625,-95.21484375,-92.28515625,-36.1328125,51.26953125,0.0
310.6953125,-21.484375,-104.00390625,-85.9375,-44.43359375,75.68359375,0.0
310.69921875,-3.41796875,-98.6328125,-77.63671875,-44.43359375,37.109375,0.0
310.703125,-18.06640625,-92.7734375,-80.078125,-38.0859375,38.57421875,0.0
310.70703125,-39.0625,-99.609375,-83.0078125,-44.43359375,-4.39453125,0.0
310.7109375,-52.24609375,-97.65625,-76.66015625,-38.57421875,-105.46875,0.0
310.71484375,-59.5703125,-81.0546875,-68.359375,-20.5078125,-58.59375,0.0
310.71875,-39.0625,-91.30859375,-73.2421875,-16.11328125,0.9765625,0.0
310.72265625,-54.19921875,-109.375,-75.68359375,-11.71875,3.90625,0.0
310.7265625,-68.359375,-101.07421875,-76.66015625,-17.578125,-37.59765625,0.0
310.73046875,-44.43359375,-98.6328125,-79.1015625,-28.80859375,-27.83203125,0.0
310.734375,-13.18359375,-96.6796875,-79.1015625,-25.87890625,-49.8046875,0.0
310.73828125,-19.53125,-92.28515625,-78.125,-24.90234375,-59.08203125,0.0
310.7421875,-44.921875,-94.7265625,-76.171875,-36.1328125,79.1015625,0.0
310.74609375,-62.5,-101.07421875,-78.61328125,-35.64453125,98.6328125,0.0
310.75,-52.24609375,-100.5859375,-79.1015625,-28.80859375,53.22265625,0.0
310.75390625,-18.5546875,-97.16796875,-77.1484375,-23.4375,-36.1328125,0.0
310.7578125,-8.7890625,-92.7734375,-68.84765625,-24.4140625,-60.546875,0.0
310.76171875,-25.87890625,-97.16796875,-65.91796875,-20.01953125,14.6484375,0.0
310.765625,-47.8515625,-105.46875,-80.078125,-21.97265625,24.4140625,0.0
310.76953125,-56.15234375,-106.93359375,-85.9375,-43.9453125,21.484375,0.0
310.7734375,-30.76171875,-106.4453125,-75.1953125,-35.64453125,-53.7109375,0.0
310.77734375,-14.6484375,-100.09765625,-67.87109375,-24.90234375,-85.44921875,0.0
310.78125,-32.71484375,-102.5390625,-68.359375,-33.69140625,-72.265625,0.0
310.78515625,-46.38671875,-103.515625,-72.75390625,-30.2734375,-97.65625,0.0
310.7890625,-28.80859375,-99.12109375,-78.61328125,-30.76171875,-63.4765625,0.0
310.79296875,-14.6484375,-103.515625,-68.84765625,-29.296875,-13.671875,0.0
310.796875,-29.296875,-100.09765625,-59.5703125,-24.4140625,3.41796875,0.0
310.80078125,-29.78515625,-99.12109375,-58.59375,-23.92578125,15.13671875,0.0
310.8046875,-37.59765625,-99.12109375,-57.12890625,-23.92578125,29.296875,0.0
310.80859375,-44.43359375,-95.703125,-56.640625,-21.484375,-8.30078125,0.0
310.8125,-35.15625,-104.98046875,-55.17578125,-21.97265625,14.16015625,0.0
310.81640625,-31.73828125,-107.421875,-53.7109375,-17.578125,117.1875,0.0
310.8203125,-23.92578125,-102.5390625,-54.19921875,-21.97265625,133.7890625,0.0
310.82421875,-22.4609375,-93.26171875,-60.546875,-23.92578125,93.26171875,0.0
310.828125,-44.43359375,-92.7734375,-69.3359375,-25.390625,15.13671875,0.0
310.83203125,-55.6640625,-99.12109375,-71.77734375,-33.69140625,1.46484375,0.0
310.8359375,-31.25,-94.7265625,-67.3828125,-38.0859375,-45.41015625,0.0
310.83984375,1.953125,-76.66015625,-67.3828125,-33.69140625,-92.28515625,0.0
310.84375,2.44140625,-69.82421875,-64.453125,-31.73828125,-93.75,0.0
310.84765625,-36.1328125,-86.9140625,-61.03515625,-32.2265625,-58.59375,0.0
310.8515625,-38.0859375,-92.28515625,-62.98828125,-29.296875,-27.34375,0.0
310.85546875,-2.44140625,-86.42578125,-56.15234375,-24.90234375,9.27734375,0.0
310.859375,-3.41796875,-89.35546875,-53.22265625,-19.04296875,14.16015625,0.0
310.86328125,-35.15625,-91.796875,-58.10546875,-11.71875,-62.5,0.0
310.8671875,-57.6171875,-93.26171875,-64.94140625,-24.4140625,-28.3203125,0.0
310.87109375,-51.26953125,-93.26171875,-69.82421875,-31.25,17.578125,0.0
310.875,-31.25,-91.30859375,-63.96484375,-25.390625,10.7421875,0.0
310.87890625,-36.1328125,-93.26171875,-57.12890625,-27.83203125,-14.16015625,0.0
310.8828125,-34.1796875,-95.21484375,-62.5,-26.85546875,-31.25,0.0
310.88671875,-35.15625,-91.796875,-73.2421875,-27.83203125,-8.30078125,0.0
310.890625,-40.0390625,-101.07421875,-74.21875,-34.1796875,-31.73828125,0.0
310.89453125,-33.69140625,-102.05078125,-67.87109375,-41.50390625,-26.85546875,0.0
310.8984375,-24.90234375,-93.26171875,-61.03515625,-29.78515625,55.6640625,0.0
310.90234375,-16.11328125,-93.75,-63.4765625,-19.53125,73.2421875,0.0
310.90625,-25.390625,-85.9375,-69.3359375,-36.62109375,35.64453125,0.0
310.91015625,-25.390625,-92.28515625,-75.68359375,-35.64453125,-14.16015625,0.0
310.9140625,-20.5078125,-106.93359375,-76.66015625,-18.5546875,11.23046875,0.0
310.91796875,-18.06640625,-103.515625,-72.75390625,-32.71484375,-7.32421875,0.0
310.921875,-24.4140625,-103.02734375,-76.171875,-41.50390625,-15.625,0.0
310.92578125,-43.9453125,-104.4921875,-78.61328125,-31.73828125,32.2265625,0.0
310.9296875,-32.2265625,-96.19140625,-75.1953125,-28.3203125,22.94921875,0.0
310.93359375,-14.16015625,-95.21484375,-66.89453125,-30.2734375,29.78515625,0.0
310.9375,-37.109375,-98.14453125,-63.4765625,-30.76171875,-41.015625,0.0
310.94140625,-45.41015625,-100.09765625,-65.4296875,-33.69140625,-91.796875,0.0
310.9453125,-44.921875,-95.21484375,-61.5234375,-38.0859375,-44.43359375,0.0
310.94921875,-47.8515625,-98.14453125,-51.7578125,-35.15625,23.4375,0.0
310.953125,-31.25,-104.98046875,-46.38671875,-30.2734375,79.58984375,0.0
310.95703125,-23.92578125,-99.609375,-45.8984375,-32.2265625,53.22265625,0.0
310.9609375,-20.99609375,-104.00390625,-44.43359375,-25.87890625,67.87109375,0.0
310.96484375,-34.66796875,-106.93359375,-51.26953125,-29.78515625,57.6171875,0.0
310.96875,-51.26953125,-104.00390625,-56.15234375,-28.80859375,-50.29296875,0.0
310.97265625,-34.1796875,-102.5390625,-48.828125,-16.11328125,-69.3359375,0.0
310.9765625,-23.92578125,-100.5859375,-40.52734375,-34.1796875,29.296875,0.0
310.98046875,-33.203125,-99.609375,-40.0390625,-35.64453125,62.01171875,0.0
310.984375,-28.80859375,-99.609375,-39.55078125,-6.8359375,18.06640625,0.0
310.98828125,-41.015625,-104.98046875,-31.73828125,-20.01953125,-51.26953125,0.0
310.9921875,-54.19921875,-106.4453125,-32.71484375,-39.0625,-122.0703125,0.0
310.99609375,-41.50390625,-107.91015625,-30.76171875,-23.4375,-133.7890625,0.0
311.0,-23.92578125,-110.83984375,-26.3671875,-20.99609375,-123.046875,0.0
311.00390625,-26.85546875,-104.98046875,-28.80859375,-30.76171875,-69.3359375,0.0
311.0078125,-31.73828125,-98.6328125,-27.83203125,-41.015625,-8.7890625,0.0
311.01171875,-48.33984375,-106.93359375,-28.80859375,-48.33984375,-80.56640625,0.0
311.015625,-44.43359375,-110.3515625,-28.80859375,-45.41015625,-132.32421875,0.0
311.01953125,-39.55078125,-104.00390625,-31.25,-34.66796875,-20.99609375,0.0
311.0234375,-46.875,-94.7265625,-25.390625,-26.85546875,40.0390625,0.0
311.02734375,-45.41015625,-98.6328125,-25.390625,-18.5546875,32.71484375,0.0
311.03125,-35.15625,-106.4453125,-28.3203125,-21.97265625,34.66796875,0.0
311.03515625,-20.5078125,-97.65625,-29.296875,-24.4140625,-30.76171875,0.0
311.0390625,-30.2734375,-95.21484375,-35.15625,-23.92578125,-34.1796875,0.0
311.04296875,-20.5078125,-104.4921875,-35.15625,-38.57421875,-33.203125,0.0
311.046875,-15.625,-105.46875,-28.80859375,-37.59765625,-20.5078125,0.0
311.05078125,-24.90234375,-102.5390625,-27.83203125,-35.15625,18.06640625,0.0
311.0546875,-5.37109375,-102.05078125,-28.3203125,-27.83203125,-1.953125,0.0
311.05859375,11.71875,-95.703125,-37.109375,-30.2734375,24.90234375,0.0
311.0625,-3.90625,-85.44921875,-36.62109375,-26.3671875,85.44921875,0.0
311.06640625,-38.57421875,-104.4921875,-29.78515625,-21.97265625,68.359375,0.0
311.0703125,-42.96875,-114.74609375,-29.78515625,-36.62109375,12.20703125,0.0
311.07421875,-23.4375,-104.4921875,-24.90234375,-35.15625,12.20703125,0.0
311.078125,-15.13671875,-99.12109375,-28.80859375,-22.94921875,-30.76171875,0.0
311.08203125,-17.578125,-96.6796875,-42.48046875,-19.04296875,-87.40234375,0.0
311.0859375,-21.484375,-100.5859375,-45.41015625,-25.87890625,-122.0703125,0.0
311.08984375,-64.453125,-104.98046875,-42.96875,-34.66796875,-124.51171875,0.0
311.09375,-63.4765625,-107.91015625,-45.8984375,-23.4375,-84.47265625,0.0
311.09765625,-32.2265625,-105.95703125,-48.828125,-18.5546875,-9.27734375,0.0
311.1015625,-28.3203125,-103.02734375,-43.9453125,-24.90234375,60.05859375,0.0
311.10546875,-21.484375,-95.703125,-46.38671875,-22.4609375,-39.0625,0.0
311.109375,-18.5546875,-94.23828125,-58.59375,-31.25,-115.72265625,0.0
311.11328125,-38.57421875,-105.46875,-59.5703125,-38.57421875,-49.8046875,0.0
311.1171875,-39.55078125,-102.05078125,-51.26953125,-32.71484375,10.25390625,0.0
311.12109375,-29.296875,-96.6796875,-56.15234375,-35.15625,21.97265625,0.0
311.125,-41.015625,-100.09765625,-65.4296875,-43.45703125,-26.3671875,0.0
311.12890625,-40.52734375,-96.19140625,-54.6875,-33.203125,-6.34765625,0.0
311.1328125,-48.828125,-89.84375,-40.0390625,-29.78515625,-38.0859375,0.0
311.13671875,-34.66796875,-81.54296875,-33.203125,-29.296875,-76.66015625,0.0
311.140625,-8.7890625,-81.54296875,-34.1796875,-15.625,-17.08984375,0.0
311.14453125,-36.62109375,-100.5859375,-43.45703125,-24.90234375,-17.578125,0.0
311.1484375,-48.828125,-103.02734375,-44.921875,-33.69140625,-49.8046875,0.0
311.15234375,-34.66796875,-94.23828125,-45.41015625,-22.94921875,-82.51953125,0.0
311.15625,-20.01953125,-92.7734375,-52.734375,-24.4140625,5.37109375,0.0
311.16015625,-18.06640625,-95.703125,-50.78125,-35.15625,-3.90625,0.0
311.1640625,-29.296875,-97.65625,-46.875,-36.62109375,-114.2578125,0.0
311.16796875,-34.1796875,-95.703125,-52.734375,-38.57421875,-105.95703125,0.0
311.171875,-26.85546875,-98.6328125,-41.50390625,-34.1796875,-84.47265625,0.0
311.17578125,-13.18359375,-98.6328125,-16.11328125,-28.80859375,-70.80078125,0.0
311.1796875,0.48828125,-90.33203125,-3.41796875,-28.80859375,7.8125,0.0
311.18359375,20.01953125,-89.84375,-6.8359375,-15.13671875,35.15625,0.0
311.1875,-15.625,-107.91015625,-19.53125,-27.83203125,-29.78515625,0.0
311.19140625,-39.0625,-104.4921875,-24.4140625,-42.96875,-8.7890625,0.0
311.1953125,-20.5078125,-99.12109375,-15.13671875,-32.2265625,56.15234375,0.0
311.19921875,-19.53125,-93.26171875,-7.32421875,-28.3203125,43.9453125,0.0
311.203125,-28.80859375,-93.75,-15.13671875,-23.4375,-40.0390625,0.0
311.20703125,-36.62109375,-95.21484375,-20.01953125,-23.92578125,-20.5078125,0.0
311.2109375,-24.4140625,-86.42578125,-14.16015625,-20.5078125,10.7421875,0.0
311.21484375,-13.671875,-94.23828125,-15.13671875,-28.3203125,-3.90625,0.0
311.21875,-19.53125,-96.19140625,-20.99609375,-25.390625,42.96875,0.0
311.22265625,-41.015625,-99.609375,-26.3671875,-11.71875,11.71875,0.0
311.2265625,-46.38671875,-106.4453125,-36.1328125,-23.4375,-52.734375,0.0
311.23046875,-25.87890625,-103.515625,-36.1328125,-14.6484375,-32.2265625,0.0
311.234375,-18.06640625,-102.05078125,-25.87890625,-5.859375,-27.34375,0.0
311.23828125,-8.7890625,-98.14453125,-19.04296875,-17.08984375,-3.41796875,0.0
311.2421875,-8.30078125,-94.23828125,-19.53125,-9.27734375,25.390625,0.0
311.24609375,-31.73828125,-91.30859375,-21.97265625,-12.20703125,24.90234375,0.0
311.25,-43.9453125,-95.21484375,-19.04296875,-23.92578125,-19.04296875,0.0
311.25390625,-38.57421875,-87.40234375,-11.23046875,-21.97265625,-17.08984375,0.0
311.2578125,-26.85546875,-80.56640625,-7.8125,-21.97265625,-52.24609375,0.0
311.26171875,-41.015625,-84.9609375,-7.32421875,-24.4140625,-10.7421875,0.0
311.265625,-43.9453125,-96.19140625,-14.16015625,-29.78515625,-20.5078125,0.0
311.26953125,-35.64453125,-99.12109375,-21.484375,-25.390625,-81.54296875,0.0
311.2734375,-32.2265625,-94.23828125,-20.99609375,-13.671875,-55.17578125,0.0
311.27734375,-17.578125,-94.23828125,-24.4140625,-29.296875,-13.18359375,0.0
311.28125,-18.5546875,-90.8203125,-31.73828125,-31.73828125,30.2734375,0.0
311.28515625,-29.78515625,-95.21484375,-39.0625,-33.203125,20.01953125,0.0
311.2890625,-34.1796875,-93.26171875,-46.38671875,-35.15625,27.83203125,0.0
311.29296875,-45.8984375,-86.9140625,-40.52734375,-19.04296875,51.26953125,0.0
311.296875,-40.52734375,-103.515625,-36.62109375,-9.27734375,78.61328125,0.0
311.30078125,-17.578125,-102.05078125,-47.36328125,-6.8359375,7.32421875,0.0
311.3046875,-15.13671875,-94.23828125,-58.59375,-26.85546875,-43.45703125,0.0
311.30859375,-32.71484375,-93.75,-60.05859375,-43.9453125,-25.87890625,0.0
311.3125,-48.828125,-92.28515625,-64.94140625,-34.66796875,-24.4140625,0.0
311.31640625,-25.87890625,-84.47265625,-67.87109375,-24.4140625,-5.37109375,0.0
311.3203125,-21.97265625,-80.078125,-68.84765625,-13.671875,-44.43359375,0.0
311.32421875,-45.41015625,-80.078125,-74.70703125,-21.97265625,-70.80078125,0.0
311.328125,-16.6015625,-84.47265625,-75.1953125,-1.953125,-21.97265625,0.0
311.33203125,10.7421875,-77.1484375,-81.0546875,9.27734375,38.0859375,0.0
311.3359375,-23.4375,-67.3828125,-94.7265625,-39.55078125,-58.59375,0.0
311.33984375,-46.38671875,-70.80078125,-91.796875,-48.828125,-212.40234375,0.0
311.34375,-40.52734375,-71.77734375,-85.9375,-31.25,-103.02734375,0.0
311.34765625,-35.64453125,-77.1484375,-86.42578125,-40.0390625,-46.38671875,0.0
311.3515625,-47.8515625,-83.49609375,-80.078125,-49.31640625,-89.35546875,0.0
311.35546875,-58.10546875,-76.66015625,-58.59375,-40.52734375,-18.06640625,0.0
311.359375,-35.64453125,-72.265625,-54.19921875,-31.25,40.52734375,0.0
311.36328125,-27.34375,-79.58984375,-63.96484375,-39.55078125,35.64453125,0.0
311.3671875,-26.3671875,-73.73046875,-60.05859375,-49.31640625,-8.30078125,0.0
311.37109375,-20.99609375,-72.75390625,-55.6640625,-41.9921875,-41.015625,0.0
311.375,-24.90234375,-83.0078125,-56.640625,-39.55078125,14.6484375,0.0
311.37890625,-14.6484375,-81.0546875,-57.12890625,-30.2734375,56.640625,0.0
311.3828125,-17.08984375,-93.26171875,-56.640625,-26.3671875,68.84765625,0.0
311.38671875,-22.94921875,-96.19140625,-49.31640625,-35.15625,41.9921875,0.0
311.390625,-7.8125,-93.75,-48.828125,-28.80859375,-75.68359375,0.0
311.39453125,-6.34765625,-96.19140625,-53.7109375,-23.4375,-68.359375,0.0
311.3984375,-14.6484375,-86.42578125,-49.8046875,-33.69140625,-61.5234375,0.0
311.40234375,-24.90234375,-85.44921875,-54.6875,-31.73828125,-198.73046875,0.0
311.40625,-33.203125,-88.37890625,-69.3359375,-23.4375,-228.515625,0.0
311.41015625,-43.45703125,-91.796875,-68.359375,-19.53125,-163.0859375,0.0
311.4140625,-47.8515625,-89.84375,-62.01171875,-19.04296875,-139.6484375,0.0
311.41796875,-36.62109375,-94.7265625,-55.6640625,-23.4375,-96.6796875,0.0
311.421875,-40.52734375,-97.65625,-53.7109375,-29.296875,8.30078125,0.0
311.42578125,-39.55078125,-91.796875,-62.98828125,-29.296875,-40.0390625,0.0
311.4296875,-42.96875,-97.65625,-62.98828125,-19.04296875,-129.39453125,0.0
311.43359375,-36.62109375,-93.26171875,-51.7578125,-5.859375,-77.1484375,0.0
311.4375,-24.90234375,-87.890625,-44.43359375,-7.8125,-60.546875,0.0
311.44140625,-18.5546875,-91.796875,-51.26953125,-27.34375,-47.36328125,0.0
311.4453125,-14.16015625,-90.8203125,-63.96484375,-32.71484375,-8.30078125,0.0
311.44921875,-19.53125,-87.40234375,-60.546875,-39.0625,11.71875,0.0
311.453125,-25.87890625,-83.984375,-52.24609375,-38.0859375,62.98828125,0.0
311.45703125,-21.97265625,-70.3125,-47.8515625,-20.5078125,119.140625,0.0
311.4609375,-20.5078125,-69.3359375,-42.48046875,-27.34375,125.0,0.0
311.46484375,-24.90234375,-82.51953125,-47.36328125,-24.4140625,133.30078125,0.0
311.46875,-38.57421875,-87.890625,-55.17578125,-21.484375,119.62890625,0.0
311.47265625,-39.0625,-83.984375,-56.640625,-32.71484375,69.3359375,0.0
311.4765625,-20.01953125,-87.40234375,-59.08203125,-27.34375,19.04296875,0.0
311.48046875,-19.04296875,-87.40234375,-53.7109375,-19.04296875,45.41015625,0.0
311.484375,-40.0390625,-86.42578125,-60.546875,-23.92578125,31.73828125,0.0
311.48828125,-49.31640625,-100.09765625,-70.3125,-34.66796875,38.57421875,0.0
311.4921875,-30.2734375,-97.65625,-65.91796875,-37.59765625,-0.48828125,0.0
311.49609375,-19.04296875,-80.078125,-58.59375,-30.76171875,-64.94140625,0.0
311.5,-27.83203125,-86.9140625,-47.8515625,-21.97265625,-42.48046875,0.0
311.50390625,-41.50390625,-88.37890625,-51.26953125,-21.97265625,-48.33984375,0.0
311.5078125,-33.203125,-78.61328125,-63.96484375,-33.69140625,-20.01953125,0.0
311.51171875,-32.71484375,-83.49609375,-61.5234375,-36.1328125,-33.69140625,0.0
311.515625,-20.01953125,-88.37890625,-59.5703125,-20.5078125,-19.04296875,0.0
311.51953125,-11.71875,-77.63671875,-60.05859375,-18.06640625,100.09765625,0.0
311.5234375,-34.66796875,-78.125,-62.98828125,-28.3203125,81.0546875,0.0
311.52734375,-54.19921875,-87.40234375,-74.21875,-33.203125,30.2734375,0.0
311.53125,-45.8984375,-81.0546875,-77.1484375,-33.69140625,60.05859375,0.0
311.53515625,-21.484375,-79.58984375,-67.87109375,-30.76171875,87.890625,0.0
311.5390625,-6.34765625,-77.1484375,-62.98828125,-20.99609375,74.21875,0.0
311.54296875,-15.625,-77.1484375,-56.640625,-17.08984375,-36.62109375,0.0
311.546875,-34.66796875,-83.49609375,-62.5,-35.64453125,-89.84375,0.0
311.55078125,-46.38671875,-83.984375,-58.10546875,-38.0859375,-117.67578125,0.0
311.5546875,-56.15234375,-80.078125,-45.41015625,-34.66796875,-110.83984375,0.0
311.55859375,-46.38671875,-72.75390625,-42.48046875,-37.59765625,14.16015625,0.0
311.5625,-42.48046875,-78.125,-43.9453125,-40.52734375,55.6640625,0.0
311.56640625,-36.62109375,-88.8671875,-53.7109375,-39.55078125,8.7890625,0.0
311.5703125,-25.87890625,-83.984375,-62.5,-37.59765625,-28.80859375,0.0
311.57421875,-13.671875,-82.51953125,-64.453125,-39.55078125,-97.16796875,0.0
311.578125,-4.39453125,-72.265625,-56.640625,-25.390625,-38.57421875,0.0
311.58203125,-18.06640625,-71.77734375,-53.22265625,-21.484375,41.015625,0.0
311.5859375,-41.9921875,-94.7265625,-64.453125,-41.015625,-19.53125,0.0
311.58984375,-50.29296875,-92.7734375,-70.3125,-25.390625,-43.45703125,0.0
311.59375,-40.52734375,-83.0078125,-68.84765625,-24.90234375,-54.19921875,0.0
311.59765625,-36.1328125,-82.03125,-64.453125,-45.8984375,3.41796875,0.0
311.6015625,-39.0625,-78.125,-61.03515625,-52.734375,137.20703125,0.0
311.60546875,-36.1328125,-85.44921875,-68.359375,-52.734375,112.3046875,0.0
311.609375,-44.921875,-94.7265625,-73.2421875,-38.57421875,-11.23046875,0.0
311.61328125,-41.9921875,-91.796875,-68.359375,-38.57421875,10.25390625,0.0
311.6171875,-33.203125,-85.9375,-67.87109375,-43.45703125,25.87890625,0.0
311.62109375,-34.66796875,-76.171875,-70.3125,-40.0390625,114.74609375,0.0
311.625,-41.50390625,-71.77734375,-74.70703125,-43.9453125,87.890625,0.0
311.62890625,-35.15625,-80.56640625,-83.0078125,-43.9453125,-50.78125,0.0
311.6328125,-35.15625,-95.703125,-82.03125,-39.55078125,-47.8515625,0.0
311.63671875,-46.38671875,-96.6796875,-71.77734375,-33.203125,-16.6015625,0.0
311.640625,-33.203125,-83.0078125,-69.82421875,-20.01953125,-15.13671875,0.0
311.64453125,-30.2734375,-91.30859375,-74.21875,-34.66796875,27.34375,0.0
311.6484375,-43.45703125,-95.21484375,-77.1484375,-50.78125,35.15625,0.0
311.65234375,-52.734375,-88.37890625,-71.2890625,-33.203125,-53.22265625,0.0
311.65625,-46.38671875,-86.9140625,-66.89453125,-27.83203125,-5.859375,0.0
311.66015625,-33.203125,-86.42578125,-73.2421875,-35.15625,-11.23046875,0.0
311.6640625,-31.25,-88.8671875,-71.77734375,-36.1328125,-101.07421875,0.0
311.66796875,-38.57421875,-87.40234375,-71.2890625,-24.4140625,-63.96484375,0.0
311.671875,-36.1328125,-92.7734375,-72.265625,-23.92578125,-23.92578125,0.0
311.67578125,-40.0390625,-87.40234375,-57.6171875,-32.2265625,65.91796875,0.0
311.6796875,-40.0390625,-85.44921875,-49.8046875,-20.5078125,81.0546875,0.0
311.68359375,-39.55078125,-86.9140625,-57.6171875,-31.25,44.43359375,0.0
311.6875,-41.50390625,-82.51953125,-61.03515625,-34.66796875,45.41015625,0.0
311.69140625,-41.50390625,-86.9140625,-61.03515625,-32.2265625,-23.92578125,0.0
311.6953125,-33.69140625,-84.47265625,-50.29296875,-36.1328125,-118.1640625,0.0
311.69921875,-31.73828125,-80.078125,-38.0859375,-24.4140625,-125.9765625,0.0
311.703125,-33.203125,-88.37890625,-48.33984375,-19.04296875,-145.5078125,0.0
311.70703125,-26.85546875,-90.8203125,-53.7109375,-13.671875,-143.5546875,0.0
311.7109375,-37.109375,-86.9140625,-46.875,-11.71875,-170.8984375,0.0
311.71484375,-43.9453125,-80.56640625,-45.41015625,-14.16015625,-259.765625,0.0
311.71875,-40.0390625,-76.171875,-52.24609375,-27.83203125,-232.91015625,0.0
311.72265625,-28.80859375,-80.56640625,-57.12890625,-32.2265625,-152.83203125,0.0
311.7265625,-28.3203125,-88.8671875,-55.17578125,-44.43359375,-161.1328125,0.0
311.73046875,-43.9453125,-83.49609375,-58.10546875,-55.17578125,-135.7421875,0.0
311.734375,-41.50390625,-73.2421875,-55.17578125,-31.25,-50.29296875,0.0
311.73828125,-39.55078125,-87.890625,-47.36328125,-25.87890625,-46.875,0.0
311.7421875,-29.78515625,-85.44921875,-48.33984375,-41.9921875,-8.30078125,0.0
311.74609375,-21.97265625,-79.58984375,-53.7109375,-38.0859375,-27.83203125,0.0
311.75,-35.15625,-91.30859375,-66.40625,-48.33984375,-29.78515625,0.0
311.75390625,-45.41015625,-87.40234375,-71.77734375,-49.31640625,133.30078125,0.0
311.7578125,-27.83203125,-76.66015625,-62.98828125,-38.0859375,213.8671875,0.0
311.76171875,-44.921875,-75.1953125,-65.4296875,-45.8984375,138.671875,0.0
311.765625,-62.01171875,-82.51953125,-69.82421875,-38.57421875,82.51953125,0.0
311.76953125,-39.55078125,-90.33203125,-62.01171875,-34.66796875,39.0625,0.0
311.7734375,-50.78125,-86.9140625,-58.10546875,-42.96875,-31.73828125,0.0
311.77734375,-30.76171875,-78.61328125,-49.8046875,-23.92578125,-18.5546875,0.0
311.78125,-17.08984375,-78.61328125,-46.38671875,-26.3671875,37.109375,0.0
311.78515625,-47.36328125,-87.40234375,-61.03515625,-35.15625,84.47265625,0.0
311.7890625,-43.9453125,-94.23828125,-70.3125,-28.3203125,67.3828125,0.0
311.79296875,-30.2734375,-84.47265625,-60.546875,-16.11328125,-9.27734375,0.0
311.796875,-12.6953125,-82.03125,-58.59375,-15.13671875,-15.13671875,0.0
311.80078125,1.46484375,-87.40234375,-65.4296875,-33.203125,-49.8046875,0.0
311.8046875,-23.4375,-90.33203125,-70.3125,-35.64453125,-38.0859375,0.0
311.80859375,-55.6640625,-93.26171875,-66.89453125,-27.34375,68.359375,0.0
311.8125,-52.24609375,-95.21484375,-61.03515625,-28.80859375,39.0625,0.0
311.81640625,-26.85546875,-93.75,-62.01171875,-22.94921875,1.46484375,0.0
311.8203125,-10.25390625,-88.8671875,-59.5703125,-21.484375,21.484375,0.0
311.82421875,2.44140625,-82.51953125,-65.91796875,-22.94921875,39.55078125,0.0
311.828125,9.27734375,-77.1484375,-71.2890625,-22.4609375,-75.68359375,0.0
311.83203125,-25.87890625,-84.47265625,-66.40625,-10.7421875,-58.10546875,0.0
311.8359375,-53.7109375,-80.56640625,-62.5,-11.71875,14.16015625,0.0
311.83984375,-39.0625,-77.1484375,-65.4296875,-24.90234375,-28.3203125,0.0
311.84375,-43.45703125,-88.37890625,-76.171875,-34.1796875,-35.15625,0.0
311.84765625,-41.50390625,-96.19140625,-82.03125,-38.0859375,-27.83203125,0.0
311.8515625,-34.66796875,-94.7265625,-69.82421875,-36.62109375,7.8125,0.0
311.85546875,-30.76171875,-83.984375,-54.19921875,-34.1796875,-15.625,0.0
311.859375,-20.99609375,-81.54296875,-50.78125,-23.4375,-1.953125,0.0
311.86328125,-26.3671875,-92.7734375,-59.5703125,-21.97265625,20.5078125,0.0
311.8671875,-63.4765625,-97.65625,-58.59375,-37.59765625,-22.94921875,0.0
311.87109375,-61.5234375,-88.37890625,-49.8046875,-38.57421875,-32.71484375,0.0
311.875,-22.94921875,-82.51953125,-43.45703125,-21.97265625,-53.7109375,0.0
311.87890625,-19.53125,-80.078125,-37.109375,-23.92578125,-75.1953125,0.0
311.8828125,-15.13671875,-79.1015625,-35.15625,-26.3671875,21.97265625,0.0
311.88671875,-10.25390625,-74.70703125,-40.0390625,-22.4609375,7.32421875,0.0
311.890625,-23.92578125,-83.0078125,-41.50390625,-22.4609375,-39.55078125,0.0
311.89453125,-26.3671875,-91.796875,-34.1796875,-17.578125,-50.78125,0.0
311.8984375,-11.23046875,-89.35546875,-26.3671875,-11.23046875,-88.8671875,0.0
311.90234375,-8.30078125,-83.0078125,-31.25,-12.20703125,-101.5625,0.0
311.90625,-12.6953125,-80.56640625,-32.71484375,-20.99609375,-51.7578125,0.0
311.91015625,-6.34765625,-78.61328125,-21.97265625,-20.5078125,59.5703125,0.0
311.9140625,-10.7421875,-73.2421875,-21.484375,-15.13671875,35.15625,0.0
311.91796875,-8.30078125,-80.56640625,-22.94921875,-11.23046875,-68.359375,0.0
311.921875,-19.53125,-88.37890625,-22.94921875,-16.6015625,7.32421875,0.0
311.92578125,-31.73828125,-83.49609375,-28.3203125,-29.78515625,129.8828125,0.0
311.9296875,-20.99609375,-84.9609375,-28.80859375,-31.73828125,64.94140625,0.0
311.93359375,-3.90625,-92.28515625,-25.87890625,-24.90234375,-9.765625,0.0
311.9375,6.8359375,-85.44921875,-31.73828125,-24.90234375,-18.5546875,0.0
311.94140625,-1.953125,-82.51953125,-35.64453125,-38.0859375,47.8515625,0.0
311.9453125,-30.76171875,-91.30859375,-36.62109375,-34.66796875,43.9453125,0.0
311.94921875,-35.64453125,-90.8203125,-33.203125,-26.3671875,-39.55078125,0.0
311.953125,-39.55078125,-97.65625,-25.87890625,-26.3671875,-30.76171875,0.0
311.95703125,-42.96875,-94.7265625,-12.20703125,-20.99609375,-47.36328125,0.0
311.9609375,-36.1328125,-92.7734375,-10.7421875,-20.99609375,-50.78125,0.0
311.96484375,-37.109375,-100.5859375,-21.484375,-20.5078125,25.87890625,0.0
311.96875,-35.64453125,-98.6328125,-35.64453125,-22.94921875,-22.94921875,0.0
311.97265625,-17.08984375,-92.7734375,-44.921875,-36.1328125,-108.88671875,0.0
311.9765625,-19.04296875,-77.63671875,-45.41015625,-42.96875,-79.58984375,0.0
311.98046875,-46.38671875,-87.40234375,-49.31640625,-40.52734375,17.578125,0.0
311.984375,-59.08203125,-106.93359375,-60.05859375,-39.0625,30.2734375,0.0
311.98828125,-47.8515625,-108.3984375,-65.91796875,-44.43359375,-43.45703125,0.0
311.9921875,-55.17578125,-104.00390625,-62.98828125,-48.828125,-69.82421875,0.0
311.99609375,-74.21875,-93.26171875,-56.640625,-52.734375,37.59765625,0.0
312.0,-55.6640625,-91.796875,-60.546875,-42.48046875,26.85546875,0.0
312.00390625,-43.9453125,-98.14453125,-72.75390625,-52.734375,-52.24609375,0.0
312.0078125,-46.875,-101.5625,-76.171875,-58.59375,-72.265625,0.0
312.01171875,-53.22265625,-107.421875,-68.84765625,-40.52734375,-40.52734375,0.0
312.015625,-59.08203125,-106.4453125,-71.77734375,-45.41015625,31.25,0.0
312.01953125,-50.29296875,-100.09765625,-69.82421875,-58.10546875,1.953125,0.0
312.0234375,-57.6171875,-103.02734375,-64.453125,-56.15234375,10.25390625,0.0
312.02734375,-52.734375,-109.375,-71.77734375,-60.05859375,20.01953125,0.0
312.03125,-45.41015625,-106.93359375,-72.265625,-67.3828125,-32.71484375,0.0
312.03515625,-48.828125,-101.07421875,-58.59375,-61.03515625,2.9296875,0.0
312.0390625,-49.31640625,-103.02734375,-55.6640625,-50.29296875,-16.6015625,0.0
312.04296875,-55.6640625,-104.98046875,-63.4765625,-51.7578125,7.32421875,0.0
312.046875,-28.3203125,-98.6328125,-72.75390625,-52.24609375,92.28515625,0.0
312.05078125,-20.5078125,-99.609375,-79.1015625,-39.55078125,-28.3203125,0.0
312.0546875,-63.4765625,-109.375,-69.3359375,-32.71484375,-101.5625,0.0
312.05859375,-74.70703125,-93.75,-55.17578125,-41.50390625,-20.5078125,0.0
312.0625,-58.10546875,-95.703125,-63.96484375,-58.10546875,-51.7578125,0.0
312.06640625,-41.50390625,-108.3984375,-73.73046875,-50.78125,-61.03515625,0.0
312.0703125,-55.17578125,-103.515625,-72.265625,-44.43359375,-104.00390625,0.0
312.07421875,-64.94140625,-100.09765625,-74.21875,-39.55078125,-86.42578125,0.0
312.078125,-41.9921875,-90.8203125,-72.265625,-36.62109375,-15.625,0.0
312.08203125,-33.203125,-85.9375,-66.89453125,-39.55078125,-27.34375,0.0
312.0859375,-41.50390625,-100.5859375,-66.40625,-42.48046875,-52.24609375,0.0
312.08984375,-62.98828125,-106.93359375,-66.40625,-40.52734375,-74.21875,0.0
312.09375,-70.80078125,-96.19140625,-57.6171875,-33.69140625,-72.75390625,0.0
312.09765625,-33.203125,-87.40234375,-48.33984375,-33.69140625,-10.7421875,0.0
312.1015625,-22.94921875,-80.56640625,-48.33984375,-34.66796875,22.94921875,0.0
312.10546875,-38.0859375,-86.42578125,-50.29296875,-35.64453125,15.625,0.0
312.109375,-59.08203125,-96.6796875,-52.24609375,-39.55078125,-31.25,0.0
312.11328125,-63.96484375,-99.12109375,-41.50390625,-35.64453125,-67.3828125,0.0
312.1171875,-41.9921875,-96.19140625,-31.25,-30.76171875,-39.55078125,0.0
312.12109375,-27.34375,-93.26171875,-35.64453125,-28.3203125,-21.97265625,0.0
312.125,-26.3671875,-93.26171875,-43.45703125,-28.3203125,9.27734375,0.0
312.12890625,-37.59765625,-93.75,-50.78125,-41.9921875,14.16015625,0.0
312.1328125,-51.26953125,-92.28515625,-50.78125,-39.0625,9.765625,0.0
312.13671875,-39.0625,-88.8671875,-41.015625,-22.4609375,-26.85546875,0.0
312.140625,-18.06640625,-83.984375,-40.52734375,-9.765625,11.23046875,0.0
312.14453125,-25.87890625,-82.51953125,-51.26953125,-21.97265625,63.96484375,0.0
312.1484375,-55.17578125,-85.9375,-61.5234375,-43.9453125,-69.3359375,0.0
312.15234375,-62.98828125,-88.8671875,-57.6171875,-40.52734375,-166.015625,0.0
312.15625,-44.43359375,-81.54296875,-47.8515625,-38.0859375,-118.1640625,0.0
312.16015625,-24.4140625,-74.70703125,-49.31640625,-42.48046875,-103.515625,0.0
312.1640625,-22.94921875,-78.61328125,-57.12890625,-45.41015625,-54.19921875,0.0
312.16796875,-28.3203125,-83.0078125,-58.10546875,-33.203125,-3.90625,0.0
312.171875,-37.59765625,-83.984375,-58.10546875,-33.69140625,15.625,0.0
312.17578125,-52.734375,-85.9375,-53.7109375,-45.41015625,5.37109375,0.0
312.1796875,-41.015625,-84.47265625,-54.19921875,-37.59765625,-11.23046875,0.0
312.18359375,-16.6015625,-77.1484375,-63.4765625,-31.25,57.6171875,0.0
312.1875,-38.57421875,-83.984375,-64.94140625,-42.96875,64.453125,0.0
312.19140625,-62.01171875,-93.75,-68.84765625,-46.875,35.15625,0.0
312.1953125,-43.9453125,-84.9609375,-67.87109375,-44.43359375,39.55078125,0.0
312.19921875,-23.4375,-79.1015625,-60.546875,-38.57421875,53.22265625,0.0
312.203125,-17.08984375,-82.03125,-59.08203125,-43.45703125,82.51953125,0.0
312.20703125,-9.27734375,-77.1484375,-66.40625,-53.7109375,48.33984375,0.0
312.2109375,-11.23046875,-84.9609375,-62.5,-38.0859375,-15.625,0.0
312.21484375,-14.16015625,-82.51953125,-50.78125,-35.64453125,-135.7421875,0.0
312.21875,-17.578125,-74.21875,-40.0390625,-39.55078125,-51.7578125,0.0
312.22265625,-51.26953125,-85.9375,-45.8984375,-33.203125,-32.2265625,0.0
312.2265625,-58.59375,-89.35546875,-56.15234375,-32.2265625,-45.41015625,0.0
312.23046875,-38.0859375,-84.47265625,-56.15234375,-25.390625,27.34375,0.0
312.234375,-31.73828125,-80.078125,-55.6640625,-22.94921875,-3.41796875,0.0
312.23828125,-34.66796875,-76.66015625,-55.6640625,-22.94921875,-102.05078125,0.0
312.2421875,-23.4375,-82.03125,-62.01171875,-27.34375,-97.16796875,0.0
312.24609375,-7.8125,-80.078125,-58.59375,-41.015625,-73.73046875,0.0
312.25,-25.390625,-82.03125,-62.5,-43.45703125,-115.72265625,0.0
312.25390625,-22.4609375,-74.70703125,-60.05859375,-39.0625,-129.8828125,0.0
312.2578125,-1.46484375,-64.94140625,-44.921875,-25.87890625,-20.5078125,0.0
312.26171875,-5.859375,-70.3125,-57.12890625,-21.484375,46.38671875,0.0
312.265625,-24.90234375,-80.56640625,-69.3359375,-30.76171875,-22.94921875,0.0
312.26953125,-64.453125,-87.890625,-66.89453125,-28.3203125,-46.38671875,0.0
312.2734375,-60.05859375,-82.03125,-69.82421875,-34.66796875,-27.34375,0.0
312.27734375,-23.4375,-79.58984375,-70.3125,-38.57421875,-62.01171875,0.0
312.28125,-27.83203125,-77.63671875,-64.453125,-24.4140625,-93.26171875,0.0
312.28515625,-41.015625,-84.47265625,-67.87109375,-30.76171875,-32.2265625,0.0
312.2890625,-39.55078125,-88.37890625,-72.265625,-45.8984375,2.44140625,0.0
312.29296875,-46.38671875,-83.49609375,-64.453125,-37.109375,-41.015625,0.0
312.296875,-39.55078125,-82.51953125,-58.59375,-27.34375,-61.5234375,0.0
312.30078125,-27.83203125,-86.42578125,-62.5,-32.2265625,-75.68359375,0.0
312.3046875,-25.87890625,-77.63671875,-61.5234375,-25.390625,-47.8515625,0.0
312.30859375,-15.13671875,-74.70703125,-64.94140625,-39.0625,54.6875,0.0
312.3125,-16.11328125,-84.47265625,-68.359375,-51.7578125,22.4609375,0.0
312.31640625,-27.83203125,-78.125,-66.89453125,-33.203125,-23.92578125,0.0
312.3203125,-38.0859375,-71.2890625,-67.87109375,-22.94921875,64.453125,0.0
312.32421875,-41.015625,-74.70703125,-66.40625,-23.4375,-10.7421875,0.0
312.328125,-21.97265625,-73.2421875,-64.453125,-41.50390625,-74.21875,0.0
312.33203125,-25.390625,-70.80078125,-63.96484375,-41.50390625,-45.41015625,0.0
312.3359375,-45.41015625,-75.1953125,-55.17578125,-18.06640625,-62.98828125,0.0
312.33984375,-31.73828125,-75.1953125,-51.26953125,-12.6953125,-21.484375,0.0
312.34375,-27.83203125,-75.68359375,-58.10546875,-29.78515625,55.17578125,0.0
312.34765625,-43.45703125,-71.77734375,-66.40625,-40.52734375,71.2890625,0.0
312.3515625,-36.1328125,-65.4296875,-65.91796875,-48.828125,1.953125,0.0
312.35546875,-23.92578125,-74.70703125,-54.6875,-42.96875,-20.01953125,0.0
312.359375,-21.484375,-80.56640625,-46.875,-18.5546875,66.89453125,0.0
312.36328125,-36.1328125,-81.54296875,-44.921875,-16.6015625,14.6484375,0.0
312.3671875,-40.52734375,-89.35546875,-58.59375,-32.71484375,-4.39453125,0.0
312.37109375,-37.109375,-84.47265625,-62.98828125,-33.69140625,75.68359375,0.0
312.375,-23.92578125,-76.171875,-49.8046875,-29.78515625,22.4609375,0.0
312.37890625,-5.37109375,-70.80078125,-40.52734375,-29.296875,-4.39453125,0.0
312.3828125,-21.97265625,-84.47265625,-48.828125,-34.66796875,20.99609375,0.0
312.38671875,-56.15234375,-95.21484375,-51.7578125,-36.1328125,9.765625,0.0
312.390625,-49.31640625,-91.30859375,-46.875,-27.34375,19.53125,0.0
312.39453125,-23.92578125,-88.8671875,-41.50390625,-20.5078125,-82.03125,0.0
312.3984375,-34.66796875,-83.49609375,-40.0390625,-30.76171875,-127.44140625,0.0
312.40234375,-39.55078125,-83.984375,-58.59375,-31.25,-115.72265625,0.0
312.40625,-28.80859375,-80.56640625,-73.2421875,-29.78515625,-139.16015625,0.0
312.41015625,-29.78515625,-70.80078125,-71.77734375,-30.76171875,-57.12890625,0.0
312.4140625,-38.0859375,-84.47265625,-62.98828125,-33.203125,-10.7421875,0.0
312.41796875,-45.41015625,-83.0078125,-54.19921875,-47.36328125,-41.9921875,0.0
312.421875,-21.97265625,-73.73046875,-50.78125,-48.33984375,25.390625,0.0
312.42578125,-29.78515625,-75.1953125,-57.12890625,-47.36328125,139.16015625,0.0
312.4296875,-59.08203125,-77.1484375,-59.08203125,-48.33984375,51.26953125,0.0
312.43359375,-43.9453125,-73.2421875,-46.875,-36.62109375,-13.18359375,0.0
312.4375,-21.484375,-65.4296875,-35.15625,-27.34375,80.078125,0.0
312.44140625,-7.8125,-61.5234375,-41.015625,-23.4375,53.7109375,0.0
312.4453125,-18.06640625,-67.87109375,-45.8984375,-27.34375,4.8828125,0.0
312.44921875,-10.7421875,-64.94140625,-43.45703125,-22.94921875,21.97265625,0.0
312.453125,-20.99609375,-66.40625,-41.015625,-26.3671875,67.3828125,0.0
312.45703125,-41.50390625,-70.80078125,-35.64453125,-26.3671875,123.046875,0.0
312.4609375,-46.875,-69.3359375,-38.57421875,-34.66796875,68.359375,0.0
312.46484375,-41.9921875,-69.82421875,-41.50390625,-31.25,23.92578125,0.0
312.46875,-37.59765625,-70.3125,-43.45703125,-28.3203125,31.73828125,0.0
312.47265625,-48.828125,-68.359375,-44.921875,-34.1796875,59.08203125,0.0
312.4765625,-31.25,-65.91796875,-43.45703125,-16.11328125,60.05859375,0.0
312.48046875,-11.23046875,-61.5234375,-46.38671875,-10.7421875,-11.71875,0.0
312.484375,-12.6953125,-63.4765625,-47.36328125,-11.23046875,-55.17578125,0.0
312.48828125,-27.34375,-76.171875,-53.7109375,-10.7421875,-69.3359375,0.0
312.4921875,-36.1328125,-81.0546875,-57.12890625,-19.53125,-80.078125,0.0
312.49609375,-17.08984375,-71.77734375,-54.19921875,-18.5546875,-53.22265625,0.0
312.5,-2.44140625,-69.3359375,-53.7109375,-15.13671875,-59.5703125,0.0
312.50390625,-11.23046875,-75.1953125,-62.5,-17.578125,4.8828125,0.0
312.5078125,-16.11328125,-68.84765625,-70.3125,-19.04296875,24.4140625,0.0
312.51171875,-9.765625,-61.5234375,-66.40625,-22.94921875,3.90625,0.0
312.515625,-4.39453125,-67.87109375,-65.4296875,-28.80859375,28.80859375,0.0
312.51953125,-9.765625,-77.63671875,-61.5234375,-35.15625,-47.36328125,0.0
312.5234375,-33.69140625,-79.58984375,-57.6171875,-27.83203125,-48.33984375,0.0
312.52734375,-53.22265625,-67.3828125,-59.5703125,-5.37109375,-68.84765625,0.0
312.53125,-47.36328125,-72.265625,-62.01171875,-5.859375,-207.03125,0.0
312.53515625,-22.4609375,-73.73046875,-53.7109375,-6.8359375,-220.703125,0.0
312.5390625,-14.16015625,-63.96484375,-46.875,-19.04296875,-165.0390625,0.0
312.54296875,-14.6484375,-64.94140625,-56.15234375,-27.34375,-140.625,0.0
312.546875,-3.90625,-64.94140625,-62.5,-18.06640625,-75.1953125,0.0
312.55078125,-13.18359375,-58.10546875,-60.05859375,-20.01953125,16.11328125,0.0
312.5546875,-30.76171875,-67.3828125,-59.5703125,-13.18359375,25.390625,0.0
312.55859375,-37.109375,-59.5703125,-55.6640625,-8.7890625,47.36328125,0.0
312.5625,-38.57421875,-66.89453125,-63.96484375,-25.87890625,-0.48828125,0.0
312.56640625,-39.0625,-76.171875,-64.94140625,-26.85546875,-23.92578125,0.0
312.5703125,-40.0390625,-69.82421875,-62.98828125,-20.01953125,44.43359375,0.0
312.57421875,-42.48046875,-72.265625,-70.80078125,-28.80859375,41.015625,0.0
312.578125,-22.4609375,-67.3828125,-68.359375,-30.2734375,57.12890625,0.0
312.58203125,6.8359375,-50.29296875,-59.5703125,-27.34375,128.90625,0.0
312.5859375,0.48828125,-60.05859375,-65.91796875,-38.57421875,96.19140625,0.0
312.58984375,-13.18359375,-77.1484375,-71.77734375,-47.8515625,37.59765625,0.0
312.59375,-29.296875,-60.546875,-50.29296875,-38.57421875,14.16015625,0.0
312.59765625,-56.15234375,-51.26953125,-40.52734375,-28.80859375,-1.953125,0.0
312.6015625,-69.82421875,-61.03515625,-45.8984375,-36.62109375,90.8203125,0.0
312.60546875,-73.73046875,-67.3828125,-46.38671875,-62.01171875,39.55078125,0.0
312.609375,-82.51953125,-54.6875,-40.52734375,-75.1953125,-82.51953125,0.0
312.61328125,-92.7734375,-60.546875,-36.1328125,-83.984375,-41.015625,0.0
312.6171875,-89.84375,-65.91796875,-37.59765625,-104.98046875,57.6171875,0.0
312.62109375,-102.05078125,-53.22265625,-38.0859375,-126.953125,94.7265625,0.0
312.625,-132.32421875,-54.6875,-37.59765625,-136.71875,26.85546875,0.0
312.62890625,-164.55078125,-57.12890625,-40.0390625,-146.484375,-10.25390625,0.0
312.6328125,-165.0390625,-54.19921875,-37.109375,-153.80859375,-87.890625,0.0
312.63671875,-172.36328125,-57.12890625,-37.109375,-164.0625,-83.984375,0.0
312.640625,-180.17578125,-61.5234375,-42.96875,-187.01171875,9.765625,0.0
312.64453125,-179.6875,-65.91796875,-52.24609375,-198.73046875,-10.25390625,0.0
312.6484375,-185.05859375,-63.4765625,-58.59375,-188.4765625,-56.640625,0.0
312.65234375,-188.96484375,-72.75390625,-57.12890625,-191.40625,-70.3125,0.0
312.65625,-203.125,-79.58984375,-44.43359375,-181.15234375,-3.41796875,0.0
312.66015625,-190.91796875,-71.77734375,-42.96875,-168.45703125,30.76171875,0.0
312.6640625,-175.29296875,-71.77734375,-48.33984375,-183.10546875,-35.15625,0.0
312.66796875,-165.52734375,-73.2421875,-45.8984375,-174.8046875,-100.5859375,0.0
312.671875,-156.25,-77.63671875,-46.38671875,-165.52734375,-154.78515625,0.0
312.67578125,-133.30078125,-70.80078125,-43.45703125,-165.0390625,-93.75,0.0
312.6796875,-114.74609375,-65.4296875,-46.38671875,-157.2265625,-19.04296875,0.0
312.68359375,-115.72265625,-78.125,-53.7109375,-142.578125,-71.2890625,0.0
312.6875,-106.4453125,-81.54296875,-59.5703125,-118.1640625,-172.36328125,0.0
312.69140625,-98.14453125,-75.68359375,-62.98828125,-102.05078125,-66.40625,0.0
312.6953125,-104.4921875,-72.265625,-57.12890625,-86.42578125,23.92578125,0.0
312.69921875,-79.1015625,-68.359375,-51.26953125,-67.3828125,26.3671875,0.0
312.703125,-60.05859375,-69.3359375,-56.640625,-52.24609375,11.71875,0.0
312.70703125,-39.0625,-66.40625,-61.03515625,-47.36328125,-55.6640625,0.0
312.7109375,-29.296875,-71.2890625,-62.98828125,-45.8984375,-95.703125,0.0
312.71484375,-39.0625,-79.58984375,-59.5703125,-37.109375,-151.3671875,0.0
312.71875,-14.6484375,-77.1484375,-49.8046875,-11.23046875,-159.66796875,0.0
312.72265625,-11.23046875,-73.73046875,-44.43359375,2.9296875,-61.03515625,0.0
312.7265625,-14.6484375,-68.359375,-53.22265625,-9.765625,-22.4609375,0.0
312.73046875,9.27734375,-69.82421875,-57.12890625,-0.9765625,-30.76171875,0.0
312.734375,31.25,-82.03125,-58.59375,7.8125,-64.453125,0.0
312.73828125,37.59765625,-75.68359375,-56.15234375,20.5078125,-72.265625,0.0
312.7421875,21.484375,-71.77734375,-57.12890625,25.390625,35.64453125,0.0
312.74609375,25.87890625,-68.359375,-67.3828125,23.4375,39.55078125,0.0
312.75,24.4140625,-70.3125,-67.87109375,28.3203125,-10.25390625,0.0
312.75390625,31.25,-82.03125,-62.98828125,33.69140625,50.78125,0.0
312.7578125,47.8515625,-77.1484375,-68.359375,37.59765625,15.13671875,0.0
312.76171875,37.109375,-74.21875,-65.4296875,34.1796875,-70.80078125,0.0
312.765625,35.15625,-74.21875,-65.4296875,23.4375,8.30078125,0.0
312.76953125,35.64453125,-63.96484375,-71.77734375,25.87890625,64.94140625,0.0
312.7734375,38.0859375,-63.4765625,-72.75390625,32.2265625,15.625,0.0
312.77734375,59.5703125,-60.05859375,-65.4296875,26.85546875,33.69140625,0.0
312.78125,44.921875,-54.19921875,-73.2421875,29.296875,14.16015625,0.0
312.78515625,20.99609375,-62.98828125,-85.44921875,27.83203125,-25.87890625,0.0
312.7890625,24.4140625,-71.2890625,-76.66015625,17.08984375,6.34765625,0.0
312.79296875,32.2265625,-74.70703125,-70.80078125,18.06640625,-65.91796875,0.0
312.796875,26.3671875,-73.73046875,-74.21875,27.34375,-130.859375,0.0
312.80078125,32.2265625,-67.87109375,-78.61328125,24.4140625,-33.69140625,0.0
312.8046875,36.1328125,-66.89453125,-87.40234375,19.53125,8.7890625,0.0
312.80859375,42.96875,-63.4765625,-94.7265625,16.6015625,20.01953125,0.0
312.8125,38.0859375,-62.01171875,-91.30859375,16.11328125,54.6875,0.0
312.81640625,8.30078125,-66.89453125,-83.984375,22.4609375,101.07421875,0.0
312.8203125,15.13671875,-66.40625,-76.66015625,25.87890625,141.6015625,0.0
312.82421875,26.85546875,-64.94140625,-79.1015625,32.71484375,76.171875,0.0
312.828125,7.8125,-68.359375,-86.42578125,25.87890625,49.8046875,0.0
312.83203125,11.23046875,-59.08203125,-77.1484375,28.3203125,91.30859375,0.0
312.8359375,20.01953125,-71.77734375,-73.2421875,18.5546875,89.84375,0.0
312.83984375,23.4375,-78.61328125,-67.87109375,2.9296875,84.9609375,0.0
312.84375,20.99609375,-69.3359375,-64.453125,6.8359375,124.51171875,0.0
312.84765625,11.71875,-72.75390625,-71.77734375,0.48828125,74.70703125,0.0
312.8515625,-3.90625,-72.265625,-74.21875,-3.90625,10.25390625,0.0
312.85546875,-24.90234375,-63.4765625,-69.82421875,4.8828125,25.390625,0.0
312.859375,-3.90625,-59.5703125,-57.12890625,23.92578125,34.1796875,0.0
312.86328125,19.53125,-62.98828125,-56.640625,18.5546875,-45.8984375,0.0
312.8671875,8.7890625,-66.40625,-62.98828125,-10.25390625,-145.01953125,0.0
312.87109375,-13.671875,-65.91796875,-53.22265625,4.39453125,-205.078125,0.0
312.875,-17.08984375,-66.89453125,-47.36328125,12.20703125,-127.44140625,0.0
312.87890625,-6.8359375,-67.87109375,-51.26953125,-5.859375,-95.21484375,0.0
312.8828125,-18.06640625,-68.359375,-55.17578125,-3.41796875,-130.37109375,0.0
312.88671875,-11.71875,-56.640625,-52.24609375,2.44140625,-133.30078125,0.0
312.890625,-3.41796875,-64.453125,-57.6171875,-14.16015625,-141.6015625,0.0
312.89453125,-12.6953125,-76.171875,-65.4296875,-12.6953125,-106.4453125,0.0
312.8984375,3.41796875,-62.5,-56.640625,-8.7890625,-17.08984375,0.0
312.90234375,-2.44140625,-61.03515625,-58.10546875,-11.23046875,-6.34765625,0.0
312.90625,-21.484375,-74.70703125,-55.6640625,-5.859375,21.97265625,0.0
312.91015625,-13.671875,-79.1015625,-44.43359375,-2.9296875,36.1328125,0.0
312.9140625,1.953125,-71.77734375,-49.8046875,-6.34765625,-70.3125,0.0
312.91796875,2.9296875,-61.5234375,-46.38671875,-8.7890625,-96.6796875,0.0
312.921875,-18.06640625,-63.4765625,-49.8046875,-13.671875,-71.77734375,0.0
312.92578125,-18.06640625,-68.84765625,-62.01171875,-13.18359375,6.8359375,0.0
312.9296875,-19.53125,-73.2421875,-67.3828125,-10.7421875,101.07421875,0.0
312.93359375,-19.04296875,-68.84765625,-57.12890625,-15.13671875,96.6796875,0.0
312.9375,-6.34765625,-60.05859375,-41.50390625,-5.37109375,45.41015625,0.0
312.94140625,0.0,-59.08203125,-41.50390625,-6.34765625,15.625,0.0
312.9453125,-19.53125,-68.84765625,-50.29296875,-22.4609375,-2.9296875,0.0
312.94921875,-45.41015625,-74.70703125,-57.6171875,-23.4375,31.73828125,0.0
312.953125,-40.52734375,-67.87109375,-50.29296875,-16.6015625,39.55078125,0.0
312.95703125,-36.62109375,-65.4296875,-44.43359375,-20.5078125,-1.953125,0.0
312.9609375,-30.2734375,-65.91796875,-46.875,-26.85546875,47.8515625,0.0
312.96484375,-16.11328125,-65.91796875,-47.8515625,-26.85546875,98.6328125,0.0
312.96875,-17.08984375,-60.546875,-48.33984375,-33.69140625,164.55078125,0.0
312.97265625,-22.94921875,-70.3125,-41.015625,-29.296875,160.15625,0.0
312.9765625,-15.625,-77.1484375,-34.1796875,-13.18359375,97.16796875,0.0
312.98046875,-10.7421875,-62.01171875,-30.76171875,-7.32421875,143.5546875,0.0
312.984375,-15.625,-66.40625,-37.109375,-16.11328125,126.953125,0.0
312.98828125,-27.83203125,-80.078125,-41.9921875,-29.78515625,20.5078125,0.0
312.9921875,-22.94921875,-72.265625,-36.1328125,-35.15625,-37.59765625,0.0
312.99609375,-2.9296875,-61.03515625,-32.2265625,-41.9921875,-75.68359375,0.0
313.0,6.8359375,-57.12890625,-37.109375,-47.36328125,-27.34375,0.0
313.00390625,-9.765625,-67.87109375,-41.9921875,-41.015625,73.2421875,0.0
313.0078125,-47.36328125,-70.3125,-37.59765625,-35.15625,6.34765625,0.0
313.01171875,-62.5,-65.91796875,-38.0859375,-39.55078125,-42.48046875,0.0
313.015625,-65.91796875,-75.1953125,-36.62109375,-41.50390625,26.85546875,0.0
313.01953125,-49.8046875,-73.73046875,-33.69140625,-32.71484375,27.34375,0.0
313.0234375,-34.66796875,-70.3125,-42.48046875,-39.55078125,-31.25,0.0
313.02734375,-37.109375,-68.359375,-50.29296875,-45.41015625,-83.984375,0.0
313.03125,-45.8984375,-68.359375,-51.7578125,-30.2734375,-121.09375,0.0
313.03515625,-33.203125,-69.3359375,-55.17578125,-22.4609375,-17.578125,0.0
313.0390625,-20.5078125,-71.77734375,-59.08203125,-28.80859375,39.55078125,0.0
313.04296875,-19.04296875,-77.63671875,-56.15234375,-36.1328125,-56.15234375,0.0
313.046875,-31.73828125,-75.68359375,-59.08203125,-45.41015625,-42.96875,0.0
313.05078125,-56.15234375,-73.2421875,-66.40625,-65.4296875,5.37109375,0.0
313.0546875,-46.875,-65.4296875,-57.12890625,-56.640625,7.32421875,0.0
313.05859375,-22.94921875,-61.5234375,-53.22265625,-39.55078125,-2.9296875,0.0
313.0625,-7.8125,-70.3125,-56.15234375,-47.36328125,-41.50390625,0.0
313.06640625,-30.76171875,-79.1015625,-59.5703125,-51.7578125,-61.5234375,0.0
313.0703125,-48.33984375,-82.51953125,-60.546875,-33.203125,-30.2734375,0.0
313.07421875,-34.1796875,-78.61328125,-53.22265625,-29.296875,4.8828125,0.0
313.078125,-8.7890625,-71.77734375,-42.96875,-32.71484375,26.85546875,0.0
313.08203125,-5.859375,-74.70703125,-40.0390625,-25.390625,30.2734375,0.0
313.0859375,-42.96875,-94.7265625,-49.8046875,-17.08984375,22.94921875,0.0
313.08984375,-40.52734375,-96.6796875,-60.05859375,-29.296875,-9.765625,0.0
313.09375,-17.08984375,-84.9609375,-45.41015625,-38.0859375,-35.15625,0.0
313.09765625,-11.71875,-80.56640625,-32.71484375,-36.1328125,-5.37109375,0.0
313.1015625,-26.85546875,-75.68359375,-30.2734375,-30.76171875,67.87109375,0.0
313.10546875,-45.8984375,-76.66015625,-30.76171875,-19.53125,64.453125,0.0
313.109375,-42.48046875,-83.984375,-37.59765625,-40.0390625,-15.13671875,0.0
313.11328125,-19.04296875,-74.21875,-33.69140625,-41.9921875,-9.765625,0.0
313.1171875,-5.37109375,-66.40625,-24.90234375,-23.4375,-52.24609375,0.0
313.12109375,-22.94921875,-69.3359375,-27.83203125,-32.2265625,-97.16796875,0.0
313.125,-50.78125,-75.1953125,-44.43359375,-34.1796875,-43.9453125,0.0
313.12890625,-54.6875,-75.1953125,-60.546875,-36.62109375,28.3203125,0.0
313.1328125,-41.015625,-66.89453125,-56.640625,-38.57421875,19.53125,0.0
313.13671875,-29.78515625,-66.89453125,-43.9453125,-27.83203125,10.25390625,0.0
313.140625,-21.484375,-65.4296875,-42.96875,-33.203125,50.29296875,0.0
313.14453125,-20.5078125,-56.15234375,-54.6875,-43.9453125,68.359375,0.0
313.1484375,-24.4140625,-62.5,-55.17578125,-38.57421875,41.9921875,0.0
313.15234375,-29.296875,-68.84765625,-43.45703125,-35.64453125,-19.53125,0.0
313.15625,-36.62109375,-62.01171875,-38.57421875,-30.76171875,-55.6640625,0.0
313.16015625,-28.3203125,-53.22265625,-37.109375,-18.5546875,-10.25390625,0.0
313.1640625,-36.62109375,-66.40625,-32.71484375,-19.04296875,43.9453125,0.0
313.16796875,-33.203125,-78.61328125,-31.25,-34.66796875,12.6953125,0.0
313.171875,-16.11328125,-69.3359375,-30.2734375,-44.43359375,-95.703125,0.0
313.17578125,-14.6484375,-57.12890625,-26.85546875,-33.203125,-79.1015625,0.0
313.1796875,-8.30078125,-58.59375,-29.296875,-26.85546875,-4.39453125,0.0
313.18359375,-34.1796875,-62.98828125,-39.0625,-29.78515625,-8.30078125,0.0
313.1875,-62.5,-66.40625,-49.8046875,-30.76171875,-122.55859375,0.0
313.19140625,-60.546875,-59.5703125,-50.78125,-28.3203125,-185.05859375,0.0
313.1953125,-34.66796875,-50.29296875,-46.38671875,-26.85546875,-167.96875,0.0
313.19921875,-14.16015625,-54.19921875,-47.36328125,-22.94921875,-165.52734375,0.0
313.203125,-2.44140625,-57.12890625,-47.36328125,-17.578125,-149.4140625,0.0
313.20703125,-18.5546875,-54.6875,-45.41015625,-22.94921875,-29.78515625,0.0
313.2109375,-41.015625,-58.59375,-44.921875,-29.78515625,76.66015625,0.0
313.21484375,-25.87890625,-58.59375,-41.9921875,-30.2734375,26.85546875,0.0
313.21875,-6.34765625,-57.12890625,-34.66796875,-22.94921875,-66.40625,0.0
313.22265625,-18.5546875,-60.546875,-38.57421875,-18.06640625,2.9296875,0.0
313.2265625,-36.62109375,-67.3828125,-53.22265625,-29.296875,26.85546875,0.0
313.23046875,-32.2265625,-67.87109375,-52.734375,-40.0390625,50.29296875,0.0
313.234375,-12.20703125,-60.546875,-41.9921875,-39.55078125,96.19140625,0.0
313.23828125,-10.25390625,-60.05859375,-31.25,-26.85546875,48.828125,0.0
313.2421875,-31.25,-64.94140625,-33.203125,-24.90234375,-34.1796875,0.0
313.24609375,-53.7109375,-67.3828125,-43.45703125,-34.66796875,4.8828125,0.0
313.25,-48.33984375,-65.91796875,-46.875,-29.78515625,-10.25390625,0.0
313.25390625,-26.85546875,-58.59375,-40.0390625,-11.71875,-57.6171875,0.0
313.2578125,-23.4375,-52.734375,-41.015625,-15.13671875,-11.23046875,0.0
313.26171875,-34.1796875,-55.6640625,-48.828125,-32.71484375,20.5078125,0.0
313.265625,-50.78125,-71.77734375,-59.5703125,-30.2734375,6.34765625,0.0
313.26953125,-28.3203125,-78.125,-68.84765625,-26.3671875,17.08984375,0.0
313.2734375,-19.04296875,-70.3125,-62.98828125,-39.0625,17.578125,0.0
313.27734375,-25.87890625,-55.6640625,-53.22265625,-40.0390625,92.28515625,0.0
313.28125,-21.97265625,-62.5,-57.12890625,-36.62109375,114.74609375,0.0
313.28515625,-23.4375,-68.359375,-59.08203125,-32.2265625,-23.92578125,0.0
313.2890625,-17.578125,-61.5234375,-54.6875,-32.2265625,-84.9609375,0.0
313.29296875,-23.92578125,-66.89453125,-49.8046875,-28.3203125,-87.890625,0.0
313.296875,-25.87890625,-67.87109375,-46.38671875,-11.71875,-29.78515625,0.0
313.30078125,-21.97265625,-60.546875,-48.33984375,-13.671875,-93.75,0.0
313.3046875,-15.13671875,-62.01171875,-49.31640625,-37.109375,-153.3203125,0.0
313.30859375,3.41796875,-61.5234375,-42.48046875,-41.9921875,-106.4453125,0.0
313.3125,3.41796875,-53.7109375,-34.1796875,-19.53125,-136.71875,0.0
313.31640625,5.37109375,-54.6875,-30.76171875,-27.34375,-95.21484375,0.0
313.3203125,2.44140625,-65.91796875,-33.203125,-36.1328125,8.30078125,0.0
313.32421875,-33.69140625,-67.87109375,-38.0859375,-30.2734375,32.2265625,0.0
313.328125,-74.21875,-67.3828125,-41.9921875,-29.296875,22.4609375,0.0
313.33203125,-65.91796875,-70.80078125,-35.15625,-22.94921875,8.7890625,0.0
313.3359375,-48.33984375,-67.3828125,-24.90234375,-21.97265625,76.171875,0.0
313.33984375,-43.45703125,-67.3828125,-28.80859375,-17.578125,118.65234375,0.0
313.34375,-41.50390625,-75.68359375,-41.015625,-36.62109375,81.54296875,0.0
313.34765625,-34.1796875,-75.68359375,-51.7578125,-48.33984375,26.3671875,0.0
313.3515625,-35.15625,-69.3359375,-54.6875,-44.43359375,11.71875,0.0
313.35546875,-27.34375,-59.08203125,-47.8515625,-34.66796875,-48.828125,0.0
313.359375,-27.34375,-58.59375,-48.828125,-25.390625,-51.7578125,0.0
313.36328125,-43.9453125,-72.265625,-57.6171875,-27.83203125,-30.76171875,0.0
313.3671875,-44.43359375,-68.84765625,-61.03515625,-32.71484375,-89.35546875,0.0
313.37109375,-30.2734375,-60.546875,-61.5234375,-44.43359375,-114.2578125,0.0
313.375,-7.8125,-66.40625,-53.7109375,-38.57421875,-93.26171875,0.0
313.37890625,-3.41796875,-63.4765625,-48.828125,-33.203125,28.3203125,0.0
313.3828125,-27.34375,-58.10546875,-51.7578125,-43.9453125,40.0390625,0.0
313.38671875,-40.52734375,-72.75390625,-60.05859375,-42.96875,-41.9921875,0.0
313.390625,-32.2265625,-82.51953125,-68.359375,-36.62109375,-48.33984375,0.0
313.39453125,-22.4609375,-75.68359375,-58.10546875,-36.1328125,-56.15234375,0.0
313.3984375,-32.71484375,-68.84765625,-49.31640625,-31.73828125,-10.25390625,0.0
313.40234375,-32.71484375,-63.4765625,-54.19921875,-24.4140625,50.78125,0.0
313.40625,-21.97265625,-64.94140625,-61.5234375,-27.83203125,35.15625,0.0
313.41015625,-29.296875,-75.1953125,-64.453125,-33.69140625,16.6015625,0.0
313.4140625,-30.76171875,-70.3125,-57.6171875,-26.85546875,4.39453125,0.0
313.41796875,-23.92578125,-58.59375,-50.29296875,-20.99609375,5.859375,0.0
313.421875,-16.6015625,-60.546875,-56.640625,-20.01953125,54.6875,0.0
313.42578125,-11.23046875,-66.40625,-68.84765625,-17.578125,90.33203125,0.0
313.4296875,-30.76171875,-72.265625,-69.3359375,-25.390625,-21.97265625,0.0
313.43359375,-48.33984375,-72.75390625,-57.12890625,-30.2734375,-74.21875,0.0
313.4375,-25.87890625,-72.265625,-45.8984375,-25.390625,-64.94140625,0.0
313.44140625,-17.578125,-71.77734375,-50.78125,-37.59765625,-72.265625,0.0
313.4453125,-34.66796875,-76.66015625,-64.453125,-56.640625,-30.2734375,0.0
313.44921875,-41.50390625,-78.125,-67.3828125,-52.24609375,-11.23046875,0.0
313.453125,-32.2265625,-69.82421875,-63.96484375,-35.15625,-0.9765625,0.0
313.45703125,-20.99609375,-65.91796875,-60.05859375,-38.0859375,12.6953125,0.0
313.4609375,-4.39453125,-64.94140625,-54.6875,-44.43359375,42.48046875,0.0
313.46484375,8.30078125,-58.59375,-60.05859375,-33.69140625,1.953125,0.0
313.46875,-6.34765625,-64.453125,-70.80078125,-31.73828125,-40.52734375,0.0
313.47265625,-26.85546875,-83.984375,-63.96484375,-40.52734375,-9.765625,0.0
313.4765625,-32.71484375,-77.1484375,-53.22265625,-36.62109375,-34.66796875,0.0
313.48046875,-35.15625,-68.84765625,-52.734375,-33.69140625,-60.546875,0.0
313.484375,-28.3203125,-76.171875,-52.24609375,-39.0625,-61.03515625,0.0
313.48828125,-48.33984375,-79.1015625,-54.6875,-31.25,-57.12890625,0.0
313.4921875,-66.89453125,-80.078125,-52.24609375,-18.5546875,-101.5625,0.0
313.49609375,-45.41015625,-68.84765625,-45.41015625,-13.18359375,-66.40625,0.0
313.5,-23.92578125,-63.4765625,-50.78125,-22.94921875,-44.921875,0.0
313.50390625,-28.80859375,-62.5,-63.96484375,-41.50390625,-35.64453125,0.0
313.5078125,-36.1328125,-70.80078125,-78.125,-43.45703125,-19.53125,0.0
313.51171875,-26.85546875,-73.73046875,-74.21875,-30.76171875,-14.16015625,0.0
313.515625,-15.625,-66.89453125,-60.05859375,-20.99609375,-53.7109375,0.0
313.51953125,-26.85546875,-69.3359375,-60.546875,-25.390625,-63.4765625,0.0
313.5234375,-43.9453125,-66.89453125,-65.4296875,-26.85546875,81.0546875,0.0
313.52734375,-43.9453125,-70.3125,-71.2890625,-32.71484375,57.12890625,0.0
313.53125,-20.5078125,-73.73046875,-76.171875,-37.59765625,15.625,0.0
313.53515625,-1.953125,-61.5234375,-66.40625,-30.2734375,74.21875,0.0
313.5390625,-21.484375,-62.01171875,-60.546875,-20.99609375,66.89453125,0.0
313.54296875,-40.52734375,-64.453125,-66.89453125,-27.34375,61.03515625,0.0
313.546875,-47.8515625,-68.84765625,-76.66015625,-54.6875,44.43359375,0.0
313.55078125,-41.50390625,-73.2421875,-79.1015625,-49.31640625,21.97265625,0.0
313.5546875,-26.85546875,-65.4296875,-74.21875,-31.25,-37.59765625,0.0
313.55859375,-30.76171875,-55.6640625,-64.453125,-28.3203125,-41.50390625,0.0
313.5625,-41.015625,-59.5703125,-67.3828125,-18.5546875,15.13671875,0.0
313.56640625,-50.78125,-68.359375,-74.21875,-28.3203125,-41.9921875,0.0
313.5703125,-46.875,-59.08203125,-66.89453125,-48.33984375,-133.30078125,0.0
313.57421875,-37.59765625,-55.17578125,-58.10546875,-52.24609375,-89.35546875,0.0
313.578125,-43.45703125,-64.453125,-55.17578125,-48.33984375,-20.01953125,0.0
313.58203125,-50.29296875,-65.91796875,-57.12890625,-43.9453125,-38.0859375,0.0
313.5859375,-54.6875,-66.40625,-59.08203125,-46.875,0.48828125,0.0
313.58984375,-37.109375,-61.5234375,-57.12890625,-49.31640625,94.7265625,0.0
313.59375,-26.85546875,-53.22265625,-50.29296875,-42.96875,26.3671875,0.0
313.59765625,-30.2734375,-41.9921875,-41.015625,-37.59765625,-28.3203125,0.0
313.6015625,-29.78515625,-38.0859375,-34.1796875,-34.1796875,30.2734375,0.0
313.60546875,-28.3203125,-49.8046875,-43.45703125,-43.9453125,41.015625,0.0
313.609375,-18.06640625,-55.17578125,-45.41015625,-47.36328125,29.78515625,0.0
313.61328125,-25.390625,-51.26953125,-42.48046875,-35.15625,3.90625,0.0
313.6171875,-23.92578125,-44.921875,-46.875,-42.48046875,-14.6484375,0.0
313.62109375,-20.01953125,-42.48046875,-45.41015625,-54.19921875,-16.6015625,0.0
313.625,-36.62109375,-54.19921875,-53.22265625,-55.6640625,-4.39453125,0.0
313.62890625,-59.08203125,-58.10546875,-60.546875,-45.41015625,-61.03515625,0.0
313.6328125,-59.08203125,-54.6875,-53.22265625,-43.9453125,-104.00390625,0.0
313.63671875,-31.73828125,-50.29296875,-43.45703125,-37.109375,-81.0546875,0.0
313.640625,-19.04296875,-43.45703125,-44.921875,-29.78515625,-42.48046875,0.0
313.64453125,-17.578125,-49.31640625,-53.22265625,-41.9921875,31.73828125,0.0
313.6484375,-8.30078125,-59.08203125,-58.59375,-46.875,28.3203125,0.0
313.65234375,-5.37109375,-54.6875,-49.8046875,-38.57421875,-27.83203125,0.0
313.65625,-30.76171875,-51.7578125,-41.50390625,-36.1328125,16.6015625,0.0
313.66015625,-50.78125,-65.4296875,-58.59375,-34.66796875,20.99609375,0.0
313.6640625,-53.7109375,-68.84765625,-71.77734375,-33.69140625,-0.48828125,0.0
313.66796875,-55.6640625,-66.40625,-70.3125,-27.34375,53.7109375,0.0
313.671875,-51.7578125,-75.1953125,-77.63671875,-36.1328125,-16.11328125,0.0
313.67578125,-45.8984375,-74.21875,-73.73046875,-38.0859375,-60.546875,0.0
313.6796875,-35.64453125,-65.4296875,-64.453125,-38.0859375,-31.25,0.0
313.68359375,-32.71484375,-64.453125,-66.40625,-38.0859375,-36.62109375,0.0
313.6875,-42.48046875,-70.80078125,-67.3828125,-32.71484375,-39.0625,0.0
313.69140625,-32.71484375,-73.2421875,-63.4765625,-28.3203125,-33.203125,0.0
313.6953125,-31.25,-66.40625,-55.6640625,-24.4140625,-19.04296875,0.0
313.69921875,-30.2734375,-54.6875,-50.29296875,-32.2265625,28.80859375,0.0
313.703125,-21.484375,-55.17578125,-54.19921875,-42.96875,38.0859375,0.0
313.70703125,-30.76171875,-63.4765625,-65.4296875,-39.55078125,-4.8828125,0.0
313.7109375,-28.80859375,-56.15234375,-63.96484375,-30.2734375,-20.5078125,0.0
313.71484375,-18.5546875,-50.78125,-62.98828125,-28.3203125,27.34375,0.0
313.71875,-19.53125,-54.19921875,-69.3359375,-33.69140625,30.2734375,0.0
313.72265625,-6.34765625,-66.89453125,-79.58984375,-36.1328125,-5.859375,0.0
313.7265625,-1.953125,-72.265625,-92.28515625,-42.96875,10.25390625,0.0
313.73046875,-4.39453125,-62.98828125,-95.703125,-41.50390625,-26.85546875,0.0
313.734375,-17.08984375,-61.03515625,-90.8203125,-36.1328125,-88.37890625,0.0
313.73828125,-41.015625,-62.5,-85.44921875,-32.71484375,-39.55078125,0.0
313.7421875,-59.08203125,-60.546875,-93.75,-28.80859375,72.265625,0.0
313.74609375,-52.734375,-50.29296875,-99.609375,-18.5546875,96.19140625,0.0
313.75,-43.45703125,-65.91796875,-104.00390625,-22.4609375,39.0625,0.0
313.75390625,-41.015625,-71.2890625,-103.515625,-40.52734375,0.48828125,0.0
313.7578125,-33.69140625,-55.17578125,-95.21484375,-29.78515625,59.08203125,0.0
313.76171875,-19.53125,-48.828125,-96.6796875,-18.06640625,76.171875,0.0
313.765625,-12.20703125,-56.640625,-108.3984375,-27.34375,31.25,0.0
313.76953125,-30.76171875,-58.10546875,-111.328125,-38.57421875,46.38671875,0.0
313.7734375,-45.41015625,-53.7109375,-98.14453125,-39.0625,-39.55078125,0.0
313.77734375,-47.36328125,-55.6640625,-94.23828125,-43.9453125,-23.92578125,0.0
313.78125,-47.8515625,-54.6875,-100.5859375,-43.9453125,-17.08984375,0.0
313.78515625,-53.22265625,-62.5,-104.98046875,-44.43359375,-67.87109375,0.0
313.7890625,-56.640625,-68.84765625,-111.328125,-48.828125,-5.859375,0.0
313.79296875,-57.6171875,-56.640625,-104.4921875,-36.1328125,33.69140625,0.0
313.796875,-60.546875,-63.4765625,-95.21484375,-36.62109375,-1.953125,0.0
313.80078125,-40.52734375,-71.2890625,-90.8203125,-42.96875,-70.80078125,0.0
313.8046875,-25.87890625,-52.24609375,-86.9140625,-31.25,-3.41796875,0.0
313.80859375,-48.828125,-53.22265625,-93.26171875,-32.2265625,6.8359375,0.0
313.8125,-53.22265625,-60.546875,-92.28515625,-37.109375,-25.390625,0.0
313.81640625,-43.9453125,-56.15234375,-77.1484375,-32.71484375,20.5078125,0.0
313.8203125,-32.2265625,-55.17578125,-72.265625,-26.3671875,-36.1328125,0.0
313.82421875,-27.83203125,-48.33984375,-78.125,-25.390625,-82.03125,0.0
313.828125,-27.34375,-48.828125,-75.1953125,-25.87890625,-96.6796875,0.0
313.83203125,-16.6015625,-61.5234375,-70.3125,-26.3671875,-67.3828125,0.0
313.8359375,-30.2734375,-58.59375,-67.3828125,-23.92578125,-30.2734375,0.0
313.83984375,-35.15625,-48.828125,-64.94140625,-24.90234375,-5.859375,0.0
313.84375,-23.4375,-60.546875,-71.77734375,-30.2734375,14.16015625,0.0
313.84765625,-33.69140625,-62.98828125,-70.3125,-28.3203125,-7.8125,0.0
313.8515625,-31.73828125,-53.22265625,-62.01171875,-32.2265625,0.9765625,0.0
313.85546875,-11.71875,-55.17578125,-54.19921875,-27.34375,-39.55078125,0.0
313.859375,-10.7421875,-60.05859375,-50.78125,-16.11328125,-23.92578125,0.0
313.86328125,-36.62109375,-61.03515625,-52.734375,-13.671875,42.48046875,0.0
313.8671875,-61.03515625,-61.5234375,-56.15234375,-23.92578125,-27.83203125,0.0
313.87109375,-46.875,-54.6875,-57.6171875,-26.85546875,-79.58984375,0.0
313.875,-27.83203125,-52.24609375,-58.10546875,-17.08984375,-24.90234375,0.0
313.87890625,-21.484375,-49.31640625,-49.31640625,-5.859375,50.29296875,0.0
313.8828125,-24.90234375,-50.78125,-41.015625,14.6484375,7.32421875,0.0
313.88671875,-41.9921875,-49.31640625,-47.8515625,-3.90625,-73.2421875,0.0
313.890625,-52.734375,-49.8046875,-53.22265625,-37.109375,-54.19921875,0.0
313.89453125,-53.22265625,-45.41015625,-50.78125,-44.43359375,-68.359375,0.0
313.8984375,-46.875,-39.55078125,-49.8046875,-38.57421875,-41.015625,0.0
313.90234375,-40.52734375,-43.45703125,-57.12890625,-21.97265625,-7.8125,0.0
313.90625,-54.19921875,-47.36328125,-70.80078125,-49.31640625,9.765625,0.0
313.91015625,-52.734375,-46.875,-72.265625,-64.94140625,12.20703125,0.0
313.9140625,-42.48046875,-41.50390625,-62.98828125,-55.6640625,2.44140625,0.0
313.91796875,-42.96875,-47.36328125,-55.17578125,-55.17578125,98.6328125,0.0
313.921875,-30.2734375,-48.33984375,-57.6171875,-45.41015625,56.640625,0.0
313.92578125,-28.80859375,-45.41015625,-63.96484375,-39.0625,-28.3203125,0.0
313.9296875,-45.8984375,-47.36328125,-61.5234375,-38.0859375,56.15234375,0.0
313.93359375,-34.1796875,-47.8515625,-47.36328125,-32.71484375,55.6640625,0.0
313.9375,-9.765625,-43.9453125,-40.52734375,-26.85546875,2.9296875,0.0
313.94140625,-3.90625,-41.50390625,-48.828125,-22.4609375,57.12890625,0.0
313.9453125,-11.23046875,-43.45703125,-52.734375,-24.4140625,-4.8828125,0.0
313.94921875,-20.5078125,-58.10546875,-52.734375,-29.78515625,-50.29296875,0.0
313.953125,-39.0625,-59.08203125,-54.6875,-27.83203125,-26.85546875,0.0
313.95703125,-53.22265625,-44.43359375,-43.9453125,-29.78515625,-52.734375,0.0
313.9609375,-47.36328125,-53.22265625,-35.64453125,-32.71484375,-16.6015625,0.0
313.96484375,-47.36328125,-65.4296875,-42.48046875,-29.296875,70.3125,0.0
313.96875,-41.015625,-59.08203125,-55.6640625,-34.66796875,146.484375,0.0
313.97265625,-46.875,-56.640625,-55.17578125,-23.4375,112.3046875,0.0
313.9765625,-35.64453125,-55.6640625,-51.26953125,-20.99609375,176.26953125,0.0
313.98046875,-7.8125,-43.45703125,-47.8515625,-25.390625,143.06640625,0.0
313.984375,-18.5546875,-46.875,-51.26953125,-31.73828125,14.16015625,0.0
313.98828125,-50.29296875,-56.640625,-57.6171875,-37.59765625,-17.08984375,0.0
313.9921875,-32.71484375,-50.29296875,-57.6171875,-31.25,1.46484375,0.0
313.99609375,-9.765625,-53.22265625,-52.734375,-18.5546875,-17.578125,0.0
314.0,-34.66796875,-51.7578125,-49.8046875,-19.04296875,-19.53125,0.0
314.00390625,-36.62109375,-47.36328125,-58.59375,-30.2734375,-30.2734375,0.0
314.0078125,-30.2734375,-55.6640625,-65.4296875,-25.390625,-123.046875,0.0
314.01171875,-33.203125,-52.734375,-63.96484375,-27.34375,-83.0078125,0.0
314.015625,-21.484375,-46.875,-61.5234375,-34.66796875,-11.71875,0.0
314.01953125,-19.04296875,-47.8515625,-54.19921875,-35.64453125,-34.1796875,0.0
314.0234375,-31.25,-46.38671875,-54.19921875,-31.25,-25.87890625,0.0
314.02734375,-32.2265625,-46.38671875,-63.96484375,-38.0859375,-78.61328125,0.0
314.03125,-32.2265625,-49.8046875,-64.453125,-36.62109375,-99.609375,0.0
314.03515625,-38.57421875,-51.26953125,-62.98828125,-32.2265625,-51.26953125,0.0
314.0390625,-47.8515625,-50.29296875,-62.01171875,-35.15625,-29.78515625,0.0
314.04296875,-40.0390625,-35.15625,-59.5703125,-33.69140625,-19.04296875,0.0
314.046875,-31.25,-40.0390625,-61.5234375,-36.1328125,-51.26953125,0.0
314.05078125,-36.62109375,-58.10546875,-58.10546875,-40.0390625,-48.33984375,0.0
314.0546875,-19.53125,-49.8046875,-47.36328125,-50.29296875,-79.58984375,0.0
314.05859375,-6.34765625,-47.36328125,-41.015625,-42.48046875,-169.43359375,0.0
314.0625,-48.33984375,-45.8984375,-41.015625,-35.64453125,-193.84765625,0.0
314.06640625,-57.6171875,-50.78125,-42.48046875,-37.59765625,-181.640625,0.0
314.0703125,-45.8984375,-60.546875,-44.921875,-27.83203125,-179.6875,0.0
314.07421875,-49.31640625,-48.33984375,-39.55078125,-17.08984375,-209.47265625,0.0
314.078125,-28.80859375,-47.8515625,-32.71484375,-38.57421875,-208.49609375,0.0
314.08203125,-20.01953125,-49.31640625,-38.0859375,-41.015625,-149.4140625,0.0
314.0859375,-24.90234375,-52.24609375,-43.9453125,-36.62109375,-29.78515625,0.0
314.08984375,-31.25,-62.01171875,-39.0625,-44.921875,-13.671875,0.0
314.09375,-40.0390625,-58.10546875,-29.78515625,-32.2265625,-37.59765625,0.0
314.09765625,-26.3671875,-52.734375,-23.4375,-20.01953125,63.4765625,0.0
314.1015625,-17.578125,-50.29296875,-28.80859375,-18.06640625,49.31640625,0.0
314.10546875,-41.9921875,-49.31640625,-34.66796875,-25.87890625,30.2734375,0.0
314.109375,-48.828125,-44.921875,-37.59765625,-25.87890625,45.41015625,0.0
314.11328125,-27.83203125,-48.33984375,-37.109375,-12.6953125,37.59765625,0.0
314.1171875,-21.97265625,-42.96875,-27.83203125,-6.34765625,89.35546875,0.0
314.12109375,-26.85546875,-40.0390625,-30.2734375,-28.80859375,66.89453125,0.0
314.125,-35.64453125,-55.17578125,-42.96875,-49.31640625,107.421875,0.0
314.12890625,-40.52734375,-57.6171875,-45.8984375,-30.2734375,114.74609375,0.0
314.1328125,-35.15625,-49.31640625,-44.921875,-27.34375,13.18359375,0.0
314.13671875,-14.6484375,-39.55078125,-44.43359375,-30.76171875,-17.08984375,0.0
314.140625,-11.71875,-39.55078125,-42.48046875,-24.4140625,4.8828125,0.0
314.14453125,-25.390625,-49.31640625,-44.43359375,-23.92578125,26.85546875,0.0
314.1484375,-26.3671875,-49.8046875,-39.55078125,-25.390625,21.484375,0.0
314.15234375,-9.765625,-47.36328125,-33.203125,-24.90234375,-25.390625,0.0
314.15625,-3.90625,-47.8515625,-30.76171875,-26.85546875,-31.73828125,0.0
314.16015625,-16.11328125,-39.0625,-30.76171875,-29.78515625,30.76171875,0.0
314.1640625,-24.4140625,-39.55078125,-33.69140625,-24.4140625,42.48046875,0.0
314.16796875,-26.3671875,-55.6640625,-39.55078125,-20.5078125,31.25,0.0
314.171875,-30.2734375,-61.5234375,-42.96875,-24.90234375,-18.5546875,0.0
314.17578125,-32.2265625,-50.78125,-34.1796875,-24.4140625,-108.88671875,0.0
314.1796875,-32.2265625,-47.8515625,-28.80859375,-21.97265625,-112.79296875,0.0
314.18359375,-32.71484375,-55.17578125,-34.1796875,-20.5078125,-94.7265625,0.0
314.1875,-41.015625,-56.15234375,-32.71484375,-19.04296875,-125.9765625,0.0
314.19140625,-30.76171875,-50.29296875,-27.83203125,-36.1328125,-70.3125,0.0
314.1953125,-19.53125,-44.921875,-24.4140625,-37.109375,10.25390625,0.0
314.19921875,-22.94921875,-54.6875,-25.390625,-36.1328125,24.90234375,0.0
314.203125,-41.9921875,-55.6640625,-34.1796875,-45.8984375,30.76171875,0.0
314.20703125,-61.5234375,-57.12890625,-39.55078125,-34.1796875,-15.625,0.0
314.2109375,-50.29296875,-55.17578125,-40.0390625,-30.76171875,-36.62109375,0.0
314.21484375,-35.15625,-44.43359375,-32.71484375,-30.76171875,28.80859375,0.0
314.21875,-17.578125,-47.8515625,-24.4140625,-23.92578125,163.57421875,0.0
314.22265625,-9.27734375,-54.6875,-23.4375,-17.578125,150.390625,0.0
314.2265625,-43.45703125,-51.26953125,-34.1796875,-22.94921875,53.7109375,0.0
314.23046875,-60.05859375,-55.17578125,-42.48046875,-45.8984375,-21.484375,0.0
314.234375,-50.29296875,-57.6171875,-36.62109375,-40.0390625,-51.26953125,0.0
314.23828125,-54.19921875,-50.29296875,-33.69140625,-33.69140625,-11.23046875,0.0
314.2421875,-42.48046875,-42.96875,-32.71484375,-32.2265625,2.9296875,0.0
314.24609375,-32.2265625,-40.52734375,-30.2734375,-25.87890625,18.06640625,0.0
314.25,-32.71484375,-48.33984375,-30.76171875,-30.2734375,40.0390625,0.0
314.25390625,-22.4609375,-51.7578125,-25.390625,-29.78515625,-13.18359375,0.0
314.2578125,4.39453125,-42.96875,-17.578125,-25.390625,-42.96875,0.0
314.26171875,-1.46484375,-30.76171875,-21.97265625,-32.2265625,5.37109375,0.0
314.265625,-33.203125,-34.66796875,-35.15625,-32.71484375,-12.20703125,0.0
314.26953125,-41.50390625,-58.10546875,-36.62109375,-36.1328125,-63.96484375,0.0
314.2734375,-32.2265625,-57.12890625,-27.34375,-30.2734375,11.23046875,0.0
314.27734375,-11.23046875,-41.015625,-23.92578125,-31.25,50.78125,0.0
314.28125,-7.8125,-42.96875,-27.83203125,-33.203125,21.97265625,0.0
314.28515625,-28.3203125,-51.7578125,-30.2734375,-32.2265625,-24.4140625,0.0
314.2890625,-32.2265625,-50.29296875,-27.34375,-38.0859375,-10.25390625,0.0
314.29296875,-20.01953125,-43.9453125,-24.90234375,-32.2265625,32.71484375,0.0
314.296875,-29.78515625,-45.8984375,-25.87890625,-38.0859375,21.484375,0.0
314.30078125,-40.52734375,-49.31640625,-26.3671875,-35.64453125,-15.13671875,0.0
314.3046875,-30.76171875,-46.38671875,-31.73828125,-39.55078125,-34.1796875,0.0
314.30859375,-30.76171875,-43.45703125,-39.0625,-49.31640625,-49.31640625,0.0
314.3125,-34.1796875,-66.40625,-40.52734375,-45.8984375,-58.10546875,0.0
314.31640625,-26.3671875,-70.3125,-34.1796875,-30.76171875,-62.5,0.0
314.3203125,-21.484375,-53.22265625,-28.80859375,-26.3671875,-112.79296875,0.0
314.32421875,-21.484375,-47.8515625,-35.15625,-31.73828125,-26.85546875,0.0
314.328125,-36.62109375,-57.6171875,-35.15625,-26.3671875,68.84765625,0.0
314.33203125,-39.0625,-60.05859375,-27.83203125,-24.4140625,-20.01953125,0.0
314.3359375,-19.53125,-54.6875,-24.90234375,-20.01953125,-65.91796875,0.0
314.33984375,-20.01953125,-45.41015625,-23.92578125,-11.23046875,-50.29296875,0.0
314.34375,-50.78125,-53.22265625,-32.71484375,-28.3203125,-160.64453125,0.0
314.34765625,-43.9453125,-58.10546875,-34.66796875,-36.1328125,-152.83203125,0.0
314.3515625,-21.484375,-46.875,-39.55078125,-30.76171875,-54.6875,0.0
314.35546875,-22.94921875,-57.12890625,-41.9921875,-30.2734375,-39.55078125,0.0
314.359375,-21.484375,-59.5703125,-31.73828125,-28.3203125,-16.6015625,0.0
314.36328125,-32.2265625,-52.734375,-33.69140625,-28.80859375,24.90234375,0.0
314.3671875,-51.7578125,-55.17578125,-41.9921875,-25.390625,-14.16015625,0.0
314.37109375,-73.2421875,-51.7578125,-39.0625,-24.4140625,-50.78125,0.0
314.375,-49.8046875,-48.33984375,-28.3203125,-20.5078125,25.87890625,0.0
314.37890625,-16.6015625,-45.8984375,-20.5078125,-25.390625,28.3203125,0.0
314.3828125,-27.83203125,-48.33984375,-25.87890625,-41.50390625,0.0,0.0
314.38671875,-35.64453125,-51.26953125,-34.1796875,-41.50390625,28.3203125,0.0
314.390625,-24.4140625,-43.45703125,-38.57421875,-43.9453125,35.64453125,0.0
314.39453125,-38.0859375,-48.828125,-39.0625,-45.41015625,-4.8828125,0.0
314.3984375,-47.8515625,-49.31640625,-41.9921875,-31.25,-53.7109375,0.0
314.40234375,-48.828125,-45.8984375,-43.9453125,-24.4140625,9.27734375,0.0
314.40625,-47.36328125,-51.7578125,-48.33984375,-22.94921875,43.45703125,0.0
314.41015625,-37.109375,-52.734375,-44.921875,-31.73828125,-8.30078125,0.0
314.4140625,-21.97265625,-45.41015625,-32.71484375,-32.71484375,-35.15625,0.0
314.41796875,-9.27734375,-41.9921875,-26.85546875,-19.53125,-41.9921875,0.0
314.421875,-13.18359375,-45.41015625,-29.296875,-23.92578125,-28.80859375,0.0
314.42578125,-34.66796875,-55.6640625,-38.57421875,-39.55078125,-45.41015625,0.0
314.4296875,-56.15234375,-58.10546875,-42.48046875,-41.9921875,0.9765625,0.0
314.43359375,-49.8046875,-49.31640625,-38.0859375,-39.0625,-47.36328125,0.0
314.4375,-28.3203125,-45.8984375,-35.64453125,-29.78515625,-99.12109375,0.0
314.44140625,-33.69140625,-55.17578125,-39.55078125,-33.203125,-29.296875,0.0
314.4453125,-43.9453125,-61.03515625,-47.36328125,-48.33984375,-0.9765625,0.0
314.44921875,-41.50390625,-56.640625,-54.6875,-41.9921875,26.3671875,0.0
314.453125,-39.55078125,-53.7109375,-51.26953125,-29.296875,57.12890625,0.0
314.45703125,-38.0859375,-60.05859375,-40.0390625,-35.64453125,79.1015625,0.0
314.4609375,-45.41015625,-54.6875,-40.0390625,-46.875,114.74609375,0.0
314.46484375,-43.9453125,-54.6875,-47.36328125,-49.8046875,25.390625,0.0
314.46875,-37.109375,-74.21875,-50.29296875,-43.45703125,-76.171875,0.0
314.47265625,-47.36328125,-70.80078125,-47.8515625,-45.41015625,-38.57421875,0.0
314.4765625,-41.015625,-52.734375,-45.41015625,-37.59765625,-13.671875,0.0
314.48046875,-20.01953125,-53.22265625,-44.921875,-24.90234375,-75.68359375,0.0
314.484375,-26.85546875,-54.19921875,-51.7578125,-37.109375,-83.984375,0.0
314.48828125,-33.69140625,-55.6640625,-53.7109375,-45.41015625,-13.671875,0.0
314.4921875,-35.64453125,-53.22265625,-50.78125,-44.921875,1.46484375,0.0
314.49609375,-38.57421875,-46.38671875,-46.875,-43.45703125,-17.08984375,0.0
314.5,-38.57421875,-51.26953125,-39.0625,-27.34375,-39.0625,0.0
314.50390625,-22.4609375,-54.19921875,-38.57421875,-27.34375,-70.3125,0.0
314.5078125,-21.97265625,-49.31640625,-41.015625,-36.1328125,-74.70703125,0.0
314.51171875,-24.90234375,-51.7578125,-38.0859375,-30.2734375,-61.03515625,0.0
314.515625,-21.484375,-49.8046875,-33.69140625,-20.99609375,-101.07421875,0.0
314.51953125,-16.6015625,-49.8046875,-32.71484375,-18.5546875,-39.55078125,0.0
314.5234375,-13.671875,-49.31640625,-38.57421875,-25.87890625,5.859375,0.0
314.52734375,-11.23046875,-42.96875,-35.15625,-12.20703125,31.25,0.0
314.53125,-9.27734375,-43.45703125,-35.64453125,-11.23046875,63.4765625,0.0
314.53515625,-7.8125,-49.8046875,-44.921875,-34.66796875,-3.41796875,0.0
314.5390625,-0.9765625,-50.29296875,-44.921875,-32.71484375,-56.15234375,0.0
314.54296875,-3.41796875,-47.36328125,-42.96875,-24.90234375,-30.76171875,0.0
314.546875,-32.71484375,-46.38671875,-50.29296875,-41.50390625,41.9921875,0.0
314.55078125,-62.01171875,-54.19921875,-57.6171875,-57.6171875,4.39453125,0.0
314.5546875,-47.8515625,-51.26953125,-54.6875,-47.36328125,-82.51953125,0.0
314.55859375,-27.83203125,-47.8515625,-48.33984375,-41.50390625,-101.07421875,0.0
314.5625,-34.66796875,-55.17578125,-53.22265625,-36.1328125,-29.296875,0.0
314.56640625,-47.8515625,-54.19921875,-59.5703125,-34.1796875,-3.41796875,0.0
314.5703125,-40.0390625,-55.17578125,-57.12890625,-44.43359375,-1.953125,0.0
314.57421875,-37.59765625,-46.38671875,-53.22265625,-46.38671875,68.84765625,0.0
314.578125,-35.64453125,-32.71484375,-50.29296875,-37.109375,16.11328125,0.0
314.58203125,-24.90234375,-49.31640625,-57.6171875,-29.78515625,-18.5546875,0.0
314.5859375,-30.76171875,-60.05859375,-74.70703125,-47.8515625,-28.80859375,0.0
314.58984375,-41.9921875,-55.6640625,-72.265625,-58.59375,-36.1328125,0.0
314.59375,-27.83203125,-57.12890625,-60.05859375,-49.8046875,40.0390625,0.0
314.59765625,-32.71484375,-55.6640625,-48.828125,-31.73828125,78.125,0.0
314.6015625,-40.52734375,-53.7109375,-48.33984375,-36.1328125,5.37109375,0.0
314.60546875,-53.7109375,-56.15234375,-59.08203125,-42.48046875,-20.99609375,0.0
314.609375,-61.03515625,-58.59375,-61.5234375,-35.64453125,-16.11328125,0.0
314.61328125,-43.9453125,-67.87109375,-59.5703125,-33.203125,-50.29296875,0.0
314.6171875,-24.90234375,-60.05859375,-49.8046875,-36.62109375,3.41796875,0.0
314.62109375,-18.06640625,-42.96875,-47.36328125,-42.48046875,42.48046875,0.0
314.625,-31.25,-57.6171875,-52.24609375,-29.78515625,-37.109375,0.0
314.62890625,-42.48046875,-75.68359375,-50.78125,-27.83203125,-87.890625,0.0
314.6328125,-41.9921875,-64.94140625,-45.41015625,-33.203125,-90.33203125,0.0
314.63671875,-50.29296875,-55.17578125,-43.9453125,-37.59765625,-10.7421875,0.0
314.640625,-38.0859375,-53.7109375,-45.41015625,-36.62109375,-14.6484375,0.0
314.64453125,-22.94921875,-47.36328125,-46.38671875,-30.2734375,-14.6484375,0.0
314.6484375,-23.92578125,-53.22265625,-48.33984375,-32.2265625,41.015625,0.0
314.65234375,-18.5546875,-59.08203125,-44.43359375,-30.76171875,46.875,0.0
314.65625,-20.01953125,-56.640625,-39.55078125,-28.3203125,43.45703125,0.0
314.66015625,-37.59765625,-53.22265625,-41.50390625,-24.4140625,20.01953125,0.0
314.6640625,-44.43359375,-48.828125,-41.015625,-17.08984375,15.13671875,0.0
314.66796875,-60.546875,-57.6171875,-38.57421875,-14.6484375,-8.7890625,0.0
314.671875,-60.05859375,-57.12890625,-47.36328125,-21.97265625,-13.671875,0.0
314.67578125,-31.73828125,-50.78125,-53.22265625,-35.15625,48.828125,0.0
314.6796875,-17.578125,-63.4765625,-49.8046875,-35.64453125,115.234375,0.0
314.68359375,-20.01953125,-65.91796875,-47.8515625,-23.92578125,67.3828125,0.0
314.6875,-24.4140625,-63.4765625,-47.36328125,-26.3671875,-4.39453125,0.0
314.69140625,-27.83203125,-66.40625,-45.8984375,-29.296875,73.2421875,0.0
314.6953125,-34.1796875,-55.6640625,-41.50390625,-24.4140625,92.7734375,0.0
314.69921875,-49.31640625,-60.546875,-40.0390625,-22.94921875,45.41015625,0.0
314.703125,-54.19921875,-63.4765625,-48.33984375,-29.296875,84.9609375,0.0
314.70703125,-47.8515625,-52.734375,-49.31640625,-24.4140625,7.8125,0.0
314.7109375,-37.59765625,-64.453125,-42.48046875,-30.2734375,-102.05078125,0.0
314.71484375,-19.53125,-62.01171875,-39.55078125,-30.76171875,-138.18359375,0.0
314.71875,-11.23046875,-40.0390625,-35.64453125,-9.765625,-84.9609375,0.0
314.72265625,-27.83203125,-55.17578125,-41.015625,-13.18359375,-68.84765625,0.0
314.7265625,-41.9921875,-72.75390625,-50.29296875,-35.64453125,-89.35546875,0.0
314.73046875,-34.66796875,-62.5,-43.9453125,-29.78515625,14.16015625,0.0
314.734375,-25.87890625,-54.19921875,-38.0859375,-25.390625,55.6640625,0.0
314.73828125,-34.66796875,-54.19921875,-37.109375,-15.625,30.76171875,0.0
314.7421875,-23.4375,-56.15234375,-38.57421875,-12.20703125,41.015625,0.0
314.74609375,-19.04296875,-55.6640625,-41.50390625,-28.3203125,-8.30078125,0.0
314.75,-64.453125,-58.10546875,-46.38671875,-24.90234375,7.8125,0.0
314.75390625,-66.89453125,-50.78125,-41.50390625,-15.13671875,41.9921875,0.0
314.7578125,-41.015625,-45.8984375,-32.2265625,-21.484375,40.0390625,0.0
314.76171875,-39.55078125,-55.6640625,-37.109375,-28.3203125,-29.296875,0.0
314.765625,-32.71484375,-55.6640625,-33.69140625,-27.34375,18.06640625,0.0
314.76953125,-27.34375,-52.734375,-40.52734375,-34.66796875,9.27734375,0.0
314.7734375,-35.15625,-52.734375,-43.45703125,-37.109375,-89.84375,0.0
314.77734375,-32.2265625,-31.25,-26.85546875,-27.83203125,-121.09375,0.0
314.78125,-16.6015625,-32.2265625,-17.08984375,-34.1796875,-116.2109375,0.0
314.78515625,-6.8359375,-55.17578125,-34.66796875,-33.69140625,-76.171875,0.0
314.7890625,-23.4375,-62.01171875,-44.43359375,-11.23046875,-58.59375,0.0
314.79296875,-23.92578125,-56.15234375,-35.64453125,-15.13671875,16.6015625,0.0
314.796875,-11.23046875,-45.41015625,-30.76171875,-33.203125,62.5,0.0
314.80078125,-19.04296875,-51.7578125,-25.87890625,-47.36328125,6.34765625,0.0
314.8046875,-27.83203125,-52.734375,-29.78515625,-47.8515625,-13.671875,0.0
314.80859375,-35.64453125,-49.31640625,-28.80859375,-34.1796875,22.94921875,0.0
314.8125,-42.48046875,-47.8515625,-21.484375,-39.55078125,-25.390625,0.0
314.81640625,-34.1796875,-44.43359375,-20.99609375,-41.50390625,-37.109375,0.0
314.8203125,-25.390625,-44.921875,-23.4375,-29.78515625,57.6171875,0.0
314.82421875,-33.203125,-48.33984375,-30.76171875,-27.34375,62.01171875,0.0
314.828125,-20.01953125,-38.0859375,-37.59765625,-38.0859375,14.6484375,0.0
314.83203125,-15.625,-33.69140625,-30.76171875,-34.66796875,19.53125,0.0
314.8359375,-41.50390625,-55.17578125,-23.92578125,-22.4609375,-8.30078125,0.0
314.83984375,-37.59765625,-62.01171875,-31.25,-22.94921875,-28.3203125,0.0
314.84375,-22.4609375,-40.52734375,-41.50390625,-39.55078125,39.55078125,0.0
314.84765625,-27.83203125,-55.17578125,-35.64453125,-34.66796875,37.59765625,0.0
314.8515625,-30.76171875,-71.2890625,-36.62109375,-37.109375,8.30078125,0.0
314.85546875,-15.625,-42.96875,-32.71484375,-42.48046875,-11.23046875,0.0
314.859375,-9.27734375,-56.15234375,-37.59765625,-26.3671875,-9.27734375,0.0
314.86328125,-28.3203125,-67.3828125,-58.10546875,-32.2265625,-17.578125,0.0
314.8671875,-26.3671875,-57.6171875,-65.91796875,-43.45703125,-92.28515625,0.0
314.87109375,-16.6015625,-49.8046875,-66.89453125,-28.80859375,-132.8125,0.0
314.875,-30.76171875,-53.22265625,-65.91796875,-35.15625,-66.89453125,0.0
314.87890625,-37.59765625,-47.36328125,-60.546875,-41.015625,-38.0859375,0.0
314.8828125,-35.64453125,-36.62109375,-50.78125,-39.0625,-54.19921875,0.0
314.88671875,-47.8515625,-35.15625,-55.17578125,-50.78125,44.921875,0.0
314.890625,-47.36328125,-25.390625,-62.01171875,-47.36328125,44.921875,0.0
314.89453125,-28.3203125,-37.59765625,-59.5703125,-35.64453125,-19.04296875,0.0
314.8984375,-20.01953125,-57.12890625,-54.6875,-31.25,-17.08984375,0.0
314.90234375,-25.87890625,-50.29296875,-51.26953125,-32.71484375,51.26953125,0.0
314.90625,-27.83203125,-38.57421875,-58.59375,-42.48046875,20.5078125,0.0
314.91015625,-24.90234375,-30.76171875,-69.3359375,-43.45703125,-76.66015625,0.0
314.9140625,-26.3671875,-27.34375,-59.08203125,-36.1328125,-112.3046875,0.0
314.91796875,-30.76171875,-27.83203125,-48.828125,-34.66796875,-118.1640625,0.0
314.921875,-38.0859375,-29.78515625,-54.19921875,-28.3203125,-71.2890625,0.0
314.92578125,-44.921875,-29.78515625,-59.5703125,-30.2734375,-52.24609375,0.0
314.9296875,-33.69140625,-29.296875,-61.5234375,-34.66796875,-67.3828125,0.0
314.93359375,-19.04296875,-21.484375,-56.15234375,-25.87890625,-24.90234375,0.0
314.9375,-34.1796875,-21.97265625,-59.5703125,-35.15625,-11.23046875,0.0
314.94140625,-35.64453125,-11.71875,-56.640625,-32.71484375,-23.4375,0.0
314.9453125,-24.90234375,-15.13671875,-58.59375,-24.90234375,-24.4140625,0.0
314.94921875,-41.015625,-37.59765625,-65.4296875,-38.57421875,21.97265625,0.0
314.953125,-33.203125,-30.76171875,-58.59375,-41.50390625,10.7421875,0.0
314.95703125,-15.13671875,-32.2265625,-52.24609375,-41.015625,-3.41796875,0.0
314.9609375,-34.66796875,-38.0859375,-51.7578125,-39.0625,16.6015625,0.0
314.96484375,-62.01171875,-33.203125,-53.7109375,-36.1328125,-13.671875,0.0
314.96875,-61.5234375,-44.921875,-55.6640625,-49.31640625,6.8359375,0.0
314.97265625,-54.6875,-41.9921875,-47.36328125,-51.26953125,20.5078125,0.0
314.9765625,-56.640625,-9.765625,-40.0390625,-34.66796875,-57.12890625,0.0
314.98046875,-56.640625,-35.64453125,-39.0625,-41.015625,-13.18359375,0.0
314.984375,-53.22265625,-64.453125,-46.38671875,-41.015625,61.5234375,0.0
314.98828125,-47.8515625,-51.26953125,-55.17578125,-40.52734375,49.8046875,0.0
314.9921875,-48.828125,-46.875,-57.6171875,-42.96875,-48.33984375,0.0
314.99609375,-54.6875,-42.96875,-56.640625,-50.78125,-45.8984375,0.0
315.0,-54.6875,-21.484375,-66.40625,-64.94140625,-12.20703125,0.0
