timestamp,TP9,AF7,AF8,TP10,AUX,Marker,
369.00390625,25.390625,-48.33984375,-55.6640625,-19.04296875,27.34375,0.0
369.0078125,47.36328125,-43.45703125,-60.546875,-15.625,6.34765625,0.0
369.01171875,31.73828125,-46.38671875,-56.15234375,-13.671875,0.9765625,0.0
369.015625,16.6015625,-55.17578125,-42.96875,-11.23046875,7.8125,0.0
369.01953125,35.64453125,-48.828125,-49.31640625,-17.578125,47.8515625,0.0
369.0234375,22.94921875,-41.015625,-65.91796875,-35.64453125,87.890625,0.0
369.02734375,11.23046875,-44.43359375,-62.98828125,-46.875,95.21484375,0.0
369.03125,11.23046875,-46.38671875,-51.26953125,-45.8984375,91.30859375,0.0
369.03515625,7.32421875,-47.8515625,-43.9453125,-51.26953125,48.828125,0.0
369.0390625,12.6953125,-52.734375,-48.828125,-69.82421875,14.6484375,0.0
369.04296875,24.90234375,-51.7578125,-52.734375,-71.2890625,13.18359375,0.0
369.046875,57.6171875,-51.7578125,-54.6875,-62.5,54.6875,0.0
369.05078125,66.40625,-49.31640625,-62.01171875,-71.77734375,84.47265625,0.0
369.0546875,72.75390625,-41.50390625,-60.05859375,-69.3359375,41.015625,0.0
369.05859375,92.7734375,-39.55078125,-53.7109375,-68.359375,-40.0390625,0.0
369.0625,92.7734375,-37.109375,-45.41015625,-98.6328125,-86.9140625,0.0
369.06640625,80.078125,-37.59765625,-42.48046875,-100.5859375,-33.203125,0.0
369.0703125,64.453125,-41.50390625,-52.734375,-88.37890625,-45.41015625,0.0
369.07421875,62.5,-40.52734375,-51.7578125,-71.77734375,-106.93359375,0.0
369.078125,57.12890625,-41.015625,-46.875,-48.828125,-106.93359375,0.0
369.08203125,41.50390625,-43.45703125,-47.8515625,-55.6640625,-26.85546875,0.0
369.0859375,47.8515625,-44.921875,-46.38671875,-69.82421875,-49.31640625,0.0
369.08984375,67.3828125,-42.96875,-50.29296875,-82.03125,-84.47265625,0.0
369.09375,59.08203125,-41.9921875,-55.6640625,-96.6796875,43.45703125,0.0
369.09765625,49.31640625,-41.50390625,-52.24609375,-82.51953125,-31.25,0.0
369.1015625,57.12890625,-41.9921875,-40.0390625,-38.57421875,-149.4140625,0.0
369.10546875,43.45703125,-39.0625,-37.59765625,-36.62109375,-91.796875,0.0
369.109375,20.5078125,-38.0859375,-35.15625,-57.6171875,-92.7734375,0.0
369.11328125,4.8828125,-38.57421875,-31.25,-58.59375,-75.68359375,0.0
369.1171875,21.97265625,-38.0859375,-30.2734375,-53.7109375,-48.33984375,0.0
369.12109375,60.05859375,-38.0859375,-30.2734375,-51.26953125,-28.3203125,0.0
369.125,101.07421875,-36.1328125,-39.0625,-39.55078125,32.2265625,0.0
369.12890625,175.29296875,-34.66796875,-43.9453125,-31.73828125,-22.94921875,0.0
369.1328125,276.85546875,-29.78515625,-37.59765625,-12.6953125,-83.984375,0.0
369.13671875,286.1328125,-36.1328125,-34.1796875,3.41796875,20.99609375,0.0
369.140625,258.30078125,-42.96875,-36.1328125,0.48828125,26.85546875,0.0
369.14453125,266.11328125,-33.203125,-34.66796875,23.4375,-104.4921875,0.0
369.1484375,226.07421875,-28.80859375,-32.2265625,45.41015625,-84.9609375,0.0
369.15234375,162.59765625,-29.296875,-39.0625,17.08984375,-81.0546875,0.0
369.15625,152.34375,-26.85546875,-38.0859375,-11.23046875,-140.625,0.0
369.16015625,145.99609375,-29.296875,-41.50390625,-16.6015625,-163.0859375,0.0
369.1640625,92.7734375,-39.0625,-47.36328125,-6.34765625,-133.30078125,0.0
369.16796875,59.5703125,-42.96875,-53.22265625,-24.90234375,-84.47265625,0.0
369.171875,54.6875,-38.57421875,-53.7109375,-34.1796875,-7.8125,0.0
369.17578125,55.17578125,-41.9921875,-46.38671875,-23.92578125,-46.38671875,0.0
369.1796875,40.0390625,-44.921875,-56.15234375,-35.15625,-127.9296875,0.0
369.18359375,53.7109375,-47.36328125,-57.12890625,-23.92578125,-70.3125,0.0
369.1875,28.80859375,-52.24609375,-43.45703125,0.48828125,-45.41015625,0.0
369.19140625,-17.578125,-59.5703125,-42.96875,-2.44140625,-38.57421875,0.0
369.1953125,6.34765625,-54.6875,-34.1796875,-11.23046875,-38.0859375,0.0
369.19921875,58.59375,-44.43359375,-35.15625,-24.90234375,-33.69140625,0.0
369.203125,106.93359375,-39.55078125,-41.015625,-20.01953125,-51.7578125,0.0
369.20703125,54.19921875,-40.0390625,-44.43359375,-11.71875,-85.44921875,0.0
369.2109375,-45.8984375,-42.96875,-50.29296875,-16.6015625,-16.11328125,0.0
369.21484375,-25.87890625,-39.55078125,-44.43359375,-3.41796875,-21.484375,0.0
369.21875,48.828125,-36.1328125,-35.15625,12.6953125,-93.75,0.0
369.22265625,67.87109375,-38.0859375,-29.296875,6.8359375,-47.8515625,0.0
369.2265625,61.03515625,-42.48046875,-33.69140625,-9.765625,-7.32421875,0.0
369.23046875,55.17578125,-43.45703125,-45.41015625,-16.6015625,-93.75,0.0
369.234375,48.33984375,-36.1328125,-54.6875,-9.27734375,-63.96484375,0.0
369.23828125,43.9453125,-40.52734375,-52.24609375,-14.16015625,26.85546875,0.0
369.2421875,53.22265625,-52.734375,-47.8515625,-28.80859375,-49.31640625,0.0
369.24609375,22.94921875,-51.26953125,-52.24609375,-43.45703125,-92.28515625,0.0
369.25,6.34765625,-46.38671875,-47.8515625,-39.0625,-8.7890625,0.0
369.25390625,52.734375,-44.921875,-45.8984375,-14.16015625,-3.90625,0.0
369.2578125,68.84765625,-49.31640625,-58.10546875,-0.9765625,-44.921875,0.0
369.26171875,104.4921875,-54.19921875,-51.7578125,20.01953125,-6.34765625,0.0
369.265625,153.3203125,-54.19921875,-43.9453125,2.9296875,15.13671875,0.0
369.26953125,166.015625,-52.24609375,-49.8046875,-39.0625,-78.125,0.0
369.2734375,174.8046875,-49.31640625,-55.6640625,-45.41015625,-80.56640625,0.0
369.27734375,158.69140625,-52.734375,-52.734375,-43.45703125,58.10546875,0.0
369.28125,134.765625,-55.17578125,-69.82421875,-49.31640625,39.0625,0.0
369.28515625,124.51171875,-48.33984375,-73.73046875,-46.875,-2.44140625,0.0
369.2890625,145.99609375,-43.9453125,-57.12890625,-34.66796875,11.23046875,0.0
369.29296875,135.25390625,-45.41015625,-59.5703125,-39.55078125,-64.453125,0.0
369.296875,122.55859375,-43.45703125,-60.05859375,-49.8046875,-15.625,0.0
369.30078125,140.625,-36.1328125,-50.78125,-43.45703125,68.84765625,0.0
369.3046875,143.5546875,-37.109375,-46.875,-40.52734375,32.2265625,0.0
369.30859375,136.71875,-40.52734375,-45.41015625,-8.30078125,-71.2890625,0.0
369.3125,123.046875,-40.52734375,-47.36328125,10.7421875,-78.61328125,0.0
369.31640625,120.1171875,-33.203125,-39.55078125,-3.41796875,-72.75390625,0.0
369.3203125,123.046875,-28.80859375,-35.64453125,11.71875,-66.40625,0.0
369.32421875,108.88671875,-27.83203125,-39.55078125,26.3671875,-11.71875,0.0
369.328125,96.6796875,-26.3671875,-43.45703125,23.4375,-1.46484375,0.0
369.33203125,105.95703125,-30.76171875,-48.828125,18.06640625,-3.41796875,0.0
369.3359375,101.07421875,-33.203125,-52.734375,20.99609375,-10.7421875,0.0
369.33984375,58.59375,-34.1796875,-52.24609375,16.6015625,-37.59765625,0.0
369.34375,38.0859375,-32.2265625,-48.828125,10.7421875,-62.01171875,0.0
369.34765625,32.2265625,-30.76171875,-43.9453125,5.37109375,-39.0625,0.0
369.3515625,18.06640625,-37.109375,-49.8046875,-5.37109375,3.41796875,0.0
369.35546875,10.7421875,-39.55078125,-49.8046875,-9.27734375,65.4296875,0.0
369.359375,-6.34765625,-43.9453125,-45.8984375,-13.18359375,76.66015625,0.0
369.36328125,-11.71875,-49.8046875,-48.33984375,-4.39453125,65.91796875,0.0
369.3671875,-17.578125,-48.828125,-46.38671875,-5.859375,72.265625,0.0
369.37109375,-13.671875,-51.7578125,-41.50390625,4.39453125,41.015625,0.0
369.375,9.765625,-42.48046875,-39.0625,20.99609375,41.9921875,0.0
369.37890625,6.34765625,-30.2734375,-47.36328125,-3.41796875,46.875,0.0
369.3828125,4.39453125,-33.203125,-49.31640625,-8.30078125,22.4609375,0.0
369.38671875,27.34375,-39.55078125,-45.41015625,2.9296875,-9.27734375,0.0
369.390625,46.875,-37.59765625,-35.15625,5.37109375,1.953125,0.0
369.39453125,59.08203125,-36.62109375,-31.25,1.953125,34.1796875,0.0
369.3984375,58.10546875,-38.57421875,-35.64453125,5.37109375,2.44140625,0.0
369.40234375,52.734375,-41.9921875,-47.8515625,10.25390625,5.37109375,0.0
369.40625,53.7109375,-45.8984375,-53.7109375,-1.953125,14.6484375,0.0
369.41015625,31.73828125,-40.52734375,-46.38671875,-21.484375,-49.8046875,0.0
369.4140625,30.2734375,-41.50390625,-50.29296875,-16.11328125,-77.1484375,0.0
369.41796875,52.24609375,-44.921875,-55.17578125,-6.8359375,-17.08984375,0.0
369.421875,50.78125,-41.50390625,-50.78125,-24.4140625,-0.48828125,0.0
369.42578125,34.1796875,-37.59765625,-48.828125,-23.92578125,-60.546875,0.0
369.4296875,11.71875,-34.66796875,-49.8046875,-7.8125,-71.77734375,0.0
369.43359375,-1.46484375,-37.109375,-50.29296875,-26.85546875,25.87890625,0.0
369.4375,-15.625,-37.59765625,-53.22265625,-30.2734375,45.41015625,0.0
369.44140625,-52.24609375,-43.9453125,-64.453125,-15.625,49.31640625,0.0
369.4453125,-66.89453125,-50.29296875,-66.40625,-24.90234375,58.10546875,0.0
369.44921875,-39.55078125,-48.33984375,-63.96484375,-27.83203125,37.109375,0.0
369.453125,-21.484375,-46.875,-61.5234375,-15.13671875,8.7890625,0.0
369.45703125,-1.46484375,-45.8984375,-61.5234375,-17.08984375,-82.51953125,0.0
369.4609375,-20.5078125,-49.8046875,-62.5,-29.296875,-111.328125,0.0
369.46484375,-58.59375,-51.7578125,-61.5234375,-40.0390625,-71.77734375,0.0
369.46875,-52.734375,-51.26953125,-60.546875,-49.8046875,-141.11328125,0.0
369.47265625,-50.78125,-58.10546875,-56.640625,-65.91796875,-261.23046875,0.0
369.4765625,-37.109375,-54.19921875,-46.875,-66.89453125,-293.45703125,0.0
369.48046875,-32.2265625,-51.7578125,-41.9921875,-57.12890625,-203.125,0.0
369.484375,-7.32421875,-54.19921875,-50.78125,-33.203125,-9.27734375,0.0
369.48828125,46.875,-54.19921875,-59.08203125,-20.01953125,74.21875,0.0
369.4921875,61.03515625,-55.6640625,-63.4765625,-26.3671875,66.89453125,0.0
369.49609375,59.5703125,-56.15234375,-51.7578125,-18.5546875,50.78125,0.0
369.5,31.73828125,-56.640625,-42.48046875,-15.13671875,51.7578125,0.0
369.50390625,2.44140625,-61.03515625,-50.78125,-19.53125,-22.4609375,0.0
369.5078125,-1.46484375,-59.08203125,-54.19921875,-20.01953125,-69.82421875,0.0
369.51171875,-12.6953125,-56.640625,-42.96875,-25.390625,-81.54296875,0.0
369.515625,-18.5546875,-57.6171875,-37.59765625,-41.015625,-46.38671875,0.0
369.51953125,-9.27734375,-51.26953125,-42.96875,-35.15625,-45.8984375,0.0
369.5234375,-16.11328125,-42.48046875,-48.33984375,-33.69140625,-63.4765625,0.0
369.52734375,-20.01953125,-41.015625,-43.45703125,-33.69140625,-24.4140625,0.0
369.53125,-11.71875,-45.41015625,-35.15625,-29.296875,15.13671875,0.0
369.53515625,-10.7421875,-46.38671875,-35.64453125,-30.2734375,-27.34375,0.0
369.5390625,-6.8359375,-52.734375,-42.96875,-52.24609375,-71.2890625,0.0
369.54296875,-33.203125,-66.40625,-48.33984375,-89.35546875,-73.73046875,0.0
369.546875,-51.26953125,-66.89453125,-53.22265625,-121.09375,-128.90625,0.0
369.55078125,-68.359375,-69.3359375,-55.17578125,-127.9296875,-98.6328125,0.0
369.5546875,-150.390625,-83.49609375,-61.5234375,-148.4375,-71.2890625,0.0
369.55859375,-237.3046875,-93.75,-77.63671875,-200.1953125,-87.40234375,0.0
369.5625,-247.0703125,-95.21484375,-69.3359375,-239.74609375,-129.8828125,0.0
369.56640625,-216.30859375,-97.65625,-48.33984375,-256.34765625,-62.5,0.0
369.5703125,-249.0234375,-88.8671875,-57.12890625,-274.90234375,-43.9453125,0.0
369.57421875,-278.3203125,-79.58984375,-68.359375,-301.7578125,-111.81640625,0.0
369.578125,-277.34375,-88.37890625,-68.84765625,-321.77734375,-79.1015625,0.0
369.58203125,-306.640625,-91.796875,-67.87109375,-315.4296875,-2.9296875,0.0
369.5859375,-310.05859375,-87.890625,-55.17578125,-289.55078125,-5.859375,0.0
369.58984375,-269.04296875,-85.9375,-55.17578125,-300.29296875,-5.859375,0.0
369.59375,-260.25390625,-86.42578125,-62.98828125,-287.59765625,47.8515625,0.0
369.59765625,-248.53515625,-83.984375,-62.98828125,-267.08984375,59.5703125,0.0
369.6015625,-197.75390625,-72.265625,-59.08203125,-246.58203125,22.4609375,0.0
369.60546875,-165.0390625,-66.40625,-49.31640625,-216.30859375,-4.8828125,0.0
369.609375,-130.37109375,-57.12890625,-41.9921875,-209.47265625,19.04296875,0.0
369.61328125,-77.63671875,-48.828125,-45.41015625,-183.59375,38.57421875,0.0
369.6171875,-66.89453125,-58.59375,-51.7578125,-166.015625,12.20703125,0.0
369.62109375,-64.453125,-60.546875,-50.29296875,-154.296875,30.76171875,0.0
369.625,-70.3125,-54.19921875,-51.26953125,-133.30078125,36.1328125,0.0
369.62890625,-50.78125,-60.05859375,-60.546875,-107.91015625,67.3828125,0.0
369.6328125,-18.06640625,-60.05859375,-66.89453125,-72.265625,61.03515625,0.0
369.63671875,-17.08984375,-50.78125,-62.98828125,-31.25,-18.5546875,0.0
369.640625,-17.578125,-56.15234375,-64.94140625,3.41796875,-6.34765625,0.0
369.64453125,4.8828125,-65.91796875,-77.1484375,31.73828125,20.99609375,0.0
369.6484375,12.6953125,-49.8046875,-74.70703125,48.828125,18.06640625,0.0
369.65234375,-38.0859375,-41.015625,-64.94140625,49.8046875,47.8515625,0.0
369.65625,-67.3828125,-43.9453125,-65.91796875,41.015625,-16.11328125,0.0
369.66015625,-38.0859375,-34.66796875,-70.80078125,35.15625,-62.01171875,0.0
369.6640625,22.94921875,-31.25,-66.40625,52.734375,-2.44140625,0.0
369.66796875,80.56640625,-34.66796875,-52.734375,73.73046875,-67.87109375,0.0
369.671875,117.1875,-37.109375,-49.8046875,66.40625,-97.65625,0.0
369.67578125,146.484375,-37.59765625,-56.15234375,57.6171875,-62.5,0.0
369.6796875,162.109375,-37.109375,-42.48046875,57.6171875,-42.96875,0.0
369.68359375,127.44140625,-37.59765625,-40.52734375,46.38671875,-98.6328125,0.0
369.6875,121.09375,-33.203125,-51.7578125,43.9453125,-127.9296875,0.0
369.69140625,139.16015625,-22.4609375,-45.41015625,36.1328125,2.9296875,0.0
369.6953125,114.2578125,-12.6953125,-37.109375,29.296875,48.33984375,0.0
369.69921875,95.21484375,-9.765625,-25.390625,41.50390625,-27.83203125,0.0
369.703125,77.63671875,-8.30078125,-15.13671875,27.83203125,-62.01171875,0.0
369.70703125,55.6640625,-11.23046875,-17.578125,14.6484375,-70.80078125,0.0
369.7109375,53.7109375,-10.7421875,-20.99609375,33.69140625,-133.30078125,0.0
369.71484375,56.15234375,-4.8828125,-22.94921875,40.0390625,-57.6171875,0.0
369.71875,39.0625,-8.7890625,-25.390625,34.1796875,44.43359375,0.0
369.72265625,46.38671875,-12.20703125,-30.2734375,73.2421875,-42.48046875,0.0
369.7265625,78.61328125,-10.25390625,-38.0859375,96.19140625,-7.8125,0.0
369.73046875,74.70703125,-9.765625,-39.0625,81.54296875,45.8984375,0.0
369.734375,77.1484375,-10.25390625,-38.0859375,70.3125,36.62109375,0.0
369.73828125,100.5859375,-13.671875,-39.55078125,53.22265625,17.578125,0.0
369.7421875,86.42578125,-18.5546875,-35.64453125,27.34375,-46.38671875,0.0
369.74609375,59.5703125,-22.4609375,-32.2265625,18.06640625,21.484375,0.0
369.75,39.0625,-27.34375,-26.3671875,14.6484375,10.25390625,0.0
369.75390625,28.3203125,-31.73828125,-27.83203125,21.484375,-68.84765625,0.0
369.7578125,51.26953125,-29.78515625,-41.015625,37.59765625,-44.43359375,0.0
369.76171875,68.359375,-23.4375,-38.57421875,53.7109375,-40.52734375,0.0
369.765625,74.21875,-18.06640625,-27.34375,81.0546875,3.90625,0.0
369.76953125,94.23828125,-16.6015625,-30.2734375,97.16796875,19.04296875,0.0
369.7734375,106.4453125,-23.4375,-36.62109375,40.52734375,12.20703125,0.0
369.77734375,99.12109375,-23.92578125,-39.55078125,-2.9296875,-37.109375,0.0
369.78125,66.89453125,-29.296875,-45.41015625,4.8828125,-98.14453125,0.0
369.78515625,54.6875,-36.1328125,-47.36328125,6.34765625,-82.03125,0.0
369.7890625,73.2421875,-40.52734375,-39.55078125,13.18359375,-97.16796875,0.0
369.79296875,82.03125,-38.57421875,-43.9453125,15.625,-131.34765625,0.0
369.796875,57.6171875,-31.73828125,-52.24609375,22.94921875,-42.96875,0.0
369.80078125,47.36328125,-35.15625,-57.12890625,35.15625,-49.31640625,0.0
369.8046875,34.66796875,-42.48046875,-62.01171875,38.0859375,-59.5703125,0.0
369.80859375,15.625,-38.57421875,-51.7578125,43.45703125,-15.625,0.0
369.8125,-13.18359375,-36.1328125,-53.22265625,44.43359375,-20.99609375,0.0
369.81640625,-32.71484375,-40.52734375,-56.15234375,34.66796875,-5.37109375,0.0
369.8203125,-1.46484375,-41.50390625,-48.33984375,17.08984375,55.17578125,0.0
369.82421875,-1.46484375,-44.43359375,-47.36328125,4.8828125,57.6171875,0.0
369.828125,-2.9296875,-46.875,-44.43359375,10.7421875,-35.15625,0.0
369.83203125,3.41796875,-41.9921875,-45.8984375,13.671875,-32.2265625,0.0
369.8359375,-18.5546875,-38.0859375,-52.734375,2.9296875,31.73828125,0.0
369.83984375,-44.43359375,-41.015625,-53.7109375,6.34765625,-21.97265625,0.0
369.84375,-30.76171875,-42.96875,-53.7109375,5.37109375,-66.40625,0.0
369.84765625,-19.04296875,-42.96875,-45.41015625,-8.30078125,-39.0625,0.0
369.8515625,-16.6015625,-44.43359375,-44.921875,-6.8359375,-43.45703125,0.0
369.85546875,0.9765625,-43.45703125,-51.7578125,-6.34765625,-37.59765625,0.0
369.859375,1.46484375,-42.48046875,-55.17578125,-23.92578125,-1.953125,0.0
369.86328125,-20.01953125,-41.015625,-63.96484375,-25.390625,4.8828125,0.0
369.8671875,-36.62109375,-39.0625,-67.87109375,-29.78515625,-76.171875,0.0
369.87109375,-52.734375,-42.48046875,-63.96484375,-43.45703125,-82.03125,0.0
369.875,-72.265625,-44.921875,-59.5703125,-33.203125,-26.85546875,0.0
369.87890625,-61.03515625,-47.8515625,-61.03515625,-36.1328125,-41.9921875,0.0
369.8828125,-45.8984375,-54.19921875,-66.40625,-38.57421875,-29.78515625,0.0
369.88671875,-30.76171875,-48.828125,-64.453125,-20.01953125,66.40625,0.0
369.890625,-12.6953125,-40.52734375,-62.5,-16.6015625,129.8828125,0.0
369.89453125,-47.36328125,-46.875,-65.4296875,-12.6953125,137.20703125,0.0
369.8984375,-67.87109375,-54.19921875,-69.82421875,11.71875,57.6171875,0.0
369.90234375,-48.33984375,-62.5,-68.84765625,31.25,-39.55078125,0.0
369.90625,-39.55078125,-63.96484375,-61.03515625,28.80859375,-17.578125,0.0
369.91015625,-41.015625,-63.4765625,-49.8046875,29.296875,10.7421875,0.0
369.9140625,-38.0859375,-62.01171875,-55.17578125,7.8125,-27.83203125,0.0
369.91796875,-26.85546875,-55.17578125,-62.5,-21.484375,-35.15625,0.0
369.921875,-39.0625,-59.08203125,-55.17578125,0.9765625,40.0390625,0.0
369.92578125,-51.7578125,-58.59375,-52.734375,7.32421875,17.08984375,0.0
369.9296875,-12.6953125,-46.875,-47.36328125,0.0,38.0859375,0.0
369.93359375,12.6953125,-40.52734375,-37.59765625,11.71875,49.31640625,0.0
369.9375,-24.90234375,-49.31640625,-46.38671875,7.8125,-12.6953125,0.0
369.94140625,-67.3828125,-54.19921875,-50.78125,4.8828125,-29.296875,0.0
369.9453125,-85.9375,-50.78125,-58.10546875,4.39453125,-83.0078125,0.0
369.94921875,-89.84375,-52.24609375,-63.96484375,16.6015625,-125.9765625,0.0
369.953125,-76.66015625,-49.8046875,-50.78125,32.2265625,-121.09375,0.0
369.95703125,-29.78515625,-42.96875,-42.96875,39.55078125,-68.359375,0.0
369.9609375,-8.7890625,-43.45703125,-42.96875,65.4296875,-22.4609375,0.0
369.96484375,5.37109375,-41.015625,-40.0390625,68.84765625,-28.3203125,0.0
369.96875,21.484375,-37.59765625,-40.0390625,56.640625,-64.453125,0.0
369.97265625,-23.92578125,-44.43359375,-55.17578125,47.8515625,-65.4296875,0.0
369.9765625,-76.66015625,-49.8046875,-59.5703125,46.875,-150.87890625,0.0
369.98046875,-84.47265625,-49.8046875,-53.22265625,32.71484375,-141.6015625,0.0
369.984375,-40.0390625,-51.26953125,-36.1328125,-16.11328125,-39.0625,0.0
369.98828125,-6.8359375,-50.29296875,-28.3203125,-29.296875,-55.17578125,0.0
369.9921875,5.859375,-48.33984375,-43.45703125,-11.71875,-64.453125,0.0
369.99609375,-27.83203125,-49.8046875,-54.19921875,-4.8828125,-29.78515625,0.0
370.0,-75.1953125,-51.7578125,-63.4765625,-22.4609375,1.46484375,0.0
370.00390625,-46.875,-61.03515625,-67.3828125,-36.62109375,-20.5078125,0.0
370.0078125,10.7421875,-58.59375,-64.453125,-54.6875,-13.671875,0.0
370.01171875,22.94921875,-44.921875,-61.03515625,-73.73046875,29.296875,0.0
370.015625,4.39453125,-35.64453125,-63.96484375,-58.10546875,-37.109375,0.0
370.01953125,6.34765625,-38.0859375,-62.5,-20.5078125,-95.703125,0.0
370.0234375,-5.859375,-44.921875,-48.828125,-8.7890625,-14.16015625,0.0
370.02734375,-22.4609375,-50.78125,-41.015625,-38.57421875,-2.44140625,0.0
370.03125,-41.50390625,-45.8984375,-42.96875,-51.7578125,-50.29296875,0.0
370.03515625,-57.12890625,-37.109375,-45.41015625,-57.12890625,-64.453125,0.0
370.0390625,-51.7578125,-38.57421875,-45.8984375,-63.4765625,-24.90234375,0.0
370.04296875,-45.8984375,-43.9453125,-49.8046875,-59.08203125,24.4140625,0.0
370.046875,-43.45703125,-36.62109375,-47.36328125,-51.26953125,-7.32421875,0.0
370.05078125,-50.78125,-24.90234375,-40.0390625,-49.8046875,-42.48046875,0.0
370.0546875,-66.89453125,-21.97265625,-40.52734375,-43.45703125,-54.6875,0.0
370.05859375,-67.3828125,-27.34375,-41.015625,-8.30078125,-50.29296875,0.0
370.0625,-81.0546875,-31.25,-41.9921875,18.06640625,21.484375,0.0
370.06640625,-88.8671875,-26.85546875,-50.29296875,29.78515625,26.85546875,0.0
370.0703125,-73.2421875,-21.97265625,-51.26953125,27.34375,11.23046875,0.0
370.07421875,-85.44921875,-33.69140625,-49.8046875,22.94921875,8.7890625,0.0
370.078125,-82.03125,-37.59765625,-37.59765625,22.4609375,-24.4140625,0.0
370.08203125,-75.1953125,-37.59765625,-30.2734375,10.25390625,-27.34375,0.0
370.0859375,-65.4296875,-42.96875,-33.69140625,4.39453125,-40.52734375,0.0
370.08984375,-46.875,-35.64453125,-36.1328125,-17.08984375,-44.921875,0.0
370.09375,-47.8515625,-31.73828125,-44.921875,-41.50390625,-2.44140625,0.0
370.09765625,-28.80859375,-32.2265625,-53.7109375,-76.171875,-62.5,0.0
370.1015625,-9.27734375,-31.73828125,-57.12890625,-88.8671875,-47.36328125,0.0
370.10546875,-32.2265625,-41.9921875,-56.640625,-94.23828125,-36.62109375,0.0
370.109375,-27.83203125,-52.24609375,-57.12890625,-100.5859375,-43.9453125,0.0
370.11328125,-21.97265625,-48.828125,-57.6171875,-95.21484375,22.94921875,0.0
370.1171875,-10.25390625,-51.7578125,-66.89453125,-96.6796875,-38.0859375,0.0
370.12109375,4.8828125,-60.05859375,-76.66015625,-83.0078125,-20.5078125,0.0
370.125,15.13671875,-51.26953125,-70.3125,-57.6171875,19.04296875,0.0
370.12890625,46.875,-45.8984375,-55.17578125,-53.7109375,52.24609375,0.0
370.1328125,70.80078125,-44.43359375,-46.875,-31.73828125,90.33203125,0.0
370.13671875,58.59375,-35.64453125,-45.8984375,-3.90625,57.12890625,0.0
370.140625,33.69140625,-39.55078125,-52.734375,1.953125,-3.90625,0.0
370.14453125,40.52734375,-43.9453125,-54.19921875,31.73828125,-32.71484375,0.0
370.1484375,51.26953125,-35.64453125,-46.38671875,38.0859375,-22.94921875,0.0
370.15234375,48.33984375,-31.73828125,-38.57421875,28.3203125,-89.35546875,0.0
370.15625,37.59765625,-35.64453125,-38.0859375,40.52734375,-90.33203125,0.0
370.16015625,30.2734375,-32.71484375,-38.0859375,37.109375,-12.20703125,0.0
370.1640625,31.73828125,-33.203125,-37.59765625,17.08984375,-30.76171875,0.0
370.16796875,47.36328125,-38.57421875,-43.45703125,-2.44140625,-28.3203125,0.0
370.171875,50.29296875,-30.76171875,-34.66796875,-13.18359375,31.73828125,0.0
370.17578125,28.80859375,-28.80859375,-34.1796875,-33.203125,-19.53125,0.0
370.1796875,28.80859375,-26.3671875,-43.45703125,-46.875,-15.13671875,0.0
370.18359375,30.2734375,-21.484375,-44.43359375,-39.55078125,-40.0390625,0.0
370.1875,28.3203125,-27.34375,-37.109375,7.8125,-143.06640625,0.0
370.19140625,32.71484375,-33.69140625,-32.2265625,34.66796875,-133.7890625,0.0
370.1953125,26.3671875,-31.73828125,-34.1796875,40.0390625,-104.00390625,0.0
370.19921875,22.94921875,-29.78515625,-30.76171875,52.24609375,-151.85546875,0.0
370.203125,20.99609375,-33.203125,-27.34375,54.6875,-80.56640625,0.0
370.20703125,9.765625,-30.76171875,-34.66796875,50.29296875,-42.96875,0.0
370.2109375,-1.46484375,-28.3203125,-36.1328125,42.48046875,-26.85546875,0.0
370.21484375,9.27734375,-36.62109375,-36.62109375,29.296875,47.8515625,0.0
370.21875,4.8828125,-41.015625,-42.48046875,34.1796875,-5.859375,0.0
370.22265625,4.8828125,-35.64453125,-43.9453125,47.8515625,50.78125,0.0
370.2265625,22.4609375,-31.25,-35.15625,37.59765625,110.3515625,0.0
370.23046875,23.4375,-33.69140625,-33.203125,-2.44140625,17.578125,0.0
370.234375,5.37109375,-39.55078125,-51.26953125,-29.296875,-46.875,0.0
370.23828125,-8.30078125,-41.50390625,-58.59375,-27.34375,-64.453125,0.0
370.2421875,3.90625,-41.50390625,-47.8515625,-41.50390625,-27.83203125,0.0
370.24609375,5.859375,-41.015625,-51.7578125,-39.0625,-10.25390625,0.0
370.25,-16.6015625,-41.015625,-64.453125,-26.3671875,1.953125,0.0
370.25390625,-18.5546875,-43.9453125,-68.359375,-44.921875,-79.58984375,0.0
370.2578125,-31.73828125,-48.828125,-61.03515625,-71.2890625,-101.5625,0.0
370.26171875,-46.875,-47.8515625,-57.6171875,-48.828125,-14.16015625,0.0
370.265625,-51.7578125,-47.36328125,-63.96484375,-16.6015625,-6.34765625,0.0
370.26953125,-53.22265625,-52.734375,-68.84765625,-10.7421875,-11.23046875,0.0
370.2734375,-46.875,-55.17578125,-65.4296875,-19.04296875,-17.08984375,0.0
370.27734375,-53.22265625,-53.7109375,-61.5234375,-37.59765625,-19.53125,0.0
370.28125,-62.98828125,-50.78125,-59.5703125,-31.25,-27.34375,0.0
370.28515625,-62.01171875,-49.31640625,-49.8046875,-11.71875,-60.546875,0.0
370.2890625,-44.43359375,-47.8515625,-50.29296875,-18.5546875,-60.05859375,0.0
370.29296875,-29.296875,-49.8046875,-58.10546875,-39.55078125,-52.734375,0.0
370.296875,-43.45703125,-52.24609375,-57.6171875,-30.2734375,-37.109375,0.0
370.30078125,-41.50390625,-45.41015625,-49.8046875,-15.13671875,-50.78125,0.0
370.3046875,-36.1328125,-45.41015625,-46.875,-35.15625,-98.6328125,0.0
370.30859375,-28.80859375,-51.7578125,-55.6640625,-36.1328125,-87.890625,0.0
370.3125,-18.5546875,-48.33984375,-56.15234375,-20.01953125,-33.203125,0.0
370.31640625,-34.66796875,-47.8515625,-56.640625,-48.33984375,-40.0390625,0.0
370.3203125,-40.52734375,-52.24609375,-55.17578125,-59.5703125,-12.6953125,0.0
370.32421875,-16.6015625,-48.828125,-51.26953125,-39.0625,11.71875,0.0
370.328125,-36.62109375,-39.55078125,-52.734375,-38.57421875,-22.94921875,0.0
370.33203125,-67.87109375,-42.96875,-50.78125,-21.97265625,-5.859375,0.0
370.3359375,-52.734375,-42.96875,-52.24609375,-9.765625,-6.34765625,0.0
370.33984375,-20.01953125,-38.57421875,-55.6640625,-0.9765625,36.62109375,0.0
370.34375,-11.23046875,-35.15625,-48.33984375,12.6953125,28.80859375,0.0
370.34765625,-29.296875,-37.109375,-48.828125,0.48828125,-67.87109375,0.0
370.3515625,-15.13671875,-44.921875,-47.36328125,-8.30078125,-53.7109375,0.0
370.35546875,10.7421875,-48.828125,-45.41015625,-18.5546875,4.39453125,0.0
370.359375,7.32421875,-40.52734375,-42.96875,-35.64453125,32.71484375,0.0
370.36328125,15.13671875,-31.25,-38.57421875,-63.96484375,16.6015625,0.0
370.3671875,10.7421875,-31.25,-33.203125,-89.35546875,-10.25390625,0.0
370.37109375,-7.8125,-33.203125,-26.85546875,-75.68359375,-0.9765625,0.0
370.375,-25.87890625,-34.1796875,-24.4140625,-45.41015625,-54.6875,0.0
370.37890625,-29.78515625,-36.1328125,-33.203125,-45.8984375,-32.71484375,0.0
370.3828125,3.41796875,-38.57421875,-39.0625,-38.57421875,20.99609375,0.0
370.38671875,31.73828125,-32.71484375,-30.76171875,-22.94921875,-39.55078125,0.0
370.390625,-14.16015625,-28.80859375,-37.59765625,-54.19921875,-57.12890625,0.0
370.39453125,-65.4296875,-37.109375,-44.921875,-48.828125,10.7421875,0.0
370.3984375,-102.05078125,-43.9453125,-34.66796875,-38.0859375,-8.30078125,0.0
370.40234375,-115.234375,-39.55078125,-27.83203125,-52.734375,-36.62109375,0.0
370.40625,-116.2109375,-37.59765625,-26.3671875,-53.22265625,29.78515625,0.0
370.41015625,-124.0234375,-40.52734375,-30.76171875,-56.15234375,-88.8671875,0.0
370.4140625,-117.1875,-36.62109375,-26.85546875,-40.52734375,-138.671875,0.0
370.41796875,-129.8828125,-39.0625,-28.3203125,-28.3203125,-72.75390625,0.0
370.421875,-136.23046875,-39.0625,-29.78515625,-12.6953125,-32.2265625,0.0
370.42578125,-120.60546875,-30.2734375,-31.73828125,-29.78515625,55.6640625,0.0
370.4296875,-108.3984375,-23.92578125,-39.0625,-44.43359375,62.98828125,0.0
370.43359375,-123.046875,-30.76171875,-42.48046875,-10.25390625,12.20703125,0.0
370.4375,-124.51171875,-40.52734375,-42.96875,0.0,41.015625,0.0
370.44140625,-99.12109375,-37.59765625,-42.96875,-16.11328125,2.9296875,0.0
370.4453125,-75.68359375,-29.296875,-37.59765625,-8.30078125,-103.02734375,0.0
370.44921875,-72.265625,-35.64453125,-34.66796875,15.625,-91.30859375,0.0
370.453125,-95.21484375,-47.36328125,-48.33984375,6.34765625,-68.84765625,0.0
370.45703125,-104.4921875,-44.43359375,-57.12890625,-18.5546875,-56.640625,0.0
370.4609375,-93.75,-48.828125,-50.29296875,-15.13671875,-14.16015625,0.0
370.46484375,-96.19140625,-49.8046875,-44.43359375,-0.48828125,-82.03125,0.0
370.46875,-115.234375,-40.0390625,-48.33984375,-17.08984375,-106.4453125,0.0
370.47265625,-120.60546875,-36.62109375,-47.8515625,-18.06640625,-112.79296875,0.0
370.4765625,-101.07421875,-24.90234375,-41.9921875,0.48828125,-178.7109375,0.0
370.48046875,-106.4453125,-32.71484375,-49.31640625,-50.29296875,-153.3203125,0.0
370.484375,-128.90625,-43.45703125,-49.8046875,-65.4296875,-30.76171875,0.0
370.48828125,-127.44140625,-53.22265625,-41.50390625,-33.203125,-0.48828125,0.0
370.4921875,-150.390625,-54.6875,-42.48046875,-68.359375,-228.02734375,0.0
370.49609375,-158.203125,-50.29296875,-50.78125,-96.19140625,-266.6015625,0.0
370.5,-187.98828125,-57.12890625,-50.78125,-90.33203125,-110.3515625,0.0
370.50390625,-256.8359375,-58.59375,-49.8046875,-120.1171875,-36.1328125,0.0
370.5078125,-285.15625,-64.453125,-66.40625,-170.41015625,-27.83203125,0.0
370.51171875,-314.94140625,-76.66015625,-82.51953125,-188.4765625,-40.52734375,0.0
370.515625,-337.890625,-78.125,-78.125,-209.47265625,30.2734375,0.0
370.51953125,-373.53515625,-89.84375,-78.61328125,-254.8828125,30.2734375,0.0
370.5234375,-376.46484375,-98.6328125,-79.58984375,-259.765625,27.83203125,0.0
370.52734375,-378.41796875,-100.09765625,-83.49609375,-268.06640625,-51.26953125,0.0
370.53125,-398.4375,-107.421875,-82.03125,-257.32421875,-50.29296875,0.0
370.53515625,-402.83203125,-104.98046875,-74.70703125,-256.8359375,89.84375,0.0
370.5390625,-406.73828125,-94.7265625,-72.75390625,-290.0390625,87.40234375,0.0
370.54296875,-397.94921875,-84.47265625,-64.453125,-270.99609375,-4.39453125,0.0
370.546875,-372.55859375,-83.0078125,-53.22265625,-248.53515625,-23.92578125,0.0
370.55078125,-366.2109375,-87.40234375,-49.8046875,-264.16015625,29.296875,0.0
370.5546875,-344.7265625,-85.9375,-52.734375,-249.0234375,-24.4140625,0.0
370.55859375,-288.0859375,-81.0546875,-57.6171875,-241.69921875,-181.15234375,0.0
370.5625,-273.92578125,-68.359375,-44.921875,-222.65625,-166.015625,0.0
370.56640625,-241.69921875,-62.98828125,-37.59765625,-163.0859375,-71.2890625,0.0
370.5703125,-187.98828125,-66.40625,-35.64453125,-128.90625,-87.890625,0.0
370.57421875,-142.08984375,-65.91796875,-32.2265625,-103.02734375,-141.6015625,0.0
370.578125,-100.5859375,-62.98828125,-35.64453125,-105.95703125,-75.68359375,0.0
370.58203125,-86.9140625,-56.15234375,-33.69140625,-97.16796875,31.25,0.0
370.5859375,-71.2890625,-47.8515625,-36.1328125,-68.359375,-16.6015625,0.0
370.58984375,-80.078125,-37.59765625,-45.8984375,-29.296875,-20.01953125,0.0
370.59375,-93.75,-31.73828125,-58.10546875,-1.953125,24.90234375,0.0
370.59765625,-84.47265625,-37.109375,-54.6875,4.39453125,18.06640625,0.0
370.6015625,-98.6328125,-37.109375,-48.828125,-6.8359375,3.41796875,0.0
370.60546875,-102.05078125,-31.73828125,-53.22265625,-30.2734375,49.8046875,0.0
370.609375,-52.734375,-23.92578125,-46.38671875,19.04296875,106.93359375,0.0
370.61328125,-6.8359375,-19.53125,-43.9453125,61.5234375,42.96875,0.0
370.6171875,9.27734375,-20.01953125,-48.33984375,47.36328125,-52.24609375,0.0
370.62109375,12.6953125,-18.06640625,-47.36328125,37.109375,-30.2734375,0.0
370.625,6.8359375,-13.18359375,-42.48046875,42.96875,-62.98828125,0.0
370.62890625,31.73828125,-10.7421875,-30.2734375,65.91796875,-97.16796875,0.0
370.6328125,36.62109375,-15.13671875,-32.71484375,77.1484375,-17.578125,0.0
370.63671875,15.13671875,-15.625,-42.48046875,49.8046875,45.8984375,0.0
370.640625,20.01953125,-12.20703125,-37.109375,35.15625,-1.953125,0.0
370.64453125,44.43359375,-17.08984375,-30.2734375,50.29296875,-73.73046875,0.0
370.6484375,51.7578125,-12.20703125,-37.109375,62.5,-32.2265625,0.0
370.65234375,52.24609375,-12.20703125,-49.31640625,55.17578125,41.9921875,0.0
370.65625,60.546875,-18.06640625,-51.7578125,74.70703125,99.12109375,0.0
370.66015625,66.40625,-17.08984375,-40.52734375,105.95703125,45.8984375,0.0
370.6640625,45.41015625,-17.578125,-34.1796875,100.5859375,20.99609375,0.0
370.66796875,-7.8125,-18.06640625,-36.1328125,77.1484375,56.15234375,0.0
370.671875,-47.8515625,-20.01953125,-27.34375,62.5,33.203125,0.0
370.67578125,-58.10546875,-23.92578125,-22.4609375,46.875,0.48828125,0.0
370.6796875,-30.76171875,-30.2734375,-25.87890625,36.1328125,-19.04296875,0.0
370.68359375,-10.7421875,-23.92578125,-20.99609375,56.15234375,-94.23828125,0.0
370.6875,6.8359375,-12.6953125,-18.5546875,44.43359375,-95.703125,0.0
370.69140625,32.2265625,-10.7421875,-18.06640625,13.671875,-42.48046875,0.0
370.6953125,35.15625,-15.625,-21.484375,21.97265625,-14.16015625,0.0
370.69921875,18.5546875,-16.6015625,-20.5078125,48.828125,-12.20703125,0.0
370.703125,35.15625,-12.20703125,-20.5078125,78.61328125,0.48828125,0.0
370.70703125,58.10546875,-12.6953125,-22.4609375,97.16796875,49.8046875,0.0
370.7109375,47.36328125,-13.18359375,-17.578125,88.8671875,55.6640625,0.0
370.71484375,24.90234375,-14.6484375,-24.4140625,70.80078125,-65.91796875,0.0
370.71875,10.7421875,-14.6484375,-32.2265625,55.17578125,-192.3828125,0.0
370.72265625,14.16015625,-21.97265625,-32.71484375,25.390625,-178.7109375,0.0
370.7265625,16.11328125,-29.296875,-40.0390625,-14.6484375,-118.65234375,0.0
370.73046875,27.34375,-26.85546875,-41.9921875,-20.99609375,-79.1015625,0.0
370.734375,23.92578125,-28.80859375,-42.48046875,3.90625,-46.38671875,0.0
370.73828125,0.0,-29.78515625,-44.921875,11.23046875,-46.38671875,0.0
370.7421875,7.8125,-28.3203125,-46.38671875,19.04296875,-48.33984375,0.0
370.74609375,18.06640625,-29.78515625,-46.38671875,7.8125,-0.9765625,0.0
370.75,-3.90625,-33.69140625,-45.8984375,-8.7890625,74.21875,0.0
370.75390625,2.44140625,-36.1328125,-45.41015625,-3.90625,11.23046875,0.0
370.7578125,32.71484375,-35.15625,-48.828125,5.859375,-73.2421875,0.0
370.76171875,24.90234375,-32.71484375,-57.6171875,-1.46484375,-72.265625,0.0
370.765625,34.1796875,-32.71484375,-56.15234375,3.90625,-62.01171875,0.0
370.76953125,38.0859375,-33.203125,-46.875,42.96875,-75.68359375,0.0
370.7734375,30.76171875,-27.83203125,-42.96875,58.59375,-54.19921875,0.0
370.77734375,25.87890625,-26.85546875,-37.59765625,54.19921875,-37.59765625,0.0
370.78125,13.671875,-26.85546875,-40.52734375,46.38671875,-48.828125,0.0
370.78515625,14.16015625,-26.85546875,-42.48046875,26.85546875,3.41796875,0.0
370.7890625,-15.13671875,-29.78515625,-46.38671875,41.015625,27.34375,0.0
370.79296875,24.90234375,-33.203125,-51.26953125,37.109375,-4.39453125,0.0
370.796875,38.57421875,-39.0625,-56.15234375,-2.44140625,48.33984375,0.0
370.80078125,3.41796875,-31.25,-52.24609375,16.11328125,41.9921875,0.0
370.8046875,20.99609375,-31.73828125,-46.38671875,32.71484375,26.3671875,0.0
370.80859375,10.7421875,-40.52734375,-49.31640625,16.11328125,19.53125,0.0
370.8125,3.41796875,-33.203125,-50.78125,19.04296875,0.48828125,0.0
370.81640625,60.05859375,-28.80859375,-47.36328125,21.484375,15.13671875,0.0
370.8203125,80.56640625,-35.15625,-53.7109375,13.671875,4.39453125,0.0
370.82421875,23.92578125,-35.64453125,-60.05859375,10.25390625,-27.34375,0.0
370.828125,-16.11328125,-29.296875,-57.6171875,-15.625,-24.4140625,0.0
370.83203125,-79.58984375,-39.55078125,-60.05859375,-31.73828125,-5.37109375,0.0
370.8359375,-72.265625,-45.8984375,-66.40625,-29.78515625,-30.76171875,0.0
370.83984375,-4.39453125,-41.50390625,-69.82421875,8.30078125,-54.6875,0.0
370.84375,-6.8359375,-45.8984375,-72.265625,42.96875,22.94921875,0.0
370.84765625,-40.0390625,-50.78125,-67.3828125,36.62109375,70.80078125,0.0
370.8515625,-56.640625,-45.41015625,-59.5703125,-5.37109375,-1.953125,0.0
370.85546875,-65.4296875,-39.55078125,-61.5234375,-64.94140625,12.20703125,0.0
370.859375,-73.73046875,-39.55078125,-57.12890625,-88.37890625,10.7421875,0.0
370.86328125,-81.54296875,-40.0390625,-56.15234375,-85.9375,-50.29296875,0.0
370.8671875,-81.54296875,-39.0625,-74.21875,-85.44921875,-108.88671875,0.0
370.87109375,-76.171875,-40.0390625,-83.984375,-70.80078125,-76.66015625,0.0
370.875,-64.94140625,-45.41015625,-83.49609375,-70.3125,67.87109375,0.0
370.87890625,-68.84765625,-46.38671875,-84.47265625,-66.40625,45.41015625,0.0
370.8828125,-51.26953125,-40.52734375,-80.56640625,-75.1953125,4.39453125,0.0
370.88671875,0.0,-35.15625,-76.171875,-78.125,-3.41796875,0.0
370.890625,11.23046875,-30.76171875,-72.75390625,-73.73046875,-18.06640625,0.0
370.89453125,-20.5078125,-29.296875,-73.2421875,-96.6796875,-27.83203125,0.0
370.8984375,-27.83203125,-36.1328125,-75.68359375,-96.19140625,-39.0625,0.0
370.90234375,-25.87890625,-40.0390625,-76.66015625,-94.7265625,22.94921875,0.0
370.90625,-45.8984375,-36.62109375,-83.984375,-98.14453125,35.64453125,0.0
370.91015625,-72.75390625,-38.57421875,-88.8671875,-105.95703125,-12.20703125,0.0
370.9140625,-70.80078125,-44.43359375,-94.7265625,-107.421875,-110.83984375,0.0
370.91796875,-60.546875,-44.921875,-86.9140625,-114.74609375,-162.59765625,0.0
370.921875,-62.01171875,-41.9921875,-82.51953125,-120.1171875,-164.0625,0.0
370.92578125,-28.3203125,-35.64453125,-87.40234375,-103.515625,-138.671875,0.0
370.9296875,-51.7578125,-32.2265625,-92.7734375,-113.76953125,-132.32421875,0.0
370.93359375,-75.1953125,-33.203125,-88.37890625,-113.28125,-121.58203125,0.0
370.9375,-57.12890625,-41.015625,-75.1953125,-83.984375,-143.5546875,0.0
370.94140625,-55.6640625,-48.33984375,-74.21875,-74.21875,-169.43359375,0.0
370.9453125,-57.6171875,-42.48046875,-74.21875,-67.3828125,-124.51171875,0.0
370.94921875,-54.6875,-38.0859375,-63.4765625,-57.12890625,-25.87890625,0.0
370.953125,-49.31640625,-35.64453125,-66.89453125,-46.875,-41.015625,0.0
370.95703125,-46.38671875,-28.3203125,-78.61328125,-38.0859375,-141.11328125,0.0
370.9609375,-44.921875,-31.73828125,-80.078125,-57.12890625,-130.37109375,0.0
370.96484375,-39.55078125,-37.109375,-73.2421875,-61.03515625,-108.3984375,0.0
370.96875,-29.78515625,-41.9921875,-70.80078125,-57.6171875,-112.79296875,0.0
370.97265625,-29.78515625,-46.38671875,-73.73046875,-70.80078125,-157.71484375,0.0
370.9765625,-2.44140625,-41.015625,-68.84765625,-72.75390625,-229.4921875,0.0
370.98046875,-16.6015625,-46.875,-68.84765625,-62.5,-183.59375,0.0
370.984375,-28.80859375,-49.31640625,-62.01171875,-53.22265625,-69.82421875,0.0
370.98828125,-4.8828125,-42.96875,-56.640625,-61.03515625,-31.25,0.0
370.9921875,-8.7890625,-39.0625,-59.08203125,-54.19921875,-106.4453125,0.0
370.99609375,-8.30078125,-41.50390625,-63.4765625,-50.78125,-92.28515625,0.0
371.0,3.41796875,-44.43359375,-68.359375,-47.36328125,-30.2734375,0.0
371.00390625,27.83203125,-45.8984375,-67.87109375,-33.69140625,-99.12109375,0.0
371.0078125,42.96875,-45.41015625,-63.4765625,-37.109375,-140.13671875,0.0
371.01171875,44.921875,-41.9921875,-50.29296875,-20.01953125,-71.2890625,0.0
371.015625,42.96875,-38.57421875,-45.8984375,39.55078125,-97.16796875,0.0
371.01953125,7.32421875,-45.8984375,-61.03515625,43.45703125,-87.40234375,0.0
371.0234375,-3.41796875,-46.38671875,-66.40625,23.92578125,-48.828125,0.0
371.02734375,-31.25,-45.8984375,-66.89453125,25.87890625,-74.21875,0.0
371.03125,-50.78125,-53.7109375,-74.21875,6.8359375,-103.02734375,0.0
371.03515625,-22.4609375,-56.15234375,-78.125,-9.27734375,-39.55078125,0.0
371.0390625,-8.7890625,-52.24609375,-66.89453125,-6.34765625,-25.390625,0.0
371.04296875,-2.44140625,-48.33984375,-59.5703125,-13.671875,-96.19140625,0.0
371.046875,3.90625,-41.9921875,-65.91796875,-23.92578125,-69.3359375,0.0
371.05078125,-3.41796875,-37.59765625,-68.84765625,-28.3203125,-86.42578125,0.0
371.0546875,-24.90234375,-37.59765625,-66.89453125,-26.85546875,-107.421875,0.0
371.05859375,-24.4140625,-39.55078125,-65.4296875,-26.3671875,34.1796875,0.0
371.0625,-16.11328125,-41.50390625,-62.5,-27.34375,166.9921875,0.0
371.06640625,-22.4609375,-40.52734375,-64.453125,-30.76171875,100.09765625,0.0
371.0703125,-31.73828125,-41.9921875,-61.03515625,-19.04296875,129.8828125,0.0
371.07421875,0.9765625,-45.8984375,-54.19921875,-20.99609375,177.24609375,0.0
371.078125,20.99609375,-45.8984375,-47.8515625,-23.92578125,96.19140625,0.0
371.08203125,-5.37109375,-42.48046875,-50.29296875,-22.94921875,154.296875,0.0
371.0859375,-3.41796875,-40.52734375,-57.12890625,-32.71484375,170.8984375,0.0
371.08984375,-7.8125,-44.43359375,-52.734375,-37.109375,95.21484375,0.0
371.09375,-15.13671875,-41.9921875,-46.875,-33.203125,38.57421875,0.0
371.09765625,7.32421875,-38.57421875,-44.921875,-10.25390625,4.8828125,0.0
371.1015625,2.9296875,-45.8984375,-46.38671875,-11.71875,31.73828125,0.0
371.10546875,4.8828125,-46.38671875,-44.43359375,-1.46484375,-11.23046875,0.0
371.109375,-23.92578125,-38.0859375,-40.0390625,8.7890625,-43.45703125,0.0
371.11328125,-50.78125,-33.203125,-40.0390625,-19.04296875,16.11328125,0.0
371.1171875,-46.38671875,-33.69140625,-38.0859375,-23.92578125,69.3359375,0.0
371.12109375,-46.38671875,-33.203125,-39.55078125,-19.04296875,101.07421875,0.0
371.125,-27.83203125,-32.2265625,-51.26953125,-0.9765625,38.57421875,0.0
371.12890625,-32.71484375,-26.3671875,-54.6875,12.20703125,-43.45703125,0.0
371.1328125,-18.5546875,-28.3203125,-50.78125,5.37109375,-29.78515625,0.0
371.13671875,-17.578125,-39.0625,-52.24609375,1.953125,34.1796875,0.0
371.140625,-39.0625,-43.9453125,-56.15234375,-1.46484375,33.69140625,0.0
371.14453125,-28.3203125,-37.109375,-56.640625,-2.9296875,55.6640625,0.0
371.1484375,-33.203125,-34.1796875,-43.45703125,-8.7890625,50.29296875,0.0
371.15234375,-23.92578125,-35.15625,-34.1796875,-17.08984375,28.3203125,0.0
371.15625,7.8125,-36.62109375,-41.9921875,-8.30078125,4.8828125,0.0
371.16015625,-3.90625,-38.0859375,-44.921875,-20.99609375,-47.8515625,0.0
371.1640625,-12.20703125,-36.62109375,-48.33984375,-33.203125,-61.03515625,0.0
371.16796875,7.8125,-30.76171875,-48.828125,-31.73828125,0.9765625,0.0
371.171875,-10.25390625,-31.73828125,-52.24609375,-41.9921875,13.671875,0.0
371.17578125,-10.7421875,-33.69140625,-60.05859375,-27.83203125,-17.578125,0.0
371.1796875,-0.9765625,-30.76171875,-62.5,-6.8359375,-7.32421875,0.0
371.18359375,-13.18359375,-34.66796875,-68.359375,-0.9765625,-4.8828125,0.0
371.1875,-13.671875,-32.71484375,-63.96484375,-6.34765625,34.1796875,0.0
371.19140625,-11.71875,-33.203125,-55.17578125,-12.6953125,45.8984375,0.0
371.1953125,-13.18359375,-39.0625,-63.4765625,-5.37109375,39.0625,0.0
371.19921875,-11.23046875,-40.0390625,-69.82421875,-10.25390625,19.53125,0.0
371.203125,-7.32421875,-38.57421875,-67.3828125,-21.484375,1.953125,0.0
371.20703125,-1.953125,-36.62109375,-61.5234375,-27.34375,16.6015625,0.0
371.2109375,-1.46484375,-38.57421875,-58.10546875,-38.0859375,-22.94921875,0.0
371.21484375,-16.6015625,-46.875,-59.5703125,-44.921875,-8.30078125,0.0
371.21875,-25.390625,-45.41015625,-62.5,-54.6875,40.0390625,0.0
371.22265625,-32.71484375,-37.109375,-58.59375,-71.2890625,1.46484375,0.0
371.2265625,-36.62109375,-28.80859375,-54.6875,-83.984375,-17.08984375,0.0
371.23046875,-27.34375,-29.78515625,-53.7109375,-75.1953125,12.20703125,0.0
371.234375,-21.97265625,-39.0625,-54.6875,-70.80078125,-63.96484375,0.0
371.23828125,-9.27734375,-40.0390625,-51.26953125,-77.63671875,-1.46484375,0.0
371.2421875,-0.9765625,-35.64453125,-52.734375,-56.15234375,78.61328125,0.0
371.24609375,-1.46484375,-33.203125,-57.12890625,-24.4140625,24.90234375,0.0
371.25,10.7421875,-35.15625,-47.8515625,-18.06640625,-1.46484375,0.0
371.25390625,-1.46484375,-40.0390625,-40.52734375,-34.66796875,-10.7421875,0.0
371.2578125,-20.99609375,-38.0859375,-40.52734375,-33.203125,0.0,0.0
371.26171875,-5.859375,-37.59765625,-41.015625,-24.90234375,-7.8125,0.0
371.265625,-20.99609375,-39.55078125,-46.875,-41.015625,4.39453125,0.0
371.26953125,-36.1328125,-41.015625,-55.17578125,-54.19921875,30.2734375,0.0
371.2734375,-39.0625,-41.015625,-57.12890625,-63.4765625,62.01171875,0.0
371.27734375,-60.546875,-40.0390625,-63.96484375,-76.66015625,89.84375,0.0
371.28125,-46.875,-37.59765625,-73.2421875,-75.1953125,19.53125,0.0
371.28515625,-32.71484375,-40.0390625,-68.359375,-84.47265625,-83.49609375,0.0
371.2890625,-40.0390625,-44.921875,-47.36328125,-64.94140625,-34.66796875,0.0
371.29296875,-2.9296875,-43.9453125,-36.62109375,-50.29296875,10.7421875,0.0
371.296875,12.20703125,-41.50390625,-43.45703125,-56.640625,-18.5546875,0.0
371.30078125,-8.30078125,-41.9921875,-51.26953125,-52.734375,7.8125,0.0
371.3046875,-17.578125,-42.96875,-62.98828125,-56.640625,-39.55078125,0.0
371.30859375,-22.4609375,-44.43359375,-62.01171875,-59.08203125,-104.4921875,0.0
371.3125,-23.4375,-42.96875,-57.12890625,-57.12890625,-20.5078125,0.0
371.31640625,-8.7890625,-43.9453125,-66.89453125,-61.5234375,-5.859375,0.0
371.3203125,-10.7421875,-43.9453125,-68.84765625,-55.6640625,-9.27734375,0.0
371.32421875,10.25390625,-50.78125,-66.89453125,-48.828125,-4.8828125,0.0
371.328125,19.53125,-60.05859375,-61.03515625,-28.3203125,-54.6875,0.0
371.33203125,-11.23046875,-56.640625,-53.7109375,-24.4140625,-67.87109375,0.0
371.3359375,-30.76171875,-46.875,-56.640625,-41.015625,-54.19921875,0.0
371.33984375,-18.5546875,-47.8515625,-62.5,-43.45703125,-71.77734375,0.0
371.34375,35.64453125,-39.55078125,-54.6875,-20.5078125,-125.0,0.0
371.34765625,50.78125,-33.69140625,-49.31640625,-11.23046875,-119.140625,0.0
371.3515625,32.2265625,-46.875,-52.24609375,-21.97265625,-77.1484375,0.0
371.35546875,35.64453125,-45.41015625,-58.10546875,-18.06640625,-57.6171875,0.0
371.359375,30.76171875,-39.0625,-57.6171875,-20.5078125,-90.8203125,0.0
371.36328125,10.25390625,-39.55078125,-48.33984375,-21.484375,-134.27734375,0.0
371.3671875,-42.48046875,-38.57421875,-46.38671875,-29.78515625,-104.00390625,0.0
371.37109375,-83.0078125,-39.55078125,-52.734375,-35.15625,-48.33984375,0.0
371.375,-77.63671875,-43.9453125,-55.17578125,-21.484375,-68.84765625,0.0
371.37890625,-49.8046875,-44.921875,-49.8046875,-30.76171875,-113.28125,0.0
371.3828125,-43.45703125,-42.96875,-45.8984375,-48.828125,-101.07421875,0.0
371.38671875,-26.3671875,-39.55078125,-43.9453125,-20.01953125,-142.578125,0.0
371.390625,6.34765625,-34.66796875,-47.8515625,-13.671875,-194.82421875,0.0
371.39453125,7.8125,-40.0390625,-57.12890625,-26.3671875,-129.39453125,0.0
371.3984375,25.390625,-40.0390625,-60.05859375,-13.671875,-132.32421875,0.0
371.40234375,29.296875,-36.62109375,-51.26953125,-9.765625,-128.41796875,0.0
371.40625,17.08984375,-39.0625,-47.36328125,-21.484375,16.6015625,0.0
371.41015625,32.2265625,-35.64453125,-48.828125,-16.11328125,-63.4765625,0.0
371.4140625,59.08203125,-28.3203125,-38.57421875,2.44140625,-147.94921875,0.0
371.41796875,74.21875,-23.4375,-32.2265625,7.32421875,-73.73046875,0.0
371.421875,87.890625,-28.3203125,-41.015625,6.34765625,-57.6171875,0.0
371.42578125,83.49609375,-36.1328125,-44.921875,17.578125,-79.1015625,0.0
371.4296875,76.66015625,-42.96875,-43.9453125,23.4375,-102.05078125,0.0
371.43359375,71.2890625,-45.8984375,-44.43359375,33.69140625,-105.95703125,0.0
371.4375,21.97265625,-41.9921875,-50.78125,13.18359375,-44.921875,0.0
371.44140625,-40.0390625,-40.52734375,-53.7109375,-12.6953125,92.28515625,0.0
371.4453125,-47.8515625,-34.66796875,-35.64453125,8.7890625,155.2734375,0.0
371.44921875,-37.59765625,-32.71484375,-27.83203125,17.578125,90.8203125,0.0
371.453125,-43.45703125,-35.64453125,-37.109375,2.9296875,-20.5078125,0.0
371.45703125,-41.50390625,-30.76171875,-37.109375,10.25390625,-30.2734375,0.0
371.4609375,-41.50390625,-25.390625,-30.76171875,5.859375,8.30078125,0.0
371.46484375,-28.3203125,-25.87890625,-29.296875,-2.9296875,-1.46484375,0.0
371.46875,-19.53125,-31.73828125,-32.2265625,-10.25390625,76.171875,0.0
371.47265625,-37.109375,-36.1328125,-31.73828125,-8.7890625,97.16796875,0.0
371.4765625,-49.8046875,-36.1328125,-36.62109375,5.37109375,-32.2265625,0.0
371.48046875,-26.3671875,-31.25,-36.1328125,-9.27734375,-46.875,0.0
371.484375,-25.87890625,-34.1796875,-38.57421875,-21.97265625,36.62109375,0.0
371.48828125,-44.921875,-35.64453125,-40.0390625,6.34765625,83.0078125,0.0
371.4921875,-41.9921875,-36.62109375,-34.66796875,-17.578125,89.35546875,0.0
371.49609375,-21.97265625,-39.0625,-31.25,-34.66796875,66.40625,0.0
371.5,26.85546875,-38.0859375,-36.62109375,-19.04296875,29.78515625,0.0
371.50390625,40.52734375,-40.52734375,-45.8984375,-16.6015625,17.578125,0.0
371.5078125,26.3671875,-35.15625,-34.66796875,-2.9296875,-14.16015625,0.0
371.51171875,18.5546875,-30.2734375,-31.25,-7.32421875,-47.36328125,0.0
371.515625,24.90234375,-28.3203125,-43.45703125,-33.69140625,-8.7890625,0.0
371.51953125,42.96875,-30.2734375,-48.828125,-40.0390625,10.7421875,0.0
371.5234375,35.64453125,-40.0390625,-50.29296875,-34.1796875,-4.8828125,0.0
371.52734375,4.39453125,-45.41015625,-47.36328125,-43.45703125,78.61328125,0.0
371.53125,-36.1328125,-47.36328125,-44.43359375,-53.7109375,95.21484375,0.0
371.53515625,-69.82421875,-43.9453125,-45.41015625,-50.29296875,3.41796875,0.0
371.5390625,-88.8671875,-44.921875,-53.7109375,-47.36328125,-26.3671875,0.0
371.54296875,-90.8203125,-43.45703125,-55.17578125,-34.66796875,-20.99609375,0.0
371.546875,-69.3359375,-38.0859375,-39.0625,-11.23046875,18.5546875,0.0
371.55078125,-77.1484375,-45.8984375,-38.57421875,-13.671875,43.45703125,0.0
371.5546875,-103.515625,-52.734375,-40.52734375,-31.73828125,45.8984375,0.0
371.55859375,-101.07421875,-51.26953125,-41.015625,-9.765625,-18.5546875,0.0
371.5625,-98.14453125,-50.78125,-43.45703125,-18.5546875,-43.9453125,0.0
371.56640625,-94.23828125,-50.29296875,-37.109375,-42.48046875,50.78125,0.0
371.5703125,-94.23828125,-50.78125,-33.69140625,-43.45703125,97.65625,0.0
371.57421875,-61.5234375,-46.38671875,-28.3203125,-53.22265625,29.296875,0.0
371.578125,1.953125,-40.0390625,-31.73828125,-59.08203125,-104.98046875,0.0
371.58203125,1.953125,-35.64453125,-41.9921875,-55.17578125,-152.83203125,0.0
371.5859375,-41.9921875,-41.50390625,-47.8515625,-62.98828125,-199.70703125,0.0
371.58984375,-69.3359375,-47.36328125,-41.50390625,-60.546875,-220.703125,0.0
371.59375,-78.61328125,-40.52734375,-36.62109375,-47.36328125,-106.93359375,0.0
371.59765625,-63.4765625,-39.55078125,-32.71484375,-56.640625,-44.43359375,0.0
371.6015625,-15.625,-45.8984375,-37.109375,-58.10546875,-82.03125,0.0
371.60546875,51.7578125,-44.43359375,-43.45703125,-54.19921875,-62.98828125,0.0
371.609375,51.7578125,-43.45703125,-41.9921875,-65.4296875,-106.93359375,0.0
371.61328125,28.80859375,-44.43359375,-29.78515625,-62.5,-118.1640625,0.0
371.6171875,29.78515625,-48.33984375,-20.99609375,-45.8984375,-49.31640625,0.0
371.62109375,6.34765625,-52.734375,-25.390625,-45.8984375,-59.08203125,0.0
371.625,-31.25,-46.875,-28.80859375,-59.08203125,-1.953125,0.0
371.62890625,-55.17578125,-41.50390625,-25.87890625,-57.6171875,32.2265625,0.0
371.6328125,-34.66796875,-32.2265625,-20.99609375,-45.8984375,57.6171875,0.0
371.63671875,-14.6484375,-33.203125,-32.2265625,-55.6640625,55.17578125,0.0
371.640625,-23.92578125,-37.109375,-37.59765625,-57.12890625,-75.68359375,0.0
371.64453125,-11.23046875,-36.62109375,-33.203125,-25.87890625,-45.41015625,0.0
371.6484375,25.87890625,-35.15625,-37.59765625,-9.765625,66.40625,0.0
371.65234375,25.87890625,-34.1796875,-48.828125,-26.3671875,38.57421875,0.0
371.65625,-11.71875,-29.78515625,-49.31640625,-40.52734375,33.69140625,0.0
371.66015625,-38.0859375,-30.2734375,-48.33984375,-44.43359375,27.34375,0.0
371.6640625,-55.6640625,-37.59765625,-44.921875,-50.29296875,74.70703125,0.0
371.66796875,-83.49609375,-44.43359375,-41.9921875,-41.9921875,59.08203125,0.0
371.671875,-97.16796875,-45.41015625,-41.9921875,-18.5546875,2.9296875,0.0
371.67578125,-83.984375,-46.38671875,-44.921875,-12.6953125,-12.6953125,0.0
371.6796875,-110.3515625,-40.52734375,-47.8515625,-38.57421875,-3.41796875,0.0
371.68359375,-137.6953125,-36.1328125,-41.9921875,-28.3203125,13.671875,0.0
371.6875,-120.60546875,-33.69140625,-41.50390625,-5.37109375,-47.8515625,0.0
371.69140625,-105.95703125,-34.66796875,-49.8046875,-23.92578125,-51.26953125,0.0
371.6953125,-97.65625,-39.55078125,-52.734375,-31.73828125,-28.80859375,0.0
371.69921875,-121.09375,-43.45703125,-52.24609375,-10.7421875,-20.99609375,0.0
371.703125,-107.421875,-42.96875,-49.8046875,-7.8125,-28.80859375,0.0
371.70703125,-55.6640625,-29.296875,-44.921875,-7.32421875,-4.8828125,0.0
371.7109375,-61.5234375,-28.80859375,-45.41015625,2.44140625,-25.87890625,0.0
371.71484375,-72.75390625,-34.1796875,-43.45703125,-16.6015625,-35.64453125,0.0
371.71875,-68.359375,-31.25,-49.8046875,-39.55078125,-2.9296875,0.0
371.72265625,-82.03125,-36.1328125,-56.640625,-29.296875,-2.44140625,0.0
371.7265625,-94.7265625,-41.50390625,-48.33984375,-1.953125,-9.765625,0.0
371.73046875,-99.609375,-41.50390625,-47.36328125,24.90234375,-51.26953125,0.0
371.734375,-102.5390625,-38.57421875,-49.8046875,11.23046875,-51.26953125,0.0
371.73828125,-83.0078125,-42.96875,-50.29296875,-4.8828125,-27.83203125,0.0
371.7421875,-96.19140625,-48.33984375,-47.36328125,-15.625,46.875,0.0
371.74609375,-103.02734375,-45.8984375,-43.9453125,-41.9921875,115.72265625,0.0
371.75,-88.37890625,-40.52734375,-42.48046875,-52.734375,92.7734375,0.0
371.75390625,-92.7734375,-40.0390625,-47.36328125,-45.8984375,22.94921875,0.0
371.7578125,-112.79296875,-47.8515625,-53.7109375,-49.31640625,10.25390625,0.0
371.76171875,-120.1171875,-48.33984375,-49.8046875,-49.8046875,-31.25,0.0
371.765625,-97.16796875,-41.9921875,-43.9453125,-40.0390625,-107.421875,0.0
371.76953125,-96.19140625,-44.43359375,-44.921875,-44.921875,-77.1484375,0.0
371.7734375,-88.8671875,-41.9921875,-43.45703125,-51.26953125,6.34765625,0.0
371.77734375,-69.82421875,-36.1328125,-46.38671875,-45.41015625,17.08984375,0.0
371.78125,-81.54296875,-32.2265625,-43.45703125,-49.8046875,-5.859375,0.0
371.78515625,-73.2421875,-34.66796875,-31.25,-66.89453125,-30.2734375,0.0
371.7890625,-78.61328125,-34.66796875,-25.87890625,-43.9453125,-29.296875,0.0
371.79296875,-94.7265625,-28.3203125,-31.73828125,-35.15625,-14.16015625,0.0
371.796875,-55.17578125,-35.15625,-51.26953125,-49.31640625,-31.25,0.0
371.80078125,-37.109375,-43.45703125,-65.4296875,-41.015625,-41.015625,0.0
371.8046875,-35.64453125,-33.69140625,-49.8046875,-26.85546875,-14.6484375,0.0
371.80859375,-43.45703125,-32.2265625,-37.109375,-18.5546875,-151.85546875,0.0
371.8125,-64.453125,-42.96875,-41.9921875,-26.85546875,-204.1015625,0.0
371.81640625,-20.01953125,-41.50390625,-54.19921875,-26.3671875,-72.75390625,0.0
371.8203125,-5.37109375,-44.921875,-57.6171875,-20.01953125,37.109375,0.0
371.82421875,-17.08984375,-43.9453125,-44.921875,-20.99609375,50.29296875,0.0
371.828125,7.8125,-30.76171875,-43.45703125,0.0,-20.01953125,0.0
371.83203125,23.4375,-32.2265625,-49.31640625,3.90625,-2.9296875,0.0
371.8359375,27.34375,-41.50390625,-49.31640625,-16.11328125,25.87890625,0.0
371.83984375,77.63671875,-38.57421875,-50.29296875,-23.92578125,68.359375,0.0
371.84375,88.37890625,-32.2265625,-54.19921875,-29.78515625,35.64453125,0.0
371.84765625,76.171875,-22.94921875,-54.19921875,-28.80859375,32.2265625,0.0
371.8515625,96.6796875,-19.53125,-53.22265625,-19.53125,36.62109375,0.0
371.85546875,99.609375,-25.87890625,-64.94140625,-16.6015625,-53.22265625,0.0
371.859375,91.30859375,-29.296875,-65.4296875,-18.5546875,-130.37109375,0.0
371.86328125,83.49609375,-38.57421875,-56.15234375,-1.46484375,-170.8984375,0.0
371.8671875,85.9375,-45.8984375,-58.59375,9.27734375,-134.27734375,0.0
371.87109375,81.0546875,-41.9921875,-54.19921875,4.8828125,-67.87109375,0.0
371.875,53.7109375,-39.55078125,-52.24609375,3.41796875,-27.83203125,0.0
371.87890625,51.26953125,-43.9453125,-57.12890625,-2.44140625,-11.23046875,0.0
371.8828125,62.5,-42.96875,-60.546875,-15.625,-73.2421875,0.0
371.88671875,31.73828125,-40.52734375,-67.87109375,-16.11328125,-153.3203125,0.0
371.890625,18.5546875,-44.43359375,-62.5,-14.16015625,-101.07421875,0.0
371.89453125,42.96875,-41.50390625,-51.26953125,-12.6953125,-34.1796875,0.0
371.8984375,35.64453125,-39.0625,-61.03515625,-17.578125,-35.15625,0.0
371.90234375,23.4375,-39.0625,-64.94140625,-37.109375,-30.2734375,0.0
371.90625,-4.39453125,-41.9921875,-55.6640625,-27.34375,-35.64453125,0.0
371.91015625,-38.57421875,-50.29296875,-48.33984375,-5.859375,-50.29296875,0.0
371.9140625,-37.59765625,-49.8046875,-46.38671875,2.9296875,-68.84765625,0.0
371.91796875,-34.1796875,-45.8984375,-51.7578125,-0.9765625,-52.24609375,0.0
371.921875,-39.55078125,-45.8984375,-52.734375,-1.46484375,-41.50390625,0.0
371.92578125,-12.20703125,-41.50390625,-49.8046875,15.625,-117.1875,0.0
371.9296875,27.83203125,-32.2265625,-42.96875,31.25,-92.7734375,0.0
371.93359375,-23.92578125,-28.3203125,-37.59765625,13.18359375,-57.12890625,0.0
371.9375,-66.89453125,-34.66796875,-40.0390625,0.48828125,-41.50390625,0.0
371.94140625,-31.25,-36.1328125,-36.62109375,9.765625,100.09765625,0.0
371.9453125,-23.92578125,-32.71484375,-37.109375,18.06640625,128.90625,0.0
371.94921875,-35.64453125,-37.109375,-40.52734375,26.85546875,11.71875,0.0
371.953125,-39.55078125,-34.66796875,-39.0625,36.62109375,-106.4453125,0.0
371.95703125,-22.94921875,-29.296875,-41.9921875,21.484375,-42.48046875,0.0
371.9609375,-13.18359375,-33.69140625,-37.109375,8.30078125,21.97265625,0.0
371.96484375,-27.34375,-37.109375,-32.71484375,15.625,4.39453125,0.0
371.96875,-64.94140625,-36.1328125,-40.0390625,29.296875,40.0390625,0.0
371.97265625,-60.05859375,-36.1328125,-44.43359375,29.78515625,46.38671875,0.0
371.9765625,-58.59375,-40.52734375,-47.8515625,15.625,15.13671875,0.0
371.98046875,-83.0078125,-43.9453125,-53.7109375,-5.37109375,3.90625,0.0
371.984375,-95.703125,-35.64453125,-53.22265625,-21.97265625,2.44140625,0.0
371.98828125,-118.65234375,-34.1796875,-47.36328125,-21.484375,-52.734375,0.0
371.9921875,-110.83984375,-36.62109375,-44.43359375,-15.625,-70.3125,0.0
371.99609375,-32.71484375,-39.55078125,-45.41015625,-29.296875,-29.78515625,0.0
372.0,23.4375,-42.96875,-47.8515625,-36.1328125,-32.2265625,0.0
372.00390625,45.41015625,-40.0390625,-46.38671875,-17.08984375,-82.03125,0.0
372.0078125,75.1953125,-38.57421875,-47.8515625,-16.6015625,-108.3984375,0.0
372.01171875,70.80078125,-35.64453125,-43.45703125,-14.6484375,-102.05078125,0.0
372.015625,61.5234375,-31.73828125,-37.59765625,-6.8359375,-76.171875,0.0
372.01953125,-0.9765625,-32.71484375,-37.59765625,-20.5078125,-22.94921875,0.0
372.0234375,-58.59375,-35.64453125,-33.69140625,-28.3203125,-41.9921875,0.0
372.02734375,-43.9453125,-30.76171875,-29.296875,-14.16015625,-10.25390625,0.0
372.03125,-68.359375,-28.80859375,-30.2734375,1.953125,67.87109375,0.0
372.03515625,-116.69921875,-34.1796875,-36.62109375,-4.8828125,11.23046875,0.0
372.0390625,-102.05078125,-36.62109375,-43.9453125,1.953125,-65.4296875,0.0
372.04296875,-76.66015625,-35.15625,-41.9921875,5.859375,-68.359375,0.0
372.046875,-53.7109375,-33.69140625,-41.015625,-13.671875,-84.9609375,0.0
372.05078125,-18.06640625,-32.71484375,-35.64453125,-27.83203125,-31.73828125,0.0
372.0546875,8.30078125,-32.2265625,-26.85546875,-52.24609375,-12.6953125,0.0
372.05859375,-3.90625,-32.71484375,-29.78515625,-63.4765625,-34.66796875,0.0
372.0625,-9.765625,-29.78515625,-28.3203125,-46.875,-123.046875,0.0
372.06640625,-2.9296875,-36.62109375,-28.3203125,-27.83203125,-167.48046875,0.0
372.0703125,-28.80859375,-35.15625,-27.83203125,-31.73828125,-46.875,0.0
372.07421875,-25.87890625,-26.85546875,-31.25,-46.875,-25.87890625,0.0
372.078125,-37.59765625,-32.71484375,-35.15625,-31.25,-5.859375,0.0
372.08203125,-40.52734375,-35.64453125,-36.1328125,-26.3671875,0.48828125,0.0
372.0859375,-36.62109375,-31.25,-45.41015625,-50.29296875,-5.37109375,0.0
372.08984375,-62.5,-33.69140625,-42.48046875,-44.43359375,-54.19921875,0.0
372.09375,-70.80078125,-34.66796875,-34.1796875,-14.6484375,-21.97265625,0.0
372.09765625,-51.7578125,-25.390625,-28.80859375,-13.18359375,12.6953125,0.0
372.1015625,-34.66796875,-20.99609375,-31.25,-15.625,9.27734375,0.0
372.10546875,-20.99609375,-23.92578125,-43.45703125,-2.9296875,-34.1796875,0.0
372.109375,-19.53125,-24.4140625,-43.45703125,-28.3203125,-115.72265625,0.0
372.11328125,-54.19921875,-25.87890625,-36.62109375,-66.89453125,-93.26171875,0.0
372.1171875,-67.3828125,-33.203125,-40.52734375,-69.3359375,-41.9921875,0.0
372.12109375,-46.875,-34.1796875,-41.50390625,-65.4296875,-3.90625,0.0
372.125,-47.36328125,-36.62109375,-47.36328125,-46.875,0.0,0.0
372.12890625,-67.87109375,-49.31640625,-54.6875,-22.4609375,-13.18359375,0.0
372.1328125,-74.70703125,-46.875,-43.9453125,-27.83203125,-12.20703125,0.0
372.13671875,-90.33203125,-38.57421875,-37.109375,-30.2734375,-28.3203125,0.0
372.140625,-101.07421875,-39.0625,-37.109375,-37.59765625,-30.76171875,0.0
372.14453125,-111.328125,-44.921875,-38.57421875,-42.48046875,51.7578125,0.0
372.1484375,-109.86328125,-40.52734375,-31.73828125,-25.390625,74.70703125,0.0
372.15234375,-110.83984375,-40.0390625,-37.109375,-33.69140625,82.03125,0.0
372.15625,-94.23828125,-40.52734375,-55.17578125,-35.64453125,50.29296875,0.0
372.16015625,-62.01171875,-38.57421875,-54.6875,-2.9296875,-63.4765625,0.0
372.1640625,-46.38671875,-44.43359375,-46.38671875,-14.16015625,-61.5234375,0.0
372.16796875,-36.62109375,-48.33984375,-43.45703125,-38.57421875,11.71875,0.0
372.171875,-25.87890625,-39.0625,-43.9453125,-37.109375,-21.484375,0.0
372.17578125,-44.43359375,-34.66796875,-46.38671875,-21.97265625,-34.66796875,0.0
372.1796875,-54.6875,-41.015625,-35.64453125,-22.4609375,-51.26953125,0.0
372.18359375,-56.640625,-39.0625,-36.1328125,-23.92578125,-68.359375,0.0
372.1875,-64.94140625,-37.109375,-38.0859375,-27.83203125,-48.33984375,0.0
372.19140625,-50.78125,-43.45703125,-26.85546875,-31.73828125,-31.25,0.0
372.1953125,-69.82421875,-52.24609375,-34.66796875,-42.48046875,-88.37890625,0.0
372.19921875,-89.84375,-53.7109375,-44.921875,-38.57421875,-101.07421875,0.0
372.203125,-73.2421875,-40.0390625,-39.0625,-30.76171875,-83.984375,0.0
372.20703125,-73.2421875,-35.15625,-36.1328125,-17.578125,-119.62890625,0.0
372.2109375,-44.43359375,-36.1328125,-37.59765625,-15.625,-125.9765625,0.0
372.21484375,-6.8359375,-26.3671875,-40.52734375,-49.31640625,-71.77734375,0.0
372.21875,-31.25,-28.80859375,-50.29296875,-59.5703125,8.30078125,0.0
372.22265625,-33.203125,-36.62109375,-49.31640625,-54.19921875,29.78515625,0.0
372.2265625,7.32421875,-36.62109375,-42.96875,-64.453125,2.44140625,0.0
372.23046875,6.34765625,-35.64453125,-44.43359375,-70.3125,-8.7890625,0.0
372.234375,56.15234375,-36.62109375,-50.29296875,-65.91796875,-48.828125,0.0
372.23828125,68.84765625,-39.0625,-46.38671875,-52.734375,-47.36328125,0.0
372.2421875,41.015625,-42.48046875,-43.9453125,-17.578125,22.4609375,0.0
372.24609375,75.68359375,-48.828125,-48.33984375,-10.7421875,36.1328125,0.0
372.25,95.703125,-42.48046875,-38.0859375,-5.37109375,1.46484375,0.0
372.25390625,59.5703125,-34.1796875,-33.203125,4.8828125,-39.55078125,0.0
372.2578125,41.015625,-32.2265625,-42.48046875,8.7890625,-55.17578125,0.0
372.26171875,67.3828125,-33.69140625,-42.48046875,20.01953125,-72.265625,0.0
372.265625,32.71484375,-39.55078125,-41.50390625,10.7421875,-35.15625,0.0
372.26953125,-7.32421875,-41.9921875,-49.8046875,-5.37109375,20.5078125,0.0
372.2734375,15.13671875,-36.1328125,-43.9453125,-26.3671875,27.34375,0.0
372.27734375,54.19921875,-28.3203125,-34.66796875,-40.0390625,46.875,0.0
372.28125,110.83984375,-36.62109375,-19.04296875,-19.53125,9.765625,0.0
372.28515625,134.765625,-37.109375,-16.11328125,-9.27734375,-37.59765625,0.0
372.2890625,107.421875,-26.3671875,-21.484375,-6.8359375,-6.34765625,0.0
372.29296875,130.859375,-30.2734375,-18.06640625,1.46484375,29.78515625,0.0
372.296875,177.734375,-32.71484375,-8.30078125,17.578125,8.7890625,0.0
372.30078125,162.109375,-24.90234375,-4.8828125,4.8828125,-73.73046875,0.0
372.3046875,154.78515625,-24.4140625,-10.25390625,3.90625,-32.71484375,0.0
372.30859375,171.875,-28.3203125,-16.11328125,29.78515625,-32.71484375,0.0
372.3125,163.0859375,-25.87890625,-18.06640625,35.15625,-130.859375,0.0
372.31640625,60.546875,-30.76171875,-14.6484375,25.390625,-72.265625,0.0
372.3203125,-13.671875,-41.015625,-24.4140625,18.5546875,-39.0625,0.0
372.32421875,-6.34765625,-42.48046875,-38.57421875,8.30078125,-17.08984375,0.0
372.328125,-4.8828125,-39.55078125,-33.69140625,5.37109375,36.62109375,0.0
372.33203125,1.953125,-35.64453125,-23.4375,20.01953125,14.16015625,0.0
372.3359375,26.85546875,-43.45703125,-18.06640625,26.85546875,-63.96484375,0.0
372.33984375,5.859375,-47.36328125,-27.83203125,10.7421875,16.6015625,0.0
372.34375,-18.06640625,-39.0625,-51.26953125,13.671875,82.03125,0.0
372.34765625,-38.0859375,-41.015625,-40.0390625,25.87890625,27.83203125,0.0
372.3515625,-46.38671875,-41.015625,-25.390625,-2.44140625,-10.25390625,0.0
372.35546875,-0.9765625,-41.9921875,-27.34375,-8.30078125,-14.6484375,0.0
372.359375,17.08984375,-40.52734375,-32.71484375,5.37109375,-12.20703125,0.0
372.36328125,7.32421875,-38.57421875,-46.875,15.13671875,-105.95703125,0.0
372.3671875,-10.7421875,-44.43359375,-53.22265625,15.13671875,-138.671875,0.0
372.37109375,-4.39453125,-38.0859375,-46.875,10.7421875,-48.33984375,0.0
372.375,18.5546875,-33.203125,-37.109375,28.80859375,-30.76171875,0.0
372.37890625,19.53125,-37.59765625,-40.52734375,33.69140625,-79.1015625,0.0
372.3828125,-1.46484375,-38.0859375,-36.62109375,13.671875,-52.24609375,0.0
372.38671875,-46.875,-35.15625,-32.71484375,11.71875,0.48828125,0.0
372.390625,-98.14453125,-31.25,-32.71484375,21.97265625,4.39453125,0.0
372.39453125,-138.671875,-33.69140625,-28.80859375,41.015625,36.62109375,0.0
372.3984375,-118.65234375,-37.109375,-40.0390625,45.8984375,93.75,0.0
372.40234375,-105.95703125,-35.15625,-53.7109375,65.4296875,104.00390625,0.0
372.40625,-124.51171875,-35.15625,-51.26953125,92.7734375,63.4765625,0.0
372.41015625,-78.61328125,-34.1796875,-40.0390625,78.125,26.3671875,0.0
372.4140625,-87.890625,-36.1328125,-37.109375,48.828125,15.625,0.0
372.41796875,-171.38671875,-37.59765625,-41.50390625,37.59765625,20.01953125,0.0
372.421875,-189.94140625,-39.55078125,-40.0390625,61.03515625,14.16015625,0.0
372.42578125,-186.03515625,-43.9453125,-45.41015625,55.6640625,-71.2890625,0.0
372.4296875,-154.78515625,-37.59765625,-52.734375,25.87890625,-87.890625,0.0
372.43359375,-97.16796875,-21.484375,-45.41015625,58.59375,-26.3671875,0.0
372.4375,-86.42578125,-23.4375,-46.875,72.265625,51.26953125,0.0
372.44140625,-95.21484375,-34.66796875,-53.22265625,58.59375,33.203125,0.0
372.4453125,-102.5390625,-23.92578125,-53.22265625,87.890625,-5.37109375,0.0
372.44921875,-105.95703125,-21.484375,-57.12890625,116.69921875,47.8515625,0.0
372.453125,-79.1015625,-30.2734375,-50.78125,70.80078125,81.0546875,0.0
372.45703125,-70.3125,-32.2265625,-50.78125,26.85546875,20.01953125,0.0
372.4609375,-84.47265625,-40.52734375,-48.33984375,30.2734375,-11.23046875,0.0
372.46484375,-55.6640625,-42.96875,-42.96875,39.55078125,59.08203125,0.0
372.46875,-56.15234375,-37.59765625,-46.875,54.6875,8.30078125,0.0
372.47265625,-81.0546875,-32.71484375,-46.875,65.91796875,-60.05859375,0.0
372.4765625,-88.37890625,-37.109375,-50.29296875,83.0078125,0.0,0.0
372.48046875,-60.05859375,-41.50390625,-44.43359375,90.8203125,55.17578125,0.0
372.484375,-19.53125,-45.8984375,-36.62109375,47.8515625,35.64453125,0.0
372.48828125,3.41796875,-41.9921875,-38.0859375,62.5,-41.9921875,0.0
372.4921875,2.44140625,-40.0390625,-33.203125,114.74609375,-125.0,0.0
372.49609375,-26.3671875,-37.109375,-37.109375,88.37890625,-148.92578125,0.0
372.5,-6.8359375,-30.76171875,-43.45703125,59.5703125,-119.140625,0.0
372.50390625,-10.7421875,-30.76171875,-46.875,68.84765625,-104.4921875,0.0
372.5078125,-14.6484375,-27.83203125,-39.55078125,89.35546875,-111.81640625,0.0
372.51171875,8.7890625,-23.92578125,-35.15625,72.75390625,-59.08203125,0.0
372.515625,0.0,-33.203125,-34.66796875,77.1484375,8.30078125,0.0
372.51953125,-10.7421875,-44.921875,-32.71484375,89.35546875,-31.73828125,0.0
372.5234375,-33.69140625,-42.96875,-39.55078125,77.1484375,-81.0546875,0.0
372.52734375,68.359375,-33.203125,-52.734375,36.1328125,-21.97265625,0.0
372.53125,139.16015625,-29.296875,-48.828125,29.78515625,61.5234375,0.0
372.53515625,128.41796875,-40.52734375,-40.52734375,42.96875,43.9453125,0.0
372.5390625,121.58203125,-43.9453125,-38.57421875,12.20703125,-36.1328125,0.0
372.54296875,60.546875,-32.71484375,-33.69140625,20.01953125,-75.1953125,0.0
372.546875,-20.01953125,-33.69140625,-40.52734375,23.4375,-74.21875,0.0
372.55078125,-20.5078125,-42.48046875,-43.45703125,14.6484375,-28.80859375,0.0
372.5546875,71.77734375,-40.52734375,-45.41015625,26.85546875,-12.6953125,0.0
372.55859375,-5.859375,-38.0859375,-45.8984375,-14.16015625,-30.76171875,0.0
372.5625,54.19921875,-35.15625,-39.0625,-21.97265625,-38.57421875,0.0
372.56640625,19.04296875,-39.0625,-32.71484375,19.04296875,-89.35546875,0.0
372.5703125,-69.3359375,-47.36328125,-30.2734375,-2.9296875,-98.14453125,0.0
372.57421875,1.46484375,-47.36328125,-35.15625,-43.9453125,42.48046875,0.0
372.578125,31.73828125,-35.15625,-32.71484375,-42.48046875,85.44921875,0.0
372.58203125,72.265625,-29.296875,-34.1796875,-21.97265625,-23.92578125,0.0
372.5859375,130.859375,-34.1796875,-39.0625,-43.45703125,-58.59375,0.0
372.58984375,163.57421875,-39.55078125,-36.1328125,-69.3359375,-10.7421875,0.0
372.59375,155.2734375,-41.015625,-30.2734375,-55.6640625,-25.87890625,0.0
372.59765625,196.2890625,-48.828125,-38.0859375,-59.5703125,-74.21875,0.0
372.6015625,207.03125,-48.33984375,-44.921875,-68.359375,-11.71875,0.0
372.60546875,172.36328125,-47.8515625,-47.8515625,-45.41015625,18.06640625,0.0
372.609375,158.69140625,-56.15234375,-60.546875,-32.2265625,3.90625,0.0
372.61328125,188.4765625,-55.6640625,-62.01171875,-25.390625,34.1796875,0.0
372.6171875,155.2734375,-54.6875,-57.12890625,-49.8046875,50.78125,0.0
372.62109375,65.91796875,-56.15234375,-53.7109375,-48.828125,-89.35546875,0.0
372.625,-16.6015625,-51.7578125,-46.38671875,-41.015625,-180.6640625,0.0
372.62890625,-109.375,-62.01171875,-58.10546875,-61.03515625,-116.2109375,0.0
372.6328125,-142.578125,-71.2890625,-59.08203125,-82.03125,-126.953125,0.0
372.63671875,-138.18359375,-69.3359375,-52.734375,-103.515625,-187.98828125,0.0
372.640625,-203.125,-68.84765625,-63.4765625,-125.48828125,-198.73046875,0.0
372.64453125,-275.390625,-78.125,-61.03515625,-125.48828125,-133.30078125,0.0
372.6484375,-290.52734375,-84.9609375,-53.22265625,-110.83984375,-138.18359375,0.0
372.65234375,-256.34765625,-77.1484375,-41.50390625,-122.0703125,-205.078125,0.0
372.65625,-223.14453125,-72.265625,-41.50390625,-119.140625,-191.40625,0.0
372.66015625,-242.67578125,-78.61328125,-54.6875,-117.67578125,-116.2109375,0.0
372.6640625,-266.6015625,-82.03125,-53.7109375,-104.98046875,-11.23046875,0.0
372.66796875,-245.60546875,-77.63671875,-40.52734375,-95.21484375,24.90234375,0.0
372.671875,-264.6484375,-78.125,-29.78515625,-105.95703125,69.82421875,0.0
372.67578125,-223.6328125,-84.47265625,-22.94921875,-96.6796875,107.421875,0.0
372.6796875,-256.34765625,-86.9140625,-27.34375,-76.66015625,176.26953125,0.0
372.68359375,-220.21484375,-74.70703125,-27.34375,-40.0390625,143.06640625,0.0
372.6875,-201.171875,-67.87109375,-18.5546875,-14.6484375,-27.34375,0.0
372.69140625,-250.48828125,-69.82421875,-14.6484375,-6.8359375,-52.734375,0.0
372.6953125,-159.1796875,-69.3359375,-12.20703125,3.90625,-10.7421875,0.0
372.69921875,-93.75,-73.2421875,-20.01953125,16.6015625,-24.4140625,0.0
372.703125,-37.109375,-65.91796875,-21.484375,29.296875,-42.48046875,0.0
372.70703125,3.90625,-52.24609375,-13.18359375,41.9921875,-28.3203125,0.0
372.7109375,30.2734375,-55.17578125,-17.08984375,79.58984375,-7.8125,0.0
372.71484375,31.73828125,-56.15234375,-24.90234375,100.5859375,-35.15625,0.0
372.71875,41.015625,-48.33984375,-29.78515625,97.16796875,-16.6015625,0.0
372.72265625,59.08203125,-44.921875,-42.48046875,116.69921875,2.44140625,0.0
372.7265625,46.875,-46.875,-54.19921875,127.9296875,-91.796875,0.0
372.73046875,87.40234375,-37.59765625,-51.26953125,121.58203125,-56.15234375,0.0
372.734375,150.87890625,-31.73828125,-44.43359375,162.59765625,64.453125,0.0
372.73828125,144.04296875,-39.55078125,-41.50390625,167.96875,44.921875,0.0
372.7421875,161.1328125,-33.203125,-47.36328125,127.9296875,-126.953125,0.0
372.74609375,165.0390625,-30.76171875,-53.22265625,143.5546875,-199.21875,0.0
372.75,169.921875,-30.76171875,-50.29296875,165.52734375,-156.73828125,0.0
372.75390625,203.61328125,-39.55078125,-50.78125,165.52734375,-131.34765625,0.0
372.7578125,211.42578125,-36.62109375,-45.8984375,183.10546875,-68.359375,0.0
372.76171875,248.046875,-24.4140625,-35.64453125,200.1953125,16.6015625,0.0
372.765625,234.375,-20.99609375,-35.15625,191.40625,-59.5703125,0.0
372.76953125,198.2421875,-17.578125,-43.45703125,178.7109375,-152.83203125,0.0
372.7734375,220.21484375,-7.32421875,-39.0625,174.31640625,-149.90234375,0.0
372.77734375,226.07421875,-9.27734375,-39.0625,197.75390625,-150.87890625,0.0
372.78125,204.58984375,-12.20703125,-39.55078125,195.3125,-122.0703125,0.0
372.78515625,183.10546875,-10.25390625,-37.109375,193.84765625,-139.16015625,0.0
372.7890625,154.296875,-6.34765625,-30.2734375,203.125,-170.41015625,0.0
372.79296875,161.1328125,3.41796875,-16.6015625,193.359375,-144.53125,0.0
372.796875,187.5,3.90625,-20.01953125,184.5703125,-162.109375,0.0
372.80078125,190.4296875,-2.44140625,-36.62109375,174.31640625,-187.5,0.0
372.8046875,172.36328125,-1.953125,-37.109375,151.85546875,-39.55078125,0.0
372.80859375,119.62890625,-0.9765625,-22.4609375,164.0625,98.14453125,0.0
372.8125,142.578125,2.9296875,-27.83203125,164.0625,145.5078125,0.0
372.81640625,172.36328125,-3.90625,-33.203125,144.04296875,154.296875,0.0
372.8203125,146.484375,-13.671875,-23.4375,135.7421875,97.65625,0.0
372.82421875,99.609375,-5.37109375,-28.80859375,137.6953125,89.35546875,0.0
372.828125,86.42578125,-0.9765625,-38.0859375,131.8359375,94.23828125,0.0
372.83203125,77.63671875,-12.20703125,-34.66796875,112.3046875,45.41015625,0.0
372.8359375,42.48046875,-17.578125,-37.59765625,114.74609375,39.55078125,0.0
372.83984375,4.39453125,-14.6484375,-37.59765625,123.046875,97.16796875,0.0
372.84375,2.44140625,-14.16015625,-35.15625,132.32421875,74.21875,0.0
372.84765625,14.16015625,-11.71875,-37.59765625,94.7265625,64.453125,0.0
372.8515625,26.3671875,-12.6953125,-39.55078125,95.21484375,52.734375,0.0
372.85546875,31.73828125,-13.671875,-38.0859375,114.2578125,40.52734375,0.0
372.859375,34.1796875,-15.625,-38.0859375,119.62890625,38.57421875,0.0
372.86328125,54.19921875,-19.04296875,-39.0625,112.3046875,28.3203125,0.0
372.8671875,72.75390625,-15.13671875,-42.48046875,105.46875,19.53125,0.0
372.87109375,62.98828125,-12.6953125,-41.50390625,140.13671875,-18.06640625,0.0
372.875,61.03515625,-19.53125,-37.59765625,108.3984375,11.71875,0.0
372.87890625,75.68359375,-23.92578125,-44.921875,92.7734375,-16.6015625,0.0
372.8828125,79.58984375,-16.11328125,-47.8515625,114.74609375,19.04296875,0.0
372.88671875,43.45703125,-22.4609375,-34.1796875,97.16796875,39.0625,0.0
372.890625,49.31640625,-27.34375,-31.73828125,67.3828125,-83.0078125,0.0
372.89453125,104.98046875,-14.6484375,-36.62109375,62.98828125,-91.796875,0.0
372.8984375,104.00390625,-19.53125,-32.2265625,82.03125,34.1796875,0.0
372.90234375,76.66015625,-32.71484375,-34.66796875,69.3359375,21.97265625,0.0
372.90625,78.61328125,-23.92578125,-42.48046875,36.62109375,-39.55078125,0.0
372.91015625,106.4453125,-19.53125,-35.15625,20.01953125,-37.59765625,0.0
372.9140625,108.3984375,-22.4609375,-26.3671875,9.27734375,-1.46484375,0.0
372.91796875,119.62890625,-26.3671875,-22.4609375,13.671875,55.17578125,0.0
372.921875,141.11328125,-31.73828125,-24.90234375,24.4140625,12.20703125,0.0
372.92578125,118.1640625,-32.2265625,-25.87890625,17.08984375,-34.1796875,0.0
372.9296875,88.37890625,-32.2265625,-18.06640625,15.13671875,-21.97265625,0.0
372.93359375,79.58984375,-35.15625,-20.5078125,33.69140625,6.34765625,0.0
372.9375,70.80078125,-39.0625,-27.34375,43.9453125,18.06640625,0.0
372.94140625,69.82421875,-37.59765625,-36.1328125,1.46484375,63.4765625,0.0
372.9453125,73.73046875,-40.0390625,-23.92578125,11.71875,83.0078125,0.0
372.94921875,87.40234375,-42.48046875,-14.16015625,59.08203125,-10.7421875,0.0
372.953125,104.00390625,-35.15625,-33.69140625,6.34765625,-79.58984375,0.0
372.95703125,115.234375,-31.73828125,-40.0390625,-19.04296875,-28.3203125,0.0
372.9609375,114.2578125,-38.0859375,-28.3203125,-9.27734375,-43.45703125,0.0
372.96484375,102.5390625,-30.76171875,-28.80859375,-21.97265625,-35.64453125,0.0
372.96875,81.54296875,-25.87890625,-35.64453125,-14.6484375,12.6953125,0.0
372.97265625,72.75390625,-29.78515625,-33.69140625,15.13671875,10.7421875,0.0
372.9765625,67.87109375,-29.78515625,-33.69140625,15.13671875,-97.16796875,0.0
372.98046875,68.359375,-22.4609375,-32.2265625,-9.27734375,-118.1640625,0.0
372.984375,49.8046875,-19.04296875,-29.296875,-16.11328125,-59.5703125,0.0
372.98828125,4.8828125,-23.92578125,-29.78515625,-7.8125,-86.42578125,0.0
372.9921875,-7.8125,-24.90234375,-33.69140625,1.953125,-82.03125,0.0
372.99609375,-4.8828125,-30.76171875,-37.59765625,16.6015625,-116.69921875,0.0
373.0,16.11328125,-24.90234375,-37.109375,4.39453125,-94.7265625,0.0
373.00390625,46.875,-14.16015625,-31.25,-3.90625,-37.59765625,0.0
373.0078125,42.96875,-14.6484375,-18.06640625,25.87890625,27.34375,0.0
373.01171875,33.69140625,-20.5078125,-11.71875,28.80859375,-17.578125,0.0
373.015625,40.0390625,-23.4375,-30.2734375,-0.48828125,-27.83203125,0.0
373.01953125,13.671875,-21.97265625,-38.57421875,-14.6484375,39.0625,0.0
373.0234375,1.953125,-25.390625,-31.73828125,5.37109375,33.203125,0.0
373.02734375,-2.44140625,-34.66796875,-31.73828125,3.41796875,16.11328125,0.0
373.03125,35.15625,-39.55078125,-33.203125,-14.6484375,-4.39453125,0.0
373.03515625,86.9140625,-31.73828125,-32.71484375,-10.25390625,-31.25,0.0
373.0390625,78.61328125,-28.3203125,-31.73828125,-11.23046875,-31.25,0.0
373.04296875,77.63671875,-35.64453125,-28.3203125,-16.6015625,34.1796875,0.0
373.046875,89.84375,-31.73828125,-20.5078125,-0.48828125,34.66796875,0.0
373.05078125,80.56640625,-26.85546875,-19.53125,18.5546875,-76.171875,0.0
373.0546875,41.015625,-26.3671875,-30.2734375,-34.1796875,-71.77734375,0.0
373.05859375,36.1328125,-24.90234375,-36.1328125,-55.6640625,-50.78125,0.0
373.0625,66.40625,-31.25,-22.4609375,-46.875,-40.0390625,0.0
373.06640625,50.29296875,-37.109375,-17.578125,-23.92578125,-29.296875,0.0
373.0703125,22.94921875,-33.69140625,-20.5078125,16.11328125,-109.375,0.0
373.07421875,38.0859375,-30.2734375,-20.5078125,19.53125,-139.16015625,0.0
373.078125,29.296875,-30.2734375,-23.92578125,5.859375,-124.0234375,0.0
373.08203125,11.71875,-31.73828125,-18.5546875,11.71875,-59.08203125,0.0
373.0859375,23.4375,-31.25,-11.71875,20.01953125,-2.9296875,0.0
373.08984375,37.109375,-28.80859375,-7.32421875,7.32421875,-72.75390625,0.0
373.09375,27.34375,-23.4375,-10.7421875,8.7890625,-34.1796875,0.0
373.09765625,31.25,-18.5546875,-22.4609375,-1.46484375,69.82421875,0.0
373.1015625,45.8984375,-17.08984375,-15.625,-5.859375,-15.13671875,0.0
373.10546875,39.0625,-20.5078125,-5.37109375,-0.48828125,-21.484375,0.0
373.109375,20.01953125,-28.3203125,-16.11328125,10.7421875,49.8046875,0.0
373.11328125,28.80859375,-22.4609375,-20.5078125,-6.34765625,14.6484375,0.0
373.1171875,23.4375,-24.90234375,-18.06640625,-16.11328125,-21.97265625,0.0
373.12109375,4.39453125,-32.2265625,-18.5546875,-1.46484375,-28.80859375,0.0
373.125,4.39453125,-27.34375,-21.484375,-15.13671875,39.0625,0.0
373.12890625,6.8359375,-23.92578125,-20.99609375,-29.296875,48.828125,0.0
373.1328125,44.43359375,-15.13671875,-4.8828125,-1.953125,-80.56640625,0.0
373.13671875,41.9921875,-28.3203125,4.39453125,-1.46484375,-80.078125,0.0
373.140625,34.1796875,-37.109375,-1.46484375,-17.578125,15.13671875,0.0
373.14453125,57.12890625,-25.390625,2.44140625,18.06640625,28.3203125,0.0
373.1484375,28.3203125,-20.5078125,10.7421875,41.50390625,51.7578125,0.0
373.15234375,51.26953125,-24.90234375,5.859375,-4.39453125,60.546875,0.0
373.15625,99.12109375,-28.80859375,-2.44140625,-13.671875,3.41796875,0.0
373.16015625,72.75390625,-39.55078125,0.0,12.20703125,-9.765625,0.0
373.1640625,31.25,-49.8046875,9.27734375,9.765625,-37.59765625,0.0
373.16796875,12.6953125,-38.0859375,10.7421875,1.46484375,-88.8671875,0.0
373.171875,13.18359375,-31.73828125,11.23046875,19.04296875,-97.16796875,0.0
373.17578125,5.859375,-44.921875,13.18359375,24.90234375,-120.1171875,0.0
373.1796875,-34.66796875,-52.734375,10.7421875,8.30078125,-29.78515625,0.0
373.18359375,-59.5703125,-41.015625,5.859375,-1.46484375,-7.32421875,0.0
373.1875,-24.4140625,-24.4140625,6.34765625,10.7421875,22.94921875,0.0
373.19140625,-13.18359375,-16.6015625,4.8828125,21.97265625,86.9140625,0.0
373.1953125,-49.8046875,-26.3671875,10.7421875,20.01953125,7.8125,0.0
373.19921875,-40.0390625,-30.2734375,18.06640625,43.9453125,-33.69140625,0.0
373.203125,-15.13671875,-26.3671875,8.7890625,74.21875,-61.5234375,0.0
373.20703125,3.41796875,-30.76171875,4.8828125,40.0390625,-71.77734375,0.0
373.2109375,-31.25,-39.55078125,20.01953125,19.04296875,-82.51953125,0.0
373.21484375,-21.484375,-36.62109375,20.99609375,11.23046875,-2.44140625,0.0
373.21875,-11.23046875,-27.34375,10.7421875,-13.671875,20.5078125,0.0
373.22265625,-30.2734375,-22.4609375,15.13671875,10.25390625,-46.875,0.0
373.2265625,-21.484375,-27.34375,13.18359375,50.78125,-53.7109375,0.0
373.23046875,-52.24609375,-26.85546875,13.18359375,38.57421875,-15.625,0.0
373.234375,-30.76171875,-20.01953125,8.30078125,-7.32421875,68.359375,0.0
373.23828125,-12.20703125,-23.4375,-1.46484375,-10.7421875,36.1328125,0.0
373.2421875,-16.6015625,-25.87890625,3.41796875,-19.04296875,-57.6171875,0.0
373.24609375,8.30078125,-18.06640625,-7.8125,-17.578125,-58.10546875,0.0
373.25,-77.1484375,-24.90234375,-23.4375,-39.0625,-47.8515625,0.0
373.25390625,-113.28125,-31.73828125,-17.08984375,-53.22265625,-71.2890625,0.0
373.2578125,-63.96484375,-40.0390625,-15.625,-42.48046875,-28.80859375,0.0
373.26171875,-92.28515625,-52.24609375,-20.5078125,-41.9921875,38.0859375,0.0
373.265625,-119.140625,-44.921875,-17.578125,-30.76171875,-35.15625,0.0
373.26953125,-134.27734375,-37.59765625,-19.04296875,-29.78515625,-60.05859375,0.0
373.2734375,-128.41796875,-37.59765625,-19.53125,2.9296875,-26.85546875,0.0
373.27734375,-85.9375,-27.83203125,-22.4609375,25.87890625,-45.8984375,0.0
373.28125,-106.93359375,-25.87890625,-31.73828125,4.8828125,-66.89453125,0.0
373.28515625,-97.16796875,-36.1328125,-34.1796875,-0.48828125,-125.48828125,0.0
373.2890625,-57.6171875,-32.2265625,-28.80859375,-2.9296875,-188.96484375,0.0
373.29296875,-83.0078125,-27.34375,-34.1796875,-11.71875,-105.95703125,0.0
373.296875,-94.7265625,-35.15625,-38.0859375,-7.32421875,-69.3359375,0.0
373.30078125,-76.171875,-33.69140625,-35.15625,-22.94921875,-121.09375,0.0
373.3046875,-87.890625,-31.25,-25.390625,-21.97265625,-81.54296875,0.0
373.30859375,-85.9375,-25.87890625,-21.484375,-16.6015625,-15.625,0.0
373.3125,-82.03125,-21.97265625,-30.76171875,-18.06640625,22.94921875,0.0
373.31640625,-68.84765625,-25.87890625,-37.59765625,4.8828125,-13.18359375,0.0
373.3203125,-77.63671875,-21.97265625,-37.59765625,14.16015625,-2.44140625,0.0
373.32421875,-58.10546875,-19.53125,-36.62109375,-18.5546875,-49.8046875,0.0
373.328125,-38.0859375,-22.94921875,-37.59765625,-16.6015625,-103.02734375,0.0
373.33203125,-73.73046875,-25.390625,-44.43359375,5.37109375,-53.7109375,0.0
373.3359375,-81.54296875,-31.73828125,-41.9921875,2.44140625,-34.1796875,0.0
373.33984375,-61.03515625,-27.83203125,-34.66796875,2.9296875,-12.6953125,0.0
373.34375,-76.66015625,-27.34375,-31.25,5.37109375,-21.97265625,0.0
373.34765625,-56.15234375,-30.2734375,-29.296875,19.53125,-50.78125,0.0
373.3515625,-24.90234375,-31.73828125,-32.2265625,38.0859375,-36.62109375,0.0
373.35546875,-44.921875,-43.9453125,-29.296875,25.390625,-81.0546875,0.0
373.359375,-23.92578125,-43.9453125,-34.66796875,23.92578125,-73.2421875,0.0
373.36328125,-27.34375,-36.1328125,-49.31640625,39.55078125,-119.140625,0.0
373.3671875,-46.875,-39.55078125,-48.828125,24.90234375,-165.0390625,0.0
373.37109375,-28.3203125,-32.2265625,-45.41015625,19.53125,-187.5,0.0
373.375,-32.2265625,-20.5078125,-46.875,33.69140625,-173.828125,0.0
373.37890625,-71.2890625,-24.90234375,-43.45703125,47.8515625,-154.296875,0.0
373.3828125,-88.8671875,-27.34375,-37.59765625,54.6875,-104.00390625,0.0
373.38671875,-76.66015625,-26.85546875,-36.62109375,43.9453125,-71.77734375,0.0
373.390625,-64.453125,-45.41015625,-48.33984375,48.33984375,-94.7265625,0.0
373.39453125,-80.56640625,-55.6640625,-44.43359375,69.82421875,-51.7578125,0.0
373.3984375,-48.828125,-40.52734375,-46.875,18.06640625,49.31640625,0.0
373.40234375,-27.83203125,-39.55078125,-41.9921875,4.39453125,65.91796875,0.0
373.40625,-49.8046875,-48.33984375,-15.625,30.2734375,36.62109375,0.0
373.41015625,-31.73828125,-36.1328125,-17.578125,27.34375,73.2421875,0.0
373.4140625,-30.2734375,-31.25,-27.83203125,49.8046875,7.32421875,0.0
373.41796875,-32.71484375,-36.1328125,-36.62109375,-6.34765625,48.828125,0.0
373.421875,-30.76171875,-38.57421875,-36.62109375,-22.4609375,52.734375,0.0
373.42578125,-48.33984375,-33.69140625,-18.5546875,14.6484375,-1.953125,0.0
373.4296875,-39.55078125,-21.97265625,-20.5078125,-25.390625,3.90625,0.0
373.43359375,-13.18359375,-22.4609375,-22.4609375,-8.7890625,-10.25390625,0.0
373.4375,-24.4140625,-29.296875,-25.390625,11.23046875,-24.90234375,0.0
373.44140625,-45.8984375,-33.203125,-37.59765625,-0.48828125,-47.8515625,0.0
373.4453125,-39.0625,-29.296875,-28.3203125,24.4140625,-34.1796875,0.0
373.44921875,-40.0390625,-33.69140625,-13.671875,56.15234375,-8.30078125,0.0
373.453125,-43.9453125,-41.015625,-17.578125,39.0625,-0.48828125,0.0
373.45703125,-52.24609375,-42.96875,-27.83203125,6.34765625,-61.03515625,0.0
373.4609375,-52.734375,-45.8984375,-27.83203125,37.109375,-104.00390625,0.0
373.46484375,-33.203125,-46.875,-35.15625,43.45703125,-34.66796875,0.0
373.46875,-41.50390625,-36.1328125,-45.8984375,25.390625,8.7890625,0.0
373.47265625,-36.1328125,-30.76171875,-51.26953125,20.5078125,19.53125,0.0
373.4765625,-41.50390625,-30.76171875,-43.9453125,18.5546875,80.56640625,0.0
373.48046875,-40.0390625,-29.296875,-41.015625,5.37109375,-11.71875,0.0
373.484375,-16.11328125,-33.69140625,-35.64453125,-29.296875,-125.9765625,0.0
373.48828125,-7.8125,-30.76171875,-35.15625,-34.66796875,-77.1484375,0.0
373.4921875,-12.6953125,-33.203125,-41.9921875,-22.94921875,4.39453125,0.0
373.49609375,-31.25,-41.9921875,-43.45703125,-45.8984375,99.609375,0.0
373.5,-30.76171875,-38.0859375,-38.57421875,-43.45703125,178.22265625,0.0
373.50390625,-18.06640625,-28.80859375,-35.64453125,-37.59765625,170.41015625,0.0
373.5078125,-41.015625,-28.80859375,-34.66796875,-66.40625,105.46875,0.0
373.51171875,-22.94921875,-32.2265625,-30.2734375,-68.84765625,47.36328125,0.0
373.515625,25.390625,-37.59765625,-28.80859375,-20.99609375,-56.640625,0.0
373.51953125,-7.32421875,-45.8984375,-37.59765625,-14.16015625,-1.46484375,0.0
373.5234375,-41.015625,-35.64453125,-42.48046875,-34.1796875,72.75390625,0.0
373.52734375,-23.4375,-23.92578125,-42.96875,-6.8359375,70.80078125,0.0
373.53125,-20.5078125,-30.2734375,-46.38671875,0.0,10.25390625,0.0
373.53515625,-20.5078125,-35.64453125,-36.62109375,13.671875,23.4375,0.0
373.5390625,-32.2265625,-44.43359375,-32.2265625,19.53125,141.11328125,0.0
373.54296875,-40.0390625,-38.57421875,-32.71484375,27.83203125,179.19921875,0.0
373.546875,-37.109375,-30.2734375,-36.62109375,25.390625,192.3828125,0.0
373.55078125,-43.45703125,-26.85546875,-42.96875,21.97265625,97.65625,0.0
373.5546875,-25.390625,-24.90234375,-42.48046875,20.01953125,-19.53125,0.0
373.55859375,-14.6484375,-24.4140625,-42.48046875,26.85546875,-63.4765625,0.0
373.5625,-37.59765625,-31.73828125,-47.36328125,31.25,-83.49609375,0.0
373.56640625,-38.0859375,-41.015625,-49.8046875,4.39453125,-77.1484375,0.0
373.5703125,-34.1796875,-34.66796875,-41.9921875,29.296875,-86.9140625,0.0
373.57421875,-61.5234375,-31.73828125,-44.43359375,31.25,-46.875,0.0
373.578125,-44.43359375,-32.71484375,-54.6875,13.18359375,-36.62109375,0.0
373.58203125,-22.94921875,-29.296875,-58.59375,-1.46484375,-81.0546875,0.0
373.5859375,-26.3671875,-36.1328125,-62.5,-5.37109375,-15.625,0.0
373.58984375,-32.2265625,-46.38671875,-62.98828125,0.0,31.73828125,0.0
373.59375,-48.33984375,-37.109375,-55.6640625,-3.41796875,13.671875,0.0
373.59765625,-76.66015625,-24.90234375,-50.29296875,-26.85546875,-4.39453125,0.0
373.6015625,-65.91796875,-29.78515625,-47.36328125,-14.6484375,-21.97265625,0.0
373.60546875,-53.7109375,-39.0625,-41.9921875,-20.01953125,-9.27734375,0.0
373.609375,-59.08203125,-37.109375,-40.52734375,-44.43359375,-23.4375,0.0
373.61328125,-55.6640625,-37.109375,-37.109375,-30.76171875,-96.19140625,0.0
373.6171875,-49.31640625,-44.921875,-34.1796875,-11.71875,-91.796875,0.0
373.62109375,-41.50390625,-48.33984375,-34.66796875,-13.671875,-47.8515625,0.0
373.625,-50.29296875,-42.48046875,-42.48046875,-13.671875,-14.16015625,0.0
373.62890625,-62.5,-30.76171875,-33.69140625,12.6953125,-12.20703125,0.0
373.6328125,-54.6875,-36.1328125,-34.66796875,18.06640625,-74.70703125,0.0
373.63671875,-64.453125,-43.9453125,-46.38671875,-41.9921875,-52.24609375,0.0
373.640625,-49.8046875,-36.1328125,-35.15625,-45.41015625,-56.15234375,0.0
373.64453125,-38.0859375,-40.0390625,-36.62109375,-29.78515625,-49.31640625,0.0
373.6484375,-15.625,-43.45703125,-45.41015625,-27.34375,86.9140625,0.0
373.65234375,20.01953125,-40.52734375,-42.48046875,-7.32421875,60.546875,0.0
373.65625,-8.30078125,-41.9921875,-39.0625,-9.765625,-59.08203125,0.0
373.66015625,-49.31640625,-41.9921875,-32.71484375,-6.34765625,-17.578125,0.0
373.6640625,-55.17578125,-43.9453125,-29.78515625,0.0,30.2734375,0.0
373.66796875,-38.0859375,-43.45703125,-35.15625,-23.92578125,67.87109375,0.0
373.671875,-18.5546875,-37.59765625,-35.64453125,-35.64453125,49.8046875,0.0
373.67578125,-43.45703125,-34.66796875,-34.66796875,-23.4375,-38.0859375,0.0
373.6796875,-42.48046875,-34.66796875,-30.76171875,-16.6015625,10.7421875,0.0
373.68359375,-2.9296875,-34.66796875,-30.2734375,-0.48828125,39.55078125,0.0
373.6875,0.9765625,-34.1796875,-34.66796875,-2.9296875,-19.04296875,0.0
373.69140625,-4.39453125,-39.55078125,-35.15625,-36.62109375,-92.28515625,0.0
373.6953125,6.8359375,-39.55078125,-38.0859375,-41.015625,-121.58203125,0.0
373.69921875,18.06640625,-33.69140625,-46.38671875,-41.015625,-87.40234375,0.0
373.703125,-15.625,-37.109375,-42.96875,-25.87890625,-90.33203125,0.0
373.70703125,-46.38671875,-36.1328125,-31.73828125,5.37109375,-110.83984375,0.0
373.7109375,-20.5078125,-28.80859375,-29.296875,-32.71484375,-87.40234375,0.0
373.71484375,-3.90625,-30.76171875,-30.2734375,-50.78125,-80.56640625,0.0
373.71875,-16.6015625,-29.78515625,-32.71484375,-34.66796875,-41.50390625,0.0
373.72265625,3.90625,-31.25,-30.76171875,-41.015625,-1.953125,0.0
373.7265625,14.16015625,-38.57421875,-20.01953125,-35.64453125,-53.22265625,0.0
373.73046875,-1.46484375,-32.71484375,-20.01953125,-43.9453125,-52.24609375,0.0
373.734375,11.71875,-29.78515625,-26.3671875,-42.48046875,-52.734375,0.0
373.73828125,12.6953125,-38.0859375,-34.1796875,-36.62109375,-64.94140625,0.0
373.7421875,7.8125,-39.0625,-37.59765625,-35.64453125,-104.4921875,0.0
373.74609375,-23.92578125,-42.96875,-44.43359375,-40.52734375,-117.67578125,0.0
373.75,-40.0390625,-44.43359375,-35.15625,-27.83203125,-74.70703125,0.0
373.75390625,-25.390625,-33.69140625,-34.1796875,-59.08203125,-44.43359375,0.0
373.7578125,-23.92578125,-27.83203125,-39.55078125,-70.80078125,-0.48828125,0.0
373.76171875,-33.203125,-33.69140625,-31.73828125,-35.64453125,40.52734375,0.0
373.765625,-39.55078125,-35.15625,-39.0625,-20.5078125,-9.765625,0.0
373.76953125,-26.3671875,-26.3671875,-34.66796875,-36.1328125,-66.89453125,0.0
373.7734375,-16.11328125,-25.87890625,-27.83203125,-41.015625,-84.47265625,0.0
373.77734375,-34.1796875,-31.73828125,-41.9921875,-40.0390625,-63.96484375,0.0
373.78125,-32.71484375,-40.0390625,-48.828125,-49.31640625,-19.04296875,0.0
373.78515625,-31.73828125,-36.62109375,-41.50390625,-53.22265625,-19.53125,0.0
373.7890625,-28.3203125,-30.76171875,-36.62109375,-34.1796875,57.12890625,0.0
373.79296875,-22.4609375,-35.15625,-29.296875,-21.484375,118.1640625,0.0
373.796875,-68.84765625,-37.59765625,-26.85546875,-39.55078125,50.29296875,0.0
373.80078125,-56.640625,-35.64453125,-38.0859375,-49.8046875,-22.4609375,0.0
373.8046875,-27.34375,-27.83203125,-40.0390625,-61.5234375,-58.59375,0.0
373.80859375,-37.109375,-20.01953125,-46.875,-85.44921875,-24.90234375,0.0
373.8125,-48.33984375,-23.92578125,-49.8046875,-79.58984375,-22.4609375,0.0
373.81640625,-83.49609375,-30.76171875,-40.0390625,-51.26953125,-66.40625,0.0
373.8203125,-88.8671875,-30.2734375,-43.45703125,-58.59375,-94.7265625,0.0
373.82421875,-75.1953125,-32.2265625,-43.45703125,-53.7109375,-22.94921875,0.0
373.828125,-92.28515625,-38.57421875,-23.4375,-12.20703125,0.0,0.0
373.83203125,-87.890625,-44.921875,-25.390625,-52.24609375,-74.70703125,0.0
373.8359375,-90.8203125,-44.43359375,-41.9921875,-74.70703125,-101.5625,0.0
373.83984375,-82.03125,-41.9921875,-49.31640625,-58.59375,-82.51953125,0.0
373.84375,-79.58984375,-38.57421875,-41.9921875,-32.2265625,-41.9921875,0.0
373.84765625,-108.88671875,-35.15625,-26.3671875,-21.97265625,-51.7578125,0.0
373.8515625,-122.55859375,-38.0859375,-29.296875,-24.4140625,-108.3984375,0.0
373.85546875,-102.5390625,-47.36328125,-38.57421875,-30.76171875,-90.33203125,0.0
373.859375,-88.37890625,-47.36328125,-28.80859375,-31.25,-58.10546875,0.0
373.86328125,-96.6796875,-41.9921875,-21.484375,-22.4609375,-44.921875,0.0
373.8671875,-96.19140625,-34.66796875,-27.83203125,-35.64453125,14.16015625,0.0
373.87109375,-82.51953125,-36.1328125,-32.2265625,-41.015625,-35.64453125,0.0
373.875,-58.59375,-32.71484375,-29.296875,-21.97265625,-66.40625,0.0
373.87890625,-58.59375,-29.296875,-26.3671875,-28.3203125,8.7890625,0.0
373.8828125,-67.87109375,-36.1328125,-23.4375,-41.9921875,30.76171875,0.0
373.88671875,-57.12890625,-41.50390625,-25.87890625,-14.6484375,64.453125,0.0
373.890625,-56.640625,-45.8984375,-30.2734375,-18.5546875,100.5859375,0.0
373.89453125,-67.87109375,-45.8984375,-26.85546875,-40.52734375,127.9296875,0.0
373.8984375,-64.94140625,-34.66796875,-17.08984375,-20.01953125,118.1640625,0.0
373.90234375,-32.71484375,-33.69140625,-24.4140625,-21.484375,73.2421875,0.0
373.90625,-20.99609375,-42.96875,-38.57421875,-28.3203125,56.640625,0.0
373.91015625,-31.25,-40.0390625,-32.71484375,-1.46484375,29.78515625,0.0
373.9140625,-39.0625,-36.1328125,-24.4140625,-10.25390625,-7.32421875,0.0
373.91796875,-44.43359375,-33.69140625,-27.83203125,-15.625,-33.69140625,0.0
373.921875,-59.08203125,-26.3671875,-30.76171875,-1.953125,-62.5,0.0
373.92578125,-47.36328125,-23.92578125,-31.73828125,-26.3671875,-31.73828125,0.0
373.9296875,-22.4609375,-29.296875,-24.4140625,-38.57421875,-11.71875,0.0
373.93359375,-38.57421875,-37.109375,-22.94921875,-35.15625,-41.50390625,0.0
373.9375,-51.26953125,-41.50390625,-23.92578125,-25.87890625,-85.44921875,0.0
373.94140625,-48.33984375,-36.62109375,-22.94921875,-29.296875,-106.4453125,0.0
373.9453125,-84.47265625,-31.25,-29.296875,-63.96484375,-83.0078125,0.0
373.94921875,-79.1015625,-34.1796875,-26.3671875,-70.80078125,-96.19140625,0.0
373.953125,-31.25,-31.25,-18.5546875,-51.26953125,-103.515625,0.0
373.95703125,-24.90234375,-34.66796875,-20.99609375,-50.29296875,-125.48828125,0.0
373.9609375,-45.41015625,-34.66796875,-28.3203125,-62.01171875,-18.5546875,0.0
373.96484375,-55.17578125,-23.92578125,-22.4609375,-74.70703125,38.57421875,0.0
373.96875,-69.3359375,-37.59765625,-13.18359375,-79.58984375,-120.60546875,0.0
373.97265625,-64.453125,-47.8515625,-16.11328125,-83.984375,-124.51171875,0.0
373.9765625,-29.78515625,-51.26953125,-27.83203125,-71.2890625,11.71875,0.0
373.98046875,-41.015625,-50.78125,-36.1328125,-63.96484375,-61.03515625,0.0
373.984375,-104.98046875,-49.31640625,-35.64453125,-109.86328125,-61.5234375,0.0
373.98828125,-92.7734375,-47.36328125,-25.87890625,-90.33203125,-48.828125,0.0
373.9921875,-61.5234375,-34.66796875,-16.6015625,-71.2890625,-58.59375,0.0
373.99609375,-44.921875,-30.76171875,-13.18359375,-78.125,16.11328125,0.0
374.0,-44.43359375,-37.59765625,-27.34375,-84.47265625,-16.11328125,0.0
374.00390625,-57.12890625,-36.1328125,-38.57421875,-84.47265625,-31.25,0.0
374.0078125,-48.828125,-29.78515625,-26.3671875,-60.546875,-19.04296875,0.0
374.01171875,-11.71875,-27.83203125,-11.71875,-68.84765625,-0.9765625,0.0
374.015625,-22.94921875,-32.71484375,-17.578125,-89.84375,-4.39453125,0.0
374.01953125,-70.3125,-30.2734375,-30.76171875,-95.703125,-44.921875,0.0
374.0234375,-45.8984375,-28.80859375,-22.4609375,-76.66015625,-52.24609375,0.0
374.02734375,-10.7421875,-30.2734375,-15.13671875,-52.734375,-67.3828125,0.0
374.03125,-20.5078125,-20.01953125,-18.5546875,-64.453125,-113.28125,0.0
374.03515625,-17.08984375,-12.6953125,-21.97265625,-57.6171875,-156.25,0.0
374.0390625,-7.32421875,-18.06640625,-22.94921875,-46.875,-46.38671875,0.0
374.04296875,-22.4609375,-28.80859375,-13.671875,-30.2734375,15.13671875,0.0
374.046875,-9.765625,-33.203125,1.953125,-36.1328125,17.08984375,0.0
374.05078125,15.13671875,-21.97265625,-6.8359375,-31.25,-17.08984375,0.0
374.0546875,7.32421875,-10.7421875,-8.30078125,-38.57421875,-67.87109375,0.0
374.05859375,7.8125,-13.18359375,0.9765625,-49.8046875,-41.9921875,0.0
374.0625,21.484375,-18.06640625,4.39453125,-24.90234375,-25.390625,0.0
374.06640625,19.04296875,-15.625,0.0,-12.6953125,-24.90234375,0.0
374.0703125,8.30078125,-20.5078125,-16.6015625,-0.9765625,-46.38671875,0.0
374.07421875,50.29296875,-27.34375,-10.25390625,-0.9765625,-91.796875,0.0
374.078125,57.12890625,-22.94921875,-7.32421875,-27.34375,-89.35546875,0.0
374.08203125,22.94921875,-20.99609375,-25.390625,-47.36328125,-62.01171875,0.0
374.0859375,50.78125,-19.53125,-35.15625,-24.90234375,-101.07421875,0.0
374.08984375,62.5,-25.390625,-32.2265625,-1.46484375,-10.7421875,0.0
374.09375,30.2734375,-31.73828125,-28.80859375,-4.8828125,-3.90625,0.0
374.09765625,9.27734375,-35.64453125,-35.15625,14.6484375,-70.3125,0.0
374.1015625,-9.27734375,-39.0625,-34.1796875,35.64453125,-44.43359375,0.0
374.10546875,-13.18359375,-26.3671875,-19.53125,30.2734375,-32.71484375,0.0
374.109375,17.08984375,-22.94921875,-13.18359375,37.59765625,-76.66015625,0.0
374.11328125,27.83203125,-32.2265625,-16.11328125,38.0859375,-57.6171875,0.0
374.1171875,3.90625,-39.0625,-20.99609375,40.52734375,20.5078125,0.0
374.12109375,24.4140625,-32.2265625,-30.2734375,46.38671875,-16.11328125,0.0
374.125,41.015625,-28.80859375,-30.76171875,38.0859375,-24.90234375,0.0
374.12890625,62.01171875,-33.203125,-13.671875,36.1328125,-17.08984375,0.0
374.1328125,84.9609375,-28.3203125,-9.765625,24.4140625,-85.9375,0.0
374.13671875,34.1796875,-29.296875,-14.6484375,11.23046875,-116.69921875,0.0
374.140625,18.06640625,-39.0625,-14.16015625,18.5546875,-102.5390625,0.0
374.14453125,9.27734375,-43.45703125,-9.765625,18.5546875,-50.29296875,0.0
374.1484375,-4.39453125,-43.9453125,-9.765625,6.8359375,9.765625,0.0
374.15234375,3.41796875,-46.875,-11.23046875,-2.44140625,37.59765625,0.0
374.15625,4.39453125,-43.9453125,-14.6484375,1.953125,86.42578125,0.0
374.16015625,-0.48828125,-41.9921875,-6.8359375,1.46484375,83.984375,0.0
374.1640625,8.30078125,-37.109375,-2.9296875,9.765625,38.0859375,0.0
374.16796875,-4.8828125,-33.69140625,-14.16015625,-4.39453125,0.48828125,0.0
374.171875,-41.50390625,-41.50390625,-25.87890625,-31.25,-40.52734375,0.0
374.17578125,-45.41015625,-34.66796875,-36.1328125,-44.43359375,-93.75,0.0
374.1796875,-46.38671875,-29.296875,-31.25,-53.7109375,-73.73046875,0.0
374.18359375,-95.703125,-44.43359375,-34.66796875,-59.08203125,-47.36328125,0.0
374.1875,-94.7265625,-39.0625,-40.52734375,-56.15234375,-73.2421875,0.0
374.19140625,-81.0546875,-28.80859375,-41.50390625,-54.6875,-38.57421875,0.0
374.1953125,-91.796875,-31.25,-47.36328125,-27.34375,-32.71484375,0.0
374.19921875,-94.23828125,-30.76171875,-44.921875,-19.53125,-83.984375,0.0
374.203125,-100.5859375,-27.83203125,-41.9921875,-44.43359375,-131.34765625,0.0
374.20703125,-66.40625,-27.83203125,-43.45703125,-52.24609375,-98.6328125,0.0
374.2109375,-55.17578125,-24.90234375,-34.1796875,-35.64453125,-68.84765625,0.0
374.21484375,-106.93359375,-24.90234375,-32.2265625,-41.9921875,-140.625,0.0
374.21875,-109.375,-25.390625,-31.73828125,-18.5546875,-83.0078125,0.0
374.22265625,-94.7265625,-30.76171875,-31.25,3.90625,0.0,0.0
374.2265625,-124.0234375,-29.296875,-34.66796875,-9.27734375,-11.23046875,0.0
374.23046875,-148.92578125,-22.4609375,-27.34375,0.0,-31.73828125,0.0
374.234375,-131.34765625,-14.6484375,-24.4140625,-4.8828125,-60.05859375,0.0
374.23828125,-87.40234375,-10.7421875,-21.97265625,-17.08984375,10.7421875,0.0
374.2421875,-108.3984375,-14.6484375,-20.5078125,-14.16015625,25.390625,0.0
374.24609375,-151.85546875,-28.80859375,-24.90234375,-23.4375,20.01953125,0.0
374.25,-144.04296875,-36.62109375,-23.4375,-6.34765625,52.24609375,0.0
374.25390625,-139.16015625,-34.1796875,-23.92578125,20.01953125,89.35546875,0.0
374.2578125,-170.41015625,-39.0625,-30.2734375,15.625,2.44140625,0.0
374.26171875,-182.12890625,-40.0390625,-26.85546875,38.0859375,-86.42578125,0.0
374.265625,-98.14453125,-28.3203125,-13.18359375,52.24609375,-62.01171875,0.0
374.26953125,-39.55078125,-22.4609375,-19.04296875,26.3671875,-62.01171875,0.0
374.2734375,-34.1796875,-22.94921875,-26.85546875,17.578125,2.44140625,0.0
374.27734375,-22.94921875,-32.71484375,-30.2734375,4.8828125,14.6484375,0.0
374.28125,-36.62109375,-37.109375,-36.62109375,-15.625,-29.78515625,0.0
374.28515625,-57.6171875,-40.0390625,-31.25,-0.9765625,-49.8046875,0.0
374.2890625,-33.203125,-44.921875,-28.3203125,19.53125,-0.48828125,0.0
374.29296875,-49.8046875,-36.62109375,-26.85546875,22.4609375,38.57421875,0.0
374.296875,-68.359375,-28.3203125,-20.5078125,28.80859375,-10.25390625,0.0
374.30078125,-63.96484375,-36.62109375,-19.53125,14.6484375,-75.68359375,0.0
374.3046875,-56.15234375,-39.55078125,-22.94921875,5.37109375,-47.8515625,0.0
374.30859375,-41.9921875,-41.015625,-22.94921875,-1.46484375,2.9296875,0.0
374.3125,-18.5546875,-38.0859375,-12.6953125,-13.671875,-96.19140625,0.0
374.31640625,-3.90625,-27.34375,-1.953125,-6.8359375,-79.1015625,0.0
374.3203125,-3.41796875,-36.1328125,-13.18359375,-8.30078125,-29.296875,0.0
374.32421875,-8.30078125,-43.45703125,-20.99609375,-15.13671875,-43.45703125,0.0
374.328125,-69.82421875,-46.38671875,-6.8359375,-37.59765625,0.9765625,0.0
374.33203125,-106.4453125,-43.45703125,5.859375,-41.50390625,-0.9765625,0.0
374.3359375,-118.65234375,-38.57421875,1.953125,-25.390625,-18.5546875,0.0
374.33984375,-116.2109375,-41.9921875,-3.90625,-33.203125,0.9765625,0.0
374.34375,-96.19140625,-33.203125,-6.8359375,-43.9453125,31.73828125,0.0
374.34765625,-95.703125,-26.85546875,1.46484375,-26.3671875,-7.8125,0.0
374.3515625,-98.14453125,-34.1796875,8.7890625,-30.76171875,-4.8828125,0.0
374.35546875,-114.2578125,-35.15625,6.34765625,-42.48046875,-28.80859375,0.0
374.359375,-122.55859375,-30.76171875,2.9296875,-20.99609375,-83.984375,0.0
374.36328125,-84.9609375,-29.296875,3.41796875,-17.578125,-88.37890625,0.0
374.3671875,-52.24609375,-30.76171875,7.8125,-18.5546875,-83.0078125,0.0
374.37109375,-82.51953125,-33.69140625,5.37109375,-20.99609375,-85.44921875,0.0
374.375,-109.86328125,-37.109375,-13.18359375,-17.08984375,-27.83203125,0.0
374.37890625,-106.93359375,-31.73828125,-17.578125,1.953125,-36.62109375,0.0
374.3828125,-114.2578125,-22.94921875,-21.484375,-15.625,-81.0546875,0.0
374.38671875,-76.66015625,-32.71484375,-20.5078125,-12.20703125,-13.671875,0.0
374.390625,-16.6015625,-37.109375,-10.25390625,5.859375,29.78515625,0.0
374.39453125,-29.296875,-35.15625,-15.625,-13.671875,2.9296875,0.0
374.3984375,-69.82421875,-33.69140625,-15.625,7.32421875,25.390625,0.0
374.40234375,-45.41015625,-26.85546875,-12.20703125,10.7421875,13.671875,0.0
374.40625,-21.484375,-26.3671875,-11.23046875,-9.27734375,20.5078125,0.0
374.41015625,-21.97265625,-27.34375,-12.6953125,3.90625,35.64453125,0.0
374.4140625,-14.6484375,-27.83203125,-11.23046875,14.16015625,-13.18359375,0.0
374.41796875,-12.20703125,-29.296875,-6.8359375,-5.859375,-96.6796875,0.0
374.421875,-39.0625,-28.80859375,-9.765625,-32.71484375,-89.35546875,0.0
374.42578125,-56.15234375,-33.203125,-13.18359375,-32.71484375,-15.13671875,0.0
374.4296875,3.90625,-27.83203125,-5.859375,-33.203125,6.8359375,0.0
374.43359375,30.2734375,-30.76171875,-9.765625,-45.8984375,-0.9765625,0.0
374.4375,-14.16015625,-41.50390625,-29.296875,-41.50390625,13.671875,0.0
374.44140625,-16.6015625,-39.55078125,-30.2734375,-50.78125,-23.4375,0.0
374.4453125,-6.8359375,-34.66796875,-25.390625,-45.41015625,0.0,0.0
374.44921875,3.90625,-33.69140625,-26.3671875,-39.55078125,13.671875,0.0
374.453125,18.5546875,-26.3671875,-34.66796875,-45.8984375,10.7421875,0.0
374.45703125,8.7890625,-13.18359375,-34.1796875,-33.203125,-20.01953125,0.0
374.4609375,-20.5078125,-16.11328125,-23.92578125,-28.80859375,-128.41796875,0.0
374.46484375,-5.859375,-22.94921875,-29.296875,-15.13671875,-75.1953125,0.0
374.46875,17.578125,-17.578125,-31.73828125,-11.23046875,-33.69140625,0.0
374.47265625,-28.80859375,-22.4609375,-25.87890625,-22.94921875,-91.30859375,0.0
374.4765625,-34.1796875,-32.71484375,-26.85546875,-26.85546875,-111.81640625,0.0
374.48046875,-33.69140625,-41.50390625,-29.78515625,-16.6015625,-30.2734375,0.0
374.484375,-39.55078125,-37.59765625,-29.296875,-7.8125,-9.27734375,0.0
374.48828125,-32.71484375,-31.73828125,-29.78515625,-28.3203125,-81.54296875,0.0
374.4921875,-55.17578125,-31.25,-26.85546875,-40.52734375,-42.48046875,0.0
374.49609375,-63.96484375,-34.66796875,-25.87890625,-23.92578125,31.25,0.0
374.5,-86.42578125,-40.52734375,-37.59765625,-24.4140625,19.53125,0.0
374.50390625,-97.65625,-47.36328125,-42.96875,-16.6015625,-23.92578125,0.0
374.5078125,-69.82421875,-42.96875,-40.0390625,-18.06640625,-27.83203125,0.0
374.51171875,-68.359375,-35.15625,-38.0859375,-25.87890625,-55.6640625,0.0
374.515625,-65.91796875,-33.69140625,-33.69140625,-12.20703125,-29.296875,0.0
374.51953125,-51.26953125,-34.66796875,-31.25,-58.10546875,13.18359375,0.0
374.5234375,-76.171875,-35.64453125,-29.296875,-67.87109375,33.69140625,0.0
374.52734375,-78.61328125,-44.921875,-27.34375,-46.38671875,81.0546875,0.0
374.53125,-65.91796875,-42.96875,-28.3203125,-64.453125,33.203125,0.0
374.53515625,-50.29296875,-38.0859375,-26.3671875,-61.03515625,-59.08203125,0.0
374.5390625,-55.17578125,-37.109375,-21.97265625,-59.5703125,-73.73046875,0.0
374.54296875,-58.59375,-30.2734375,-10.25390625,-59.5703125,-1.46484375,0.0
374.546875,-40.52734375,-25.87890625,-3.90625,-51.26953125,15.625,0.0
374.55078125,-33.69140625,-31.73828125,-0.48828125,-54.19921875,-11.71875,0.0
374.5546875,-7.8125,-32.71484375,10.7421875,-47.8515625,-33.69140625,0.0
374.55859375,-2.44140625,-39.0625,5.859375,-59.08203125,-4.8828125,0.0
374.5625,0.48828125,-38.57421875,1.46484375,-57.12890625,83.49609375,0.0
374.56640625,-1.953125,-34.66796875,9.27734375,-28.3203125,43.9453125,0.0
374.5703125,-1.46484375,-35.64453125,20.5078125,-27.34375,-39.55078125,0.0
374.57421875,11.23046875,-33.203125,23.92578125,-40.52734375,-67.3828125,0.0
374.578125,-9.765625,-34.66796875,24.4140625,-39.0625,-59.08203125,0.0
374.58203125,-32.71484375,-38.0859375,16.6015625,-28.3203125,8.7890625,0.0
374.5859375,-41.015625,-41.50390625,11.23046875,-43.9453125,12.20703125,0.0
374.58984375,-56.15234375,-44.43359375,29.296875,-28.80859375,-46.38671875,0.0
374.59375,-70.3125,-38.57421875,49.8046875,-45.8984375,23.92578125,0.0
374.59765625,-69.82421875,-32.2265625,39.55078125,-61.03515625,55.17578125,0.0
374.6015625,-49.31640625,-33.69140625,29.78515625,-33.203125,-2.44140625,0.0
374.60546875,-13.18359375,-31.25,20.5078125,-26.85546875,-21.97265625,0.0
374.609375,2.9296875,-33.203125,14.16015625,-38.0859375,-26.3671875,0.0
374.61328125,-17.08984375,-32.2265625,6.34765625,-37.109375,3.41796875,0.0
374.6171875,-8.7890625,-20.5078125,-3.90625,-49.8046875,-77.1484375,0.0
374.62109375,22.4609375,-19.53125,0.9765625,-74.21875,-94.7265625,0.0
374.625,26.85546875,-33.69140625,9.765625,-44.921875,0.9765625,0.0
374.62890625,-5.859375,-41.015625,21.484375,-31.73828125,-27.34375,0.0
374.6328125,-14.6484375,-34.1796875,13.18359375,-41.015625,-4.39453125,0.0
374.63671875,-20.01953125,-25.87890625,-7.8125,-41.50390625,22.4609375,0.0
374.640625,-45.41015625,-25.390625,-15.625,-58.10546875,-46.38671875,0.0
374.64453125,-46.38671875,-32.2265625,-2.9296875,-43.9453125,-102.05078125,0.0
374.6484375,-47.36328125,-27.34375,4.39453125,-41.015625,-132.32421875,0.0
374.65234375,-59.5703125,-27.34375,-5.37109375,-45.41015625,-79.58984375,0.0
374.65625,-47.36328125,-38.57421875,-17.578125,-24.4140625,5.859375,0.0
374.66015625,-35.15625,-38.57421875,-15.13671875,-25.390625,98.14453125,0.0
374.6640625,-54.6875,-43.45703125,-14.16015625,-41.015625,122.55859375,0.0
374.66796875,-62.01171875,-39.55078125,-14.6484375,-48.33984375,36.62109375,0.0
374.671875,-73.73046875,-38.0859375,-1.953125,-39.0625,-8.7890625,0.0
374.67578125,-70.3125,-43.9453125,5.37109375,-27.34375,-40.0390625,0.0
374.6796875,-46.38671875,-32.2265625,-5.37109375,-29.78515625,-36.62109375,0.0
374.68359375,-52.734375,-22.94921875,-15.13671875,-47.36328125,-21.484375,0.0
374.6875,-53.7109375,-21.484375,-16.11328125,-49.31640625,-23.92578125,0.0
374.69140625,-35.64453125,-18.06640625,-9.765625,-33.203125,-30.2734375,0.0
374.6953125,-54.19921875,-33.69140625,-19.53125,-37.109375,-51.26953125,0.0
374.69921875,-72.265625,-48.33984375,-32.71484375,-24.90234375,-28.3203125,0.0
374.703125,-69.3359375,-46.38671875,-37.109375,-38.0859375,3.41796875,0.0
374.70703125,-57.12890625,-49.8046875,-30.2734375,-48.828125,-42.48046875,0.0
374.7109375,-50.78125,-51.26953125,-16.11328125,-31.73828125,-91.796875,0.0
374.71484375,-86.9140625,-39.0625,-16.6015625,-30.2734375,-45.41015625,0.0
374.71875,-99.609375,-19.04296875,-14.16015625,-6.34765625,-20.5078125,0.0
374.72265625,-63.96484375,-15.625,-15.625,-11.23046875,-33.69140625,0.0
374.7265625,-34.1796875,-23.92578125,-26.3671875,-29.296875,-40.0390625,0.0
374.73046875,-19.53125,-31.73828125,-25.390625,-45.41015625,-0.48828125,0.0
374.734375,-20.01953125,-29.78515625,-19.53125,-48.33984375,7.8125,0.0
374.73828125,-14.16015625,-27.34375,-12.6953125,-21.97265625,-42.96875,0.0
374.7421875,-10.7421875,-33.69140625,-15.13671875,-20.5078125,-55.6640625,0.0
374.74609375,-19.04296875,-38.0859375,-25.390625,-38.0859375,-32.71484375,0.0
374.75,-20.99609375,-30.2734375,-30.76171875,-48.828125,-14.16015625,0.0
374.75390625,-15.13671875,-26.3671875,-34.1796875,-55.17578125,-46.875,0.0
374.7578125,-6.8359375,-26.85546875,-34.1796875,-54.6875,-84.47265625,0.0
374.76171875,13.671875,-26.85546875,-32.2265625,-32.71484375,-100.5859375,0.0
374.765625,20.01953125,-25.390625,-33.203125,-25.390625,-16.11328125,0.0
374.76953125,11.71875,-29.296875,-44.921875,-38.0859375,-7.8125,0.0
374.7734375,-8.30078125,-44.43359375,-49.8046875,-17.08984375,-85.44921875,0.0
374.77734375,-13.671875,-47.8515625,-32.71484375,-6.8359375,-51.7578125,0.0
374.78125,-8.30078125,-31.73828125,-33.69140625,-47.36328125,-50.29296875,0.0
374.78515625,-29.78515625,-23.92578125,-41.015625,-74.21875,-49.8046875,0.0
374.7890625,-16.6015625,-26.85546875,-34.1796875,-60.05859375,-37.109375,0.0
374.79296875,-7.32421875,-28.3203125,-40.0390625,-51.7578125,-49.8046875,0.0
374.796875,-7.8125,-34.66796875,-47.8515625,-47.8515625,6.8359375,0.0
374.80078125,-38.57421875,-40.0390625,-49.31640625,-38.0859375,16.11328125,0.0
374.8046875,-72.265625,-35.64453125,-50.78125,-31.25,-18.06640625,0.0
374.80859375,-60.05859375,-34.1796875,-53.7109375,-36.1328125,-15.13671875,0.0
374.8125,-51.7578125,-38.57421875,-49.8046875,-32.71484375,-28.80859375,0.0
374.81640625,-50.29296875,-32.71484375,-39.0625,-17.08984375,-101.07421875,0.0
374.8203125,-49.31640625,-33.69140625,-37.109375,1.953125,-116.69921875,0.0
374.82421875,-37.109375,-43.9453125,-41.9921875,0.48828125,-93.26171875,0.0
374.828125,-44.921875,-44.43359375,-42.48046875,-18.06640625,-70.80078125,0.0
374.83203125,-54.19921875,-35.15625,-30.2734375,-23.4375,-16.11328125,0.0
374.8359375,-67.3828125,-28.3203125,-27.83203125,-22.4609375,-20.99609375,0.0
374.83984375,-47.36328125,-37.109375,-36.1328125,-5.37109375,-41.50390625,0.0
374.84375,-22.94921875,-42.96875,-41.50390625,2.44140625,-10.7421875,0.0
374.84765625,-56.15234375,-37.59765625,-39.0625,-6.34765625,38.0859375,0.0
374.8515625,-79.1015625,-35.15625,-38.0859375,-2.44140625,50.78125,0.0
374.85546875,-51.26953125,-39.55078125,-39.0625,5.859375,0.48828125,0.0
374.859375,-28.3203125,-46.875,-37.109375,26.3671875,50.29296875,0.0
374.86328125,-20.99609375,-49.31640625,-37.109375,17.08984375,61.5234375,0.0
374.8671875,-3.41796875,-39.0625,-38.0859375,-8.7890625,0.48828125,0.0
374.87109375,-18.06640625,-30.76171875,-40.0390625,9.27734375,-41.015625,0.0
374.875,1.46484375,-35.15625,-40.0390625,2.9296875,-70.3125,0.0
374.87890625,29.296875,-30.76171875,-46.38671875,-36.1328125,-56.15234375,0.0
374.8828125,18.06640625,-17.578125,-49.31640625,-29.296875,-22.94921875,0.0
374.88671875,24.4140625,-14.6484375,-40.0390625,-3.90625,-15.625,0.0
374.890625,40.52734375,-17.08984375,-32.2265625,7.32421875,0.0,0.0
374.89453125,11.71875,-23.4375,-35.64453125,21.484375,-82.03125,0.0
374.8984375,-9.765625,-34.66796875,-41.9921875,6.8359375,-140.625,0.0
374.90234375,23.92578125,-32.71484375,-35.15625,-18.06640625,-88.37890625,0.0
374.90625,27.34375,-25.390625,-28.80859375,-1.46484375,-49.8046875,0.0
374.91015625,49.8046875,-21.97265625,-40.52734375,28.80859375,39.55078125,0.0
374.9140625,56.640625,-21.97265625,-38.57421875,17.578125,57.6171875,0.0
374.91796875,33.203125,-27.34375,-38.0859375,-9.27734375,3.90625,0.0
374.921875,15.13671875,-26.85546875,-51.26953125,5.859375,-32.2265625,0.0
374.92578125,8.7890625,-26.3671875,-49.31640625,16.6015625,-44.43359375,0.0
374.9296875,21.484375,-28.3203125,-37.109375,16.11328125,-17.08984375,0.0
374.93359375,14.16015625,-37.59765625,-36.1328125,37.59765625,-11.71875,0.0
374.9375,-22.94921875,-51.26953125,-42.96875,31.73828125,49.8046875,0.0
374.94140625,-36.1328125,-46.38671875,-42.48046875,13.671875,72.75390625,0.0
374.9453125,-40.0390625,-33.203125,-39.55078125,-2.44140625,-70.3125,0.0
374.94921875,-51.26953125,-33.69140625,-42.96875,4.39453125,-147.4609375,0.0
374.953125,-38.0859375,-34.66796875,-44.921875,26.3671875,-69.3359375,0.0
374.95703125,-48.828125,-40.52734375,-53.7109375,-3.90625,-61.5234375,0.0
374.9609375,-70.80078125,-39.55078125,-50.78125,-22.94921875,-53.22265625,0.0
374.96484375,-37.109375,-28.3203125,-44.921875,-9.27734375,-50.78125,0.0
374.96875,-37.59765625,-38.0859375,-42.96875,-18.06640625,-71.77734375,0.0
374.97265625,-61.03515625,-46.875,-31.25,-20.5078125,-54.6875,0.0
374.9765625,-48.33984375,-32.71484375,-30.2734375,-24.90234375,-87.890625,0.0
374.98046875,-32.2265625,-26.85546875,-46.875,-16.6015625,-45.41015625,0.0
374.984375,-32.71484375,-29.296875,-60.546875,-11.23046875,14.16015625,0.0
374.98828125,-19.04296875,-30.76171875,-60.546875,-29.296875,-1.953125,0.0
374.9921875,-5.859375,-44.921875,-61.03515625,-20.5078125,-37.59765625,0.0
374.99609375,-36.62109375,-39.55078125,-56.15234375,-16.11328125,-4.8828125,0.0
375.0,-46.38671875,-18.5546875,-43.9453125,-9.27734375,36.1328125,0.0
375.00390625,-34.66796875,-15.13671875,-26.85546875,-8.30078125,-3.90625,0.0
375.0078125,-30.2734375,-30.2734375,-14.6484375,-13.18359375,-93.26171875,0.0
375.01171875,1.953125,-31.73828125,-16.6015625,-14.6484375,-119.62890625,0.0
375.015625,1.953125,-28.3203125,-12.6953125,-15.625,-105.46875,0.0
375.01953125,-11.71875,-29.78515625,-1.953125,-20.5078125,-78.125,0.0
375.0234375,-14.16015625,-24.4140625,3.41796875,-20.01953125,-13.18359375,0.0
375.02734375,-15.13671875,-25.87890625,20.5078125,-19.04296875,-14.16015625,0.0
375.03125,-27.83203125,-29.78515625,37.109375,-32.71484375,-74.21875,0.0
375.03515625,-41.015625,-34.66796875,27.83203125,-22.94921875,-26.85546875,0.0
375.0390625,-47.8515625,-37.59765625,-1.46484375,-39.55078125,39.55078125,0.0
375.04296875,-41.9921875,-31.73828125,-12.6953125,-56.15234375,-9.27734375,0.0
375.046875,-10.7421875,-38.57421875,-12.6953125,-42.96875,-35.64453125,0.0
375.05078125,-7.8125,-46.38671875,-13.671875,-38.57421875,-127.44140625,0.0
375.0546875,-26.85546875,-37.109375,-9.27734375,-25.390625,-214.84375,0.0
375.05859375,-53.7109375,-28.3203125,-17.578125,-10.7421875,-187.01171875,0.0
375.0625,-77.63671875,-29.78515625,-20.01953125,-10.7421875,-130.37109375,0.0
375.06640625,-72.75390625,-38.0859375,-21.484375,-28.80859375,-40.52734375,0.0
375.0703125,-72.265625,-36.62109375,-31.25,-35.64453125,-56.15234375,0.0
375.07421875,-41.9921875,-30.2734375,-35.64453125,-22.4609375,-62.01171875,0.0
375.078125,-11.23046875,-28.80859375,-27.34375,-40.0390625,0.9765625,0.0
375.08203125,-3.41796875,-29.78515625,-27.34375,-47.8515625,37.109375,0.0
375.0859375,-1.46484375,-32.71484375,-42.96875,-37.109375,75.68359375,0.0
375.08984375,-23.92578125,-40.52734375,-38.0859375,-47.8515625,-11.23046875,0.0
375.09375,-56.15234375,-51.26953125,-33.203125,-62.01171875,-21.97265625,0.0
375.09765625,-82.51953125,-51.26953125,-36.1328125,-43.9453125,73.2421875,0.0
375.1015625,-107.421875,-52.24609375,-34.66796875,-20.5078125,-38.57421875,0.0
375.10546875,-107.421875,-45.8984375,-35.64453125,-29.78515625,-92.28515625,0.0
375.109375,-75.1953125,-34.1796875,-32.2265625,-33.69140625,-4.8828125,0.0
375.11328125,-68.84765625,-35.64453125,-31.25,-19.53125,102.05078125,0.0
375.1171875,-58.10546875,-30.76171875,-28.80859375,-35.15625,70.3125,0.0
375.12109375,-74.70703125,-32.2265625,-24.4140625,-39.0625,-47.8515625,0.0
375.125,-115.72265625,-34.66796875,-20.99609375,-32.2265625,6.8359375,0.0
375.12890625,-135.7421875,-39.0625,-25.87890625,-37.59765625,66.89453125,0.0
375.1328125,-139.6484375,-35.15625,-19.04296875,-20.5078125,57.6171875,0.0
375.13671875,-131.34765625,-36.1328125,-22.4609375,-37.59765625,25.87890625,0.0
375.140625,-112.79296875,-51.26953125,-34.66796875,-67.87109375,40.0390625,0.0
375.14453125,-111.81640625,-53.7109375,-42.48046875,-83.984375,-5.37109375,0.0
375.1484375,-151.85546875,-41.9921875,-52.734375,-93.75,-64.453125,0.0
375.15234375,-208.0078125,-42.96875,-55.17578125,-104.98046875,-24.90234375,0.0
375.15625,-218.26171875,-52.24609375,-62.5,-121.09375,-27.34375,0.0
375.16015625,-234.86328125,-55.17578125,-73.73046875,-145.01953125,-50.78125,0.0
375.1640625,-262.6953125,-52.734375,-79.1015625,-160.64453125,-132.8125,0.0
375.16796875,-238.76953125,-54.6875,-83.49609375,-150.390625,-189.94140625,0.0
375.171875,-206.54296875,-62.98828125,-92.7734375,-194.3359375,-175.29296875,0.0
375.17578125,-204.1015625,-59.08203125,-100.5859375,-202.1484375,-139.6484375,0.0
375.1796875,-220.21484375,-51.26953125,-99.609375,-184.08203125,-89.35546875,0.0
375.18359375,-216.30859375,-49.31640625,-117.1875,-197.75390625,-139.16015625,0.0
375.1875,-203.125,-47.36328125,-122.0703125,-170.41015625,-52.24609375,0.0
375.19140625,-181.640625,-50.78125,-105.46875,-136.71875,54.19921875,0.0
375.1953125,-129.39453125,-57.6171875,-92.7734375,-113.76953125,20.5078125,0.0
375.19921875,-105.95703125,-61.03515625,-90.33203125,-130.37109375,-24.4140625,0.0
375.203125,-97.65625,-59.08203125,-101.5625,-135.7421875,28.3203125,0.0
375.20703125,-84.9609375,-52.24609375,-106.4453125,-120.60546875,-1.953125,0.0
375.2109375,-56.640625,-49.31640625,-109.375,-127.44140625,-0.9765625,0.0
375.21484375,-15.13671875,-45.8984375,-106.4453125,-98.6328125,82.51953125,0.0
375.21875,14.16015625,-48.828125,-108.3984375,-81.0546875,26.3671875,0.0
375.22265625,54.6875,-42.96875,-113.28125,-62.5,-13.671875,0.0
375.2265625,73.2421875,-32.71484375,-111.328125,-33.69140625,-72.265625,0.0
375.23046875,87.890625,-29.296875,-107.421875,-20.99609375,-64.453125,0.0
375.234375,79.1015625,-26.3671875,-105.46875,-4.8828125,19.53125,0.0
375.23828125,34.66796875,-29.78515625,-103.515625,1.46484375,2.44140625,0.0
375.2421875,8.30078125,-35.64453125,-104.4921875,-12.20703125,-48.33984375,0.0
375.24609375,-1.953125,-34.1796875,-107.91015625,3.41796875,-65.4296875,0.0
375.25,-31.25,-34.66796875,-104.98046875,7.32421875,-42.48046875,0.0
