timestamp,TP9,AF7,AF8,TP10,AUX,Marker,
12.00390625,-57.12890625,-25.390625,161.62109375,-137.6953125,-3.41796875,0.0
12.0078125,-67.3828125,-19.04296875,162.59765625,-156.73828125,-42.96875,0.0
12.01171875,-66.40625,-22.94921875,167.48046875,-177.24609375,-45.41015625,0.0
12.015625,-54.19921875,-20.5078125,166.50390625,-170.41015625,-23.92578125,0.0
12.01953125,-40.0390625,-24.4140625,159.1796875,-141.6015625,-86.42578125,0.0
12.0234375,-36.1328125,-39.0625,141.6015625,-158.203125,-73.73046875,0.0
12.02734375,-38.57421875,-45.41015625,66.89453125,-179.19921875,-75.68359375,0.0
12.03125,-42.48046875,-40.52734375,-25.390625,-161.1328125,-89.35546875,0.0
12.03515625,-44.921875,-25.390625,-52.734375,-119.62890625,-78.125,0.0
12.0390625,-54.6875,-18.06640625,-63.96484375,-142.08984375,13.671875,0.0
12.04296875,-62.5,-22.4609375,-75.68359375,-177.24609375,70.3125,0.0
12.046875,-48.828125,-14.6484375,-79.58984375,-184.08203125,45.8984375,0.0
12.05078125,-51.7578125,-18.06640625,-24.4140625,-187.01171875,-14.16015625,0.0
12.0546875,-64.453125,-27.34375,45.41015625,-111.328125,-30.2734375,0.0
12.05859375,-66.89453125,-23.92578125,64.94140625,-20.5078125,-42.48046875,0.0
12.0625,-71.77734375,-30.2734375,69.82421875,23.4375,-11.23046875,0.0
12.06640625,-66.89453125,-27.83203125,34.1796875,49.31640625,60.546875,0.0
12.0703125,-63.4765625,-26.85546875,37.59765625,61.5234375,25.87890625,0.0
12.07421875,-57.12890625,-41.015625,63.96484375,65.4296875,-78.61328125,0.0
12.078125,-50.78125,-29.78515625,35.64453125,65.91796875,-100.5859375,0.0
12.08203125,-50.78125,-25.390625,-52.734375,61.5234375,-23.92578125,0.0
12.0859375,-62.98828125,-31.73828125,-110.83984375,45.8984375,22.94921875,0.0
12.08984375,-76.171875,-35.15625,-117.67578125,44.921875,-30.2734375,0.0
12.09375,-70.3125,-55.17578125,-119.62890625,46.875,3.41796875,0.0
12.09765625,-72.75390625,-40.52734375,-115.72265625,51.7578125,78.125,0.0
12.1015625,-72.75390625,-9.27734375,-102.5390625,55.6640625,-11.71875,0.0
12.10546875,-63.96484375,-10.25390625,-102.5390625,47.36328125,-39.55078125,0.0
12.109375,-72.75390625,-20.01953125,-107.421875,34.66796875,-21.97265625,0.0
12.11328125,-78.61328125,-48.828125,-112.79296875,35.64453125,-11.23046875,0.0
12.1171875,-65.4296875,-68.84765625,-118.1640625,20.99609375,-11.71875,0.0
12.12109375,-58.59375,-49.31640625,-119.140625,-2.9296875,-85.9375,0.0
12.125,-54.6875,-30.76171875,-104.98046875,4.39453125,-27.83203125,0.0
12.12890625,-64.94140625,-34.1796875,-97.65625,1.953125,-19.53125,0.0
12.1328125,-79.1015625,-33.203125,-86.9140625,-4.8828125,-24.4140625,0.0
12.13671875,-77.63671875,-13.671875,-62.01171875,9.27734375,37.109375,0.0
12.140625,-82.51953125,0.9765625,-46.38671875,22.94921875,15.625,0.0
12.14453125,-86.42578125,-1.953125,-44.43359375,22.94921875,47.36328125,0.0
12.1484375,-72.75390625,-19.53125,-52.734375,1.46484375,44.921875,0.0
12.15234375,-65.91796875,-29.296875,-50.29296875,-2.44140625,-18.06640625,0.0
12.15625,-76.66015625,-35.64453125,-54.19921875,-1.46484375,54.19921875,0.0
12.16015625,-81.54296875,-47.8515625,-62.5,-22.4609375,46.875,0.0
12.1640625,-87.40234375,-56.15234375,-60.05859375,-33.203125,13.671875,0.0
12.16796875,-92.7734375,-60.05859375,-77.63671875,-49.31640625,13.18359375,0.0
12.171875,-92.28515625,-50.78125,-82.51953125,-84.47265625,-89.84375,0.0
12.17578125,-97.65625,-52.734375,-71.77734375,-118.65234375,-114.2578125,0.0
12.1796875,-97.16796875,-61.03515625,-81.0546875,-111.328125,-56.640625,0.0
12.18359375,-98.14453125,-56.640625,-80.56640625,-68.359375,-46.875,0.0
12.1875,-116.69921875,-45.8984375,-67.87109375,-62.98828125,-14.16015625,0.0
12.19140625,-121.58203125,-30.2734375,-61.5234375,-89.84375,50.29296875,0.0
12.1953125,-116.69921875,-20.99609375,-58.59375,-94.23828125,77.63671875,0.0
12.19921875,-108.88671875,-25.390625,-56.15234375,-92.28515625,54.19921875,0.0
12.203125,-121.58203125,-40.0390625,-57.6171875,-90.8203125,26.3671875,0.0
12.20703125,-132.32421875,-48.33984375,-61.03515625,-76.66015625,3.90625,0.0
12.2109375,-126.953125,-23.4375,-60.05859375,-47.8515625,30.2734375,0.0
12.21484375,-112.3046875,-12.20703125,-56.15234375,-46.38671875,78.125,0.0
12.21875,-111.328125,-22.4609375,-51.26953125,-50.78125,-5.37109375,0.0
12.22265625,-140.13671875,-29.78515625,-62.01171875,-48.33984375,-61.5234375,0.0
12.2265625,-147.4609375,-33.203125,-92.7734375,-68.84765625,-19.04296875,0.0
12.23046875,-138.18359375,-37.109375,-104.4921875,-72.75390625,17.578125,0.0
12.234375,-134.765625,-41.9921875,-93.75,-61.03515625,-14.6484375,0.0
12.23828125,-115.72265625,-37.59765625,-84.9609375,-52.24609375,-59.08203125,0.0
12.2421875,-116.69921875,-43.45703125,-79.58984375,-61.5234375,-77.1484375,0.0
12.24609375,-137.6953125,-49.8046875,-71.77734375,-74.21875,-36.62109375,0.0
12.25,-132.8125,-37.59765625,-70.3125,-79.58984375,-41.015625,0.0
12.25390625,-127.44140625,-22.94921875,-66.89453125,-83.984375,-87.40234375,0.0
12.2578125,-117.67578125,-14.16015625,-58.59375,-58.10546875,-128.41796875,0.0
12.26171875,-101.07421875,-15.625,-50.78125,-28.3203125,-101.07421875,0.0
12.265625,-107.421875,-20.99609375,-51.26953125,-32.71484375,-59.5703125,0.0
12.26953125,-125.9765625,-37.109375,-57.6171875,-42.96875,-124.51171875,0.0
12.2734375,-124.51171875,-46.875,-67.87109375,-51.26953125,-83.49609375,0.0
12.27734375,-94.7265625,-23.4375,-2.44140625,-48.828125,-68.84765625,0.0
12.28125,-71.77734375,-11.71875,55.17578125,-41.50390625,-112.3046875,0.0
12.28515625,-81.0546875,-22.4609375,-3.90625,-53.7109375,-77.1484375,0.0
12.2890625,-105.46875,-20.5078125,-49.8046875,-62.98828125,0.0,0.0
12.29296875,-112.79296875,-16.6015625,-29.78515625,-62.5,-14.16015625,0.0
12.296875,-113.28125,-33.69140625,46.875,-71.2890625,-51.26953125,0.0
12.30078125,-167.48046875,-29.296875,45.41015625,-78.125,-107.91015625,0.0
12.3046875,-279.78515625,-10.25390625,20.99609375,-64.453125,-83.49609375,0.0
12.30859375,-337.40234375,-11.71875,37.109375,-74.70703125,-35.15625,0.0
12.3125,-348.14453125,-14.6484375,26.3671875,-84.9609375,-36.1328125,0.0
12.31640625,-348.6328125,-24.90234375,4.39453125,-85.44921875,-6.8359375,0.0
12.3203125,-348.14453125,-30.2734375,4.39453125,-79.1015625,-33.203125,0.0
12.32421875,-343.26171875,-26.3671875,12.20703125,-79.1015625,-70.80078125,0.0
12.328125,-333.0078125,-34.1796875,3.90625,-92.7734375,-40.52734375,0.0
12.33203125,-313.96484375,-30.76171875,0.9765625,-87.890625,-19.53125,0.0
12.3359375,-298.828125,-29.78515625,-14.6484375,-89.35546875,-10.25390625,0.0
12.33984375,-294.43359375,-31.73828125,-27.83203125,-103.515625,-3.41796875,0.0
12.34375,-286.1328125,-49.31640625,-24.90234375,-110.83984375,11.71875,0.0
12.34765625,-302.24609375,-73.73046875,-20.99609375,-121.58203125,21.484375,0.0
12.3515625,-312.01171875,-54.6875,-20.5078125,-120.60546875,-5.859375,0.0
12.35546875,-276.85546875,-19.53125,-12.6953125,-100.5859375,-31.25,0.0
12.359375,-263.18359375,-20.99609375,-11.23046875,-90.33203125,-33.69140625,0.0
12.36328125,-267.08984375,-39.55078125,-13.671875,-83.49609375,-61.03515625,0.0
12.3671875,-259.27734375,-41.50390625,-15.625,-87.40234375,-98.6328125,0.0
12.37109375,-254.8828125,-50.78125,-21.97265625,-100.5859375,-73.73046875,0.0
12.375,-250.0,-48.33984375,-18.5546875,-112.3046875,-51.26953125,0.0
12.37890625,-237.3046875,-35.15625,-20.5078125,-105.46875,-48.33984375,0.0
12.3828125,-243.1640625,-42.48046875,-43.45703125,-87.40234375,-23.4375,0.0
12.38671875,-256.34765625,-53.22265625,-60.546875,-95.703125,0.9765625,0.0
12.390625,-254.39453125,-62.01171875,-55.17578125,-109.375,5.859375,0.0
12.39453125,-245.60546875,-60.05859375,-49.8046875,-109.86328125,1.46484375,0.0
12.3984375,-238.28125,-48.828125,-50.78125,-118.1640625,39.0625,0.0
12.40234375,-225.09765625,-42.48046875,-47.36328125,-122.55859375,31.25,0.0
12.40625,-206.0546875,-39.55078125,-43.45703125,-116.69921875,-14.16015625,0.0
12.41015625,-202.63671875,-26.85546875,-44.921875,-106.93359375,-18.06640625,0.0
12.4140625,-194.82421875,-23.92578125,-48.33984375,-105.95703125,-33.203125,0.0
12.41796875,-193.359375,-36.62109375,-43.9453125,-102.05078125,-3.90625,0.0
12.421875,-204.58984375,-42.96875,-46.875,-105.95703125,9.765625,0.0
12.42578125,-207.03125,-40.0390625,-43.9453125,-119.140625,-92.7734375,0.0
12.4296875,-199.21875,-36.62109375,-43.45703125,-142.08984375,-37.109375,0.0
12.43359375,-194.82421875,-38.0859375,-44.921875,-146.484375,31.73828125,0.0
12.4375,-191.40625,-40.0390625,-49.31640625,-128.41796875,45.8984375,0.0
12.44140625,-187.01171875,-34.66796875,-38.57421875,-135.7421875,123.046875,0.0
12.4453125,-179.6875,-24.4140625,-12.6953125,-133.7890625,54.19921875,0.0
12.44921875,-166.50390625,-28.3203125,-12.20703125,-117.1875,-60.546875,0.0
12.453125,-159.66796875,-29.296875,-13.671875,-113.28125,-72.75390625,0.0
12.45703125,-160.64453125,-20.01953125,-16.6015625,-125.48828125,-85.9375,0.0
12.4609375,-152.34375,-12.20703125,-31.73828125,-133.30078125,-110.83984375,0.0
12.46484375,-165.0390625,-17.578125,-48.828125,-150.390625,-118.65234375,0.0
12.46875,-167.96875,-27.83203125,-42.48046875,-143.5546875,-93.75,0.0
12.47265625,-146.97265625,-25.87890625,-22.4609375,-109.86328125,-50.29296875,0.0
12.4765625,-153.80859375,-25.87890625,-24.90234375,-99.609375,-94.7265625,0.0
12.48046875,-165.52734375,-27.83203125,-37.59765625,-102.5390625,-166.50390625,0.0
12.484375,-165.52734375,-32.2265625,-35.15625,-104.00390625,-115.234375,0.0
12.48828125,-160.64453125,-46.875,-37.109375,-107.91015625,-155.2734375,0.0
12.4921875,-150.87890625,-49.31640625,-41.015625,-112.3046875,-200.68359375,0.0
12.49609375,-146.97265625,-49.31640625,-39.55078125,-128.41796875,-83.49609375,0.0
12.5,-143.5546875,-34.1796875,-41.50390625,-119.140625,-16.11328125,0.0
12.50390625,-145.5078125,-17.08984375,-40.52734375,-105.46875,10.25390625,0.0
12.5078125,-152.83203125,-28.80859375,-38.57421875,-104.00390625,57.6171875,0.0
12.51171875,-151.3671875,-36.1328125,-33.69140625,-88.37890625,62.01171875,0.0
12.515625,-147.4609375,-28.3203125,-40.52734375,-83.984375,50.29296875,0.0
12.51953125,-148.4375,-19.04296875,-51.26953125,-97.65625,62.01171875,0.0
12.5234375,-157.2265625,-21.97265625,-59.08203125,-116.69921875,33.203125,0.0
12.52734375,-172.8515625,-26.85546875,-266.6015625,-125.0,-67.3828125,0.0
12.53125,-165.0390625,-37.109375,-533.69140625,-136.23046875,-73.2421875,0.0
12.53515625,-149.4140625,-43.9453125,-648.4375,-135.25390625,-20.99609375,0.0
12.5390625,-140.625,-46.38671875,-714.35546875,-136.71875,-9.27734375,0.0
12.54296875,-145.5078125,-51.26953125,-751.46484375,-146.97265625,8.30078125,0.0
12.546875,-146.484375,-37.59765625,-771.97265625,-146.97265625,-24.90234375,0.0
12.55078125,-151.3671875,-31.73828125,-788.0859375,-164.55078125,-25.87890625,0.0
12.5546875,-155.76171875,-38.57421875,-790.0390625,-174.8046875,48.33984375,0.0
12.55859375,-155.2734375,-46.38671875,-793.45703125,-183.59375,33.203125,0.0
12.5625,-163.57421875,-61.5234375,-801.7578125,-192.87109375,-69.3359375,0.0
12.56640625,-172.8515625,-61.03515625,-798.33984375,-193.84765625,-124.51171875,0.0
12.5703125,-166.50390625,-55.6640625,-781.73828125,-203.125,-45.41015625,0.0
12.57421875,-149.90234375,-62.5,-764.6484375,-193.359375,-1.46484375,0.0
12.578125,-132.32421875,-62.01171875,-750.0,-191.89453125,-45.41015625,0.0
12.58203125,-136.23046875,-67.3828125,-740.234375,-218.26171875,-20.5078125,0.0
12.5859375,-143.06640625,-99.609375,-734.86328125,-208.0078125,-1.953125,0.0
12.58984375,-135.7421875,-103.02734375,-717.7734375,-187.01171875,-79.58984375,0.0
12.59375,-132.32421875,-63.96484375,-687.01171875,-178.7109375,-93.26171875,0.0
12.59765625,-133.30078125,-42.96875,-652.34375,-163.57421875,-38.57421875,0.0
12.6015625,-142.578125,-39.55078125,-639.6484375,-158.203125,-50.29296875,0.0
12.60546875,-161.1328125,-56.15234375,-638.671875,-166.015625,-78.125,0.0
12.609375,-157.2265625,-54.6875,-612.3046875,-174.31640625,-101.5625,0.0
12.61328125,-165.52734375,-48.828125,-593.75,-166.9921875,-111.328125,0.0
12.6171875,-173.33984375,-63.4765625,-586.42578125,-163.0859375,-126.953125,0.0
12.62109375,-172.8515625,-65.4296875,-572.75390625,-166.015625,-100.09765625,0.0
12.625,-174.31640625,-55.6640625,-560.546875,-163.57421875,-127.9296875,0.0
12.62890625,-166.015625,-63.96484375,-546.875,-151.85546875,-108.3984375,0.0
12.6328125,-158.203125,-64.94140625,-521.97265625,-140.625,-57.12890625,0.0
12.63671875,-146.97265625,-51.26953125,-500.9765625,-130.37109375,-0.48828125,0.0
12.640625,-144.04296875,-54.19921875,-496.09375,-121.58203125,1.46484375,0.0
12.64453125,-139.6484375,-55.6640625,-486.81640625,-125.9765625,-42.48046875,0.0
12.6484375,-126.953125,-53.7109375,-476.07421875,-124.0234375,-12.6953125,0.0
12.65234375,-118.65234375,-56.15234375,-463.8671875,-130.37109375,26.85546875,0.0
12.65625,-122.0703125,-56.15234375,-447.75390625,-142.578125,-7.8125,0.0
12.66015625,-121.09375,-55.17578125,-441.89453125,-153.3203125,90.33203125,0.0
12.6640625,-106.93359375,-55.6640625,-431.15234375,-162.59765625,194.3359375,0.0
12.66796875,-98.6328125,-56.640625,-414.0625,-178.7109375,11.23046875,0.0
12.671875,-100.5859375,-60.05859375,-404.78515625,-173.828125,-67.3828125,0.0
12.67578125,-102.05078125,-62.98828125,-391.11328125,-158.203125,-135.25390625,0.0
12.6796875,-113.28125,-52.734375,-372.0703125,-162.59765625,-163.57421875,0.0
12.68359375,-123.046875,-54.6875,-366.2109375,-166.9921875,-104.00390625,0.0
12.6875,-134.765625,-64.453125,-361.328125,-178.22265625,-97.65625,0.0
12.69140625,-140.625,-58.10546875,-350.5859375,-185.546875,-93.75,0.0
12.6953125,-132.8125,-51.7578125,-331.54296875,-183.10546875,-83.49609375,0.0
12.69921875,-150.390625,-63.4765625,-326.171875,-198.2421875,-37.59765625,0.0
12.703125,-200.1953125,-75.1953125,-326.66015625,-239.74609375,-135.7421875,0.0
12.70703125,-221.6796875,-52.734375,-301.7578125,-258.7890625,-251.46484375,0.0
12.7109375,-250.0,-36.62109375,-289.55078125,-255.859375,-188.96484375,0.0
12.71484375,-310.546875,-38.57421875,-296.38671875,-290.52734375,-87.40234375,0.0
12.71875,-355.46875,-45.41015625,-298.33984375,-336.42578125,-26.3671875,0.0
12.72265625,-375.9765625,-62.5,-297.36328125,-359.86328125,-39.0625,0.0
12.7265625,-405.2734375,-58.59375,-297.8515625,-370.1171875,-4.8828125,0.0
12.73046875,-451.66015625,-46.875,-282.2265625,-406.73828125,42.48046875,0.0
12.734375,-472.16796875,-50.29296875,-271.484375,-441.40625,44.921875,0.0
12.73828125,-443.84765625,-56.15234375,-264.6484375,-419.43359375,96.19140625,0.0
12.7421875,-437.01171875,-45.8984375,-251.953125,-397.4609375,120.60546875,0.0
12.74609375,-441.89453125,-28.80859375,-246.09375,-404.296875,49.31640625,0.0
12.75,-439.94140625,-23.4375,-234.375,-393.5546875,17.578125,0.0
12.75390625,-422.8515625,-16.11328125,-224.609375,-357.91015625,52.734375,0.0
12.7578125,-393.5546875,-21.97265625,-216.30859375,-345.703125,19.53125,0.0
12.76171875,-380.859375,-39.55078125,-210.44921875,-321.2890625,-112.3046875,0.0
12.765625,-369.62890625,-44.43359375,-212.890625,-280.2734375,-85.44921875,0.0
12.76953125,-352.5390625,-48.828125,-217.7734375,-280.2734375,-11.71875,0.0
12.7734375,-338.8671875,-47.36328125,-221.6796875,-280.76171875,-20.99609375,0.0
12.77734375,-322.265625,-54.19921875,-224.609375,-250.0,-20.5078125,0.0
12.78125,-291.50390625,-73.73046875,-213.8671875,-215.8203125,-18.06640625,0.0
12.78515625,-246.58203125,-77.1484375,-197.265625,-197.75390625,-21.484375,0.0
12.7890625,-217.7734375,-65.91796875,-200.1953125,-194.3359375,6.34765625,0.0
12.79296875,-200.68359375,-63.96484375,-203.61328125,-164.0625,34.1796875,0.0
12.796875,-174.8046875,-68.359375,-202.1484375,-142.08984375,-40.0390625,0.0
12.80078125,-148.92578125,-67.87109375,-202.1484375,-136.71875,-23.4375,0.0
12.8046875,-138.671875,-70.3125,-203.125,-133.30078125,-14.6484375,0.0
12.80859375,-123.046875,-66.89453125,-208.984375,-123.046875,-20.99609375,0.0
12.8125,-87.890625,-70.80078125,-207.51953125,-94.23828125,40.0390625,0.0
12.81640625,-49.31640625,-62.5,-194.82421875,-73.73046875,33.203125,0.0
12.8203125,-18.5546875,-49.31640625,-182.12890625,-56.15234375,46.875,0.0
12.82421875,16.6015625,-57.6171875,-178.7109375,-45.8984375,83.984375,0.0
12.828125,34.66796875,-40.52734375,-176.26953125,-56.15234375,49.8046875,0.0
12.83203125,40.0390625,-25.390625,-179.19921875,-51.7578125,32.2265625,0.0
12.8359375,44.43359375,-42.96875,-190.4296875,-44.43359375,62.01171875,0.0
12.83984375,39.55078125,-66.40625,-206.0546875,-57.12890625,29.296875,0.0
12.84375,30.76171875,-68.359375,-204.1015625,-56.15234375,21.97265625,0.0
12.84765625,13.18359375,-68.84765625,-196.2890625,-45.41015625,35.64453125,0.0
12.8515625,9.765625,-78.125,-192.3828125,-31.73828125,37.59765625,0.0
12.85546875,3.41796875,-76.66015625,-182.6171875,-36.62109375,22.4609375,0.0
12.859375,-5.859375,-71.77734375,-174.31640625,-44.921875,-20.01953125,0.0
12.86328125,-0.9765625,-77.1484375,-168.45703125,-43.9453125,-15.13671875,0.0
12.8671875,-12.20703125,-74.70703125,-164.0625,-68.84765625,-38.57421875,0.0
12.87109375,-24.4140625,-68.359375,-162.59765625,-62.5,-46.38671875,0.0
12.875,-31.73828125,-62.01171875,-160.15625,-43.9453125,7.32421875,0.0
12.87890625,-14.6484375,-55.17578125,-154.296875,-43.9453125,-31.25,0.0
12.8828125,-8.7890625,-68.84765625,-160.64453125,-41.9921875,-115.72265625,0.0
12.88671875,-13.671875,-82.03125,-162.59765625,-48.33984375,-63.4765625,0.0
12.890625,-9.765625,-70.3125,-146.484375,-39.0625,-136.23046875,0.0
12.89453125,-26.3671875,-56.640625,-145.01953125,-51.7578125,-191.89453125,0.0
12.8984375,-17.578125,-45.41015625,-140.625,-62.01171875,-129.39453125,0.0
12.90234375,-8.7890625,-38.0859375,-123.046875,-59.08203125,-61.03515625,0.0
12.90625,-27.34375,-41.50390625,-119.140625,-60.05859375,-38.0859375,0.0
12.91015625,-32.2265625,-50.29296875,-121.58203125,-52.24609375,-54.19921875,0.0
12.9140625,-30.76171875,-62.01171875,-116.2109375,-44.921875,-38.0859375,0.0
12.91796875,-21.97265625,-59.5703125,-110.3515625,-52.24609375,-107.421875,0.0
12.921875,11.71875,-38.57421875,-93.75,-37.109375,-36.62109375,0.0
12.92578125,13.671875,-31.25,-92.7734375,-23.4375,-17.08984375,0.0
12.9296875,-5.859375,-34.1796875,-101.5625,-40.0390625,-17.578125,0.0
12.93359375,-21.484375,-36.1328125,-83.984375,-37.109375,90.8203125,0.0
12.9375,-27.83203125,-41.9921875,-73.2421875,-33.69140625,41.50390625,0.0
12.94140625,-12.6953125,-39.0625,-81.0546875,-24.90234375,-32.71484375,0.0
12.9453125,-14.16015625,-29.296875,-80.56640625,-22.4609375,-4.8828125,0.0
12.94921875,-20.99609375,-17.578125,-70.80078125,-26.85546875,-58.59375,0.0
12.953125,-17.578125,-14.16015625,-61.03515625,-34.1796875,-107.421875,0.0
12.95703125,-24.4140625,-25.390625,-59.5703125,-28.3203125,-134.27734375,0.0
12.9609375,-31.25,-37.109375,-52.24609375,-20.01953125,-128.90625,0.0
12.96484375,-35.64453125,-41.9921875,-53.7109375,-19.53125,-124.0234375,0.0
12.96875,-39.0625,-26.85546875,-59.08203125,-8.7890625,-109.86328125,0.0
12.97265625,-61.5234375,-19.04296875,-62.5,-20.01953125,-120.1171875,0.0
12.9765625,-80.56640625,-30.2734375,-67.3828125,-40.52734375,-148.92578125,0.0
12.98046875,-73.73046875,-37.109375,-57.12890625,-37.59765625,-151.3671875,0.0
12.984375,-56.15234375,-33.69140625,-58.10546875,-35.15625,-155.76171875,0.0
12.98828125,-59.08203125,-20.01953125,-67.87109375,-35.15625,-156.73828125,0.0
12.9921875,-58.59375,-11.71875,-59.08203125,-14.6484375,-123.53515625,0.0
12.99609375,-55.6640625,-24.90234375,-60.546875,-16.11328125,-54.19921875,0.0
13.0,-59.08203125,-38.0859375,-80.078125,-46.38671875,-79.1015625,0.0
13.00390625,-51.7578125,-49.31640625,-85.44921875,-48.828125,-44.43359375,0.0
13.0078125,-27.34375,-43.45703125,-66.89453125,-41.50390625,9.765625,0.0
13.01171875,-41.9921875,-36.62109375,-64.453125,-46.38671875,49.8046875,0.0
13.015625,-74.21875,-40.0390625,-86.9140625,-57.6171875,64.94140625,0.0
13.01953125,-76.171875,-43.45703125,-93.75,-75.1953125,48.33984375,0.0
13.0234375,-79.1015625,-45.8984375,-89.84375,-92.28515625,49.8046875,0.0
13.02734375,-83.49609375,-56.640625,-91.796875,-82.51953125,82.03125,0.0
13.03125,-79.1015625,-61.03515625,-81.54296875,-72.265625,132.8125,0.0
13.03515625,-85.9375,-45.8984375,-71.77734375,-61.5234375,50.29296875,0.0
13.0390625,-94.23828125,-46.38671875,-63.4765625,-46.875,-0.9765625,0.0
13.04296875,-88.8671875,-53.22265625,-50.29296875,-37.59765625,43.9453125,0.0
13.046875,-95.703125,-51.7578125,-50.29296875,-22.4609375,10.7421875,0.0
13.05078125,-94.7265625,-47.36328125,-53.7109375,-41.50390625,-13.18359375,0.0
13.0546875,-69.82421875,-37.109375,-55.17578125,-58.10546875,-42.48046875,0.0
13.05859375,-79.1015625,-38.57421875,-63.96484375,-50.29296875,-111.328125,0.0
13.0625,-79.1015625,-49.8046875,-70.3125,-62.98828125,5.859375,0.0
13.06640625,-74.70703125,-50.78125,-69.3359375,-68.359375,46.875,0.0
13.0703125,-71.77734375,-43.9453125,-65.4296875,-56.15234375,32.2265625,0.0
13.07421875,-64.453125,-41.50390625,-60.05859375,-53.7109375,18.06640625,0.0
13.078125,-68.84765625,-45.8984375,-56.15234375,-53.22265625,-52.24609375,0.0
13.08203125,-58.10546875,-41.9921875,-50.78125,-42.96875,-59.08203125,0.0
13.0859375,-49.31640625,-35.15625,-44.43359375,-42.96875,-49.31640625,0.0
13.08984375,-69.3359375,-41.50390625,-45.8984375,-43.45703125,-47.36328125,0.0
13.09375,-81.0546875,-49.31640625,-50.78125,-35.15625,-5.37109375,0.0
13.09765625,-56.15234375,-39.55078125,-46.38671875,-33.69140625,0.48828125,0.0
13.1015625,-38.57421875,-29.78515625,-43.45703125,-26.3671875,-10.7421875,0.0
13.10546875,-59.08203125,-35.64453125,-52.734375,-26.85546875,-7.32421875,0.0
13.109375,-58.59375,-32.2265625,-53.22265625,-23.92578125,-3.41796875,0.0
13.11328125,-26.3671875,-22.94921875,-45.41015625,-14.16015625,-2.9296875,0.0
13.1171875,-20.01953125,-21.484375,-38.0859375,-10.7421875,-20.01953125,0.0
13.12109375,-25.87890625,-18.06640625,-35.15625,-17.08984375,-39.0625,0.0
13.125,-27.34375,-28.3203125,-37.109375,-10.7421875,-15.13671875,0.0
13.12890625,-15.13671875,-41.015625,-34.1796875,-2.44140625,-29.296875,0.0
13.1328125,4.39453125,-28.80859375,-29.296875,-3.90625,-30.76171875,0.0
13.13671875,-4.39453125,-19.04296875,-25.87890625,-17.578125,19.04296875,0.0
13.140625,-24.90234375,-36.1328125,-23.92578125,-36.1328125,21.484375,0.0
13.14453125,-37.59765625,-49.31640625,-32.2265625,-30.76171875,71.77734375,0.0
13.1484375,-44.921875,-49.31640625,-46.875,-38.0859375,0.0,0.0
13.15234375,-44.921875,-43.45703125,-43.9453125,-59.5703125,-71.2890625,0.0
13.15625,-46.875,-45.41015625,-38.0859375,-43.45703125,-9.765625,0.0
13.16015625,-55.6640625,-52.734375,-40.0390625,-27.83203125,-51.26953125,0.0
13.1640625,-55.17578125,-44.43359375,-35.15625,-37.109375,-69.3359375,0.0
13.16796875,-54.19921875,-27.83203125,-30.76171875,-34.66796875,-5.859375,0.0
13.171875,-74.21875,-35.15625,-39.55078125,-51.26953125,31.25,0.0
13.17578125,-63.96484375,-43.45703125,-30.76171875,-52.24609375,47.36328125,0.0
13.1796875,-30.76171875,-36.62109375,-14.6484375,-29.296875,21.484375,0.0
13.18359375,-48.33984375,-38.0859375,-27.34375,-32.2265625,-43.9453125,0.0
13.1875,-41.9921875,-27.83203125,-26.85546875,-31.25,-94.7265625,0.0
13.19140625,-14.6484375,-9.27734375,-14.16015625,-11.71875,-112.3046875,0.0
13.1953125,-15.625,3.90625,-8.7890625,-4.39453125,-64.94140625,0.0
13.19921875,-32.71484375,-4.8828125,-18.5546875,-22.94921875,-23.4375,0.0
13.203125,-49.8046875,-31.25,-31.25,-40.0390625,-1.46484375,0.0
13.20703125,-50.78125,-23.92578125,-23.92578125,-25.87890625,16.11328125,0.0
13.2109375,-23.4375,-1.953125,-10.7421875,-7.32421875,36.1328125,0.0
13.21484375,-5.37109375,0.0,-0.48828125,7.8125,50.78125,0.0
13.21875,-21.484375,2.9296875,3.90625,8.30078125,-16.6015625,0.0
13.22265625,-28.3203125,2.44140625,-0.48828125,2.9296875,-106.4453125,0.0
13.2265625,-23.4375,5.859375,0.0,13.671875,-55.6640625,0.0
13.23046875,-9.27734375,11.23046875,-1.46484375,14.6484375,-15.13671875,0.0
13.234375,-4.8828125,2.44140625,-7.32421875,5.859375,-15.625,0.0
13.23828125,-30.76171875,-14.6484375,-10.25390625,14.6484375,-7.32421875,0.0
13.2421875,-32.2265625,-11.71875,-11.23046875,27.34375,-22.4609375,0.0
13.24609375,-26.85546875,-6.34765625,-13.671875,8.30078125,-64.453125,0.0
13.25,-41.015625,-17.578125,-16.11328125,-13.18359375,-35.15625,0.0
13.25390625,-34.66796875,-17.08984375,-10.25390625,0.9765625,8.7890625,0.0
13.2578125,-20.99609375,-8.30078125,0.0,18.5546875,-6.8359375,0.0
13.26171875,-37.59765625,-18.06640625,0.0,13.671875,-5.37109375,0.0
13.265625,-31.25,-20.5078125,9.765625,12.6953125,-12.20703125,0.0
13.26953125,-2.44140625,-8.30078125,11.23046875,6.34765625,-3.90625,0.0
13.2734375,10.7421875,11.23046875,12.6953125,8.7890625,-0.48828125,0.0
13.27734375,15.13671875,20.01953125,12.6953125,21.484375,-39.0625,0.0
13.28125,6.8359375,21.97265625,5.37109375,15.13671875,-32.2265625,0.0
13.28515625,-11.23046875,7.32421875,1.953125,13.18359375,29.296875,0.0
13.2890625,-1.46484375,-6.8359375,-4.39453125,15.625,106.4453125,0.0
13.29296875,17.578125,-1.953125,2.44140625,14.16015625,65.91796875,0.0
13.296875,20.99609375,2.9296875,5.37109375,6.34765625,-62.98828125,0.0
13.30078125,22.4609375,3.41796875,3.90625,18.06640625,-68.359375,0.0
13.3046875,17.08984375,7.32421875,8.30078125,32.71484375,-26.3671875,0.0
13.30859375,18.06640625,3.90625,7.32421875,31.73828125,-53.7109375,0.0
13.3125,26.3671875,1.46484375,1.953125,28.80859375,-115.234375,0.0
13.31640625,16.11328125,15.13671875,-0.9765625,20.99609375,-130.37109375,0.0
13.3203125,12.6953125,7.8125,-5.859375,28.80859375,-74.70703125,0.0
13.32421875,13.671875,-12.20703125,-6.34765625,28.80859375,-140.625,0.0
13.328125,-8.30078125,-20.5078125,-3.90625,5.37109375,-176.26953125,0.0
13.33203125,4.39453125,-10.7421875,-2.44140625,1.46484375,-175.29296875,0.0
13.3359375,18.06640625,3.41796875,1.953125,15.625,-70.3125,0.0
13.33984375,1.953125,0.9765625,14.6484375,32.71484375,-19.53125,0.0
13.34375,-4.8828125,-15.13671875,21.484375,28.3203125,-115.234375,0.0
13.34765625,-13.18359375,-25.390625,17.578125,-2.44140625,-142.578125,0.0
13.3515625,-11.23046875,-17.578125,9.27734375,6.8359375,-71.2890625,0.0
13.35546875,-11.71875,-17.578125,4.8828125,16.11328125,2.44140625,0.0
13.359375,-35.15625,-43.9453125,5.859375,8.30078125,-87.890625,0.0
13.36328125,-34.66796875,-53.7109375,0.9765625,10.7421875,-188.96484375,0.0
13.3671875,-12.20703125,-21.484375,1.953125,33.69140625,-112.3046875,0.0
13.37109375,8.7890625,8.7890625,12.6953125,56.640625,-66.89453125,0.0
13.375,6.8359375,13.18359375,23.92578125,41.50390625,-36.1328125,0.0
13.37890625,-8.30078125,9.27734375,35.64453125,47.8515625,32.71484375,0.0
13.3828125,-17.578125,-1.46484375,33.69140625,50.29296875,-83.0078125,0.0
13.38671875,-26.85546875,-4.8828125,28.80859375,22.94921875,-146.484375,0.0
13.390625,-17.08984375,-18.5546875,23.92578125,18.5546875,-160.64453125,0.0
13.39453125,-5.37109375,-27.34375,12.6953125,34.1796875,-173.828125,0.0
13.3984375,-3.41796875,-6.34765625,11.71875,48.33984375,-27.34375,0.0
13.40234375,2.9296875,8.30078125,15.625,43.45703125,62.98828125,0.0
13.40625,-0.9765625,-0.9765625,18.06640625,34.66796875,25.87890625,0.0
13.41015625,6.8359375,-7.8125,12.6953125,23.92578125,-13.18359375,0.0
13.4140625,25.390625,2.9296875,12.6953125,38.57421875,-26.3671875,0.0
13.41796875,32.2265625,1.953125,18.06640625,58.10546875,32.2265625,0.0
13.421875,34.66796875,-1.953125,13.671875,52.734375,90.33203125,0.0
13.42578125,37.59765625,-2.44140625,21.97265625,50.78125,107.91015625,0.0
13.4296875,35.15625,-6.34765625,23.92578125,41.9921875,103.515625,0.0
13.43359375,19.53125,-9.765625,17.578125,35.64453125,24.90234375,0.0
13.4375,23.92578125,-10.25390625,21.484375,51.7578125,22.94921875,0.0
13.44140625,40.52734375,-5.37109375,23.92578125,59.08203125,-12.20703125,0.0
13.4453125,30.2734375,-0.9765625,23.4375,62.98828125,-31.73828125,0.0
13.44921875,30.76171875,6.8359375,33.203125,51.26953125,15.625,0.0
13.453125,33.203125,11.71875,37.109375,37.59765625,35.15625,0.0
13.45703125,28.80859375,-9.27734375,30.2734375,52.734375,41.9921875,0.0
13.4609375,30.2734375,-10.7421875,31.25,54.6875,95.703125,0.0
13.46484375,26.3671875,7.32421875,23.4375,54.19921875,60.546875,0.0
13.46875,34.1796875,14.16015625,19.53125,52.24609375,-24.90234375,0.0
13.47265625,52.24609375,9.27734375,16.6015625,37.109375,-21.97265625,0.0
13.4765625,59.5703125,-9.765625,13.671875,40.52734375,-27.34375,0.0
13.48046875,60.546875,-13.671875,15.13671875,38.57421875,-5.37109375,0.0
13.484375,50.78125,-4.8828125,7.32421875,36.62109375,-36.1328125,0.0
13.48828125,51.7578125,-0.9765625,0.9765625,43.45703125,-15.13671875,0.0
13.4921875,66.40625,3.41796875,13.18359375,56.640625,-14.16015625,0.0
13.49609375,69.82421875,1.46484375,20.99609375,55.17578125,-10.7421875,0.0
13.5,59.08203125,-11.71875,11.71875,34.66796875,-121.09375,0.0
13.50390625,47.36328125,-11.23046875,8.7890625,31.73828125,-126.46484375,0.0
13.5078125,53.7109375,6.34765625,22.4609375,54.6875,-48.33984375,0.0
13.51171875,72.265625,23.4375,27.34375,66.89453125,-16.11328125,0.0
13.515625,88.8671875,17.578125,15.625,54.6875,-21.484375,0.0
13.51953125,97.65625,16.6015625,18.06640625,62.98828125,-82.51953125,0.0
13.5234375,89.84375,15.13671875,24.4140625,78.125,-74.21875,0.0
13.52734375,83.984375,-19.53125,18.5546875,84.9609375,-72.75390625,0.0
13.53125,76.171875,-32.2265625,10.25390625,73.2421875,-30.76171875,0.0
13.53515625,80.56640625,0.0,22.4609375,73.2421875,-65.4296875,0.0
13.5390625,86.42578125,15.13671875,27.34375,76.171875,-92.7734375,0.0
13.54296875,71.77734375,13.18359375,18.06640625,73.73046875,1.46484375,0.0
13.546875,66.40625,13.671875,14.6484375,82.51953125,13.18359375,0.0
13.55078125,43.9453125,2.44140625,-2.9296875,62.98828125,-12.20703125,0.0
13.5546875,42.96875,-0.9765625,-11.23046875,49.31640625,9.765625,0.0
13.55859375,45.8984375,11.23046875,-18.06640625,73.2421875,27.83203125,0.0
13.5625,30.76171875,2.44140625,-31.73828125,77.63671875,49.31640625,0.0
13.56640625,24.4140625,-13.18359375,-34.66796875,60.05859375,36.1328125,0.0
13.5703125,37.59765625,-5.37109375,-30.2734375,67.3828125,41.015625,0.0
13.57421875,48.33984375,1.953125,-31.73828125,75.1953125,-38.0859375,0.0
13.578125,50.78125,-11.71875,-27.34375,62.98828125,-61.03515625,0.0
13.58203125,52.734375,-20.5078125,-21.484375,56.640625,34.1796875,0.0
13.5859375,50.29296875,-11.71875,-25.87890625,44.921875,19.04296875,0.0
13.58984375,53.22265625,-4.39453125,-26.3671875,26.3671875,-101.5625,0.0
13.59375,60.05859375,-7.32421875,-25.87890625,24.4140625,-169.43359375,0.0
13.59765625,52.24609375,-4.8828125,-28.80859375,19.53125,-241.2109375,0.0
13.6015625,53.22265625,7.32421875,-26.85546875,25.390625,-222.16796875,0.0
13.60546875,52.734375,12.6953125,-20.5078125,35.15625,-157.71484375,0.0
13.609375,61.5234375,8.30078125,-16.6015625,38.57421875,-123.53515625,0.0
13.61328125,69.82421875,19.53125,-5.859375,51.7578125,-78.61328125,0.0
13.6171875,65.91796875,30.76171875,6.8359375,68.359375,-107.421875,0.0
13.62109375,65.4296875,18.5546875,-1.46484375,54.6875,-107.421875,0.0
13.625,64.453125,12.6953125,-2.9296875,50.78125,-89.35546875,0.0
13.62890625,52.734375,6.34765625,-1.46484375,63.4765625,-58.59375,0.0
13.6328125,41.015625,-20.5078125,-16.11328125,42.48046875,-46.38671875,0.0
13.63671875,49.8046875,-16.6015625,-16.11328125,41.9921875,-71.77734375,0.0
13.640625,59.08203125,6.8359375,-5.859375,50.78125,-99.609375,0.0
13.64453125,47.36328125,14.6484375,-11.23046875,52.734375,-167.96875,0.0
13.6484375,42.96875,13.18359375,-12.6953125,59.5703125,-223.6328125,0.0
13.65234375,43.9453125,9.27734375,-12.6953125,59.08203125,-78.61328125,0.0
13.65625,56.15234375,15.13671875,-9.765625,51.26953125,67.3828125,0.0
13.66015625,49.31640625,7.32421875,-13.671875,43.9453125,69.82421875,0.0
13.6640625,28.80859375,-1.953125,-22.4609375,41.50390625,90.33203125,0.0
13.66796875,24.90234375,1.46484375,-14.6484375,40.0390625,39.55078125,0.0
13.671875,39.0625,-18.5546875,-11.71875,43.45703125,86.9140625,0.0
13.67578125,42.48046875,-25.87890625,-12.6953125,43.45703125,104.4921875,0.0
13.6796875,39.55078125,-1.46484375,-15.13671875,51.7578125,36.1328125,0.0
13.68359375,49.8046875,6.8359375,-17.08984375,38.0859375,88.8671875,0.0
13.6875,52.734375,9.765625,-15.625,26.3671875,120.60546875,0.0
13.69140625,66.89453125,5.859375,-17.08984375,41.015625,21.97265625,0.0
13.6953125,87.40234375,0.48828125,-14.16015625,55.17578125,-26.3671875,0.0
13.69921875,98.6328125,14.16015625,-5.37109375,62.98828125,4.39453125,0.0
13.703125,88.8671875,17.578125,1.953125,57.12890625,12.20703125,0.0
13.70703125,71.77734375,7.32421875,0.48828125,31.25,-11.71875,0.0
13.7109375,67.87109375,2.44140625,-4.8828125,36.62109375,12.6953125,0.0
13.71484375,60.546875,-2.9296875,0.9765625,57.6171875,78.125,0.0
13.71875,53.7109375,-6.34765625,6.34765625,52.24609375,115.234375,0.0
13.72265625,50.29296875,5.859375,5.37109375,51.7578125,39.55078125,0.0
13.7265625,41.50390625,7.8125,0.9765625,48.33984375,-10.7421875,0.0
13.73046875,50.78125,6.8359375,4.39453125,59.5703125,3.41796875,0.0
13.734375,49.8046875,16.11328125,13.671875,66.89453125,75.1953125,0.0
13.73828125,40.52734375,17.08984375,8.7890625,41.9921875,49.8046875,0.0
13.7421875,28.80859375,6.34765625,-0.9765625,30.2734375,-57.12890625,0.0
13.74609375,35.15625,3.41796875,0.48828125,35.15625,-111.328125,0.0
13.75,39.0625,1.46484375,-0.9765625,33.69140625,-150.87890625,0.0
13.75390625,50.78125,13.18359375,1.953125,43.45703125,-154.296875,0.0
13.7578125,57.6171875,5.37109375,-1.953125,40.52734375,-188.4765625,0.0
13.76171875,48.828125,-11.71875,-3.41796875,30.2734375,-173.33984375,0.0
13.765625,42.48046875,-10.25390625,1.953125,29.296875,-123.046875,0.0
13.76953125,27.83203125,0.9765625,0.48828125,32.71484375,-92.7734375,0.0
13.7734375,21.97265625,12.6953125,-5.37109375,28.80859375,48.828125,0.0
13.77734375,15.13671875,4.39453125,-15.625,29.78515625,120.60546875,0.0
13.78125,7.32421875,-10.7421875,-14.16015625,35.15625,13.671875,0.0
13.78515625,-1.953125,-14.16015625,-7.8125,39.0625,-45.41015625,0.0
13.7890625,12.6953125,-14.16015625,-6.34765625,54.6875,-9.27734375,0.0
13.79296875,7.32421875,-17.08984375,-7.8125,51.26953125,-6.8359375,0.0
13.796875,-9.27734375,-7.8125,-15.13671875,31.73828125,-37.59765625,0.0
13.80078125,-4.8828125,5.37109375,-15.625,27.34375,-65.91796875,0.0
13.8046875,-8.7890625,-3.41796875,-15.13671875,12.20703125,-6.8359375,0.0
13.80859375,-38.57421875,-18.5546875,-29.78515625,-11.23046875,130.37109375,0.0
13.8125,-42.48046875,-19.53125,-41.015625,-8.30078125,110.83984375,0.0
13.81640625,-35.64453125,-18.5546875,-39.0625,6.34765625,81.0546875,0.0
13.8203125,-49.31640625,-37.109375,-39.55078125,2.9296875,108.88671875,0.0
13.82421875,-49.31640625,-46.875,-48.33984375,-6.8359375,41.50390625,0.0
13.828125,-46.38671875,-33.69140625,-47.8515625,-9.765625,-2.9296875,0.0
13.83203125,-47.8515625,-20.5078125,-34.1796875,-15.625,-10.7421875,0.0
13.8359375,-47.36328125,-18.06640625,-32.2265625,-17.08984375,-10.25390625,0.0
13.83984375,-37.109375,-17.578125,-42.48046875,-5.859375,-41.9921875,0.0
13.84375,-22.94921875,3.41796875,-29.78515625,23.4375,-16.11328125,0.0
13.84765625,-35.15625,4.39453125,-22.4609375,27.34375,33.203125,0.0
13.8515625,-35.64453125,-9.765625,-21.484375,29.78515625,11.23046875,0.0
13.85546875,-19.53125,-8.30078125,-14.6484375,38.0859375,-8.30078125,0.0
13.859375,-31.25,-11.23046875,-17.578125,35.64453125,-20.5078125,0.0
13.86328125,-31.25,-16.6015625,-22.94921875,53.22265625,15.13671875,0.0
13.8671875,-29.78515625,-17.578125,-23.92578125,46.38671875,30.2734375,0.0
13.87109375,-39.55078125,-19.53125,-21.97265625,16.6015625,-25.390625,0.0
13.875,-21.484375,-17.08984375,-13.18359375,30.76171875,8.30078125,0.0
13.87890625,-7.8125,-21.97265625,-13.18359375,43.9453125,78.61328125,0.0
13.8828125,-14.6484375,-32.2265625,-31.73828125,34.66796875,-29.296875,0.0
13.88671875,-7.32421875,-29.78515625,-26.3671875,45.41015625,-182.6171875,0.0
13.890625,3.90625,-16.11328125,-20.5078125,34.1796875,-147.94921875,0.0
13.89453125,10.25390625,-9.765625,-21.97265625,7.8125,-118.1640625,0.0
13.8984375,0.48828125,-17.08984375,-21.97265625,2.9296875,-105.95703125,0.0
13.90234375,-12.6953125,-9.27734375,-25.87890625,18.5546875,-48.33984375,0.0
13.90625,-1.953125,2.44140625,-19.53125,45.8984375,-53.7109375,0.0
13.91015625,6.8359375,11.71875,-8.7890625,52.734375,-20.99609375,0.0
13.9140625,1.953125,19.04296875,-6.34765625,38.57421875,27.34375,0.0
13.91796875,5.859375,10.25390625,-16.11328125,33.203125,19.04296875,0.0
13.921875,17.08984375,20.99609375,-10.7421875,17.08984375,3.90625,0.0
13.92578125,19.04296875,28.3203125,-1.46484375,21.97265625,-35.15625,0.0
13.9296875,18.5546875,11.23046875,1.953125,44.921875,-16.6015625,0.0
13.93359375,27.83203125,13.671875,-5.859375,35.15625,-15.13671875,0.0
13.9375,25.390625,19.04296875,-13.671875,16.6015625,-36.62109375,0.0
13.94140625,28.3203125,8.30078125,-0.9765625,22.4609375,-53.7109375,0.0
13.9453125,27.83203125,15.13671875,9.765625,40.0390625,-60.546875,0.0
13.94921875,0.9765625,11.23046875,-5.859375,28.3203125,-34.66796875,0.0
13.953125,-0.48828125,-3.90625,-17.578125,29.78515625,-73.73046875,0.0
13.95703125,9.27734375,-4.8828125,-11.71875,41.9921875,-121.09375,0.0
13.9609375,14.16015625,4.39453125,-1.46484375,41.015625,-41.50390625,0.0
13.96484375,7.8125,2.44140625,-6.34765625,45.41015625,40.52734375,0.0
13.96875,16.6015625,9.27734375,-3.90625,58.59375,47.36328125,0.0
13.97265625,19.53125,-0.48828125,0.9765625,51.7578125,-24.90234375,0.0
13.9765625,13.671875,-3.41796875,3.90625,51.26953125,-22.4609375,0.0
13.98046875,26.3671875,21.97265625,11.71875,75.68359375,83.984375,0.0
13.984375,20.01953125,21.484375,-7.32421875,56.640625,30.2734375,0.0
13.98828125,13.18359375,11.23046875,-14.6484375,40.0390625,-82.03125,0.0
13.9921875,7.8125,1.953125,-3.41796875,41.015625,-84.9609375,0.0
13.99609375,5.859375,-0.48828125,-6.8359375,30.2734375,-13.18359375,0.0
14.0,1.953125,-5.859375,-19.53125,28.80859375,37.109375,0.0
14.00390625,-1.46484375,-16.6015625,-27.34375,27.34375,-35.64453125,0.0
14.0078125,-18.5546875,-22.94921875,-34.66796875,6.34765625,-16.6015625,0.0
14.01171875,-45.41015625,-33.203125,-38.57421875,-3.90625,-6.34765625,0.0
14.015625,-36.1328125,-25.390625,-38.57421875,-2.44140625,22.94921875,0.0
14.01953125,-8.7890625,-14.6484375,-32.71484375,-9.27734375,35.15625,0.0
14.0234375,-4.8828125,-14.16015625,-23.4375,-4.39453125,-47.8515625,0.0
14.02734375,-6.34765625,-16.11328125,-24.4140625,-1.46484375,-103.515625,0.0
14.03125,-0.9765625,-14.16015625,-22.4609375,8.7890625,-7.32421875,0.0
14.03515625,-9.27734375,-23.4375,-27.83203125,13.671875,51.26953125,0.0
14.0390625,-4.39453125,-24.90234375,-30.2734375,-3.90625,-61.03515625,0.0
14.04296875,-5.37109375,-20.99609375,-30.2734375,-25.87890625,-135.25390625,0.0
14.046875,-25.390625,-32.71484375,-41.9921875,-20.01953125,-136.23046875,0.0
14.05078125,-32.2265625,-36.1328125,-45.41015625,-15.13671875,-139.16015625,0.0
14.0546875,-31.73828125,-29.78515625,-39.55078125,-17.578125,-194.3359375,0.0
14.05859375,-24.4140625,-30.2734375,-38.0859375,-10.7421875,-177.24609375,0.0
14.0625,-31.73828125,-24.4140625,-34.1796875,-8.7890625,-113.76953125,0.0
14.06640625,-35.15625,-27.34375,-31.25,-6.8359375,-73.73046875,0.0
14.0703125,-20.01953125,-37.59765625,-31.25,4.39453125,-24.90234375,0.0
14.07421875,-32.2265625,-36.62109375,-34.66796875,13.671875,-27.83203125,0.0
14.078125,-39.55078125,-26.3671875,-27.34375,12.6953125,-19.04296875,0.0
14.08203125,-30.2734375,-16.11328125,-25.390625,5.859375,-155.76171875,0.0
14.0859375,-24.90234375,-15.625,-26.85546875,4.8828125,-234.86328125,0.0
14.08984375,-30.2734375,-18.06640625,-18.5546875,5.859375,-161.62109375,0.0
14.09375,-29.78515625,-20.01953125,-17.578125,8.7890625,-182.6171875,0.0
14.09765625,-36.62109375,-24.4140625,-27.83203125,2.44140625,-156.73828125,0.0
14.1015625,-46.875,-22.94921875,-37.109375,-18.06640625,12.20703125,0.0
14.10546875,-49.8046875,-23.4375,-38.57421875,-45.41015625,94.7265625,0.0
14.109375,-56.640625,-25.87890625,-41.9921875,-37.59765625,18.06640625,0.0
14.11328125,-57.6171875,-27.83203125,-42.48046875,-17.08984375,-32.71484375,0.0
14.1171875,-59.08203125,-28.80859375,-47.8515625,-32.71484375,-41.50390625,0.0
14.12109375,-57.6171875,-20.5078125,-46.38671875,-67.3828125,-50.29296875,0.0
14.125,-76.171875,-23.4375,-42.48046875,-90.8203125,-93.75,0.0
14.12890625,-97.65625,-37.109375,-54.6875,-82.03125,17.08984375,0.0
14.1328125,-86.9140625,-41.015625,-56.640625,-57.12890625,57.6171875,0.0
14.13671875,-80.078125,-21.484375,-41.015625,-41.015625,11.23046875,0.0
14.140625,-73.2421875,-1.46484375,-29.296875,-38.0859375,63.96484375,0.0
14.14453125,-74.70703125,-13.18359375,-40.0390625,-33.203125,62.01171875,0.0
14.1484375,-67.87109375,-18.06640625,-41.50390625,-62.98828125,8.30078125,0.0
14.15234375,-56.15234375,-10.25390625,-26.85546875,-85.44921875,-23.92578125,0.0
14.15625,-53.22265625,-2.44140625,-14.6484375,-55.17578125,0.0,0.0
14.16015625,-68.359375,-6.8359375,-19.53125,-62.98828125,-76.66015625,0.0
14.1640625,-83.49609375,8.7890625,-21.97265625,-57.12890625,-45.41015625,0.0
14.16796875,-87.890625,20.99609375,-8.30078125,-38.57421875,62.01171875,0.0
14.171875,-87.40234375,0.0,-2.44140625,-39.0625,60.05859375,0.0
14.17578125,-120.60546875,-11.23046875,-20.01953125,-50.29296875,-26.3671875,0.0
14.1796875,-156.25,-9.765625,-21.97265625,-72.265625,-84.9609375,0.0
14.18359375,-172.36328125,-5.859375,-14.16015625,-94.23828125,-48.828125,0.0
14.1875,-211.9140625,-16.11328125,-35.15625,-135.7421875,-52.24609375,0.0
14.19140625,-232.421875,-18.06640625,-48.33984375,-187.01171875,-105.95703125,0.0
14.1953125,-243.65234375,-4.8828125,-38.0859375,-230.95703125,-94.23828125,0.0
14.19921875,-275.390625,-16.11328125,-38.0859375,-295.8984375,-36.1328125,0.0
14.203125,-282.2265625,-23.4375,-33.69140625,-340.8203125,-7.32421875,0.0
14.20703125,-293.9453125,-35.64453125,-33.203125,-362.3046875,-9.27734375,0.0
14.2109375,-297.36328125,-43.9453125,-32.2265625,-396.484375,-10.7421875,0.0
14.21484375,-295.41015625,-25.87890625,-23.92578125,-410.64453125,-4.39453125,0.0
14.21875,-283.203125,-12.6953125,-19.04296875,-411.62109375,-7.8125,0.0
14.22265625,-272.4609375,-18.5546875,-36.1328125,-405.76171875,-50.29296875,0.0
14.2265625,-261.23046875,-23.92578125,-43.45703125,-394.04296875,-55.17578125,0.0
14.23046875,-228.515625,-22.94921875,-31.73828125,-353.515625,-30.2734375,0.0
14.234375,-197.75390625,-26.3671875,-23.92578125,-265.625,-88.8671875,0.0
14.23828125,-199.70703125,-49.8046875,-29.78515625,-196.77734375,-87.40234375,0.0
14.2421875,-199.21875,-69.3359375,-33.69140625,-158.69140625,-39.0625,0.0
14.24609375,-180.6640625,-50.29296875,-24.4140625,-130.37109375,-59.08203125,0.0
14.25,-165.52734375,-37.109375,-26.3671875,-101.07421875,-44.921875,0.0
14.25390625,-140.13671875,-36.62109375,-28.80859375,-65.91796875,27.34375,0.0
14.2578125,-123.046875,-38.57421875,-18.5546875,-39.55078125,75.68359375,0.0
14.26171875,-109.375,-48.828125,-19.04296875,-40.52734375,79.1015625,0.0
14.265625,-97.16796875,-44.43359375,-18.5546875,-22.4609375,76.171875,0.0
14.26953125,-93.75,-41.015625,-20.01953125,-1.953125,59.5703125,0.0
14.2734375,-83.0078125,-46.875,-24.4140625,-11.23046875,-62.5,0.0
14.27734375,-67.3828125,-57.6171875,-21.484375,-7.32421875,-95.21484375,0.0
14.28125,-57.12890625,-66.89453125,-29.78515625,-39.55078125,-28.80859375,0.0
14.28515625,-42.48046875,-51.26953125,-23.4375,-76.66015625,-6.34765625,0.0
14.2890625,-46.875,-46.38671875,-12.6953125,-77.1484375,84.47265625,0.0
14.29296875,-45.41015625,-56.640625,-13.18359375,-53.22265625,58.10546875,0.0
14.296875,-29.78515625,-56.15234375,-8.7890625,-25.87890625,-3.90625,0.0
14.30078125,-44.43359375,-63.4765625,-10.7421875,-25.390625,30.2734375,0.0
14.3046875,-52.734375,-63.96484375,-9.765625,-12.6953125,-13.671875,0.0
14.30859375,-30.2734375,-47.8515625,-5.859375,22.4609375,-24.4140625,0.0
14.3125,-29.78515625,-48.828125,-8.30078125,34.66796875,-12.6953125,0.0
14.31640625,-38.57421875,-53.22265625,-4.8828125,39.55078125,1.46484375,0.0
14.3203125,-33.203125,-51.7578125,2.9296875,45.8984375,1.953125,0.0
14.32421875,-46.38671875,-52.24609375,-5.37109375,31.73828125,-25.87890625,0.0
14.328125,-35.64453125,-42.48046875,-8.30078125,10.7421875,-29.296875,0.0
14.33203125,-23.92578125,-41.015625,-3.90625,-23.4375,-56.15234375,0.0
14.3359375,-39.0625,-47.8515625,3.41796875,-45.8984375,-78.125,0.0
14.33984375,-55.6640625,-63.4765625,-1.953125,-40.52734375,-35.64453125,0.0
14.34375,-83.984375,-68.359375,-15.13671875,-54.19921875,17.08984375,0.0
14.34765625,-95.21484375,-61.5234375,-20.01953125,-55.17578125,-33.69140625,0.0
14.3515625,-87.40234375,-64.94140625,-21.97265625,-31.73828125,-134.27734375,0.0
14.35546875,-96.6796875,-67.87109375,-20.01953125,-43.45703125,-159.1796875,0.0
14.359375,-100.09765625,-81.0546875,-21.97265625,-83.984375,-112.3046875,0.0
14.36328125,-95.21484375,-85.9375,-26.3671875,-65.4296875,-107.91015625,0.0
14.3671875,-98.14453125,-79.58984375,-21.484375,-21.97265625,-69.3359375,0.0
14.37109375,-104.4921875,-74.21875,-29.78515625,-6.8359375,-9.765625,0.0
14.375,-90.33203125,-61.5234375,-13.671875,-17.08984375,-9.27734375,0.0
14.37890625,-91.30859375,-58.59375,18.06640625,-21.484375,20.01953125,0.0
14.3828125,-94.23828125,-53.7109375,0.9765625,5.859375,31.25,0.0
14.38671875,-85.9375,-49.31640625,-11.23046875,14.16015625,56.640625,0.0
14.390625,-100.5859375,-52.24609375,-18.5546875,5.859375,55.17578125,0.0
14.39453125,-113.28125,-56.15234375,-23.4375,-1.46484375,-23.92578125,0.0
14.3984375,-111.328125,-62.98828125,-13.18359375,-8.7890625,-41.50390625,0.0
14.40234375,-96.19140625,-53.7109375,-12.20703125,-6.34765625,1.46484375,0.0
14.40625,-100.09765625,-53.7109375,-17.578125,-0.48828125,17.08984375,0.0
14.41015625,-117.1875,-63.96484375,-22.94921875,-8.7890625,-1.953125,0.0
14.4140625,-104.4921875,-60.546875,-20.99609375,-11.71875,20.01953125,0.0
14.41796875,-97.65625,-63.96484375,-7.8125,-12.20703125,68.359375,0.0
14.421875,-98.14453125,-60.05859375,22.94921875,-9.765625,84.9609375,0.0
14.42578125,-75.68359375,-41.50390625,47.36328125,-1.46484375,-1.46484375,0.0
14.4296875,-55.17578125,-27.83203125,51.26953125,-19.53125,-43.45703125,0.0
14.43359375,-48.828125,-26.3671875,46.875,-64.94140625,-26.85546875,0.0
14.4375,-36.1328125,-18.06640625,44.43359375,-84.9609375,-79.58984375,0.0
14.44140625,-38.57421875,-14.6484375,35.64453125,-109.375,-90.33203125,0.0
14.4453125,-52.24609375,-34.1796875,17.08984375,-139.6484375,-83.49609375,0.0
14.44921875,-42.96875,-41.50390625,10.7421875,-113.76953125,-130.37109375,0.0
14.453125,-37.109375,-29.78515625,10.7421875,-103.02734375,-75.68359375,0.0
14.45703125,-47.8515625,-34.1796875,-8.30078125,-113.76953125,-34.1796875,0.0
14.4609375,-54.19921875,-35.64453125,-12.6953125,-113.28125,-61.5234375,0.0
14.46484375,-55.6640625,-31.73828125,-5.859375,-97.65625,-60.05859375,0.0
14.46875,-52.734375,-30.2734375,-9.765625,-69.3359375,-89.35546875,0.0
14.47265625,-60.546875,-38.57421875,-21.484375,-40.52734375,-123.53515625,0.0
14.4765625,-70.3125,-48.33984375,-33.203125,-24.90234375,-62.5,0.0
14.48046875,-77.63671875,-56.15234375,-40.52734375,-21.484375,47.8515625,0.0
14.484375,-82.51953125,-51.7578125,-50.78125,-15.625,61.03515625,0.0
14.48828125,-72.75390625,-34.66796875,-48.828125,-16.6015625,-13.18359375,0.0
14.4921875,-79.1015625,-51.26953125,-58.10546875,-27.34375,-84.9609375,0.0
14.49609375,-111.328125,-77.1484375,-76.66015625,-31.25,-41.015625,0.0
14.5,-111.328125,-72.75390625,-83.984375,-40.52734375,-3.41796875,0.0
14.50390625,-91.30859375,-65.4296875,-84.9609375,-45.41015625,-107.91015625,0.0
14.5078125,-88.37890625,-64.94140625,-81.54296875,-27.34375,-133.30078125,0.0
14.51171875,-109.86328125,-65.91796875,-75.68359375,-44.921875,-25.87890625,0.0
14.515625,-123.046875,-58.10546875,-62.98828125,-46.875,-52.24609375,0.0
14.51953125,-104.98046875,-52.24609375,-54.19921875,-19.04296875,-71.2890625,0.0
14.5234375,-93.75,-44.43359375,-52.24609375,-12.6953125,26.85546875,0.0
14.52734375,-94.23828125,-32.71484375,-42.48046875,-15.13671875,44.43359375,0.0
14.53125,-104.98046875,-48.33984375,-47.36328125,-24.4140625,-17.08984375,0.0
14.53515625,-106.93359375,-66.89453125,-55.17578125,-40.0390625,52.24609375,0.0
14.5390625,-105.95703125,-63.4765625,-49.31640625,-52.24609375,66.40625,0.0
14.54296875,-116.2109375,-55.17578125,-54.6875,-60.546875,8.30078125,0.0
14.546875,-101.5625,-51.7578125,-59.08203125,-62.98828125,6.34765625,0.0
14.55078125,-79.1015625,-45.41015625,-52.734375,-40.52734375,25.87890625,0.0
14.5546875,-68.84765625,-41.50390625,-48.828125,-41.015625,-18.06640625,0.0
14.55859375,-81.54296875,-48.828125,-57.6171875,-72.265625,-71.2890625,0.0
14.5625,-106.93359375,-59.08203125,-69.82421875,-79.58984375,8.7890625,0.0
14.56640625,-122.0703125,-65.91796875,-79.58984375,-85.9375,4.8828125,0.0
14.5703125,-126.953125,-54.6875,-77.1484375,-80.56640625,-79.58984375,0.0
14.57421875,-118.1640625,-43.45703125,-67.3828125,-80.078125,-36.62109375,0.0
14.578125,-106.93359375,-41.9921875,-54.6875,-95.21484375,21.97265625,0.0
14.58203125,-115.234375,-42.48046875,-52.24609375,-132.8125,71.77734375,0.0
14.5859375,-122.55859375,-39.55078125,-55.6640625,-168.45703125,63.96484375,0.0
14.58984375,-108.88671875,-39.55078125,-51.26953125,-176.26953125,0.9765625,0.0
14.59375,-115.72265625,-41.9921875,-49.8046875,-154.296875,-18.06640625,0.0
14.59765625,-134.27734375,-52.734375,-64.94140625,-131.34765625,-12.20703125,0.0
14.6015625,-127.44140625,-50.78125,-65.91796875,-125.48828125,-34.1796875,0.0
14.60546875,-120.1171875,-38.57421875,-56.640625,-141.11328125,-43.9453125,0.0
14.609375,-125.0,-37.109375,-60.05859375,-148.4375,-16.11328125,0.0
14.61328125,-118.1640625,-26.85546875,-52.24609375,-118.1640625,-21.97265625,0.0
14.6171875,-119.62890625,-38.0859375,-59.5703125,-104.00390625,-85.44921875,0.0
14.62109375,-123.53515625,-48.33984375,-64.94140625,-124.0234375,-125.0,0.0
14.625,-121.09375,-49.31640625,-62.01171875,-126.46484375,-133.7890625,0.0
14.62890625,-114.2578125,-44.921875,-54.19921875,-104.98046875,-137.20703125,0.0
14.6328125,-115.72265625,-34.66796875,-46.38671875,-77.1484375,-100.5859375,0.0
14.63671875,-111.81640625,-30.76171875,-48.33984375,-56.15234375,-34.66796875,0.0
14.640625,-118.65234375,-35.15625,-49.8046875,-64.94140625,18.06640625,0.0
14.64453125,-127.9296875,-37.59765625,-53.22265625,-71.77734375,-22.4609375,0.0
14.6484375,-120.60546875,-36.62109375,-58.59375,-70.3125,-62.01171875,0.0
14.65234375,-127.44140625,-48.828125,-66.89453125,-71.77734375,21.484375,0.0
14.65625,-144.04296875,-72.75390625,-76.171875,-86.42578125,40.52734375,0.0
14.66015625,-140.13671875,-79.58984375,-64.94140625,-79.1015625,37.59765625,0.0
14.6640625,-135.25390625,-79.1015625,-61.03515625,-70.3125,38.0859375,0.0
14.66796875,-142.08984375,-77.1484375,-68.84765625,-82.51953125,-47.36328125,0.0
14.671875,-120.60546875,-48.828125,-57.6171875,-84.9609375,4.39453125,0.0
14.67578125,-103.02734375,-36.62109375,-42.96875,-77.63671875,48.33984375,0.0
14.6796875,-107.421875,-42.96875,-48.33984375,-64.94140625,-14.6484375,0.0
14.68359375,-120.60546875,-46.38671875,-61.03515625,-70.3125,-9.27734375,0.0
14.6875,-130.37109375,-46.38671875,-64.453125,-71.2890625,-31.25,0.0
14.69140625,-125.9765625,-56.640625,-70.80078125,-80.56640625,43.9453125,0.0
14.6953125,-115.234375,-65.4296875,-76.171875,-107.421875,33.69140625,0.0
14.69921875,-109.86328125,-58.10546875,-71.77734375,-109.86328125,-41.9921875,0.0
14.703125,-123.046875,-46.38671875,-54.19921875,-102.05078125,3.41796875,0.0
14.70703125,-124.0234375,-44.43359375,-45.8984375,-90.8203125,-75.68359375,0.0
14.7109375,-118.65234375,-52.24609375,-55.6640625,-90.33203125,-117.67578125,0.0
14.71484375,-131.34765625,-59.08203125,-66.89453125,-112.79296875,-17.578125,0.0
14.71875,-135.25390625,-68.84765625,-70.80078125,-128.90625,-88.37890625,0.0
14.72265625,-127.9296875,-66.89453125,-65.4296875,-120.60546875,-143.5546875,0.0
14.7265625,-129.8828125,-58.59375,-60.546875,-113.28125,-69.82421875,0.0
14.73046875,-133.30078125,-63.4765625,-71.2890625,-115.234375,-53.7109375,0.0
14.734375,-121.09375,-62.98828125,-70.3125,-104.98046875,-55.6640625,0.0
14.73828125,-121.58203125,-64.94140625,-63.96484375,-105.46875,-66.89453125,0.0
14.7421875,-145.5078125,-72.75390625,-64.94140625,-111.81640625,-61.03515625,0.0
14.74609375,-166.015625,-75.1953125,-67.3828125,-109.375,-36.1328125,0.0
14.75,-160.64453125,-70.3125,-68.359375,-105.95703125,-73.73046875,0.0
14.75390625,-147.94921875,-69.3359375,-69.82421875,-117.1875,-79.1015625,0.0
14.7578125,-152.83203125,-64.453125,-70.3125,-118.65234375,-106.93359375,0.0
14.76171875,-152.83203125,-59.08203125,-66.89453125,-102.05078125,-168.9453125,0.0
14.765625,-142.578125,-60.05859375,-61.03515625,-93.26171875,-94.23828125,0.0
14.76953125,-141.11328125,-63.96484375,-58.59375,-91.30859375,-113.76953125,0.0
14.7734375,-132.32421875,-61.5234375,-58.10546875,-93.26171875,-145.5078125,0.0
14.77734375,-134.27734375,-56.640625,-58.59375,-96.6796875,-120.60546875,0.0
14.78125,-145.5078125,-54.19921875,-60.546875,-100.5859375,-269.53125,0.0
14.78515625,-145.01953125,-58.59375,-58.10546875,-113.76953125,-204.58984375,0.0
14.7890625,-164.55078125,-62.5,-64.94140625,-143.5546875,14.16015625,0.0
14.79296875,-191.40625,-69.82421875,-67.87109375,-135.7421875,46.38671875,0.0
14.796875,-207.03125,-83.984375,-67.3828125,-147.4609375,39.0625,0.0
14.80078125,-207.03125,-95.703125,-77.63671875,-170.8984375,19.53125,0.0
14.8046875,-197.265625,-85.44921875,-80.078125,-162.109375,-19.04296875,0.0
14.80859375,-191.40625,-76.66015625,-77.1484375,-166.015625,-16.11328125,0.0
14.8125,-187.01171875,-80.078125,-75.1953125,-173.828125,65.4296875,0.0
14.81640625,-176.7578125,-75.68359375,-70.3125,-168.9453125,72.75390625,0.0
14.8203125,-161.1328125,-64.453125,-62.5,-156.25,-11.23046875,0.0
14.82421875,-165.0390625,-64.94140625,-54.6875,-151.85546875,-23.92578125,0.0
14.828125,-169.921875,-66.40625,-52.734375,-151.3671875,3.90625,0.0
14.83203125,-170.8984375,-66.40625,-58.10546875,-152.83203125,-42.48046875,0.0
14.8359375,-168.9453125,-63.4765625,-62.98828125,-152.83203125,-93.26171875,0.0
14.83984375,-174.31640625,-66.40625,-66.40625,-160.15625,-33.203125,0.0
14.84375,-184.5703125,-77.63671875,-72.265625,-172.36328125,37.109375,0.0
14.84765625,-178.7109375,-81.0546875,-71.77734375,-169.43359375,40.0390625,0.0
14.8515625,-185.05859375,-78.61328125,-68.359375,-173.33984375,10.25390625,0.0
14.85546875,-177.24609375,-75.1953125,-67.3828125,-162.59765625,8.30078125,0.0
14.859375,-171.38671875,-69.82421875,-60.05859375,-148.92578125,-18.06640625,0.0
14.86328125,-180.17578125,-69.82421875,-58.59375,-145.01953125,-32.71484375,0.0
14.8671875,-184.5703125,-70.3125,-55.6640625,-145.01953125,12.6953125,0.0
14.87109375,-194.82421875,-77.1484375,-66.40625,-161.1328125,23.92578125,0.0
14.875,-195.80078125,-84.47265625,-83.49609375,-167.96875,6.8359375,0.0
14.87890625,-180.17578125,-81.0546875,-89.35546875,-166.9921875,10.25390625,0.0
14.8828125,-184.08203125,-70.3125,-83.49609375,-162.109375,12.20703125,0.0
14.88671875,-189.453125,-62.5,-70.3125,-154.78515625,-3.41796875,0.0
14.890625,-185.05859375,-66.40625,-64.94140625,-150.87890625,-79.58984375,0.0
14.89453125,-189.94140625,-72.265625,-77.63671875,-165.0390625,-92.28515625,0.0
14.8984375,-192.87109375,-80.56640625,-80.56640625,-168.9453125,-39.0625,0.0
14.90234375,-181.640625,-74.21875,-71.2890625,-148.4375,-50.29296875,0.0
14.90625,-157.71484375,-46.38671875,-58.59375,-129.8828125,-76.66015625,0.0
14.91015625,-148.92578125,-32.2265625,-51.7578125,-130.859375,-10.7421875,0.0
14.9140625,-155.76171875,-41.9921875,-58.59375,-124.51171875,-28.80859375,0.0
14.91796875,-157.71484375,-47.36328125,-62.98828125,-119.62890625,-3.90625,0.0
14.921875,-154.78515625,-55.17578125,-62.01171875,-120.60546875,15.625,0.0
14.92578125,-159.1796875,-61.03515625,-63.96484375,-136.71875,-104.00390625,0.0
14.9296875,-152.83203125,-43.45703125,-62.01171875,-133.30078125,-125.9765625,0.0
14.93359375,-154.78515625,-39.0625,-63.4765625,-127.44140625,-134.765625,0.0
14.9375,-162.109375,-52.24609375,-69.3359375,-148.92578125,-126.46484375,0.0
14.94140625,-161.62109375,-62.01171875,-71.77734375,-151.85546875,-49.31640625,0.0
14.9453125,-167.96875,-63.96484375,-74.21875,-154.78515625,-63.4765625,0.0
14.94921875,-168.45703125,-61.5234375,-72.75390625,-167.48046875,-27.83203125,0.0
14.953125,-185.546875,-76.171875,-79.1015625,-169.921875,69.82421875,0.0
14.95703125,-198.73046875,-81.54296875,-85.9375,-168.45703125,27.83203125,0.0
14.9609375,-185.05859375,-57.12890625,-70.80078125,-163.0859375,-1.953125,0.0
14.96484375,-178.7109375,-41.50390625,-56.640625,-155.76171875,53.7109375,0.0
14.96875,-184.08203125,-54.19921875,-66.40625,-160.15625,-14.6484375,0.0
14.97265625,-187.01171875,-66.40625,-79.1015625,-166.015625,-21.484375,0.0
14.9765625,-171.875,-60.05859375,-71.77734375,-163.57421875,34.66796875,0.0
14.98046875,-188.4765625,-64.94140625,-73.2421875,-166.50390625,55.17578125,0.0
14.984375,-204.1015625,-84.47265625,-88.37890625,-173.828125,13.671875,0.0
14.98828125,-184.08203125,-79.58984375,-84.47265625,-183.10546875,-23.4375,0.0
14.9921875,-173.828125,-73.73046875,-80.078125,-183.59375,-60.05859375,0.0
14.99609375,-156.73828125,-76.171875,-78.125,-170.8984375,-34.1796875,0.0
15.0,-149.4140625,-65.91796875,-63.4765625,-151.3671875,33.203125,0.0
15.00390625,-155.2734375,-62.5,-65.4296875,-143.06640625,6.8359375,0.0
15.0078125,-161.1328125,-69.3359375,-77.63671875,-145.5078125,-7.32421875,0.0
15.01171875,-156.73828125,-75.68359375,-75.1953125,-142.08984375,51.7578125,0.0
15.015625,-152.83203125,-83.0078125,-79.1015625,-149.4140625,79.1015625,0.0
15.01953125,-161.62109375,-80.56640625,-89.35546875,-152.83203125,45.8984375,0.0
15.0234375,-156.73828125,-71.2890625,-78.61328125,-140.625,16.11328125,0.0
15.02734375,-148.92578125,-74.21875,-75.1953125,-144.53125,-13.18359375,0.0
15.03125,-153.80859375,-87.890625,-94.23828125,-146.97265625,-35.64453125,0.0
15.03515625,-157.2265625,-86.42578125,-94.23828125,-140.625,-105.95703125,0.0
15.0390625,-147.94921875,-71.2890625,-83.49609375,-146.484375,-118.65234375,0.0
15.04296875,-142.08984375,-72.265625,-84.47265625,-145.01953125,-67.3828125,0.0
15.046875,-149.90234375,-81.54296875,-84.9609375,-133.7890625,-36.62109375,0.0
15.05078125,-160.15625,-78.125,-83.984375,-125.48828125,-66.40625,0.0
15.0546875,-133.7890625,-63.4765625,-74.70703125,-110.83984375,-61.5234375,0.0
15.05859375,-119.62890625,-66.40625,-64.94140625,-104.98046875,-40.0390625,0.0
15.0625,-142.08984375,-85.9375,-69.3359375,-142.08984375,-85.44921875,0.0
15.06640625,-149.90234375,-79.1015625,-74.21875,-155.76171875,-112.79296875,0.0
15.0703125,-139.6484375,-70.80078125,-75.68359375,-130.859375,-138.671875,0.0
15.07421875,-134.27734375,-84.9609375,-78.61328125,-133.7890625,-159.1796875,0.0
15.078125,-146.484375,-88.37890625,-74.70703125,-134.27734375,-92.7734375,0.0
15.08203125,-148.4375,-81.54296875,-71.77734375,-126.953125,-81.0546875,0.0
15.0859375,-141.6015625,-77.1484375,-72.75390625,-120.1171875,-111.328125,0.0
15.08984375,-137.20703125,-79.58984375,-77.63671875,-117.1875,-86.9140625,0.0
15.09375,-138.18359375,-77.1484375,-78.61328125,-112.3046875,-70.3125,0.0
15.09765625,-140.625,-74.21875,-72.75390625,-104.98046875,-135.25390625,0.0
15.1015625,-139.16015625,-64.94140625,-71.77734375,-97.65625,-116.69921875,0.0
15.10546875,-134.27734375,-59.08203125,-75.1953125,-107.421875,-87.890625,0.0
15.109375,-119.62890625,-63.96484375,-77.1484375,-104.98046875,-138.671875,0.0
15.11328125,-126.953125,-68.359375,-78.61328125,-110.3515625,-134.765625,0.0
15.1171875,-151.85546875,-72.75390625,-81.54296875,-125.48828125,-43.45703125,0.0
15.12109375,-144.04296875,-75.68359375,-78.125,-116.69921875,5.859375,0.0
15.125,-113.76953125,-73.73046875,-60.05859375,-100.5859375,14.6484375,0.0
15.12890625,-100.09765625,-63.96484375,-52.734375,-89.35546875,-44.921875,0.0
15.1328125,-95.703125,-52.24609375,-55.17578125,-95.21484375,1.46484375,0.0
15.13671875,-85.44921875,-50.78125,-52.24609375,-93.75,76.66015625,0.0
15.140625,-96.6796875,-57.6171875,-56.640625,-88.37890625,63.4765625,0.0
15.14453125,-125.48828125,-73.73046875,-62.01171875,-100.5859375,10.7421875,0.0
15.1484375,-129.8828125,-84.47265625,-66.40625,-107.91015625,-12.20703125,0.0
15.15234375,-125.48828125,-81.54296875,-65.4296875,-107.91015625,70.3125,0.0
15.15625,-115.234375,-65.91796875,-52.24609375,-96.6796875,31.25,0.0
15.16015625,-99.609375,-54.6875,-47.8515625,-87.40234375,19.04296875,0.0
15.1640625,-94.7265625,-47.8515625,-42.48046875,-106.4453125,-33.69140625,0.0
15.16796875,-92.7734375,-50.29296875,-42.96875,-91.30859375,-109.86328125,0.0
15.171875,-94.7265625,-47.36328125,-49.8046875,-73.2421875,-47.8515625,0.0
15.17578125,-102.5390625,-35.64453125,-46.38671875,-69.82421875,-1.953125,0.0
15.1796875,-90.33203125,-49.31640625,-43.9453125,-54.19921875,9.27734375,0.0
15.18359375,-91.30859375,-56.640625,-50.29296875,-47.36328125,-16.6015625,0.0
15.1875,-99.12109375,-42.96875,-48.828125,-44.43359375,-11.23046875,0.0
15.19140625,-90.8203125,-42.48046875,-45.41015625,-43.45703125,-44.43359375,0.0
15.1953125,-93.26171875,-50.78125,-52.24609375,-44.43359375,-67.3828125,0.0
15.19921875,-88.8671875,-49.31640625,-50.29296875,-39.55078125,-39.55078125,0.0
15.203125,-72.75390625,-44.921875,-41.50390625,-41.015625,-30.2734375,0.0
15.20703125,-70.3125,-56.640625,-43.9453125,-69.82421875,-22.4609375,0.0
15.2109375,-75.68359375,-64.94140625,-46.38671875,-75.68359375,-40.52734375,0.0
15.21484375,-62.01171875,-49.8046875,-43.9453125,-56.640625,-102.5390625,0.0
15.21875,-42.48046875,-40.0390625,-41.015625,-52.24609375,-103.02734375,0.0
15.22265625,-60.05859375,-41.50390625,-46.38671875,-70.3125,-40.0390625,0.0
15.2265625,-71.77734375,-49.8046875,-54.6875,-79.1015625,-37.59765625,0.0
15.23046875,-60.546875,-51.7578125,-51.7578125,-75.1953125,-28.3203125,0.0
15.234375,-55.6640625,-42.96875,-40.0390625,-70.80078125,20.99609375,0.0
15.23828125,-65.4296875,-45.8984375,-39.55078125,-71.2890625,67.87109375,0.0
15.2421875,-68.84765625,-41.015625,-41.9921875,-73.2421875,-1.46484375,0.0
15.24609375,-69.3359375,-40.0390625,-43.9453125,-66.40625,-45.8984375,0.0
15.25,-51.7578125,-42.48046875,-42.48046875,-71.77734375,-13.18359375,0.0
15.25390625,-35.15625,-34.66796875,-27.34375,-63.96484375,39.55078125,0.0
15.2578125,-41.015625,-30.76171875,-23.4375,-40.52734375,13.18359375,0.0
15.26171875,-37.59765625,-34.66796875,-28.80859375,-38.57421875,-1.46484375,0.0
15.265625,-29.78515625,-40.0390625,-30.76171875,-48.33984375,63.4765625,0.0
15.26953125,-30.2734375,-34.1796875,-33.69140625,-51.7578125,19.53125,0.0
15.2734375,-31.25,-27.83203125,-31.25,-42.48046875,23.4375,0.0
15.27734375,-16.6015625,-39.0625,-35.15625,-47.8515625,-68.84765625,0.0
15.28125,-8.30078125,-44.921875,-42.96875,-45.41015625,-86.42578125,0.0
15.28515625,-36.1328125,-52.24609375,-51.7578125,-41.015625,1.46484375,0.0
15.2890625,-60.05859375,-64.94140625,-51.7578125,-78.61328125,28.3203125,0.0
15.29296875,-37.59765625,-56.15234375,-39.55078125,-93.75,91.30859375,0.0
15.296875,-14.16015625,-45.41015625,-37.109375,-72.75390625,-95.703125,0.0
15.30078125,1.953125,-52.24609375,-34.1796875,-55.17578125,-242.67578125,0.0
15.3046875,1.953125,-44.921875,-32.2265625,-54.6875,-150.390625,0.0
15.30859375,-6.34765625,-29.78515625,-30.76171875,-64.94140625,-119.62890625,0.0
15.3125,4.39453125,-38.0859375,-23.4375,-59.5703125,-75.68359375,0.0
15.31640625,3.41796875,-43.45703125,-23.92578125,-44.43359375,-41.50390625,0.0
15.3203125,6.34765625,-23.92578125,-17.578125,-32.71484375,-49.31640625,0.0
15.32421875,17.578125,-14.6484375,-3.90625,-25.390625,-15.625,0.0
15.328125,1.46484375,-30.2734375,-8.7890625,-20.5078125,18.5546875,0.0
15.33203125,-12.20703125,-32.71484375,-14.6484375,-19.04296875,-44.921875,0.0
15.3359375,-0.48828125,-28.3203125,-4.39453125,-22.94921875,-116.2109375,0.0
15.33984375,11.71875,-37.109375,-4.39453125,-13.18359375,-84.47265625,0.0
15.34375,16.6015625,-29.296875,-8.7890625,-13.671875,-36.62109375,0.0
15.34765625,9.765625,-19.53125,-12.20703125,-31.73828125,-18.06640625,0.0
15.3515625,20.5078125,-7.8125,-6.8359375,-22.94921875,-107.91015625,0.0
15.35546875,39.0625,10.25390625,9.765625,13.18359375,-107.91015625,0.0
15.359375,34.66796875,-5.859375,7.8125,10.25390625,-39.0625,0.0
15.36328125,15.13671875,-31.25,-2.9296875,-19.04296875,34.1796875,0.0
15.3671875,3.41796875,-29.296875,-5.859375,-19.53125,72.265625,0.0
15.37109375,21.484375,-20.99609375,-6.8359375,-8.30078125,30.76171875,0.0
15.375,35.64453125,-23.4375,-1.953125,-8.7890625,11.23046875,0.0
15.37890625,31.25,-20.99609375,-2.44140625,-20.5078125,52.24609375,0.0
15.3828125,16.6015625,-13.18359375,-12.6953125,-8.30078125,-4.8828125,0.0
15.38671875,8.30078125,-21.484375,-22.94921875,7.32421875,-51.7578125,0.0
15.390625,10.7421875,-22.4609375,-18.06640625,1.46484375,-70.80078125,0.0
15.39453125,17.08984375,-5.859375,-8.7890625,8.7890625,-50.78125,0.0
15.3984375,14.16015625,-7.32421875,-3.90625,14.6484375,-29.296875,0.0
15.40234375,29.296875,-5.859375,4.8828125,7.8125,-37.109375,0.0
15.40625,37.109375,-4.39453125,6.34765625,10.25390625,-33.69140625,0.0
15.41015625,27.83203125,-21.484375,-5.859375,0.48828125,-40.0390625,0.0
15.4140625,36.62109375,-27.83203125,-10.7421875,-11.23046875,24.90234375,0.0
15.41796875,31.73828125,-16.6015625,-2.9296875,6.34765625,41.015625,0.0
15.421875,27.83203125,-4.8828125,6.8359375,-1.953125,3.41796875,0.0
15.42578125,34.66796875,9.27734375,8.7890625,6.34765625,-79.58984375,0.0
15.4296875,44.43359375,16.6015625,10.7421875,29.78515625,-81.54296875,0.0
15.43359375,75.68359375,20.5078125,23.92578125,38.57421875,-29.78515625,0.0
15.4375,81.54296875,20.99609375,28.80859375,35.15625,-15.625,0.0
15.44140625,70.3125,21.484375,23.92578125,21.484375,-136.23046875,0.0
15.4453125,68.359375,20.01953125,27.83203125,23.92578125,-228.02734375,0.0
15.44921875,62.01171875,7.8125,26.3671875,24.90234375,-86.9140625,0.0
15.453125,71.2890625,8.30078125,16.6015625,23.4375,8.30078125,0.0
15.45703125,68.359375,8.7890625,12.20703125,22.94921875,34.66796875,0.0
15.4609375,44.43359375,-5.37109375,16.11328125,21.484375,38.0859375,0.0
15.46484375,47.36328125,-9.27734375,23.92578125,37.109375,-25.87890625,0.0
15.46875,55.6640625,2.9296875,21.484375,37.59765625,-16.11328125,0.0
15.47265625,69.3359375,7.32421875,17.578125,13.18359375,18.5546875,0.0
15.4765625,78.125,-1.953125,19.04296875,18.06640625,-20.01953125,0.0
15.48046875,64.453125,2.9296875,20.01953125,36.1328125,-55.17578125,0.0
15.484375,68.359375,13.18359375,16.6015625,37.109375,-122.0703125,0.0
15.48828125,67.87109375,3.90625,10.7421875,33.69140625,-173.33984375,0.0
15.4921875,69.82421875,-7.32421875,13.18359375,34.1796875,-52.24609375,0.0
15.49609375,79.58984375,2.9296875,23.92578125,43.45703125,71.2890625,0.0
15.5,62.5,10.7421875,20.99609375,45.8984375,64.453125,0.0
15.50390625,57.12890625,11.71875,14.6484375,40.52734375,12.20703125,0.0
15.5078125,59.5703125,5.37109375,18.5546875,33.69140625,35.64453125,0.0
15.51171875,64.453125,3.41796875,29.296875,39.0625,-23.4375,0.0
15.515625,65.4296875,3.90625,24.90234375,33.69140625,-12.20703125,0.0
15.51953125,70.3125,6.8359375,21.484375,25.390625,35.15625,0.0
15.5234375,93.26171875,3.41796875,21.484375,17.578125,-50.78125,0.0
15.52734375,83.49609375,-6.8359375,11.71875,-3.41796875,-82.51953125,0.0
15.53125,53.7109375,-5.37109375,12.20703125,-0.9765625,-62.5,0.0
15.53515625,48.828125,-5.37109375,14.6484375,16.11328125,-48.828125,0.0
15.5390625,54.19921875,-5.37109375,10.7421875,9.27734375,27.83203125,0.0
15.54296875,57.12890625,-10.25390625,12.20703125,9.27734375,13.18359375,0.0
15.546875,78.125,-9.27734375,13.671875,36.1328125,-16.6015625,0.0
15.55078125,98.14453125,-1.46484375,17.578125,51.7578125,0.0,0.0
15.5546875,96.6796875,1.46484375,26.3671875,54.6875,-40.52734375,0.0
15.55859375,79.1015625,-1.46484375,27.83203125,39.0625,-73.73046875,0.0
15.5625,72.265625,3.41796875,25.390625,33.69140625,-14.6484375,0.0
15.56640625,63.96484375,13.18359375,27.34375,50.78125,-33.69140625,0.0
15.5703125,63.96484375,9.765625,21.484375,57.12890625,-125.48828125,0.0
15.57421875,78.125,5.37109375,23.92578125,59.08203125,-56.640625,0.0
15.578125,84.9609375,-0.9765625,26.3671875,58.10546875,-10.25390625,0.0
15.58203125,80.56640625,-6.34765625,17.578125,46.38671875,-4.39453125,0.0
15.5859375,79.58984375,3.41796875,22.94921875,52.24609375,54.19921875,0.0
15.58984375,82.51953125,6.8359375,21.484375,41.50390625,40.0390625,0.0
15.59375,79.58984375,10.25390625,10.7421875,38.57421875,-60.546875,0.0
15.59765625,114.74609375,24.90234375,20.99609375,65.91796875,-45.8984375,0.0
15.6015625,130.37109375,28.80859375,24.90234375,66.89453125,-59.08203125,0.0
15.60546875,98.14453125,20.5078125,19.53125,54.19921875,-141.6015625,0.0
15.609375,98.14453125,12.6953125,26.85546875,59.5703125,-78.61328125,0.0
15.61328125,108.88671875,11.71875,30.76171875,69.3359375,-52.24609375,0.0
15.6171875,102.05078125,10.25390625,29.296875,56.15234375,-104.98046875,0.0
15.62109375,81.54296875,11.23046875,31.25,54.19921875,-111.328125,0.0
15.625,63.4765625,10.7421875,22.94921875,47.8515625,-82.51953125,0.0
15.62890625,58.10546875,-8.30078125,3.41796875,28.3203125,-77.63671875,0.0
15.6328125,61.5234375,-17.578125,-1.46484375,23.4375,-90.33203125,0.0
15.63671875,64.453125,-11.23046875,4.8828125,28.3203125,-110.83984375,0.0
15.640625,62.01171875,-2.9296875,12.20703125,36.62109375,-174.31640625,0.0
15.64453125,50.29296875,7.8125,17.578125,38.0859375,-112.3046875,0.0
15.6484375,45.41015625,2.9296875,19.04296875,17.578125,-20.99609375,0.0
15.65234375,53.7109375,-4.8828125,20.5078125,25.87890625,46.875,0.0
15.65625,58.10546875,-0.48828125,17.578125,33.203125,80.56640625,0.0
15.66015625,75.68359375,10.7421875,18.5546875,26.85546875,30.76171875,0.0
15.6640625,64.94140625,-0.48828125,12.6953125,28.3203125,23.4375,0.0
15.66796875,20.99609375,-19.04296875,-0.48828125,8.7890625,97.65625,0.0
15.671875,1.46484375,-14.16015625,-0.48828125,-1.46484375,66.89453125,0.0
15.67578125,17.578125,-12.20703125,3.90625,11.23046875,19.53125,0.0
15.6796875,39.0625,-10.7421875,5.859375,29.296875,15.625,0.0
15.68359375,35.15625,-13.18359375,0.48828125,30.76171875,-30.76171875,0.0
15.6875,41.9921875,-15.13671875,-3.41796875,38.0859375,-37.59765625,0.0
15.69140625,76.66015625,-4.8828125,-0.48828125,78.125,-0.48828125,0.0
15.6953125,97.16796875,1.46484375,14.16015625,92.28515625,88.8671875,0.0
15.69921875,87.890625,0.0,20.01953125,89.84375,102.05078125,0.0
15.703125,73.73046875,-4.8828125,7.8125,70.80078125,59.5703125,0.0
15.70703125,75.1953125,4.39453125,8.30078125,67.3828125,-3.90625,0.0
15.7109375,80.56640625,16.11328125,13.671875,84.47265625,-9.27734375,0.0
15.71484375,78.61328125,11.71875,14.16015625,76.66015625,42.48046875,0.0
15.71875,77.1484375,9.27734375,11.23046875,77.1484375,32.2265625,0.0
15.72265625,83.49609375,8.7890625,4.8828125,76.66015625,24.4140625,0.0
15.7265625,77.63671875,-5.859375,-4.39453125,63.96484375,54.19921875,0.0
15.73046875,61.5234375,-17.08984375,-12.20703125,57.6171875,26.3671875,0.0
15.734375,55.17578125,-26.3671875,-13.671875,64.453125,-16.11328125,0.0
15.73828125,62.98828125,-15.625,-10.7421875,63.96484375,29.296875,0.0
15.7421875,55.6640625,-1.46484375,-11.71875,51.26953125,40.0390625,0.0
15.74609375,42.48046875,-14.16015625,-17.08984375,40.0390625,-71.2890625,0.0
15.75,63.4765625,-9.765625,-7.32421875,46.38671875,-140.625,0.0
15.75390625,81.0546875,-0.48828125,0.48828125,54.6875,-98.6328125,0.0
15.7578125,80.56640625,-8.30078125,-9.765625,52.734375,62.5,0.0
15.76171875,82.51953125,-4.39453125,-8.30078125,59.5703125,135.25390625,0.0
15.765625,78.125,-0.48828125,-5.37109375,46.875,90.8203125,0.0
15.76953125,67.3828125,-0.48828125,-8.7890625,38.0859375,9.27734375,0.0
15.7734375,65.4296875,9.27734375,-4.8828125,47.36328125,1.953125,0.0
15.77734375,72.265625,22.94921875,-2.9296875,39.55078125,76.66015625,0.0
15.78125,58.59375,19.53125,-0.48828125,41.9921875,39.0625,0.0
15.78515625,54.6875,6.8359375,4.39453125,54.6875,-78.125,0.0
15.7890625,53.7109375,2.9296875,8.30078125,60.05859375,-129.8828125,0.0
15.79296875,31.73828125,-16.11328125,4.39453125,57.6171875,-116.69921875,0.0
15.796875,28.3203125,-28.3203125,-3.41796875,51.26953125,-55.6640625,0.0
15.80078125,29.296875,-19.04296875,-13.671875,37.59765625,-44.921875,0.0
15.8046875,19.53125,-5.37109375,-10.7421875,48.33984375,-127.44140625,0.0
15.80859375,28.3203125,4.39453125,-5.37109375,64.453125,-178.7109375,0.0
15.8125,45.41015625,10.25390625,2.9296875,66.89453125,-150.390625,0.0
15.81640625,67.3828125,23.4375,20.99609375,77.63671875,-191.89453125,0.0
15.8203125,61.03515625,14.6484375,20.01953125,81.54296875,-163.57421875,0.0
15.82421875,38.0859375,-12.6953125,0.9765625,74.21875,-84.9609375,0.0
15.828125,43.9453125,-15.13671875,-9.27734375,67.87109375,-84.9609375,0.0
15.83203125,49.31640625,-2.44140625,-11.23046875,73.73046875,-183.10546875,0.0
15.8359375,33.69140625,-3.41796875,-14.16015625,73.73046875,-216.30859375,0.0
15.83984375,34.66796875,-21.484375,-17.08984375,65.91796875,-72.75390625,0.0
15.84375,52.24609375,-23.4375,-14.6484375,67.87109375,31.25,0.0
15.84765625,42.48046875,-16.11328125,-19.53125,64.453125,24.90234375,0.0
15.8515625,23.4375,-21.484375,-24.4140625,56.15234375,3.90625,0.0
15.85546875,18.5546875,-22.94921875,-19.04296875,44.921875,17.08984375,0.0
15.859375,20.01953125,-19.53125,-18.06640625,35.15625,5.37109375,0.0
15.86328125,31.73828125,-12.20703125,-12.6953125,51.7578125,-7.8125,0.0
15.8671875,46.875,-16.6015625,-12.20703125,52.734375,14.6484375,0.0
15.87109375,46.38671875,-21.97265625,-14.16015625,28.80859375,-62.01171875,0.0
15.875,37.59765625,-14.16015625,-14.6484375,32.2265625,-84.47265625,0.0
15.87890625,37.59765625,-3.41796875,-11.71875,54.19921875,40.52734375,0.0
15.8828125,42.48046875,-18.5546875,-15.625,42.96875,-76.171875,0.0
15.88671875,39.0625,-35.15625,-23.4375,27.34375,-115.234375,0.0
15.890625,34.1796875,-30.76171875,-22.4609375,20.99609375,-37.109375,0.0
15.89453125,24.4140625,-24.90234375,-26.3671875,15.625,-109.375,0.0
15.8984375,26.3671875,-4.39453125,-18.5546875,22.4609375,-46.38671875,0.0
15.90234375,24.90234375,5.859375,-9.765625,17.578125,30.76171875,0.0
15.90625,6.34765625,5.37109375,-15.13671875,25.390625,-11.71875,0.0
15.91015625,11.71875,7.8125,-9.765625,36.1328125,-94.23828125,0.0
15.9140625,10.7421875,2.44140625,-1.953125,29.78515625,-46.38671875,0.0
15.91796875,-13.18359375,-5.859375,-12.20703125,24.90234375,46.38671875,0.0
15.921875,-13.671875,-16.11328125,-13.18359375,17.08984375,34.66796875,0.0
15.92578125,-6.34765625,-20.5078125,-8.7890625,20.5078125,-41.50390625,0.0
15.9296875,-8.30078125,-9.27734375,-3.41796875,56.15234375,-8.30078125,0.0
15.93359375,-12.20703125,-5.859375,3.90625,68.359375,122.55859375,0.0
15.9375,-15.13671875,-20.5078125,-5.859375,47.8515625,68.359375,0.0
15.94140625,-18.06640625,-17.08984375,-17.08984375,37.109375,6.8359375,0.0
15.9453125,-17.578125,-16.6015625,-23.4375,41.015625,22.4609375,0.0
15.94921875,-17.578125,-23.92578125,-21.484375,40.52734375,9.765625,0.0
15.953125,-20.01953125,-26.85546875,-18.5546875,56.15234375,0.48828125,0.0
15.95703125,-16.11328125,-28.80859375,-18.06640625,84.9609375,-88.37890625,0.0
15.9609375,-19.53125,-35.15625,-25.87890625,72.75390625,-80.56640625,0.0
15.96484375,-28.80859375,-37.59765625,-28.80859375,67.3828125,-109.375,0.0
15.96875,-14.6484375,-8.30078125,-10.7421875,101.07421875,-140.13671875,0.0
15.97265625,-7.8125,-3.41796875,-19.04296875,102.05078125,-23.4375,0.0
15.9765625,-17.08984375,-20.01953125,-33.203125,83.49609375,10.7421875,0.0
15.98046875,-5.37109375,-21.97265625,-26.85546875,89.84375,-10.25390625,0.0
15.984375,-12.20703125,-23.4375,-20.99609375,94.7265625,-4.39453125,0.0
15.98828125,-25.390625,-18.06640625,-15.625,87.40234375,1.46484375,0.0
15.9921875,-11.71875,-6.34765625,-11.71875,99.609375,42.96875,0.0
15.99609375,-1.953125,-3.41796875,-9.765625,101.5625,39.0625,0.0
16.0,6.8359375,1.46484375,2.44140625,103.515625,3.41796875,0.0
16.00390625,2.44140625,1.46484375,11.23046875,116.69921875,34.1796875,0.0
16.0078125,0.48828125,-3.90625,9.765625,105.46875,63.4765625,0.0
16.01171875,4.39453125,-10.7421875,8.30078125,84.47265625,42.48046875,0.0
16.015625,1.46484375,-1.46484375,0.0,84.9609375,29.296875,0.0
16.01953125,1.953125,9.765625,-8.30078125,89.84375,22.4609375,0.0
16.0234375,3.90625,12.6953125,0.9765625,91.796875,-12.20703125,0.0
16.02734375,4.8828125,11.71875,8.30078125,99.12109375,-25.390625,0.0
16.03125,-13.18359375,4.39453125,2.44140625,84.9609375,50.29296875,0.0
16.03515625,-39.0625,1.46484375,2.44140625,75.1953125,49.31640625,0.0
16.0390625,-44.43359375,-0.48828125,-0.48828125,76.66015625,98.14453125,0.0
16.04296875,-43.9453125,-10.7421875,-8.7890625,61.03515625,19.53125,0.0
16.046875,-43.9453125,-8.30078125,-11.23046875,55.6640625,-172.8515625,0.0
16.05078125,-40.0390625,-0.9765625,-9.765625,48.33984375,-202.63671875,0.0
16.0546875,-44.921875,-15.13671875,-13.671875,30.2734375,-200.1953125,0.0
16.05859375,-43.9453125,-18.06640625,-22.4609375,23.92578125,-213.37890625,0.0
16.0625,-31.73828125,-10.7421875,-20.5078125,43.45703125,-188.4765625,0.0
16.06640625,-38.57421875,-12.20703125,-17.578125,61.5234375,-171.38671875,0.0
16.0703125,-43.45703125,-13.18359375,-15.625,73.73046875,-125.48828125,0.0
16.07421875,-48.33984375,-12.6953125,-16.6015625,86.9140625,-115.72265625,0.0
16.078125,-60.546875,-20.99609375,-18.5546875,89.84375,-74.70703125,0.0
16.08203125,-61.5234375,-26.85546875,-18.5546875,76.171875,74.21875,0.0
16.0859375,-63.4765625,-25.87890625,-18.5546875,64.94140625,86.9140625,0.0
16.08984375,-55.6640625,-24.4140625,-12.6953125,67.87109375,13.18359375,0.0
16.09375,-37.59765625,-17.578125,-8.7890625,70.3125,46.875,0.0
16.09765625,-18.5546875,-14.16015625,-13.18359375,65.91796875,13.671875,0.0
16.1015625,-10.7421875,-15.13671875,-12.6953125,64.453125,55.17578125,0.0
16.10546875,-6.8359375,-16.6015625,-10.25390625,68.84765625,122.0703125,0.0
16.109375,-8.30078125,-15.625,-11.71875,64.453125,15.13671875,0.0
16.11328125,-28.3203125,0.9765625,-9.765625,46.875,-71.2890625,0.0
16.1171875,-41.50390625,-1.953125,-19.53125,32.71484375,-101.5625,0.0
16.12109375,-46.875,-17.578125,-33.69140625,20.5078125,-100.5859375,0.0
16.125,-44.921875,-13.671875,-32.2265625,42.96875,43.9453125,0.0
16.12890625,-50.29296875,-14.16015625,-27.83203125,50.29296875,69.3359375,0.0
16.1328125,-54.19921875,-26.85546875,-24.4140625,26.85546875,-43.9453125,0.0
16.13671875,-67.3828125,-33.69140625,-26.85546875,21.484375,-69.3359375,0.0
16.140625,-81.0546875,-38.0859375,-37.59765625,19.04296875,-42.48046875,0.0
16.14453125,-77.63671875,-46.38671875,-40.0390625,19.04296875,-39.0625,0.0
16.1484375,-70.80078125,-41.50390625,-36.1328125,22.4609375,-82.51953125,0.0
16.15234375,-68.359375,-30.2734375,-36.62109375,30.76171875,-113.76953125,0.0
16.15625,-69.82421875,-31.73828125,-34.1796875,30.2734375,-62.01171875,0.0
16.16015625,-63.4765625,-34.1796875,-30.2734375,38.0859375,24.90234375,0.0
16.1640625,-77.63671875,-24.90234375,-33.203125,38.57421875,63.96484375,0.0
16.16796875,-84.47265625,-21.484375,-39.0625,35.15625,-20.5078125,0.0
16.171875,-63.96484375,-20.5078125,-35.15625,34.1796875,-43.9453125,0.0
16.17578125,-67.3828125,-23.4375,-30.76171875,16.11328125,96.19140625,0.0
16.1796875,-70.80078125,-24.90234375,-35.15625,28.80859375,78.61328125,0.0
16.18359375,-54.6875,-21.97265625,-38.0859375,39.0625,-69.82421875,0.0
16.1875,-67.87109375,-33.203125,-40.52734375,29.296875,-139.6484375,0.0
16.19140625,-80.56640625,-30.2734375,-40.0390625,17.578125,-89.35546875,0.0
16.1953125,-65.91796875,-14.16015625,-30.2734375,10.25390625,-68.359375,0.0
16.19921875,-48.828125,-20.5078125,-31.73828125,20.5078125,-66.89453125,0.0
16.203125,-43.45703125,-26.85546875,-30.2734375,21.97265625,-27.34375,0.0
16.20703125,-54.19921875,-22.4609375,-24.90234375,31.25,-27.83203125,0.0
16.2109375,-65.4296875,-10.7421875,-22.94921875,41.9921875,-16.11328125,0.0
16.21484375,-81.0546875,-5.859375,-22.94921875,33.203125,2.9296875,0.0
16.21875,-84.47265625,-14.6484375,-33.69140625,17.08984375,-46.875,0.0
16.22265625,-63.4765625,-15.625,-36.62109375,11.23046875,-81.0546875,0.0
16.2265625,-68.359375,-17.578125,-37.109375,-1.46484375,-103.02734375,0.0
16.23046875,-91.796875,-28.3203125,-37.59765625,-2.44140625,-86.9140625,0.0
16.234375,-102.5390625,-33.203125,-41.50390625,-0.9765625,-37.59765625,0.0
16.23828125,-101.07421875,-31.73828125,-45.8984375,3.41796875,-12.6953125,0.0
16.2421875,-86.9140625,-34.1796875,-55.6640625,4.39453125,15.625,0.0
16.24609375,-83.0078125,-40.0390625,-66.40625,-12.6953125,35.64453125,0.0
16.25,-111.81640625,-47.36328125,-62.98828125,-29.78515625,-14.16015625,0.0
16.25390625,-124.0234375,-53.22265625,-60.546875,-32.2265625,36.62109375,0.0
16.2578125,-114.74609375,-58.59375,-63.96484375,-28.3203125,3.41796875,0.0
16.26171875,-114.74609375,-58.59375,-68.359375,-36.1328125,17.08984375,0.0
16.265625,-98.14453125,-44.921875,-59.5703125,-32.71484375,-50.29296875,0.0
16.26953125,-85.44921875,-32.71484375,-44.43359375,-22.4609375,-145.01953125,0.0
16.2734375,-86.9140625,-25.87890625,-32.71484375,0.9765625,-78.61328125,0.0
16.27734375,-81.0546875,-18.06640625,-28.3203125,15.625,-73.2421875,0.0
16.28125,-76.66015625,-19.04296875,-34.66796875,11.23046875,4.8828125,0.0
16.28515625,-78.61328125,-25.390625,-34.1796875,10.25390625,111.328125,0.0
16.2890625,-87.40234375,-36.62109375,-39.0625,-1.953125,-3.41796875,0.0
16.29296875,-80.078125,-32.71484375,-43.45703125,-14.6484375,-6.8359375,0.0
16.296875,-56.15234375,-22.94921875,-30.2734375,7.8125,6.34765625,0.0
16.30078125,-66.89453125,-18.5546875,-28.80859375,11.71875,-50.78125,0.0
16.3046875,-90.8203125,-24.90234375,-46.38671875,-4.8828125,-9.765625,0.0
16.30859375,-108.88671875,-56.640625,-66.40625,-17.578125,-14.16015625,0.0
16.3125,-124.51171875,-62.5,-73.2421875,-16.6015625,0.48828125,0.0
16.31640625,-130.859375,-46.875,-65.4296875,-5.859375,-34.1796875,0.0
16.3203125,-129.39453125,-46.38671875,-61.03515625,-16.11328125,-52.734375,0.0
16.32421875,-102.5390625,-32.2265625,-56.640625,-6.8359375,-19.53125,0.0
16.328125,-93.26171875,-24.4140625,-51.7578125,0.48828125,-6.34765625,0.0
16.33203125,-99.609375,-29.296875,-44.43359375,0.9765625,-3.41796875,0.0
16.3359375,-93.26171875,-35.64453125,-41.9921875,10.25390625,70.3125,0.0
16.33984375,-116.69921875,-59.5703125,-55.17578125,-7.8125,38.57421875,0.0
16.34375,-134.27734375,-64.94140625,-57.12890625,-17.08984375,-41.50390625,0.0
16.34765625,-123.53515625,-43.9453125,-49.8046875,-9.27734375,-94.7265625,0.0
16.3515625,-123.53515625,-37.59765625,-54.19921875,-28.80859375,-34.66796875,0.0
16.35546875,-133.30078125,-45.41015625,-53.22265625,-31.73828125,29.78515625,0.0
16.359375,-143.5546875,-37.59765625,-52.734375,-20.01953125,61.5234375,0.0
16.36328125,-143.5546875,-39.55078125,-57.6171875,-28.80859375,-19.04296875,0.0
16.3671875,-139.16015625,-40.52734375,-49.8046875,-16.6015625,-142.08984375,0.0
16.37109375,-133.30078125,-26.85546875,-43.9453125,-11.23046875,-154.78515625,0.0
16.375,-129.8828125,-29.296875,-45.8984375,-24.90234375,-86.42578125,0.0
16.37890625,-128.41796875,-45.41015625,-54.19921875,-29.78515625,28.3203125,0.0
16.3828125,-123.53515625,-49.8046875,-56.15234375,-35.64453125,0.0,0.0
16.38671875,-127.44140625,-39.55078125,-44.921875,-39.55078125,-1.953125,0.0
16.390625,-138.671875,-38.57421875,-50.78125,-37.59765625,46.38671875,0.0
16.39453125,-152.34375,-55.17578125,-69.82421875,-40.52734375,-16.6015625,0.0
16.3984375,-156.73828125,-63.4765625,-62.01171875,-34.66796875,-69.3359375,0.0
16.40234375,-160.64453125,-65.4296875,-72.75390625,-28.3203125,-148.4375,0.0
16.40625,-166.9921875,-78.61328125,-101.07421875,-49.31640625,-237.3046875,0.0
16.41015625,-167.96875,-84.47265625,-96.19140625,-53.22265625,-212.890625,0.0
16.4140625,-171.38671875,-75.68359375,-84.9609375,-43.45703125,-243.65234375,0.0
16.41796875,-168.9453125,-78.125,-87.40234375,-47.8515625,-253.90625,0.0
16.421875,-151.3671875,-54.6875,-70.3125,-39.0625,-199.70703125,0.0
16.42578125,-158.203125,-42.48046875,-60.05859375,-46.875,-143.06640625,0.0
16.4296875,-181.15234375,-65.4296875,-74.70703125,-64.94140625,-104.00390625,0.0
16.43359375,-188.96484375,-61.5234375,-74.70703125,-63.4765625,-12.20703125,0.0
16.4375,-209.47265625,-60.05859375,-70.3125,-94.7265625,66.40625,0.0
16.44140625,-219.23828125,-65.91796875,-68.359375,-110.3515625,69.82421875,0.0
16.4453125,-229.00390625,-57.12890625,-59.5703125,-108.88671875,-6.8359375,0.0
16.44921875,-264.16015625,-45.41015625,-55.6640625,-140.13671875,-163.0859375,0.0
16.453125,-291.015625,-42.48046875,-65.4296875,-177.734375,-194.82421875,0.0
16.45703125,-319.3359375,-43.45703125,-77.1484375,-207.51953125,-154.296875,0.0
16.4609375,-380.859375,-55.6640625,-88.8671875,-255.37109375,-83.49609375,0.0
16.46484375,-418.9453125,-65.91796875,-108.88671875,-297.8515625,-88.8671875,0.0
16.46875,-425.78125,-71.2890625,-103.02734375,-315.91796875,-121.09375,0.0
16.47265625,-431.15234375,-73.73046875,-86.9140625,-325.68359375,-48.33984375,0.0
16.4765625,-436.03515625,-58.59375,-77.63671875,-328.61328125,3.90625,0.0
16.48046875,-423.828125,-46.38671875,-62.5,-318.359375,0.9765625,0.0
16.484375,-430.17578125,-52.734375,-57.12890625,-298.828125,-50.29296875,0.0
16.48828125,-442.3828125,-54.19921875,-55.17578125,-289.55078125,-11.71875,0.0
16.4921875,-412.109375,-62.98828125,-56.15234375,-284.66796875,-43.9453125,0.0
16.49609375,-379.39453125,-78.61328125,-62.5,-267.08984375,-83.49609375,0.0
16.5,-354.4921875,-78.125,-68.359375,-248.046875,24.90234375,0.0
16.50390625,-327.1484375,-74.21875,-76.66015625,-229.98046875,87.40234375,0.0
16.5078125,-314.94140625,-77.1484375,-80.078125,-195.3125,98.6328125,0.0
16.51171875,-284.1796875,-81.54296875,-83.0078125,-159.1796875,63.4765625,0.0
16.515625,-248.53515625,-93.26171875,-92.7734375,-141.11328125,54.6875,0.0
16.51953125,-232.421875,-94.23828125,-91.30859375,-117.1875,71.2890625,0.0
16.5234375,-210.44921875,-87.40234375,-81.0546875,-108.3984375,33.203125,0.0
16.52734375,-178.22265625,-91.796875,-73.2421875,-100.09765625,-62.5,0.0
16.53125,-155.76171875,-96.6796875,-80.078125,-82.03125,-47.36328125,0.0
16.53515625,-152.34375,-96.6796875,-96.6796875,-77.1484375,-26.85546875,0.0
16.5390625,-141.11328125,-83.49609375,-97.65625,-58.10546875,-20.5078125,0.0
16.54296875,-127.44140625,-70.3125,-88.37890625,-46.38671875,-25.390625,0.0
16.546875,-118.65234375,-79.58984375,-90.33203125,-31.73828125,-7.32421875,0.0
16.55078125,-108.88671875,-87.890625,-92.7734375,-11.71875,9.765625,0.0
16.5546875,-94.23828125,-77.1484375,-88.8671875,5.37109375,-1.46484375,0.0
16.55859375,-78.61328125,-71.77734375,-86.9140625,17.578125,18.5546875,0.0
16.5625,-85.44921875,-88.8671875,-91.796875,-1.46484375,75.68359375,0.0
16.56640625,-87.890625,-96.6796875,-91.30859375,1.46484375,50.29296875,0.0
16.5703125,-80.56640625,-94.7265625,-88.8671875,17.08984375,-18.06640625,0.0
16.57421875,-83.0078125,-95.21484375,-91.30859375,-3.90625,-108.3984375,0.0
16.578125,-71.2890625,-85.9375,-84.47265625,-15.625,-106.4453125,0.0
16.58203125,-69.82421875,-73.73046875,-67.87109375,19.04296875,-68.359375,0.0
16.5859375,-69.3359375,-69.82421875,-70.80078125,27.34375,-75.1953125,0.0
16.58984375,-62.01171875,-72.75390625,-74.21875,26.3671875,-8.30078125,0.0
16.59375,-38.0859375,-65.91796875,-63.96484375,39.0625,-8.7890625,0.0
16.59765625,-24.4140625,-48.828125,-51.26953125,41.015625,-20.99609375,0.0
16.6015625,-34.66796875,-45.41015625,-39.55078125,51.26953125,46.38671875,0.0
16.60546875,-41.50390625,-61.5234375,-51.7578125,35.15625,74.21875,0.0
16.609375,-32.71484375,-60.05859375,-49.8046875,27.34375,31.25,0.0
16.61328125,-30.76171875,-56.15234375,-50.78125,35.15625,-30.76171875,0.0
16.6171875,-50.29296875,-62.98828125,-63.96484375,22.4609375,-52.734375,0.0
16.62109375,-55.6640625,-66.89453125,-67.3828125,23.92578125,-127.44140625,0.0
16.625,-43.45703125,-66.40625,-62.5,31.73828125,-174.31640625,0.0
16.62890625,-50.29296875,-67.87109375,-57.12890625,20.01953125,-61.03515625,0.0
16.6328125,-63.96484375,-65.91796875,-58.10546875,15.625,-3.90625,0.0
16.63671875,-62.01171875,-62.01171875,-56.15234375,22.94921875,-47.36328125,0.0
16.640625,-46.38671875,-62.01171875,-49.31640625,28.80859375,-32.2265625,0.0
16.64453125,-42.48046875,-53.22265625,-41.50390625,13.18359375,-45.41015625,0.0
16.6484375,-58.10546875,-48.828125,-39.55078125,0.48828125,-2.9296875,0.0
16.65234375,-69.3359375,-54.6875,-45.8984375,9.765625,42.96875,0.0
16.65625,-75.1953125,-65.4296875,-53.22265625,8.30078125,-7.8125,0.0
16.66015625,-71.2890625,-74.70703125,-55.6640625,6.8359375,-8.7890625,0.0
16.6640625,-70.80078125,-70.80078125,-58.59375,-10.25390625,7.32421875,0.0
16.66796875,-82.51953125,-67.3828125,-53.7109375,-18.5546875,6.8359375,0.0
16.671875,-81.54296875,-69.82421875,-42.96875,2.44140625,7.8125,0.0
16.67578125,-75.68359375,-56.640625,-33.203125,16.11328125,63.96484375,0.0
16.6796875,-73.2421875,-47.36328125,-27.34375,12.20703125,0.48828125,0.0
16.68359375,-70.80078125,-46.38671875,-29.296875,12.6953125,5.37109375,0.0
16.6875,-58.59375,-44.43359375,-29.78515625,16.6015625,-14.16015625,0.0
16.69140625,-43.9453125,-44.43359375,-25.390625,22.4609375,-132.32421875,0.0
16.6953125,-38.0859375,-41.9921875,-20.01953125,16.6015625,-38.0859375,0.0
16.69921875,-40.52734375,-36.62109375,-11.23046875,34.66796875,48.828125,0.0
16.703125,-49.31640625,-37.109375,-11.23046875,53.22265625,-23.92578125,0.0
16.70703125,-59.08203125,-45.8984375,-16.6015625,33.69140625,-42.48046875,0.0
16.7109375,-78.125,-65.4296875,-32.71484375,12.6953125,-56.640625,0.0
16.71484375,-95.703125,-74.70703125,-45.8984375,-4.39453125,-113.28125,0.0
16.71875,-91.30859375,-68.84765625,-41.015625,-12.6953125,-94.7265625,0.0
16.72265625,-66.89453125,-54.19921875,-24.90234375,4.39453125,-24.4140625,0.0
16.7265625,-61.03515625,-42.48046875,-13.18359375,4.8828125,-6.8359375,0.0
16.73046875,-64.94140625,-37.109375,-19.04296875,-3.90625,23.4375,0.0
16.734375,-54.6875,-33.69140625,-15.625,3.90625,69.82421875,0.0
16.73828125,-43.45703125,-39.0625,-14.16015625,0.0,20.01953125,0.0
16.7421875,-52.734375,-45.8984375,-28.80859375,-29.78515625,-66.40625,0.0
16.74609375,-56.640625,-45.8984375,-33.69140625,-13.18359375,-76.66015625,0.0
16.75,-33.203125,-42.96875,-28.3203125,-1.953125,-43.45703125,0.0
16.75390625,-30.76171875,-51.26953125,-32.2265625,-27.83203125,-27.34375,0.0
16.7578125,-42.48046875,-55.6640625,-38.0859375,-31.25,-77.63671875,0.0
16.76171875,-59.08203125,-57.6171875,-42.96875,-25.390625,-138.18359375,0.0
16.765625,-77.63671875,-64.453125,-38.0859375,-28.3203125,-154.78515625,0.0
16.76953125,-75.1953125,-67.87109375,-32.2265625,-30.2734375,-147.4609375,0.0
16.7734375,-67.3828125,-63.4765625,-31.73828125,-27.34375,9.27734375,0.0
16.77734375,-60.05859375,-62.5,-29.78515625,-18.5546875,58.59375,0.0
16.78125,-69.82421875,-73.2421875,-39.0625,-27.34375,23.4375,0.0
16.78515625,-94.23828125,-88.37890625,-52.734375,-43.9453125,-46.38671875,0.0
16.7890625,-96.19140625,-89.84375,-48.33984375,-37.109375,-62.98828125,0.0
16.79296875,-96.6796875,-78.61328125,-41.015625,-38.0859375,-44.43359375,0.0
16.796875,-100.09765625,-72.265625,-38.57421875,-48.828125,5.37109375,0.0
16.80078125,-91.30859375,-62.01171875,-24.4140625,-35.64453125,-8.7890625,0.0
16.8046875,-78.61328125,-47.8515625,-10.7421875,-11.71875,-76.171875,0.0
16.80859375,-78.61328125,-45.41015625,-10.7421875,-4.8828125,-80.078125,0.0
16.8125,-95.21484375,-51.7578125,-12.6953125,-7.8125,-50.29296875,0.0
16.81640625,-96.6796875,-53.22265625,-13.18359375,-5.859375,-61.5234375,0.0
16.8203125,-86.42578125,-52.734375,-20.5078125,-8.7890625,-89.84375,0.0
16.82421875,-82.03125,-50.78125,-27.34375,-8.7890625,-52.24609375,0.0
16.828125,-89.84375,-47.36328125,-25.390625,-13.18359375,-11.23046875,0.0
16.83203125,-79.58984375,-39.0625,-24.90234375,-13.18359375,-27.83203125,0.0
16.8359375,-68.84765625,-35.15625,-16.11328125,-7.32421875,-31.73828125,0.0
16.83984375,-68.359375,-33.203125,-3.41796875,1.953125,25.390625,0.0
16.84375,-74.70703125,-33.69140625,-5.37109375,-16.11328125,73.73046875,0.0
16.84765625,-74.21875,-33.203125,-7.8125,-26.85546875,76.66015625,0.0
16.8515625,-69.82421875,-33.69140625,-5.859375,-18.06640625,74.21875,0.0
16.85546875,-64.453125,-41.9921875,-4.8828125,-13.671875,21.484375,0.0
16.859375,-51.7578125,-41.015625,-3.41796875,-12.20703125,-21.484375,0.0
16.86328125,-54.19921875,-43.9453125,-2.9296875,-20.5078125,33.69140625,0.0
16.8671875,-63.96484375,-54.19921875,-13.18359375,-29.78515625,5.37109375,0.0
16.87109375,-62.01171875,-56.15234375,-26.3671875,-43.45703125,-72.265625,0.0
16.875,-57.12890625,-53.22265625,-29.296875,-41.015625,-12.6953125,0.0
16.87890625,-60.546875,-56.640625,-32.71484375,-27.34375,64.453125,0.0
16.8828125,-38.0859375,-58.10546875,-31.25,-9.765625,54.6875,0.0
16.88671875,-33.69140625,-54.19921875,-27.83203125,-13.671875,-34.1796875,0.0
16.890625,-75.1953125,-60.546875,-23.4375,-41.50390625,-54.19921875,0.0
16.89453125,-91.796875,-63.4765625,-14.6484375,-32.71484375,-38.57421875,0.0
16.8984375,-85.9375,-57.12890625,-12.20703125,-20.01953125,-124.0234375,0.0
16.90234375,-99.12109375,-62.5,-24.4140625,-33.203125,-133.30078125,0.0
16.90625,-104.00390625,-54.6875,-17.578125,-12.20703125,-41.9921875,0.0
16.91015625,-91.30859375,-43.45703125,-1.46484375,-7.32421875,-55.6640625,0.0
16.9140625,-65.4296875,-32.71484375,11.71875,-9.765625,-45.41015625,0.0
16.91796875,-52.24609375,-29.78515625,15.13671875,1.953125,-46.38671875,0.0
16.921875,-66.89453125,-37.59765625,6.8359375,-7.8125,-37.59765625,0.0
16.92578125,-62.01171875,-35.15625,2.9296875,-18.5546875,36.62109375,0.0
16.9296875,-57.12890625,-41.50390625,3.41796875,-18.06640625,9.765625,0.0
16.93359375,-51.26953125,-44.921875,4.8828125,-7.8125,-24.4140625,0.0
16.9375,-39.55078125,-30.76171875,13.671875,15.625,-39.55078125,0.0
16.94140625,-32.2265625,-26.3671875,19.04296875,16.11328125,3.90625,0.0
16.9453125,-41.015625,-30.76171875,19.04296875,11.23046875,58.10546875,0.0
16.94921875,-56.15234375,-24.4140625,17.08984375,13.671875,-21.484375,0.0
16.953125,-39.0625,-13.671875,17.578125,15.13671875,-40.52734375,0.0
16.95703125,-15.625,-8.7890625,25.87890625,20.01953125,-9.765625,0.0
16.9609375,-12.6953125,-3.90625,27.34375,19.04296875,45.8984375,0.0
16.96484375,-20.5078125,-6.34765625,23.92578125,15.13671875,88.8671875,0.0
16.96875,-26.3671875,-18.06640625,21.484375,21.97265625,-28.80859375,0.0
16.97265625,-34.1796875,-20.5078125,20.99609375,12.20703125,-39.55078125,0.0
16.9765625,-37.59765625,-9.27734375,26.85546875,-2.44140625,59.5703125,0.0
16.98046875,-23.92578125,-16.6015625,18.5546875,7.8125,100.5859375,0.0
16.984375,-17.578125,-34.66796875,4.8828125,2.44140625,39.55078125,0.0
16.98828125,-29.296875,-37.109375,-2.9296875,-9.765625,19.04296875,0.0
16.9921875,-43.9453125,-41.50390625,-4.39453125,-2.9296875,32.2265625,0.0
16.99609375,-34.66796875,-41.50390625,-1.953125,-4.8828125,-34.66796875,0.0
17.0,-20.5078125,-35.15625,4.39453125,-6.8359375,-70.80078125,0.0
17.00390625,-30.76171875,-30.2734375,16.11328125,-3.90625,-118.65234375,0.0
17.0078125,-31.73828125,-30.2734375,15.13671875,-9.27734375,-159.1796875,0.0
17.01171875,-18.06640625,-43.9453125,6.8359375,-17.578125,-46.38671875,0.0
17.015625,3.41796875,-44.921875,10.25390625,-13.671875,-3.90625,0.0
17.01953125,4.8828125,-40.52734375,6.34765625,-12.20703125,-32.71484375,0.0
17.0234375,-12.6953125,-36.1328125,1.46484375,-14.16015625,-54.19921875,0.0
17.02734375,-16.11328125,-22.94921875,9.27734375,-3.90625,-109.86328125,0.0
17.03125,4.39453125,-10.25390625,12.20703125,5.859375,-90.8203125,0.0
17.03515625,27.83203125,-9.27734375,12.20703125,-2.44140625,-60.546875,0.0
17.0390625,32.71484375,-7.32421875,17.578125,0.0,-66.89453125,0.0
17.04296875,26.3671875,-4.8828125,16.6015625,5.859375,-74.70703125,0.0
17.046875,13.671875,-16.11328125,9.27734375,3.41796875,-42.96875,0.0
17.05078125,-0.9765625,-31.25,2.9296875,-2.44140625,-16.11328125,0.0
17.0546875,-0.9765625,-31.25,4.8828125,6.34765625,-85.44921875,0.0
17.05859375,6.34765625,-19.53125,11.71875,22.94921875,-55.6640625,0.0
17.0625,1.46484375,-17.578125,7.8125,8.30078125,-12.20703125,0.0
17.06640625,5.859375,-23.4375,2.9296875,-4.8828125,7.32421875,0.0
17.0703125,19.53125,-18.06640625,5.37109375,9.27734375,40.0390625,0.0
17.07421875,28.3203125,-15.13671875,8.30078125,20.5078125,73.73046875,0.0
17.078125,39.0625,-20.5078125,10.25390625,9.765625,76.171875,0.0
17.08203125,34.1796875,-24.90234375,13.671875,-2.9296875,46.38671875,0.0
17.0859375,21.97265625,-20.01953125,17.578125,5.37109375,39.0625,0.0
17.08984375,36.1328125,-3.41796875,29.296875,8.7890625,41.015625,0.0
17.09375,48.828125,9.765625,36.62109375,15.625,26.85546875,0.0
17.09765625,49.8046875,9.765625,32.2265625,33.203125,-80.56640625,0.0
17.1015625,46.875,1.953125,23.4375,31.73828125,-97.65625,0.0
17.10546875,39.55078125,-3.41796875,20.01953125,5.859375,-7.32421875,0.0
17.109375,50.78125,2.9296875,26.85546875,17.08984375,-30.2734375,0.0
17.11328125,76.171875,-1.46484375,24.90234375,43.45703125,-43.9453125,0.0
17.1171875,90.33203125,-12.20703125,15.625,39.0625,-22.4609375,0.0
17.12109375,69.3359375,-4.8828125,10.7421875,5.37109375,-94.7265625,0.0
17.125,30.76171875,3.41796875,1.953125,-23.4375,-125.48828125,0.0
17.12890625,14.16015625,-0.9765625,-7.32421875,-20.01953125,-57.12890625,0.0
17.1328125,6.8359375,-20.99609375,-18.06640625,-17.08984375,-35.64453125,0.0
17.13671875,12.20703125,-26.3671875,-28.80859375,-12.20703125,-21.97265625,0.0
17.140625,19.53125,-20.5078125,-27.34375,-17.578125,48.33984375,0.0
17.14453125,17.578125,-19.53125,-22.4609375,-30.2734375,5.859375,0.0
17.1484375,22.94921875,-21.484375,-16.11328125,-12.20703125,-99.12109375,0.0
17.15234375,22.94921875,-26.85546875,-14.16015625,9.27734375,-171.875,0.0
17.15625,20.5078125,-20.5078125,-18.5546875,16.11328125,-149.90234375,0.0
17.16015625,28.3203125,-13.18359375,-10.7421875,13.18359375,-65.91796875,0.0
17.1640625,33.69140625,-9.765625,-4.39453125,15.13671875,-18.5546875,0.0
17.16796875,15.625,-11.71875,-15.13671875,3.90625,-46.875,0.0
17.171875,2.44140625,-15.13671875,-18.06640625,1.46484375,-79.58984375,0.0
17.17578125,16.6015625,-3.41796875,-6.8359375,21.97265625,-35.64453125,0.0
17.1796875,28.3203125,4.39453125,-5.37109375,27.34375,-22.94921875,0.0
17.18359375,27.34375,-6.8359375,-8.7890625,7.32421875,-70.3125,0.0
17.1875,21.97265625,-20.99609375,-11.71875,-9.27734375,-31.25,0.0
17.19140625,6.34765625,-19.53125,-14.6484375,4.39453125,37.59765625,0.0
17.1953125,-2.9296875,-14.16015625,-15.625,4.39453125,28.80859375,0.0
17.19921875,8.7890625,-14.6484375,-14.16015625,1.953125,30.2734375,0.0
17.203125,-2.9296875,-18.5546875,-15.625,-2.9296875,-13.671875,0.0
17.20703125,-3.90625,-20.5078125,-22.4609375,-5.37109375,-62.5,0.0
17.2109375,20.5078125,-27.83203125,-19.04296875,-3.90625,-2.44140625,0.0
17.21484375,21.484375,-33.69140625,-18.5546875,-24.4140625,10.25390625,0.0
17.21875,10.7421875,-24.90234375,-15.625,-15.625,-4.8828125,0.0
17.22265625,14.16015625,-21.97265625,-5.859375,-8.7890625,-23.4375,0.0
17.2265625,23.4375,-23.92578125,-6.8359375,-26.3671875,-49.31640625,0.0
17.23046875,18.06640625,-25.390625,-13.671875,-17.08984375,-60.05859375,0.0
17.234375,21.97265625,-20.99609375,-14.6484375,-8.30078125,-24.90234375,0.0
17.23828125,41.9921875,-20.5078125,-4.8828125,-2.9296875,-15.625,0.0
17.2421875,43.45703125,-20.99609375,0.48828125,4.8828125,-9.27734375,0.0
17.24609375,34.66796875,-17.578125,-4.8828125,0.48828125,-21.484375,0.0
17.25,32.71484375,-20.99609375,-10.25390625,-2.44140625,-84.9609375,0.0
17.25390625,26.85546875,-33.69140625,-20.99609375,-12.6953125,-12.6953125,0.0
17.2578125,13.671875,-39.0625,-24.4140625,-37.109375,47.36328125,0.0
17.26171875,18.06640625,-33.69140625,-22.94921875,-34.66796875,-79.1015625,0.0
17.265625,14.16015625,-26.3671875,-22.94921875,-19.53125,-60.05859375,0.0
17.26953125,-5.37109375,-30.76171875,-26.3671875,-29.296875,-54.19921875,0.0
17.2734375,-32.2265625,-44.921875,-39.55078125,-49.8046875,-94.23828125,0.0
17.27734375,-35.64453125,-48.828125,-42.96875,-46.875,-75.1953125,0.0
17.28125,-23.4375,-59.5703125,-41.50390625,-40.0390625,26.85546875,0.0
17.28515625,-31.73828125,-65.91796875,-49.31640625,-53.22265625,66.89453125,0.0
17.2890625,-29.78515625,-52.24609375,-50.78125,-59.5703125,2.9296875,0.0
17.29296875,-17.08984375,-40.52734375,-41.015625,-50.78125,-43.45703125,0.0
17.296875,-12.20703125,-37.59765625,-36.62109375,-38.57421875,-43.9453125,0.0
17.30078125,-22.94921875,-44.43359375,-45.41015625,-40.52734375,-13.671875,0.0
17.3046875,-26.3671875,-51.26953125,-53.22265625,-58.59375,-30.2734375,0.0
17.30859375,-4.8828125,-41.015625,-39.0625,-22.94921875,-38.0859375,0.0
17.3125,10.7421875,-35.15625,-34.66796875,-8.30078125,13.671875,0.0
17.31640625,-2.44140625,-33.203125,-41.9921875,-49.31640625,-29.78515625,0.0
17.3203125,-32.2265625,-34.1796875,-39.55078125,-64.453125,-57.12890625,0.0
17.32421875,-33.203125,-37.59765625,-30.2734375,-37.109375,-27.83203125,0.0
17.328125,-25.87890625,-41.50390625,-32.71484375,-24.4140625,-33.203125,0.0
17.33203125,-30.2734375,-45.8984375,-39.0625,-29.78515625,-98.14453125,0.0
17.3359375,-14.6484375,-35.15625,-26.85546875,-13.671875,-137.6953125,0.0
17.33984375,-3.41796875,-20.99609375,-18.5546875,-18.06640625,-13.18359375,0.0
17.34375,-11.23046875,-19.53125,-16.11328125,-36.62109375,34.1796875,0.0
17.34765625,-10.7421875,-14.6484375,-13.671875,-27.34375,-30.2734375,0.0
17.3515625,0.0,-12.6953125,-23.4375,-19.04296875,-57.12890625,0.0
17.35546875,-2.9296875,-23.4375,-31.73828125,-19.04296875,-60.546875,0.0
17.359375,-13.671875,-30.2734375,-30.76171875,-26.3671875,-41.015625,0.0
17.36328125,-33.69140625,-36.62109375,-38.57421875,-41.9921875,-66.40625,0.0
17.3671875,-50.29296875,-41.50390625,-38.57421875,-48.33984375,-59.08203125,0.0
17.37109375,-28.80859375,-23.92578125,-23.4375,-46.38671875,-40.0390625,0.0
17.375,-16.6015625,-8.30078125,-10.25390625,-28.3203125,-65.4296875,0.0
17.37890625,-10.25390625,-20.5078125,-2.44140625,-27.83203125,-81.54296875,0.0
17.3828125,-4.8828125,-36.1328125,-7.32421875,-36.62109375,-111.328125,0.0
17.38671875,-20.01953125,-22.4609375,-13.671875,-12.6953125,-22.94921875,0.0
17.390625,-22.94921875,-17.08984375,-13.671875,-10.25390625,51.26953125,0.0
17.39453125,-21.484375,-18.06640625,-6.34765625,-20.99609375,23.4375,0.0
17.3984375,-18.5546875,-7.8125,-4.8828125,-16.11328125,0.9765625,0.0
17.40234375,-23.92578125,-2.44140625,-9.765625,-17.578125,-30.2734375,0.0
17.40625,-22.4609375,3.41796875,-8.30078125,-17.08984375,-49.31640625,0.0
17.41015625,-13.671875,0.0,-11.23046875,-11.71875,-55.17578125,0.0
17.4140625,-20.5078125,-12.6953125,-14.16015625,-11.23046875,-57.6171875,0.0
17.41796875,-19.04296875,-16.11328125,-13.18359375,-19.53125,-45.41015625,0.0
17.421875,-13.671875,-15.13671875,-19.53125,-12.6953125,24.4140625,0.0
17.42578125,-20.5078125,-19.53125,-22.4609375,3.90625,24.90234375,0.0
17.4296875,-28.80859375,-23.4375,-23.4375,-11.23046875,-20.99609375,0.0
17.43359375,-25.87890625,-18.06640625,-21.484375,-26.85546875,-39.0625,0.0
17.4375,-21.97265625,-7.8125,-10.7421875,-24.90234375,-50.29296875,0.0
17.44140625,-23.4375,-5.37109375,-10.25390625,-16.6015625,-57.6171875,0.0
17.4453125,-24.4140625,-10.25390625,-19.53125,-30.76171875,-76.66015625,0.0
17.44921875,-17.578125,-5.859375,-15.13671875,-36.62109375,-136.23046875,0.0
17.453125,-15.625,-4.8828125,-10.25390625,-26.85546875,-124.51171875,0.0
17.45703125,-26.3671875,-9.765625,-18.5546875,-25.390625,-143.5546875,0.0
17.4609375,-32.2265625,-17.08984375,-26.85546875,-36.62109375,-179.6875,0.0
17.46484375,-31.73828125,-26.85546875,-28.80859375,-45.41015625,-164.55078125,0.0
17.46875,-27.34375,-27.83203125,-30.76171875,-48.33984375,-65.4296875,0.0
17.47265625,-31.73828125,-22.4609375,-28.3203125,-45.8984375,-59.08203125,0.0
17.4765625,-46.875,-25.390625,-23.92578125,-48.33984375,-166.50390625,0.0
17.48046875,-46.875,-31.25,-23.4375,-44.43359375,-154.296875,0.0
17.484375,-45.41015625,-33.69140625,-23.92578125,-50.29296875,-88.37890625,0.0
17.48828125,-55.17578125,-28.80859375,-27.34375,-83.984375,-62.01171875,0.0
17.4921875,-68.359375,-27.83203125,-37.109375,-81.0546875,-2.9296875,0.0
17.49609375,-70.3125,-24.90234375,-39.55078125,-72.75390625,26.85546875,0.0
17.5,-63.4765625,-25.390625,-38.57421875,-74.21875,107.421875,0.0
17.50390625,-70.80078125,-35.15625,-43.9453125,-72.265625,83.0078125,0.0
17.5078125,-78.125,-42.96875,-45.41015625,-76.171875,-5.859375,0.0
17.51171875,-65.91796875,-39.55078125,-44.921875,-53.22265625,44.43359375,0.0
17.515625,-56.640625,-38.0859375,-45.8984375,-40.0390625,69.3359375,0.0
17.51953125,-59.5703125,-46.875,-49.8046875,-47.8515625,66.89453125,0.0
17.5234375,-73.2421875,-53.22265625,-50.78125,-56.640625,6.34765625,0.0
17.52734375,-65.4296875,-54.6875,-48.828125,-64.94140625,-40.52734375,0.0
17.53125,-54.19921875,-52.734375,-45.8984375,-72.265625,-43.9453125,0.0
17.53515625,-62.5,-42.48046875,-43.9453125,-62.01171875,-28.80859375,0.0
17.5390625,-62.01171875,-32.71484375,-36.62109375,-63.96484375,37.109375,0.0
17.54296875,-62.5,-44.43359375,-41.9921875,-97.65625,36.62109375,0.0
17.546875,-74.70703125,-51.26953125,-48.828125,-92.28515625,-2.44140625,0.0
17.55078125,-75.1953125,-48.33984375,-48.828125,-89.35546875,-25.87890625,0.0
17.5546875,-80.078125,-57.12890625,-52.24609375,-106.93359375,-22.4609375,0.0
17.55859375,-75.68359375,-59.5703125,-53.7109375,-103.02734375,41.9921875,0.0
17.5625,-63.96484375,-54.6875,-52.734375,-91.796875,21.484375,0.0
17.56640625,-71.77734375,-48.828125,-55.17578125,-82.51953125,-40.0390625,0.0
17.5703125,-85.9375,-45.8984375,-52.24609375,-90.8203125,-28.80859375,0.0
17.57421875,-83.984375,-43.45703125,-48.33984375,-88.37890625,27.34375,0.0
17.578125,-73.73046875,-39.55078125,-44.921875,-79.58984375,24.90234375,0.0
17.58203125,-78.125,-36.1328125,-34.66796875,-63.4765625,32.2265625,0.0
17.5859375,-88.37890625,-33.203125,-35.64453125,-60.05859375,41.9921875,0.0
17.58984375,-66.89453125,-37.109375,-35.64453125,-45.8984375,10.7421875,0.0
17.59375,-42.96875,-33.203125,-25.87890625,-38.57421875,-47.36328125,0.0
17.59765625,-73.2421875,-37.59765625,-43.9453125,-85.44921875,-65.4296875,0.0
17.6015625,-95.21484375,-33.69140625,-50.78125,-104.4921875,29.78515625,0.0
17.60546875,-78.125,-23.4375,-36.1328125,-88.8671875,37.59765625,0.0
17.609375,-80.078125,-33.69140625,-33.69140625,-92.7734375,-56.640625,0.0
17.61328125,-77.1484375,-31.73828125,-35.15625,-84.9609375,-42.96875,0.0
17.6171875,-82.03125,-32.2265625,-40.0390625,-78.125,28.3203125,0.0
17.62109375,-98.14453125,-45.8984375,-51.7578125,-90.8203125,29.78515625,0.0
17.625,-85.9375,-41.50390625,-55.17578125,-82.03125,-60.05859375,0.0
17.62890625,-75.1953125,-32.71484375,-53.22265625,-82.03125,-166.50390625,0.0
17.6328125,-62.5,-28.3203125,-50.29296875,-92.7734375,-169.921875,0.0
17.63671875,-49.8046875,-24.90234375,-47.8515625,-86.42578125,-29.296875,0.0
17.640625,-45.8984375,-33.203125,-56.640625,-77.1484375,36.1328125,0.0
17.64453125,-56.640625,-38.0859375,-56.15234375,-77.63671875,-28.80859375,0.0
17.6484375,-52.24609375,-31.25,-40.0390625,-76.171875,-43.45703125,0.0
17.65234375,-45.41015625,-39.0625,-42.48046875,-82.03125,15.625,0.0
17.65625,-58.10546875,-56.15234375,-56.640625,-105.46875,20.99609375,0.0
17.66015625,-63.4765625,-57.6171875,-64.453125,-100.5859375,80.56640625,0.0
17.6640625,-65.91796875,-54.19921875,-67.3828125,-92.28515625,62.01171875,0.0
17.66796875,-73.2421875,-52.24609375,-68.84765625,-85.44921875,-40.52734375,0.0
17.671875,-88.8671875,-44.921875,-68.84765625,-91.30859375,-73.73046875,0.0
17.67578125,-65.91796875,-36.62109375,-62.5,-93.75,-62.01171875,0.0
17.6796875,-41.9921875,-36.1328125,-52.734375,-79.1015625,-88.8671875,0.0
17.68359375,-72.75390625,-44.921875,-63.96484375,-104.00390625,-98.6328125,0.0
17.6875,-74.70703125,-42.96875,-68.359375,-118.65234375,-41.9921875,0.0
17.69140625,-67.87109375,-35.15625,-62.5,-82.03125,-9.27734375,0.0
17.6953125,-80.56640625,-38.57421875,-70.80078125,-83.984375,8.30078125,0.0
17.69921875,-91.796875,-54.6875,-84.47265625,-104.00390625,19.04296875,0.0
17.703125,-97.65625,-57.12890625,-86.9140625,-95.703125,38.57421875,0.0
17.70703125,-100.09765625,-42.96875,-80.56640625,-97.16796875,37.109375,0.0
17.7109375,-109.375,-43.9453125,-73.73046875,-105.46875,-51.26953125,0.0
17.71484375,-104.00390625,-43.45703125,-62.98828125,-94.7265625,-79.1015625,0.0
17.71875,-92.7734375,-30.2734375,-50.29296875,-80.078125,-40.52734375,0.0
17.72265625,-107.421875,-25.390625,-48.828125,-85.9375,41.015625,0.0
17.7265625,-133.30078125,-32.71484375,-53.7109375,-107.421875,25.87890625,0.0
17.73046875,-124.51171875,-35.15625,-54.19921875,-98.6328125,-35.64453125,0.0
17.734375,-121.58203125,-30.2734375,-60.05859375,-91.30859375,35.15625,0.0
17.73828125,-113.76953125,-27.34375,-65.91796875,-90.8203125,2.9296875,0.0
17.7421875,-98.6328125,-26.85546875,-70.80078125,-89.35546875,-83.984375,0.0
17.74609375,-106.4453125,-28.80859375,-71.77734375,-93.26171875,-63.96484375,0.0
17.75,-120.60546875,-31.73828125,-59.5703125,-84.9609375,-57.6171875,0.0
17.75390625,-115.72265625,-27.83203125,-52.24609375,-91.30859375,-64.453125,0.0
17.7578125,-107.91015625,-26.3671875,-47.8515625,-95.703125,-22.94921875,0.0
17.76171875,-96.19140625,-31.25,-43.45703125,-82.51953125,19.53125,0.0
17.765625,-83.0078125,-24.4140625,-44.921875,-86.42578125,-22.4609375,0.0
17.76953125,-98.6328125,-21.97265625,-48.33984375,-103.02734375,4.8828125,0.0
17.7734375,-107.421875,-29.78515625,-59.08203125,-110.3515625,1.46484375,0.0
17.77734375,-104.00390625,-31.73828125,-63.4765625,-102.5390625,-45.8984375,0.0
17.78125,-101.07421875,-33.203125,-57.12890625,-109.375,-4.8828125,0.0
17.78515625,-100.5859375,-26.85546875,-55.6640625,-123.53515625,33.69140625,0.0
17.7890625,-107.91015625,-21.97265625,-54.19921875,-125.48828125,-23.4375,0.0
17.79296875,-101.07421875,-29.296875,-33.69140625,-118.65234375,-60.05859375,0.0
17.796875,-114.74609375,-20.99609375,-17.578125,-112.3046875,37.109375,0.0
17.80078125,-120.60546875,-20.99609375,-33.203125,-135.7421875,94.7265625,0.0
17.8046875,-146.97265625,-39.0625,-48.828125,-166.50390625,52.734375,0.0
17.80859375,-166.50390625,-33.203125,-48.33984375,-183.10546875,44.43359375,0.0
17.8125,-154.296875,-10.25390625,-46.38671875,-172.36328125,14.16015625,0.0
17.81640625,-159.1796875,4.39453125,-41.50390625,-160.64453125,-32.2265625,0.0
17.8203125,-174.31640625,12.6953125,-47.8515625,-208.984375,-17.08984375,0.0
17.82421875,-195.80078125,10.7421875,-49.8046875,-235.3515625,-41.50390625,0.0
17.828125,-241.2109375,-0.48828125,-34.1796875,-235.3515625,-63.4765625,0.0
17.83203125,-279.78515625,-10.25390625,-41.9921875,-320.80078125,-35.64453125,0.0
17.8359375,-258.7890625,-15.625,-40.0390625,-367.67578125,-65.4296875,0.0
17.83984375,-247.55859375,-12.6953125,-36.62109375,-345.21484375,-77.63671875,0.0
17.84375,-239.74609375,-10.25390625,-33.69140625,-322.265625,-53.7109375,0.0
17.84765625,-243.1640625,-36.1328125,-31.73828125,-329.1015625,-168.45703125,0.0
17.8515625,-227.5390625,-55.17578125,-50.78125,-338.37890625,-183.59375,0.0
17.85546875,-183.59375,-27.83203125,-60.05859375,-304.19921875,-102.05078125,0.0
17.859375,-153.3203125,-8.30078125,-44.921875,-265.13671875,-6.8359375,0.0
17.86328125,-113.28125,-8.7890625,-25.87890625,-252.9296875,3.41796875,0.0
17.8671875,-69.3359375,-6.8359375,-26.85546875,-223.14453125,-21.484375,0.0
17.87109375,-40.52734375,-22.94921875,-28.80859375,-187.01171875,-45.41015625,0.0
17.875,-31.25,-42.96875,-26.3671875,-173.828125,-37.109375,0.0
17.87890625,-43.45703125,-50.78125,-29.296875,-170.8984375,-24.90234375,0.0
17.8828125,-48.33984375,-44.921875,-24.90234375,-175.78125,-12.20703125,0.0
17.88671875,-36.1328125,-35.15625,-17.578125,-169.43359375,28.3203125,0.0
17.890625,-27.83203125,-31.73828125,-20.01953125,-166.015625,-11.23046875,0.0
17.89453125,-49.31640625,-38.0859375,-39.55078125,-166.9921875,-78.61328125,0.0
17.8984375,-26.3671875,-34.1796875,-38.0859375,-151.3671875,-53.22265625,0.0
17.90234375,14.16015625,-31.73828125,-27.34375,-122.55859375,-19.04296875,0.0
17.90625,34.66796875,-51.26953125,-44.43359375,-106.4453125,-54.6875,0.0
17.91015625,54.6875,-53.22265625,-57.12890625,-98.6328125,-125.9765625,0.0
17.9140625,62.01171875,-45.8984375,-52.24609375,-88.37890625,-122.0703125,0.0
17.91796875,26.3671875,-68.359375,-64.94140625,-103.515625,-53.7109375,0.0
17.921875,-18.5546875,-79.1015625,-92.7734375,-95.703125,-7.8125,0.0
17.92578125,-26.3671875,-56.640625,-91.30859375,-62.01171875,34.1796875,0.0
17.9296875,-10.25390625,-39.55078125,-75.1953125,-48.33984375,-19.53125,0.0
17.93359375,42.48046875,-30.76171875,-67.87109375,-29.78515625,-103.02734375,0.0
17.9375,76.171875,-29.296875,-60.546875,-11.71875,-91.796875,0.0
17.94140625,70.3125,-31.73828125,-66.89453125,0.9765625,-79.58984375,0.0
17.9453125,109.375,-29.78515625,-72.265625,9.27734375,24.90234375,0.0
17.94921875,170.41015625,-28.80859375,-70.80078125,19.04296875,50.29296875,0.0
17.953125,175.78125,-32.2265625,-83.0078125,14.16015625,-51.26953125,0.0
17.95703125,171.38671875,-41.015625,-87.40234375,6.34765625,-4.8828125,0.0
17.9609375,179.6875,-56.15234375,-94.7265625,2.44140625,-8.7890625,0.0
17.96484375,166.015625,-74.70703125,-99.12109375,-0.9765625,-82.51953125,0.0
17.96875,152.34375,-62.5,-83.984375,-6.8359375,-55.17578125,0.0
17.97265625,144.53125,-40.52734375,-80.078125,0.0,-6.34765625,0.0
17.9765625,140.625,-33.69140625,-85.44921875,0.9765625,20.99609375,0.0
17.98046875,154.296875,-26.85546875,-83.0078125,8.7890625,-34.1796875,0.0
17.984375,151.85546875,-33.203125,-89.84375,-0.48828125,-131.8359375,0.0
17.98828125,120.60546875,-40.52734375,-96.19140625,-26.3671875,-76.66015625,0.0
17.9921875,96.19140625,-41.015625,-100.5859375,-31.25,36.62109375,0.0
17.99609375,86.9140625,-55.17578125,-112.3046875,-29.78515625,41.9921875,0.0
18.0,101.07421875,-63.96484375,-113.76953125,-38.57421875,40.52734375,0.0
18.00390625,98.6328125,-60.05859375,-114.74609375,-62.5,58.10546875,0.0
18.0078125,85.44921875,-55.6640625,-114.2578125,-51.7578125,27.83203125,0.0
18.01171875,74.21875,-62.98828125,-123.046875,-41.50390625,-40.0390625,0.0
18.015625,74.70703125,-58.10546875,-113.76953125,-36.62109375,-90.8203125,0.0
18.01953125,73.2421875,-39.55078125,-96.19140625,-27.83203125,-90.8203125,0.0
18.0234375,54.6875,-33.203125,-101.5625,-47.36328125,-95.21484375,0.0
18.02734375,33.203125,-47.36328125,-108.3984375,-52.24609375,-60.05859375,0.0
18.03125,23.4375,-53.7109375,-104.4921875,-63.4765625,-38.57421875,0.0
18.03515625,20.01953125,-39.55078125,-85.44921875,-88.8671875,0.48828125,0.0
18.0390625,9.765625,-21.97265625,-82.03125,-66.89453125,34.1796875,0.0
18.04296875,1.46484375,-15.625,-82.51953125,-46.38671875,-38.57421875,0.0
18.046875,-29.296875,-16.6015625,-70.3125,-62.5,-57.12890625,0.0
18.05078125,-54.19921875,-12.6953125,-74.70703125,-86.42578125,-68.84765625,0.0
18.0546875,-61.5234375,-12.20703125,-67.87109375,-110.83984375,-56.640625,0.0
18.05859375,-70.3125,9.27734375,-54.6875,-104.4921875,-21.97265625,0.0
18.0625,-109.86328125,36.62109375,-63.4765625,-135.25390625,-79.58984375,0.0
18.06640625,-153.80859375,34.66796875,-67.3828125,-180.6640625,-81.54296875,0.0
18.0703125,-192.87109375,29.296875,-69.82421875,-216.796875,-22.94921875,0.0
18.07421875,-226.07421875,19.53125,-84.9609375,-258.30078125,-26.3671875,0.0
18.078125,-226.5625,23.92578125,-88.8671875,-270.5078125,-19.04296875,0.0
18.08203125,-213.37890625,45.8984375,-65.4296875,-261.71875,10.7421875,0.0
18.0859375,-203.61328125,53.22265625,-41.9921875,-241.69921875,-6.8359375,0.0
18.08984375,-212.40234375,44.921875,-41.50390625,-233.88671875,-33.69140625,0.0
18.09375,-196.2890625,46.875,-46.38671875,-245.60546875,-54.6875,0.0
18.09765625,-181.15234375,31.25,-53.7109375,-259.27734375,-41.50390625,0.0
18.1015625,-184.5703125,13.18359375,-48.828125,-240.72265625,51.7578125,0.0
18.10546875,-173.828125,33.69140625,-36.62109375,-198.2421875,38.0859375,0.0
18.109375,-138.18359375,59.5703125,-41.50390625,-179.6875,104.98046875,0.0
18.11328125,-99.12109375,74.21875,-39.0625,-164.0625,112.79296875,0.0
18.1171875,-80.078125,66.40625,-38.57421875,-153.80859375,23.4375,0.0
18.12109375,-68.359375,40.0390625,-55.17578125,-156.73828125,-14.6484375,0.0
18.125,-41.015625,19.53125,-63.96484375,-131.34765625,-20.5078125,0.0
18.12890625,-21.484375,3.90625,-72.265625,-105.46875,-25.390625,0.0
18.1328125,-23.92578125,-0.9765625,-73.2421875,-92.7734375,-37.109375,0.0
18.13671875,-0.48828125,-7.8125,-69.82421875,-94.7265625,-52.734375,0.0
18.140625,13.18359375,-14.6484375,-71.77734375,-67.87109375,-39.55078125,0.0
18.14453125,11.23046875,-24.90234375,-67.87109375,-38.57421875,-61.03515625,0.0
18.1484375,28.3203125,-45.8984375,-77.1484375,-33.203125,-140.625,0.0
18.15234375,41.50390625,-51.26953125,-84.9609375,-20.01953125,-160.15625,0.0
18.15625,65.91796875,-45.8984375,-88.37890625,-13.671875,-129.39453125,0.0
18.16015625,68.359375,-41.50390625,-84.9609375,-10.7421875,-148.92578125,0.0
18.1640625,70.80078125,-48.33984375,-81.54296875,6.8359375,-139.6484375,0.0
18.16796875,78.61328125,-48.33984375,-78.125,18.5546875,-50.78125,0.0
18.171875,82.51953125,-37.109375,-62.98828125,44.43359375,15.13671875,0.0
18.17578125,109.375,-39.0625,-56.15234375,77.1484375,-32.2265625,0.0
18.1796875,115.234375,-51.26953125,-60.546875,70.3125,-24.4140625,0.0
18.18359375,117.1875,-50.78125,-55.6640625,67.87109375,7.32421875,0.0
18.1875,127.9296875,-50.78125,-54.6875,74.21875,9.27734375,0.0
18.19140625,126.953125,-56.15234375,-53.7109375,61.5234375,-34.1796875,0.0
18.1953125,109.86328125,-51.26953125,-45.41015625,66.40625,-48.33984375,0.0
18.19921875,107.421875,-39.0625,-34.1796875,103.02734375,14.16015625,0.0
18.203125,126.46484375,-34.1796875,-26.85546875,120.1171875,-6.34765625,0.0
18.20703125,127.44140625,-39.55078125,-31.73828125,104.4921875,-143.5546875,0.0
18.2109375,136.23046875,-34.1796875,-25.87890625,105.95703125,-155.76171875,0.0
18.21484375,138.671875,-23.4375,-19.53125,113.28125,-117.67578125,0.0
18.21875,143.06640625,-14.16015625,-14.6484375,113.76953125,-111.328125,0.0
18.22265625,151.3671875,-14.16015625,-12.6953125,102.5390625,-91.30859375,0.0
18.2265625,135.25390625,-28.3203125,-16.11328125,80.56640625,-90.8203125,0.0
18.23046875,107.91015625,-33.203125,-20.99609375,84.9609375,12.20703125,0.0
18.234375,82.51953125,-41.9921875,-35.64453125,86.9140625,44.43359375,0.0
18.23828125,78.125,-47.36328125,-31.73828125,75.68359375,-35.64453125,0.0
18.2421875,62.5,-40.52734375,-15.13671875,70.3125,-36.1328125,0.0
18.24609375,54.6875,-27.34375,0.48828125,79.1015625,-25.390625,0.0
18.25,80.078125,-17.08984375,13.671875,92.28515625,-41.9921875,0.0
18.25390625,73.73046875,-18.5546875,9.27734375,81.54296875,-17.08984375,0.0
18.2578125,56.640625,-26.3671875,0.0,63.96484375,15.13671875,0.0
18.26171875,72.265625,-28.80859375,-3.90625,73.2421875,24.90234375,0.0
18.265625,57.6171875,-32.2265625,-5.37109375,67.87109375,39.0625,0.0
18.26953125,39.0625,-37.59765625,-9.27734375,67.87109375,-6.8359375,0.0
18.2734375,57.6171875,-41.015625,-10.25390625,72.265625,8.7890625,0.0
18.27734375,64.453125,-40.0390625,-7.8125,55.17578125,-3.41796875,0.0
18.28125,83.984375,-28.80859375,-5.37109375,58.10546875,-63.4765625,0.0
18.28515625,104.4921875,-13.671875,1.46484375,83.984375,-39.0625,0.0
18.2890625,117.1875,-3.90625,12.6953125,89.84375,-101.5625,0.0
18.29296875,139.16015625,4.8828125,21.484375,79.1015625,-202.1484375,0.0
18.296875,139.16015625,5.859375,23.92578125,79.58984375,-131.34765625,0.0
18.30078125,126.953125,2.9296875,18.5546875,61.03515625,-45.41015625,0.0
18.3046875,118.1640625,-1.46484375,12.6953125,67.87109375,-5.859375,0.0
18.30859375,104.00390625,-10.25390625,4.8828125,80.56640625,-4.8828125,0.0
18.3125,82.51953125,-9.27734375,0.0,55.17578125,-55.17578125,0.0
18.31640625,48.33984375,-16.6015625,0.0,69.82421875,-34.66796875,0.0
18.3203125,38.57421875,-25.390625,-3.41796875,89.35546875,-60.546875,0.0
18.32421875,37.59765625,-13.671875,-0.9765625,79.58984375,-75.68359375,0.0
18.328125,30.2734375,-6.34765625,5.37109375,63.4765625,-45.41015625,0.0
18.33203125,50.78125,8.30078125,12.20703125,38.0859375,-41.9921875,0.0
18.3359375,67.3828125,8.7890625,12.20703125,5.859375,-47.8515625,0.0
