timestamp,TP9,AF7,AF8,TP10,AUX,Marker,
245.00390625,-115.72265625,-24.4140625,-0.48828125,-303.22265625,59.5703125,0.0
245.0078125,-106.4453125,-30.2734375,-14.16015625,-323.73046875,16.6015625,0.0
245.01171875,-105.95703125,-37.59765625,-22.4609375,-363.76953125,-2.9296875,0.0
245.015625,-109.375,-31.73828125,-14.16015625,-348.6328125,27.34375,0.0
245.01953125,-174.31640625,-19.53125,-13.18359375,-344.7265625,82.51953125,0.0
245.0234375,-195.3125,-19.04296875,-18.5546875,-371.58203125,26.85546875,0.0
245.02734375,-182.6171875,-21.484375,-11.71875,-353.02734375,-67.87109375,0.0
245.03125,-116.69921875,-22.94921875,-10.7421875,-371.09375,-20.99609375,0.0
245.03515625,-129.8828125,-27.83203125,-10.25390625,-429.19921875,33.69140625,0.0
245.0390625,-169.921875,-26.3671875,-12.20703125,-407.71484375,-12.20703125,0.0
245.04296875,-184.08203125,-25.87890625,-6.34765625,-392.578125,-44.43359375,0.0
245.046875,-243.65234375,-32.2265625,-2.44140625,-456.54296875,19.53125,0.0
245.05078125,-204.58984375,-26.85546875,-17.08984375,-453.61328125,99.609375,0.0
245.0546875,-157.2265625,-18.5546875,-17.578125,-464.35546875,139.6484375,0.0
245.05859375,-157.2265625,-29.296875,-25.87890625,-465.33203125,145.99609375,0.0
245.0625,-136.23046875,-40.52734375,-43.45703125,-449.21875,41.9921875,0.0
245.06640625,-137.6953125,-35.64453125,-41.50390625,-479.00390625,-3.90625,0.0
245.0703125,-170.41015625,-20.01953125,-33.203125,-475.09765625,38.57421875,0.0
245.07421875,-198.73046875,-22.4609375,-28.80859375,-461.42578125,-61.5234375,0.0
245.078125,-139.6484375,-26.85546875,-29.296875,-445.80078125,-78.61328125,0.0
245.08203125,-48.33984375,-24.90234375,-26.85546875,-427.24609375,-19.53125,0.0
245.0859375,-107.91015625,-30.2734375,-22.4609375,-409.66796875,-55.6640625,0.0
245.08984375,-153.80859375,-35.15625,-29.296875,-414.0625,-66.89453125,0.0
245.09375,-103.515625,-37.59765625,-42.48046875,-378.41796875,-101.5625,0.0
245.09765625,-64.94140625,-49.8046875,-40.0390625,-350.5859375,-187.01171875,0.0
245.1015625,-39.55078125,-52.24609375,-40.0390625,-404.78515625,-187.5,0.0
245.10546875,-68.84765625,-47.8515625,-45.41015625,-387.20703125,-180.17578125,0.0
245.109375,-83.984375,-51.7578125,-49.31640625,-319.3359375,-155.2734375,0.0
245.11328125,-46.38671875,-44.43359375,-57.12890625,-332.03125,-128.41796875,0.0
245.1171875,4.8828125,-44.43359375,-66.89453125,-346.6796875,-126.46484375,0.0
245.12109375,-26.3671875,-52.734375,-50.29296875,-321.2890625,-188.4765625,0.0
245.125,-96.19140625,-55.17578125,-40.52734375,-331.54296875,-187.5,0.0
245.12890625,-81.0546875,-50.78125,-43.9453125,-313.96484375,-116.69921875,0.0
245.1328125,-27.83203125,-41.015625,-41.015625,-318.84765625,-117.1875,0.0
245.13671875,-14.6484375,-45.41015625,-44.43359375,-373.53515625,-137.6953125,0.0
245.140625,-41.015625,-52.24609375,-47.36328125,-393.06640625,-92.28515625,0.0
245.14453125,2.9296875,-43.9453125,-52.734375,-362.3046875,-52.734375,0.0
245.1484375,-5.859375,-42.96875,-55.17578125,-323.73046875,-8.7890625,0.0
245.15234375,-77.1484375,-43.45703125,-42.96875,-313.96484375,-30.76171875,0.0
245.15625,-82.51953125,-41.50390625,-40.0390625,-313.4765625,-115.72265625,0.0
245.16015625,-68.84765625,-49.31640625,-54.6875,-308.10546875,-27.83203125,0.0
245.1640625,-29.78515625,-44.921875,-53.22265625,-317.3828125,4.8828125,0.0
245.16796875,28.80859375,-40.0390625,-42.96875,-296.38671875,-117.67578125,0.0
245.171875,-45.41015625,-45.8984375,-44.43359375,-240.234375,-78.61328125,0.0
245.17578125,-75.1953125,-51.26953125,-37.59765625,-267.08984375,-53.7109375,0.0
245.1796875,-48.828125,-41.015625,-29.296875,-338.8671875,-101.5625,0.0
245.18359375,-69.3359375,-39.55078125,-33.69140625,-375.0,-18.5546875,0.0
245.1875,-33.203125,-48.828125,-35.15625,-352.5390625,-38.0859375,0.0
245.19140625,-36.62109375,-44.921875,-33.69140625,-315.91796875,-66.40625,0.0
245.1953125,-55.17578125,-41.50390625,-30.2734375,-307.6171875,-63.96484375,0.0
245.19921875,-17.08984375,-41.50390625,-28.80859375,-322.265625,-18.06640625,0.0
245.203125,-52.734375,-48.828125,-31.25,-353.515625,5.37109375,0.0
245.20703125,-95.703125,-45.8984375,-38.0859375,-362.3046875,-66.89453125,0.0
245.2109375,-92.28515625,-45.41015625,-43.45703125,-381.8359375,-122.55859375,0.0
245.21484375,-69.3359375,-53.22265625,-31.25,-374.0234375,-166.50390625,0.0
245.21875,-34.66796875,-41.015625,-34.66796875,-363.28125,-161.1328125,0.0
245.22265625,-19.53125,-40.52734375,-45.41015625,-379.39453125,-52.734375,0.0
245.2265625,-59.08203125,-43.9453125,-40.52734375,-375.48828125,18.5546875,0.0
245.23046875,-34.1796875,-39.0625,-38.57421875,-371.09375,-124.51171875,0.0
245.234375,7.8125,-35.64453125,-38.57421875,-370.60546875,-207.03125,0.0
245.23828125,-27.83203125,-28.3203125,-41.015625,-360.3515625,-133.7890625,0.0
245.2421875,-48.828125,-29.78515625,-33.203125,-346.6796875,-59.5703125,0.0
245.24609375,-103.515625,-31.73828125,-24.4140625,-312.98828125,-34.66796875,0.0
245.25,-96.6796875,-35.64453125,-32.2265625,-324.21875,-51.7578125,0.0
245.25390625,-54.19921875,-33.203125,-39.55078125,-350.5859375,-142.08984375,0.0
245.2578125,-34.66796875,-27.34375,-32.2265625,-348.14453125,-173.828125,0.0
245.26171875,-0.9765625,-28.80859375,-32.2265625,-373.046875,-142.08984375,0.0
245.265625,-33.203125,-28.80859375,-38.57421875,-407.71484375,-164.55078125,0.0
245.26953125,-126.46484375,-34.1796875,-35.64453125,-408.203125,-136.71875,0.0
245.2734375,-150.87890625,-30.2734375,-32.2265625,-396.97265625,-109.375,0.0
245.27734375,-132.8125,-35.64453125,-35.15625,-429.19921875,-123.53515625,0.0
245.28125,-139.16015625,-55.17578125,-36.1328125,-419.921875,-79.58984375,0.0
245.28515625,-166.50390625,-48.33984375,-41.9921875,-438.96484375,-28.80859375,0.0
245.2890625,-151.85546875,-28.3203125,-34.66796875,-521.97265625,-103.515625,0.0
245.29296875,-121.09375,-29.296875,-28.3203125,-547.8515625,-130.37109375,0.0
245.296875,-131.34765625,-35.64453125,-34.66796875,-563.96484375,-62.01171875,0.0
245.30078125,-103.02734375,-36.62109375,-34.1796875,-578.61328125,-81.0546875,0.0
245.3046875,-89.35546875,-35.64453125,-30.2734375,-598.6328125,-133.30078125,0.0
245.30859375,-115.72265625,-32.71484375,-25.87890625,-624.51171875,-62.01171875,0.0
245.3125,-154.78515625,-33.203125,-23.92578125,-608.3984375,-49.8046875,0.0
245.31640625,-187.5,-36.1328125,-35.15625,-574.21875,-63.4765625,0.0
245.3203125,-122.0703125,-21.97265625,-41.50390625,-581.0546875,-62.98828125,0.0
245.32421875,-106.4453125,-25.87890625,-40.52734375,-635.7421875,-74.70703125,0.0
245.328125,-118.1640625,-42.96875,-41.50390625,-642.08984375,-55.6640625,0.0
245.33203125,-118.1640625,-49.8046875,-33.69140625,-615.234375,-74.21875,0.0
245.3359375,-107.91015625,-46.38671875,-36.62109375,-649.4140625,-64.94140625,0.0
245.33984375,-83.0078125,-41.50390625,-40.0390625,-668.9453125,-59.08203125,0.0
245.34375,-77.63671875,-41.015625,-36.1328125,-645.5078125,-51.7578125,0.0
245.34765625,-105.46875,-38.57421875,-38.0859375,-662.59765625,-23.92578125,0.0
245.3515625,-103.515625,-41.015625,-41.9921875,-674.31640625,-15.625,0.0
245.35546875,-118.65234375,-50.29296875,-48.828125,-640.13671875,5.859375,0.0
245.359375,-147.4609375,-61.03515625,-47.36328125,-605.46875,-26.3671875,0.0
245.36328125,-107.421875,-61.03515625,-29.296875,-629.8828125,-60.546875,0.0
245.3671875,-78.125,-42.96875,-25.87890625,-645.01953125,-119.140625,0.0
245.37109375,-68.84765625,-33.69140625,-32.71484375,-597.16796875,-146.484375,0.0
245.375,-54.6875,-37.109375,-28.3203125,-591.30859375,-130.859375,0.0
245.37890625,-55.6640625,-42.48046875,-32.2265625,-598.14453125,-90.33203125,0.0
245.3828125,-124.0234375,-47.36328125,-34.1796875,-571.2890625,-128.90625,0.0
245.38671875,-148.4375,-45.8984375,-23.92578125,-615.72265625,-159.1796875,0.0
245.390625,-106.93359375,-36.62109375,-27.34375,-645.99609375,-73.73046875,0.0
245.39453125,-87.890625,-31.25,-33.203125,-618.1640625,1.953125,0.0
245.3984375,-107.91015625,-41.015625,-33.69140625,-617.1875,-11.71875,0.0
245.40234375,-168.9453125,-49.31640625,-37.109375,-639.16015625,-67.87109375,0.0
245.40625,-132.32421875,-43.45703125,-37.59765625,-628.90625,-68.359375,0.0
245.41015625,-56.15234375,-38.57421875,-36.1328125,-606.93359375,-34.66796875,0.0
245.4140625,-84.9609375,-30.2734375,-33.69140625,-625.9765625,-6.34765625,0.0
245.41796875,-100.09765625,-31.25,-36.62109375,-630.37109375,-85.9375,0.0
245.421875,-76.171875,-38.57421875,-40.0390625,-587.890625,-56.15234375,0.0
245.42578125,-111.81640625,-41.015625,-34.1796875,-534.1796875,-12.6953125,0.0
245.4296875,-72.265625,-40.0390625,-37.109375,-506.34765625,-84.47265625,0.0
245.43359375,2.44140625,-39.0625,-45.41015625,-527.83203125,-20.01953125,0.0
245.4375,-71.77734375,-42.96875,-42.96875,-533.203125,-14.6484375,0.0
245.44140625,-146.97265625,-44.921875,-38.0859375,-530.76171875,2.44140625,0.0
245.4453125,-112.79296875,-37.59765625,-27.83203125,-508.7890625,72.75390625,0.0
245.44921875,-85.44921875,-34.1796875,-26.3671875,-458.49609375,45.8984375,0.0
245.453125,-49.8046875,-38.57421875,-39.0625,-443.359375,-90.33203125,0.0
245.45703125,-37.59765625,-32.2265625,-48.828125,-479.98046875,-143.06640625,0.0
245.4609375,-75.68359375,-26.3671875,-36.62109375,-467.28515625,-61.5234375,0.0
245.46484375,-102.5390625,-36.1328125,-25.390625,-459.9609375,-110.3515625,0.0
245.46875,-101.07421875,-41.015625,-26.85546875,-498.046875,-144.53125,0.0
245.47265625,-80.078125,-40.0390625,-29.296875,-485.83984375,-144.53125,0.0
245.4765625,-49.31640625,-34.1796875,-35.64453125,-452.1484375,-127.9296875,0.0
245.48046875,-45.41015625,-31.73828125,-40.52734375,-424.31640625,-41.015625,0.0
245.484375,-85.44921875,-35.15625,-38.57421875,-401.85546875,-86.42578125,0.0
245.48828125,-62.01171875,-23.92578125,-32.2265625,-400.87890625,-86.42578125,0.0
245.4921875,-30.76171875,-16.6015625,-32.2265625,-419.921875,-53.22265625,0.0
245.49609375,-80.56640625,-20.99609375,-32.2265625,-432.12890625,-104.00390625,0.0
245.5,-85.9375,-22.94921875,-25.390625,-419.43359375,6.8359375,0.0
245.50390625,-67.87109375,-30.76171875,-21.484375,-373.53515625,-1.953125,0.0
245.5078125,-88.8671875,-24.90234375,-27.83203125,-354.4921875,-154.78515625,0.0
245.51171875,-58.10546875,-22.4609375,-29.78515625,-385.7421875,-92.7734375,0.0
245.515625,-6.34765625,-30.2734375,-24.4140625,-367.67578125,-83.984375,0.0
245.51953125,-62.98828125,-28.80859375,-35.64453125,-303.22265625,-101.5625,0.0
245.5234375,-140.625,-32.71484375,-33.69140625,-305.6640625,-57.6171875,0.0
245.52734375,-91.30859375,-31.25,-19.04296875,-348.6328125,-56.640625,0.0
245.53125,-90.8203125,-25.87890625,-19.53125,-351.07421875,-58.10546875,0.0
245.53515625,-92.28515625,-27.34375,-25.390625,-332.03125,-17.08984375,0.0
245.5390625,-83.0078125,-25.87890625,-25.390625,-326.66015625,10.25390625,0.0
245.54296875,-71.2890625,-21.97265625,-20.99609375,-329.1015625,-30.76171875,0.0
245.546875,-71.2890625,-26.3671875,-22.94921875,-336.42578125,-86.42578125,0.0
245.55078125,-55.6640625,-29.78515625,-19.53125,-323.2421875,-78.125,0.0
245.5546875,-51.26953125,-23.92578125,-20.01953125,-329.58984375,-15.625,0.0
245.55859375,-62.5,-31.25,-27.83203125,-374.51171875,6.8359375,0.0
245.5625,-137.6953125,-43.45703125,-24.90234375,-398.92578125,-63.96484375,0.0
245.56640625,-169.921875,-35.64453125,-22.4609375,-370.1171875,-86.42578125,0.0
245.5703125,-130.859375,-28.3203125,-21.484375,-356.93359375,-51.7578125,0.0
245.57421875,-171.875,-31.25,-23.92578125,-351.5625,-40.52734375,0.0
245.578125,-139.6484375,-38.0859375,-29.296875,-350.5859375,-83.0078125,0.0
245.58203125,-111.81640625,-41.015625,-30.2734375,-359.86328125,-59.5703125,0.0
245.5859375,-117.67578125,-31.25,-40.0390625,-306.15234375,52.24609375,0.0
245.58984375,-64.94140625,-25.87890625,-35.64453125,-279.296875,78.125,0.0
245.59375,-111.328125,-34.1796875,-15.625,-299.31640625,62.5,0.0
245.59765625,-134.765625,-37.109375,-11.71875,-306.640625,38.57421875,0.0
245.6015625,-77.63671875,-29.296875,-17.08984375,-322.265625,27.34375,0.0
245.60546875,-72.75390625,-35.15625,-20.5078125,-311.5234375,-32.71484375,0.0
245.609375,-82.51953125,-44.921875,-28.80859375,-296.38671875,-227.05078125,0.0
245.61328125,-111.328125,-37.109375,-34.66796875,-298.828125,-194.3359375,0.0
245.6171875,-78.61328125,-27.83203125,-28.80859375,-282.71484375,-81.54296875,0.0
245.62109375,-67.3828125,-32.2265625,-25.87890625,-274.4140625,-167.96875,0.0
245.625,-95.21484375,-35.15625,-28.80859375,-295.41015625,-225.09765625,0.0
245.62890625,-147.4609375,-27.83203125,-29.78515625,-325.1953125,-165.52734375,0.0
245.6328125,-85.9375,-20.01953125,-26.3671875,-325.68359375,-81.54296875,0.0
245.63671875,-34.1796875,-19.04296875,-22.4609375,-303.22265625,-83.984375,0.0
245.640625,-174.31640625,-32.2265625,-23.92578125,-303.22265625,-41.50390625,0.0
245.64453125,-168.9453125,-34.1796875,-28.80859375,-308.10546875,43.9453125,0.0
245.6484375,-117.67578125,-27.34375,-29.78515625,-315.91796875,52.734375,0.0
245.65234375,-109.375,-38.57421875,-38.0859375,-291.50390625,6.34765625,0.0
245.65625,-112.3046875,-52.734375,-44.43359375,-273.4375,-11.71875,0.0
245.66015625,-119.140625,-43.45703125,-39.55078125,-251.953125,11.23046875,0.0
245.6640625,-104.98046875,-36.62109375,-40.0390625,-212.40234375,-82.51953125,0.0
245.66796875,-115.234375,-41.015625,-38.0859375,-207.51953125,-55.17578125,0.0
245.671875,-94.7265625,-36.62109375,-31.25,-221.6796875,27.34375,0.0
245.67578125,-77.1484375,-29.296875,-23.92578125,-219.7265625,-15.13671875,0.0
245.6796875,-130.859375,-28.3203125,-28.80859375,-222.65625,-42.96875,0.0
245.68359375,-132.32421875,-35.64453125,-34.66796875,-228.02734375,-3.41796875,0.0
245.6875,-125.0,-37.59765625,-34.1796875,-210.44921875,14.6484375,0.0
245.69140625,-153.3203125,-26.85546875,-26.3671875,-176.26953125,-18.5546875,0.0
245.6953125,-128.41796875,-16.11328125,-20.99609375,-158.203125,-43.45703125,0.0
245.69921875,-144.04296875,-18.5546875,-30.76171875,-211.9140625,-45.41015625,0.0
245.703125,-175.78125,-26.85546875,-38.57421875,-240.234375,-51.26953125,0.0
245.70703125,-189.453125,-33.69140625,-28.80859375,-211.9140625,-39.0625,0.0
245.7109375,-174.8046875,-34.66796875,-17.578125,-196.77734375,25.87890625,0.0
245.71484375,-155.2734375,-31.25,-23.92578125,-187.5,62.01171875,0.0
245.71875,-142.08984375,-28.80859375,-38.0859375,-178.7109375,88.37890625,0.0
245.72265625,-137.20703125,-24.4140625,-35.64453125,-154.296875,91.30859375,0.0
245.7265625,-100.09765625,-29.78515625,-30.2734375,-158.69140625,60.546875,0.0
245.73046875,-88.37890625,-28.80859375,-32.71484375,-174.8046875,32.71484375,0.0
245.734375,-184.5703125,-27.34375,-33.203125,-195.80078125,-61.03515625,0.0
245.73828125,-220.21484375,-31.25,-30.2734375,-219.7265625,-141.6015625,0.0
245.7421875,-185.05859375,-22.94921875,-22.94921875,-205.56640625,-259.765625,0.0
245.74609375,-164.0625,-31.73828125,-21.484375,-181.640625,-347.16796875,0.0
245.75,-164.0625,-39.0625,-23.92578125,-159.66796875,-273.92578125,0.0
245.75390625,-158.69140625,-32.71484375,-29.296875,-112.79296875,-163.0859375,0.0
245.7578125,-81.54296875,-27.34375,-27.34375,-99.609375,-111.328125,0.0
245.76171875,-108.88671875,-28.80859375,-25.390625,-189.453125,-205.078125,0.0
245.765625,-200.1953125,-30.76171875,-24.4140625,-208.0078125,-289.0625,0.0
245.76953125,-162.109375,-23.92578125,-22.4609375,-151.85546875,-208.984375,0.0
245.7734375,-187.5,-27.83203125,-20.01953125,-145.5078125,-168.9453125,0.0
245.77734375,-219.23828125,-36.1328125,-26.3671875,-124.0234375,-88.8671875,0.0
245.78125,-179.6875,-38.57421875,-26.3671875,-122.55859375,-28.3203125,0.0
245.78515625,-147.94921875,-44.921875,-21.484375,-150.390625,-47.8515625,0.0
245.7890625,-138.18359375,-37.59765625,-20.5078125,-142.578125,-98.6328125,0.0
245.79296875,-143.06640625,-28.3203125,-21.97265625,-152.83203125,-106.4453125,0.0
245.796875,-158.69140625,-35.15625,-33.69140625,-159.66796875,-62.98828125,0.0
245.80078125,-195.80078125,-36.62109375,-28.80859375,-151.3671875,-83.0078125,0.0
245.8046875,-170.8984375,-35.64453125,-18.06640625,-138.18359375,-115.72265625,0.0
245.80859375,-125.9765625,-32.71484375,-15.625,-154.296875,-61.03515625,0.0
245.8125,-159.1796875,-22.4609375,-11.71875,-151.3671875,-26.3671875,0.0
245.81640625,-175.29296875,-26.3671875,-11.71875,-124.0234375,-4.39453125,0.0
245.8203125,-162.59765625,-32.71484375,-18.06640625,-142.08984375,-26.85546875,0.0
245.82421875,-157.2265625,-30.2734375,-29.296875,-161.62109375,-35.15625,0.0
245.828125,-189.94140625,-39.55078125,-22.94921875,-139.16015625,35.15625,0.0
245.83203125,-193.84765625,-40.52734375,-20.5078125,-128.90625,123.53515625,0.0
245.8359375,-186.03515625,-29.296875,-26.3671875,-166.9921875,152.83203125,0.0
245.83984375,-216.796875,-32.71484375,-24.90234375,-189.453125,70.3125,0.0
245.84375,-201.66015625,-35.15625,-19.53125,-162.109375,65.4296875,0.0
245.84765625,-192.3828125,-30.76171875,-16.6015625,-151.3671875,69.82421875,0.0
245.8515625,-217.28515625,-28.3203125,-13.18359375,-173.33984375,-9.27734375,0.0
245.85546875,-167.96875,-26.85546875,-20.01953125,-196.77734375,6.8359375,0.0
245.859375,-178.22265625,-32.71484375,-34.66796875,-247.55859375,109.375,0.0
245.86328125,-213.37890625,-34.1796875,-26.3671875,-279.296875,101.5625,0.0
245.8671875,-195.3125,-31.25,-20.01953125,-287.59765625,-45.41015625,0.0
245.87109375,-178.22265625,-38.0859375,-21.97265625,-263.18359375,-19.53125,0.0
245.875,-182.12890625,-39.55078125,-21.97265625,-239.2578125,33.203125,0.0
245.87890625,-208.984375,-37.109375,-21.97265625,-270.01953125,38.57421875,0.0
245.8828125,-190.91796875,-35.64453125,-26.3671875,-307.12890625,-30.76171875,0.0
245.88671875,-164.55078125,-35.15625,-31.73828125,-315.91796875,-102.5390625,0.0
245.890625,-132.32421875,-38.0859375,-34.1796875,-295.41015625,-64.94140625,0.0
245.89453125,-175.78125,-44.43359375,-32.71484375,-280.76171875,-38.57421875,0.0
245.8984375,-259.27734375,-42.96875,-28.80859375,-282.71484375,-17.08984375,0.0
245.90234375,-231.93359375,-42.96875,-27.83203125,-289.55078125,72.265625,0.0
245.90625,-173.828125,-36.1328125,-22.4609375,-296.38671875,106.4453125,0.0
245.91015625,-157.2265625,-28.3203125,-20.99609375,-272.94921875,34.66796875,0.0
245.9140625,-168.45703125,-30.76171875,-21.484375,-236.81640625,18.5546875,0.0
245.91796875,-204.58984375,-38.0859375,-27.83203125,-249.51171875,9.27734375,0.0
245.921875,-192.3828125,-34.1796875,-40.0390625,-293.45703125,-79.1015625,0.0
245.92578125,-153.80859375,-27.34375,-35.15625,-281.25,-130.859375,0.0
245.9296875,-189.453125,-21.484375,-26.3671875,-251.46484375,-126.46484375,0.0
245.93359375,-205.078125,-23.4375,-22.4609375,-246.09375,-50.29296875,0.0
245.9375,-169.921875,-37.109375,-25.390625,-248.046875,-13.18359375,0.0
245.94140625,-179.6875,-32.2265625,-26.3671875,-229.4921875,-78.125,0.0
245.9453125,-198.73046875,-27.34375,-22.4609375,-211.9140625,-47.36328125,0.0
245.94921875,-194.82421875,-29.296875,-25.87890625,-225.09765625,-36.62109375,0.0
245.953125,-179.19921875,-32.71484375,-29.78515625,-228.515625,-44.43359375,0.0
245.95703125,-201.171875,-33.203125,-32.71484375,-219.7265625,-62.5,0.0
245.9609375,-189.94140625,-26.85546875,-34.66796875,-225.09765625,-60.546875,0.0
245.96484375,-182.6171875,-28.80859375,-35.64453125,-207.03125,-50.78125,0.0
245.96875,-173.33984375,-35.15625,-31.73828125,-178.22265625,-14.16015625,0.0
245.97265625,-181.640625,-35.15625,-20.99609375,-179.19921875,22.4609375,0.0
245.9765625,-182.6171875,-22.4609375,-17.578125,-186.03515625,12.20703125,0.0
245.98046875,-140.13671875,-20.5078125,-22.94921875,-206.0546875,-97.65625,0.0
245.984375,-166.50390625,-34.66796875,-35.64453125,-222.65625,-168.9453125,0.0
245.98828125,-207.03125,-40.52734375,-36.62109375,-211.9140625,-97.16796875,0.0
245.9921875,-188.96484375,-26.3671875,-25.87890625,-174.8046875,-27.34375,0.0
245.99609375,-179.19921875,-26.85546875,-33.69140625,-180.17578125,-58.59375,0.0
246.0,-183.10546875,-33.203125,-27.83203125,-233.88671875,-75.1953125,0.0
246.00390625,-163.57421875,-31.25,-20.5078125,-248.046875,-39.55078125,0.0
246.0078125,-160.15625,-23.4375,-19.53125,-241.2109375,1.46484375,0.0
246.01171875,-160.64453125,-29.78515625,-21.97265625,-251.953125,-29.296875,0.0
246.015625,-103.515625,-29.78515625,-26.85546875,-280.2734375,-23.4375,0.0
246.01953125,-137.6953125,-31.25,-26.3671875,-311.03515625,6.8359375,0.0
246.0234375,-203.125,-36.1328125,-23.92578125,-329.1015625,-25.87890625,0.0
246.02734375,-135.25390625,-30.2734375,-18.5546875,-295.8984375,-66.89453125,0.0
246.03125,-123.046875,-32.2265625,-20.99609375,-295.41015625,-63.4765625,0.0
246.03515625,-133.7890625,-31.73828125,-22.94921875,-334.9609375,-92.28515625,0.0
246.0390625,-125.0,-31.25,-23.92578125,-316.89453125,-168.45703125,0.0
246.04296875,-114.74609375,-35.15625,-28.80859375,-323.2421875,-143.06640625,0.0
246.046875,-120.60546875,-44.921875,-39.0625,-349.12109375,-6.8359375,0.0
246.05078125,-147.4609375,-35.64453125,-43.9453125,-350.5859375,13.18359375,0.0
246.0546875,-157.71484375,-30.76171875,-32.71484375,-370.1171875,23.92578125,0.0
246.05859375,-156.25,-35.15625,-30.2734375,-398.4375,8.30078125,0.0
246.0625,-146.484375,-37.109375,-37.109375,-417.48046875,-35.15625,0.0
246.06640625,-116.69921875,-34.1796875,-30.76171875,-372.0703125,-31.73828125,0.0
246.0703125,-93.26171875,-20.01953125,-27.34375,-352.05078125,-62.01171875,0.0
246.07421875,-97.65625,-23.92578125,-24.90234375,-370.60546875,-123.53515625,0.0
246.078125,-117.1875,-34.1796875,-23.4375,-371.58203125,-133.7890625,0.0
246.08203125,-166.9921875,-30.2734375,-26.3671875,-351.07421875,-34.1796875,0.0
246.0859375,-152.34375,-34.66796875,-24.4140625,-319.3359375,20.5078125,0.0
246.08984375,-82.03125,-25.87890625,-29.296875,-299.8046875,28.3203125,0.0
246.09375,-80.56640625,-22.4609375,-34.66796875,-320.80078125,24.90234375,0.0
246.09765625,-127.9296875,-27.34375,-36.1328125,-315.91796875,62.01171875,0.0
246.1015625,-136.71875,-26.3671875,-36.62109375,-295.8984375,77.63671875,0.0
246.10546875,-151.85546875,-24.90234375,-33.203125,-312.01171875,-16.6015625,0.0
246.109375,-119.62890625,-22.94921875,-27.83203125,-299.8046875,-87.40234375,0.0
246.11328125,-126.46484375,-24.4140625,-20.01953125,-308.59375,-18.06640625,0.0
246.1171875,-135.25390625,-22.94921875,-20.99609375,-311.5234375,6.8359375,0.0
246.12109375,-81.0546875,-29.78515625,-26.3671875,-281.25,-23.92578125,0.0
246.125,-95.703125,-41.50390625,-29.296875,-247.55859375,2.9296875,0.0
246.12890625,-150.87890625,-36.62109375,-31.25,-238.28125,-73.2421875,0.0
246.1328125,-152.83203125,-30.76171875,-30.2734375,-271.484375,-166.9921875,0.0
246.13671875,-133.7890625,-35.15625,-30.2734375,-301.7578125,-51.7578125,0.0
246.140625,-138.671875,-39.55078125,-31.73828125,-302.24609375,-48.828125,0.0
246.14453125,-117.67578125,-31.25,-31.73828125,-269.53125,-164.0625,0.0
246.1484375,-95.703125,-20.5078125,-30.76171875,-254.8828125,-162.109375,0.0
246.15234375,-89.35546875,-25.390625,-35.64453125,-252.44140625,-51.26953125,0.0
246.15625,-124.0234375,-26.3671875,-33.69140625,-229.4921875,25.390625,0.0
246.16015625,-139.16015625,-26.85546875,-23.92578125,-246.58203125,33.69140625,0.0
246.1640625,-111.328125,-28.3203125,-20.01953125,-249.0234375,-23.92578125,0.0
246.16796875,-98.6328125,-29.78515625,-29.78515625,-234.375,-51.26953125,0.0
246.171875,-79.1015625,-35.15625,-26.85546875,-231.93359375,38.57421875,0.0
246.17578125,-77.63671875,-36.1328125,-27.34375,-248.046875,68.84765625,0.0
246.1796875,-86.42578125,-35.64453125,-36.1328125,-248.046875,34.66796875,0.0
246.18359375,-71.77734375,-32.2265625,-30.76171875,-249.0234375,-30.2734375,0.0
246.1875,-55.17578125,-36.1328125,-24.4140625,-236.81640625,-79.58984375,0.0
246.19140625,-90.8203125,-34.66796875,-26.3671875,-209.47265625,-53.7109375,0.0
246.1953125,-136.23046875,-29.78515625,-34.66796875,-243.1640625,61.03515625,0.0
246.19921875,-140.625,-41.9921875,-31.73828125,-268.06640625,-84.47265625,0.0
246.203125,-132.8125,-40.52734375,-40.0390625,-267.578125,-373.53515625,0.0
246.20703125,-125.48828125,-30.2734375,-43.9453125,-253.90625,-225.5859375,0.0
246.2109375,-112.79296875,-24.90234375,-24.90234375,-246.58203125,14.16015625,0.0
246.21484375,-81.0546875,-33.203125,-18.5546875,-232.421875,-77.63671875,0.0
246.21875,-122.55859375,-42.96875,-21.484375,-230.95703125,-71.77734375,0.0
246.22265625,-180.6640625,-41.50390625,-28.3203125,-253.41796875,-29.78515625,0.0
246.2265625,-160.64453125,-35.15625,-32.71484375,-224.609375,-76.171875,0.0
246.23046875,-160.15625,-38.57421875,-33.203125,-191.40625,-128.90625,0.0
246.234375,-167.48046875,-44.921875,-37.59765625,-193.84765625,-167.96875,0.0
246.23828125,-134.27734375,-34.1796875,-40.52734375,-228.515625,-61.5234375,0.0
246.2421875,-135.25390625,-36.1328125,-37.59765625,-275.87890625,-39.55078125,0.0
246.24609375,-168.45703125,-45.41015625,-33.203125,-285.64453125,-127.44140625,0.0
246.25,-167.96875,-40.0390625,-26.85546875,-287.109375,-207.51953125,0.0
246.25390625,-164.0625,-33.69140625,-26.85546875,-286.1328125,-229.4921875,0.0
246.2578125,-139.6484375,-19.53125,-35.15625,-270.01953125,-137.20703125,0.0
246.26171875,-145.99609375,-9.765625,-31.25,-262.20703125,-32.71484375,0.0
246.265625,-143.5546875,-21.484375,-22.94921875,-258.7890625,-118.65234375,0.0
246.26953125,-154.78515625,-32.71484375,-23.4375,-248.53515625,-255.859375,0.0
246.2734375,-169.43359375,-31.73828125,-31.25,-279.78515625,-269.53125,0.0
246.27734375,-140.13671875,-34.1796875,-34.1796875,-284.1796875,-95.703125,0.0
246.28125,-152.34375,-36.62109375,-25.87890625,-243.1640625,22.4609375,0.0
246.28515625,-130.37109375,-32.71484375,-20.99609375,-237.79296875,-36.62109375,0.0
246.2890625,-61.03515625,-31.73828125,-19.53125,-264.6484375,-146.97265625,0.0
246.29296875,-115.72265625,-37.109375,-24.90234375,-266.6015625,-122.0703125,0.0
246.296875,-242.1875,-44.43359375,-31.73828125,-261.71875,14.6484375,0.0
246.30078125,-239.74609375,-49.31640625,-26.85546875,-224.609375,77.63671875,0.0
246.3046875,-190.91796875,-41.9921875,-28.80859375,-234.375,-30.2734375,0.0
246.30859375,-172.8515625,-39.55078125,-31.73828125,-266.11328125,-145.01953125,0.0
246.3125,-158.203125,-37.109375,-20.5078125,-232.91015625,-129.39453125,0.0
246.31640625,-178.7109375,-33.203125,-26.3671875,-230.46875,-104.4921875,0.0
246.3203125,-124.51171875,-25.390625,-37.109375,-202.1484375,-16.6015625,0.0
246.32421875,-113.28125,-22.94921875,-23.92578125,-171.38671875,-33.203125,0.0
246.328125,-213.37890625,-28.80859375,-16.11328125,-174.31640625,-152.83203125,0.0
246.33203125,-214.35546875,-35.15625,-20.99609375,-196.77734375,-100.5859375,0.0
246.3359375,-185.05859375,-32.2265625,-23.92578125,-178.7109375,52.24609375,0.0
246.33984375,-159.66796875,-26.3671875,-20.99609375,-156.25,122.55859375,0.0
246.34375,-100.5859375,-25.87890625,-19.53125,-159.1796875,63.4765625,0.0
246.34765625,-106.4453125,-22.4609375,-17.578125,-147.4609375,-101.5625,0.0
246.3515625,-163.0859375,-18.06640625,-19.53125,-129.39453125,-129.8828125,0.0
246.35546875,-122.0703125,-23.4375,-24.4140625,-110.3515625,-28.3203125,0.0
246.359375,-131.34765625,-24.4140625,-20.99609375,-89.35546875,60.546875,0.0
246.36328125,-164.0625,-34.66796875,-23.92578125,-85.44921875,75.68359375,0.0
246.3671875,-112.3046875,-32.71484375,-39.55078125,-98.6328125,5.37109375,0.0
246.37109375,-106.4453125,-17.578125,-45.41015625,-103.515625,-43.9453125,0.0
246.375,-112.79296875,-26.85546875,-29.78515625,-88.37890625,-48.828125,0.0
246.37890625,-76.66015625,-32.2265625,-20.01953125,-71.2890625,83.984375,0.0
246.3828125,-92.28515625,-32.2265625,-27.83203125,-83.49609375,104.98046875,0.0
246.38671875,-142.578125,-35.15625,-41.50390625,-112.79296875,-69.82421875,0.0
246.390625,-105.46875,-33.203125,-39.0625,-104.98046875,-131.8359375,0.0
246.39453125,-42.48046875,-33.69140625,-31.73828125,-86.9140625,-36.62109375,0.0
246.3984375,-115.72265625,-31.73828125,-33.69140625,-96.6796875,40.0390625,0.0
246.40234375,-171.38671875,-29.78515625,-32.2265625,-82.03125,49.8046875,0.0
246.40625,-135.7421875,-45.41015625,-28.3203125,-50.29296875,34.1796875,0.0
246.41015625,-122.55859375,-45.8984375,-23.92578125,-32.71484375,-99.12109375,0.0
246.4140625,-121.58203125,-29.78515625,-25.87890625,-50.29296875,-71.77734375,0.0
246.41796875,-113.28125,-31.25,-34.1796875,-62.98828125,50.78125,0.0
246.421875,-121.09375,-33.69140625,-36.1328125,-84.47265625,-11.23046875,0.0
246.42578125,-122.55859375,-30.76171875,-40.52734375,-89.35546875,-33.203125,0.0
246.4296875,-108.3984375,-27.83203125,-32.71484375,-53.7109375,-53.7109375,0.0
246.43359375,-101.07421875,-29.296875,-28.80859375,-20.99609375,-47.36328125,0.0
246.4375,-107.91015625,-42.48046875,-36.1328125,-24.90234375,51.7578125,0.0
246.44140625,-71.2890625,-45.8984375,-25.390625,-15.625,62.98828125,0.0
246.4453125,-75.68359375,-32.2265625,-24.4140625,-10.7421875,-48.828125,0.0
246.44921875,-145.99609375,-22.4609375,-27.34375,8.30078125,-70.80078125,0.0
246.453125,-148.4375,-37.109375,-23.92578125,40.0390625,14.16015625,0.0
246.45703125,-117.1875,-48.33984375,-24.4140625,9.765625,130.37109375,0.0
246.4609375,-110.83984375,-36.62109375,-24.4140625,0.0,132.8125,0.0
246.46484375,-116.2109375,-31.25,-20.99609375,14.16015625,8.7890625,0.0
246.46875,-119.62890625,-29.78515625,-19.53125,26.85546875,-190.91796875,0.0
246.47265625,-132.8125,-33.203125,-20.99609375,19.53125,-258.7890625,0.0
246.4765625,-119.62890625,-35.15625,-23.92578125,36.62109375,-117.67578125,0.0
246.48046875,-96.19140625,-26.85546875,-23.92578125,33.69140625,-1.46484375,0.0
246.484375,-115.234375,-32.71484375,-28.80859375,22.94921875,-58.10546875,0.0
246.48828125,-97.65625,-33.69140625,-29.296875,58.10546875,-213.8671875,0.0
246.4921875,-86.9140625,-23.4375,-27.34375,4.8828125,-165.0390625,0.0
246.49609375,-116.69921875,-33.69140625,-39.0625,-43.9453125,17.08984375,0.0
246.5,-122.55859375,-43.45703125,-36.62109375,-48.33984375,87.40234375,0.0
246.50390625,-115.72265625,-34.66796875,-28.80859375,-46.38671875,85.9375,0.0
246.5078125,-93.26171875,-25.390625,-24.90234375,-23.4375,-16.11328125,0.0
246.51171875,-84.9609375,-22.4609375,-25.390625,3.41796875,-56.640625,0.0
246.515625,-84.9609375,-26.3671875,-21.484375,24.90234375,8.7890625,0.0
246.51953125,-92.28515625,-18.5546875,-17.578125,0.48828125,64.94140625,0.0
246.5234375,-99.609375,-18.5546875,-17.578125,-22.94921875,-23.92578125,0.0
246.52734375,-87.40234375,-29.296875,-20.99609375,13.671875,-140.13671875,0.0
246.53125,-84.47265625,-25.390625,-19.04296875,27.34375,-158.69140625,0.0
246.53515625,-66.40625,-14.16015625,-16.11328125,13.671875,-34.66796875,0.0
246.5390625,-86.9140625,-14.6484375,-21.97265625,-12.20703125,62.01171875,0.0
246.54296875,-126.953125,-25.390625,-21.484375,-56.640625,-5.37109375,0.0
246.546875,-121.09375,-31.25,-19.04296875,-48.33984375,-115.72265625,0.0
246.55078125,-105.95703125,-28.80859375,-10.7421875,-37.59765625,-207.03125,0.0
246.5546875,-93.75,-19.53125,-16.6015625,-36.1328125,-110.3515625,0.0
246.55859375,-93.75,-24.4140625,-26.85546875,-55.17578125,24.4140625,0.0
246.5625,-119.62890625,-22.4609375,-20.01953125,-75.1953125,77.1484375,0.0
246.56640625,-110.83984375,-20.5078125,-15.625,-41.015625,10.7421875,0.0
246.5703125,-60.05859375,-20.5078125,-17.578125,-60.546875,-126.46484375,0.0
246.57421875,-95.703125,-19.04296875,-27.83203125,-109.375,-21.484375,0.0
246.578125,-92.7734375,-27.83203125,-25.390625,-91.796875,107.91015625,0.0
246.58203125,-87.40234375,-28.80859375,-17.08984375,-82.03125,-2.44140625,0.0
246.5859375,-124.0234375,-27.34375,-17.08984375,-97.16796875,-38.0859375,0.0
246.58984375,-90.33203125,-36.1328125,-16.11328125,-80.078125,-66.89453125,0.0
246.59375,-62.98828125,-39.55078125,-25.390625,-79.1015625,-136.23046875,0.0
246.59765625,-74.70703125,-35.64453125,-35.64453125,-70.80078125,-31.25,0.0
246.6015625,-93.26171875,-27.83203125,-36.1328125,-57.12890625,6.8359375,0.0
246.60546875,-100.5859375,-28.80859375,-31.25,-53.22265625,-90.33203125,0.0
246.609375,-73.2421875,-33.203125,-20.5078125,-21.484375,-140.625,0.0
246.61328125,-90.8203125,-25.87890625,-20.99609375,-35.64453125,-118.1640625,0.0
246.6171875,-114.2578125,-24.4140625,-27.34375,-75.68359375,-12.6953125,0.0
246.62109375,-96.19140625,-38.57421875,-21.97265625,-81.0546875,72.75390625,0.0
246.625,-58.10546875,-33.69140625,-22.4609375,-93.75,-46.38671875,0.0
246.62890625,-62.5,-29.78515625,-24.90234375,-88.8671875,-137.6953125,0.0
246.6328125,-117.67578125,-30.76171875,-23.4375,-78.125,-88.37890625,0.0
246.63671875,-113.76953125,-28.80859375,-29.296875,-66.89453125,32.71484375,0.0
246.640625,-88.37890625,-31.25,-29.78515625,-48.33984375,10.25390625,0.0
246.64453125,-84.9609375,-24.4140625,-25.390625,-47.8515625,9.27734375,0.0
246.6484375,-77.1484375,-21.484375,-24.4140625,-47.36328125,-19.53125,0.0
246.65234375,-70.80078125,-34.66796875,-25.390625,-56.15234375,-86.9140625,0.0
246.65625,-88.8671875,-33.69140625,-28.80859375,-52.734375,46.38671875,0.0
246.66015625,-47.8515625,-30.2734375,-35.15625,-53.22265625,27.83203125,0.0
246.6640625,-33.203125,-37.109375,-51.26953125,-69.82421875,-121.58203125,0.0
246.66796875,-131.8359375,-30.76171875,-47.36328125,-86.42578125,-181.15234375,0.0
246.671875,-133.30078125,-33.203125,-34.66796875,-108.3984375,-170.41015625,0.0
246.67578125,-82.51953125,-41.50390625,-28.80859375,-102.05078125,-81.0546875,0.0
246.6796875,-80.56640625,-29.78515625,-23.4375,-91.30859375,5.37109375,0.0
246.68359375,-68.359375,-28.80859375,-25.390625,-71.77734375,19.53125,0.0
246.6875,-101.07421875,-39.55078125,-28.80859375,-42.96875,-66.89453125,0.0
246.69140625,-115.72265625,-39.55078125,-25.87890625,-38.0859375,-121.09375,0.0
246.6953125,-82.03125,-34.66796875,-23.92578125,-27.34375,-89.84375,0.0
246.69921875,-82.51953125,-27.83203125,-23.92578125,-31.73828125,-40.0390625,0.0
246.703125,-99.12109375,-31.73828125,-27.34375,-54.19921875,-69.82421875,0.0
246.70703125,-104.00390625,-35.15625,-33.203125,-49.8046875,-149.4140625,0.0
246.7109375,-96.6796875,-31.73828125,-28.80859375,-62.01171875,-183.10546875,0.0
246.71484375,-62.5,-37.59765625,-28.3203125,-67.3828125,-70.80078125,0.0
246.71875,-109.375,-51.26953125,-35.15625,-50.78125,109.375,0.0
246.72265625,-163.0859375,-42.96875,-38.0859375,-52.734375,144.53125,0.0
246.7265625,-143.5546875,-27.34375,-34.66796875,-59.08203125,5.859375,0.0
246.73046875,-119.140625,-31.73828125,-33.203125,-58.59375,-41.9921875,0.0
246.734375,-102.5390625,-34.66796875,-35.64453125,-74.21875,1.953125,0.0
246.73828125,-91.796875,-30.2734375,-35.64453125,-75.1953125,62.01171875,0.0
246.7421875,-58.59375,-29.78515625,-36.62109375,-59.08203125,-1.953125,0.0
246.74609375,-74.21875,-27.83203125,-31.73828125,-36.62109375,-86.9140625,0.0
246.75,-85.44921875,-30.2734375,-32.71484375,-22.94921875,-34.1796875,0.0
246.75390625,-67.87109375,-30.2734375,-42.96875,-5.859375,39.55078125,0.0
246.7578125,-115.72265625,-27.34375,-35.64453125,-19.04296875,78.125,0.0
246.76171875,-162.109375,-30.76171875,-25.87890625,-57.12890625,127.44140625,0.0
246.765625,-115.72265625,-31.25,-31.73828125,-51.26953125,62.98828125,0.0
246.76953125,-81.0546875,-23.92578125,-31.73828125,-56.640625,-82.03125,0.0
246.7734375,-85.44921875,-25.87890625,-28.3203125,-64.453125,-109.375,0.0
246.77734375,-90.8203125,-38.57421875,-34.1796875,-49.8046875,-31.73828125,0.0
246.78125,-85.44921875,-44.921875,-35.64453125,-33.69140625,27.34375,0.0
246.78515625,-51.7578125,-43.45703125,-39.0625,-7.8125,66.89453125,0.0
246.7890625,-26.85546875,-36.62109375,-36.62109375,-3.41796875,17.08984375,0.0
246.79296875,-76.66015625,-33.203125,-28.80859375,-12.20703125,-79.58984375,0.0
246.796875,-157.71484375,-38.0859375,-23.4375,6.8359375,-15.13671875,0.0
246.80078125,-142.08984375,-39.0625,-25.390625,33.203125,34.66796875,0.0
246.8046875,-88.37890625,-32.71484375,-30.2734375,31.73828125,-82.03125,0.0
246.80859375,-82.03125,-32.2265625,-25.390625,7.8125,-250.0,0.0
246.8125,-93.75,-29.78515625,-20.01953125,-0.9765625,-242.1875,0.0
246.81640625,-106.93359375,-31.25,-25.390625,6.34765625,-74.21875,0.0
246.8203125,-61.03515625,-35.64453125,-29.296875,21.97265625,41.50390625,0.0
246.82421875,-32.71484375,-36.1328125,-28.3203125,29.78515625,49.31640625,0.0
246.828125,-115.234375,-47.36328125,-35.15625,25.390625,-105.46875,0.0
246.83203125,-127.44140625,-49.8046875,-34.66796875,29.78515625,-261.71875,0.0
246.8359375,-96.19140625,-45.41015625,-38.0859375,34.1796875,-157.2265625,0.0
246.83984375,-98.6328125,-49.31640625,-37.59765625,55.6640625,-8.7890625,0.0
246.84375,-70.3125,-46.875,-22.4609375,75.1953125,-60.546875,0.0
246.84765625,-45.41015625,-45.41015625,-15.625,67.3828125,-104.00390625,0.0
246.8515625,-64.453125,-34.1796875,-22.4609375,25.390625,-101.5625,0.0
246.85546875,-84.9609375,-26.85546875,-32.71484375,11.23046875,-34.1796875,0.0
246.859375,-58.10546875,-36.62109375,-39.55078125,43.45703125,61.5234375,0.0
246.86328125,-61.03515625,-39.0625,-41.50390625,41.9921875,31.25,0.0
246.8671875,-89.35546875,-34.66796875,-37.109375,27.34375,-59.08203125,0.0
246.87109375,-73.2421875,-33.69140625,-37.109375,31.73828125,-157.2265625,0.0
246.875,-66.89453125,-33.203125,-43.45703125,15.13671875,-61.5234375,0.0
246.87890625,-68.84765625,-33.69140625,-39.55078125,-4.39453125,96.19140625,0.0
246.8828125,-62.5,-33.203125,-28.3203125,29.296875,3.41796875,0.0
246.88671875,-61.03515625,-37.59765625,-31.25,37.109375,-157.71484375,0.0
246.890625,-55.6640625,-39.0625,-32.71484375,28.3203125,-192.3828125,0.0
246.89453125,-65.4296875,-37.59765625,-25.87890625,7.32421875,-117.67578125,0.0
246.8984375,-84.47265625,-41.9921875,-29.78515625,-19.53125,-15.625,0.0
246.90234375,-95.703125,-39.0625,-35.64453125,-10.7421875,-8.7890625,0.0
246.90625,-99.609375,-37.59765625,-31.73828125,4.8828125,-122.55859375,0.0
246.91015625,-100.5859375,-39.0625,-23.4375,14.6484375,-84.9609375,0.0
246.9140625,-55.6640625,-34.1796875,-19.04296875,26.3671875,33.203125,0.0
246.91796875,-41.015625,-37.59765625,-25.87890625,24.90234375,29.296875,0.0
246.921875,-81.54296875,-42.48046875,-34.66796875,4.8828125,-23.92578125,0.0
246.92578125,-105.95703125,-43.9453125,-37.109375,-31.73828125,-114.2578125,0.0
246.9296875,-109.375,-48.33984375,-41.9921875,-49.31640625,-188.4765625,0.0
246.93359375,-37.109375,-46.875,-41.015625,-44.921875,-167.96875,0.0
246.9375,-75.1953125,-40.52734375,-36.62109375,-45.41015625,-64.94140625,0.0
246.94140625,-146.484375,-38.0859375,-41.015625,-23.92578125,-89.84375,0.0
246.9453125,-114.74609375,-38.57421875,-43.9453125,-25.87890625,-61.03515625,0.0
246.94921875,-128.41796875,-33.69140625,-42.96875,-35.15625,6.8359375,0.0
246.953125,-116.2109375,-33.203125,-39.0625,-21.97265625,-34.1796875,0.0
246.95703125,-86.42578125,-35.64453125,-31.73828125,-21.484375,-97.65625,0.0
246.9609375,-86.9140625,-28.80859375,-32.71484375,-10.25390625,-38.0859375,0.0
246.96484375,-76.171875,-29.296875,-33.69140625,29.78515625,7.32421875,0.0
246.96875,-23.4375,-29.296875,-22.94921875,45.41015625,-34.66796875,0.0
246.97265625,-48.33984375,-32.2265625,-20.99609375,-8.30078125,-28.3203125,0.0
246.9765625,-116.69921875,-35.64453125,-40.52734375,-27.34375,40.0390625,0.0
246.98046875,-96.6796875,-35.64453125,-43.9453125,-12.6953125,66.40625,0.0
246.984375,-56.640625,-42.96875,-34.1796875,-1.953125,37.59765625,0.0
246.98828125,-66.89453125,-39.0625,-27.83203125,18.5546875,-40.0390625,0.0
246.9921875,-94.23828125,-37.109375,-19.53125,-25.390625,-112.3046875,0.0
246.99609375,-84.9609375,-38.57421875,-24.90234375,-25.87890625,-21.97265625,0.0
247.0,-53.22265625,-33.69140625,-31.25,3.90625,113.76953125,0.0
247.00390625,-61.03515625,-33.69140625,-34.1796875,-16.11328125,49.31640625,0.0
247.0078125,-48.828125,-33.203125,-35.15625,-9.765625,-97.65625,0.0
247.01171875,-23.92578125,-39.55078125,-41.50390625,-21.97265625,-134.27734375,0.0
247.015625,-85.44921875,-52.24609375,-50.29296875,-41.9921875,26.85546875,0.0
247.01953125,-134.27734375,-54.19921875,-40.0390625,-41.50390625,71.2890625,0.0
247.0234375,-124.51171875,-44.43359375,-34.1796875,-36.1328125,-20.99609375,0.0
247.02734375,-117.67578125,-36.1328125,-37.109375,-28.80859375,-40.0390625,0.0
247.03125,-92.28515625,-34.66796875,-32.2265625,-22.4609375,-121.09375,0.0
247.03515625,-69.82421875,-25.87890625,-22.4609375,-22.94921875,-64.453125,0.0
247.0390625,-65.91796875,-20.5078125,-25.390625,7.32421875,123.53515625,0.0
247.04296875,-61.03515625,-28.3203125,-38.57421875,-5.37109375,-5.859375,0.0
247.046875,-67.3828125,-27.34375,-36.1328125,-31.73828125,-151.85546875,0.0
247.05078125,-69.82421875,-22.94921875,-26.3671875,-19.04296875,-201.66015625,0.0
247.0546875,-87.40234375,-16.6015625,-19.53125,-38.0859375,-170.8984375,0.0
247.05859375,-100.09765625,-22.94921875,-20.99609375,-23.92578125,7.32421875,0.0
247.0625,-69.3359375,-45.8984375,-32.71484375,-9.765625,57.12890625,0.0
247.06640625,-73.73046875,-40.52734375,-38.57421875,-48.33984375,-41.50390625,0.0
247.0703125,-105.46875,-29.78515625,-31.73828125,-51.7578125,-125.0,0.0
247.07421875,-101.07421875,-35.15625,-16.6015625,-20.99609375,-56.15234375,0.0
247.078125,-97.65625,-35.64453125,-20.5078125,-12.6953125,103.515625,0.0
247.08203125,-83.0078125,-31.25,-24.4140625,-22.4609375,93.26171875,0.0
247.0859375,-58.10546875,-22.4609375,-12.20703125,-4.8828125,-63.4765625,0.0
247.08984375,-69.82421875,-21.97265625,-12.20703125,-2.9296875,-162.109375,0.0
247.09375,-106.4453125,-24.4140625,-21.484375,-52.24609375,-142.08984375,0.0
247.09765625,-116.2109375,-25.87890625,-23.92578125,-54.6875,-84.47265625,0.0
247.1015625,-94.7265625,-21.97265625,-25.390625,-42.48046875,-40.0390625,0.0
247.10546875,-92.7734375,-20.5078125,-29.296875,-61.5234375,-71.2890625,0.0
247.109375,-103.515625,-28.80859375,-22.4609375,-62.98828125,-166.50390625,0.0
247.11328125,-110.3515625,-29.78515625,-18.06640625,-43.9453125,-201.171875,0.0
247.1171875,-98.6328125,-21.97265625,-17.578125,-37.59765625,-22.4609375,0.0
247.12109375,-67.3828125,-26.3671875,-20.01953125,-58.10546875,59.08203125,0.0
247.125,-57.12890625,-26.3671875,-14.6484375,-41.9921875,-16.11328125,0.0
247.12890625,-116.69921875,-20.01953125,-9.27734375,-55.6640625,-22.4609375,0.0
247.1328125,-122.0703125,-19.53125,-10.25390625,-57.12890625,-90.8203125,0.0
247.13671875,-96.19140625,-20.5078125,-13.18359375,-25.87890625,-75.1953125,0.0
247.140625,-41.50390625,-8.30078125,-13.18359375,-41.015625,76.171875,0.0
247.14453125,-31.25,0.0,-8.30078125,-38.57421875,41.9921875,0.0
247.1484375,-129.8828125,-2.9296875,-4.39453125,-28.80859375,-142.08984375,0.0
247.15234375,-129.39453125,-11.71875,-3.41796875,-41.9921875,-153.80859375,0.0
247.15625,-87.40234375,-24.90234375,-11.71875,-50.78125,29.78515625,0.0
247.16015625,-92.7734375,-22.94921875,-20.5078125,-48.828125,79.58984375,0.0
247.1640625,-85.44921875,-17.08984375,-13.18359375,-46.875,0.9765625,0.0
247.16796875,-85.9375,-16.11328125,-10.25390625,-41.50390625,-69.3359375,0.0
247.171875,-80.078125,-21.484375,-19.04296875,-40.0390625,-93.75,0.0
247.17578125,-32.71484375,-24.4140625,-14.16015625,-30.76171875,-10.25390625,0.0
247.1796875,-61.03515625,-24.4140625,-8.30078125,-34.66796875,96.6796875,0.0
247.18359375,-106.93359375,-25.390625,-15.625,-45.41015625,62.5,0.0
247.1875,-90.8203125,-22.94921875,-22.94921875,-19.04296875,-129.8828125,0.0
247.19140625,-63.4765625,-25.87890625,-20.5078125,-7.8125,-167.48046875,0.0
247.1953125,-62.5,-18.5546875,-19.04296875,-44.43359375,-71.77734375,0.0
247.19921875,-71.77734375,-13.18359375,-15.13671875,-52.734375,-42.96875,0.0
247.203125,-70.3125,-21.484375,-12.20703125,-30.2734375,-52.734375,0.0
247.20703125,-55.6640625,-25.87890625,-12.6953125,-3.41796875,-99.609375,0.0
247.2109375,-37.59765625,-29.296875,-16.11328125,3.41796875,-168.9453125,0.0
247.21484375,-62.5,-29.78515625,-24.4140625,-34.66796875,-161.1328125,0.0
247.21875,-102.05078125,-25.390625,-31.73828125,-66.40625,-116.69921875,0.0
247.22265625,-110.3515625,-26.3671875,-35.15625,-57.6171875,-123.53515625,0.0
247.2265625,-105.95703125,-25.87890625,-40.52734375,-30.76171875,-234.375,0.0
247.23046875,-79.58984375,-22.94921875,-41.50390625,0.48828125,-273.4375,0.0
247.234375,-66.40625,-26.85546875,-28.3203125,-13.18359375,-210.9375,0.0
247.23828125,-60.546875,-24.4140625,-21.97265625,-11.23046875,-136.23046875,0.0
247.2421875,-54.6875,-16.11328125,-21.97265625,12.6953125,-89.84375,0.0
247.24609375,-69.82421875,-25.390625,-14.6484375,-9.765625,-108.88671875,0.0
247.25,-51.7578125,-29.296875,-15.13671875,-0.9765625,-85.44921875,0.0
247.25390625,-46.38671875,-21.484375,-24.90234375,36.62109375,17.08984375,0.0
247.2578125,-79.1015625,-19.53125,-26.3671875,36.1328125,134.27734375,0.0
247.26171875,-93.26171875,-27.83203125,-25.390625,20.99609375,156.25,0.0
247.265625,-87.40234375,-32.2265625,-31.25,18.5546875,58.59375,0.0
247.26953125,-79.58984375,-28.80859375,-41.015625,-3.41796875,-102.5390625,0.0
247.2734375,-62.98828125,-31.73828125,-38.0859375,-21.484375,-150.87890625,0.0
247.27734375,-31.73828125,-31.25,-30.76171875,-6.8359375,-9.765625,0.0
247.28125,-31.25,-37.59765625,-28.80859375,-14.6484375,88.37890625,0.0
247.28515625,-89.84375,-42.48046875,-28.3203125,-28.3203125,27.83203125,0.0
247.2890625,-105.46875,-32.71484375,-30.76171875,0.48828125,-58.10546875,0.0
247.29296875,-95.21484375,-33.69140625,-31.25,-5.859375,-103.02734375,0.0
247.296875,-95.703125,-41.9921875,-29.296875,-18.5546875,18.5546875,0.0
247.30078125,-83.984375,-41.50390625,-25.390625,-4.39453125,121.09375,0.0
247.3046875,-70.3125,-38.0859375,-23.4375,4.8828125,98.14453125,0.0
247.30859375,-22.4609375,-25.87890625,-32.2265625,36.62109375,21.484375,0.0
247.3125,-32.71484375,-29.296875,-30.76171875,20.99609375,-128.41796875,0.0
247.31640625,-118.1640625,-41.50390625,-34.1796875,-31.25,-115.72265625,0.0
247.3203125,-123.53515625,-48.33984375,-37.59765625,-17.08984375,11.71875,0.0
247.32421875,-87.890625,-47.36328125,-35.64453125,-3.41796875,-3.90625,0.0
247.328125,-75.1953125,-40.52734375,-33.203125,-0.9765625,-137.20703125,0.0
247.33203125,-72.75390625,-42.96875,-25.87890625,14.16015625,-187.98828125,0.0
247.3359375,-51.26953125,-30.2734375,-25.87890625,20.01953125,-73.2421875,0.0
247.33984375,-59.5703125,-27.34375,-30.76171875,20.01953125,-5.859375,0.0
247.34375,-74.70703125,-39.0625,-35.64453125,20.01953125,-4.8828125,0.0
247.34765625,-51.7578125,-38.0859375,-35.15625,58.59375,-23.4375,0.0
247.3515625,-38.57421875,-36.1328125,-31.73828125,60.05859375,-80.56640625,0.0
247.35546875,-104.98046875,-43.45703125,-26.3671875,14.16015625,9.27734375,0.0
247.359375,-142.08984375,-50.29296875,-24.4140625,1.953125,109.375,0.0
247.36328125,-99.12109375,-45.8984375,-19.53125,17.578125,-26.3671875,0.0
247.3671875,-87.890625,-36.1328125,-22.94921875,17.578125,-148.4375,0.0
247.37109375,-80.56640625,-33.203125,-22.4609375,23.92578125,-94.23828125,0.0
247.375,-44.921875,-41.015625,-13.671875,37.59765625,31.25,0.0
247.37890625,-52.734375,-42.48046875,-26.3671875,16.6015625,107.421875,0.0
247.3828125,-109.375,-36.62109375,-33.69140625,14.6484375,10.7421875,0.0
247.38671875,-108.3984375,-39.0625,-26.3671875,6.34765625,-97.16796875,0.0
247.390625,-76.66015625,-39.55078125,-21.484375,-6.34765625,-92.28515625,0.0
247.39453125,-83.984375,-41.9921875,-29.78515625,6.34765625,-45.8984375,0.0
247.3984375,-71.77734375,-39.55078125,-38.57421875,32.71484375,105.95703125,0.0
247.40234375,-57.12890625,-28.80859375,-31.25,16.6015625,148.4375,0.0
247.40625,-91.30859375,-33.203125,-24.90234375,6.34765625,-55.6640625,0.0
247.41015625,-98.6328125,-32.71484375,-24.4140625,27.34375,-227.5390625,0.0
247.4140625,-79.1015625,-24.4140625,-22.94921875,35.15625,-171.875,0.0
247.41796875,-52.734375,-26.85546875,-26.85546875,30.76171875,-4.8828125,0.0
247.421875,-51.26953125,-35.64453125,-35.15625,22.4609375,90.33203125,0.0
247.42578125,-65.4296875,-40.52734375,-33.69140625,6.34765625,26.85546875,0.0
247.4296875,-62.98828125,-34.1796875,-29.296875,19.04296875,-137.20703125,0.0
247.43359375,-62.98828125,-32.2265625,-30.76171875,31.25,-140.13671875,0.0
247.4375,-66.89453125,-38.0859375,-26.3671875,14.16015625,40.0390625,0.0
247.44140625,-60.546875,-41.50390625,-26.3671875,7.32421875,75.1953125,0.0
247.4453125,-53.7109375,-38.0859375,-23.92578125,14.6484375,-5.37109375,0.0
247.44921875,-63.96484375,-37.59765625,-21.97265625,20.99609375,-125.48828125,0.0
247.453125,-70.3125,-38.0859375,-21.97265625,21.484375,-109.86328125,0.0
247.45703125,-88.8671875,-34.1796875,-20.01953125,15.13671875,-32.71484375,0.0
247.4609375,-68.359375,-33.69140625,-33.69140625,-15.625,-25.87890625,0.0
247.46484375,-49.31640625,-41.50390625,-30.76171875,-30.76171875,-42.96875,0.0
247.46875,-72.265625,-43.9453125,-11.23046875,-0.9765625,-129.8828125,0.0
247.47265625,-49.31640625,-36.62109375,-10.7421875,33.203125,-146.97265625,0.0
247.4765625,-40.52734375,-29.296875,-14.16015625,22.94921875,-54.19921875,0.0
247.48046875,-39.55078125,-31.25,-20.99609375,31.25,5.37109375,0.0
247.484375,-40.52734375,-45.41015625,-24.90234375,36.62109375,-3.90625,0.0
247.48828125,-44.43359375,-44.921875,-22.94921875,-7.32421875,-118.1640625,0.0
247.4921875,-12.6953125,-32.2265625,-17.578125,-22.4609375,-177.24609375,0.0
247.49609375,-34.1796875,-30.2734375,-27.34375,-4.39453125,-66.40625,0.0
247.5,-70.3125,-36.62109375,-35.15625,15.13671875,2.9296875,0.0
247.50390625,-44.921875,-31.73828125,-30.76171875,2.44140625,34.1796875,0.0
247.5078125,-47.36328125,-27.83203125,-28.80859375,-13.18359375,-10.7421875,0.0
247.51171875,-54.6875,-30.76171875,-34.66796875,2.9296875,-110.83984375,0.0
247.515625,-6.8359375,-31.73828125,-41.50390625,7.32421875,-112.79296875,0.0
247.51953125,-33.69140625,-31.25,-37.59765625,3.90625,13.18359375,0.0
247.5234375,-87.890625,-22.4609375,-31.25,27.83203125,10.7421875,0.0
247.52734375,-54.19921875,-28.3203125,-27.34375,-5.859375,-72.265625,0.0
247.53125,-24.4140625,-40.52734375,-29.296875,-49.31640625,-84.47265625,0.0
247.53515625,-42.96875,-38.0859375,-34.1796875,-35.64453125,-34.1796875,0.0
247.5390625,-69.3359375,-33.203125,-34.1796875,-26.3671875,138.671875,0.0
247.54296875,-69.3359375,-41.9921875,-31.25,-17.08984375,97.65625,0.0
247.546875,-55.6640625,-48.33984375,-25.390625,23.4375,-166.50390625,0.0
247.55078125,-26.3671875,-40.52734375,-24.90234375,34.66796875,-295.8984375,0.0
247.5546875,-22.94921875,-34.1796875,-22.94921875,32.71484375,-218.26171875,0.0
247.55859375,-59.08203125,-33.203125,-25.87890625,27.83203125,64.94140625,0.0
247.5625,-86.42578125,-36.62109375,-29.296875,-4.8828125,137.20703125,0.0
247.56640625,-84.9609375,-41.50390625,-28.80859375,-27.34375,-28.3203125,0.0
247.5703125,-60.546875,-42.48046875,-39.55078125,-17.578125,-114.74609375,0.0
247.57421875,-39.0625,-47.36328125,-33.203125,-4.39453125,-72.265625,0.0
247.578125,-20.5078125,-52.734375,-26.3671875,-7.8125,21.484375,0.0
247.58203125,-32.71484375,-43.9453125,-34.1796875,1.953125,132.32421875,0.0
247.5859375,-64.453125,-36.1328125,-27.34375,-5.37109375,-59.08203125,0.0
247.58984375,-60.05859375,-33.203125,-25.390625,0.9765625,-165.52734375,0.0
247.59375,-58.59375,-39.55078125,-35.64453125,13.671875,-22.4609375,0.0
247.59765625,-56.640625,-46.875,-39.55078125,-11.23046875,42.48046875,0.0
247.6015625,-39.0625,-49.8046875,-34.1796875,-17.578125,54.6875,0.0
247.60546875,-48.33984375,-48.828125,-40.52734375,-4.39453125,-79.58984375,0.0
247.609375,-43.9453125,-45.8984375,-43.45703125,-3.41796875,-153.80859375,0.0
247.61328125,-25.390625,-39.55078125,-41.50390625,4.39453125,-119.140625,0.0
247.6171875,-24.4140625,-36.1328125,-39.0625,28.3203125,9.765625,0.0
247.62109375,-24.4140625,-42.48046875,-29.296875,37.59765625,189.94140625,0.0
247.625,-30.76171875,-41.015625,-28.80859375,50.78125,93.75,0.0
247.62890625,-46.875,-31.25,-39.55078125,40.52734375,-126.953125,0.0
247.6328125,-68.84765625,-28.3203125,-35.64453125,22.4609375,-197.265625,0.0
247.63671875,-38.57421875,-35.15625,-25.87890625,41.9921875,-86.42578125,0.0
247.640625,-42.96875,-40.0390625,-28.3203125,32.71484375,7.32421875,0.0
247.64453125,-71.77734375,-36.62109375,-27.83203125,28.80859375,-15.625,0.0
247.6484375,-45.8984375,-34.1796875,-24.90234375,49.31640625,-57.6171875,0.0
247.65234375,-41.9921875,-35.15625,-29.78515625,66.89453125,-98.14453125,0.0
247.65625,-49.8046875,-42.48046875,-37.109375,38.0859375,22.94921875,0.0
247.66015625,-72.265625,-43.45703125,-34.66796875,0.48828125,70.3125,0.0
247.6640625,-77.1484375,-32.71484375,-28.3203125,16.6015625,8.30078125,0.0
247.66796875,-54.6875,-38.57421875,-29.78515625,23.4375,-37.109375,0.0
247.671875,-62.98828125,-44.43359375,-34.66796875,11.23046875,-137.20703125,0.0
247.67578125,-36.1328125,-40.0390625,-33.203125,25.87890625,-78.125,0.0
247.6796875,-31.25,-34.1796875,-35.64453125,12.6953125,-24.4140625,0.0
247.68359375,-85.44921875,-41.015625,-50.78125,-18.5546875,-134.27734375,0.0
247.6875,-79.1015625,-47.8515625,-45.41015625,-18.06640625,-206.0546875,0.0
247.69140625,-40.52734375,-43.45703125,-24.90234375,10.25390625,-152.34375,0.0
247.6953125,-51.7578125,-34.1796875,-21.484375,2.44140625,-42.48046875,0.0
247.69921875,-78.61328125,-34.66796875,-31.73828125,-42.48046875,32.71484375,0.0
247.703125,-70.3125,-38.57421875,-35.64453125,-44.43359375,-14.16015625,0.0
247.70703125,-70.3125,-40.52734375,-33.69140625,-44.921875,-139.6484375,0.0
247.7109375,-62.5,-32.2265625,-26.85546875,-65.4296875,-226.07421875,0.0
247.71484375,-41.015625,-26.85546875,-26.3671875,-80.56640625,-148.92578125,0.0
247.71875,-40.0390625,-35.64453125,-36.1328125,-79.1015625,-63.96484375,0.0
247.72265625,-46.38671875,-31.73828125,-39.55078125,-71.77734375,-72.75390625,0.0
247.7265625,-46.38671875,-23.4375,-28.80859375,-78.61328125,-131.8359375,0.0
247.73046875,-38.57421875,-27.34375,-27.34375,-93.26171875,-239.74609375,0.0
247.734375,-62.01171875,-26.3671875,-24.90234375,-77.63671875,-244.140625,0.0
247.73828125,-80.56640625,-23.4375,-22.4609375,-70.80078125,-51.7578125,0.0
247.7421875,-52.24609375,-15.625,-22.94921875,-87.40234375,146.97265625,0.0
247.74609375,-46.38671875,-10.25390625,-25.390625,-71.2890625,126.46484375,0.0
247.75,-31.25,-14.16015625,-27.34375,-24.90234375,0.48828125,0.0
247.75390625,-11.23046875,-19.53125,-15.13671875,-34.66796875,-25.87890625,0.0
247.7578125,-12.20703125,-15.13671875,-18.5546875,-74.21875,68.359375,0.0
247.76171875,-17.08984375,-6.8359375,-19.04296875,-92.28515625,132.8125,0.0
247.765625,-28.80859375,-9.765625,-12.6953125,-93.26171875,31.25,0.0
247.76953125,-51.7578125,-18.5546875,-17.08984375,-56.640625,-57.6171875,0.0
247.7734375,-43.45703125,-9.765625,-13.671875,-53.22265625,13.671875,0.0
247.77734375,-9.765625,-3.90625,-9.765625,-65.91796875,83.0078125,0.0
247.78125,-41.50390625,-5.859375,-10.7421875,-43.45703125,137.6953125,0.0
247.78515625,-56.15234375,-9.27734375,-6.8359375,-37.109375,84.47265625,0.0
247.7890625,-4.8828125,-7.32421875,-5.859375,-66.89453125,-108.88671875,0.0
247.79296875,-24.90234375,-10.25390625,-1.953125,-98.6328125,-151.3671875,0.0
247.796875,-73.73046875,-27.83203125,-5.37109375,-102.05078125,-29.78515625,0.0
247.80078125,-57.6171875,-28.80859375,-11.23046875,-104.4921875,20.5078125,0.0
247.8046875,-29.78515625,-10.25390625,-10.7421875,-84.47265625,-59.5703125,0.0
247.80859375,-2.9296875,-9.765625,-19.04296875,-70.80078125,-213.37890625,0.0
247.8125,-1.953125,-14.16015625,-16.6015625,-71.77734375,-235.3515625,0.0
247.81640625,-62.98828125,-11.71875,-3.41796875,-61.03515625,17.08984375,0.0
247.8203125,-64.453125,-16.11328125,-6.8359375,-74.21875,162.59765625,0.0
247.82421875,-66.40625,-19.53125,-16.6015625,-79.58984375,56.15234375,0.0
247.828125,-75.68359375,-17.08984375,-17.578125,-64.94140625,-6.34765625,0.0
247.83203125,-39.55078125,-14.16015625,-15.13671875,-61.5234375,-42.48046875,0.0
247.8359375,-41.015625,-20.01953125,-12.6953125,-83.0078125,14.16015625,0.0
247.83984375,-37.59765625,-28.80859375,-8.30078125,-73.73046875,55.17578125,0.0
247.84375,-30.2734375,-33.69140625,-9.27734375,-42.96875,22.4609375,0.0
247.84765625,-35.15625,-23.92578125,-20.01953125,-53.22265625,9.765625,0.0
247.8515625,-49.31640625,-12.6953125,-14.6484375,-48.33984375,-125.48828125,0.0
247.85546875,-73.73046875,-17.08984375,-8.7890625,-28.80859375,-139.16015625,0.0
247.859375,-57.6171875,-25.87890625,-15.625,-38.57421875,-37.109375,0.0
247.86328125,-29.296875,-31.25,-24.4140625,-29.296875,-48.828125,0.0
247.8671875,-18.06640625,-30.2734375,-24.4140625,2.9296875,-121.58203125,0.0
247.87109375,-22.4609375,-27.34375,-16.6015625,-15.625,-109.86328125,0.0
247.875,2.9296875,-28.3203125,-15.625,-31.73828125,20.99609375,0.0
247.87890625,-9.27734375,-33.203125,-20.99609375,-15.625,67.3828125,0.0
247.8828125,-33.203125,-36.62109375,-32.2265625,-64.453125,151.85546875,0.0
247.88671875,-21.97265625,-26.3671875,-35.15625,-98.6328125,56.15234375,0.0
247.890625,-31.73828125,-21.484375,-31.73828125,-82.03125,-110.3515625,0.0
247.89453125,-26.85546875,-25.390625,-29.78515625,-59.08203125,-93.26171875,0.0
247.8984375,-29.78515625,-15.625,-22.4609375,-49.8046875,17.08984375,0.0
247.90234375,-28.80859375,-22.94921875,-20.01953125,-68.84765625,155.2734375,0.0
247.90625,3.90625,-41.015625,-26.85546875,-86.9140625,26.3671875,0.0
247.91015625,-46.875,-33.203125,-25.87890625,-83.49609375,-217.7734375,0.0
247.9140625,-74.21875,-33.203125,-32.71484375,-81.54296875,-237.79296875,0.0
247.91796875,-60.546875,-45.8984375,-40.0390625,-95.703125,-95.703125,0.0
247.921875,-50.78125,-38.0859375,-28.3203125,-86.9140625,-23.92578125,0.0
247.92578125,-31.25,-31.25,-25.390625,-74.21875,-132.32421875,0.0
247.9296875,-14.16015625,-35.64453125,-37.59765625,-66.40625,-247.0703125,0.0
247.93359375,-37.59765625,-34.66796875,-29.296875,-91.30859375,-190.91796875,0.0
247.9375,-83.984375,-36.62109375,-20.5078125,-124.51171875,-69.82421875,0.0
247.94140625,-86.9140625,-37.109375,-23.92578125,-105.46875,27.83203125,0.0
247.9453125,-68.84765625,-22.94921875,-20.99609375,-85.44921875,-44.921875,0.0
247.94921875,-45.8984375,-19.04296875,-28.3203125,-115.234375,-162.59765625,0.0
247.953125,-41.015625,-32.71484375,-36.1328125,-140.625,-70.3125,0.0
247.95703125,-56.640625,-34.1796875,-22.94921875,-111.328125,41.015625,0.0
247.9609375,-59.08203125,-34.66796875,-11.71875,-79.1015625,16.6015625,0.0
247.96484375,-60.05859375,-38.0859375,-24.90234375,-70.80078125,7.32421875,0.0
247.96875,-50.29296875,-38.57421875,-32.71484375,-72.265625,-170.8984375,0.0
247.97265625,-44.921875,-32.71484375,-24.4140625,-71.77734375,-288.0859375,0.0
247.9765625,-41.015625,-30.76171875,-24.4140625,-74.70703125,-195.3125,0.0
247.98046875,-13.671875,-31.73828125,-29.296875,-69.82421875,-37.59765625,0.0
247.984375,-35.64453125,-33.69140625,-27.83203125,-83.984375,-12.20703125,0.0
247.98828125,-76.66015625,-32.2265625,-24.90234375,-76.66015625,-206.54296875,0.0
247.9921875,-78.61328125,-29.296875,-22.94921875,-49.8046875,-258.7890625,0.0
247.99609375,-88.37890625,-36.62109375,-23.4375,-36.1328125,-99.12109375,0.0
248.0,-78.61328125,-37.59765625,-31.25,-57.6171875,79.1015625,0.0
248.00390625,-67.3828125,-40.0390625,-33.69140625,-84.9609375,77.1484375,0.0
248.0078125,-62.01171875,-31.73828125,-29.78515625,-62.5,-18.06640625,0.0
248.01171875,-46.875,-23.92578125,-22.94921875,-53.7109375,-71.77734375,0.0
248.015625,-47.8515625,-33.69140625,-27.83203125,-82.03125,-84.9609375,0.0
248.01953125,-67.87109375,-35.64453125,-28.3203125,-84.9609375,9.27734375,0.0
248.0234375,-62.5,-34.1796875,-21.97265625,-59.5703125,48.828125,0.0
248.02734375,-38.57421875,-39.55078125,-30.2734375,-55.6640625,-34.66796875,0.0
248.03125,-43.45703125,-41.015625,-38.0859375,-71.77734375,-62.01171875,0.0
248.03515625,-46.875,-33.69140625,-36.62109375,-112.79296875,9.27734375,0.0
248.0390625,-66.40625,-31.25,-26.85546875,-143.06640625,77.63671875,0.0
248.04296875,-93.75,-40.0390625,-23.92578125,-107.421875,65.4296875,0.0
248.046875,-91.30859375,-38.57421875,-26.3671875,-98.6328125,-14.6484375,0.0
248.05078125,-76.171875,-31.73828125,-25.87890625,-117.1875,-144.53125,0.0
248.0546875,-63.96484375,-34.66796875,-24.4140625,-119.140625,-104.98046875,0.0
248.05859375,-67.3828125,-41.015625,-42.96875,-128.90625,72.265625,0.0
248.0625,-49.31640625,-34.66796875,-48.828125,-102.5390625,50.78125,0.0
248.06640625,-48.828125,-29.296875,-32.71484375,-78.61328125,-76.66015625,0.0
248.0703125,-61.03515625,-33.203125,-32.71484375,-77.63671875,-76.171875,0.0
248.07421875,-49.31640625,-30.2734375,-33.69140625,-54.19921875,-57.12890625,0.0
248.078125,-75.1953125,-33.69140625,-41.015625,-52.24609375,7.32421875,0.0
248.08203125,-66.89453125,-39.0625,-37.109375,-60.546875,136.23046875,0.0
248.0859375,-73.2421875,-34.66796875,-32.2265625,-63.4765625,58.59375,0.0
248.08984375,-101.5625,-38.0859375,-35.15625,-72.75390625,-125.0,0.0
248.09375,-69.82421875,-37.59765625,-31.25,-56.640625,-121.09375,0.0
248.09765625,-58.59375,-33.69140625,-29.296875,-42.96875,-31.73828125,0.0
248.1015625,-73.73046875,-36.1328125,-29.296875,-30.2734375,55.6640625,0.0
248.10546875,-74.70703125,-35.15625,-30.2734375,-15.13671875,72.75390625,0.0
248.109375,-57.6171875,-27.83203125,-27.83203125,-20.5078125,-80.078125,0.0
248.11328125,-58.10546875,-24.4140625,-32.2265625,-28.80859375,-156.73828125,0.0
248.1171875,-68.359375,-28.3203125,-33.203125,-13.671875,-5.859375,0.0
248.12109375,-67.3828125,-33.69140625,-35.64453125,-7.32421875,125.0,0.0
248.125,-76.66015625,-30.76171875,-47.36328125,-14.16015625,100.5859375,0.0
248.12890625,-90.33203125,-29.78515625,-38.57421875,-5.859375,-42.48046875,0.0
248.1328125,-66.40625,-37.109375,-20.99609375,-13.18359375,-150.87890625,0.0
248.13671875,-71.2890625,-40.0390625,-25.390625,-39.0625,-92.7734375,0.0
248.140625,-84.47265625,-38.57421875,-34.1796875,-19.53125,22.4609375,0.0
248.14453125,-65.91796875,-31.73828125,-34.1796875,-18.5546875,19.04296875,0.0
248.1484375,-59.5703125,-28.80859375,-32.71484375,-46.38671875,-80.56640625,0.0
248.15234375,-67.3828125,-27.83203125,-25.87890625,-24.90234375,-49.8046875,0.0
248.15625,-83.49609375,-33.69140625,-33.203125,-39.55078125,44.43359375,0.0
248.16015625,-104.4921875,-41.50390625,-40.52734375,-73.2421875,47.8515625,0.0
248.1640625,-118.65234375,-43.45703125,-28.80859375,-62.01171875,-5.859375,0.0
248.16796875,-118.65234375,-42.48046875,-30.2734375,-56.640625,-50.78125,0.0
248.171875,-97.65625,-40.52734375,-36.62109375,-43.45703125,-39.0625,0.0
248.17578125,-65.4296875,-45.41015625,-28.80859375,-21.484375,26.85546875,0.0
248.1796875,-69.3359375,-37.109375,-31.25,-42.96875,59.5703125,0.0
248.18359375,-114.74609375,-28.3203125,-39.0625,-36.1328125,83.984375,0.0
248.1875,-130.37109375,-34.66796875,-25.87890625,-31.73828125,78.125,0.0
248.19140625,-114.2578125,-37.109375,-24.90234375,-68.359375,-57.12890625,0.0
248.1953125,-66.40625,-31.73828125,-29.296875,-69.3359375,-104.00390625,0.0
248.19921875,-51.7578125,-35.15625,-29.296875,-76.171875,20.99609375,0.0
248.203125,-103.515625,-34.66796875,-28.3203125,-106.4453125,55.6640625,0.0
248.20703125,-109.375,-31.73828125,-25.390625,-105.95703125,0.9765625,0.0
248.2109375,-83.49609375,-40.52734375,-26.3671875,-91.30859375,-65.4296875,0.0
248.21484375,-74.21875,-38.0859375,-27.83203125,-104.98046875,-82.03125,0.0
248.21875,-72.75390625,-32.2265625,-32.2265625,-120.60546875,-43.45703125,0.0
248.22265625,-67.3828125,-35.15625,-29.296875,-126.46484375,61.5234375,0.0
248.2265625,-78.61328125,-29.78515625,-27.83203125,-117.67578125,17.578125,0.0
248.23046875,-84.9609375,-20.01953125,-25.87890625,-75.68359375,-138.18359375,0.0
248.234375,-70.3125,-35.64453125,-26.85546875,-67.87109375,-98.6328125,0.0
248.23828125,-74.21875,-48.33984375,-32.71484375,-89.35546875,-38.0859375,0.0
248.2421875,-89.35546875,-40.52734375,-31.25,-98.14453125,-23.92578125,0.0
248.24609375,-52.24609375,-33.69140625,-35.15625,-105.46875,-88.8671875,0.0
248.25,-69.82421875,-36.1328125,-34.66796875,-100.5859375,-211.9140625,0.0
248.25390625,-121.58203125,-35.15625,-24.4140625,-80.56640625,-143.5546875,0.0
248.2578125,-87.40234375,-33.69140625,-22.94921875,-74.21875,2.9296875,0.0
248.26171875,-63.4765625,-34.1796875,-23.4375,-76.171875,52.734375,0.0
248.265625,-73.73046875,-35.64453125,-20.01953125,-48.828125,10.7421875,0.0
248.26953125,-78.61328125,-35.15625,-21.97265625,-41.50390625,-101.07421875,0.0
248.2734375,-90.33203125,-24.4140625,-19.04296875,-62.5,-138.18359375,0.0
248.27734375,-82.03125,-28.80859375,-21.97265625,-68.84765625,-54.6875,0.0
248.28125,-65.4296875,-32.71484375,-29.78515625,-55.17578125,54.6875,0.0
248.28515625,-55.17578125,-28.3203125,-18.5546875,-24.90234375,86.42578125,0.0
248.2890625,-49.8046875,-31.73828125,-16.6015625,-22.94921875,-80.56640625,0.0
248.29296875,-37.109375,-26.85546875,-30.2734375,-58.10546875,-148.4375,0.0
248.296875,-30.2734375,-24.4140625,-32.2265625,-72.265625,60.546875,0.0
248.30078125,-53.22265625,-23.4375,-25.390625,-81.54296875,104.00390625,0.0
248.3046875,-68.84765625,-24.4140625,-17.578125,-81.54296875,-51.26953125,0.0
248.30859375,-79.58984375,-34.1796875,-21.97265625,-86.9140625,-124.0234375,0.0
248.3125,-82.03125,-39.55078125,-31.25,-95.703125,-77.63671875,0.0
248.31640625,-90.33203125,-38.0859375,-25.87890625,-85.44921875,16.6015625,0.0
248.3203125,-81.0546875,-30.2734375,-16.6015625,-91.30859375,102.05078125,0.0
248.32421875,-60.05859375,-37.59765625,-17.578125,-104.4921875,39.55078125,0.0
248.328125,-61.03515625,-42.96875,-18.06640625,-87.890625,-195.80078125,0.0
248.33203125,-52.734375,-36.1328125,-14.6484375,-71.77734375,-286.62109375,0.0
248.3359375,-82.03125,-25.390625,-12.20703125,-100.5859375,-126.953125,0.0
248.33984375,-133.7890625,-15.625,-11.23046875,-141.11328125,-10.25390625,0.0
248.34375,-137.6953125,-16.11328125,-13.671875,-164.0625,89.35546875,0.0
248.34765625,-111.81640625,-7.32421875,-15.625,-166.015625,85.9375,0.0
248.3515625,-101.07421875,6.8359375,-10.7421875,-196.77734375,-52.24609375,0.0
248.35546875,-121.09375,4.39453125,-13.671875,-233.88671875,-53.7109375,0.0
248.359375,-112.79296875,1.953125,-18.06640625,-221.19140625,65.4296875,0.0
248.36328125,-125.48828125,7.8125,-14.6484375,-222.65625,98.6328125,0.0
248.3671875,-153.3203125,15.625,-13.18359375,-229.00390625,-65.4296875,0.0
248.37109375,-126.953125,15.625,-13.18359375,-225.09765625,-152.83203125,0.0
248.375,-138.671875,7.8125,-20.5078125,-229.4921875,-66.40625,0.0
248.37890625,-160.15625,3.90625,-25.390625,-234.375,33.69140625,0.0
248.3828125,-145.01953125,23.92578125,-18.06640625,-245.1171875,49.8046875,0.0
248.38671875,-155.76171875,30.76171875,-15.625,-271.97265625,-34.1796875,0.0
248.390625,-125.9765625,25.87890625,-23.92578125,-280.2734375,-124.0234375,0.0
248.39453125,-110.83984375,33.69140625,-29.296875,-264.16015625,-93.75,0.0
248.3984375,-168.45703125,26.3671875,-36.1328125,-280.2734375,27.34375,0.0
248.40234375,-166.50390625,30.76171875,-36.62109375,-301.26953125,67.87109375,0.0
248.40625,-166.9921875,31.73828125,-38.57421875,-284.1796875,-60.546875,0.0
248.41015625,-175.78125,29.78515625,-40.0390625,-259.27734375,-154.296875,0.0
248.4140625,-125.48828125,48.828125,-38.57421875,-216.30859375,-94.23828125,0.0
248.41796875,-117.67578125,35.64453125,-38.0859375,-192.87109375,-54.6875,0.0
248.421875,-154.78515625,21.484375,-40.0390625,-214.35546875,-0.9765625,0.0
248.42578125,-125.9765625,36.62109375,-42.48046875,-205.56640625,11.23046875,0.0
248.4296875,-123.53515625,47.36328125,-35.15625,-184.08203125,-126.46484375,0.0
248.43359375,-127.9296875,41.015625,-36.62109375,-177.734375,-102.5390625,0.0
248.4375,-94.23828125,46.875,-45.8984375,-166.9921875,97.65625,0.0
248.44140625,-101.07421875,51.26953125,-47.8515625,-159.1796875,103.02734375,0.0
248.4453125,-87.890625,37.59765625,-51.7578125,-173.828125,20.5078125,0.0
248.44921875,-47.8515625,29.296875,-44.921875,-170.41015625,-41.50390625,0.0
248.453125,-87.890625,29.78515625,-46.875,-122.55859375,-120.1171875,0.0
248.45703125,-121.09375,26.85546875,-64.94140625,-105.46875,-123.046875,0.0
248.4609375,-84.47265625,25.87890625,-59.5703125,-117.67578125,2.44140625,0.0
248.46484375,-52.734375,31.73828125,-44.921875,-111.81640625,104.4921875,0.0
248.46875,-36.1328125,28.3203125,-50.78125,-89.84375,-14.6484375,0.0
248.47265625,-4.39453125,19.04296875,-56.15234375,-74.21875,-73.73046875,0.0
248.4765625,8.7890625,13.671875,-55.6640625,-70.80078125,15.625,0.0
248.48046875,-31.25,0.9765625,-52.24609375,-69.3359375,4.8828125,0.0
248.484375,-45.8984375,-1.46484375,-44.921875,-46.38671875,-14.6484375,0.0
248.48828125,-35.64453125,5.859375,-43.45703125,-15.13671875,-92.7734375,0.0
248.4921875,-36.62109375,2.44140625,-54.19921875,-14.6484375,-164.55078125,0.0
248.49609375,-18.06640625,-8.30078125,-57.12890625,-18.06640625,-62.5,0.0
248.5,-5.859375,-9.27734375,-43.9453125,-19.53125,44.921875,0.0
248.50390625,-6.8359375,-6.34765625,-35.64453125,-0.9765625,-14.16015625,0.0
248.5078125,-30.76171875,-14.6484375,-44.921875,24.4140625,-176.7578125,0.0
248.51171875,-27.83203125,-17.08984375,-45.41015625,22.94921875,-248.53515625,0.0
248.515625,-7.8125,-21.97265625,-40.52734375,5.37109375,-220.703125,0.0
248.51953125,-5.37109375,-32.71484375,-43.9453125,-12.20703125,-64.453125,0.0
248.5234375,-20.5078125,-31.25,-47.8515625,-21.484375,36.62109375,0.0
248.52734375,19.04296875,-18.5546875,-42.48046875,-30.76171875,-66.89453125,0.0
248.53125,10.7421875,-27.83203125,-44.43359375,-38.0859375,-213.8671875,0.0
248.53515625,-29.296875,-35.64453125,-48.33984375,-2.44140625,-239.74609375,0.0
248.5390625,-18.5546875,-24.90234375,-43.45703125,12.20703125,-98.14453125,0.0
248.54296875,-35.64453125,-30.76171875,-41.9921875,19.04296875,54.19921875,0.0
248.546875,-26.3671875,-44.43359375,-41.015625,51.26953125,9.27734375,0.0
248.55078125,-3.41796875,-40.0390625,-38.0859375,53.7109375,-110.3515625,0.0
248.5546875,6.8359375,-24.4140625,-41.9921875,43.45703125,-136.23046875,0.0
248.55859375,0.48828125,-30.2734375,-39.0625,39.0625,-43.45703125,0.0
248.5625,-11.71875,-39.55078125,-29.296875,36.62109375,65.4296875,0.0
248.56640625,-6.34765625,-43.45703125,-33.69140625,19.53125,28.80859375,0.0
248.5703125,-18.5546875,-47.36328125,-35.15625,16.6015625,-75.68359375,0.0
248.57421875,-29.78515625,-48.33984375,-20.5078125,34.1796875,-130.37109375,0.0
248.578125,-14.6484375,-49.8046875,-18.06640625,35.15625,-64.94140625,0.0
248.58203125,-20.5078125,-45.41015625,-26.3671875,40.52734375,17.578125,0.0
248.5859375,-17.08984375,-41.015625,-27.83203125,54.6875,-74.70703125,0.0
248.58984375,0.0,-40.52734375,-21.484375,62.01171875,-219.23828125,0.0
248.59375,-14.16015625,-36.62109375,-20.01953125,64.94140625,-160.64453125,0.0
248.59765625,-39.55078125,-41.015625,-20.99609375,71.2890625,24.90234375,0.0
248.6015625,-23.4375,-36.62109375,-17.08984375,46.38671875,72.265625,0.0
248.60546875,11.23046875,-33.69140625,-18.06640625,27.34375,27.34375,0.0
248.609375,-46.38671875,-45.41015625,-16.11328125,63.4765625,-139.6484375,0.0
248.61328125,-91.30859375,-47.8515625,-19.53125,67.87109375,-278.80859375,0.0
248.6171875,-63.4765625,-44.43359375,-29.78515625,39.55078125,-123.53515625,0.0
248.62109375,-38.57421875,-45.8984375,-27.83203125,35.15625,66.40625,0.0
248.625,-40.52734375,-40.0390625,-24.4140625,26.3671875,96.6796875,0.0
248.62890625,-40.52734375,-26.85546875,-31.25,18.5546875,-118.65234375,0.0
248.6328125,-30.2734375,-22.94921875,-33.203125,9.27734375,-187.01171875,0.0
248.63671875,-40.52734375,-37.59765625,-22.4609375,14.6484375,17.08984375,0.0
248.640625,-55.6640625,-49.31640625,-24.90234375,-14.6484375,26.85546875,0.0
248.64453125,-29.78515625,-44.43359375,-24.4140625,-33.203125,-47.36328125,0.0
248.6484375,-21.484375,-33.69140625,-16.6015625,-19.53125,-158.69140625,0.0
248.65234375,-31.25,-28.3203125,-13.18359375,9.765625,-156.73828125,0.0
248.65625,-5.859375,-37.109375,-24.4140625,-1.46484375,-7.8125,0.0
248.66015625,-18.5546875,-44.921875,-35.15625,-32.2265625,133.30078125,0.0
248.6640625,-77.1484375,-32.71484375,-17.08984375,3.41796875,138.671875,0.0
248.66796875,-86.42578125,-34.1796875,-10.7421875,8.7890625,-84.9609375,0.0
248.671875,-61.03515625,-50.78125,-20.5078125,-3.41796875,-125.0,0.0
248.67578125,-46.38671875,-53.22265625,-26.3671875,-4.8828125,-16.11328125,0.0
248.6796875,-43.45703125,-37.59765625,-26.85546875,-19.53125,71.2890625,0.0
248.68359375,-52.24609375,-33.69140625,-24.4140625,-22.94921875,107.421875,0.0
248.6875,-66.89453125,-38.0859375,-22.4609375,-41.015625,-51.26953125,0.0
248.69140625,-55.17578125,-32.2265625,-15.625,-49.31640625,-165.0390625,0.0
248.6953125,-42.96875,-23.92578125,-21.97265625,-50.29296875,-112.3046875,0.0
248.69921875,-51.7578125,-31.73828125,-29.78515625,-47.8515625,41.50390625,0.0
248.703125,-46.38671875,-31.25,-26.3671875,-56.640625,57.12890625,0.0
248.70703125,-36.62109375,-31.73828125,-27.34375,-81.0546875,-115.72265625,0.0
248.7109375,-42.48046875,-33.69140625,-17.578125,-73.2421875,-292.96875,0.0
248.71484375,-52.24609375,-32.2265625,-17.08984375,-63.96484375,-213.37890625,0.0
248.71875,-45.8984375,-35.64453125,-25.390625,-58.10546875,5.37109375,0.0
248.72265625,-59.5703125,-41.9921875,-24.90234375,-44.43359375,31.25,0.0
248.7265625,-78.125,-49.8046875,-29.78515625,-49.31640625,27.83203125,0.0
248.73046875,-75.68359375,-43.45703125,-33.69140625,-79.58984375,-78.125,0.0
248.734375,-59.08203125,-38.0859375,-41.50390625,-76.66015625,-160.15625,0.0
248.73828125,-70.3125,-34.1796875,-33.69140625,-69.3359375,-29.78515625,0.0
248.7421875,-57.12890625,-30.2734375,-25.87890625,-65.4296875,48.33984375,0.0
248.74609375,-41.50390625,-33.69140625,-31.73828125,-43.45703125,-10.7421875,0.0
248.75,-91.30859375,-37.59765625,-24.90234375,-54.6875,-64.94140625,0.0
248.75390625,-113.76953125,-32.71484375,-23.4375,-68.84765625,-40.0390625,0.0
248.7578125,-117.67578125,-29.296875,-26.3671875,-59.5703125,46.38671875,0.0
248.76171875,-110.83984375,-34.66796875,-30.76171875,-56.15234375,130.859375,0.0
248.765625,-95.21484375,-31.73828125,-34.66796875,-62.5,41.015625,0.0
248.76953125,-94.7265625,-22.4609375,-29.78515625,-77.1484375,-155.2734375,0.0
248.7734375,-85.44921875,-8.7890625,-32.2265625,-56.15234375,-126.953125,0.0
248.77734375,-90.8203125,-2.44140625,-32.2265625,-59.08203125,-1.953125,0.0
248.78125,-101.5625,-4.8828125,-33.203125,-117.1875,34.1796875,0.0
248.78515625,-80.56640625,0.48828125,-34.66796875,-110.83984375,45.8984375,0.0
248.7890625,-79.1015625,8.30078125,-25.87890625,-107.91015625,-3.90625,0.0
248.79296875,-111.328125,8.7890625,-31.73828125,-134.27734375,-65.91796875,0.0
248.796875,-111.81640625,8.30078125,-37.59765625,-148.92578125,28.3203125,0.0
248.80078125,-116.69921875,9.27734375,-31.25,-144.53125,55.6640625,0.0
248.8046875,-143.06640625,18.06640625,-33.203125,-104.00390625,-3.41796875,0.0
248.80859375,-146.97265625,22.4609375,-39.0625,-103.515625,-21.484375,0.0
248.8125,-102.05078125,21.484375,-36.62109375,-128.41796875,-38.0859375,0.0
248.81640625,-94.7265625,25.87890625,-38.57421875,-131.8359375,42.96875,0.0
248.8203125,-143.5546875,23.4375,-36.1328125,-125.0,128.90625,0.0
248.82421875,-136.71875,17.578125,-32.2265625,-123.046875,75.68359375,0.0
248.828125,-146.484375,20.01953125,-35.15625,-125.9765625,-111.328125,0.0
248.83203125,-174.31640625,19.04296875,-33.203125,-112.79296875,-214.84375,0.0
248.8359375,-156.25,15.625,-35.64453125,-95.703125,-85.9375,0.0
248.83984375,-128.41796875,6.34765625,-49.31640625,-90.33203125,41.9921875,0.0
248.84375,-115.72265625,-5.37109375,-49.8046875,-88.8671875,137.20703125,0.0
248.84765625,-103.515625,-7.32421875,-33.69140625,-73.2421875,28.3203125,0.0
248.8515625,-98.14453125,-1.46484375,-25.87890625,-54.19921875,-147.94921875,0.0
248.85546875,-76.171875,-0.9765625,-35.15625,-54.19921875,-55.6640625,0.0
248.859375,-65.91796875,-15.13671875,-39.55078125,-68.84765625,73.2421875,0.0
248.86328125,-104.00390625,-26.3671875,-37.109375,-61.03515625,116.69921875,0.0
248.8671875,-115.234375,-23.92578125,-26.85546875,-46.38671875,-58.59375,0.0
248.87109375,-97.65625,-19.53125,-22.94921875,-57.6171875,-125.0,0.0
248.875,-81.54296875,-39.55078125,-29.296875,-61.03515625,-33.69140625,0.0
248.87890625,-111.328125,-56.15234375,-38.0859375,-51.7578125,-117.67578125,0.0
248.8828125,-105.95703125,-41.9921875,-31.25,-18.5546875,44.921875,0.0
248.88671875,-79.58984375,-45.41015625,-20.5078125,-10.25390625,91.796875,0.0
248.890625,-100.09765625,-59.08203125,-17.08984375,-27.83203125,-57.6171875,0.0
248.89453125,-83.0078125,-62.98828125,-13.671875,-39.55078125,-53.7109375,0.0
248.8984375,-67.87109375,-61.5234375,-21.97265625,-55.17578125,13.18359375,0.0
248.90234375,-64.453125,-62.98828125,-28.80859375,-34.66796875,48.33984375,0.0
248.90625,-64.453125,-55.6640625,-22.4609375,-13.671875,28.3203125,0.0
248.91015625,-65.91796875,-54.6875,-22.4609375,-9.27734375,-12.20703125,0.0
248.9140625,-41.015625,-59.08203125,-21.97265625,-6.8359375,-74.70703125,0.0
248.91796875,-33.203125,-57.12890625,-20.01953125,-2.44140625,-16.6015625,0.0
248.921875,-50.29296875,-66.40625,-24.90234375,-7.32421875,49.31640625,0.0
248.92578125,-56.640625,-59.5703125,-25.87890625,-24.90234375,36.1328125,0.0
248.9296875,-36.1328125,-50.78125,-24.90234375,-22.94921875,-70.80078125,0.0
248.93359375,-17.08984375,-54.19921875,-21.97265625,-16.11328125,-150.390625,0.0
248.9375,-53.7109375,-58.59375,-22.94921875,-23.4375,-83.49609375,0.0
248.94140625,-101.07421875,-58.59375,-26.3671875,-29.78515625,-29.296875,0.0
248.9453125,-99.609375,-63.4765625,-30.76171875,-27.34375,-14.16015625,0.0
248.94921875,-64.94140625,-64.94140625,-27.34375,-32.71484375,-55.6640625,0.0
248.953125,-58.10546875,-58.59375,-22.4609375,-44.921875,-146.484375,0.0
248.95703125,-57.6171875,-51.7578125,-24.90234375,-30.76171875,-89.35546875,0.0
248.9609375,-54.19921875,-49.8046875,-30.76171875,-28.80859375,24.90234375,0.0
248.96484375,-67.3828125,-60.546875,-28.3203125,-41.015625,-37.109375,0.0
248.96875,-62.5,-54.6875,-20.5078125,-42.48046875,-168.9453125,0.0
248.97265625,-53.22265625,-50.29296875,-35.64453125,-62.01171875,-219.7265625,0.0
248.9765625,-29.78515625,-42.48046875,-39.55078125,-57.12890625,-85.44921875,0.0
248.98046875,-42.96875,-40.52734375,-9.27734375,-22.4609375,66.89453125,0.0
248.984375,-82.51953125,-49.8046875,-3.90625,-17.08984375,4.8828125,0.0
248.98828125,-97.16796875,-57.12890625,-26.3671875,-43.9453125,-85.44921875,0.0
248.9921875,-52.734375,-55.17578125,-21.484375,-30.2734375,-81.0546875,0.0
248.99609375,-35.15625,-52.24609375,-26.85546875,-24.4140625,-57.12890625,0.0
249.0,-66.40625,-53.7109375,-31.73828125,-62.98828125,-16.11328125,0.0
249.00390625,-70.3125,-52.734375,-20.5078125,-73.73046875,41.50390625,0.0
249.0078125,-68.359375,-51.7578125,-20.01953125,-50.29296875,-73.2421875,0.0
249.01171875,-59.08203125,-44.43359375,-21.484375,-38.0859375,-144.53125,0.0
249.015625,-43.45703125,-44.921875,-28.80859375,-43.45703125,-53.22265625,0.0
249.01953125,-62.98828125,-51.7578125,-29.296875,-52.24609375,99.609375,0.0
249.0234375,-65.4296875,-50.78125,-31.73828125,-51.7578125,153.3203125,0.0
249.02734375,-44.921875,-43.45703125,-28.3203125,-45.41015625,-8.30078125,0.0
249.03125,-32.71484375,-41.015625,-14.16015625,-29.78515625,-137.20703125,0.0
249.03515625,-39.0625,-40.52734375,-18.06640625,-20.99609375,-39.0625,0.0
249.0390625,-19.53125,-35.15625,-24.90234375,-60.546875,65.4296875,0.0
249.04296875,21.97265625,-37.59765625,-30.2734375,-85.9375,-7.8125,0.0
249.046875,-17.08984375,-40.0390625,-32.71484375,-70.80078125,-38.57421875,0.0
249.05078125,-88.8671875,-33.203125,-22.94921875,-54.19921875,-70.80078125,0.0
249.0546875,-83.49609375,-31.25,-21.484375,-40.52734375,-53.22265625,0.0
249.05859375,-47.8515625,-26.85546875,-29.78515625,-27.34375,50.29296875,0.0
249.0625,-33.69140625,-20.01953125,-34.66796875,-6.34765625,44.43359375,0.0
249.06640625,-23.92578125,-17.578125,-28.3203125,-23.4375,-1.953125,0.0
249.0703125,8.7890625,-7.8125,-14.16015625,-67.87109375,-73.73046875,0.0
249.07421875,0.9765625,-17.08984375,-22.4609375,-80.56640625,-166.50390625,0.0
249.078125,-49.8046875,-25.390625,-32.2265625,-71.77734375,-38.0859375,0.0
249.08203125,-56.640625,-24.4140625,-28.3203125,-50.78125,44.43359375,0.0
249.0859375,-44.43359375,-25.87890625,-28.3203125,-35.64453125,7.32421875,0.0
249.08984375,-52.24609375,-27.34375,-26.3671875,-35.15625,-68.84765625,0.0
249.09375,-48.828125,-26.85546875,-26.85546875,-38.0859375,-125.48828125,0.0
249.09765625,-27.34375,-24.90234375,-22.4609375,-33.69140625,-5.37109375,0.0
249.1015625,-3.41796875,-27.34375,-23.92578125,-53.7109375,85.9375,0.0
249.10546875,10.25390625,-26.85546875,-24.90234375,-80.56640625,0.48828125,0.0
249.109375,-10.25390625,-26.85546875,-18.06640625,-55.17578125,-126.46484375,0.0
249.11328125,-70.80078125,-23.4375,-18.06640625,-40.0390625,-105.95703125,0.0
249.1171875,-84.9609375,-19.53125,-23.92578125,-46.38671875,9.27734375,0.0
249.12109375,-61.5234375,-19.53125,-28.80859375,-38.0859375,41.9921875,0.0
249.125,-35.15625,-19.53125,-23.4375,-25.390625,-17.08984375,0.0
249.12890625,-33.203125,-19.53125,-16.6015625,-19.04296875,-107.421875,0.0
249.1328125,-31.25,-18.5546875,-13.18359375,8.30078125,-212.40234375,0.0
249.13671875,-11.23046875,-21.97265625,-18.5546875,12.6953125,-166.015625,0.0
249.140625,-39.0625,-35.15625,-27.83203125,-22.4609375,0.9765625,0.0
249.14453125,-62.01171875,-33.203125,-33.203125,-38.57421875,5.37109375,0.0
249.1484375,-59.5703125,-27.83203125,-33.203125,-31.25,-89.84375,0.0
249.15234375,-53.22265625,-36.1328125,-24.90234375,-14.6484375,-149.4140625,0.0
249.15625,-26.85546875,-35.64453125,-33.203125,-21.484375,-89.84375,0.0
249.16015625,-16.11328125,-29.296875,-37.109375,-29.78515625,48.828125,0.0
249.1640625,-46.875,-27.34375,-31.25,-5.859375,73.2421875,0.0
249.16796875,-68.84765625,-42.96875,-36.62109375,-13.671875,-92.28515625,0.0
249.171875,-59.5703125,-49.31640625,-36.1328125,-17.578125,-184.5703125,0.0
249.17578125,-52.734375,-36.1328125,-25.87890625,1.953125,-126.46484375,0.0
249.1796875,-62.5,-31.25,-39.55078125,4.8828125,-21.97265625,0.0
249.18359375,-33.203125,-31.73828125,-47.8515625,14.16015625,39.0625,0.0
249.1875,-5.859375,-27.34375,-29.78515625,15.13671875,-60.05859375,0.0
249.19140625,-54.19921875,-28.3203125,-18.5546875,16.11328125,-134.27734375,0.0
249.1953125,-84.9609375,-41.9921875,-20.01953125,22.4609375,-92.28515625,0.0
249.19921875,-83.984375,-42.48046875,-28.80859375,-17.08984375,36.1328125,0.0
249.203125,-69.3359375,-38.0859375,-32.2265625,-35.64453125,108.88671875,0.0
249.20703125,-51.7578125,-40.0390625,-32.2265625,-31.73828125,9.27734375,0.0
249.2109375,-43.45703125,-40.52734375,-28.80859375,-31.25,-113.76953125,0.0
249.21484375,-43.45703125,-41.9921875,-28.3203125,-15.625,-123.046875,0.0
249.21875,-43.9453125,-42.96875,-30.76171875,6.34765625,-50.29296875,0.0
249.22265625,-39.0625,-42.96875,-28.80859375,5.859375,-32.71484375,0.0
249.2265625,-27.34375,-42.96875,-27.83203125,-7.32421875,-68.359375,0.0
249.23046875,-41.9921875,-40.52734375,-27.83203125,-0.48828125,-148.92578125,0.0
249.234375,-52.24609375,-38.57421875,-34.1796875,-1.46484375,-133.30078125,0.0
249.23828125,-33.69140625,-36.1328125,-37.59765625,-8.7890625,-18.5546875,0.0
249.2421875,-17.08984375,-38.0859375,-27.34375,20.5078125,120.1171875,0.0
249.24609375,-16.11328125,-41.9921875,-19.53125,32.2265625,81.0546875,0.0
249.25,-34.1796875,-41.015625,-18.06640625,7.8125,-115.72265625,0.0
249.25390625,-41.50390625,-41.9921875,-22.94921875,-1.953125,-98.6328125,0.0
249.2578125,-36.62109375,-37.109375,-27.34375,25.390625,35.15625,0.0
249.26171875,-36.62109375,-36.1328125,-24.4140625,20.01953125,44.43359375,0.0
249.265625,-20.01953125,-42.96875,-25.87890625,0.0,9.765625,0.0
249.26953125,-1.46484375,-44.43359375,-26.85546875,-13.671875,-119.62890625,0.0
249.2734375,13.18359375,-34.66796875,-26.85546875,-11.71875,-212.40234375,0.0
249.27734375,-5.37109375,-27.83203125,-36.62109375,-1.953125,-149.4140625,0.0
249.28125,-34.66796875,-29.78515625,-38.57421875,5.37109375,-37.109375,0.0
249.28515625,-44.43359375,-41.50390625,-34.66796875,6.34765625,54.19921875,0.0
249.2890625,-63.4765625,-42.48046875,-29.78515625,-5.859375,-68.359375,0.0
249.29296875,-53.7109375,-37.59765625,-21.97265625,8.30078125,-256.34765625,0.0
249.296875,-43.9453125,-42.48046875,-23.92578125,19.53125,-155.2734375,0.0
249.30078125,-40.0390625,-44.921875,-23.92578125,3.41796875,30.76171875,0.0
249.3046875,-31.25,-31.73828125,-18.5546875,-31.73828125,26.85546875,0.0
249.30859375,-29.78515625,-31.25,-18.5546875,-33.69140625,-83.49609375,0.0
249.3125,-34.1796875,-32.71484375,-20.99609375,-12.20703125,-174.31640625,0.0
249.31640625,-34.66796875,-26.3671875,-27.34375,-21.484375,-82.03125,0.0
249.3203125,-29.78515625,-32.71484375,-39.55078125,-40.0390625,77.1484375,0.0
249.32421875,-42.48046875,-39.55078125,-41.50390625,-44.921875,57.6171875,0.0
249.328125,-51.26953125,-35.15625,-36.62109375,-64.94140625,-55.17578125,0.0
249.33203125,-50.29296875,-26.85546875,-29.296875,-59.5703125,-188.96484375,0.0
249.3359375,-41.015625,-28.80859375,-26.85546875,-37.109375,-122.0703125,0.0
249.33984375,-38.57421875,-28.80859375,-31.73828125,-21.484375,116.69921875,0.0
249.34375,-31.73828125,-26.3671875,-30.76171875,-16.11328125,178.22265625,0.0
249.34765625,-34.1796875,-25.87890625,-25.87890625,-22.94921875,-21.484375,0.0
249.3515625,-47.8515625,-18.5546875,-19.04296875,-34.66796875,-214.35546875,0.0
249.35546875,-20.5078125,-19.04296875,-19.53125,-26.3671875,-163.57421875,0.0
249.359375,-24.4140625,-30.76171875,-22.4609375,-18.06640625,12.6953125,0.0
249.36328125,-30.2734375,-29.78515625,-29.296875,-31.25,132.32421875,0.0
249.3671875,-37.109375,-28.3203125,-34.1796875,-32.71484375,64.94140625,0.0
249.37109375,-48.33984375,-27.34375,-28.3203125,-18.5546875,-158.69140625,0.0
249.375,-53.7109375,-24.4140625,-27.83203125,-22.4609375,-277.83203125,0.0
249.37890625,-59.5703125,-29.296875,-34.66796875,-53.22265625,-122.0703125,0.0
249.3828125,-53.22265625,-34.1796875,-40.52734375,-69.82421875,23.92578125,0.0
249.38671875,-46.875,-42.48046875,-41.015625,-53.7109375,-34.66796875,0.0
249.390625,-45.8984375,-43.45703125,-36.62109375,-44.43359375,-138.671875,0.0
249.39453125,-45.41015625,-35.15625,-35.15625,-45.8984375,-162.109375,0.0
249.3984375,-52.734375,-32.2265625,-34.66796875,-53.22265625,-125.9765625,0.0
249.40234375,-69.3359375,-36.1328125,-36.1328125,-64.453125,-57.6171875,0.0
249.40625,-57.6171875,-41.50390625,-38.0859375,-52.24609375,-12.6953125,0.0
249.41015625,-62.01171875,-38.0859375,-36.1328125,-62.5,-123.046875,0.0
249.4140625,-63.96484375,-36.1328125,-33.203125,-47.8515625,-206.0546875,0.0
249.41796875,-47.8515625,-37.109375,-32.2265625,-34.66796875,-87.40234375,0.0
249.421875,-68.84765625,-38.57421875,-33.203125,-58.10546875,14.16015625,0.0
249.42578125,-72.265625,-34.1796875,-31.25,-59.08203125,35.64453125,0.0
249.4296875,-49.8046875,-33.69140625,-32.2265625,-39.55078125,-112.79296875,0.0
249.43359375,-34.1796875,-37.59765625,-32.2265625,-43.45703125,-225.09765625,0.0
249.4375,-69.3359375,-33.203125,-30.2734375,-49.31640625,-140.13671875,0.0
249.44140625,-95.21484375,-38.57421875,-32.71484375,-32.2265625,-53.7109375,0.0
249.4453125,-64.94140625,-30.2734375,-30.2734375,-18.06640625,10.7421875,0.0
249.44921875,-47.8515625,-24.90234375,-31.73828125,-4.8828125,-115.72265625,0.0
249.453125,-51.26953125,-28.80859375,-33.69140625,10.7421875,-232.91015625,0.0
249.45703125,-49.31640625,-28.3203125,-27.83203125,26.85546875,-146.97265625,0.0
249.4609375,-22.4609375,-28.3203125,-28.80859375,17.08984375,47.36328125,0.0
249.46484375,-10.25390625,-24.4140625,-28.3203125,-3.90625,125.9765625,0.0
249.46875,-15.625,-25.87890625,-28.3203125,-8.30078125,16.11328125,0.0
249.47265625,-22.94921875,-30.76171875,-29.296875,-2.44140625,-70.80078125,0.0
249.4765625,-36.62109375,-26.3671875,-26.3671875,-5.859375,-84.9609375,0.0
249.48046875,-74.21875,-27.34375,-35.64453125,-19.53125,22.4609375,0.0
249.484375,-92.7734375,-30.2734375,-44.43359375,-25.390625,130.37109375,0.0
249.48828125,-52.734375,-31.73828125,-38.0859375,-32.71484375,66.40625,0.0
249.4921875,-63.96484375,-33.203125,-32.2265625,-36.62109375,-62.98828125,0.0
249.49609375,-70.3125,-34.1796875,-37.109375,-21.97265625,-5.859375,0.0
249.5,-62.5,-35.64453125,-34.66796875,-2.9296875,140.13671875,0.0
249.50390625,-65.91796875,-34.1796875,-29.78515625,-18.5546875,182.6171875,0.0
249.5078125,-68.84765625,-33.69140625,-28.80859375,-20.01953125,42.96875,0.0
249.51171875,-74.70703125,-38.0859375,-26.85546875,0.9765625,-68.359375,0.0
249.515625,-14.16015625,-39.55078125,-28.3203125,-11.71875,-17.08984375,0.0
249.51953125,-28.3203125,-38.0859375,-27.34375,-30.76171875,49.31640625,0.0
249.5234375,-125.9765625,-49.8046875,-25.390625,-42.96875,61.5234375,0.0
249.52734375,-112.79296875,-51.7578125,-31.73828125,-39.55078125,31.25,0.0
249.53125,-72.265625,-45.8984375,-30.2734375,-3.41796875,-101.07421875,0.0
249.53515625,-61.03515625,-40.0390625,-24.90234375,20.99609375,-102.05078125,0.0
249.5390625,-36.62109375,-31.73828125,-24.4140625,29.78515625,40.52734375,0.0
249.54296875,-33.203125,-40.0390625,-28.3203125,-24.90234375,74.70703125,0.0
249.546875,-75.1953125,-45.8984375,-37.109375,-69.3359375,65.91796875,0.0
249.55078125,-83.49609375,-47.36328125,-38.0859375,-41.50390625,-73.2421875,0.0
249.5546875,-78.61328125,-56.640625,-35.64453125,-20.5078125,-179.6875,0.0
249.55859375,-67.87109375,-55.17578125,-39.0625,-31.73828125,-104.98046875,0.0
249.5625,-64.453125,-45.41015625,-35.15625,-26.3671875,-55.17578125,0.0
249.56640625,-74.21875,-41.9921875,-26.85546875,-27.83203125,-125.0,0.0
249.5703125,-52.24609375,-41.015625,-26.3671875,-15.625,-194.3359375,0.0
249.57421875,-49.31640625,-47.8515625,-28.3203125,19.53125,-173.828125,0.0
249.578125,-62.98828125,-51.26953125,-25.87890625,18.06640625,-83.0078125,0.0
249.58203125,-51.7578125,-49.31640625,-27.34375,-4.8828125,-42.96875,0.0
249.5859375,-38.57421875,-38.0859375,-31.73828125,-0.9765625,-78.125,0.0
249.58984375,-63.96484375,-30.2734375,-26.85546875,20.01953125,-65.4296875,0.0
249.59375,-72.265625,-33.203125,-30.2734375,31.25,-52.24609375,0.0
249.59765625,-45.41015625,-29.296875,-31.25,39.0625,15.13671875,0.0
249.6015625,-60.546875,-30.76171875,-16.11328125,38.57421875,57.6171875,0.0
249.60546875,-72.265625,-30.2734375,-17.578125,29.78515625,43.45703125,0.0
249.609375,-45.41015625,-20.99609375,-31.25,14.16015625,-18.5546875,0.0
249.61328125,-39.55078125,-10.7421875,-35.64453125,-6.8359375,3.41796875,0.0
249.6171875,-55.17578125,-11.23046875,-30.2734375,-0.48828125,81.54296875,0.0
249.62109375,-58.10546875,-16.11328125,-26.85546875,12.20703125,110.83984375,0.0
249.625,-44.43359375,-8.7890625,-23.92578125,6.34765625,145.5078125,0.0
249.62890625,-45.8984375,-6.8359375,-21.97265625,10.7421875,30.2734375,0.0
249.6328125,-62.01171875,-10.25390625,-33.69140625,0.9765625,-114.74609375,0.0
249.63671875,-76.66015625,-8.30078125,-38.57421875,-5.37109375,-62.98828125,0.0
249.640625,-85.9375,-4.8828125,-31.25,19.04296875,29.78515625,0.0
249.64453125,-71.77734375,-6.8359375,-27.34375,12.20703125,110.83984375,0.0
249.6484375,-64.94140625,-4.39453125,-27.83203125,-21.484375,5.37109375,0.0
249.65234375,-85.44921875,2.44140625,-29.296875,-26.85546875,-145.99609375,0.0
249.65625,-90.33203125,3.41796875,-29.296875,-37.59765625,-56.15234375,0.0
249.66015625,-56.15234375,0.0,-29.78515625,-29.296875,57.6171875,0.0
249.6640625,-38.57421875,5.37109375,-35.64453125,-27.83203125,24.4140625,0.0
249.66796875,-102.5390625,15.625,-33.69140625,-55.6640625,-88.8671875,0.0
249.671875,-131.8359375,19.04296875,-28.80859375,-49.8046875,-151.3671875,0.0
249.67578125,-94.23828125,10.25390625,-23.92578125,-34.1796875,-145.01953125,0.0
249.6796875,-106.93359375,11.23046875,-32.71484375,-40.0390625,-52.734375,0.0
249.68359375,-95.703125,21.97265625,-42.48046875,-41.9921875,-10.25390625,0.0
249.6875,-73.73046875,29.296875,-31.73828125,-40.52734375,-144.53125,0.0
249.69140625,-126.46484375,23.92578125,-35.15625,-52.734375,-215.8203125,0.0
249.6953125,-124.0234375,16.6015625,-39.55078125,-53.7109375,-155.2734375,0.0
249.69921875,-106.4453125,25.87890625,-32.71484375,-34.66796875,-25.390625,0.0
249.703125,-121.58203125,22.4609375,-38.57421875,-48.828125,70.3125,0.0
249.70703125,-116.69921875,17.08984375,-44.43359375,-51.26953125,-84.9609375,0.0
249.7109375,-104.00390625,20.99609375,-36.62109375,-64.94140625,-212.890625,0.0
249.71484375,-108.3984375,20.01953125,-36.62109375,-95.703125,-198.2421875,0.0
249.71875,-124.51171875,18.5546875,-44.43359375,-85.44921875,-151.85546875,0.0
249.72265625,-137.6953125,14.6484375,-42.96875,-113.28125,-155.76171875,0.0
249.7265625,-108.3984375,16.6015625,-40.52734375,-109.86328125,-213.8671875,0.0
249.73046875,-82.51953125,10.7421875,-38.57421875,-110.83984375,-280.2734375,0.0
249.734375,-88.8671875,1.46484375,-47.8515625,-125.9765625,-298.828125,0.0
249.73828125,-95.21484375,4.8828125,-54.19921875,-159.66796875,-42.96875,0.0
249.7421875,-124.0234375,-0.48828125,-47.8515625,-202.1484375,151.3671875,0.0
249.74609375,-114.74609375,0.48828125,-47.36328125,-192.87109375,113.76953125,0.0
249.75,-89.35546875,-2.44140625,-44.921875,-204.1015625,42.48046875,0.0
249.75390625,-78.125,-11.23046875,-50.78125,-221.6796875,-34.1796875,0.0
249.7578125,-79.1015625,-9.765625,-53.22265625,-216.796875,-6.34765625,0.0
249.76171875,-80.56640625,-12.20703125,-41.50390625,-232.91015625,97.65625,0.0
249.765625,-63.4765625,-29.78515625,-41.9921875,-246.09375,48.33984375,0.0
249.76953125,-49.8046875,-38.57421875,-42.96875,-234.86328125,-112.79296875,0.0
249.7734375,-44.921875,-33.69140625,-33.69140625,-247.0703125,-145.5078125,0.0
249.77734375,-31.73828125,-47.36328125,-38.57421875,-275.87890625,6.8359375,0.0
249.78125,-32.71484375,-62.01171875,-43.9453125,-277.83203125,134.765625,0.0
249.78515625,-59.08203125,-65.91796875,-36.62109375,-302.734375,110.3515625,0.0
249.7890625,-54.19921875,-69.82421875,-28.80859375,-294.921875,32.71484375,0.0
249.79296875,-21.97265625,-74.70703125,-34.1796875,-274.90234375,-0.48828125,0.0
249.796875,-26.85546875,-81.54296875,-41.50390625,-317.87109375,64.94140625,0.0
249.80078125,-41.50390625,-79.58984375,-38.0859375,-332.03125,95.703125,0.0
249.8046875,-40.52734375,-72.75390625,-32.71484375,-303.22265625,71.2890625,0.0
249.80859375,-39.55078125,-81.0546875,-29.296875,-294.43359375,19.04296875,0.0
249.8125,-25.390625,-91.796875,-34.66796875,-304.19921875,-138.18359375,0.0
249.81640625,-25.390625,-81.0546875,-30.2734375,-324.70703125,-151.3671875,0.0
249.8203125,-7.8125,-71.2890625,-27.34375,-352.5390625,-24.90234375,0.0
249.82421875,22.4609375,-73.73046875,-24.90234375,-342.7734375,11.23046875,0.0
249.828125,-19.04296875,-75.68359375,-19.04296875,-293.9453125,-154.296875,0.0
249.83203125,-45.8984375,-75.68359375,-20.01953125,-274.4140625,-182.6171875,0.0
249.8359375,-31.73828125,-65.91796875,-10.7421875,-284.1796875,-64.94140625,0.0
249.83984375,-20.5078125,-63.4765625,-7.32421875,-282.71484375,13.671875,0.0
249.84375,-14.16015625,-67.3828125,-12.6953125,-277.34375,195.80078125,0.0
249.84765625,-1.953125,-65.91796875,-13.18359375,-247.0703125,105.46875,0.0
249.8515625,8.30078125,-59.5703125,-18.06640625,-223.14453125,-32.2265625,0.0
249.85546875,-19.53125,-54.19921875,-24.90234375,-219.23828125,-5.37109375,0.0
249.859375,-22.94921875,-53.7109375,-23.4375,-202.63671875,0.9765625,0.0
249.86328125,-13.671875,-49.8046875,-18.06640625,-204.1015625,54.6875,0.0
249.8671875,-25.87890625,-42.96875,-20.01953125,-212.890625,27.83203125,0.0
249.87109375,-16.11328125,-49.8046875,-23.92578125,-207.03125,-98.6328125,0.0
249.875,-2.9296875,-65.4296875,-26.85546875,-188.4765625,-89.35546875,0.0
249.87890625,-12.6953125,-71.2890625,-34.1796875,-172.36328125,54.6875,0.0
249.8828125,-40.0390625,-63.4765625,-26.3671875,-176.7578125,59.08203125,0.0
249.88671875,-38.57421875,-52.24609375,-19.04296875,-159.1796875,17.08984375,0.0
249.890625,-13.18359375,-44.43359375,-18.06640625,-103.515625,-61.5234375,0.0
249.89453125,-10.7421875,-39.55078125,-17.578125,-92.7734375,-117.67578125,0.0
249.8984375,-12.6953125,-47.8515625,-25.390625,-113.76953125,-45.8984375,0.0
249.90234375,-16.6015625,-60.05859375,-26.85546875,-79.1015625,12.20703125,0.0
249.90625,-18.06640625,-54.19921875,-24.90234375,-37.59765625,-3.90625,0.0
249.91015625,-13.18359375,-48.828125,-23.4375,-31.25,-89.84375,0.0
249.9140625,-28.80859375,-42.96875,-17.578125,-38.57421875,-94.7265625,0.0
249.91796875,-40.0390625,-39.0625,-12.6953125,-29.296875,27.34375,0.0
249.921875,-35.15625,-46.38671875,-14.6484375,2.44140625,96.19140625,0.0
249.92578125,-41.015625,-62.5,-27.34375,15.13671875,52.24609375,0.0
249.9296875,-47.36328125,-66.89453125,-27.34375,26.3671875,-91.796875,0.0
249.93359375,-45.8984375,-51.26953125,-27.83203125,42.48046875,-221.6796875,0.0
249.9375,-33.69140625,-41.50390625,-31.25,50.78125,-133.7890625,0.0
249.94140625,-5.37109375,-38.57421875,-32.2265625,47.8515625,-33.203125,0.0
249.9453125,4.39453125,-36.62109375,-33.203125,29.78515625,-8.7890625,0.0
249.94921875,-15.625,-38.57421875,-28.3203125,52.24609375,-96.19140625,0.0
249.953125,-30.76171875,-40.52734375,-33.203125,61.5234375,-141.6015625,0.0
249.95703125,-71.77734375,-45.41015625,-36.62109375,60.05859375,-62.01171875,0.0
249.9609375,-74.21875,-45.41015625,-28.80859375,78.61328125,35.15625,0.0
249.96484375,-37.59765625,-40.0390625,-28.3203125,85.44921875,44.43359375,0.0
249.96875,-23.92578125,-38.57421875,-35.64453125,115.234375,-105.95703125,0.0
249.97265625,-26.3671875,-34.1796875,-36.1328125,131.34765625,-166.50390625,0.0
249.9765625,-30.76171875,-31.25,-29.296875,122.0703125,-187.5,0.0
249.98046875,-32.2265625,-36.1328125,-25.87890625,125.48828125,-60.546875,0.0
249.984375,-12.20703125,-38.57421875,-27.34375,119.140625,18.5546875,0.0
249.98828125,-15.13671875,-34.66796875,-28.3203125,91.30859375,-64.94140625,0.0
249.9921875,-44.921875,-35.15625,-34.1796875,78.125,-155.76171875,0.0
249.99609375,-55.6640625,-47.8515625,-32.71484375,73.2421875,-136.23046875,0.0
250.0,-58.10546875,-45.41015625,-27.83203125,89.84375,9.765625,0.0
250.00390625,-45.41015625,-30.2734375,-32.71484375,83.984375,37.59765625,0.0
250.0078125,-31.25,-23.92578125,-28.3203125,79.1015625,-28.3203125,0.0
250.01171875,-20.99609375,-28.3203125,-25.87890625,98.14453125,-111.81640625,0.0
250.015625,-19.04296875,-38.0859375,-26.85546875,74.21875,-108.3984375,0.0
250.01953125,-18.06640625,-43.45703125,-24.90234375,41.50390625,-5.859375,0.0
250.0234375,-12.20703125,-40.0390625,-28.80859375,30.2734375,42.96875,0.0
250.02734375,-13.18359375,-32.71484375,-28.3203125,50.29296875,17.578125,0.0
250.03125,-45.41015625,-29.78515625,-25.390625,65.91796875,-68.359375,0.0
250.03515625,-45.8984375,-31.73828125,-24.4140625,69.3359375,-125.9765625,0.0
250.0390625,-23.4375,-40.52734375,-27.34375,88.37890625,-94.23828125,0.0
250.04296875,-39.0625,-42.48046875,-27.34375,97.65625,-8.7890625,0.0
250.046875,-55.6640625,-42.48046875,-22.94921875,80.56640625,-20.01953125,0.0
250.05078125,-43.45703125,-37.59765625,-20.99609375,56.640625,-168.9453125,0.0
250.0546875,-29.78515625,-41.015625,-26.85546875,42.48046875,-208.49609375,0.0
250.05859375,-40.52734375,-50.78125,-29.78515625,60.546875,-137.6953125,0.0
250.0625,-46.875,-50.78125,-27.83203125,60.546875,-38.57421875,0.0
250.06640625,-29.296875,-47.36328125,-32.2265625,44.43359375,15.13671875,0.0
250.0703125,-14.16015625,-38.57421875,-32.2265625,47.8515625,-77.1484375,0.0
250.07421875,-25.390625,-34.1796875,-25.390625,60.05859375,-88.8671875,0.0
250.078125,-44.43359375,-37.59765625,-26.85546875,95.21484375,29.296875,0.0
250.08203125,-45.41015625,-41.50390625,-29.296875,87.40234375,79.58984375,0.0
250.0859375,-13.18359375,-39.0625,-31.73828125,61.03515625,67.3828125,0.0
250.08984375,-19.04296875,-41.50390625,-35.64453125,63.96484375,-77.63671875,0.0
250.09375,-52.24609375,-38.57421875,-31.25,61.03515625,-171.875,0.0
250.09765625,-10.25390625,-26.85546875,-22.94921875,69.82421875,-15.13671875,0.0
250.1015625,-0.9765625,-24.90234375,-24.4140625,67.87109375,76.66015625,0.0
250.10546875,-50.78125,-39.0625,-29.296875,56.15234375,37.109375,0.0
250.109375,-59.5703125,-41.50390625,-35.15625,40.0390625,-82.51953125,0.0
250.11328125,-39.55078125,-36.62109375,-37.109375,26.85546875,-161.1328125,0.0
250.1171875,-39.55078125,-35.64453125,-35.15625,29.296875,-69.3359375,0.0
250.12109375,-42.48046875,-47.8515625,-31.25,4.8828125,35.64453125,0.0
250.125,-48.33984375,-48.828125,-35.15625,-16.11328125,68.84765625,0.0
250.12890625,-54.19921875,-43.45703125,-42.48046875,-8.7890625,-29.296875,0.0
250.1328125,-54.6875,-42.48046875,-44.43359375,-3.41796875,-142.08984375,0.0
250.13671875,-38.0859375,-37.109375,-46.38671875,-5.859375,-84.9609375,0.0
250.140625,-10.7421875,-28.80859375,-37.59765625,-4.8828125,5.859375,0.0
250.14453125,-36.62109375,-31.25,-33.69140625,-11.23046875,35.15625,0.0
250.1484375,-75.1953125,-38.0859375,-30.76171875,-16.11328125,-30.2734375,0.0
250.15234375,-64.453125,-43.45703125,-34.1796875,-18.5546875,-116.2109375,0.0
250.15625,-48.33984375,-41.50390625,-44.43359375,-37.59765625,-86.9140625,0.0
250.16015625,-26.85546875,-25.390625,-26.3671875,-54.6875,49.8046875,0.0
250.1640625,-9.27734375,-29.296875,-19.04296875,-45.41015625,147.4609375,0.0
250.16796875,-26.3671875,-36.62109375,-33.203125,-29.296875,19.53125,0.0
250.171875,-51.7578125,-40.0390625,-30.76171875,-51.7578125,-111.81640625,0.0
250.17578125,-45.8984375,-44.921875,-30.2734375,-70.3125,-65.4296875,0.0
250.1796875,-18.06640625,-40.52734375,-33.69140625,-58.59375,89.35546875,0.0
250.18359375,-6.8359375,-40.52734375,-36.62109375,-50.78125,145.5078125,0.0
250.1875,-46.875,-32.2265625,-39.0625,-42.48046875,21.484375,0.0
250.19140625,-50.78125,-27.34375,-38.0859375,-59.08203125,-141.6015625,0.0
250.1953125,-25.87890625,-26.85546875,-39.0625,-68.359375,-109.375,0.0
250.19921875,-40.52734375,-25.390625,-44.43359375,-48.828125,-6.8359375,0.0
250.203125,-41.9921875,-28.3203125,-38.57421875,-36.1328125,0.9765625,0.0
250.20703125,-31.25,-29.296875,-25.87890625,-30.76171875,-77.63671875,0.0
250.2109375,-45.8984375,-32.2265625,-32.2265625,-50.78125,-182.6171875,0.0
250.21484375,-51.7578125,-34.66796875,-36.1328125,-47.8515625,-111.328125,0.0
250.21875,-24.4140625,-29.78515625,-35.15625,-21.484375,61.03515625,0.0
250.22265625,-14.16015625,-26.85546875,-36.62109375,-15.625,144.04296875,0.0
250.2265625,-38.57421875,-32.2265625,-34.1796875,-14.6484375,24.90234375,0.0
250.23046875,-63.96484375,-28.80859375,-34.66796875,-17.08984375,-73.2421875,0.0
250.234375,-64.453125,-23.92578125,-37.109375,4.39453125,-118.65234375,0.0
250.23828125,-43.45703125,-32.2265625,-33.69140625,18.5546875,-91.30859375,0.0
250.2421875,-22.94921875,-31.73828125,-25.87890625,-7.32421875,4.39453125,0.0
250.24609375,-20.5078125,-20.99609375,-28.3203125,-5.859375,51.7578125,0.0
250.25,-27.34375,-23.4375,-28.3203125,6.8359375,-17.578125,0.0
250.25390625,-20.01953125,-24.4140625,-17.578125,10.25390625,-117.67578125,0.0
250.2578125,-29.78515625,-21.97265625,-17.578125,-0.48828125,-136.23046875,0.0
250.26171875,-33.203125,-24.90234375,-19.53125,4.8828125,-73.73046875,0.0
250.265625,-7.32421875,-30.2734375,-23.92578125,21.484375,-31.25,0.0
250.26953125,-2.44140625,-28.80859375,-19.04296875,16.11328125,-107.91015625,0.0
250.2734375,-37.59765625,-32.71484375,-19.04296875,-4.8828125,-127.9296875,0.0
250.27734375,-48.828125,-37.59765625,-21.97265625,4.8828125,-41.015625,0.0
250.28125,-25.390625,-30.2734375,-16.6015625,20.99609375,35.15625,0.0
250.28515625,-18.5546875,-26.85546875,-19.53125,30.76171875,55.6640625,0.0
250.2890625,-13.671875,-20.01953125,-17.08984375,48.33984375,-36.1328125,0.0
250.29296875,-8.7890625,-22.4609375,-13.18359375,50.29296875,-122.55859375,0.0
250.296875,-11.71875,-36.1328125,-21.484375,50.29296875,-71.2890625,0.0
250.30078125,-5.859375,-40.52734375,-24.4140625,58.10546875,80.56640625,0.0
250.3046875,14.16015625,-26.85546875,-12.20703125,62.98828125,118.65234375,0.0
250.30859375,6.8359375,-20.99609375,-15.13671875,47.36328125,-76.66015625,0.0
250.3125,-11.71875,-26.3671875,-23.92578125,38.57421875,-200.68359375,0.0
250.31640625,-20.5078125,-32.2265625,-23.92578125,41.015625,-95.703125,0.0
250.3203125,-30.2734375,-33.69140625,-29.296875,41.50390625,18.06640625,0.0
250.32421875,-27.83203125,-32.2265625,-22.94921875,41.9921875,67.87109375,0.0
250.328125,-20.01953125,-31.25,-18.06640625,48.828125,-10.7421875,0.0
250.33203125,-50.78125,-36.1328125,-24.90234375,63.96484375,-98.14453125,0.0
250.3359375,-70.3125,-31.73828125,-21.484375,74.21875,-18.06640625,0.0
250.33984375,-50.29296875,-28.3203125,-25.87890625,61.03515625,47.8515625,0.0
250.34375,-45.41015625,-39.55078125,-31.25,10.7421875,92.7734375,0.0
250.34765625,-49.31640625,-35.15625,-25.390625,-25.390625,20.01953125,0.0
250.3515625,-25.390625,-28.3203125,-29.296875,-37.59765625,-67.87109375,0.0
250.35546875,12.6953125,-25.87890625,-27.83203125,-28.3203125,-65.4296875,0.0
250.359375,-3.41796875,-39.0625,-28.80859375,-22.4609375,-36.1328125,0.0
250.36328125,-56.15234375,-42.96875,-31.73828125,-15.13671875,-14.16015625,0.0
250.3671875,-67.87109375,-37.109375,-34.1796875,-14.16015625,-73.73046875,0.0
250.37109375,-52.734375,-40.0390625,-28.80859375,-13.671875,-174.8046875,0.0
250.375,-45.41015625,-42.96875,-19.53125,-20.01953125,-152.83203125,0.0
250.37890625,-27.83203125,-42.96875,-21.97265625,-17.578125,-66.89453125,0.0
250.3828125,12.20703125,-33.69140625,-17.578125,18.06640625,-17.578125,0.0
250.38671875,-21.484375,-32.71484375,-15.625,19.53125,-53.7109375,0.0
250.390625,-74.21875,-36.62109375,-24.90234375,-6.8359375,-122.55859375,0.0
250.39453125,-52.734375,-35.64453125,-30.2734375,-19.04296875,-135.7421875,0.0
250.3984375,-36.1328125,-36.62109375,-28.80859375,-15.625,-77.1484375,0.0
250.40234375,-36.1328125,-33.203125,-25.390625,-6.8359375,55.17578125,0.0
250.40625,-36.1328125,-27.34375,-34.1796875,-13.671875,48.33984375,0.0
250.41015625,-43.9453125,-29.296875,-36.62109375,-12.6953125,-115.72265625,0.0
250.4140625,-14.6484375,-32.71484375,-31.73828125,27.34375,-165.0390625,0.0
250.41796875,-25.390625,-38.0859375,-31.73828125,24.90234375,-62.01171875,0.0
250.421875,-63.4765625,-32.71484375,-31.25,0.48828125,61.03515625,0.0
250.42578125,-41.015625,-26.3671875,-25.390625,0.48828125,73.73046875,0.0
250.4296875,-46.38671875,-23.4375,-28.3203125,5.859375,-17.578125,0.0
250.43359375,-39.55078125,-37.109375,-34.66796875,-8.30078125,-130.859375,0.0
250.4375,-33.69140625,-41.50390625,-31.73828125,-24.4140625,-153.3203125,0.0
250.44140625,-24.90234375,-33.203125,-26.3671875,-14.6484375,-73.2421875,0.0
250.4453125,-1.953125,-36.62109375,-28.80859375,-8.7890625,-7.32421875,0.0
250.44921875,-11.23046875,-34.66796875,-31.73828125,-7.8125,-95.703125,0.0
250.453125,-48.828125,-31.25,-28.3203125,-4.39453125,-169.921875,0.0
250.45703125,-57.6171875,-37.59765625,-27.83203125,0.9765625,-93.75,0.0
250.4609375,-37.59765625,-36.62109375,-35.15625,-27.34375,22.94921875,0.0
250.46484375,-47.36328125,-30.2734375,-36.1328125,-58.10546875,44.921875,0.0
250.46875,-45.8984375,-26.3671875,-35.64453125,-61.5234375,-68.84765625,0.0
250.47265625,-25.87890625,-28.3203125,-36.62109375,-67.3828125,-106.93359375,0.0
250.4765625,-19.04296875,-29.296875,-36.1328125,-64.453125,-106.93359375,0.0
250.48046875,-41.50390625,-22.4609375,-29.78515625,-46.38671875,-28.3203125,0.0
250.484375,-57.12890625,-19.53125,-28.3203125,-54.6875,13.18359375,0.0
250.48828125,-34.66796875,-29.296875,-32.71484375,-51.7578125,-98.14453125,0.0
250.4921875,-37.59765625,-38.57421875,-31.25,-30.2734375,-117.67578125,0.0
250.49609375,-50.29296875,-35.64453125,-27.34375,-46.38671875,-51.26953125,0.0
250.5,-43.9453125,-24.4140625,-28.3203125,-49.8046875,-34.66796875,0.0
250.50390625,-36.1328125,-28.80859375,-31.73828125,-48.828125,-49.31640625,0.0
250.5078125,-27.83203125,-33.203125,-31.73828125,-53.7109375,-114.74609375,0.0
250.51171875,-32.2265625,-31.25,-36.1328125,-24.90234375,-183.59375,0.0
250.515625,-46.875,-28.3203125,-39.0625,-13.671875,-87.40234375,0.0
250.51953125,-34.66796875,-25.390625,-33.203125,-50.29296875,53.22265625,0.0
250.5234375,-25.390625,-26.3671875,-30.2734375,-83.984375,111.328125,0.0
250.52734375,-20.99609375,-31.73828125,-28.80859375,-82.51953125,19.53125,0.0
250.53125,-23.4375,-31.73828125,-24.90234375,-85.9375,-137.20703125,0.0
250.53515625,-33.203125,-29.296875,-23.92578125,-87.890625,-155.2734375,0.0
250.5390625,-21.484375,-27.34375,-22.4609375,-69.82421875,-8.7890625,0.0
250.54296875,-26.85546875,-21.484375,-19.53125,-53.22265625,112.3046875,0.0
250.546875,-30.76171875,-20.5078125,-21.484375,-40.0390625,22.94921875,0.0
250.55078125,-27.34375,-25.87890625,-26.85546875,-42.96875,-88.8671875,0.0
250.5546875,-17.08984375,-29.78515625,-31.25,-41.015625,-98.14453125,0.0
250.55859375,-10.25390625,-30.2734375,-35.15625,-28.3203125,32.71484375,0.0
250.5625,-29.78515625,-24.4140625,-36.1328125,-38.57421875,133.30078125,0.0
250.56640625,-40.52734375,-24.90234375,-41.50390625,-65.4296875,38.0859375,0.0
250.5703125,-44.43359375,-22.4609375,-41.9921875,-66.40625,-55.6640625,0.0
250.57421875,-55.17578125,-20.5078125,-38.57421875,-56.640625,-150.390625,0.0
250.578125,-51.26953125,-32.71484375,-35.15625,-56.640625,-139.16015625,0.0
250.58203125,-44.43359375,-34.66796875,-29.78515625,-38.0859375,-4.8828125,0.0
250.5859375,-36.1328125,-26.85546875,-33.203125,-20.99609375,49.31640625,0.0
250.58984375,-39.0625,-33.203125,-39.0625,-24.4140625,-29.296875,0.0
250.59375,-51.26953125,-36.1328125,-33.203125,-13.671875,-180.6640625,0.0
250.59765625,-62.98828125,-31.73828125,-25.87890625,-21.484375,-97.65625,0.0
250.6015625,-49.31640625,-26.3671875,-28.80859375,-22.4609375,66.89453125,0.0
250.60546875,-36.62109375,-20.99609375,-28.80859375,-4.39453125,41.015625,0.0
250.609375,-79.1015625,-28.3203125,-28.80859375,-11.23046875,-43.9453125,0.0
250.61328125,-87.40234375,-27.34375,-25.390625,-16.11328125,-115.234375,0.0
250.6171875,-78.125,-24.4140625,-27.83203125,-24.4140625,-130.37109375,0.0
250.62109375,-66.89453125,-30.76171875,-29.78515625,-27.83203125,-86.9140625,0.0
250.625,-48.33984375,-35.15625,-27.83203125,-22.4609375,-80.56640625,0.0
250.62890625,-54.6875,-37.109375,-33.69140625,-39.0625,-91.30859375,0.0
250.6328125,-57.12890625,-40.0390625,-37.59765625,-44.43359375,-167.96875,0.0
250.63671875,-45.41015625,-39.0625,-29.296875,-34.1796875,-154.78515625,0.0
250.640625,-43.9453125,-41.015625,-24.4140625,-31.25,61.03515625,0.0
250.64453125,-22.94921875,-43.9453125,-30.76171875,-19.53125,84.47265625,0.0
250.6484375,-35.15625,-45.41015625,-36.62109375,-10.25390625,-56.640625,0.0
250.65234375,-67.3828125,-43.9453125,-33.69140625,-39.55078125,-116.69921875,0.0
250.65625,-64.453125,-40.0390625,-32.71484375,-32.71484375,-72.265625,0.0
250.66015625,-62.01171875,-41.9921875,-44.43359375,-13.18359375,62.01171875,0.0
250.6640625,-43.9453125,-36.62109375,-51.26953125,-46.38671875,153.3203125,0.0
250.66796875,-9.27734375,-33.69140625,-40.0390625,-48.828125,95.21484375,0.0
250.671875,-25.390625,-43.9453125,-28.3203125,-59.5703125,-105.95703125,0.0
250.67578125,-58.10546875,-43.9453125,-30.76171875,-67.87109375,-173.828125,0.0
250.6796875,-36.62109375,-40.52734375,-31.73828125,-63.4765625,7.32421875,0.0
250.68359375,-29.78515625,-43.45703125,-31.25,-69.82421875,85.9375,0.0
250.6875,-34.66796875,-40.52734375,-32.2265625,-65.4296875,27.83203125,0.0
250.69140625,-43.9453125,-36.62109375,-39.55078125,-66.89453125,42.96875,0.0
250.6953125,-57.12890625,-45.8984375,-38.0859375,-70.3125,-73.2421875,0.0
250.69921875,-31.73828125,-49.31640625,-28.80859375,-63.96484375,-152.34375,0.0
250.703125,-42.48046875,-38.57421875,-25.87890625,-41.015625,-77.1484375,0.0
250.70703125,-83.984375,-40.52734375,-28.3203125,-40.0390625,-76.66015625,0.0
250.7109375,-67.87109375,-40.0390625,-23.4375,-53.7109375,-88.37890625,0.0
250.71484375,-38.0859375,-32.71484375,-21.484375,-37.59765625,-76.66015625,0.0
250.71875,-29.78515625,-31.73828125,-20.5078125,-19.53125,-43.45703125,0.0
250.72265625,-47.36328125,-43.45703125,-26.3671875,-41.50390625,53.7109375,0.0
250.7265625,-41.50390625,-44.43359375,-29.78515625,-50.78125,20.5078125,0.0
250.73046875,-39.0625,-33.69140625,-24.90234375,-43.45703125,-6.34765625,0.0
250.734375,-70.80078125,-41.015625,-24.4140625,-41.015625,21.484375,0.0
250.73828125,-51.26953125,-46.875,-29.78515625,-34.66796875,-67.3828125,0.0
250.7421875,-32.2265625,-36.62109375,-25.390625,-6.34765625,57.12890625,0.0
250.74609375,-49.31640625,-37.59765625,-24.90234375,12.20703125,92.7734375,0.0
250.75,-56.15234375,-49.31640625,-29.78515625,-2.9296875,-16.11328125,0.0
250.75390625,-65.91796875,-37.109375,-34.1796875,-12.20703125,-139.6484375,0.0
250.7578125,-71.2890625,-25.87890625,-29.296875,-20.5078125,-84.9609375,0.0
250.76171875,-50.29296875,-32.2265625,-21.97265625,-17.578125,63.96484375,0.0
250.765625,-38.0859375,-33.203125,-31.25,0.9765625,23.4375,0.0
250.76953125,-40.52734375,-31.25,-31.73828125,9.27734375,-187.5,0.0
250.7734375,-38.0859375,-32.71484375,-32.71484375,-0.9765625,-230.46875,0.0
250.77734375,-26.3671875,-34.1796875,-36.62109375,-0.48828125,-98.14453125,0.0
250.78125,-43.45703125,-30.76171875,-34.1796875,-4.39453125,64.94140625,0.0
250.78515625,-79.1015625,-22.94921875,-32.2265625,-22.94921875,82.51953125,0.0
250.7890625,-68.359375,-24.90234375,-33.203125,-28.3203125,-28.80859375,0.0
250.79296875,-65.4296875,-30.76171875,-34.66796875,-6.34765625,-138.671875,0.0
250.796875,-65.4296875,-29.296875,-32.2265625,-17.08984375,-117.67578125,0.0
250.80078125,-64.94140625,-30.76171875,-30.2734375,-39.0625,5.37109375,0.0
250.8046875,-31.73828125,-23.92578125,-24.90234375,17.08984375,56.15234375,0.0
250.80859375,-5.37109375,-20.99609375,-18.5546875,46.875,-69.82421875,0.0
250.8125,-41.50390625,-33.69140625,-18.06640625,17.08984375,-204.58984375,0.0
250.81640625,-65.91796875,-42.48046875,-19.04296875,16.6015625,-101.5625,0.0
250.8203125,-67.3828125,-41.9921875,-12.20703125,37.109375,50.78125,0.0
250.82421875,-64.94140625,-44.43359375,-11.23046875,27.83203125,24.4140625,0.0
250.828125,-71.2890625,-50.29296875,-14.16015625,6.8359375,-120.60546875,0.0
250.83203125,-91.30859375,-54.19921875,-16.11328125,-19.04296875,-229.00390625,0.0
250.8359375,-114.74609375,-53.22265625,-15.625,-43.45703125,-260.7421875,0.0
250.83984375,-135.25390625,-57.6171875,-23.92578125,-37.59765625,-127.9296875,0.0
250.84375,-140.13671875,-62.5,-24.4140625,-44.921875,32.71484375,0.0
250.84765625,-133.7890625,-63.4765625,-6.8359375,-83.0078125,-34.1796875,0.0
250.8515625,-126.953125,-68.84765625,-8.30078125,-102.05078125,-144.53125,0.0
250.85546875,-115.72265625,-73.73046875,-22.4609375,-91.796875,-113.28125,0.0
250.859375,-108.88671875,-72.265625,-23.4375,-78.125,-68.359375,0.0
250.86328125,-106.4453125,-73.2421875,-21.484375,-73.73046875,-75.1953125,0.0
250.8671875,-104.00390625,-66.89453125,-23.92578125,-57.6171875,-107.91015625,0.0
250.87109375,-88.8671875,-62.5,-26.85546875,-53.7109375,-96.6796875,0.0
250.875,-58.10546875,-55.6640625,-25.390625,-65.4296875,-66.89453125,0.0
250.87890625,-95.21484375,-54.6875,-19.04296875,-61.5234375,-8.30078125,0.0
250.8828125,-119.140625,-54.6875,-22.94921875,-54.6875,25.390625,0.0
250.88671875,-87.890625,-58.10546875,-25.87890625,-46.38671875,-14.6484375,0.0
250.890625,-82.51953125,-62.98828125,-24.90234375,-34.1796875,-107.91015625,0.0
250.89453125,-90.8203125,-56.15234375,-26.85546875,-34.1796875,-129.8828125,0.0
250.8984375,-66.89453125,-40.52734375,-23.92578125,-12.20703125,-6.8359375,0.0
250.90234375,-49.31640625,-34.1796875,-19.53125,-19.04296875,25.390625,0.0
250.90625,-1.953125,-40.0390625,-22.4609375,-41.015625,-43.9453125,0.0
250.91015625,-36.62109375,-42.96875,-27.83203125,-29.78515625,-132.32421875,0.0
250.9140625,-106.93359375,-41.015625,-32.71484375,-23.92578125,-210.9375,0.0
250.91796875,-53.22265625,-39.0625,-26.3671875,-19.04296875,-93.26171875,0.0
250.921875,-34.1796875,-41.015625,-18.06640625,-20.5078125,69.82421875,0.0
250.92578125,-56.15234375,-48.828125,-22.4609375,-17.578125,37.59765625,0.0
250.9296875,-37.59765625,-50.29296875,-24.4140625,-19.53125,-61.5234375,0.0
250.93359375,-38.57421875,-47.8515625,-25.87890625,11.23046875,-59.5703125,0.0
250.9375,-44.43359375,-49.8046875,-26.85546875,33.203125,0.0,0.0
250.94140625,-18.06640625,-44.921875,-19.53125,-2.44140625,97.16796875,0.0
250.9453125,-9.27734375,-38.0859375,-19.53125,-30.76171875,3.90625,0.0
250.94921875,-22.4609375,-41.50390625,-22.94921875,-40.0390625,-145.01953125,0.0
250.953125,-44.43359375,-53.7109375,-22.94921875,-25.87890625,-133.30078125,0.0
250.95703125,-42.48046875,-48.33984375,-20.01953125,-17.08984375,-33.203125,0.0
250.9609375,-17.578125,-34.66796875,-20.01953125,-32.71484375,72.75390625,0.0
250.96484375,-6.34765625,-34.1796875,-27.83203125,-32.2265625,87.890625,0.0
250.96875,9.27734375,-29.296875,-29.296875,-30.2734375,-62.98828125,0.0
250.97265625,18.06640625,-23.4375,-20.01953125,-11.23046875,-130.37109375,0.0
250.9765625,-15.625,-27.83203125,-12.20703125,-9.765625,-64.453125,0.0
250.98046875,-55.6640625,-44.921875,-21.484375,-4.8828125,1.46484375,0.0
250.984375,-66.89453125,-47.36328125,-31.25,-13.671875,76.171875,0.0
250.98828125,-52.734375,-41.50390625,-21.97265625,-36.62109375,-16.6015625,0.0
250.9921875,-33.69140625,-43.9453125,-17.578125,-26.3671875,-131.8359375,0.0
250.99609375,-17.08984375,-46.38671875,-19.04296875,-25.390625,-60.546875,0.0
251.0,-19.04296875,-40.52734375,-23.4375,-14.16015625,26.85546875,0.0
251.00390625,4.8828125,-33.69140625,-24.90234375,-27.83203125,56.640625,0.0
251.0078125,-11.23046875,-46.875,-30.76171875,-34.1796875,7.8125,0.0
251.01171875,-55.6640625,-45.8984375,-39.0625,-25.87890625,-123.046875,0.0
251.015625,-45.8984375,-38.57421875,-35.64453125,-29.296875,-94.23828125,0.0
251.01953125,-49.8046875,-43.45703125,-32.71484375,-19.53125,68.359375,0.0
251.0234375,-46.875,-40.52734375,-33.69140625,-16.6015625,126.953125,0.0
251.02734375,-17.08984375,-40.52734375,-32.2265625,-17.578125,23.4375,0.0
251.03125,-21.484375,-43.45703125,-29.78515625,-15.625,-123.046875,0.0
251.03515625,-56.640625,-42.96875,-32.2265625,-2.44140625,-84.9609375,0.0
251.0390625,-47.8515625,-39.55078125,-30.76171875,17.578125,37.59765625,0.0
251.04296875,-33.69140625,-39.0625,-26.3671875,5.859375,78.61328125,0.0
251.046875,-21.97265625,-48.33984375,-24.90234375,-0.9765625,53.7109375,0.0
251.05078125,-24.4140625,-50.29296875,-24.90234375,-14.16015625,-32.2265625,0.0
251.0546875,-39.0625,-43.45703125,-25.87890625,-17.08984375,-130.37109375,0.0
251.05859375,-26.85546875,-42.96875,-25.87890625,5.37109375,-41.9921875,0.0
251.0625,-22.4609375,-40.52734375,-31.73828125,5.37109375,35.15625,0.0
251.06640625,-42.48046875,-36.62109375,-36.62109375,1.953125,-38.57421875,0.0
251.0703125,-56.15234375,-37.59765625,-33.203125,17.08984375,-138.18359375,0.0
251.07421875,-24.4140625,-41.50390625,-30.76171875,8.30078125,-156.25,0.0
251.078125,-36.62109375,-39.55078125,-33.69140625,-24.4140625,-50.29296875,0.0
251.08203125,-57.12890625,-35.15625,-31.25,-27.34375,22.4609375,0.0
251.0859375,-43.45703125,-37.109375,-27.34375,-12.20703125,92.7734375,0.0
251.08984375,-28.80859375,-41.50390625,-26.3671875,-4.8828125,62.01171875,0.0
251.09375,-28.80859375,-45.41015625,-30.76171875,-17.578125,-89.84375,0.0
251.09765625,-30.76171875,-52.24609375,-37.109375,-12.20703125,-47.36328125,0.0
251.1015625,-45.41015625,-54.19921875,-33.203125,3.90625,95.703125,0.0
251.10546875,-46.875,-43.45703125,-24.4140625,4.39453125,138.18359375,0.0
251.109375,-17.08984375,-32.2265625,-21.484375,15.13671875,59.5703125,0.0
251.11328125,-30.2734375,-39.55078125,-30.76171875,13.18359375,-74.70703125,0.0
251.1171875,-28.80859375,-32.2265625,-31.25,-15.13671875,-26.3671875,0.0
251.12109375,-18.06640625,-20.01953125,-31.25,-34.66796875,28.3203125,0.0
251.125,-25.390625,-22.94921875,-34.1796875,-14.6484375,2.9296875,0.0
251.12890625,4.8828125,-25.390625,-38.57421875,2.9296875,-99.609375,0.0
251.1328125,-3.41796875,-27.83203125,-41.015625,-13.671875,-171.38671875,0.0
251.13671875,-49.31640625,-27.34375,-41.50390625,-18.06640625,-37.109375,0.0
251.140625,-31.73828125,-18.5546875,-35.64453125,-15.13671875,66.40625,0.0
251.14453125,2.44140625,-17.578125,-40.0390625,-19.53125,43.9453125,0.0
251.1484375,-1.46484375,-20.01953125,-48.33984375,7.8125,-55.6640625,0.0
251.15234375,-12.20703125,-21.97265625,-45.8984375,30.2734375,-131.34765625,0.0
251.15625,19.04296875,-17.08984375,-41.9921875,18.5546875,-71.2890625,0.0
