timestamp,TP9,AF7,AF8,TP10,AUX,Marker,
474.00390625,60.546875,-13.671875,-21.484375,78.61328125,23.92578125,0.0
474.0078125,54.19921875,-30.76171875,-21.97265625,77.63671875,-26.85546875,0.0
474.01171875,44.921875,-33.69140625,-12.20703125,73.73046875,-20.5078125,0.0
474.015625,50.78125,-12.20703125,3.41796875,103.02734375,55.6640625,0.0
474.01953125,25.390625,-22.4609375,-11.71875,68.359375,33.69140625,0.0
474.0234375,31.73828125,-29.78515625,-64.94140625,51.26953125,-11.23046875,0.0
474.02734375,25.390625,-32.71484375,-87.40234375,49.31640625,-10.7421875,0.0
474.03125,-15.625,-41.50390625,-29.296875,11.23046875,-52.734375,0.0
474.03515625,-2.9296875,-32.2265625,-5.37109375,21.484375,-44.921875,0.0
474.0390625,14.6484375,-10.25390625,-6.8359375,48.33984375,-79.1015625,0.0
474.04296875,33.69140625,-22.4609375,-42.96875,17.578125,-37.59765625,0.0
474.046875,-1.953125,-47.36328125,-42.96875,13.18359375,2.9296875,0.0
474.05078125,-4.39453125,-40.0390625,-15.625,51.7578125,-39.0625,0.0
474.0546875,33.203125,-20.5078125,-29.296875,64.94140625,-67.3828125,0.0
474.05859375,23.4375,-13.18359375,-40.0390625,42.96875,-59.08203125,0.0
474.0625,61.03515625,-5.37109375,-34.66796875,39.55078125,-26.85546875,0.0
474.06640625,31.25,-24.90234375,-30.2734375,51.7578125,-20.01953125,0.0
474.0703125,-24.4140625,-31.25,-31.73828125,49.31640625,34.66796875,0.0
474.07421875,-32.2265625,-26.85546875,-21.484375,60.546875,54.6875,0.0
474.078125,-44.921875,-40.52734375,-37.109375,41.50390625,27.34375,0.0
474.08203125,17.08984375,-28.80859375,-13.18359375,37.59765625,2.44140625,0.0
474.0859375,-3.41796875,-21.484375,-5.859375,28.80859375,-36.1328125,0.0
474.08984375,7.8125,-4.39453125,-20.5078125,29.296875,-9.27734375,0.0
474.09375,18.06640625,3.90625,-51.7578125,19.53125,1.46484375,0.0
474.09765625,-25.390625,-36.1328125,-42.96875,-41.015625,-45.41015625,0.0
474.1015625,-18.5546875,-54.6875,-55.17578125,-34.66796875,-96.6796875,0.0
474.10546875,-2.9296875,-42.48046875,-40.0390625,10.25390625,-55.6640625,0.0
474.109375,12.6953125,-19.53125,-3.41796875,13.18359375,-63.4765625,0.0
474.11328125,-41.9921875,-22.4609375,-67.3828125,-30.2734375,-80.078125,0.0
474.1171875,-58.59375,-36.1328125,-35.15625,-43.9453125,0.9765625,0.0
474.12109375,-9.27734375,-25.390625,5.37109375,-8.30078125,16.6015625,0.0
474.125,22.4609375,-11.23046875,-24.90234375,5.37109375,1.46484375,0.0
474.12890625,-11.23046875,-24.90234375,-48.828125,0.9765625,21.484375,0.0
474.1328125,4.8828125,-31.25,-68.84765625,-23.92578125,5.859375,0.0
474.13671875,9.765625,-29.78515625,-28.80859375,-8.30078125,47.8515625,0.0
474.140625,-26.85546875,-32.71484375,-5.37109375,36.1328125,16.6015625,0.0
474.14453125,-18.06640625,-28.3203125,-71.77734375,37.109375,-134.765625,0.0
474.1484375,-30.76171875,-30.2734375,-72.75390625,10.25390625,-136.23046875,0.0
474.15234375,7.8125,-17.08984375,15.625,13.671875,-96.19140625,0.0
474.15625,37.109375,-0.9765625,31.73828125,42.96875,0.0,0.0
474.16015625,-20.5078125,-21.97265625,-39.0625,1.46484375,65.91796875,0.0
474.1640625,-53.22265625,-38.57421875,-85.44921875,-31.25,20.99609375,0.0
474.16796875,-18.06640625,-28.80859375,-70.3125,-2.44140625,16.6015625,0.0
474.171875,-5.37109375,-22.4609375,-17.08984375,20.01953125,-6.8359375,0.0
474.17578125,-45.8984375,-38.57421875,-29.78515625,9.765625,-19.04296875,0.0
474.1796875,-53.7109375,-41.50390625,-79.1015625,-12.6953125,-76.66015625,0.0
474.18359375,9.27734375,-32.2265625,-5.859375,21.484375,-98.6328125,0.0
474.1875,0.0,-30.2734375,15.13671875,19.04296875,-105.95703125,0.0
474.19140625,-33.203125,-22.94921875,-42.96875,-28.3203125,-123.046875,0.0
474.1953125,-41.9921875,-13.18359375,-35.64453125,-5.859375,-114.2578125,0.0
474.19921875,-33.69140625,-24.4140625,-26.85546875,8.30078125,-34.1796875,0.0
474.203125,-32.71484375,-34.1796875,-45.41015625,-27.34375,31.73828125,0.0
474.20703125,-45.8984375,-34.1796875,-52.734375,-33.203125,-18.06640625,0.0
474.2109375,-21.484375,-25.87890625,-34.1796875,-13.671875,-53.7109375,0.0
474.21484375,0.9765625,-30.76171875,-60.546875,-11.71875,-8.30078125,0.0
474.21875,11.71875,-28.80859375,-68.359375,0.0,12.20703125,0.0
474.22265625,0.9765625,-19.53125,-9.765625,17.08984375,-38.57421875,0.0
474.2265625,5.37109375,-30.76171875,-31.25,-19.53125,-158.69140625,0.0
474.23046875,-16.6015625,-18.06640625,-30.2734375,-31.73828125,-198.73046875,0.0
474.234375,-31.25,-21.97265625,5.859375,-7.32421875,-166.9921875,0.0
474.23828125,-33.203125,-54.6875,-37.109375,-23.92578125,-115.234375,0.0
474.2421875,-53.22265625,-40.52734375,-78.61328125,-20.01953125,-45.41015625,0.0
474.24609375,-35.64453125,-17.08984375,-59.08203125,18.5546875,13.671875,0.0
474.25,-17.578125,-21.97265625,-43.45703125,24.90234375,25.87890625,0.0
474.25390625,-29.78515625,-45.41015625,-26.3671875,-8.30078125,43.9453125,0.0
474.2578125,-48.828125,-44.43359375,-34.1796875,-6.34765625,60.546875,0.0
474.26171875,-12.6953125,-10.25390625,-29.78515625,12.20703125,16.11328125,0.0
474.265625,1.953125,-26.85546875,-1.46484375,-4.8828125,-77.1484375,0.0
474.26953125,-15.13671875,-39.55078125,-22.94921875,-22.4609375,-79.58984375,0.0
474.2734375,-26.3671875,-28.80859375,-58.59375,-39.55078125,-25.87890625,0.0
474.27734375,-33.69140625,-28.3203125,-57.12890625,-65.4296875,-57.12890625,0.0
474.28125,-22.4609375,-27.83203125,-24.4140625,-60.546875,-67.3828125,0.0
474.28515625,-34.66796875,-39.55078125,-29.78515625,-17.08984375,-12.20703125,0.0
474.2890625,-60.546875,-31.25,-41.015625,-27.83203125,-14.16015625,0.0
474.29296875,-43.45703125,-19.53125,-51.26953125,-40.0390625,-48.828125,0.0
474.296875,-2.9296875,-43.45703125,-67.3828125,-30.2734375,7.8125,0.0
474.30078125,-1.46484375,-50.29296875,-30.76171875,-32.71484375,32.71484375,0.0
474.3046875,-27.34375,-25.87890625,-13.671875,-20.5078125,-16.6015625,0.0
474.30859375,-29.296875,-10.7421875,-7.8125,-6.8359375,-27.34375,0.0
474.3125,-5.37109375,-22.94921875,-11.71875,-9.765625,28.80859375,0.0
474.31640625,-30.2734375,-41.50390625,-47.36328125,-26.85546875,-1.46484375,0.0
474.3203125,-36.1328125,-40.52734375,-40.0390625,-31.73828125,-36.62109375,0.0
474.32421875,9.765625,-21.97265625,-46.875,-34.66796875,-36.1328125,0.0
474.328125,4.39453125,-21.97265625,-61.03515625,-46.38671875,-40.52734375,0.0
474.33203125,9.27734375,-25.390625,-41.015625,-40.0390625,-13.18359375,0.0
474.3359375,34.66796875,-36.1328125,-85.9375,-32.2265625,41.9921875,0.0
474.33984375,44.43359375,-17.08984375,-51.26953125,-28.3203125,25.87890625,0.0
474.34375,17.08984375,-19.04296875,0.48828125,-32.2265625,-84.47265625,0.0
474.34765625,22.4609375,-41.50390625,-5.859375,-22.4609375,-9.27734375,0.0
474.3515625,60.546875,-46.38671875,-26.85546875,-46.875,70.3125,0.0
474.35546875,46.875,-19.04296875,-65.4296875,-59.08203125,11.23046875,0.0
474.359375,11.23046875,-9.765625,-42.96875,-46.875,-74.70703125,0.0
474.36328125,22.4609375,-40.0390625,-66.89453125,-42.48046875,-121.58203125,0.0
474.3671875,47.36328125,-30.2734375,-88.37890625,-18.5546875,-45.8984375,0.0
474.37109375,47.8515625,-10.25390625,-40.0390625,-3.41796875,-31.25,0.0
474.375,46.38671875,-27.34375,-7.8125,-26.85546875,-62.5,0.0
474.37890625,23.92578125,-28.80859375,-1.953125,-58.59375,-10.25390625,0.0
474.3828125,23.92578125,-19.04296875,-29.78515625,-43.9453125,66.89453125,0.0
474.38671875,56.15234375,-25.390625,-41.9921875,-22.4609375,27.83203125,0.0
474.390625,47.8515625,-25.390625,-45.41015625,-1.46484375,-3.90625,0.0
474.39453125,20.99609375,-42.48046875,-64.453125,-42.96875,34.1796875,0.0
474.3984375,45.41015625,-36.62109375,-50.78125,-84.47265625,24.90234375,0.0
474.40234375,-6.34765625,-26.85546875,-49.8046875,-87.40234375,73.2421875,0.0
474.40625,11.23046875,-38.57421875,-55.6640625,-82.03125,58.10546875,0.0
474.41015625,28.3203125,-35.15625,-40.0390625,-46.38671875,-29.78515625,0.0
474.4140625,10.7421875,-21.484375,-16.6015625,-24.4140625,-59.08203125,0.0
474.41796875,23.4375,-25.390625,-25.390625,-34.66796875,-50.78125,0.0
474.421875,17.578125,-42.48046875,-57.6171875,-68.84765625,-26.3671875,0.0
474.42578125,12.6953125,-31.73828125,-47.8515625,-93.75,-65.4296875,0.0
474.4296875,18.5546875,-7.32421875,-34.1796875,-39.55078125,-28.80859375,0.0
474.43359375,64.453125,-8.7890625,-30.76171875,-0.9765625,-7.8125,0.0
474.4375,33.203125,-33.69140625,-38.0859375,-56.15234375,-108.88671875,0.0
474.44140625,14.6484375,-39.55078125,-45.8984375,-90.8203125,-101.5625,0.0
474.4453125,33.203125,-18.5546875,-22.4609375,-32.2265625,-129.39453125,0.0
474.44921875,41.9921875,1.953125,-28.3203125,47.36328125,-180.17578125,0.0
474.453125,23.4375,-15.13671875,-45.8984375,13.18359375,-114.2578125,0.0
474.45703125,-4.8828125,-37.109375,-13.18359375,-56.640625,-88.37890625,0.0
474.4609375,21.484375,-28.80859375,-5.37109375,-46.38671875,-43.9453125,0.0
474.46484375,11.71875,-17.08984375,-30.2734375,-16.6015625,36.62109375,0.0
474.46875,-15.625,-27.34375,-14.6484375,-20.5078125,38.0859375,0.0
474.47265625,-14.6484375,-28.80859375,-7.8125,-51.7578125,30.76171875,0.0
474.4765625,-5.37109375,-24.90234375,-42.96875,-64.453125,70.80078125,0.0
474.48046875,21.97265625,-12.20703125,-24.4140625,-56.640625,44.43359375,0.0
474.484375,24.90234375,-5.859375,-5.859375,-33.203125,4.8828125,0.0
474.48828125,12.20703125,-22.94921875,-39.0625,-30.76171875,50.78125,0.0
474.4921875,12.20703125,0.48828125,-37.109375,-20.99609375,6.34765625,0.0
474.49609375,-16.11328125,0.0,-46.875,-13.671875,-51.26953125,0.0
474.5,-17.578125,-39.0625,-38.57421875,-13.671875,63.4765625,0.0
474.50390625,-1.953125,-50.78125,-6.34765625,-40.0390625,111.328125,0.0
474.5078125,-15.13671875,-41.50390625,-12.20703125,-62.01171875,-103.515625,0.0
474.51171875,-49.31640625,-17.08984375,-33.69140625,-9.765625,-247.55859375,0.0
474.515625,-42.96875,-6.8359375,-39.55078125,13.18359375,-217.28515625,0.0
474.51953125,-16.11328125,-11.71875,-34.66796875,8.30078125,-247.55859375,0.0
474.5234375,13.671875,-27.34375,-47.8515625,-4.39453125,-125.9765625,0.0
474.52734375,12.6953125,-29.78515625,-62.01171875,-31.25,45.41015625,0.0
474.53125,-23.4375,-16.11328125,-45.8984375,-47.36328125,13.18359375,0.0
474.53515625,-48.33984375,-30.2734375,-24.90234375,-62.5,-12.6953125,0.0
474.5390625,-19.53125,-27.34375,-14.16015625,-44.921875,36.62109375,0.0
474.54296875,-30.76171875,-16.11328125,-28.3203125,-54.6875,28.80859375,0.0
474.546875,-49.8046875,-26.3671875,-32.2265625,-50.29296875,-20.01953125,0.0
474.55078125,7.8125,-27.83203125,-31.73828125,-18.06640625,-36.1328125,0.0
474.5546875,24.4140625,-25.390625,-44.43359375,-46.875,-67.3828125,0.0
474.55859375,10.7421875,-28.80859375,-35.15625,-62.98828125,-125.9765625,0.0
474.5625,-10.7421875,-14.6484375,-31.25,-46.38671875,-200.68359375,0.0
474.56640625,-3.90625,-7.32421875,-34.1796875,-5.37109375,-120.60546875,0.0
474.5703125,27.34375,-20.99609375,-14.6484375,41.9921875,24.4140625,0.0
474.57421875,5.37109375,-19.53125,0.0,1.46484375,13.671875,0.0
474.578125,-65.91796875,-25.390625,-31.25,-55.6640625,-50.29296875,0.0
474.58203125,-37.59765625,-27.34375,-55.17578125,-22.4609375,-41.50390625,0.0
474.5859375,-36.62109375,-21.97265625,-58.10546875,-13.671875,-7.32421875,0.0
474.58984375,-68.359375,-24.4140625,-22.4609375,-5.37109375,19.53125,0.0
474.59375,-30.2734375,-16.11328125,-3.41796875,21.97265625,15.625,0.0
474.59765625,-30.76171875,-27.83203125,-24.90234375,-3.90625,40.52734375,0.0
474.6015625,-38.0859375,-34.1796875,-19.53125,-30.2734375,-6.8359375,0.0
474.60546875,-19.53125,-20.99609375,-1.46484375,-10.25390625,-35.64453125,0.0
474.609375,-17.578125,-27.34375,-13.18359375,4.8828125,62.01171875,0.0
474.61328125,-22.94921875,-25.87890625,-41.50390625,7.32421875,64.453125,0.0
474.6171875,-23.4375,-5.37109375,-69.3359375,25.390625,-4.8828125,0.0
474.62109375,-59.08203125,-25.87890625,-61.03515625,-4.39453125,-54.6875,0.0
474.625,-81.54296875,-43.9453125,-25.390625,-46.38671875,-65.4296875,0.0
474.62890625,-47.8515625,-24.4140625,-28.3203125,-12.6953125,-70.80078125,0.0
474.6328125,-41.50390625,-44.921875,-22.4609375,10.7421875,-49.31640625,0.0
474.63671875,-35.64453125,-50.29296875,-8.7890625,0.48828125,-17.08984375,0.0
474.640625,-9.765625,-12.6953125,-36.1328125,-15.13671875,-8.30078125,0.0
474.64453125,-36.1328125,-9.765625,-52.734375,-41.50390625,-54.19921875,0.0
474.6484375,-25.87890625,-16.11328125,-47.8515625,-48.33984375,-59.08203125,0.0
474.65234375,-39.0625,-22.4609375,-29.78515625,-55.17578125,-71.2890625,0.0
474.65625,-81.54296875,-63.4765625,-28.3203125,-59.08203125,-110.83984375,0.0
474.66015625,-71.77734375,-65.91796875,-57.12890625,-38.0859375,-97.65625,0.0
474.6640625,-55.17578125,-45.8984375,-30.2734375,-38.57421875,-23.4375,0.0
474.66796875,-35.15625,-41.50390625,1.953125,-52.24609375,39.55078125,0.0
474.671875,-26.3671875,-33.69140625,-6.34765625,-51.7578125,-64.453125,0.0
474.67578125,-13.18359375,-32.2265625,-25.87890625,-49.31640625,-178.7109375,0.0
474.6796875,-26.85546875,-38.0859375,-53.22265625,-62.01171875,-138.671875,0.0
474.68359375,-11.23046875,-39.0625,-44.921875,-61.03515625,-52.734375,0.0
474.6875,-2.44140625,-36.62109375,-37.59765625,-43.9453125,-41.50390625,0.0
474.69140625,-14.6484375,-37.109375,-32.71484375,-44.43359375,-87.890625,0.0
474.6953125,-41.9921875,-37.59765625,-28.3203125,-50.29296875,-39.55078125,0.0
474.69921875,-82.03125,-43.45703125,-46.875,-39.0625,91.30859375,0.0
474.703125,-71.2890625,-44.921875,-35.15625,-23.92578125,62.98828125,0.0
474.70703125,-27.34375,-38.0859375,-26.3671875,-32.71484375,-17.578125,0.0
474.7109375,-25.390625,-32.2265625,-49.31640625,-9.765625,54.19921875,0.0
474.71484375,-42.48046875,-43.45703125,-48.828125,-2.44140625,104.00390625,0.0
474.71875,-15.13671875,-46.38671875,-34.66796875,-11.23046875,81.0546875,0.0
474.72265625,16.11328125,-36.1328125,-6.8359375,14.16015625,-73.73046875,0.0
474.7265625,-11.71875,-46.875,-9.765625,34.1796875,-104.98046875,0.0
474.73046875,-68.359375,-55.17578125,-35.64453125,17.578125,-41.015625,0.0
474.734375,-48.828125,-40.0390625,-33.69140625,-25.390625,-131.34765625,0.0
474.73828125,-21.97265625,-31.73828125,-49.8046875,-53.7109375,-58.10546875,0.0
474.7421875,-35.64453125,-48.828125,-58.10546875,-48.33984375,24.4140625,0.0
474.74609375,-32.2265625,-41.9921875,-42.48046875,-21.484375,-49.8046875,0.0
474.75,-21.484375,-23.92578125,-24.4140625,-14.6484375,-65.4296875,0.0
474.75390625,-44.921875,-35.64453125,-30.2734375,-4.8828125,3.90625,0.0
474.7578125,-56.15234375,-39.55078125,-31.25,-18.5546875,-66.89453125,0.0
474.76171875,-24.4140625,-38.0859375,-32.71484375,-35.15625,-118.65234375,0.0
474.765625,22.4609375,-35.64453125,-43.9453125,-38.0859375,-37.59765625,0.0
474.76953125,21.484375,-33.203125,-36.62109375,-45.41015625,-36.62109375,0.0
474.7734375,17.578125,-41.015625,-38.57421875,-56.640625,-39.55078125,0.0
474.77734375,-28.3203125,-43.45703125,-61.03515625,-44.921875,-82.03125,0.0
474.78125,-39.0625,-15.13671875,-49.31640625,-5.859375,-72.75390625,0.0
474.78515625,-42.96875,-22.4609375,-29.296875,-27.83203125,14.6484375,0.0
474.7890625,-87.40234375,-60.546875,-31.73828125,-98.6328125,-72.265625,0.0
474.79296875,-44.921875,-47.8515625,-44.921875,-80.56640625,-140.13671875,0.0
474.796875,5.859375,-9.765625,-32.2265625,-47.8515625,-55.17578125,0.0
474.80078125,-45.41015625,-13.18359375,-20.99609375,-46.875,-42.96875,0.0
474.8046875,-54.19921875,-29.78515625,-32.2265625,-72.75390625,-48.33984375,0.0
474.80859375,-61.03515625,-45.8984375,-28.3203125,-86.9140625,3.90625,0.0
474.8125,-84.47265625,-40.0390625,-30.76171875,-60.546875,20.99609375,0.0
474.81640625,-111.328125,-16.11328125,-55.17578125,-84.47265625,25.390625,0.0
474.8203125,-149.90234375,-31.25,-66.89453125,-138.18359375,51.26953125,0.0
474.82421875,-185.05859375,-34.1796875,-52.24609375,-133.30078125,-10.25390625,0.0
474.828125,-192.3828125,-26.85546875,-54.6875,-131.8359375,-71.2890625,0.0
474.83203125,-151.85546875,-29.296875,-49.31640625,-164.0625,-71.2890625,0.0
474.8359375,-173.33984375,-43.45703125,-49.31640625,-179.19921875,-5.859375,0.0
474.83984375,-197.265625,-47.8515625,-38.0859375,-177.734375,33.203125,0.0
474.84375,-228.515625,-51.7578125,-32.71484375,-192.87109375,-59.08203125,0.0
474.84765625,-229.00390625,-48.828125,-72.265625,-229.00390625,-77.63671875,0.0
474.8515625,-214.84375,-31.25,-86.42578125,-240.72265625,9.765625,0.0
474.85546875,-216.30859375,-22.94921875,-61.03515625,-231.93359375,-14.16015625,0.0
474.859375,-203.61328125,-24.90234375,-79.1015625,-257.8125,-17.08984375,0.0
474.86328125,-219.23828125,-31.25,-70.80078125,-261.71875,28.3203125,0.0
474.8671875,-239.2578125,-52.734375,-19.53125,-254.8828125,-34.66796875,0.0
474.87109375,-200.1953125,-40.52734375,-7.32421875,-231.4453125,-88.8671875,0.0
474.875,-155.76171875,-9.765625,-4.8828125,-181.640625,-94.23828125,0.0
474.87890625,-175.29296875,-45.41015625,-69.82421875,-160.15625,-96.19140625,0.0
474.8828125,-169.921875,-65.4296875,-72.75390625,-174.8046875,-149.90234375,0.0
474.88671875,-150.390625,-51.26953125,-28.80859375,-150.390625,-64.453125,0.0
474.890625,-137.6953125,-52.24609375,-37.59765625,-94.7265625,74.21875,0.0
474.89453125,-101.07421875,-29.78515625,-41.9921875,-69.3359375,80.078125,0.0
474.8984375,-84.9609375,-23.4375,-47.36328125,-53.7109375,-4.39453125,0.0
474.90234375,-66.40625,-39.0625,-66.40625,-41.50390625,2.44140625,0.0
474.90625,-91.30859375,-39.55078125,-47.8515625,-52.24609375,6.8359375,0.0
474.91015625,-83.49609375,-27.83203125,-31.73828125,-21.484375,27.83203125,0.0
474.9140625,-20.01953125,-25.390625,-54.6875,-0.9765625,18.5546875,0.0
474.91796875,13.18359375,-23.92578125,-63.4765625,20.01953125,38.0859375,0.0
474.921875,8.30078125,-21.484375,-58.10546875,50.78125,80.078125,0.0
474.92578125,1.953125,-32.2265625,-65.91796875,23.4375,-49.8046875,0.0
474.9296875,1.953125,-25.390625,-32.2265625,38.0859375,-102.05078125,0.0
474.93359375,20.99609375,-17.578125,-8.30078125,75.68359375,-49.31640625,0.0
474.9375,53.22265625,-28.80859375,-27.34375,77.63671875,-69.3359375,0.0
474.94140625,48.33984375,-36.1328125,-36.1328125,47.36328125,-86.42578125,0.0
474.9453125,68.84765625,-28.80859375,-57.6171875,40.0390625,-32.71484375,0.0
474.94921875,80.078125,-2.9296875,-48.828125,65.91796875,55.6640625,0.0
474.953125,79.1015625,-9.27734375,-10.25390625,53.7109375,-39.0625,0.0
474.95703125,96.6796875,-45.41015625,-27.34375,80.56640625,-86.42578125,0.0
474.9609375,110.3515625,-39.55078125,-49.8046875,134.765625,20.99609375,0.0
474.96484375,96.19140625,-9.27734375,-24.90234375,115.72265625,-5.859375,0.0
474.96875,83.984375,-11.71875,3.90625,100.09765625,4.8828125,0.0
474.97265625,59.5703125,-18.06640625,-1.46484375,92.28515625,14.6484375,0.0
474.9765625,49.31640625,-9.27734375,-35.64453125,83.0078125,56.15234375,0.0
474.98046875,63.96484375,-2.44140625,-58.10546875,86.9140625,104.98046875,0.0
474.984375,57.12890625,-19.53125,-42.48046875,104.00390625,37.109375,0.0
474.98828125,86.42578125,-18.06640625,1.46484375,121.58203125,-15.625,0.0
474.9921875,135.7421875,21.484375,63.4765625,121.58203125,-104.4921875,0.0
474.99609375,143.5546875,37.109375,54.6875,132.32421875,-60.546875,0.0
475.0,143.5546875,43.9453125,51.7578125,159.66796875,-7.32421875,0.0
475.00390625,152.34375,55.17578125,41.9921875,145.01953125,-2.44140625,0.0
475.0078125,137.20703125,63.96484375,31.25,162.59765625,57.12890625,0.0
475.01171875,120.1171875,44.43359375,29.78515625,186.5234375,31.25,0.0
475.015625,119.62890625,23.92578125,-6.34765625,140.625,39.55078125,0.0
475.01953125,58.59375,27.83203125,-15.625,141.6015625,62.5,0.0
475.0234375,18.06640625,35.15625,17.578125,152.83203125,4.8828125,0.0
475.02734375,37.59765625,20.99609375,39.0625,121.09375,-45.41015625,0.0
475.03125,44.921875,25.87890625,23.92578125,108.88671875,-36.1328125,0.0
475.03515625,31.25,57.6171875,49.31640625,129.8828125,-65.4296875,0.0
475.0390625,62.98828125,46.38671875,37.109375,128.41796875,-150.390625,0.0
475.04296875,31.73828125,18.06640625,-28.80859375,87.890625,-107.421875,0.0
475.046875,-4.8828125,6.8359375,-8.30078125,62.98828125,-53.22265625,0.0
475.05078125,20.99609375,19.53125,30.2734375,85.44921875,-30.76171875,0.0
475.0546875,25.390625,21.97265625,36.1328125,104.98046875,-34.66796875,0.0
475.05859375,-13.671875,5.37109375,6.34765625,74.21875,-83.0078125,0.0
475.0625,-7.32421875,3.41796875,4.39453125,67.87109375,-31.25,0.0
475.06640625,15.13671875,5.37109375,8.30078125,75.68359375,-60.546875,0.0
475.0703125,-15.625,-1.46484375,-13.18359375,51.26953125,-60.05859375,0.0
475.07421875,-1.46484375,-8.7890625,-2.9296875,55.17578125,-15.13671875,0.0
475.078125,39.55078125,-4.39453125,-23.92578125,59.08203125,-83.49609375,0.0
475.08203125,15.625,0.48828125,-39.0625,56.640625,-64.94140625,0.0
475.0859375,-8.7890625,1.953125,-3.90625,87.890625,13.671875,0.0
475.08984375,-1.953125,15.13671875,-7.8125,80.56640625,50.29296875,0.0
475.09375,-4.8828125,7.8125,-17.08984375,60.546875,6.34765625,0.0
475.09765625,-25.390625,-12.20703125,7.8125,28.3203125,-14.16015625,0.0
475.1015625,-45.8984375,-21.97265625,8.7890625,12.20703125,-25.390625,0.0
475.10546875,8.7890625,-13.18359375,-13.671875,31.25,-64.453125,0.0
475.109375,25.87890625,6.8359375,-32.71484375,31.73828125,-9.27734375,0.0
475.11328125,-32.2265625,4.39453125,-28.3203125,15.13671875,5.859375,0.0
475.1171875,-9.765625,-6.34765625,-14.6484375,28.3203125,-97.16796875,0.0
475.12109375,-2.44140625,-8.7890625,-18.06640625,51.7578125,-69.3359375,0.0
475.125,-13.671875,-20.01953125,-17.08984375,54.6875,-9.27734375,0.0
475.12890625,-23.4375,-20.5078125,-6.8359375,53.22265625,-32.2265625,0.0
475.1328125,-15.13671875,-4.39453125,-4.8828125,37.109375,-71.2890625,0.0
475.13671875,-8.30078125,-3.90625,-33.203125,36.1328125,-63.4765625,0.0
475.140625,-27.34375,-17.578125,-40.52734375,31.73828125,-26.85546875,0.0
475.14453125,11.23046875,-12.20703125,-42.48046875,26.3671875,-20.01953125,0.0
475.1484375,-0.9765625,-19.53125,-55.17578125,19.04296875,0.9765625,0.0
475.15234375,-31.73828125,-42.48046875,-29.296875,-8.30078125,23.4375,0.0
475.15625,-36.62109375,-40.52734375,-45.41015625,-27.34375,-3.90625,0.0
475.16015625,-52.734375,-22.94921875,-35.64453125,23.4375,-45.41015625,0.0
475.1640625,18.06640625,-26.3671875,-12.20703125,62.01171875,-30.76171875,0.0
475.16796875,23.4375,-40.0390625,-9.27734375,35.15625,-27.34375,0.0
475.171875,-64.453125,-36.62109375,-5.37109375,47.36328125,5.859375,0.0
475.17578125,-50.29296875,-30.2734375,-38.57421875,26.85546875,25.87890625,0.0
475.1796875,-24.90234375,-12.6953125,-87.890625,-21.484375,0.48828125,0.0
475.18359375,-16.6015625,-10.7421875,-76.66015625,-15.13671875,28.3203125,0.0
475.1875,-7.32421875,-21.484375,-31.25,14.16015625,28.80859375,0.0
475.19140625,-44.921875,-15.13671875,-30.76171875,29.78515625,14.6484375,0.0
475.1953125,-37.109375,-17.578125,-20.01953125,19.53125,-13.18359375,0.0
475.19921875,29.296875,-6.8359375,-36.62109375,10.7421875,-15.13671875,0.0
475.203125,7.32421875,5.859375,-42.48046875,-11.23046875,31.25,0.0
475.20703125,-34.66796875,-3.41796875,-29.296875,-6.8359375,77.63671875,0.0
475.2109375,-17.578125,-0.9765625,-24.90234375,-3.90625,80.078125,0.0
475.21484375,-42.48046875,-22.94921875,-54.19921875,-38.0859375,28.80859375,0.0
475.21875,-4.39453125,-17.08984375,-69.82421875,-31.25,-12.20703125,0.0
475.22265625,-1.953125,13.671875,-27.34375,-35.64453125,-57.12890625,0.0
475.2265625,-52.24609375,-0.48828125,-47.8515625,-47.36328125,-68.359375,0.0
475.23046875,-4.39453125,-21.97265625,-58.59375,-10.25390625,-27.83203125,0.0
475.234375,-31.73828125,-22.4609375,-33.69140625,20.99609375,-110.83984375,0.0
475.23828125,-55.17578125,-12.6953125,-32.2265625,17.578125,-117.1875,0.0
475.2421875,-40.52734375,-19.04296875,-40.0390625,-10.25390625,-89.84375,0.0
475.24609375,-21.484375,-37.59765625,-27.83203125,-26.85546875,-87.890625,0.0
475.25,-21.97265625,-20.01953125,-15.13671875,0.0,-47.36328125,0.0
475.25390625,-49.31640625,-13.18359375,-60.546875,10.25390625,-81.54296875,0.0
475.2578125,-33.69140625,-4.39453125,-109.86328125,5.859375,-90.33203125,0.0
475.26171875,-16.11328125,-2.9296875,-48.828125,31.25,-56.15234375,0.0
475.265625,-41.015625,-38.0859375,6.8359375,-12.6953125,-61.03515625,0.0
475.26953125,-33.203125,-32.2265625,-15.625,-34.66796875,-23.4375,0.0
475.2734375,13.18359375,-20.01953125,-19.53125,-9.27734375,-64.453125,0.0
475.27734375,-30.2734375,-21.484375,-28.3203125,-23.4375,-118.65234375,0.0
475.28125,-55.17578125,-24.90234375,-20.5078125,-15.13671875,-36.1328125,0.0
475.28515625,-3.90625,-9.27734375,-26.85546875,-7.32421875,70.80078125,0.0
475.2890625,14.6484375,14.16015625,-30.2734375,-15.13671875,79.58984375,0.0
475.29296875,-25.87890625,-5.37109375,-33.69140625,-35.64453125,29.296875,0.0
475.296875,-52.734375,-32.2265625,-44.921875,-55.17578125,5.859375,0.0
475.30078125,-35.64453125,-37.59765625,-16.11328125,-40.52734375,-48.33984375,0.0
475.3046875,-20.5078125,-25.390625,-41.015625,-30.2734375,-137.6953125,0.0
475.30859375,-32.2265625,-3.41796875,-53.22265625,-31.25,-119.62890625,0.0
475.3125,-2.9296875,3.90625,-32.71484375,-5.37109375,-62.01171875,0.0
475.31640625,21.484375,2.9296875,-22.4609375,18.5546875,-8.7890625,0.0
475.3203125,25.390625,-20.01953125,-29.78515625,-20.01953125,-39.55078125,0.0
475.32421875,54.6875,-23.92578125,-50.78125,-20.5078125,-14.6484375,0.0
475.328125,29.296875,-0.48828125,-20.99609375,19.04296875,-71.77734375,0.0
475.33203125,-26.3671875,-14.16015625,-20.5078125,-5.859375,-184.5703125,0.0
475.3359375,-26.3671875,-30.2734375,-69.82421875,-34.1796875,-176.26953125,0.0
475.33984375,14.16015625,-30.76171875,-48.33984375,-39.0625,-80.078125,0.0
475.34375,-10.7421875,-28.3203125,-23.92578125,-23.92578125,-32.2265625,0.0
475.34765625,-47.36328125,-24.90234375,-28.3203125,-6.34765625,-127.9296875,0.0
475.3515625,-49.31640625,-20.99609375,-33.69140625,-37.59765625,-211.42578125,0.0
475.35546875,-56.15234375,-21.484375,-41.015625,-36.62109375,-184.08203125,0.0
475.359375,-9.765625,-7.32421875,-32.71484375,8.7890625,-151.85546875,0.0
475.36328125,-9.765625,-19.53125,-18.06640625,38.57421875,-214.84375,0.0
475.3671875,-34.66796875,-32.71484375,-49.8046875,21.97265625,-172.36328125,0.0
475.37109375,1.46484375,1.46484375,-52.24609375,38.0859375,-112.3046875,0.0
475.375,4.39453125,-4.8828125,-43.45703125,4.8828125,-80.56640625,0.0
475.37890625,-50.29296875,-33.69140625,-39.0625,-79.1015625,-39.55078125,0.0
475.3828125,-37.59765625,-25.87890625,-32.71484375,-90.33203125,-54.6875,0.0
475.38671875,-5.37109375,-31.73828125,-65.4296875,-53.7109375,-10.25390625,0.0
475.390625,21.97265625,-23.4375,-53.22265625,0.9765625,106.93359375,0.0
475.39453125,23.4375,-3.90625,-13.18359375,17.08984375,117.67578125,0.0
475.3984375,-12.6953125,-17.08984375,6.34765625,-15.625,98.14453125,0.0
475.40234375,-49.31640625,-27.83203125,2.44140625,-54.19921875,94.23828125,0.0
475.40625,-72.265625,-6.34765625,5.37109375,-55.6640625,74.70703125,0.0
475.41015625,-28.80859375,2.9296875,-8.30078125,-25.87890625,41.50390625,0.0
475.4140625,-7.8125,5.37109375,-33.203125,-39.55078125,8.7890625,0.0
475.41796875,-13.18359375,3.41796875,-43.9453125,-33.69140625,57.6171875,0.0
475.421875,20.01953125,-3.90625,-57.12890625,15.13671875,62.01171875,0.0
475.42578125,19.53125,9.27734375,-43.9453125,1.46484375,-83.49609375,0.0
475.4296875,-8.30078125,8.7890625,-17.578125,-16.6015625,-76.66015625,0.0
475.43359375,-47.36328125,-9.27734375,-22.4609375,-32.71484375,-17.578125,0.0
475.4375,-49.8046875,-4.8828125,-1.46484375,-7.32421875,40.52734375,0.0
475.44140625,-10.25390625,-12.20703125,1.953125,-12.20703125,40.52734375,0.0
475.4453125,-23.92578125,-11.23046875,-12.20703125,-25.390625,-39.0625,0.0
475.44921875,-33.69140625,0.0,-31.73828125,0.48828125,32.71484375,0.0
475.453125,-4.39453125,-7.32421875,-38.0859375,-5.859375,-14.6484375,0.0
475.45703125,13.18359375,-8.7890625,-34.1796875,20.01953125,-92.7734375,0.0
475.4609375,-11.71875,-6.8359375,-22.4609375,18.06640625,-26.3671875,0.0
475.46484375,-28.3203125,-9.765625,4.39453125,30.2734375,0.0,0.0
475.46875,-16.6015625,-15.13671875,1.953125,17.578125,4.39453125,0.0
475.47265625,-41.9921875,-24.4140625,-29.296875,-41.50390625,32.71484375,0.0
475.4765625,-69.3359375,-22.94921875,-41.9921875,-80.56640625,38.0859375,0.0
475.48046875,-64.94140625,-16.11328125,-21.97265625,-62.5,62.5,0.0
475.484375,-10.25390625,-12.6953125,-30.76171875,-38.0859375,6.34765625,0.0
475.48828125,6.8359375,-16.11328125,-44.43359375,-38.0859375,-16.11328125,0.0
475.4921875,-10.7421875,-28.3203125,-57.12890625,-59.08203125,127.44140625,0.0
475.49609375,3.90625,-15.625,-37.109375,-58.10546875,121.09375,0.0
475.5,29.296875,-15.625,8.7890625,-26.85546875,71.2890625,0.0
475.50390625,-0.48828125,-18.5546875,0.0,-20.5078125,80.078125,0.0
475.5078125,-67.3828125,-25.87890625,6.34765625,-30.76171875,35.64453125,0.0
475.51171875,-65.4296875,-22.4609375,-15.13671875,-57.6171875,-4.8828125,0.0
475.515625,-55.6640625,-9.27734375,-52.24609375,-79.58984375,-42.96875,0.0
475.51953125,-63.4765625,-5.37109375,-38.0859375,-62.01171875,-58.59375,0.0
475.5234375,-55.6640625,-18.5546875,-22.94921875,-78.61328125,-79.58984375,0.0
475.52734375,-67.87109375,-39.0625,-41.015625,-99.12109375,-87.40234375,0.0
475.53125,-83.49609375,-32.71484375,-51.7578125,-76.66015625,-93.26171875,0.0
475.53515625,-57.6171875,-23.4375,-41.9921875,-63.96484375,-54.19921875,0.0
475.5390625,-51.26953125,-21.484375,-40.0390625,-68.359375,-46.875,0.0
475.54296875,-47.8515625,-26.3671875,-50.78125,-50.29296875,-20.5078125,0.0
475.546875,-53.7109375,-38.0859375,-38.0859375,-67.87109375,-21.484375,0.0
475.55078125,-78.61328125,-36.1328125,-25.87890625,-78.125,4.8828125,0.0
475.5546875,-61.03515625,-16.6015625,-18.5546875,-37.109375,-14.16015625,0.0
475.55859375,-36.1328125,-14.16015625,-64.94140625,-34.1796875,-13.671875,0.0
475.5625,-65.4296875,-18.5546875,-83.0078125,-55.17578125,45.8984375,0.0
475.56640625,-62.5,-25.390625,-20.01953125,-56.15234375,17.578125,0.0
475.5703125,-29.296875,-24.90234375,-21.484375,-34.1796875,4.8828125,0.0
475.57421875,-51.7578125,-20.01953125,-22.4609375,-24.90234375,8.30078125,0.0
475.578125,-65.91796875,-29.78515625,-18.5546875,-27.34375,32.2265625,0.0
475.58203125,-67.87109375,-30.76171875,-19.04296875,-17.578125,36.62109375,0.0
475.5859375,-15.625,-13.18359375,-31.25,-12.6953125,22.94921875,0.0
475.58984375,0.0,6.8359375,-32.71484375,7.32421875,3.41796875,0.0
475.59375,-32.2265625,15.13671875,-17.08984375,40.52734375,23.4375,0.0
475.59765625,-60.546875,-10.7421875,-21.484375,3.41796875,-52.734375,0.0
475.6015625,-52.24609375,-22.4609375,-12.20703125,-22.4609375,-101.5625,0.0
475.60546875,-26.3671875,-26.85546875,-30.76171875,-17.578125,75.1953125,0.0
475.609375,-40.0390625,-39.0625,-50.78125,-23.92578125,37.59765625,0.0
475.61328125,-39.0625,-32.2265625,-47.36328125,-10.7421875,-108.3984375,0.0
475.6171875,-70.3125,-21.97265625,-56.640625,-14.16015625,-64.453125,0.0
475.62109375,-86.42578125,-12.6953125,-16.6015625,-3.90625,-35.15625,0.0
475.625,-47.8515625,-25.390625,-2.9296875,11.23046875,-59.5703125,0.0
475.62890625,-65.91796875,-28.3203125,-43.45703125,-1.953125,-49.31640625,0.0
475.6328125,-64.453125,-20.5078125,-26.85546875,0.9765625,-67.3828125,0.0
475.63671875,-34.66796875,-22.4609375,-25.390625,23.4375,-79.1015625,0.0
475.640625,-34.1796875,-21.484375,-51.26953125,26.85546875,5.37109375,0.0
475.64453125,-38.0859375,-1.46484375,-30.76171875,34.1796875,59.5703125,0.0
475.6484375,-65.4296875,-20.99609375,-14.6484375,24.4140625,-39.55078125,0.0
475.65234375,-36.1328125,-43.45703125,-35.15625,-0.9765625,-113.28125,0.0
475.65625,-1.953125,-23.92578125,-31.73828125,21.484375,-104.4921875,0.0
475.66015625,-39.55078125,-20.01953125,-28.80859375,37.59765625,-71.77734375,0.0
475.6640625,-33.203125,-18.06640625,-78.61328125,31.25,-191.89453125,0.0
475.66796875,-39.55078125,-9.27734375,-49.31640625,9.765625,-172.8515625,0.0
475.671875,-54.19921875,-26.85546875,-16.11328125,-27.83203125,-37.59765625,0.0
475.67578125,-41.9921875,-34.1796875,-39.0625,-33.69140625,19.04296875,0.0
475.6796875,-30.76171875,-13.671875,-22.4609375,-10.7421875,12.6953125,0.0
475.68359375,-56.640625,-19.04296875,-36.1328125,-5.37109375,-17.08984375,0.0
475.6875,-41.9921875,-32.71484375,-31.73828125,-0.9765625,-20.01953125,0.0
475.69140625,-46.38671875,-35.15625,-37.109375,-10.25390625,-26.85546875,0.0
475.6953125,-64.94140625,-27.83203125,-41.50390625,-56.15234375,-44.43359375,0.0
475.69921875,-71.77734375,-16.6015625,-29.296875,-73.73046875,-79.1015625,0.0
475.703125,-147.4609375,-47.8515625,-50.78125,-90.33203125,-89.84375,0.0
475.70703125,-184.08203125,-48.33984375,-65.4296875,-109.375,-57.12890625,0.0
475.7109375,-148.4375,-29.296875,-77.1484375,-108.88671875,24.90234375,0.0
475.71484375,-171.38671875,-32.71484375,-105.46875,-134.765625,51.26953125,0.0
475.71875,-206.0546875,-41.50390625,-91.796875,-180.17578125,50.29296875,0.0
475.72265625,-209.9609375,-49.31640625,-92.28515625,-204.58984375,-37.59765625,0.0
475.7265625,-203.61328125,-43.9453125,-74.21875,-220.703125,-26.85546875,0.0
475.73046875,-233.88671875,-36.62109375,-38.0859375,-223.6328125,2.44140625,0.0
475.734375,-246.58203125,-25.87890625,-72.265625,-202.1484375,-57.6171875,0.0
475.73828125,-253.41796875,-28.3203125,-88.37890625,-217.28515625,-35.64453125,0.0
475.7421875,-271.484375,-36.62109375,-74.21875,-260.25390625,-68.84765625,0.0
475.74609375,-273.4375,-32.2265625,-69.3359375,-293.45703125,-70.80078125,0.0
475.75,-290.52734375,-13.671875,-74.70703125,-285.15625,-11.71875,0.0
475.75390625,-249.0234375,-5.859375,-84.9609375,-241.69921875,-10.25390625,0.0
475.7578125,-209.47265625,-9.27734375,-59.5703125,-199.21875,32.71484375,0.0
475.76171875,-236.81640625,-34.1796875,-39.55078125,-209.47265625,-13.18359375,0.0
475.765625,-208.984375,-50.29296875,-54.6875,-209.47265625,-63.96484375,0.0
475.76953125,-154.296875,-42.96875,-51.26953125,-167.48046875,-42.96875,0.0
475.7734375,-160.64453125,-25.87890625,-76.66015625,-140.13671875,13.671875,0.0
475.77734375,-175.29296875,-12.6953125,-99.609375,-133.30078125,-16.11328125,0.0
475.78125,-142.578125,-27.83203125,-74.70703125,-121.09375,-152.34375,0.0
475.78515625,-111.328125,-36.62109375,-62.5,-93.75,-104.00390625,0.0
475.7890625,-114.74609375,-43.45703125,-45.41015625,-58.59375,45.41015625,0.0
475.79296875,-105.95703125,-53.22265625,-40.0390625,-39.55078125,156.73828125,0.0
475.796875,-82.51953125,-59.08203125,-50.29296875,-33.203125,66.89453125,0.0
475.80078125,-71.77734375,-45.41015625,-34.66796875,-26.3671875,-168.45703125,0.0
475.8046875,-68.359375,-39.0625,-40.0390625,-16.6015625,-271.484375,0.0
475.80859375,-16.11328125,-20.01953125,-51.26953125,22.4609375,-253.90625,0.0
475.8125,10.25390625,-10.25390625,-41.50390625,49.31640625,-203.125,0.0
475.81640625,-0.9765625,-36.62109375,-52.24609375,66.40625,-83.984375,0.0
475.8203125,2.9296875,-38.0859375,-50.78125,98.6328125,13.671875,0.0
475.82421875,16.11328125,-27.83203125,-37.59765625,85.9375,19.53125,0.0
475.828125,19.53125,-38.57421875,-54.6875,49.8046875,-51.7578125,0.0
475.83203125,0.48828125,-44.921875,-53.22265625,53.22265625,-82.03125,0.0
475.8359375,19.53125,-47.8515625,-38.57421875,53.7109375,53.7109375,0.0
475.83984375,40.0390625,-50.78125,-33.69140625,26.85546875,92.7734375,0.0
475.84375,57.12890625,-35.15625,-34.66796875,46.38671875,39.55078125,0.0
475.84765625,69.3359375,-27.83203125,-46.875,69.82421875,61.5234375,0.0
475.8515625,103.02734375,-31.25,-30.2734375,81.0546875,-2.9296875,0.0
475.85546875,105.46875,-31.25,-36.62109375,78.125,-37.59765625,0.0
475.859375,43.45703125,-19.04296875,-37.109375,55.17578125,3.90625,0.0
475.86328125,20.5078125,-29.296875,-28.80859375,54.6875,-86.42578125,0.0
475.8671875,56.640625,-41.9921875,-20.99609375,67.87109375,-126.46484375,0.0
475.87109375,69.3359375,-23.4375,-16.6015625,88.8671875,-79.1015625,0.0
475.875,51.7578125,-14.6484375,-25.87890625,112.3046875,-68.359375,0.0
475.87890625,35.64453125,-34.1796875,-47.36328125,92.28515625,-123.046875,0.0
475.8828125,31.25,-42.96875,-59.08203125,91.796875,-61.03515625,0.0
475.88671875,68.84765625,-11.23046875,-35.64453125,132.8125,1.953125,0.0
475.890625,66.40625,0.48828125,-5.859375,131.34765625,-83.49609375,0.0
475.89453125,41.015625,-32.2265625,-11.71875,103.515625,-87.890625,0.0
475.8984375,42.48046875,-49.8046875,-37.109375,80.078125,-85.9375,0.0
475.90234375,10.7421875,-49.8046875,-50.29296875,62.98828125,-52.734375,0.0
475.90625,-18.5546875,-34.1796875,-47.36328125,64.453125,42.48046875,0.0
475.91015625,8.30078125,-37.59765625,-54.19921875,61.03515625,18.06640625,0.0
475.9140625,29.78515625,-49.8046875,-55.17578125,67.3828125,-0.48828125,0.0
475.91796875,62.98828125,-14.16015625,-79.58984375,74.70703125,12.20703125,0.0
475.921875,41.9921875,-7.32421875,-57.6171875,54.19921875,48.828125,0.0
475.92578125,9.27734375,-32.2265625,-12.6953125,36.62109375,72.265625,0.0
475.9296875,-0.9765625,-32.71484375,-19.53125,37.59765625,8.7890625,0.0
475.93359375,15.13671875,-24.4140625,-42.96875,45.41015625,-9.765625,0.0
475.9375,63.4765625,-19.04296875,-41.50390625,74.21875,-9.765625,0.0
475.94140625,48.33984375,-16.6015625,-29.296875,93.75,-1.46484375,0.0
475.9453125,11.23046875,-21.97265625,-16.6015625,61.03515625,-20.01953125,0.0
475.94921875,18.5546875,-28.3203125,-36.1328125,46.38671875,-85.44921875,0.0
475.953125,3.41796875,-27.83203125,-53.22265625,42.96875,-78.125,0.0
475.95703125,-10.25390625,-31.25,-13.671875,25.390625,-22.4609375,0.0
475.9609375,19.53125,-17.08984375,-18.5546875,47.8515625,9.27734375,0.0
475.96484375,16.11328125,7.8125,-58.59375,41.50390625,-50.78125,0.0
475.96875,-14.6484375,-6.8359375,-61.5234375,-3.90625,-36.62109375,0.0
475.97265625,-14.6484375,-35.15625,-38.0859375,-24.4140625,-14.16015625,0.0
475.9765625,-20.99609375,-27.83203125,-47.8515625,-25.87890625,-42.96875,0.0
475.98046875,-41.50390625,-16.11328125,-31.73828125,0.0,52.734375,0.0
475.984375,-1.953125,9.765625,-9.27734375,38.57421875,2.9296875,0.0
475.98828125,33.203125,7.8125,-45.8984375,69.82421875,-48.33984375,0.0
475.9921875,13.671875,-22.4609375,-33.203125,67.3828125,-85.9375,0.0
475.99609375,3.41796875,-29.296875,0.0,57.6171875,-70.80078125,0.0
476.0,-4.39453125,-22.94921875,-21.484375,62.98828125,3.90625,0.0
476.00390625,-42.48046875,-15.625,-57.6171875,20.5078125,8.30078125,0.0
476.0078125,-49.31640625,-11.23046875,-42.48046875,-5.859375,67.3828125,0.0
476.01171875,-44.43359375,-22.4609375,-9.27734375,22.94921875,-23.92578125,0.0
476.015625,-31.25,-16.11328125,-37.59765625,43.45703125,-35.15625,0.0
476.01953125,-14.16015625,-7.32421875,-62.98828125,38.0859375,58.10546875,0.0
476.0234375,-27.83203125,-18.06640625,-12.20703125,19.53125,25.87890625,0.0
476.02734375,-23.4375,-21.97265625,-20.5078125,10.7421875,57.6171875,0.0
476.03125,-25.87890625,-20.99609375,-53.7109375,-13.671875,53.22265625,0.0
476.03515625,-53.7109375,-31.25,-51.26953125,-21.484375,-54.6875,0.0
476.0390625,-47.36328125,-26.3671875,-40.0390625,2.44140625,-66.40625,0.0
476.04296875,4.8828125,-7.8125,-48.828125,21.97265625,-69.3359375,0.0
476.046875,-28.3203125,-19.53125,-77.63671875,43.45703125,-136.71875,0.0
476.05078125,-62.01171875,-23.92578125,-62.98828125,28.3203125,-91.796875,0.0
476.0546875,-8.7890625,-29.296875,-48.828125,1.953125,-79.1015625,0.0
476.05859375,-32.2265625,-36.1328125,-22.94921875,4.8828125,-119.140625,0.0
476.0625,-45.41015625,-21.97265625,-21.97265625,22.4609375,-62.5,0.0
476.06640625,-42.96875,-29.78515625,-56.15234375,5.37109375,-23.92578125,0.0
476.0703125,-52.734375,-43.45703125,-51.7578125,-10.25390625,-38.57421875,0.0
476.07421875,-23.92578125,-33.203125,-32.2265625,1.46484375,-21.484375,0.0
476.078125,31.25,-17.578125,-21.97265625,26.3671875,-47.36328125,0.0
476.08203125,35.64453125,-28.80859375,-45.41015625,19.04296875,-10.7421875,0.0
476.0859375,-10.25390625,-33.203125,-69.82421875,7.32421875,37.59765625,0.0
476.08984375,0.9765625,-31.73828125,-57.12890625,5.859375,-56.640625,0.0
476.09375,-43.9453125,-53.22265625,-48.33984375,-46.38671875,-182.12890625,0.0
476.09765625,-57.12890625,-38.57421875,-49.8046875,-39.55078125,-180.17578125,0.0
476.1015625,-34.1796875,-34.66796875,-51.26953125,-29.78515625,-187.5,0.0
476.10546875,-10.7421875,-55.6640625,-29.78515625,-16.6015625,-239.2578125,0.0
476.109375,7.8125,-50.29296875,-29.296875,-20.99609375,-257.8125,0.0
476.11328125,-14.6484375,-51.26953125,-44.921875,-41.9921875,-141.11328125,0.0
476.1171875,-13.671875,-55.17578125,-57.6171875,-34.66796875,-30.2734375,0.0
476.12109375,-17.578125,-55.17578125,-61.5234375,-4.8828125,39.55078125,0.0
476.125,-35.15625,-61.5234375,-60.546875,-9.27734375,57.12890625,0.0
476.12890625,-23.4375,-54.19921875,-67.3828125,-38.57421875,35.64453125,0.0
476.1328125,-8.7890625,-37.59765625,-40.0390625,-15.13671875,6.8359375,0.0
476.13671875,20.01953125,-42.96875,-19.53125,23.92578125,-0.48828125,0.0
476.140625,30.2734375,-66.89453125,-30.76171875,11.71875,31.25,0.0
476.14453125,10.25390625,-61.5234375,-35.64453125,-10.25390625,39.55078125,0.0
476.1484375,17.08984375,-42.48046875,-39.55078125,27.83203125,7.8125,0.0
476.15234375,33.203125,-46.38671875,-36.1328125,41.50390625,-51.26953125,0.0
476.15625,-5.37109375,-47.36328125,-35.15625,26.3671875,-40.52734375,0.0
476.16015625,-5.859375,-28.3203125,-67.3828125,17.578125,-41.015625,0.0
476.1640625,10.25390625,-37.59765625,-88.37890625,11.23046875,-11.23046875,0.0
476.16796875,-21.484375,-65.91796875,-69.82421875,33.69140625,13.18359375,0.0
476.171875,-7.32421875,-60.546875,-24.90234375,8.7890625,13.671875,0.0
476.17578125,16.6015625,-29.296875,20.5078125,-18.5546875,19.04296875,0.0
476.1796875,-3.41796875,-17.578125,3.90625,-23.4375,15.625,0.0
476.18359375,-9.765625,-21.97265625,-31.25,-18.5546875,-23.92578125,0.0
476.1875,-0.9765625,-45.8984375,-37.109375,-14.6484375,31.25,0.0
476.19140625,-20.01953125,-48.33984375,-23.4375,-33.203125,77.63671875,0.0
476.1953125,-8.30078125,-43.9453125,-30.76171875,-20.01953125,-33.203125,0.0
476.19921875,3.41796875,-41.50390625,-40.52734375,14.6484375,-35.64453125,0.0
476.203125,-10.7421875,-18.5546875,-25.390625,25.390625,-36.1328125,0.0
476.20703125,-3.90625,-14.6484375,-31.73828125,9.765625,-66.40625,0.0
476.2109375,-2.44140625,-33.203125,-28.3203125,-28.3203125,-40.52734375,0.0
476.21484375,5.859375,-43.9453125,-13.671875,-30.2734375,-10.7421875,0.0
476.21875,-3.90625,-41.50390625,-22.4609375,-27.83203125,0.9765625,0.0
476.22265625,-21.484375,-39.0625,-25.390625,-54.6875,0.9765625,0.0
476.2265625,13.18359375,-13.671875,-23.4375,-15.625,3.41796875,0.0
476.23046875,27.34375,-15.13671875,-47.8515625,19.04296875,62.01171875,0.0
476.234375,8.7890625,-26.3671875,-51.7578125,-24.4140625,63.96484375,0.0
476.23828125,20.99609375,-32.2265625,-46.875,-48.828125,-27.83203125,0.0
476.2421875,13.671875,-47.8515625,-49.8046875,-21.97265625,-0.9765625,0.0
476.24609375,-5.859375,-41.9921875,-49.8046875,-23.4375,-0.48828125,0.0
476.25,-3.41796875,-29.296875,-45.41015625,-60.546875,-9.27734375,0.0
476.25390625,-14.16015625,-30.76171875,-41.50390625,-59.08203125,41.015625,0.0
476.2578125,14.6484375,-35.64453125,-44.921875,-42.48046875,76.66015625,0.0
476.26171875,11.23046875,-31.25,-50.78125,-14.6484375,75.1953125,0.0
476.265625,-14.6484375,-26.85546875,-55.6640625,1.46484375,33.69140625,0.0
476.26953125,-0.48828125,-24.4140625,-41.015625,-17.08984375,-23.92578125,0.0
476.2734375,6.34765625,-22.94921875,-47.8515625,-37.109375,-16.6015625,0.0
476.27734375,12.6953125,-22.4609375,-54.6875,-28.80859375,-46.875,0.0
476.28125,6.8359375,-29.78515625,-44.43359375,-11.71875,-96.19140625,0.0
476.28515625,4.39453125,-18.5546875,-24.90234375,-16.6015625,-98.14453125,0.0
476.2890625,1.46484375,-13.18359375,3.90625,-27.83203125,-106.93359375,0.0
476.29296875,0.9765625,-19.04296875,-10.7421875,-6.8359375,12.20703125,0.0
476.296875,-18.5546875,-11.23046875,-46.38671875,-18.06640625,124.51171875,0.0
476.30078125,-38.0859375,-27.34375,-49.8046875,-47.8515625,68.84765625,0.0
476.3046875,-44.921875,-41.50390625,-44.43359375,-48.33984375,-31.73828125,0.0
476.30859375,-36.62109375,-29.78515625,-65.4296875,-31.73828125,-75.68359375,0.0
476.3125,8.30078125,-41.015625,-58.10546875,2.9296875,-39.55078125,0.0
476.31640625,-15.13671875,-48.828125,-44.43359375,-3.41796875,-84.9609375,0.0
476.3203125,-65.4296875,-39.0625,-61.03515625,-53.22265625,-133.30078125,0.0
476.32421875,-65.4296875,-32.71484375,-55.17578125,-56.15234375,-111.81640625,0.0
476.328125,0.48828125,-16.6015625,-60.05859375,-14.6484375,-85.44921875,0.0
476.33203125,31.25,-2.44140625,-33.69140625,22.4609375,-33.69140625,0.0
476.3359375,17.578125,-6.34765625,4.8828125,30.2734375,-62.01171875,0.0
476.33984375,22.4609375,-24.90234375,-22.94921875,-0.9765625,-53.22265625,0.0
476.34375,3.90625,-23.4375,-48.33984375,-11.23046875,-14.16015625,0.0
476.34765625,-25.87890625,-26.3671875,-46.875,-23.4375,-55.17578125,0.0
476.3515625,-26.85546875,-28.80859375,-41.015625,-17.08984375,-118.65234375,0.0
476.35546875,9.27734375,-3.90625,3.90625,10.7421875,-104.00390625,0.0
476.359375,16.6015625,-0.48828125,10.25390625,-5.37109375,-115.234375,0.0
476.36328125,14.16015625,-13.18359375,-23.92578125,-21.97265625,-123.046875,0.0
476.3671875,13.671875,-18.5546875,-55.6640625,-35.15625,-124.0234375,0.0
476.37109375,-5.859375,-28.80859375,-81.0546875,-62.5,-77.63671875,0.0
476.375,16.6015625,-11.71875,-47.8515625,-41.50390625,2.9296875,0.0
476.37890625,17.578125,-12.6953125,-44.43359375,-28.80859375,-12.6953125,0.0
476.3828125,31.73828125,-27.83203125,-32.71484375,-46.38671875,-35.64453125,0.0
476.38671875,38.0859375,-31.25,-30.2734375,-28.3203125,-6.34765625,0.0
476.390625,7.32421875,-44.43359375,-50.29296875,5.37109375,-38.0859375,0.0
476.39453125,35.15625,-29.296875,-29.296875,-10.7421875,-79.58984375,0.0
476.3984375,41.9921875,-20.5078125,-50.78125,-38.0859375,-23.92578125,0.0
476.40234375,38.57421875,-25.390625,-58.59375,-20.5078125,41.9921875,0.0
476.40625,77.63671875,-22.94921875,-63.96484375,-31.25,104.00390625,0.0
476.41015625,84.47265625,-10.7421875,-62.01171875,-40.52734375,69.3359375,0.0
476.4140625,77.63671875,-13.18359375,-48.33984375,-32.71484375,13.671875,0.0
476.41796875,130.859375,-31.25,-51.7578125,-27.83203125,11.71875,0.0
476.421875,149.90234375,-24.4140625,-59.08203125,-15.625,-17.578125,0.0
476.42578125,108.88671875,-7.8125,-63.4765625,-28.80859375,-39.0625,0.0
476.4296875,91.30859375,-16.6015625,-68.359375,-66.89453125,-33.69140625,0.0
476.43359375,125.9765625,-26.3671875,-71.2890625,-69.82421875,-54.19921875,0.0
476.4375,144.53125,-12.20703125,-44.43359375,-37.59765625,-115.234375,0.0
476.44140625,115.234375,-1.46484375,-28.80859375,-51.26953125,-110.3515625,0.0
476.4453125,112.3046875,-9.27734375,-30.2734375,-60.546875,-138.671875,0.0
476.44921875,128.41796875,-5.859375,-26.3671875,-54.19921875,-165.0390625,0.0
476.453125,103.515625,-7.32421875,-41.015625,-24.4140625,-87.40234375,0.0
476.45703125,88.8671875,-20.01953125,-58.59375,14.16015625,-44.921875,0.0
476.4609375,70.3125,-19.04296875,-62.98828125,28.3203125,-52.24609375,0.0
476.46484375,89.84375,-13.18359375,-32.2265625,25.390625,-118.1640625,0.0
476.46875,111.328125,-19.53125,-22.94921875,11.71875,-159.1796875,0.0
476.47265625,67.87109375,-19.04296875,-44.921875,-9.27734375,-88.37890625,0.0
476.4765625,62.98828125,-14.16015625,-42.48046875,-36.1328125,-22.94921875,0.0
476.48046875,62.98828125,-15.625,-41.9921875,-10.7421875,40.0390625,0.0
476.484375,74.21875,-26.3671875,-49.8046875,9.27734375,20.99609375,0.0
476.48828125,58.59375,-24.90234375,-51.7578125,-5.859375,7.32421875,0.0
476.4921875,25.87890625,-17.578125,-45.8984375,-11.23046875,51.26953125,0.0
476.49609375,48.828125,-16.11328125,-35.64453125,-21.97265625,29.296875,0.0
476.5,67.3828125,-9.27734375,-40.0390625,-33.203125,4.8828125,0.0
476.50390625,39.55078125,-9.765625,-39.55078125,-8.7890625,41.9921875,0.0
476.5078125,77.63671875,-1.46484375,-20.01953125,38.0859375,39.0625,0.0
476.51171875,64.94140625,-6.34765625,-49.8046875,57.12890625,61.5234375,0.0
476.515625,31.25,-8.30078125,-66.89453125,38.57421875,46.38671875,0.0
476.51953125,40.0390625,-10.7421875,-39.0625,-7.32421875,-24.4140625,0.0
476.5234375,63.4765625,-22.94921875,-38.57421875,5.859375,-19.04296875,0.0
476.52734375,50.78125,-19.53125,-33.69140625,26.85546875,-34.1796875,0.0
476.53125,19.04296875,-6.8359375,-26.85546875,26.85546875,-17.08984375,0.0
476.53515625,46.38671875,-30.2734375,-38.0859375,29.296875,80.078125,0.0
476.5390625,40.52734375,-44.43359375,-38.0859375,15.625,132.32421875,0.0
476.54296875,34.66796875,-23.92578125,-47.36328125,12.6953125,34.1796875,0.0
476.546875,55.6640625,-6.8359375,-48.828125,27.34375,16.6015625,0.0
476.55078125,91.30859375,2.9296875,-40.0390625,14.6484375,-8.7890625,0.0
476.5546875,111.328125,-4.8828125,-56.640625,-24.90234375,-86.42578125,0.0
476.55859375,54.6875,-11.23046875,-67.87109375,-17.578125,-29.78515625,0.0
476.5625,34.66796875,-24.90234375,-70.80078125,8.7890625,4.39453125,0.0
476.56640625,33.69140625,-35.64453125,-56.15234375,8.30078125,77.63671875,0.0
476.5703125,-0.9765625,-48.828125,-11.23046875,-10.25390625,66.40625,0.0
476.57421875,31.25,-35.64453125,-22.94921875,11.71875,31.73828125,0.0
476.578125,38.57421875,-31.73828125,-52.734375,5.37109375,49.31640625,0.0
476.58203125,-23.92578125,-51.26953125,-75.1953125,-10.25390625,36.62109375,0.0
476.5859375,27.34375,-52.24609375,-82.03125,23.92578125,-16.11328125,0.0
476.58984375,69.82421875,-38.0859375,-62.5,4.39453125,18.06640625,0.0
476.59375,26.85546875,-29.296875,-62.01171875,-62.5,51.26953125,0.0
476.59765625,31.73828125,-33.69140625,-81.0546875,-56.15234375,-33.69140625,0.0
476.6015625,43.45703125,-35.15625,-41.9921875,-40.0390625,-23.4375,0.0
476.60546875,29.296875,-31.25,-52.734375,-83.49609375,7.32421875,0.0
476.609375,-43.9453125,-32.2265625,-96.19140625,-121.58203125,4.8828125,0.0
476.61328125,-79.1015625,-32.71484375,-25.390625,-111.81640625,-39.0625,0.0
476.6171875,-40.0390625,-38.0859375,-34.1796875,-89.84375,-17.578125,0.0
476.62109375,-32.2265625,-34.1796875,-76.171875,-111.328125,10.7421875,0.0
476.625,-78.125,-27.34375,-70.80078125,-123.046875,2.44140625,0.0
476.62890625,-89.35546875,-44.43359375,-84.9609375,-127.9296875,-15.625,0.0
476.6328125,-90.33203125,-49.8046875,-107.91015625,-161.1328125,-7.32421875,0.0
476.63671875,-107.421875,-37.59765625,-79.58984375,-183.59375,21.484375,0.0
476.640625,-111.328125,-33.69140625,-66.40625,-167.48046875,-64.94140625,0.0
476.64453125,-105.46875,-33.203125,-75.68359375,-144.04296875,-53.7109375,0.0
476.6484375,-115.234375,-32.2265625,-75.1953125,-142.08984375,-89.35546875,0.0
476.65234375,-95.21484375,-38.0859375,-77.63671875,-145.99609375,-88.8671875,0.0
476.65625,-47.36328125,-35.64453125,-71.77734375,-108.88671875,-8.7890625,0.0
476.66015625,-44.43359375,-27.83203125,-71.2890625,-83.49609375,4.39453125,0.0
476.6640625,-24.90234375,-21.484375,-69.3359375,-124.0234375,24.4140625,0.0
476.66796875,-14.6484375,-6.34765625,-62.01171875,-100.09765625,-54.19921875,0.0
476.671875,-11.23046875,-6.8359375,-50.78125,-68.359375,-27.34375,0.0
476.67578125,-20.5078125,-14.16015625,-56.640625,-53.7109375,-91.30859375,0.0
476.6796875,-46.38671875,-7.8125,-50.29296875,-34.1796875,-165.52734375,0.0
476.68359375,-35.15625,-23.4375,-45.8984375,-29.296875,-110.3515625,0.0
476.6875,-1.46484375,-25.390625,-67.87109375,-29.78515625,-140.625,0.0
476.69140625,23.4375,-5.859375,-71.77734375,-33.203125,-106.93359375,0.0
476.6953125,38.57421875,-8.30078125,-35.64453125,-33.203125,-90.33203125,0.0
476.69921875,13.18359375,-13.671875,-57.6171875,-59.08203125,-111.81640625,0.0
476.703125,-11.23046875,-15.625,-66.89453125,-67.87109375,-86.9140625,0.0
476.70703125,-34.66796875,-22.94921875,-74.70703125,-59.08203125,-79.58984375,0.0
476.7109375,-38.57421875,-27.34375,-83.984375,-38.0859375,-46.38671875,0.0
476.71484375,2.44140625,-21.97265625,-56.15234375,-35.64453125,-33.203125,0.0
476.71875,23.92578125,-10.25390625,-50.78125,-20.01953125,-34.1796875,0.0
476.72265625,29.78515625,-19.04296875,-28.80859375,2.9296875,30.2734375,0.0
476.7265625,2.44140625,-35.15625,-52.24609375,-15.625,8.30078125,0.0
476.73046875,-4.8828125,-35.64453125,-48.828125,6.34765625,-44.921875,0.0
476.734375,1.46484375,-18.06640625,-19.53125,25.390625,11.23046875,0.0
476.73828125,4.39453125,3.90625,-50.29296875,-30.2734375,39.55078125,0.0
476.7421875,14.16015625,14.6484375,-64.94140625,-42.48046875,32.2265625,0.0
476.74609375,21.97265625,8.30078125,-48.33984375,-24.90234375,-26.85546875,0.0
476.75,-20.5078125,-6.34765625,-47.8515625,-19.04296875,-120.1171875,0.0
476.75390625,-46.38671875,-19.04296875,-44.43359375,-4.8828125,-48.33984375,0.0
476.7578125,-6.8359375,-21.97265625,-43.9453125,6.8359375,4.39453125,0.0
476.76171875,-20.5078125,-17.08984375,-50.29296875,0.9765625,-58.10546875,0.0
476.765625,-26.85546875,1.46484375,-33.69140625,-4.39453125,-38.57421875,0.0
476.76953125,5.859375,-9.27734375,-37.109375,-9.27734375,5.859375,0.0
476.7734375,-2.44140625,-24.90234375,-32.2265625,-4.8828125,-19.53125,0.0
476.77734375,-41.9921875,-22.94921875,-17.08984375,-15.13671875,-58.10546875,0.0
476.78125,-32.2265625,-18.5546875,-37.109375,-3.41796875,-67.3828125,0.0
476.78515625,24.4140625,-5.859375,-48.828125,-16.6015625,-76.171875,0.0
476.7890625,20.99609375,7.8125,-36.62109375,-40.0390625,-67.87109375,0.0
476.79296875,-0.48828125,0.48828125,-20.5078125,9.27734375,-38.0859375,0.0
476.796875,-5.859375,-9.27734375,-27.34375,29.78515625,18.5546875,0.0
476.80078125,-50.29296875,0.0,-37.59765625,20.01953125,34.1796875,0.0
476.8046875,-54.6875,13.671875,-54.19921875,20.99609375,-9.27734375,0.0
476.80859375,-24.4140625,-7.8125,-73.73046875,-0.9765625,-22.4609375,0.0
476.8125,-19.53125,-41.9921875,-59.08203125,-13.671875,47.8515625,0.0
476.81640625,-28.3203125,-47.36328125,-43.9453125,-6.34765625,-23.4375,0.0
476.8203125,-50.29296875,-36.1328125,-61.5234375,-29.78515625,-128.90625,0.0
476.82421875,-46.38671875,-25.390625,-69.3359375,-34.1796875,-109.375,0.0
476.828125,-17.578125,-33.203125,-45.41015625,-13.671875,-50.78125,0.0
476.83203125,-62.5,-48.33984375,-46.38671875,8.30078125,-12.20703125,0.0
476.8359375,-48.828125,-28.80859375,-61.5234375,4.8828125,-23.92578125,0.0
476.83984375,-45.8984375,-27.83203125,-39.0625,-24.4140625,-43.45703125,0.0
476.84375,-48.828125,-46.875,-52.24609375,-25.87890625,-83.984375,0.0
476.84765625,-39.55078125,-27.83203125,-79.1015625,-3.90625,-26.3671875,0.0
476.8515625,-53.7109375,-31.25,-56.15234375,-20.99609375,13.18359375,0.0
476.85546875,-22.4609375,-40.52734375,-67.87109375,-34.1796875,-82.51953125,0.0
476.859375,-31.73828125,-31.73828125,-87.890625,-24.90234375,-93.75,0.0
476.86328125,-34.1796875,-44.43359375,-61.5234375,-19.53125,-8.30078125,0.0
476.8671875,-79.1015625,-71.77734375,-62.01171875,-54.19921875,-55.17578125,0.0
476.87109375,-90.33203125,-65.91796875,-71.2890625,-98.14453125,-111.328125,0.0
476.875,-39.0625,-41.50390625,-58.10546875,-89.35546875,-88.8671875,0.0
476.87890625,-70.80078125,-32.2265625,-66.89453125,-85.9375,-75.68359375,0.0
476.8828125,-61.5234375,-52.24609375,-83.49609375,-77.63671875,-42.48046875,0.0
476.88671875,-14.6484375,-56.640625,-56.640625,-72.265625,-39.55078125,0.0
476.890625,-30.76171875,-34.66796875,-33.69140625,-42.96875,-127.44140625,0.0
476.89453125,-63.96484375,-31.73828125,-43.45703125,-57.6171875,-102.05078125,0.0
476.8984375,-71.77734375,-45.8984375,-62.5,-107.91015625,10.7421875,0.0
476.90234375,-74.70703125,-28.3203125,-68.359375,-78.125,-6.8359375,0.0
476.90625,-48.33984375,-15.625,-56.640625,-45.8984375,-44.921875,0.0
476.91015625,-43.45703125,-21.97265625,-30.76171875,-52.24609375,-41.50390625,0.0
476.9140625,-22.94921875,-32.2265625,-40.52734375,-59.5703125,55.17578125,0.0
476.91796875,6.8359375,-31.25,-59.08203125,-37.59765625,93.75,0.0
476.921875,0.48828125,-33.203125,-53.22265625,-27.34375,60.546875,0.0
476.92578125,-29.296875,-46.38671875,-54.6875,-48.828125,39.0625,0.0
476.9296875,-60.546875,-44.921875,-51.7578125,-24.90234375,-17.08984375,0.0
476.93359375,-34.66796875,-30.2734375,-62.5,-12.20703125,15.13671875,0.0
476.9375,-16.11328125,-22.94921875,-20.99609375,-43.45703125,-0.48828125,0.0
476.94140625,-37.59765625,-21.484375,0.48828125,-58.59375,-46.38671875,0.0
476.9453125,-24.90234375,-16.6015625,-63.4765625,-87.890625,-0.48828125,0.0
476.94921875,-15.13671875,-17.08984375,-83.49609375,-75.68359375,51.26953125,0.0
476.953125,-30.2734375,-20.99609375,-39.0625,-44.921875,37.59765625,0.0
476.95703125,-12.20703125,-15.625,-27.83203125,-34.1796875,-8.7890625,0.0
476.9609375,-9.765625,-20.99609375,-43.9453125,-25.87890625,-10.7421875,0.0
476.96484375,-31.73828125,-31.73828125,-10.7421875,-2.9296875,-39.55078125,0.0
476.96875,-56.15234375,-19.04296875,-11.23046875,-6.34765625,-45.8984375,0.0
476.97265625,-37.59765625,-28.3203125,-46.38671875,-23.92578125,-72.265625,0.0
476.9765625,-4.39453125,-53.7109375,-61.03515625,-0.9765625,-39.55078125,0.0
476.98046875,-48.33984375,-50.29296875,-72.265625,15.13671875,-17.578125,0.0
476.984375,-45.41015625,-21.484375,-59.08203125,-13.671875,-103.515625,0.0
476.98828125,-14.16015625,-8.30078125,-54.19921875,-39.55078125,-137.20703125,0.0
476.9921875,2.9296875,-15.625,-49.8046875,-25.87890625,-49.31640625,0.0
476.99609375,-15.625,-26.85546875,-52.24609375,-45.8984375,-9.765625,0.0
477.0,-66.89453125,-43.9453125,-95.703125,-62.5,-106.4453125,0.0
477.00390625,-81.54296875,-47.8515625,-73.73046875,-51.26953125,-32.2265625,0.0
477.0078125,-44.921875,-34.1796875,-7.32421875,-11.23046875,37.109375,0.0
477.01171875,-37.59765625,-20.5078125,-12.6953125,0.48828125,-18.06640625,0.0
477.015625,-50.29296875,-22.94921875,-28.3203125,-11.71875,1.953125,0.0
477.01953125,-27.83203125,-22.4609375,-49.8046875,-11.23046875,89.35546875,0.0
477.0234375,-25.390625,-28.80859375,-71.2890625,-19.53125,20.5078125,0.0
477.02734375,-50.78125,-33.69140625,-68.359375,10.7421875,-62.98828125,0.0
477.03125,-60.05859375,-31.73828125,-41.50390625,9.27734375,-19.04296875,0.0
477.03515625,-37.59765625,-44.43359375,-18.06640625,-25.390625,49.31640625,0.0
477.0390625,-13.18359375,-52.24609375,-44.43359375,-32.2265625,40.0390625,0.0
477.04296875,-0.48828125,-28.80859375,-44.43359375,-45.8984375,3.41796875,0.0
477.046875,-17.08984375,-21.97265625,-28.3203125,-56.640625,20.01953125,0.0
477.05078125,-58.59375,-34.66796875,-27.83203125,-82.03125,48.33984375,0.0
477.0546875,-57.6171875,-36.1328125,-45.41015625,-100.09765625,8.7890625,0.0
477.05859375,-22.4609375,-41.015625,-87.890625,-103.515625,-42.48046875,0.0
477.0625,-30.76171875,-41.50390625,-72.75390625,-131.8359375,-7.8125,0.0
477.06640625,-24.90234375,-21.484375,-30.2734375,-105.95703125,4.8828125,0.0
477.0703125,-14.16015625,-17.578125,-32.2265625,-109.375,-41.9921875,0.0
477.07421875,-49.8046875,-35.64453125,-46.875,-121.58203125,-60.546875,0.0
477.078125,-57.12890625,-33.69140625,-49.8046875,-94.7265625,-35.15625,0.0
477.08203125,-40.52734375,-39.0625,-64.94140625,-104.98046875,21.484375,0.0
477.0859375,-53.7109375,-51.26953125,-60.546875,-125.9765625,15.13671875,0.0
477.08984375,-125.0,-53.22265625,-84.47265625,-139.16015625,-65.91796875,0.0
477.09375,-142.578125,-61.03515625,-93.26171875,-179.19921875,-110.3515625,0.0
477.09765625,-161.1328125,-42.48046875,-56.640625,-188.4765625,-110.83984375,0.0
477.1015625,-177.24609375,-41.50390625,-95.703125,-214.35546875,-93.75,0.0
477.10546875,-189.94140625,-57.12890625,-92.7734375,-236.328125,-49.31640625,0.0
477.109375,-244.140625,-68.84765625,-44.43359375,-239.74609375,-57.6171875,0.0
477.11328125,-261.23046875,-73.73046875,-54.6875,-265.625,-97.16796875,0.0
477.1171875,-275.87890625,-80.078125,-75.68359375,-266.6015625,-97.65625,0.0
477.12109375,-282.71484375,-80.56640625,-75.1953125,-256.34765625,-27.83203125,0.0
477.125,-230.46875,-55.17578125,-63.96484375,-241.69921875,6.8359375,0.0
477.12890625,-230.95703125,-59.08203125,-63.96484375,-241.69921875,-5.859375,0.0
477.1328125,-292.96875,-76.66015625,-69.82421875,-251.46484375,11.71875,0.0
477.13671875,-274.4140625,-60.05859375,-77.63671875,-245.60546875,-38.57421875,0.0
477.140625,-276.3671875,-45.8984375,-48.828125,-213.37890625,-104.00390625,0.0
477.14453125,-251.46484375,-58.10546875,-25.87890625,-181.640625,-75.68359375,0.0
477.1484375,-235.83984375,-61.5234375,-38.57421875,-163.0859375,-76.171875,0.0
477.15234375,-214.84375,-48.33984375,-61.03515625,-172.8515625,-46.38671875,0.0
477.15625,-154.78515625,-56.640625,-74.21875,-187.98828125,-60.05859375,0.0
477.16015625,-145.99609375,-52.734375,-45.8984375,-172.8515625,-109.86328125,0.0
477.1640625,-134.27734375,-41.50390625,-44.43359375,-139.16015625,-74.70703125,0.0
477.16796875,-102.5390625,-50.29296875,-62.01171875,-107.91015625,-48.33984375,0.0
477.171875,-140.13671875,-51.26953125,-42.48046875,-95.21484375,-27.83203125,0.0
477.17578125,-137.6953125,-41.50390625,-43.45703125,-98.6328125,-37.109375,0.0
477.1796875,-76.171875,-42.48046875,-83.984375,-109.86328125,37.109375,0.0
477.18359375,-68.359375,-53.7109375,-73.73046875,-105.95703125,84.9609375,0.0
477.1875,-79.1015625,-52.24609375,-39.0625,-65.91796875,-14.16015625,0.0
477.19140625,-37.109375,-48.33984375,-52.24609375,-29.78515625,-13.671875,0.0
477.1953125,-4.8828125,-46.38671875,-36.62109375,-33.203125,33.69140625,0.0
477.19921875,-29.296875,-34.66796875,-38.57421875,-16.11328125,44.43359375,0.0
477.203125,-13.671875,-28.80859375,-34.66796875,-0.9765625,25.390625,0.0
477.20703125,22.4609375,-38.0859375,-23.4375,9.27734375,-29.78515625,0.0
477.2109375,66.89453125,-21.484375,-24.4140625,20.01953125,-72.265625,0.0
477.21484375,68.84765625,-22.94921875,-29.296875,-4.8828125,-116.69921875,0.0
477.21875,33.203125,-49.31640625,-54.19921875,14.16015625,-100.5859375,0.0
477.22265625,54.19921875,-38.0859375,-69.82421875,38.0859375,-133.30078125,0.0
477.2265625,62.98828125,-26.85546875,-43.9453125,-1.46484375,-128.41796875,0.0
477.23046875,-3.90625,-35.64453125,-72.265625,-10.25390625,-84.47265625,0.0
477.234375,15.13671875,-35.64453125,-78.61328125,24.4140625,-85.9375,0.0
477.23828125,45.8984375,-33.69140625,-18.06640625,28.80859375,-43.45703125,0.0
477.2421875,34.1796875,-36.62109375,-15.13671875,15.625,-36.1328125,0.0
477.24609375,60.546875,-25.390625,-13.671875,19.53125,-80.078125,0.0
477.25,77.1484375,-19.53125,-38.0859375,35.15625,-110.83984375,0.0
477.25390625,79.1015625,-14.6484375,-29.78515625,34.66796875,-16.11328125,0.0
477.2578125,101.5625,-21.484375,-4.8828125,45.8984375,-41.015625,0.0
477.26171875,103.515625,-36.1328125,-35.64453125,58.10546875,-220.703125,0.0
477.265625,76.171875,-29.78515625,-86.9140625,33.69140625,-241.2109375,0.0
477.26953125,49.31640625,-40.52734375,-66.89453125,9.27734375,-218.26171875,0.0
477.2734375,52.734375,-36.1328125,-3.90625,-4.39453125,-212.40234375,0.0
477.27734375,66.89453125,-19.53125,9.765625,20.5078125,-205.078125,0.0
477.28125,67.87109375,-24.90234375,-10.25390625,20.01953125,-200.1953125,0.0
477.28515625,48.828125,-31.25,-33.203125,13.671875,-130.37109375,0.0
477.2890625,46.875,-34.66796875,-54.19921875,17.578125,-160.64453125,0.0
477.29296875,52.24609375,-33.203125,-47.36328125,-12.20703125,-171.38671875,0.0
477.296875,67.87109375,-37.59765625,-15.13671875,-56.15234375,-170.8984375,0.0
477.30078125,102.05078125,-37.109375,-19.53125,-30.76171875,-158.69140625,0.0
477.3046875,89.84375,-39.0625,-37.59765625,21.484375,-119.62890625,0.0
477.30859375,62.01171875,-56.15234375,-69.82421875,36.62109375,-62.98828125,0.0
477.3125,40.52734375,-60.05859375,-48.828125,52.24609375,-69.82421875,0.0
477.31640625,50.78125,-45.8984375,-20.01953125,92.28515625,-150.87890625,0.0
477.3203125,64.94140625,-56.640625,-47.36328125,83.49609375,-177.24609375,0.0
477.32421875,31.73828125,-59.08203125,-39.0625,52.24609375,-167.48046875,0.0
477.328125,-3.90625,-68.359375,-18.06640625,41.015625,-140.625,0.0
477.33203125,-40.52734375,-86.42578125,-29.78515625,41.015625,-60.546875,0.0
477.3359375,-70.80078125,-86.9140625,-19.53125,59.5703125,66.89453125,0.0
477.33984375,-48.828125,-92.28515625,-21.97265625,48.33984375,192.87109375,0.0
477.34375,-49.8046875,-98.14453125,-38.57421875,22.4609375,195.3125,0.0
477.34765625,-111.328125,-136.71875,-52.734375,-5.37109375,202.1484375,0.0
477.3515625,-157.2265625,-139.16015625,-41.50390625,37.109375,185.05859375,0.0
477.35546875,-75.1953125,-114.74609375,1.953125,38.0859375,55.17578125,0.0
477.359375,-86.9140625,-128.41796875,-23.4375,-26.85546875,56.640625,0.0
477.36328125,-226.5625,-141.11328125,-56.15234375,-41.50390625,112.79296875,0.0
477.3671875,-203.61328125,-148.92578125,2.44140625,-41.50390625,98.14453125,0.0
477.37109375,-125.9765625,-159.1796875,8.7890625,-9.765625,83.0078125,0.0
477.375,-93.75,-144.53125,-34.66796875,30.76171875,101.5625,0.0
477.37890625,-104.00390625,-132.8125,-4.8828125,24.90234375,59.08203125,0.0
477.3828125,-125.0,-141.11328125,29.296875,20.5078125,25.87890625,0.0
477.38671875,-92.7734375,-129.39453125,-8.30078125,31.73828125,88.37890625,0.0
477.390625,-51.26953125,-115.72265625,-26.85546875,30.76171875,120.1171875,0.0
477.39453125,-27.83203125,-114.74609375,-5.37109375,38.57421875,-37.59765625,0.0
477.3984375,-22.94921875,-111.81640625,10.25390625,47.8515625,-92.7734375,0.0
477.40234375,-30.76171875,-99.609375,-0.48828125,47.36328125,-20.01953125,0.0
477.40625,8.7890625,-87.40234375,-7.32421875,62.98828125,-81.54296875,0.0
477.41015625,21.484375,-61.03515625,-10.25390625,101.5625,-26.85546875,0.0
477.4140625,-0.9765625,-53.7109375,3.41796875,93.75,-58.10546875,0.0
477.41796875,23.4375,-67.3828125,-24.90234375,61.03515625,-171.875,0.0
477.421875,8.30078125,-63.4765625,-17.08984375,78.125,-128.41796875,0.0
477.42578125,-6.8359375,-73.2421875,38.57421875,82.51953125,-93.26171875,0.0
477.4296875,24.90234375,-75.1953125,-2.9296875,79.1015625,-84.47265625,0.0
477.43359375,47.8515625,-52.24609375,-64.453125,78.125,-58.10546875,0.0
477.4375,24.4140625,-62.98828125,-59.5703125,52.734375,-57.12890625,0.0
477.44140625,5.859375,-69.3359375,-1.953125,72.265625,-90.8203125,0.0
477.4453125,30.2734375,-42.48046875,2.44140625,83.49609375,-79.1015625,0.0
477.44921875,52.734375,-29.78515625,-7.32421875,65.91796875,7.8125,0.0
477.453125,-12.20703125,-57.6171875,-19.53125,56.640625,-41.50390625,0.0
477.45703125,-34.66796875,-84.47265625,-52.734375,41.015625,-49.31640625,0.0
477.4609375,13.18359375,-69.3359375,-73.73046875,61.5234375,31.25,0.0
477.46484375,3.90625,-51.7578125,-66.89453125,67.87109375,-54.19921875,0.0
477.46875,17.578125,-44.43359375,-35.64453125,77.1484375,-75.68359375,0.0
477.47265625,49.31640625,-46.38671875,-35.64453125,108.88671875,-30.2734375,0.0
477.4765625,40.0390625,-36.1328125,-45.41015625,122.55859375,-41.015625,0.0
477.48046875,25.87890625,-26.85546875,-43.45703125,118.1640625,-63.96484375,0.0
477.484375,25.87890625,-24.90234375,-21.484375,126.46484375,-41.9921875,0.0
477.48828125,9.765625,-16.11328125,-35.15625,95.21484375,-39.0625,0.0
477.4921875,25.87890625,-11.23046875,-28.3203125,37.109375,-71.2890625,0.0
477.49609375,8.7890625,-26.85546875,-8.30078125,62.5,-46.875,0.0
477.5,-10.7421875,-29.78515625,-26.85546875,100.09765625,-35.15625,0.0
477.50390625,49.8046875,-25.390625,-39.55078125,91.30859375,31.25,0.0
477.5078125,65.91796875,-30.76171875,-41.015625,60.05859375,24.90234375,0.0
477.51171875,5.37109375,-33.203125,-31.73828125,46.875,-20.99609375,0.0
477.515625,-13.18359375,-38.57421875,-21.97265625,75.68359375,-30.76171875,0.0
477.51953125,-30.2734375,-34.1796875,-77.1484375,52.24609375,-77.63671875,0.0
477.5234375,-34.1796875,-35.64453125,-80.078125,20.99609375,-63.96484375,0.0
477.52734375,-0.9765625,-39.55078125,-51.7578125,41.015625,-78.61328125,0.0
477.53125,23.4375,-38.57421875,-52.24609375,43.9453125,-111.81640625,0.0
477.53515625,-4.39453125,-47.36328125,-43.45703125,25.390625,-83.49609375,0.0
477.5390625,-48.33984375,-46.875,-42.48046875,4.8828125,-121.58203125,0.0
477.54296875,-16.6015625,-29.296875,-34.66796875,21.97265625,-118.1640625,0.0
477.546875,4.8828125,-26.3671875,-10.25390625,21.484375,-14.6484375,0.0
477.55078125,17.08984375,-28.80859375,-11.71875,-5.37109375,44.921875,0.0
477.5546875,51.7578125,-27.83203125,-40.52734375,-6.8359375,73.2421875,0.0
477.55859375,45.8984375,-23.4375,-66.40625,7.32421875,-62.98828125,0.0
477.5625,37.59765625,-7.8125,-77.63671875,11.71875,-137.6953125,0.0
477.56640625,32.71484375,-24.4140625,-43.9453125,-6.8359375,23.4375,0.0
477.5703125,18.06640625,-44.43359375,-21.97265625,-17.578125,77.1484375,0.0
477.57421875,29.78515625,-27.83203125,-30.76171875,9.765625,46.875,0.0
477.578125,32.71484375,-7.32421875,-51.7578125,40.0390625,81.54296875,0.0
477.58203125,29.296875,-15.13671875,-5.859375,47.8515625,86.9140625,0.0
477.5859375,-26.85546875,-39.0625,-12.20703125,48.828125,49.31640625,0.0
477.58984375,-66.40625,-37.59765625,-48.828125,39.0625,9.765625,0.0
477.59375,-52.734375,-34.66796875,-46.875,-8.7890625,77.63671875,0.0
477.59765625,-53.22265625,-32.71484375,-42.48046875,0.48828125,102.5390625,0.0
477.6015625,-43.45703125,-28.3203125,-38.57421875,32.2265625,2.44140625,0.0
477.60546875,-24.90234375,-16.11328125,-43.9453125,23.4375,7.32421875,0.0
477.609375,-34.66796875,-10.25390625,-54.19921875,50.29296875,72.75390625,0.0
477.61328125,-66.89453125,-22.94921875,-38.57421875,38.0859375,101.5625,0.0
477.6171875,-68.84765625,-39.55078125,-50.78125,29.296875,97.16796875,0.0
477.62109375,-77.1484375,-30.76171875,-60.546875,38.0859375,84.9609375,0.0
477.625,-66.40625,-11.23046875,-39.55078125,13.18359375,89.84375,0.0
477.62890625,-30.2734375,-14.16015625,-30.76171875,4.39453125,81.0546875,0.0
477.6328125,-38.0859375,-19.04296875,-14.6484375,24.90234375,91.30859375,0.0
477.63671875,-40.52734375,-37.59765625,-9.27734375,8.7890625,-6.34765625,0.0
477.640625,-45.41015625,-49.31640625,-4.8828125,-13.18359375,-37.109375,0.0
477.64453125,-63.96484375,-31.73828125,-18.06640625,9.765625,13.18359375,0.0
477.6484375,-48.828125,-21.97265625,-33.69140625,10.7421875,-17.08984375,0.0
477.65234375,-17.08984375,-32.2265625,-57.12890625,-15.625,-76.171875,0.0
477.65625,24.4140625,-29.296875,-91.796875,-12.6953125,-142.08984375,0.0
477.66015625,-1.46484375,-22.94921875,-57.6171875,-4.8828125,-120.1171875,0.0
477.6640625,-28.3203125,-34.66796875,-34.66796875,4.39453125,-50.29296875,0.0
477.66796875,-9.765625,-26.85546875,-37.59765625,-7.8125,-15.625,0.0
477.671875,10.7421875,-20.99609375,-15.625,-19.53125,-19.04296875,0.0
477.67578125,21.97265625,-23.4375,-17.08984375,11.71875,-84.9609375,0.0
477.6796875,41.9921875,-12.20703125,-26.3671875,7.8125,-31.73828125,0.0
477.68359375,40.52734375,-8.7890625,-59.08203125,17.08984375,44.43359375,0.0
477.6875,15.625,-13.671875,-50.29296875,30.2734375,22.4609375,0.0
477.69140625,4.39453125,-28.80859375,-15.625,11.71875,4.39453125,0.0
477.6953125,11.71875,-24.90234375,-30.76171875,43.9453125,4.8828125,0.0
477.69921875,20.5078125,-12.20703125,-41.9921875,41.9921875,-10.7421875,0.0
477.703125,-10.25390625,-21.484375,-33.69140625,-27.34375,-96.19140625,0.0
477.70703125,18.06640625,-27.83203125,-24.90234375,-25.390625,-127.9296875,0.0
477.7109375,52.24609375,-16.11328125,-40.0390625,-5.37109375,-130.37109375,0.0
477.71484375,25.87890625,-18.06640625,-64.94140625,-20.99609375,-189.453125,0.0
477.71875,-7.8125,-35.64453125,-25.87890625,-12.6953125,-117.67578125,0.0
477.72265625,8.30078125,-29.296875,-12.6953125,-2.44140625,-52.24609375,0.0
477.7265625,36.1328125,-29.296875,-27.34375,13.18359375,-28.3203125,0.0
477.73046875,43.9453125,-20.5078125,-26.3671875,25.390625,71.77734375,0.0
477.734375,49.8046875,-6.34765625,-31.25,5.859375,54.6875,0.0
477.73828125,61.5234375,-6.34765625,-35.15625,12.20703125,-91.30859375,0.0
477.7421875,75.68359375,-11.71875,-62.98828125,23.4375,-122.55859375,0.0
477.74609375,53.22265625,-17.08984375,-77.1484375,-8.30078125,-125.0,0.0
477.75,43.45703125,-16.6015625,-47.8515625,-41.50390625,-157.71484375,0.0
477.75390625,44.43359375,-6.8359375,-15.625,-23.4375,-150.390625,0.0
477.7578125,8.7890625,-15.625,-1.46484375,-10.7421875,-16.11328125,0.0
477.76171875,13.671875,-29.78515625,-20.99609375,-19.04296875,84.47265625,0.0
477.765625,-3.90625,-24.90234375,-39.55078125,-0.9765625,155.76171875,0.0
477.76953125,-3.90625,-28.3203125,-67.87109375,5.37109375,140.13671875,0.0
477.7734375,53.22265625,-25.390625,-42.48046875,-20.5078125,54.6875,0.0
477.77734375,29.78515625,-15.625,3.90625,-18.06640625,35.15625,0.0
477.78125,-11.23046875,-21.484375,-30.2734375,17.08984375,16.6015625,0.0
477.78515625,16.11328125,-23.92578125,-63.4765625,13.671875,-26.85546875,0.0
477.7890625,26.3671875,-31.25,-51.7578125,9.27734375,-37.59765625,0.0
477.79296875,0.9765625,-50.78125,-31.25,-1.953125,70.80078125,0.0
477.796875,27.34375,-45.8984375,-26.85546875,2.9296875,120.60546875,0.0
477.80078125,45.41015625,-35.15625,-35.15625,18.06640625,23.4375,0.0
477.8046875,1.953125,-37.59765625,-45.8984375,18.5546875,0.48828125,0.0
477.80859375,16.6015625,-42.96875,-44.921875,7.32421875,11.71875,0.0
477.8125,20.01953125,-28.80859375,-32.71484375,-37.59765625,24.4140625,0.0
477.81640625,-4.39453125,-20.01953125,-42.48046875,-55.17578125,23.4375,0.0
477.8203125,-24.90234375,-33.69140625,-62.98828125,-46.38671875,7.32421875,0.0
477.82421875,-30.76171875,-47.36328125,-60.05859375,-37.59765625,-98.6328125,0.0
477.828125,-30.2734375,-50.78125,-14.6484375,-6.8359375,-180.6640625,0.0
477.83203125,-39.55078125,-40.52734375,-31.25,1.46484375,-164.0625,0.0
477.8359375,-74.70703125,-27.83203125,-34.1796875,18.06640625,-201.171875,0.0
477.83984375,-33.69140625,-36.1328125,-11.23046875,34.1796875,-198.2421875,0.0
477.84375,-35.15625,-53.7109375,-15.13671875,21.484375,-165.0390625,0.0
477.84765625,-51.26953125,-58.59375,-10.25390625,21.97265625,-83.984375,0.0
477.8515625,18.06640625,-58.10546875,-25.390625,44.43359375,0.0,0.0
477.85546875,24.4140625,-45.8984375,-32.71484375,16.11328125,25.87890625,0.0
477.859375,-49.8046875,-35.64453125,-67.3828125,-37.59765625,46.875,0.0
477.86328125,-87.890625,-59.5703125,-60.546875,-22.94921875,50.78125,0.0
477.8671875,-63.4765625,-75.1953125,-41.015625,-3.90625,37.109375,0.0
477.87109375,-9.765625,-73.2421875,-53.22265625,-7.8125,76.66015625,0.0
477.875,-16.6015625,-67.3828125,-20.99609375,-6.34765625,103.515625,0.0
477.87890625,-50.29296875,-58.59375,-12.20703125,1.46484375,48.33984375,0.0
477.8828125,-49.8046875,-48.828125,-21.484375,-14.16015625,-41.50390625,0.0
477.88671875,-62.5,-48.33984375,-35.64453125,10.25390625,-77.63671875,0.0
477.890625,-91.796875,-64.94140625,-48.33984375,35.15625,3.41796875,0.0
477.89453125,-81.0546875,-47.36328125,-72.75390625,14.16015625,59.08203125,0.0
477.8984375,-96.19140625,-28.80859375,-77.1484375,41.50390625,38.57421875,0.0
477.90234375,-77.63671875,-53.22265625,-53.7109375,44.921875,6.8359375,0.0
477.90625,-41.50390625,-46.38671875,-42.96875,0.0,0.0,0.0
477.91015625,-30.2734375,-23.92578125,-37.109375,-19.04296875,14.6484375,0.0
477.9140625,40.52734375,-41.015625,-41.9921875,-29.78515625,13.18359375,0.0
477.91796875,0.9765625,-48.828125,-60.546875,-33.69140625,35.64453125,0.0
477.921875,-62.5,-36.1328125,-94.7265625,-20.99609375,80.078125,0.0
477.92578125,9.765625,-20.01953125,-42.48046875,-5.859375,63.4765625,0.0
477.9296875,31.73828125,-0.48828125,20.01953125,-20.01953125,-24.4140625,0.0
477.93359375,23.4375,-28.3203125,-37.109375,-69.82421875,-117.1875,0.0
477.9375,18.5546875,-46.875,-63.96484375,-72.75390625,-120.60546875,0.0
477.94140625,18.5546875,-39.55078125,-55.6640625,-58.59375,-90.33203125,0.0
477.9453125,23.4375,-36.1328125,-50.29296875,-57.6171875,-117.1875,0.0
477.94921875,43.45703125,-32.71484375,-63.4765625,-43.9453125,-73.2421875,0.0
477.953125,38.57421875,-39.0625,-66.40625,-29.78515625,-28.3203125,0.0
477.95703125,21.97265625,-36.1328125,-63.4765625,-18.06640625,-35.64453125,0.0
477.9609375,19.53125,-27.34375,-54.19921875,-34.66796875,-49.31640625,0.0
477.96484375,28.80859375,-26.3671875,-41.50390625,-25.87890625,-20.01953125,0.0
477.96875,39.0625,-23.4375,-41.015625,0.9765625,46.875,0.0
477.97265625,79.1015625,-17.578125,-42.48046875,21.97265625,36.62109375,0.0
477.9765625,124.0234375,-9.765625,-55.6640625,24.90234375,-10.7421875,0.0
477.98046875,129.39453125,-5.37109375,-48.33984375,-28.3203125,23.4375,0.0
477.984375,114.74609375,-1.953125,-57.6171875,12.20703125,41.50390625,0.0
477.98828125,85.9375,-12.20703125,-52.24609375,37.109375,-14.6484375,0.0
477.9921875,113.76953125,-17.08984375,-27.34375,-22.4609375,-50.29296875,0.0
477.99609375,85.44921875,-20.01953125,-42.48046875,-23.92578125,-70.80078125,0.0
478.0,27.83203125,-35.15625,-42.96875,-2.44140625,-43.9453125,0.0
478.00390625,49.31640625,-32.2265625,-67.87109375,-23.92578125,-39.55078125,0.0
478.0078125,10.25390625,-15.625,-63.96484375,-23.4375,-66.89453125,0.0
478.01171875,26.85546875,-10.7421875,-33.203125,18.5546875,-8.30078125,0.0
478.015625,-20.5078125,-22.4609375,-29.78515625,46.38671875,43.45703125,0.0
478.01953125,-83.49609375,-22.4609375,-34.66796875,-20.99609375,1.46484375,0.0
478.0234375,-29.78515625,-1.46484375,-24.90234375,-62.01171875,-72.75390625,0.0
478.02734375,-47.8515625,13.18359375,-13.18359375,-15.625,-55.17578125,0.0
478.03125,-49.8046875,4.39453125,-37.59765625,-28.3203125,-13.18359375,0.0
478.03515625,26.3671875,6.34765625,-32.71484375,-38.57421875,-9.765625,0.0
478.0390625,45.8984375,12.6953125,-24.90234375,1.46484375,56.640625,0.0
478.04296875,-25.87890625,-8.30078125,-35.15625,-9.27734375,50.78125,0.0
478.046875,-61.5234375,-24.4140625,-22.4609375,-29.296875,-5.37109375,0.0
478.05078125,-58.10546875,-18.06640625,-29.78515625,-47.8515625,42.96875,0.0
478.0546875,-45.8984375,-16.6015625,-51.7578125,-64.94140625,-10.25390625,0.0
478.05859375,-65.4296875,-9.765625,-48.828125,-71.77734375,-56.640625,0.0
478.0625,-103.02734375,-10.25390625,-39.0625,-40.0390625,-43.45703125,0.0
478.06640625,-86.9140625,-17.578125,-71.77734375,-55.6640625,-86.9140625,0.0
478.0703125,-124.0234375,-29.296875,-56.640625,-86.42578125,-113.28125,0.0
478.07421875,-153.3203125,-44.921875,-30.76171875,-52.734375,-93.26171875,0.0
478.078125,-145.99609375,-38.0859375,-31.73828125,-28.80859375,-52.24609375,0.0
478.08203125,-134.765625,-28.3203125,-57.12890625,-45.41015625,-62.01171875,0.0
478.0859375,-145.99609375,-26.3671875,-69.82421875,-92.7734375,-11.23046875,0.0
478.08984375,-156.25,-17.578125,-41.9921875,-83.984375,15.13671875,0.0
478.09375,-125.9765625,-16.6015625,-33.203125,-74.70703125,-37.59765625,0.0
478.09765625,-125.48828125,-37.59765625,-51.26953125,-83.49609375,-85.9375,0.0
478.1015625,-122.55859375,-42.48046875,-52.24609375,-58.10546875,-59.5703125,0.0
478.10546875,-108.3984375,-22.94921875,-47.8515625,-53.7109375,-43.9453125,0.0
478.109375,-87.890625,-13.671875,-46.38671875,-53.7109375,-30.2734375,0.0
478.11328125,-110.83984375,-34.66796875,-56.15234375,-37.59765625,-98.6328125,0.0
478.1171875,-131.34765625,-38.57421875,-44.921875,-47.8515625,-124.51171875,0.0
478.12109375,-85.9375,-27.34375,-53.22265625,-43.9453125,25.87890625,0.0
478.125,-57.12890625,-16.6015625,-69.3359375,-42.48046875,87.40234375,0.0
478.12890625,-38.57421875,-11.23046875,-39.55078125,-52.734375,-112.3046875,0.0
478.1328125,-38.0859375,-25.390625,-27.34375,-60.05859375,-270.5078125,0.0
478.13671875,-96.19140625,-43.9453125,-21.97265625,-72.265625,-217.28515625,0.0
478.140625,-124.51171875,-44.921875,-28.80859375,-66.40625,-166.50390625,0.0
478.14453125,-67.87109375,-33.203125,-46.38671875,-79.1015625,-188.4765625,0.0
478.1484375,-63.96484375,-25.390625,-43.45703125,-84.9609375,-118.65234375,0.0
478.15234375,-96.19140625,-32.2265625,-57.12890625,-100.5859375,-37.59765625,0.0
478.15625,-49.8046875,-43.9453125,-63.96484375,-99.609375,-175.29296875,0.0
478.16015625,-36.1328125,-35.64453125,-45.41015625,-79.1015625,-190.4296875,0.0
478.1640625,-68.84765625,-29.78515625,-38.0859375,-57.6171875,-9.27734375,0.0
478.16796875,-57.12890625,-31.73828125,-43.9453125,-46.38671875,32.2265625,0.0
478.171875,-68.359375,-29.296875,-47.8515625,-50.78125,28.3203125,0.0
478.17578125,-25.87890625,-26.3671875,-76.171875,-22.94921875,1.953125,0.0
478.1796875,83.0078125,-30.76171875,-72.265625,-24.4140625,-49.31640625,0.0
478.18359375,115.234375,-33.69140625,-21.484375,-33.69140625,-60.546875,0.0
478.1875,67.87109375,-25.87890625,-23.92578125,-18.06640625,-63.4765625,0.0
478.19140625,49.31640625,-23.4375,-24.4140625,-20.01953125,-64.94140625,0.0
478.1953125,84.47265625,-20.5078125,-11.23046875,-6.8359375,-104.98046875,0.0
478.19921875,85.44921875,-24.4140625,-26.85546875,-13.18359375,-58.59375,0.0
478.203125,53.22265625,-25.87890625,-35.15625,-42.48046875,-17.08984375,0.0
478.20703125,34.66796875,-39.0625,-45.41015625,-29.78515625,27.34375,0.0
478.2109375,62.98828125,-54.19921875,-42.96875,-10.25390625,87.890625,0.0
478.21484375,104.00390625,-34.1796875,-39.55078125,-13.671875,14.16015625,0.0
478.21875,76.171875,-11.71875,-31.25,-10.7421875,-3.41796875,0.0
478.22265625,56.15234375,-19.04296875,-6.34765625,6.34765625,33.69140625,0.0
478.2265625,16.6015625,-32.71484375,-38.0859375,-6.34765625,23.4375,0.0
478.23046875,32.2265625,-28.80859375,-35.64453125,-24.4140625,61.03515625,0.0
478.234375,38.0859375,-38.0859375,-23.92578125,15.13671875,78.125,0.0
478.23828125,-14.6484375,-42.96875,-53.22265625,-9.765625,22.4609375,0.0
478.2421875,13.671875,-29.296875,-60.05859375,-48.828125,12.6953125,0.0
478.24609375,32.2265625,-19.04296875,-58.10546875,-32.2265625,88.37890625,0.0
478.25,-3.90625,-28.3203125,-53.22265625,-39.55078125,45.8984375,0.0
478.25390625,-30.2734375,-39.55078125,-42.96875,-57.6171875,-7.32421875,0.0
478.2578125,-27.83203125,-39.0625,-38.57421875,-44.921875,-42.48046875,0.0
478.26171875,1.46484375,-37.109375,-49.8046875,-70.80078125,-57.6171875,0.0
478.265625,31.25,-34.66796875,-37.109375,-86.42578125,-23.92578125,0.0
478.26953125,41.015625,-40.0390625,-16.11328125,-65.91796875,15.625,0.0
478.2734375,5.859375,-33.69140625,-40.52734375,-42.96875,24.90234375,0.0
478.27734375,11.23046875,-29.296875,-63.4765625,-73.2421875,-0.9765625,0.0
478.28125,70.3125,-39.55078125,-79.1015625,-152.34375,64.453125,0.0
478.28515625,64.94140625,-52.734375,-69.82421875,-112.3046875,127.44140625,0.0
478.2890625,41.015625,-35.15625,-44.43359375,-64.94140625,19.53125,0.0
478.29296875,37.59765625,-11.23046875,-28.3203125,-104.4921875,-31.73828125,0.0
478.296875,26.3671875,-29.296875,-44.43359375,-78.61328125,11.71875,0.0
478.30078125,34.1796875,-41.015625,-37.109375,-67.3828125,-82.03125,0.0
478.3046875,27.83203125,-47.36328125,-12.6953125,-118.65234375,-126.953125,0.0
478.30859375,-7.32421875,-62.5,-19.53125,-105.46875,-154.296875,0.0
478.3125,8.7890625,-41.9921875,-32.2265625,-32.71484375,-191.40625,0.0
478.31640625,53.7109375,-1.46484375,-22.4609375,5.37109375,-181.640625,0.0
478.3203125,23.92578125,-4.8828125,-52.24609375,-60.05859375,-170.41015625,0.0
478.32421875,16.11328125,-12.20703125,-60.546875,-45.41015625,-160.64453125,0.0
478.328125,97.65625,-12.20703125,-49.31640625,-10.25390625,-154.296875,0.0
478.33203125,105.46875,-12.6953125,-6.8359375,-37.109375,-54.19921875,0.0
478.3359375,138.18359375,21.97265625,36.1328125,-15.13671875,47.36328125,0.0
478.33984375,118.65234375,33.203125,4.39453125,24.90234375,51.26953125,0.0
478.34375,79.1015625,-4.8828125,-24.4140625,-43.45703125,25.87890625,0.0
478.34765625,47.8515625,-41.9921875,-24.90234375,-105.46875,-17.578125,0.0
478.3515625,92.28515625,-35.64453125,-39.0625,-101.5625,-112.79296875,0.0
478.35546875,143.5546875,-20.01953125,-38.57421875,-70.80078125,-200.1953125,0.0
478.359375,34.66796875,-30.2734375,-20.01953125,-52.24609375,-162.59765625,0.0
478.36328125,6.8359375,-44.921875,-22.94921875,-58.10546875,-146.484375,0.0
478.3671875,75.1953125,-30.76171875,-71.77734375,-22.4609375,-83.49609375,0.0
478.37109375,36.62109375,6.8359375,-90.33203125,-15.625,29.296875,0.0
478.375,-45.8984375,-0.9765625,-14.6484375,-27.83203125,56.15234375,0.0
478.37890625,-74.21875,-42.96875,2.44140625,-64.94140625,117.1875,0.0
478.3828125,-67.3828125,-50.78125,-8.7890625,-65.91796875,104.4921875,0.0
478.38671875,-105.46875,-37.59765625,-5.37109375,-23.92578125,-10.25390625,0.0
478.390625,-155.76171875,-38.0859375,-45.8984375,-80.56640625,-125.48828125,0.0
478.39453125,-148.92578125,-36.1328125,-77.63671875,-78.125,-78.125,0.0
478.3984375,-76.66015625,-38.0859375,-31.73828125,-37.59765625,75.68359375,0.0
478.40234375,-66.40625,-42.96875,-28.3203125,-62.5,63.96484375,0.0
478.40625,-135.25390625,-42.96875,-72.75390625,-84.9609375,54.6875,0.0
478.41015625,-97.16796875,-51.7578125,-38.0859375,-69.3359375,67.87109375,0.0
478.4140625,-77.1484375,-46.38671875,-61.03515625,-80.56640625,10.7421875,0.0
478.41796875,-36.1328125,-30.2734375,-69.82421875,-95.703125,-17.08984375,0.0
478.421875,-39.0625,-32.2265625,-42.48046875,-87.40234375,35.15625,0.0
478.42578125,-66.89453125,-22.4609375,-39.55078125,-102.05078125,52.734375,0.0
478.4296875,-38.0859375,-18.06640625,0.9765625,-108.88671875,-31.73828125,0.0
478.43359375,-72.265625,-44.43359375,10.25390625,-121.09375,-92.7734375,0.0
478.4375,-73.2421875,-37.59765625,-35.15625,-129.39453125,-27.34375,0.0
478.44140625,-4.39453125,-19.04296875,-62.98828125,-114.2578125,9.765625,0.0
478.4453125,-1.953125,-8.7890625,-28.80859375,-99.609375,29.296875,0.0
478.44921875,-50.29296875,-27.83203125,-41.9921875,-165.0390625,56.640625,0.0
478.453125,-42.48046875,-52.734375,-71.77734375,-178.22265625,-0.9765625,0.0
478.45703125,-0.9765625,-30.76171875,-63.4765625,-157.71484375,-49.8046875,0.0
478.4609375,-25.87890625,-33.203125,-45.8984375,-179.6875,34.66796875,0.0
478.46484375,-44.43359375,-58.10546875,-36.62109375,-206.54296875,42.96875,0.0
478.46875,-20.99609375,-54.19921875,-46.38671875,-236.81640625,-34.1796875,0.0
478.47265625,22.4609375,-36.62109375,-61.5234375,-198.73046875,-34.1796875,0.0
478.4765625,42.48046875,-40.0390625,-15.625,-176.26953125,-72.75390625,0.0
478.48046875,-24.4140625,-61.5234375,-5.37109375,-222.16796875,-80.56640625,0.0
478.484375,3.41796875,-45.8984375,-44.43359375,-194.3359375,-73.73046875,0.0
478.48828125,4.39453125,-17.08984375,-46.875,-155.2734375,-87.890625,0.0
478.4921875,-56.15234375,-35.15625,-34.1796875,-184.5703125,-11.23046875,0.0
478.49609375,-27.83203125,-38.0859375,-34.1796875,-168.45703125,-31.73828125,0.0
478.5,58.59375,-14.6484375,-61.03515625,-161.1328125,-85.9375,0.0
478.50390625,53.22265625,-17.578125,-77.1484375,-196.77734375,-30.76171875,0.0
478.5078125,-24.90234375,-29.78515625,-31.73828125,-208.49609375,-33.69140625,0.0
478.51171875,-34.66796875,-27.83203125,-43.9453125,-215.33203125,-81.54296875,0.0
478.515625,-30.2734375,-24.90234375,-34.66796875,-207.03125,-30.2734375,0.0
478.51953125,-21.484375,-38.57421875,-5.37109375,-189.94140625,21.484375,0.0
478.5234375,-34.66796875,-50.78125,-35.64453125,-213.8671875,-27.83203125,0.0
478.52734375,-30.76171875,-37.59765625,-8.7890625,-202.63671875,-82.03125,0.0
478.53125,-8.30078125,-29.296875,-12.20703125,-185.546875,-51.26953125,0.0
478.53515625,-23.92578125,-32.71484375,-44.43359375,-181.640625,25.87890625,0.0
478.5390625,-27.83203125,-27.34375,-12.6953125,-161.62109375,54.19921875,0.0
478.54296875,23.92578125,-18.5546875,-12.20703125,-157.71484375,8.7890625,0.0
478.546875,-18.5546875,-26.85546875,-21.484375,-165.0390625,13.18359375,0.0
478.55078125,-57.12890625,-32.2265625,-25.87890625,-127.9296875,41.9921875,0.0
478.5546875,-11.23046875,-18.06640625,-19.04296875,-92.28515625,0.48828125,0.0
478.55859375,-29.296875,-24.90234375,-18.06640625,-123.046875,60.546875,0.0
478.5625,-0.9765625,-25.87890625,-14.6484375,-97.65625,102.5390625,0.0
478.56640625,9.27734375,-19.04296875,-4.39453125,-42.48046875,15.625,0.0
478.5703125,-32.71484375,-23.4375,-39.55078125,-33.69140625,-57.12890625,0.0
478.57421875,-61.03515625,-35.64453125,-48.33984375,-34.66796875,-65.4296875,0.0
478.578125,-63.96484375,-37.109375,-21.97265625,28.3203125,-56.640625,0.0
478.58203125,-44.43359375,-32.2265625,-21.484375,32.2265625,-82.03125,0.0
478.5859375,-24.4140625,-41.50390625,-23.92578125,-42.48046875,-59.5703125,0.0
478.58984375,6.34765625,-38.57421875,-32.2265625,-55.6640625,-41.015625,0.0
478.59375,26.3671875,-27.34375,-31.25,-17.578125,-10.25390625,0.0
478.59765625,19.04296875,-23.4375,-20.99609375,-33.69140625,-32.2265625,0.0
478.6015625,19.53125,-39.0625,-11.23046875,-68.359375,-25.390625,0.0
478.60546875,-30.76171875,-36.62109375,-31.25,-37.109375,32.2265625,0.0
478.609375,-82.03125,-29.296875,-56.640625,-53.22265625,24.4140625,0.0
478.61328125,-44.921875,-43.9453125,-89.84375,-48.828125,19.53125,0.0
478.6171875,-14.6484375,-42.96875,-62.5,-26.3671875,-47.36328125,0.0
478.62109375,11.23046875,-52.24609375,-9.27734375,-26.3671875,-48.33984375,0.0
478.625,-19.04296875,-65.4296875,-19.04296875,-19.04296875,32.71484375,0.0
478.62890625,-33.69140625,-42.96875,-25.390625,-16.11328125,24.90234375,0.0
478.6328125,21.484375,-24.90234375,-30.76171875,-41.9921875,19.53125,0.0
478.63671875,12.20703125,-21.97265625,-43.45703125,-58.59375,-43.45703125,0.0
478.640625,-32.71484375,-35.64453125,-28.80859375,-103.515625,-113.76953125,0.0
478.64453125,-29.296875,-28.80859375,-46.875,-87.890625,-127.9296875,0.0
478.6484375,51.7578125,-24.4140625,-41.015625,-32.71484375,-130.37109375,0.0
478.65234375,37.59765625,-33.69140625,-10.25390625,-62.01171875,-121.58203125,0.0
478.65625,-87.890625,-42.48046875,-6.34765625,-62.98828125,-56.640625,0.0
478.66015625,-85.44921875,-43.9453125,-1.953125,10.7421875,24.4140625,0.0
478.6640625,-9.27734375,-34.66796875,-14.6484375,24.90234375,-54.6875,0.0
478.66796875,36.1328125,-32.2265625,-42.48046875,16.6015625,-120.60546875,0.0
478.671875,45.8984375,-23.92578125,-44.921875,102.05078125,-94.7265625,0.0
478.67578125,45.8984375,-22.94921875,-26.85546875,139.6484375,-59.5703125,0.0
478.6796875,39.0625,-42.48046875,-20.01953125,133.30078125,1.953125,0.0
478.68359375,1.953125,-41.015625,-32.71484375,139.6484375,-22.94921875,0.0
478.6875,55.17578125,-39.0625,-43.9453125,183.10546875,-47.36328125,0.0
478.69140625,151.85546875,-27.83203125,-38.57421875,175.78125,22.4609375,0.0
478.6953125,104.4921875,-19.53125,-34.66796875,134.765625,16.6015625,0.0
478.69921875,100.5859375,-30.2734375,-15.13671875,113.28125,-45.8984375,0.0
478.703125,104.98046875,-41.015625,-16.6015625,91.30859375,4.8828125,0.0
478.70703125,144.53125,-30.2734375,-20.5078125,79.1015625,0.9765625,0.0
478.7109375,169.921875,-32.71484375,-32.2265625,96.19140625,3.90625,0.0
478.71484375,116.2109375,-52.24609375,-35.15625,120.60546875,-0.9765625,0.0
478.71875,133.7890625,-37.59765625,-21.484375,121.58203125,-68.359375,0.0
478.72265625,112.3046875,-47.36328125,-43.9453125,125.9765625,-83.984375,0.0
478.7265625,69.3359375,-58.10546875,-58.10546875,109.375,-70.3125,0.0
478.73046875,148.92578125,-47.36328125,-22.94921875,118.1640625,12.6953125,0.0
478.734375,131.8359375,-35.64453125,-16.6015625,149.4140625,130.37109375,0.0
478.73828125,91.796875,-19.04296875,-18.5546875,143.5546875,43.45703125,0.0
478.7421875,70.3125,-22.94921875,-38.0859375,130.859375,-94.7265625,0.0
478.74609375,24.90234375,-36.1328125,-40.0390625,113.28125,-71.77734375,0.0
478.75,35.64453125,-27.34375,-23.92578125,113.76953125,-80.078125,0.0
478.75390625,29.296875,-21.97265625,-26.85546875,97.16796875,-64.94140625,0.0
478.7578125,36.1328125,-33.203125,-28.3203125,104.98046875,-84.9609375,0.0
478.76171875,86.9140625,-27.83203125,-45.8984375,143.5546875,-97.65625,0.0
478.765625,55.6640625,-41.50390625,-52.24609375,174.31640625,-54.6875,0.0
478.76953125,19.53125,-52.734375,-36.1328125,220.21484375,-117.1875,0.0
478.7734375,-0.9765625,-46.875,-26.85546875,228.02734375,-78.61328125,0.0
478.77734375,28.3203125,-53.22265625,-40.0390625,199.21875,58.10546875,0.0
478.78125,97.16796875,-53.7109375,-34.1796875,206.54296875,49.31640625,0.0
478.78515625,53.22265625,-58.59375,-47.36328125,230.46875,58.59375,0.0
478.7890625,29.296875,-70.3125,-57.12890625,235.3515625,114.2578125,0.0
478.79296875,66.89453125,-70.80078125,-73.73046875,225.09765625,-18.06640625,0.0
478.796875,111.81640625,-67.3828125,-95.703125,225.5859375,-51.26953125,0.0
478.80078125,63.96484375,-73.73046875,-42.48046875,238.28125,-5.859375,0.0
478.8046875,65.91796875,-82.51953125,3.41796875,220.703125,-15.13671875,0.0
478.80859375,68.359375,-61.03515625,0.0,140.625,-38.0859375,0.0
478.8125,-68.359375,-71.77734375,-12.20703125,94.7265625,-56.640625,0.0
478.81640625,-78.125,-67.3828125,22.4609375,144.53125,-60.546875,0.0
478.8203125,26.85546875,-44.43359375,3.90625,218.75,-72.75390625,0.0
478.82421875,126.953125,-66.89453125,-18.06640625,177.734375,-26.3671875,0.0
478.828125,84.9609375,-56.15234375,12.20703125,135.25390625,-13.18359375,0.0
478.83203125,-74.70703125,-61.5234375,-19.04296875,117.1875,-26.3671875,0.0
478.8359375,-88.8671875,-63.4765625,-23.4375,116.69921875,2.44140625,0.0
478.83984375,-4.39453125,-49.31640625,-4.8828125,165.0390625,17.578125,0.0
478.84375,33.69140625,-59.5703125,-37.59765625,135.25390625,-17.578125,0.0
478.84765625,0.0,-61.5234375,-26.85546875,76.171875,-8.7890625,0.0
478.8515625,13.671875,-64.94140625,-20.99609375,102.5390625,45.41015625,0.0
478.85546875,56.15234375,-78.125,-44.921875,88.8671875,-28.80859375,0.0
478.859375,52.734375,-76.66015625,-38.57421875,87.890625,-104.98046875,0.0
478.86328125,13.18359375,-63.4765625,-18.5546875,83.0078125,-48.828125,0.0
478.8671875,76.66015625,-69.82421875,-16.6015625,101.07421875,-22.4609375,0.0
478.87109375,118.65234375,-53.7109375,-43.45703125,114.74609375,-19.53125,0.0
478.875,43.45703125,-37.109375,-58.10546875,127.44140625,-2.9296875,0.0
478.87890625,70.80078125,-36.1328125,-90.8203125,143.06640625,-18.5546875,0.0
478.8828125,58.10546875,-31.73828125,-79.1015625,163.0859375,-5.859375,0.0
478.88671875,92.28515625,-30.2734375,-1.46484375,197.75390625,-13.18359375,0.0
478.890625,136.23046875,-29.296875,20.01953125,193.359375,-54.19921875,0.0
478.89453125,107.421875,-17.08984375,16.11328125,221.19140625,-24.90234375,0.0
478.8984375,88.37890625,-27.83203125,-36.62109375,226.07421875,19.04296875,0.0
478.90234375,86.9140625,-28.80859375,-90.8203125,191.89453125,-12.20703125,0.0
478.90625,80.078125,-20.99609375,-75.68359375,177.734375,-41.9921875,0.0
478.91015625,94.23828125,-49.31640625,-34.66796875,140.625,-65.4296875,0.0
478.9140625,117.1875,-29.78515625,-17.08984375,119.62890625,-31.25,0.0
478.91796875,133.30078125,-25.87890625,-39.55078125,102.05078125,-45.41015625,0.0
478.921875,138.18359375,-34.66796875,-49.31640625,107.421875,-48.33984375,0.0
478.92578125,106.4453125,-13.671875,-24.90234375,136.71875,-33.203125,0.0
478.9296875,88.8671875,-20.5078125,-11.23046875,113.76953125,-112.79296875,0.0
478.93359375,68.84765625,-39.55078125,-59.5703125,100.09765625,-30.76171875,0.0
478.9375,108.3984375,-29.78515625,-52.734375,105.95703125,0.0,0.0
478.94140625,138.671875,-7.8125,-20.01953125,57.6171875,-65.91796875,0.0
478.9453125,105.46875,-5.859375,-55.17578125,7.8125,-42.48046875,0.0
478.94921875,142.578125,-4.8828125,-75.1953125,10.25390625,-37.59765625,0.0
478.953125,136.23046875,-17.578125,-20.01953125,65.4296875,-77.1484375,0.0
478.95703125,78.125,-26.85546875,-7.32421875,102.5390625,-44.43359375,0.0
478.9609375,54.19921875,-18.5546875,-40.52734375,109.86328125,-14.16015625,0.0
478.96484375,82.03125,-33.69140625,-55.6640625,79.58984375,-65.4296875,0.0
478.96875,88.37890625,-45.41015625,-60.546875,74.70703125,-95.21484375,0.0
478.97265625,76.171875,-60.546875,-85.9375,54.19921875,-67.87109375,0.0
478.9765625,82.51953125,-83.0078125,-65.91796875,24.90234375,-58.59375,0.0
478.98046875,68.84765625,-72.75390625,-76.66015625,14.6484375,-35.64453125,0.0
478.984375,24.90234375,-83.984375,-65.4296875,44.921875,-6.8359375,0.0
478.98828125,6.8359375,-102.5390625,-87.40234375,87.890625,-26.3671875,0.0
478.9921875,66.89453125,-31.25,-119.140625,45.41015625,-96.19140625,0.0
478.99609375,37.109375,-9.27734375,-53.7109375,-4.8828125,-158.69140625,0.0
479.0,-8.7890625,-64.94140625,-47.8515625,0.48828125,-191.40625,0.0
479.00390625,-6.8359375,-70.80078125,-85.9375,-22.4609375,-83.49609375,0.0
479.0078125,52.24609375,-20.5078125,-78.61328125,47.36328125,95.21484375,0.0
479.01171875,121.58203125,4.8828125,-2.9296875,100.5859375,55.6640625,0.0
479.015625,38.0859375,-48.33984375,20.01953125,2.44140625,-7.8125,0.0
479.01953125,-57.12890625,-92.28515625,-46.875,-5.37109375,10.7421875,0.0
479.0234375,-64.453125,-82.03125,-96.6796875,46.38671875,-115.234375,0.0
479.02734375,-30.2734375,-62.5,-67.87109375,94.23828125,-139.16015625,0.0
479.03125,34.66796875,-42.96875,-61.5234375,82.03125,-27.83203125,0.0
479.03515625,22.94921875,-46.38671875,-102.05078125,69.82421875,-17.578125,0.0
479.0390625,9.27734375,-49.8046875,-67.87109375,73.73046875,-47.8515625,0.0
479.04296875,-55.17578125,-77.1484375,-59.5703125,67.3828125,-55.6640625,0.0
479.046875,-70.80078125,-83.984375,-82.51953125,79.58984375,21.484375,0.0
479.05078125,-34.66796875,-49.31640625,-48.828125,86.9140625,25.390625,0.0
479.0546875,2.9296875,-39.55078125,-33.69140625,86.9140625,-4.8828125,0.0
479.05859375,20.01953125,-30.76171875,-78.125,76.66015625,-0.48828125,0.0
479.0625,6.8359375,-20.5078125,-70.80078125,116.69921875,1.953125,0.0
479.06640625,41.015625,-43.45703125,-22.4609375,106.93359375,-7.32421875,0.0
479.0703125,-28.80859375,-69.82421875,-64.94140625,39.0625,-13.18359375,0.0
479.07421875,-99.12109375,-69.82421875,-69.3359375,75.1953125,77.63671875,0.0
479.078125,19.53125,-47.8515625,-54.19921875,106.93359375,122.55859375,0.0
479.08203125,65.4296875,-51.7578125,-41.9921875,70.3125,26.85546875,0.0
479.0859375,-5.859375,-50.78125,-47.8515625,86.9140625,-71.77734375,0.0
479.08984375,15.13671875,-29.78515625,-122.55859375,113.28125,-112.79296875,0.0
479.09375,49.31640625,-33.203125,-69.82421875,87.890625,-53.7109375,0.0
479.09765625,20.5078125,-37.109375,1.953125,78.125,-9.27734375,0.0
479.1015625,-1.46484375,-42.48046875,-17.08984375,64.94140625,-28.80859375,0.0
479.10546875,8.7890625,-42.96875,-59.08203125,87.890625,-45.41015625,0.0
479.109375,66.40625,-36.1328125,-67.3828125,107.91015625,-36.62109375,0.0
479.11328125,53.7109375,-28.3203125,-31.25,115.234375,-13.18359375,0.0
479.1171875,0.0,-48.33984375,-58.10546875,98.14453125,-42.48046875,0.0
479.12109375,-28.80859375,-62.01171875,-51.7578125,131.34765625,-183.10546875,0.0
479.125,0.0,-42.96875,-3.41796875,143.5546875,-205.078125,0.0
479.12890625,64.94140625,-20.99609375,-28.80859375,154.296875,-148.92578125,0.0
479.1328125,58.10546875,-1.46484375,-54.19921875,236.328125,-206.54296875,0.0
479.13671875,2.44140625,-18.06640625,-12.6953125,159.1796875,-182.12890625,0.0
479.140625,-38.0859375,-40.0390625,9.27734375,103.515625,-89.84375,0.0
479.14453125,-63.4765625,-43.9453125,-20.5078125,80.078125,-100.5859375,0.0
479.1484375,-86.42578125,-54.6875,-26.3671875,95.21484375,-92.7734375,0.0
479.15234375,-37.59765625,-53.7109375,-43.45703125,165.52734375,11.71875,0.0
479.15625,20.99609375,-24.90234375,-66.89453125,194.82421875,-43.45703125,0.0
479.16015625,-4.39453125,-6.34765625,-29.296875,215.8203125,-129.39453125,0.0
479.1640625,-43.45703125,-22.4609375,-63.4765625,285.15625,-56.15234375,0.0
479.16796875,-4.8828125,-27.83203125,-52.734375,350.5859375,-46.875,0.0
479.171875,40.52734375,-42.48046875,0.9765625,458.0078125,-34.66796875,0.0
479.17578125,73.2421875,-48.33984375,-8.7890625,602.05078125,-57.6171875,0.0
479.1796875,83.0078125,-40.52734375,-37.59765625,589.35546875,-150.390625,0.0
479.18359375,18.5546875,-54.6875,-41.50390625,593.75,-140.625,0.0
479.1875,20.99609375,-55.6640625,-74.21875,637.20703125,0.48828125,0.0
479.19140625,109.86328125,-43.9453125,-91.796875,625.48828125,66.40625,0.0
479.1953125,83.0078125,-11.71875,-10.7421875,613.28125,-6.34765625,0.0
479.19921875,92.7734375,-12.20703125,6.34765625,604.4921875,36.1328125,0.0
479.203125,148.92578125,-37.59765625,-16.6015625,594.23828125,78.125,0.0
479.20703125,184.08203125,-6.8359375,-16.11328125,646.97265625,8.30078125,0.0
479.2109375,192.3828125,3.41796875,3.41796875,622.0703125,-21.484375,0.0
479.21484375,113.28125,-24.90234375,42.48046875,480.95703125,56.15234375,0.0
479.21875,193.84765625,5.859375,47.8515625,478.515625,21.484375,0.0
479.22265625,198.2421875,10.25390625,11.71875,490.234375,20.5078125,0.0
479.2265625,53.22265625,-3.41796875,-8.7890625,437.01171875,88.37890625,0.0
479.23046875,127.44140625,5.859375,2.44140625,296.38671875,60.546875,0.0
479.234375,165.0390625,-16.11328125,-10.25390625,166.015625,71.77734375,0.0
479.23828125,96.19140625,-9.27734375,1.46484375,165.0390625,115.234375,0.0
479.2421875,129.8828125,7.8125,-1.46484375,187.98828125,64.94140625,0.0
479.24609375,138.18359375,11.23046875,-15.625,182.6171875,-36.62109375,0.0
479.25,85.44921875,-21.97265625,20.01953125,191.40625,26.3671875,0.0
479.25390625,46.875,-41.015625,20.99609375,133.30078125,39.0625,0.0
479.2578125,71.2890625,0.0,20.5078125,122.0703125,-37.109375,0.0
479.26171875,126.46484375,11.71875,13.18359375,151.85546875,-66.89453125,0.0
479.265625,115.234375,7.8125,-1.46484375,152.83203125,-74.21875,0.0
479.26953125,125.48828125,-16.11328125,-26.3671875,152.34375,-35.64453125,0.0
479.2734375,152.83203125,-17.08984375,-2.44140625,147.94921875,-14.6484375,0.0
479.27734375,83.0078125,-0.9765625,21.97265625,134.765625,-43.9453125,0.0
479.28125,75.1953125,-20.01953125,-2.9296875,129.8828125,-35.64453125,0.0
479.28515625,75.1953125,-41.015625,-14.6484375,155.2734375,25.390625,0.0
479.2890625,-4.8828125,-49.31640625,-18.5546875,89.35546875,10.25390625,0.0
479.29296875,12.20703125,-21.97265625,-25.390625,112.79296875,-5.859375,0.0
479.296875,137.20703125,1.953125,-1.953125,160.64453125,-43.9453125,0.0
479.30078125,83.984375,-33.203125,3.90625,165.0390625,-80.078125,0.0
479.3046875,35.64453125,-47.8515625,-21.97265625,167.48046875,-9.765625,0.0
479.30859375,106.93359375,-5.859375,-9.765625,151.85546875,22.94921875,0.0
479.3125,-13.18359375,-41.015625,-53.22265625,150.87890625,11.71875,0.0
479.31640625,27.83203125,-76.171875,-79.58984375,151.85546875,-16.11328125,0.0
479.3203125,51.26953125,-60.05859375,-18.06640625,196.2890625,-44.921875,0.0
479.32421875,-88.37890625,-37.109375,19.04296875,239.2578125,-18.06640625,0.0
479.328125,-55.6640625,-18.5546875,33.69140625,280.76171875,-63.4765625,0.0
479.33203125,6.8359375,11.71875,1.953125,258.30078125,-31.25,0.0
479.3359375,-38.57421875,9.765625,-32.71484375,239.2578125,-16.11328125,0.0
479.33984375,28.80859375,22.94921875,41.015625,272.94921875,-59.08203125,0.0
479.34375,94.23828125,13.671875,72.265625,274.4140625,-21.484375,0.0
479.34765625,69.3359375,-23.4375,25.87890625,232.91015625,-0.48828125,0.0
479.3515625,73.73046875,-22.4609375,34.1796875,226.5625,14.6484375,0.0
479.35546875,86.42578125,-13.671875,27.34375,240.72265625,-35.15625,0.0
479.359375,160.64453125,-9.765625,14.6484375,65.4296875,-70.3125,0.0
479.36328125,179.19921875,6.34765625,14.6484375,-21.484375,-64.94140625,0.0
479.3671875,173.828125,-16.11328125,2.44140625,3.41796875,-18.5546875,0.0
479.37109375,135.25390625,-14.6484375,1.46484375,27.83203125,-7.32421875,0.0
479.375,-7.8125,7.8125,7.32421875,67.87109375,-13.671875,0.0
479.37890625,72.75390625,-2.9296875,41.015625,51.26953125,81.0546875,0.0
479.3828125,179.6875,4.39453125,10.25390625,107.91015625,9.765625,0.0
479.38671875,155.2734375,-8.7890625,29.78515625,208.984375,-154.296875,0.0
479.390625,90.33203125,-5.859375,93.75,210.9375,-83.984375,0.0
479.39453125,66.40625,-15.13671875,47.8515625,103.02734375,20.99609375,0.0
479.3984375,69.82421875,-21.97265625,0.0,98.14453125,21.484375,0.0
479.40234375,87.40234375,-1.953125,9.765625,140.625,-34.66796875,0.0
479.40625,80.56640625,-0.48828125,32.71484375,121.58203125,-130.37109375,0.0
479.41015625,183.59375,-8.7890625,47.8515625,106.93359375,-157.2265625,0.0
479.4140625,234.86328125,0.9765625,35.15625,148.92578125,-113.28125,0.0
479.41796875,51.26953125,-12.6953125,6.8359375,174.31640625,51.26953125,0.0
479.421875,69.3359375,-41.015625,-2.9296875,118.1640625,98.6328125,0.0
479.42578125,191.89453125,-50.29296875,1.953125,104.98046875,-1.46484375,0.0
479.4296875,152.83203125,-49.8046875,45.8984375,178.22265625,-64.453125,0.0
479.43359375,90.8203125,-35.15625,7.32421875,302.24609375,-99.12109375,0.0
479.4375,257.8125,-13.18359375,-30.76171875,292.48046875,-5.859375,0.0
479.44140625,303.22265625,2.9296875,56.15234375,250.48828125,32.2265625,0.0
479.4453125,238.28125,-28.3203125,83.984375,242.1875,5.859375,0.0
479.44921875,201.171875,-51.7578125,41.015625,220.703125,-3.41796875,0.0
479.453125,148.4375,-31.73828125,-20.99609375,229.00390625,-16.6015625,0.0
479.45703125,186.5234375,-30.76171875,-31.73828125,273.4375,32.2265625,0.0
479.4609375,248.53515625,-69.3359375,19.53125,348.6328125,32.71484375,0.0
479.46484375,239.74609375,-59.5703125,22.4609375,353.515625,-6.34765625,0.0
479.46875,145.01953125,-14.16015625,30.76171875,389.6484375,20.5078125,0.0
479.47265625,164.55078125,-19.04296875,21.97265625,390.625,15.13671875,0.0
479.4765625,195.80078125,-39.55078125,28.3203125,372.55859375,-11.23046875,0.0
479.48046875,195.80078125,-15.13671875,38.0859375,367.67578125,13.18359375,0.0
479.484375,113.28125,-14.6484375,-6.8359375,402.83203125,-9.765625,0.0
479.48828125,32.71484375,1.46484375,15.13671875,442.87109375,29.78515625,0.0
479.4921875,188.96484375,27.34375,20.99609375,457.03125,49.8046875,0.0
479.49609375,89.84375,-17.578125,21.97265625,512.20703125,-13.671875,0.0
479.5,9.27734375,-41.9921875,60.05859375,515.625,31.73828125,0.0
479.50390625,103.02734375,-10.7421875,14.6484375,447.265625,23.4375,0.0
479.5078125,152.34375,-3.41796875,-10.25390625,455.56640625,-14.6484375,0.0
479.51171875,207.51953125,31.73828125,60.546875,515.625,-72.75390625,0.0
479.515625,59.08203125,5.859375,61.03515625,425.78125,-64.94140625,0.0
479.51953125,63.4765625,-29.78515625,36.62109375,344.23828125,-30.2734375,0.0
479.5234375,104.98046875,-17.578125,2.44140625,349.12109375,-20.99609375,0.0
479.52734375,162.109375,-31.73828125,-29.296875,346.6796875,20.99609375,0.0
479.53125,110.3515625,-24.90234375,33.203125,369.140625,-6.34765625,0.0
479.53515625,57.6171875,-10.25390625,39.0625,246.58203125,-87.40234375,0.0
479.5390625,146.97265625,-23.4375,-4.8828125,-64.94140625,-65.91796875,0.0
479.54296875,192.3828125,-50.29296875,-2.9296875,-123.046875,18.06640625,0.0
479.546875,153.80859375,-15.13671875,41.50390625,-38.0859375,-32.2265625,0.0
479.55078125,90.33203125,-19.04296875,71.77734375,14.6484375,-38.57421875,0.0
479.5546875,115.234375,-22.94921875,81.54296875,134.765625,-29.296875,0.0
479.55859375,172.36328125,19.53125,14.16015625,164.55078125,-21.484375,0.0
479.5625,117.67578125,-19.53125,-37.109375,189.453125,29.296875,0.0
479.56640625,2.9296875,-22.4609375,35.15625,159.1796875,-35.64453125,0.0
479.5703125,50.78125,19.53125,39.0625,102.5390625,-83.49609375,0.0
479.57421875,104.00390625,-1.953125,32.2265625,69.82421875,-26.85546875,0.0
479.578125,61.5234375,-26.3671875,33.203125,35.64453125,47.8515625,0.0
479.58203125,52.24609375,-24.4140625,24.90234375,145.99609375,56.15234375,0.0
479.5859375,20.01953125,-10.25390625,47.8515625,200.68359375,-114.74609375,0.0
479.58984375,-69.82421875,-13.18359375,40.52734375,178.22265625,-215.33203125,0.0
479.59375,34.1796875,-41.9921875,27.83203125,203.61328125,-211.42578125,0.0
479.59765625,67.87109375,-18.06640625,21.97265625,298.33984375,-226.07421875,0.0
479.6015625,-45.8984375,-7.32421875,-44.921875,325.1953125,-178.22265625,0.0
479.60546875,-75.68359375,-34.66796875,-16.6015625,302.24609375,-79.58984375,0.0
479.609375,-37.59765625,-12.6953125,77.63671875,364.2578125,7.32421875,0.0
479.61328125,38.57421875,-18.06640625,51.26953125,333.49609375,-4.39453125,0.0
479.6171875,32.71484375,-33.203125,30.2734375,352.05078125,-20.01953125,0.0
479.62109375,-75.68359375,-16.6015625,20.5078125,374.0234375,-29.296875,0.0
479.625,-8.30078125,-34.1796875,12.20703125,353.02734375,-51.7578125,0.0
479.62890625,23.4375,-44.921875,14.16015625,269.53125,-27.83203125,0.0
479.6328125,19.53125,-13.18359375,2.9296875,122.55859375,65.4296875,0.0
479.63671875,-7.8125,-22.94921875,38.0859375,65.91796875,119.140625,0.0
479.640625,-27.83203125,-18.06640625,58.59375,8.7890625,64.94140625,0.0
479.64453125,9.765625,0.48828125,29.78515625,-20.5078125,67.3828125,0.0
479.6484375,-53.22265625,-0.9765625,13.671875,-58.59375,59.08203125,0.0
479.65234375,-51.7578125,-4.39453125,40.52734375,-144.04296875,63.4765625,0.0
479.65625,-54.19921875,-15.625,62.98828125,-90.8203125,43.45703125,0.0
479.66015625,-36.62109375,-16.6015625,30.2734375,-91.796875,21.97265625,0.0
479.6640625,60.546875,-4.8828125,62.5,-99.609375,79.58984375,0.0
479.66796875,-8.30078125,24.4140625,99.12109375,10.7421875,46.875,0.0
479.671875,-21.484375,22.94921875,63.96484375,-41.015625,11.71875,0.0
479.67578125,-3.41796875,-5.37109375,66.40625,-104.00390625,59.08203125,0.0
479.6796875,-92.28515625,-7.32421875,42.96875,-104.4921875,31.25,0.0
479.68359375,-37.59765625,-3.90625,-5.37109375,-67.87109375,-22.4609375,0.0
479.6875,60.546875,-3.41796875,38.57421875,7.32421875,-66.40625,0.0
479.69140625,3.90625,-16.6015625,63.96484375,-2.9296875,-24.90234375,0.0
479.6953125,-74.70703125,-20.5078125,16.11328125,4.8828125,34.1796875,0.0
479.69921875,78.61328125,-3.41796875,8.30078125,22.94921875,10.25390625,0.0
479.703125,131.8359375,-14.6484375,33.69140625,49.8046875,-68.84765625,0.0
479.70703125,19.04296875,-20.5078125,23.92578125,58.59375,-71.77734375,0.0
479.7109375,29.78515625,5.859375,70.3125,97.16796875,-31.25,0.0
479.71484375,55.6640625,15.625,82.51953125,151.3671875,-74.70703125,0.0
479.71875,5.859375,-7.32421875,57.12890625,179.6875,-44.921875,0.0
479.72265625,-2.9296875,-33.69140625,28.80859375,185.05859375,52.734375,0.0
479.7265625,67.3828125,14.16015625,39.0625,206.54296875,48.828125,0.0
479.73046875,71.77734375,42.48046875,83.984375,178.7109375,72.75390625,0.0
479.734375,0.9765625,13.671875,40.0390625,123.046875,83.49609375,0.0
479.73828125,40.0390625,13.671875,33.69140625,163.57421875,25.87890625,0.0
479.7421875,-43.45703125,-2.9296875,77.1484375,134.27734375,-24.90234375,0.0
479.74609375,14.16015625,5.859375,76.171875,118.65234375,-72.265625,0.0
479.75,90.33203125,40.52734375,56.15234375,182.12890625,-62.01171875,0.0
479.75390625,-40.0390625,11.71875,52.24609375,208.984375,-82.03125,0.0
479.7578125,-54.6875,-17.08984375,81.0546875,229.00390625,-108.3984375,0.0
479.76171875,-21.97265625,24.4140625,65.91796875,233.88671875,-78.61328125,0.0
479.765625,56.15234375,68.84765625,82.03125,249.0234375,-28.80859375,0.0
479.76953125,79.1015625,41.50390625,81.0546875,292.48046875,-71.77734375,0.0
479.7734375,-1.953125,-1.46484375,32.2265625,299.31640625,-118.65234375,0.0
479.77734375,17.578125,-0.9765625,89.35546875,274.90234375,-54.19921875,0.0
479.78125,15.13671875,38.57421875,115.234375,376.953125,-1.953125,0.0
479.78515625,-32.2265625,37.109375,83.49609375,375.48828125,-99.12109375,0.0
479.7890625,-55.6640625,-8.7890625,69.82421875,292.48046875,-78.125,0.0
479.79296875,18.06640625,27.34375,81.0546875,340.8203125,17.08984375,0.0
479.796875,20.01953125,56.640625,81.54296875,352.5390625,4.8828125,0.0
479.80078125,-46.38671875,-13.671875,69.3359375,304.6875,18.06640625,0.0
479.8046875,-33.203125,-24.4140625,43.9453125,287.109375,2.9296875,0.0
479.80859375,9.765625,-1.46484375,50.78125,236.328125,-53.22265625,0.0
479.8125,29.78515625,12.6953125,55.17578125,223.6328125,-113.76953125,0.0
479.81640625,-57.12890625,17.08984375,28.3203125,215.8203125,-45.41015625,0.0
479.8203125,-83.49609375,-41.9921875,58.59375,117.67578125,42.96875,0.0
479.82421875,-82.51953125,-26.3671875,42.96875,107.421875,57.12890625,0.0
479.828125,-70.3125,-6.8359375,22.94921875,98.14453125,29.296875,0.0
479.83203125,-1.953125,-17.08984375,68.84765625,71.2890625,-32.71484375,0.0
479.8359375,22.4609375,-22.94921875,56.15234375,91.30859375,-112.79296875,0.0
479.83984375,-45.41015625,-15.13671875,44.43359375,93.26171875,-75.68359375,0.0
479.84375,-59.5703125,27.34375,73.73046875,106.93359375,-12.6953125,0.0
479.84765625,72.265625,41.9921875,103.515625,92.7734375,-52.734375,0.0
479.8515625,51.7578125,46.875,100.5859375,76.171875,-86.9140625,0.0
479.85546875,-77.1484375,-0.9765625,69.3359375,60.05859375,-58.59375,0.0
479.859375,-67.87109375,-25.390625,101.5625,8.7890625,6.8359375,0.0
479.86328125,28.3203125,9.27734375,90.8203125,40.0390625,74.21875,0.0
479.8671875,32.71484375,13.671875,90.33203125,102.5390625,69.82421875,0.0
479.87109375,23.4375,21.97265625,124.51171875,112.79296875,3.41796875,0.0
479.875,-27.34375,0.48828125,82.03125,29.296875,4.8828125,0.0
479.87890625,-31.73828125,-14.6484375,23.92578125,37.109375,-54.6875,0.0
479.8828125,11.71875,28.80859375,36.62109375,108.88671875,-69.82421875,0.0
479.88671875,-40.0390625,14.6484375,72.75390625,92.28515625,-0.48828125,0.0
479.890625,-25.390625,-33.203125,121.58203125,86.42578125,3.41796875,0.0
479.89453125,50.78125,-8.30078125,75.68359375,122.55859375,-16.11328125,0.0
479.8984375,9.765625,3.90625,23.92578125,120.1171875,-51.7578125,0.0
479.90234375,-25.87890625,-25.87890625,79.58984375,101.07421875,-93.75,0.0
479.90625,14.6484375,0.48828125,83.49609375,153.80859375,-122.55859375,0.0
479.91015625,-63.96484375,31.73828125,75.68359375,107.421875,-99.609375,0.0
479.9140625,-43.45703125,1.953125,99.609375,89.35546875,-33.69140625,0.0
479.91796875,-73.2421875,19.53125,100.5859375,121.58203125,-6.8359375,0.0
479.921875,-92.7734375,29.296875,90.33203125,121.09375,-1.46484375,0.0
479.92578125,29.296875,27.34375,89.35546875,148.4375,10.25390625,0.0
479.9296875,-18.5546875,12.6953125,52.734375,138.18359375,-34.66796875,0.0
479.93359375,-43.45703125,-24.90234375,28.3203125,123.53515625,-73.73046875,0.0
479.9375,30.76171875,-21.484375,-5.37109375,148.4375,-77.63671875,0.0
479.94140625,45.41015625,8.7890625,12.6953125,207.51953125,-41.015625,0.0
479.9453125,-8.30078125,8.30078125,76.171875,227.5390625,39.0625,0.0
479.94921875,-41.015625,-32.2265625,73.2421875,112.79296875,95.21484375,0.0
479.953125,2.44140625,-24.4140625,78.61328125,111.81640625,62.5,0.0
479.95703125,-92.7734375,-7.8125,26.85546875,233.88671875,71.77734375,0.0
479.9609375,-112.3046875,-16.6015625,25.87890625,211.9140625,63.96484375,0.0
479.96484375,-26.3671875,-19.53125,58.10546875,156.25,-43.45703125,0.0
479.96875,12.6953125,-11.23046875,7.8125,243.1640625,-74.70703125,0.0
479.97265625,38.57421875,17.08984375,31.25,324.21875,-58.59375,0.0
479.9765625,-8.7890625,7.32421875,62.5,278.3203125,-126.46484375,0.0
479.98046875,-29.296875,-48.828125,57.6171875,196.2890625,-88.37890625,0.0
479.984375,-108.3984375,-41.9921875,45.41015625,190.91796875,15.13671875,0.0
479.98828125,-108.88671875,-26.3671875,19.04296875,239.2578125,-25.87890625,0.0
479.9921875,16.11328125,-33.203125,15.13671875,208.0078125,-72.75390625,0.0
479.99609375,5.37109375,-52.734375,35.15625,218.26171875,-59.5703125,0.0
480.0,-67.3828125,-26.3671875,41.50390625,230.46875,-85.9375,0.0
480.00390625,-65.4296875,-8.30078125,44.921875,205.56640625,-96.19140625,0.0
480.0078125,-30.2734375,-21.484375,47.36328125,195.80078125,-1.953125,0.0
480.01171875,26.85546875,16.11328125,7.8125,180.17578125,-8.7890625,0.0
480.015625,-25.390625,29.296875,25.390625,232.91015625,-89.35546875,0.0
480.01953125,-70.80078125,-8.30078125,76.66015625,245.60546875,-99.609375,0.0
480.0234375,24.4140625,-23.92578125,76.171875,216.796875,-46.38671875,0.0
480.02734375,-27.83203125,-11.23046875,72.75390625,198.73046875,-59.08203125,0.0
480.03125,-55.17578125,-7.8125,39.0625,243.1640625,-90.8203125,0.0
480.03515625,-4.39453125,21.484375,-2.44140625,341.796875,-1.46484375,0.0
480.0390625,-23.92578125,7.32421875,-7.8125,365.72265625,32.2265625,0.0
480.04296875,-23.92578125,-0.48828125,76.66015625,327.1484375,-156.25,0.0
480.046875,-9.27734375,1.46484375,118.65234375,333.984375,-280.76171875,0.0
480.05078125,-44.921875,-18.06640625,68.84765625,365.234375,-161.1328125,0.0
480.0546875,-114.2578125,-13.671875,38.57421875,365.72265625,-22.4609375,0.0
480.05859375,-81.54296875,-34.66796875,2.44140625,368.1640625,4.8828125,0.0
480.0625,-75.68359375,-20.99609375,-19.53125,408.69140625,-83.49609375,0.0
480.06640625,-64.453125,-1.46484375,22.94921875,388.671875,-80.078125,0.0
480.0703125,-48.33984375,-8.7890625,37.109375,396.97265625,-4.8828125,0.0
480.07421875,-27.34375,25.87890625,57.12890625,454.1015625,-11.23046875,0.0
480.078125,-4.8828125,22.94921875,80.078125,405.76171875,-96.19140625,0.0
480.08203125,-37.109375,-6.8359375,35.15625,362.79296875,-62.5,0.0
480.0859375,40.52734375,16.6015625,7.8125,367.67578125,22.4609375,0.0
480.08984375,48.828125,18.5546875,60.05859375,366.69921875,-58.10546875,0.0
480.09375,-52.24609375,16.6015625,100.5859375,371.58203125,-36.1328125,0.0
480.09765625,-79.58984375,20.5078125,84.9609375,329.1015625,65.4296875,0.0
480.1015625,31.73828125,1.953125,85.44921875,352.05078125,47.8515625,0.0
480.10546875,39.55078125,-5.859375,39.55078125,385.25390625,-6.8359375,0.0
480.109375,-24.90234375,15.625,32.71484375,363.28125,-50.78125,0.0
480.11328125,-27.34375,11.23046875,27.83203125,363.28125,-58.59375,0.0
480.1171875,5.37109375,20.01953125,36.1328125,373.53515625,-63.4765625,0.0
480.12109375,92.28515625,60.05859375,75.68359375,410.64453125,0.0,0.0
480.125,-21.97265625,46.875,118.65234375,384.27734375,104.4921875,0.0
480.12890625,-55.17578125,9.765625,117.67578125,344.23828125,50.29296875,0.0
480.1328125,-15.13671875,11.23046875,70.3125,388.671875,-50.29296875,0.0
480.13671875,-48.828125,18.06640625,85.44921875,353.515625,-83.0078125,0.0
480.140625,-51.26953125,30.2734375,62.98828125,256.34765625,-20.01953125,0.0
480.14453125,-48.828125,34.66796875,60.546875,350.09765625,53.7109375,0.0
480.1484375,-29.296875,31.73828125,94.7265625,410.15625,60.546875,0.0
480.15234375,-39.55078125,27.83203125,75.1953125,341.796875,42.96875,0.0
480.15625,17.578125,60.05859375,28.3203125,417.48046875,95.703125,0.0
480.16015625,43.45703125,45.8984375,68.84765625,436.03515625,97.65625,0.0
480.1640625,-36.62109375,-7.32421875,109.375,324.21875,-37.59765625,0.0
480.16796875,-79.58984375,32.71484375,75.1953125,325.68359375,-62.01171875,0.0
480.171875,-98.6328125,28.80859375,98.14453125,400.87890625,35.64453125,0.0
480.17578125,-3.41796875,26.3671875,96.19140625,393.5546875,41.50390625,0.0
480.1796875,-2.9296875,59.08203125,79.58984375,324.70703125,-33.69140625,0.0
480.18359375,-151.85546875,50.29296875,119.140625,328.125,-66.40625,0.0
480.1875,-41.9921875,15.13671875,77.1484375,371.09375,-52.24609375,0.0
480.19140625,-25.87890625,26.85546875,33.69140625,312.5,-11.23046875,0.0
480.1953125,-123.53515625,41.015625,78.61328125,390.13671875,-68.359375,0.0
480.19921875,-106.4453125,42.96875,54.6875,446.77734375,-83.984375,0.0
480.203125,51.26953125,58.59375,34.1796875,322.265625,25.87890625,0.0
480.20703125,-29.78515625,33.69140625,93.26171875,310.05859375,46.875,0.0
480.2109375,-126.953125,15.625,105.95703125,352.5390625,3.90625,0.0
480.21484375,-36.1328125,19.53125,78.61328125,360.83984375,15.13671875,0.0
480.21875,-50.78125,26.85546875,79.1015625,336.9140625,-20.01953125,0.0
480.22265625,-38.57421875,33.203125,71.77734375,386.71875,-80.56640625,0.0
480.2265625,10.25390625,31.25,82.51953125,386.23046875,-97.16796875,0.0
480.23046875,15.625,47.36328125,78.61328125,371.58203125,-113.28125,0.0
480.234375,-47.36328125,31.73828125,52.24609375,404.296875,-41.015625,0.0
480.23828125,-20.99609375,20.01953125,52.24609375,378.90625,36.1328125,0.0
480.2421875,-94.7265625,13.671875,77.63671875,291.50390625,35.64453125,0.0
480.24609375,-62.01171875,35.64453125,93.75,317.87109375,-30.76171875,0.0
480.25,45.41015625,66.89453125,56.15234375,354.4921875,42.96875,0.0
480.25390625,29.78515625,56.15234375,108.3984375,388.18359375,66.89453125,0.0
480.2578125,-60.05859375,24.90234375,118.65234375,312.5,-60.05859375,0.0
480.26171875,-26.85546875,49.8046875,64.453125,279.78515625,-151.85546875,0.0
480.265625,43.45703125,53.22265625,44.43359375,393.06640625,-125.48828125,0.0
480.26953125,-0.48828125,17.578125,62.98828125,399.90234375,-23.4375,0.0
480.2734375,-26.85546875,42.48046875,79.1015625,424.8046875,-36.62109375,0.0
480.27734375,-62.98828125,40.52734375,48.33984375,423.828125,-121.09375,0.0
480.28125,-9.765625,15.625,95.703125,380.37109375,-165.0390625,0.0
480.28515625,16.6015625,20.99609375,118.1640625,387.6953125,-161.1328125,0.0
480.2890625,-59.5703125,47.36328125,65.91796875,369.62890625,-193.359375,0.0
480.29296875,-67.3828125,40.0390625,96.6796875,535.15625,-198.73046875,0.0
