timestamp,TP9,AF7,AF8,TP10,AUX,Marker,
349.00390625,-18.5546875,-1000.0,-31.25,-22.94921875,-43.9453125,0.0
349.0078125,-26.85546875,-1000.0,-29.296875,-22.4609375,532.71484375,0.0
349.01171875,-31.25,-918.9453125,-46.38671875,-31.73828125,569.82421875,0.0
349.015625,-29.78515625,-1000.0,-47.36328125,-35.15625,383.30078125,0.0
349.01953125,-36.62109375,-273.92578125,-43.9453125,-34.66796875,139.6484375,0.0
349.0234375,-33.69140625,577.63671875,-36.1328125,-25.390625,-358.3984375,0.0
349.02734375,-13.18359375,-763.671875,-25.87890625,-10.25390625,-288.0859375,0.0
349.03125,-9.27734375,-1000.0,-31.25,-11.23046875,489.2578125,0.0
349.03515625,-18.5546875,-648.4375,-29.78515625,-16.6015625,700.1953125,0.0
349.0390625,-29.296875,789.55078125,-23.4375,-26.3671875,314.94140625,0.0
349.04296875,-38.0859375,-933.59375,-34.66796875,-31.25,-145.5078125,0.0
349.046875,-23.92578125,-471.6796875,-24.4140625,-14.16015625,-497.0703125,0.0
349.05078125,-13.671875,-1000.0,-14.6484375,-12.6953125,357.91015625,0.0
349.0546875,-20.5078125,308.10546875,-32.2265625,-27.34375,879.39453125,0.0
349.05859375,-41.9921875,-902.83203125,-48.828125,-60.05859375,405.76171875,0.0
349.0625,-37.109375,902.34375,-33.203125,-46.38671875,41.015625,0.0
349.06640625,-18.06640625,971.19140625,-22.94921875,-9.27734375,-600.5859375,0.0
349.0703125,-23.4375,968.26171875,-31.25,-19.53125,57.6171875,0.0
349.07421875,-30.76171875,968.26171875,-24.4140625,-24.90234375,883.30078125,0.0
349.078125,-33.203125,968.26171875,-20.99609375,-31.25,408.203125,0.0
349.08203125,-28.3203125,968.26171875,-31.25,-33.203125,-80.078125,0.0
349.0859375,-23.4375,968.26171875,-32.71484375,-24.4140625,-750.0,0.0
349.08984375,-20.99609375,967.7734375,-28.80859375,-23.4375,-20.5078125,0.0
349.09375,-19.04296875,968.26171875,-32.2265625,-30.2734375,973.14453125,0.0
349.09765625,-30.2734375,968.26171875,-34.1796875,-41.9921875,603.02734375,0.0
349.1015625,-35.15625,968.26171875,-35.64453125,-40.52734375,178.7109375,0.0
349.10546875,-28.80859375,968.26171875,-31.25,-30.76171875,-512.6953125,0.0
349.109375,-25.87890625,968.26171875,-27.83203125,-26.85546875,-84.47265625,0.0
349.11328125,-31.73828125,968.26171875,-33.69140625,-41.9921875,816.40625,0.0
349.1171875,-41.015625,968.26171875,-37.59765625,-55.17578125,471.6796875,0.0
349.12109375,-39.55078125,968.26171875,-34.66796875,-42.96875,-29.78515625,0.0
349.125,-28.80859375,968.26171875,-33.203125,-25.390625,-693.359375,0.0
349.12890625,-20.5078125,968.26171875,-28.3203125,-16.11328125,-399.4140625,0.0
349.1328125,-6.34765625,968.26171875,-26.3671875,-8.30078125,653.80859375,0.0
349.13671875,4.39453125,968.26171875,-23.92578125,-11.71875,759.765625,0.0
349.140625,-14.16015625,968.26171875,-15.625,-20.5078125,241.2109375,0.0
349.14453125,-33.69140625,968.26171875,-18.5546875,-24.4140625,-449.70703125,0.0
349.1484375,-29.78515625,968.26171875,-20.5078125,-23.4375,-305.17578125,0.0
349.15234375,-21.484375,968.26171875,-22.4609375,-21.97265625,617.67578125,0.0
349.15625,-29.78515625,968.26171875,-26.3671875,-33.203125,715.8203125,0.0
349.16015625,-35.64453125,968.26171875,-29.78515625,-35.15625,271.484375,0.0
349.1640625,-40.0390625,968.26171875,-38.57421875,-33.203125,-425.29296875,0.0
349.16796875,-26.85546875,968.26171875,-31.73828125,-25.390625,-570.3125,0.0
349.171875,-14.6484375,968.75,-22.94921875,-20.01953125,435.05859375,0.0
349.17578125,-37.109375,979.00390625,-26.3671875,-32.71484375,772.4609375,0.0
349.1796875,-43.45703125,883.7890625,-25.87890625,-38.0859375,284.66796875,0.0
349.18359375,-45.8984375,-837.40234375,-23.92578125,-30.76171875,-443.359375,0.0
349.1875,-38.0859375,329.58984375,-24.4140625,-19.53125,-688.4765625,0.0
349.19140625,-19.53125,-510.25390625,-25.390625,-20.99609375,494.140625,0.0
349.1953125,-24.90234375,828.125,-27.34375,-29.296875,815.4296875,0.0
349.19921875,-34.66796875,-997.0703125,-27.34375,-28.80859375,215.33203125,0.0
349.203125,-38.57421875,-937.01171875,-26.3671875,-32.2265625,-326.171875,0.0
349.20703125,-41.015625,80.078125,-27.83203125,-36.1328125,-736.81640625,0.0
349.2109375,-24.4140625,-977.05078125,-22.94921875,-26.85546875,363.76953125,0.0
349.21484375,-8.30078125,517.578125,-23.4375,-9.765625,898.92578125,0.0
349.21875,-26.3671875,-914.0625,-20.99609375,-18.06640625,317.87109375,0.0
349.22265625,-48.828125,985.83984375,-28.80859375,-47.8515625,-208.0078125,0.0
349.2265625,-31.73828125,-75.68359375,-27.83203125,-37.109375,-757.32421875,0.0
349.23046875,-24.90234375,-1000.0,-20.01953125,-23.4375,284.66796875,0.0
349.234375,-25.87890625,12.6953125,-24.4140625,-30.2734375,952.1484375,0.0
349.23828125,-26.3671875,-947.75390625,-34.1796875,-39.0625,356.4453125,0.0
349.2421875,-34.66796875,986.81640625,-28.80859375,-34.66796875,-152.34375,0.0
349.24609375,-32.71484375,-135.25390625,-20.01953125,-21.484375,-805.17578125,0.0
349.25,-29.296875,-1000.0,-29.78515625,-19.04296875,-9.27734375,0.0
349.25390625,-28.3203125,-540.52734375,-30.76171875,-30.2734375,817.87109375,0.0
349.2578125,-41.015625,811.5234375,-25.87890625,-32.2265625,340.33203125,0.0
349.26171875,-47.8515625,-884.765625,-26.85546875,-36.1328125,-150.87890625,0.0
349.265625,-32.2265625,138.18359375,-27.34375,-40.52734375,-780.2734375,0.0
349.26953125,-27.83203125,-1000.0,-29.78515625,-28.80859375,-134.27734375,0.0
349.2734375,-25.87890625,-738.28125,-32.71484375,-27.34375,741.2109375,0.0
349.27734375,-29.78515625,659.66796875,-28.3203125,-28.3203125,403.3203125,0.0
349.28125,-57.6171875,-842.7734375,-36.62109375,-41.9921875,-193.84765625,0.0
349.28515625,-42.48046875,540.0390625,-33.69140625,-41.9921875,-827.1484375,0.0
349.2890625,-15.13671875,-933.10546875,-23.92578125,-29.78515625,-302.734375,0.0
349.29296875,-27.34375,-925.29296875,-32.2265625,-39.0625,594.7265625,0.0
349.296875,-40.52734375,552.734375,-33.69140625,-45.8984375,416.9921875,0.0
349.30078125,-45.8984375,-855.46875,-27.34375,-43.9453125,-72.75390625,0.0
349.3046875,-43.45703125,708.0078125,-32.2265625,-40.0390625,-786.1328125,0.0
349.30859375,-31.73828125,-795.41015625,-35.64453125,-30.2734375,-583.0078125,0.0
349.3125,-20.01953125,-964.35546875,-35.64453125,-27.83203125,451.171875,0.0
349.31640625,-19.53125,576.171875,-35.15625,-40.52734375,548.33984375,0.0
349.3203125,-29.78515625,-893.06640625,-33.203125,-51.26953125,89.84375,0.0
349.32421875,-29.296875,841.796875,-30.2734375,-44.43359375,-674.8046875,0.0
349.328125,-24.4140625,-635.7421875,-24.90234375,-31.73828125,-659.66796875,0.0
349.33203125,-20.99609375,-994.62890625,-15.13671875,-20.99609375,552.24609375,0.0
349.3359375,-32.2265625,583.49609375,-20.01953125,-28.80859375,694.3359375,0.0
349.33984375,-46.38671875,-894.04296875,-33.203125,-44.43359375,162.59765625,0.0
349.34375,-54.6875,850.5859375,-37.109375,-48.33984375,-470.21484375,0.0
349.34765625,-41.9921875,-621.58203125,-34.66796875,-44.921875,-721.6796875,0.0
349.3515625,-34.66796875,-999.51171875,-30.76171875,-40.0390625,437.98828125,0.0
349.35546875,-38.0859375,596.19140625,-33.203125,-37.59765625,800.78125,0.0
349.359375,-35.64453125,-920.8984375,-30.76171875,-37.59765625,298.828125,0.0
349.36328125,-31.73828125,925.29296875,-23.4375,-34.1796875,-306.15234375,0.0
349.3671875,-27.83203125,-423.33984375,-22.4609375,-25.87890625,-769.53125,0.0
349.37109375,-20.5078125,-1000.0,-23.92578125,-29.296875,388.18359375,0.0
349.375,-13.671875,391.11328125,-28.3203125,-36.1328125,865.234375,0.0
349.37890625,-23.92578125,-887.6953125,-25.390625,-35.64453125,127.9296875,0.0
349.3828125,-42.96875,890.13671875,-26.3671875,-45.8984375,-422.8515625,0.0
349.38671875,-34.66796875,-363.76953125,-19.04296875,-33.203125,-789.55078125,0.0
349.390625,-23.4375,-1000.0,-19.53125,-20.99609375,216.796875,0.0
349.39453125,-28.80859375,-170.8984375,-30.76171875,-30.2734375,854.98046875,0.0
349.3984375,-41.9921875,-973.6328125,-31.25,-38.57421875,216.30859375,0.0
349.40234375,-47.36328125,918.9453125,-28.80859375,-41.50390625,-307.12890625,0.0
349.40625,-26.85546875,-402.83203125,-21.484375,-26.3671875,-848.14453125,0.0
349.41015625,-12.20703125,-47.8515625,-22.4609375,-21.484375,70.3125,0.0
349.4140625,-13.671875,-31.73828125,-24.90234375,-24.4140625,900.390625,0.0
349.41796875,-15.625,-28.3203125,-20.5078125,-28.3203125,260.7421875,0.0
349.421875,-35.64453125,-35.15625,-26.85546875,-37.109375,-278.80859375,0.0
349.42578125,-35.15625,-34.66796875,-28.3203125,-35.64453125,-770.5078125,0.0
349.4296875,-20.99609375,-25.87890625,-22.4609375,-23.4375,-216.30859375,0.0
349.43359375,-17.08984375,-31.25,-24.90234375,-21.484375,603.515625,0.0
349.4375,-20.01953125,-45.8984375,-26.85546875,-25.87890625,344.23828125,0.0
349.44140625,-34.66796875,-31.25,-25.390625,-28.80859375,-185.546875,0.0
349.4453125,-39.55078125,-33.69140625,-26.85546875,-26.85546875,-776.3671875,0.0
349.44921875,-32.71484375,-45.41015625,-26.3671875,-24.4140625,-591.796875,0.0
349.453125,-16.11328125,-29.78515625,-15.625,-25.390625,213.37890625,0.0
349.45703125,-24.4140625,-640.625,-26.3671875,-21.97265625,494.140625,0.0
349.4609375,-36.62109375,939.453125,-38.57421875,-27.83203125,-23.4375,0.0
349.46484375,-36.1328125,41.50390625,-37.59765625,-33.203125,-649.4140625,0.0
349.46875,-41.9921875,-1000.0,-32.71484375,-34.66796875,-310.546875,0.0
349.47265625,-35.64453125,-658.69140625,-29.296875,-33.69140625,440.4296875,0.0
349.4765625,-34.1796875,516.6015625,-23.4375,-21.484375,306.640625,0.0
349.48046875,-29.296875,-845.21484375,-21.484375,-26.3671875,-86.9140625,0.0
349.484375,-22.94921875,602.5390625,-28.80859375,-33.69140625,-530.2734375,0.0
349.48828125,-31.25,-906.73828125,-24.4140625,-24.90234375,-420.41015625,0.0
349.4921875,-34.66796875,-937.5,-24.4140625,-17.08984375,372.0703125,0.0
349.49609375,-40.0390625,567.87109375,-31.25,-32.71484375,382.32421875,0.0
349.5,-57.6171875,-886.23046875,-33.203125,-57.6171875,23.4375,0.0
349.50390625,-34.1796875,822.75390625,-27.34375,-39.0625,-403.80859375,0.0
349.5078125,-17.578125,-588.8671875,-26.85546875,-29.78515625,-642.08984375,0.0
349.51171875,-27.83203125,-1000.0,-26.85546875,-36.1328125,202.63671875,0.0
349.515625,-26.85546875,343.75,-33.203125,-33.69140625,665.0390625,0.0
349.51953125,-47.36328125,-862.79296875,-33.69140625,-39.55078125,251.46484375,0.0
349.5234375,-51.7578125,818.84765625,-27.83203125,-35.64453125,-315.91796875,0.0
349.52734375,-37.59765625,-580.56640625,-31.25,-28.80859375,-642.08984375,0.0
349.53125,-25.87890625,-1000.0,-32.2265625,-20.01953125,201.66015625,0.0
349.53515625,-21.484375,265.625,-21.97265625,-22.94921875,656.25,0.0
349.5390625,-37.59765625,-901.85546875,-24.90234375,-38.57421875,128.90625,0.0
349.54296875,-40.0390625,929.19921875,-28.80859375,-38.0859375,-352.05078125,0.0
349.546875,-36.1328125,-341.30859375,-21.484375,-26.85546875,-669.921875,0.0
349.55078125,-20.99609375,-1000.0,-19.53125,-10.7421875,109.375,0.0
349.5546875,-27.34375,70.80078125,-28.3203125,-19.53125,645.99609375,0.0
349.55859375,-42.48046875,-998.53515625,-35.64453125,-32.71484375,154.296875,0.0
349.5625,-32.2265625,-932.6171875,-39.0625,-35.15625,-354.98046875,0.0
349.56640625,-24.4140625,173.828125,-35.64453125,-29.296875,-842.28515625,0.0
349.5703125,-17.578125,-1000.0,-29.78515625,-23.4375,-228.02734375,0.0
349.57421875,-22.94921875,171.875,-23.4375,-28.80859375,509.765625,0.0
349.578125,-38.57421875,-949.70703125,-29.78515625,-36.62109375,264.6484375,0.0
349.58203125,-59.5703125,-984.86328125,-59.5703125,-56.15234375,-170.8984375,0.0
349.5859375,-47.8515625,802.734375,-44.921875,-34.66796875,-725.09765625,0.0
349.58984375,-31.73828125,-487.3046875,-25.390625,-14.16015625,-163.0859375,0.0
349.59375,-15.13671875,446.2890625,-32.71484375,-21.97265625,678.7109375,0.0
349.59765625,-17.08984375,-837.890625,-34.1796875,-27.83203125,577.63671875,0.0
349.6015625,-38.0859375,877.44140625,-23.4375,-23.4375,163.57421875,0.0
349.60546875,-31.73828125,983.88671875,-15.13671875,-11.23046875,-753.90625,0.0
349.609375,-17.08984375,967.7734375,-18.5546875,-10.25390625,-334.47265625,0.0
349.61328125,-9.765625,968.26171875,-22.4609375,-21.97265625,868.65234375,0.0
349.6171875,-11.23046875,968.26171875,-22.4609375,-21.97265625,425.78125,0.0
349.62109375,-20.5078125,967.7734375,-20.5078125,-14.6484375,-75.68359375,0.0
349.625,-30.2734375,968.26171875,-25.390625,-17.08984375,-410.15625,0.0
349.62890625,-47.8515625,968.26171875,-38.57421875,-32.71484375,-377.44140625,0.0
349.6328125,-32.71484375,968.26171875,-30.76171875,-26.3671875,318.84765625,0.0
349.63671875,-22.4609375,968.26171875,-19.53125,-26.3671875,166.9921875,0.0
349.640625,-26.85546875,968.26171875,-22.94921875,-39.0625,-173.33984375,0.0
349.64453125,-23.4375,968.26171875,-23.92578125,-29.78515625,-438.4765625,0.0
349.6484375,-25.87890625,968.26171875,-15.625,-18.5546875,-303.7109375,0.0
349.65234375,-21.484375,968.26171875,-24.90234375,-21.97265625,189.94140625,0.0
349.65625,-26.3671875,967.7734375,-33.69140625,-25.87890625,103.515625,0.0
349.66015625,-40.52734375,968.26171875,-29.78515625,-34.1796875,-177.734375,0.0
349.6640625,-23.92578125,968.26171875,-24.4140625,-27.83203125,-471.6796875,0.0
349.66796875,-14.6484375,968.26171875,-26.85546875,-17.578125,-532.2265625,0.0
349.671875,-31.73828125,968.26171875,-41.50390625,-30.76171875,69.82421875,0.0
349.67578125,-29.296875,968.26171875,-38.0859375,-35.15625,418.45703125,0.0
349.6796875,-26.85546875,968.26171875,-24.4140625,-26.85546875,87.40234375,0.0
349.68359375,-29.78515625,968.26171875,-26.3671875,-29.78515625,-326.66015625,0.0
349.6875,-23.4375,968.26171875,-28.80859375,-23.92578125,-358.3984375,0.0
349.69140625,-9.765625,968.26171875,-26.85546875,-16.11328125,293.45703125,0.0
349.6953125,-8.30078125,968.26171875,-31.73828125,-21.484375,497.55859375,0.0
349.69921875,-21.484375,968.26171875,-32.2265625,-31.25,94.7265625,0.0
349.703125,-24.4140625,968.26171875,-31.25,-32.71484375,-215.33203125,0.0
349.70703125,-16.11328125,967.7734375,-25.390625,-13.671875,-489.74609375,0.0
349.7109375,-1.953125,968.26171875,-17.578125,-3.41796875,84.47265625,0.0
349.71484375,-14.16015625,968.26171875,-24.90234375,-16.11328125,493.65234375,0.0
349.71875,-41.9921875,968.26171875,-37.59765625,-39.55078125,117.1875,0.0
349.72265625,-56.15234375,968.26171875,-43.9453125,-41.50390625,-100.5859375,0.0
349.7265625,-39.0625,966.796875,-29.78515625,-20.5078125,-507.32421875,0.0
349.73046875,-19.04296875,916.015625,-18.5546875,-6.8359375,18.06640625,0.0
349.734375,-23.92578125,-847.65625,-26.85546875,-20.99609375,-41.9921875,0.0
349.73828125,-40.0390625,67.87109375,-34.1796875,-34.66796875,-454.58984375,0.0
349.7421875,-53.7109375,-108.3984375,-30.2734375,-43.45703125,396.484375,0.0
349.74609375,-52.24609375,-902.34375,-32.71484375,-33.69140625,271.484375,0.0
349.75,-41.015625,893.06640625,-33.203125,-23.92578125,-146.484375,0.0
349.75390625,-25.390625,-854.00390625,-22.94921875,-23.4375,-449.70703125,0.0
349.7578125,-33.203125,54.6875,-25.87890625,-35.15625,-513.18359375,0.0
349.76171875,-52.24609375,-256.34765625,-30.2734375,-48.828125,324.21875,0.0
349.765625,-45.8984375,-935.05859375,-25.87890625,-38.0859375,328.61328125,0.0
349.76953125,-34.66796875,974.12109375,-31.25,-32.2265625,-56.15234375,0.0
349.7734375,-30.2734375,936.5234375,-45.41015625,-40.0390625,-359.375,0.0
349.77734375,-22.4609375,974.12109375,-33.69140625,-31.73828125,-502.44140625,0.0
349.78125,-39.55078125,968.26171875,-26.3671875,-32.2265625,129.39453125,0.0
349.78515625,-44.43359375,968.26171875,-30.2734375,-31.25,312.98828125,0.0
349.7890625,-26.85546875,968.26171875,-27.34375,-20.99609375,59.5703125,0.0
349.79296875,-18.06640625,968.26171875,-36.62109375,-27.34375,-199.21875,0.0
349.796875,-22.4609375,968.26171875,-38.57421875,-37.59765625,-379.8828125,0.0
349.80078125,-32.2265625,968.26171875,-32.2265625,-41.015625,53.7109375,0.0
349.8046875,-35.15625,968.26171875,-31.25,-33.203125,143.06640625,0.0
349.80859375,-35.64453125,967.7734375,-28.80859375,-28.3203125,-58.59375,0.0
349.8125,-43.9453125,968.26171875,-24.4140625,-31.25,-140.625,0.0
349.81640625,-47.36328125,968.26171875,-27.83203125,-36.1328125,-298.33984375,0.0
349.8203125,-58.59375,968.26171875,-35.64453125,-55.17578125,250.48828125,0.0
349.82421875,-57.6171875,968.26171875,-36.62109375,-58.59375,787.59765625,0.0
349.828125,-41.9921875,967.7734375,-19.04296875,-35.15625,584.47265625,0.0
349.83203125,-54.19921875,-18.5546875,-14.16015625,-50.78125,36.62109375,0.0
349.8359375,-62.5,-29.78515625,-23.4375,-67.3828125,51.26953125,0.0
349.83984375,-58.10546875,-27.83203125,-10.7421875,-54.19921875,-6.34765625,0.0
349.84375,-92.7734375,-14.16015625,-0.48828125,-83.0078125,-28.80859375,0.0
349.84765625,-125.48828125,4.39453125,-3.41796875,-109.86328125,-39.0625,0.0
349.8515625,-111.81640625,9.765625,0.48828125,-104.4921875,4.39453125,0.0
349.85546875,-106.4453125,-16.6015625,0.9765625,-116.69921875,-5.37109375,0.0
349.859375,-143.06640625,-9.27734375,9.765625,-145.5078125,3.90625,0.0
349.86328125,-179.6875,0.0,14.6484375,-166.50390625,-12.6953125,0.0
349.8671875,-191.89453125,-16.6015625,-3.90625,-180.6640625,-87.40234375,0.0
349.87109375,-183.59375,-6.8359375,6.34765625,-188.4765625,-13.18359375,0.0
349.875,-194.3359375,12.6953125,14.6484375,-200.1953125,-52.734375,0.0
349.87890625,-216.30859375,-884.27734375,12.6953125,-214.35546875,-140.13671875,0.0
349.8828125,-229.00390625,-311.5234375,20.01953125,-220.703125,522.4609375,0.0
349.88671875,-225.09765625,-900.87890625,27.34375,-227.5390625,402.34375,0.0
349.890625,-203.61328125,938.4765625,28.80859375,-224.12109375,-12.20703125,0.0
349.89453125,-210.44921875,939.94140625,20.99609375,-240.234375,-400.87890625,0.0
349.8984375,-238.76953125,975.09765625,20.01953125,-250.0,-402.34375,0.0
349.90234375,-250.0,968.26171875,26.3671875,-240.72265625,441.40625,0.0
349.90625,-256.34765625,968.26171875,34.66796875,-237.3046875,416.50390625,0.0
349.91015625,-253.41796875,968.26171875,32.71484375,-233.3984375,110.3515625,0.0
349.9140625,-267.08984375,968.26171875,8.30078125,-267.578125,-276.85546875,0.0
349.91796875,-277.34375,968.26171875,18.5546875,-269.53125,-574.70703125,0.0
349.921875,-270.01953125,968.26171875,50.29296875,-247.0703125,300.29296875,0.0
349.92578125,-264.6484375,982.421875,49.31640625,-245.60546875,510.7421875,0.0
349.9296875,-253.90625,907.71484375,51.26953125,-243.1640625,-94.7265625,0.0
349.93359375,-240.234375,-900.390625,60.05859375,-233.3984375,-538.0859375,0.0
349.9375,-250.48828125,628.90625,53.7109375,-247.55859375,-564.453125,0.0
349.94140625,-262.6953125,126.953125,50.29296875,-254.39453125,202.1484375,0.0
349.9453125,-236.328125,953.125,68.84765625,-222.65625,513.671875,0.0
349.94921875,-231.4453125,933.10546875,68.84765625,-207.51953125,135.25390625,0.0
349.953125,-241.2109375,-886.71875,57.6171875,-211.42578125,-334.9609375,0.0
349.95703125,-254.39453125,326.171875,43.9453125,-234.375,-645.5078125,0.0
349.9609375,-250.9765625,-925.29296875,48.828125,-230.46875,43.45703125,0.0
349.96484375,-211.9140625,457.51953125,69.82421875,-187.5,548.828125,0.0
349.96875,-210.44921875,-931.640625,78.125,-175.78125,225.5859375,0.0
349.97265625,-216.796875,966.30859375,84.9609375,-174.8046875,-258.30078125,0.0
349.9765625,-209.47265625,881.34765625,76.171875,-175.78125,-629.39453125,0.0
349.98046875,-214.84375,-341.30859375,65.4296875,-186.03515625,-16.11328125,0.0
349.984375,-208.0078125,376.953125,71.77734375,-166.50390625,504.39453125,0.0
349.98828125,-188.4765625,-912.59765625,74.70703125,-137.20703125,121.09375,0.0
349.9921875,-183.59375,961.42578125,68.359375,-142.578125,-287.59765625,0.0
349.99609375,-183.59375,844.7265625,69.3359375,-144.53125,-666.015625,0.0
350.0,-179.19921875,-788.57421875,67.3828125,-132.8125,-231.93359375,0.0
350.00390625,-177.24609375,-295.41015625,53.7109375,-131.34765625,547.8515625,0.0
350.0078125,-174.8046875,-951.66015625,66.40625,-122.55859375,303.22265625,0.0
350.01171875,-158.69140625,988.28125,78.125,-110.83984375,-160.15625,0.0
350.015625,-147.4609375,829.58984375,74.21875,-98.14453125,-745.60546875,0.0
350.01953125,-140.625,-755.859375,76.66015625,-99.12109375,-59.5703125,0.0
350.0234375,-125.0,-649.90234375,80.078125,-80.078125,836.9140625,0.0
350.02734375,-119.140625,875.9765625,73.73046875,-68.359375,193.359375,0.0
350.03125,-111.328125,-861.328125,67.87109375,-69.82421875,-66.40625,0.0
350.03515625,-106.4453125,309.5703125,66.40625,-56.640625,-717.28515625,0.0
350.0390625,-116.2109375,-923.33984375,67.3828125,-63.96484375,-455.078125,0.0
350.04296875,-112.3046875,-1000.0,65.4296875,-62.01171875,706.54296875,0.0
350.046875,-84.9609375,-220.703125,44.921875,-39.55078125,500.48828125,0.0
350.05078125,-57.6171875,-857.421875,46.875,-27.34375,37.59765625,0.0
350.0546875,-66.40625,-45.8984375,51.26953125,-36.62109375,-539.55078125,0.0
350.05859375,-75.1953125,-1000.0,43.9453125,-35.15625,-653.80859375,0.0
350.0625,-78.61328125,-948.73046875,42.48046875,-36.62109375,248.53515625,0.0
350.06640625,-47.36328125,-989.2578125,41.9921875,1.953125,254.8828125,0.0
350.0703125,-17.08984375,-1000.0,35.64453125,16.6015625,18.06640625,0.0
350.07421875,-20.99609375,-1000.0,27.34375,-3.90625,-353.02734375,0.0
350.078125,-19.53125,-1000.0,31.73828125,9.27734375,-663.0859375,0.0
350.08203125,-24.90234375,-1000.0,29.78515625,18.5546875,206.54296875,0.0
350.0859375,-19.53125,-1000.0,31.25,25.87890625,543.45703125,0.0
350.08984375,-17.08984375,-1000.0,22.94921875,31.25,206.0546875,0.0
350.09375,-18.06640625,-1000.0,17.578125,20.5078125,-222.16796875,0.0
350.09765625,-2.44140625,-1000.0,13.18359375,15.13671875,-532.2265625,0.0
350.1015625,-7.8125,-1000.0,11.23046875,9.27734375,20.99609375,0.0
350.10546875,-1.46484375,-1000.0,13.671875,15.625,422.36328125,0.0
350.109375,19.53125,-1000.0,7.8125,36.62109375,255.37109375,0.0
350.11328125,18.06640625,-1000.0,7.32421875,22.94921875,-229.98046875,0.0
350.1171875,-5.859375,-1000.0,-0.9765625,-0.48828125,-562.5,0.0
350.12109375,-35.64453125,-1000.0,-5.859375,2.9296875,27.83203125,0.0
350.125,-25.390625,-1000.0,4.39453125,23.4375,449.70703125,0.0
350.12890625,-7.32421875,-1000.0,0.48828125,31.25,142.578125,0.0
350.1328125,-4.8828125,-1000.0,-5.37109375,21.97265625,-224.609375,0.0
350.13671875,-18.5546875,-1000.0,-11.71875,-2.9296875,-353.515625,0.0
350.140625,-17.08984375,-1000.0,-11.23046875,-0.9765625,-32.71484375,0.0
350.14453125,11.23046875,-1000.0,-5.859375,27.83203125,491.2109375,0.0
350.1484375,37.109375,-1000.0,-7.32421875,40.52734375,546.38671875,0.0
350.15234375,27.83203125,-1000.0,-9.765625,41.50390625,-45.41015625,0.0
350.15625,22.94921875,-1000.0,-18.06640625,31.73828125,-685.546875,0.0
350.16015625,2.44140625,-973.14453125,-28.3203125,13.671875,-319.3359375,0.0
350.1640625,-0.48828125,-1000.0,-25.87890625,27.83203125,469.23828125,0.0
350.16796875,19.53125,-1000.0,-24.90234375,40.0390625,305.6640625,0.0
350.171875,23.4375,120.1171875,-32.71484375,30.2734375,-143.5546875,0.0
350.17578125,24.4140625,-152.34375,-39.55078125,10.7421875,-448.73046875,0.0
350.1796875,16.6015625,-1000.0,-42.96875,10.25390625,-331.0546875,0.0
350.18359375,19.53125,-1000.0,-48.33984375,32.71484375,379.39453125,0.0
350.1875,30.76171875,-283.69140625,-38.57421875,54.6875,341.30859375,0.0
350.19140625,36.62109375,-824.70703125,-39.55078125,57.6171875,-70.80078125,0.0
350.1953125,30.2734375,165.0390625,-56.640625,41.50390625,-483.3984375,0.0
350.19921875,28.80859375,-1000.0,-65.91796875,42.48046875,-433.10546875,0.0
350.203125,45.8984375,-1000.0,-54.19921875,60.546875,449.21875,0.0
350.20703125,69.3359375,-108.88671875,-55.17578125,79.1015625,418.9453125,0.0
350.2109375,87.890625,-798.33984375,-53.7109375,86.42578125,47.36328125,0.0
350.21484375,72.265625,249.0234375,-62.5,64.453125,-429.19921875,0.0
350.21875,48.828125,-1000.0,-67.87109375,52.734375,-477.5390625,0.0
350.22265625,58.59375,-1000.0,-62.98828125,67.3828125,415.52734375,0.0
350.2265625,65.91796875,210.9375,-69.82421875,67.3828125,445.3125,0.0
350.23046875,73.73046875,-859.86328125,-75.68359375,64.453125,72.75390625,0.0
350.234375,70.80078125,795.8984375,-73.2421875,66.40625,-509.765625,0.0
350.23828125,48.828125,-606.4453125,-76.66015625,51.7578125,-707.51953125,0.0
350.2421875,54.19921875,-1000.0,-76.171875,66.40625,340.8203125,0.0
350.24609375,72.265625,437.98828125,-77.1484375,78.125,559.08203125,0.0
350.25,77.1484375,-987.3046875,-77.63671875,69.3359375,56.15234375,0.0
350.25390625,87.40234375,-34.1796875,-81.0546875,56.640625,-248.53515625,0.0
350.2578125,78.61328125,-29.78515625,-77.1484375,42.96875,-466.30859375,0.0
350.26171875,40.0390625,-43.9453125,-73.2421875,49.8046875,26.3671875,0.0
350.265625,47.8515625,-51.26953125,-79.58984375,70.80078125,533.203125,0.0
350.26953125,62.98828125,-30.2734375,-81.54296875,66.89453125,167.96875,0.0
350.2734375,62.5,-25.390625,-80.078125,51.7578125,-501.953125,0.0
350.27734375,55.17578125,-28.3203125,-84.9609375,49.8046875,-701.171875,0.0
350.28125,59.08203125,-25.390625,-82.03125,66.40625,-219.7265625,0.0
350.28515625,58.59375,-36.62109375,-80.56640625,64.94140625,561.03515625,0.0
350.2890625,48.828125,-55.6640625,-89.35546875,51.26953125,427.734375,0.0
350.29296875,60.05859375,-37.59765625,-91.30859375,51.26953125,-457.03125,0.0
350.296875,71.77734375,-17.578125,-84.9609375,47.8515625,-750.9765625,0.0
350.30078125,62.98828125,-1000.0,-79.1015625,61.5234375,-177.734375,0.0
350.3046875,53.22265625,-203.125,-74.21875,67.3828125,458.49609375,0.0
350.30859375,59.5703125,-996.58203125,-73.2421875,74.70703125,361.328125,0.0
350.3125,70.3125,-916.9921875,-72.265625,79.58984375,-215.8203125,0.0
350.31640625,54.6875,223.6328125,-77.63671875,60.546875,-785.15625,0.0
350.3203125,44.921875,-1000.0,-78.61328125,49.8046875,-242.1875,0.0
350.32421875,64.453125,-203.125,-74.21875,65.4296875,628.41796875,0.0
350.328125,68.84765625,-996.09375,-70.80078125,62.5,333.49609375,0.0
350.33203125,64.94140625,-928.22265625,-69.3359375,57.6171875,-50.29296875,0.0
350.3359375,54.6875,234.375,-74.21875,36.62109375,-546.875,0.0
350.33984375,35.15625,-1000.0,-67.3828125,17.578125,-278.80859375,0.0
350.34375,21.484375,-441.40625,-62.01171875,28.80859375,714.84375,0.0
350.34765625,26.3671875,900.390625,-68.359375,37.109375,569.3359375,0.0
350.3515625,32.71484375,-888.18359375,-74.21875,28.3203125,5.37109375,0.0
350.35546875,19.53125,274.90234375,-75.1953125,9.765625,-540.52734375,0.0
350.359375,11.23046875,-1000.0,-67.87109375,6.8359375,-370.60546875,0.0
350.36328125,16.6015625,-688.96484375,-61.03515625,19.53125,632.32421875,0.0
350.3671875,21.97265625,699.21875,-55.6640625,31.73828125,458.984375,0.0
350.37109375,22.4609375,-830.078125,-49.31640625,45.8984375,8.30078125,0.0
350.375,15.13671875,357.421875,-59.08203125,16.6015625,-390.13671875,0.0
350.37890625,5.37109375,-901.85546875,-69.3359375,-7.32421875,-504.8828125,0.0
350.3828125,9.765625,-1000.0,-54.19921875,25.390625,406.73828125,0.0
350.38671875,13.18359375,-224.609375,-49.8046875,47.8515625,649.90234375,0.0
350.390625,20.01953125,-847.65625,-58.59375,36.62109375,83.0078125,0.0
350.39453125,35.64453125,-25.390625,-53.7109375,34.66796875,-429.19921875,0.0
350.3984375,29.296875,-17.578125,-46.875,33.203125,-398.92578125,0.0
350.40234375,33.69140625,-17.578125,-47.8515625,37.59765625,387.6953125,0.0
350.40625,35.15625,-16.6015625,-41.50390625,50.29296875,508.7890625,0.0
350.41015625,25.87890625,-21.97265625,-44.921875,45.41015625,192.3828125,0.0
350.4140625,21.97265625,-25.390625,-41.9921875,22.4609375,-298.828125,0.0
350.41796875,20.01953125,-24.90234375,-44.921875,9.27734375,-597.65625,0.0
350.421875,15.625,-37.59765625,-62.01171875,11.23046875,201.171875,0.0
350.42578125,15.625,-41.015625,-49.31640625,27.34375,692.3828125,0.0
350.4296875,17.578125,-27.34375,-37.109375,38.0859375,213.37890625,0.0
350.43359375,14.6484375,-22.4609375,-48.33984375,20.99609375,-512.6953125,0.0
350.4375,0.9765625,-17.578125,-52.734375,-0.48828125,-811.03515625,0.0
350.44140625,-8.7890625,-1000.0,-50.29296875,-7.32421875,-248.046875,0.0
350.4453125,8.7890625,-1000.0,-43.45703125,4.39453125,482.91015625,0.0
350.44921875,17.578125,154.296875,-40.52734375,9.765625,526.85546875,0.0
350.453125,2.9296875,-819.82421875,-49.8046875,-17.08984375,-375.0,0.0
350.45703125,-11.71875,-208.984375,-55.17578125,-27.34375,-907.2265625,0.0
350.4609375,-18.06640625,-1000.0,-43.9453125,-14.16015625,71.2890625,0.0
350.46484375,-20.5078125,-165.52734375,-46.38671875,-18.06640625,625.48828125,0.0
350.46875,-35.15625,987.79296875,-64.94140625,-35.64453125,137.6953125,0.0
350.47265625,-26.85546875,-921.875,-57.12890625,-31.25,-128.41796875,0.0
350.4765625,-11.71875,93.75,-48.33984375,-29.78515625,-830.56640625,0.0
350.48046875,-15.625,-1000.0,-48.828125,-28.80859375,-319.3359375,0.0
350.484375,-21.97265625,-187.01171875,-44.43359375,-8.30078125,759.27734375,0.0
350.48828125,-10.25390625,996.58203125,-39.55078125,-1.46484375,250.0,0.0
350.4921875,1.953125,-920.41015625,-35.64453125,-9.765625,-400.87890625,0.0
350.49609375,3.41796875,155.2734375,-37.109375,-16.6015625,-1000.0,0.0
350.5,1.953125,-1000.0,-39.55078125,-11.23046875,-239.74609375,0.0
350.50390625,7.8125,-1000.0,-34.1796875,-7.32421875,-937.01171875,0.0
350.5078125,6.34765625,229.98046875,-34.1796875,-2.9296875,630.37109375,0.0
350.51171875,-15.13671875,866.2109375,-38.0859375,-17.08984375,52.24609375,0.0
350.515625,-25.390625,-753.41796875,-42.48046875,-41.015625,-764.16015625,0.0
350.51953125,-18.5546875,-1000.0,-42.96875,-29.296875,-675.78125,0.0
350.5234375,-12.6953125,-935.05859375,-36.1328125,-14.16015625,494.140625,0.0
350.52734375,-5.859375,-1000.0,-31.25,-8.7890625,235.3515625,0.0
350.53125,-16.6015625,-1000.0,-36.1328125,-14.6484375,-62.98828125,0.0
350.53515625,-30.2734375,-1000.0,-41.50390625,-31.73828125,-437.5,0.0
350.5390625,-28.80859375,-1000.0,-35.64453125,-32.2265625,-565.4296875,0.0
350.54296875,-25.390625,-1000.0,-29.296875,-18.5546875,486.328125,0.0
350.546875,-15.625,-1000.0,-23.92578125,-6.8359375,453.125,0.0
350.55078125,-10.7421875,-1000.0,-26.85546875,-15.625,-278.80859375,0.0
350.5546875,-25.390625,-1000.0,-40.52734375,-31.73828125,-589.84375,0.0
350.55859375,-46.38671875,-934.08203125,-56.15234375,-58.59375,-304.19921875,0.0
350.5625,-27.83203125,-1000.0,-41.50390625,-30.2734375,291.50390625,0.0
350.56640625,-19.53125,-296.875,-27.83203125,0.0,282.71484375,0.0
350.5703125,-32.71484375,984.375,-38.57421875,-16.6015625,-7.32421875,0.0
350.57421875,-14.16015625,-915.52734375,-41.015625,-9.27734375,15.13671875,0.0
350.578125,9.27734375,-156.25,-30.2734375,-0.9765625,-66.89453125,0.0
350.58203125,-8.30078125,-1000.0,-35.64453125,-19.53125,202.63671875,0.0
350.5859375,-33.203125,276.85546875,-41.50390625,-41.9921875,372.55859375,0.0
350.58984375,-23.92578125,-960.9375,-33.69140625,-37.59765625,111.81640625,0.0
350.59375,-18.5546875,-929.19921875,-31.73828125,-32.2265625,-240.234375,0.0
350.59765625,-29.78515625,203.125,-42.96875,-43.45703125,-426.7578125,0.0
350.6015625,-41.015625,-1000.0,-50.78125,-41.015625,-94.7265625,0.0
350.60546875,-48.33984375,221.6796875,-49.31640625,-35.64453125,274.4140625,0.0
350.609375,-32.71484375,-930.6640625,-46.38671875,-32.2265625,162.59765625,0.0
350.61328125,-40.52734375,-959.47265625,-55.6640625,-54.6875,-229.00390625,0.0
350.6171875,-75.1953125,245.60546875,-76.171875,-79.58984375,-468.75,0.0
350.62109375,-57.12890625,-1000.0,-61.03515625,-62.98828125,-94.23828125,0.0
350.625,-30.2734375,-127.9296875,-34.1796875,-21.484375,302.24609375,0.0
350.62890625,-17.578125,-976.5625,-34.1796875,-17.578125,280.76171875,0.0
350.6328125,-18.5546875,-928.22265625,-35.15625,-32.71484375,31.25,0.0
350.63671875,-46.38671875,229.00390625,-36.1328125,-39.55078125,-310.546875,0.0
350.640625,-50.78125,-1000.0,-38.0859375,-40.0390625,41.9921875,0.0
350.64453125,-25.87890625,-191.89453125,-34.1796875,-22.94921875,469.7265625,0.0
350.6484375,-17.08984375,992.1875,-33.203125,-11.71875,241.69921875,0.0
350.65234375,-21.97265625,-922.8515625,-35.64453125,-23.92578125,-47.36328125,0.0
350.65625,-21.97265625,472.65625,-29.78515625,-30.76171875,-372.0703125,0.0
350.66015625,-38.0859375,-1000.0,-37.59765625,-40.0390625,-253.41796875,0.0
350.6640625,-63.4765625,-233.88671875,-59.5703125,-61.03515625,287.109375,0.0
350.66796875,-51.7578125,-969.23828125,-43.9453125,-45.8984375,300.78125,0.0
350.671875,-23.4375,995.1171875,-25.390625,-21.97265625,3.41796875,0.0
350.67578125,-21.484375,846.6796875,-31.25,-26.3671875,-412.109375,0.0
350.6796875,-26.3671875,-731.4453125,-41.9921875,-40.52734375,-345.703125,0.0
350.68359375,-22.4609375,-318.84765625,-39.55078125,-33.203125,220.21484375,0.0
350.6875,-7.8125,-916.9921875,-29.78515625,-11.71875,276.85546875,0.0
350.69140625,1.46484375,905.76171875,-33.203125,-21.484375,52.24609375,0.0
350.6953125,-16.11328125,-901.3671875,-46.38671875,-36.62109375,-336.9140625,0.0
350.69921875,-24.90234375,-295.41015625,-45.8984375,-37.59765625,-316.89453125,0.0
350.703125,-14.16015625,-519.53125,-27.83203125,-26.3671875,206.54296875,0.0
350.70703125,-13.671875,-992.67578125,-25.87890625,-24.90234375,246.58203125,0.0
350.7109375,-6.8359375,947.75390625,-32.2265625,-24.4140625,54.19921875,0.0
350.71484375,-9.27734375,-928.22265625,-38.57421875,-27.34375,-289.55078125,0.0
350.71875,-17.578125,-274.90234375,-36.62109375,-25.390625,-399.4140625,0.0
350.72265625,-15.625,-835.9375,-27.83203125,-12.20703125,219.7265625,0.0
350.7265625,-8.30078125,747.55859375,-24.4140625,-7.32421875,253.41796875,0.0
350.73046875,-2.44140625,-923.33984375,-26.3671875,-7.32421875,15.13671875,0.0
350.734375,-14.6484375,845.21484375,-38.0859375,-24.90234375,-243.1640625,0.0
350.73828125,-36.1328125,-444.82421875,-39.0625,-42.96875,-350.5859375,0.0
350.7421875,-31.25,-1000.0,-28.3203125,-28.3203125,149.90234375,0.0
350.74609375,-11.71875,131.34765625,-24.90234375,-10.25390625,274.90234375,0.0
350.75,-16.11328125,-875.48828125,-36.1328125,-17.08984375,104.00390625,0.0
350.75390625,-24.4140625,835.9375,-43.45703125,-31.73828125,-170.41015625,0.0
350.7578125,-26.3671875,-419.43359375,-37.109375,-34.66796875,-388.18359375,0.0
350.76171875,-37.109375,-1000.0,-37.59765625,-36.62109375,59.08203125,0.0
350.765625,-28.80859375,-228.02734375,-30.2734375,-34.1796875,286.1328125,0.0
350.76953125,-28.80859375,-33.69140625,-29.78515625,-29.78515625,107.421875,0.0
350.7734375,-39.55078125,-22.94921875,-31.73828125,-37.109375,-109.86328125,0.0
350.77734375,-37.59765625,-21.97265625,-30.2734375,-37.109375,-307.6171875,0.0
350.78125,-47.36328125,-41.9921875,-45.41015625,-33.69140625,-1.953125,0.0
350.78515625,-33.69140625,-46.38671875,-35.64453125,-15.625,227.5390625,0.0
350.7890625,-19.53125,-28.3203125,-22.94921875,-5.859375,45.41015625,0.0
350.79296875,-25.87890625,-21.484375,-33.203125,-27.34375,-187.98828125,0.0
350.796875,-34.1796875,-59.5703125,-37.109375,-34.66796875,-509.765625,0.0
350.80078125,-42.96875,-49.8046875,-31.25,-32.71484375,-254.39453125,0.0
350.8046875,-21.97265625,-29.78515625,-23.92578125,-17.578125,252.9296875,0.0
350.80859375,3.90625,-23.92578125,-23.4375,7.32421875,167.96875,0.0
350.8125,1.46484375,-20.5078125,-31.73828125,-6.8359375,-117.67578125,0.0
350.81640625,-17.578125,205.078125,-36.62109375,-30.2734375,-440.4296875,0.0
350.8203125,-27.83203125,-1000.0,-27.83203125,-26.3671875,-220.703125,0.0
350.82421875,-25.87890625,-360.83984375,-23.92578125,-19.53125,207.51953125,0.0
350.828125,-21.97265625,929.19921875,-27.34375,-19.53125,164.0625,0.0
350.83203125,-15.13671875,-895.01953125,-30.76171875,-18.5546875,-18.5546875,0.0
350.8359375,-26.3671875,423.828125,-33.203125,-36.62109375,-359.375,0.0
350.83984375,-28.80859375,-1000.0,-30.2734375,-33.69140625,-284.1796875,0.0
350.84375,-13.671875,-303.22265625,-29.78515625,-10.25390625,155.2734375,0.0
350.84765625,-14.6484375,-976.5625,-38.0859375,-13.671875,249.0234375,0.0
350.8515625,-24.4140625,952.63671875,-36.62109375,-34.66796875,58.10546875,0.0
350.85546875,-41.50390625,-984.86328125,-34.66796875,-63.4765625,-389.6484375,0.0
350.859375,-55.17578125,-452.63671875,-51.26953125,-83.0078125,-357.91015625,0.0
350.86328125,-43.45703125,-364.74609375,-46.38671875,-57.12890625,274.90234375,0.0
350.8671875,-26.85546875,-903.80859375,-32.71484375,-13.671875,377.44140625,0.0
350.87109375,-20.01953125,884.27734375,-25.87890625,-6.34765625,168.45703125,0.0
350.875,-34.66796875,-855.95703125,-39.55078125,-27.83203125,-178.22265625,0.0
350.87890625,-33.203125,-18.06640625,-51.26953125,-27.83203125,-311.5234375,0.0
350.8828125,-21.484375,-468.75,-36.62109375,-18.06640625,234.86328125,0.0
350.88671875,-17.08984375,997.55859375,-29.78515625,-4.39453125,351.5625,0.0
350.890625,-9.27734375,937.5,-33.203125,3.90625,76.171875,0.0
350.89453125,-9.27734375,-897.4609375,-36.62109375,-12.6953125,-366.2109375,0.0
350.8984375,-29.296875,-11.23046875,-41.9921875,-27.83203125,-387.20703125,0.0
350.90234375,-34.1796875,-958.984375,-32.2265625,-21.484375,240.72265625,0.0
350.90625,-16.6015625,589.84375,-25.87890625,-11.23046875,325.1953125,0.0
350.91015625,-6.34765625,-975.5859375,-32.2265625,-13.18359375,62.98828125,0.0
350.9140625,-5.37109375,-931.640625,-38.0859375,-17.08984375,-193.84765625,0.0
350.91796875,-14.16015625,92.28515625,-36.62109375,-27.83203125,-246.09375,0.0
350.921875,-15.625,-1000.0,-28.3203125,-29.78515625,140.625,0.0
350.92578125,-12.20703125,371.09375,-27.83203125,-13.671875,321.2890625,0.0
350.9296875,-5.859375,-953.125,-23.4375,-3.41796875,165.0390625,0.0
350.93359375,-29.78515625,-935.05859375,-34.1796875,-26.3671875,-296.875,0.0
350.9375,-42.48046875,206.54296875,-45.41015625,-45.41015625,-602.5390625,0.0
350.94140625,-23.92578125,-1000.0,-36.62109375,-35.64453125,-105.46875,0.0
350.9453125,-30.76171875,225.5859375,-36.62109375,-27.34375,300.78125,0.0
350.94921875,-33.69140625,-932.12890625,-41.50390625,-26.3671875,148.92578125,0.0
350.953125,-20.01953125,-953.61328125,-40.0390625,-38.57421875,-208.49609375,0.0
350.95703125,-14.6484375,236.81640625,-31.73828125,-37.109375,-537.109375,0.0
350.9609375,-6.34765625,-1000.0,-29.296875,-31.25,-160.15625,0.0
350.96484375,-24.4140625,-34.1796875,-30.76171875,-21.484375,376.46484375,0.0
350.96875,-32.71484375,-959.47265625,-26.3671875,-5.859375,226.5625,0.0
350.97265625,-16.6015625,-939.453125,-30.2734375,-8.30078125,-160.64453125,0.0
350.9765625,-26.3671875,270.99609375,-36.1328125,-28.3203125,-459.9609375,0.0
350.98046875,-25.87890625,-1000.0,-32.71484375,-30.2734375,-196.77734375,0.0
350.984375,-17.578125,-208.984375,-31.25,-4.8828125,342.7734375,0.0
350.98828125,-9.765625,-993.65234375,-34.1796875,4.8828125,269.04296875,0.0
350.9921875,-14.16015625,-933.10546875,-41.9921875,-15.13671875,-8.30078125,0.0
350.99609375,-13.671875,234.375,-36.1328125,-29.296875,-374.51171875,0.0
351.0,-23.92578125,-1000.0,-32.2265625,-32.71484375,-248.046875,0.0
351.00390625,-32.2265625,-585.9375,-34.66796875,-22.4609375,313.4765625,0.0
351.0078125,-20.5078125,814.453125,-33.203125,-8.7890625,287.109375,0.0
351.01171875,-12.20703125,-845.703125,-35.15625,-10.7421875,28.80859375,0.0
351.015625,-31.25,130.859375,-35.15625,-31.25,-426.7578125,0.0
351.01953125,-46.38671875,-994.62890625,-30.2734375,-32.2265625,-300.29296875,0.0
351.0234375,-34.1796875,-1000.0,-29.78515625,-9.765625,310.05859375,0.0
351.02734375,-13.18359375,-232.421875,-30.2734375,-0.48828125,237.3046875,0.0
351.03125,-9.765625,-822.75390625,-26.3671875,-3.41796875,-148.4375,0.0
351.03515625,-23.4375,155.2734375,-20.99609375,-9.27734375,-484.86328125,0.0
351.0390625,-39.55078125,-1000.0,-31.25,-42.96875,-441.89453125,0.0
351.04296875,-31.25,-1000.0,-31.25,-34.66796875,37.59765625,0.0
351.046875,-28.3203125,-534.66796875,-22.94921875,-12.6953125,249.0234375,0.0
351.05078125,-31.25,-949.70703125,-25.390625,-24.4140625,71.77734375,0.0
351.0546875,-15.13671875,416.9921875,-31.73828125,-25.87890625,-375.48828125,0.0
351.05859375,-22.94921875,-1000.0,-29.78515625,-39.0625,-440.91796875,0.0
351.0625,-44.921875,-1000.0,-32.71484375,-40.52734375,249.51171875,0.0
351.06640625,-46.38671875,167.96875,-34.66796875,-21.484375,354.98046875,0.0
351.0703125,-29.296875,-902.34375,-32.71484375,-14.6484375,26.85546875,0.0
351.07421875,-15.625,919.921875,-37.59765625,-25.390625,-323.2421875,0.0
351.078125,-20.5078125,-273.4375,-35.64453125,-35.15625,-536.1328125,0.0
351.08203125,-36.62109375,-1000.0,-39.0625,-40.52734375,-64.453125,0.0
351.0859375,-25.390625,-121.58203125,-35.15625,-23.4375,325.68359375,0.0
351.08984375,-10.7421875,965.8203125,-30.76171875,-19.04296875,228.02734375,0.0
351.09375,-23.4375,-856.93359375,-27.34375,-28.3203125,-217.7734375,0.0
351.09765625,-24.90234375,100.09765625,-31.25,-29.78515625,-462.40234375,0.0
351.1015625,-24.90234375,-890.13671875,-38.57421875,-31.25,87.890625,0.0
351.10546875,-24.90234375,610.3515625,-31.25,-15.625,402.34375,0.0
351.109375,-2.44140625,-975.5859375,-30.2734375,-2.9296875,130.859375,0.0
351.11328125,-21.97265625,-939.453125,-35.64453125,-25.390625,-198.73046875,0.0
351.1171875,-51.7578125,245.60546875,-33.203125,-33.69140625,-501.953125,0.0
351.12109375,-38.0859375,-1000.0,-30.76171875,-25.390625,-31.73828125,0.0
351.125,-22.4609375,190.4296875,-30.76171875,-16.6015625,481.93359375,0.0
351.12890625,-27.83203125,-929.19921875,-31.73828125,-29.296875,230.46875,0.0
351.1328125,-18.5546875,-962.890625,-30.76171875,-30.2734375,-153.3203125,0.0
351.13671875,-29.78515625,250.48828125,-32.71484375,-28.80859375,-499.0234375,0.0
351.140625,-52.734375,-1000.0,-36.62109375,-45.8984375,-167.96875,0.0
351.14453125,-44.43359375,-204.58984375,-35.15625,-32.71484375,339.84375,0.0
351.1484375,-20.5078125,-994.62890625,-27.34375,-13.18359375,206.0546875,0.0
351.15234375,-9.27734375,-925.78125,-23.92578125,-23.4375,-172.36328125,0.0
351.15625,-17.578125,171.875,-32.2265625,-39.55078125,-577.63671875,0.0
351.16015625,-35.64453125,-1000.0,-36.1328125,-44.921875,-188.96484375,0.0
351.1640625,-31.25,-1000.0,-22.94921875,-28.80859375,405.2734375,0.0
351.16796875,-28.80859375,248.046875,-21.484375,-12.20703125,139.16015625,0.0
351.171875,-33.69140625,-814.453125,-37.59765625,-28.80859375,-122.55859375,0.0
351.17578125,-39.55078125,-216.30859375,-41.015625,-51.7578125,-414.55078125,0.0
351.1796875,-35.15625,-1000.0,-33.69140625,-37.59765625,-388.671875,0.0
351.18359375,-28.80859375,-943.359375,-28.80859375,-22.4609375,414.55078125,0.0
351.1875,-15.625,-997.0703125,-20.5078125,-17.578125,452.63671875,0.0
351.19140625,-17.08984375,-1000.0,-19.53125,-18.06640625,41.50390625,0.0
351.1953125,-37.109375,-1000.0,-33.69140625,-40.52734375,-383.7890625,0.0
351.19921875,-36.1328125,-1000.0,-35.64453125,-36.1328125,-446.77734375,0.0
351.203125,-29.296875,-1000.0,-26.85546875,-15.13671875,326.171875,0.0
351.20703125,-23.92578125,-1000.0,-31.73828125,-14.16015625,405.76171875,0.0
351.2109375,-12.20703125,-1000.0,-27.34375,-19.04296875,-15.625,0.0
351.21484375,-27.34375,-1000.0,-29.296875,-34.66796875,-488.76953125,0.0
351.21875,-53.22265625,-1000.0,-49.8046875,-57.6171875,-541.015625,0.0
351.22265625,-60.05859375,-1000.0,-48.828125,-48.828125,238.28125,0.0
351.2265625,-60.05859375,-1000.0,-39.0625,-23.92578125,410.15625,0.0
351.23046875,-32.71484375,-1000.0,-26.3671875,-20.99609375,122.0703125,0.0
351.234375,-21.97265625,-1000.0,-27.34375,-43.9453125,-441.40625,0.0
351.23828125,-31.73828125,-940.91796875,-34.66796875,-43.45703125,-656.25,0.0
351.2421875,-29.296875,-1000.0,-33.69140625,-34.1796875,171.875,0.0
351.24609375,-25.390625,-867.67578125,-29.78515625,-17.08984375,426.7578125,0.0
351.25,-17.08984375,754.8828125,-27.34375,-0.48828125,162.59765625,0.0
351.25390625,-21.484375,268.5546875,-32.2265625,-21.97265625,-312.01171875,0.0
351.2578125,-25.87890625,-1000.0,-29.78515625,-37.109375,-611.328125,0.0
351.26171875,-39.0625,-1000.0,-40.0390625,-40.52734375,52.24609375,0.0
351.265625,-33.69140625,-620.60546875,-41.50390625,-31.73828125,416.015625,0.0
351.26953125,-9.27734375,978.515625,-22.94921875,-15.13671875,33.69140625,0.0
351.2734375,-14.6484375,629.39453125,-23.92578125,-28.3203125,-340.8203125,0.0
351.27734375,-21.97265625,-844.23828125,-40.52734375,-39.55078125,-467.28515625,0.0
351.28125,-21.484375,-1000.0,-41.9921875,-33.69140625,-59.08203125,0.0
351.28515625,-16.6015625,-688.96484375,-36.1328125,-26.85546875,406.73828125,0.0
351.2890625,-9.765625,857.421875,-38.57421875,-22.94921875,116.2109375,0.0
351.29296875,-17.08984375,693.359375,-38.57421875,-31.73828125,-187.98828125,0.0
351.296875,-24.90234375,-798.828125,-40.0390625,-38.57421875,-370.60546875,0.0
351.30078125,-23.4375,-1000.0,-30.2734375,-25.87890625,-45.41015625,0.0
351.3046875,-36.62109375,-511.23046875,-24.90234375,-12.20703125,323.73046875,0.0
351.30859375,-55.6640625,795.8984375,-34.1796875,-23.92578125,-205.078125,0.0
351.3125,-43.45703125,-845.21484375,-30.76171875,-33.203125,-222.65625,0.0
351.31640625,-24.4140625,194.82421875,-29.78515625,-33.69140625,-231.93359375,0.0
351.3203125,-34.1796875,-1000.0,-30.2734375,-37.109375,-134.27734375,0.0
351.32421875,-45.41015625,-191.40625,-36.1328125,-30.76171875,281.73828125,0.0
351.328125,-22.94921875,991.69921875,-24.90234375,-11.71875,59.5703125,0.0
351.33203125,-19.53125,-923.828125,-23.4375,-17.08984375,-197.265625,0.0
351.3359375,-36.1328125,487.3046875,-36.62109375,-34.66796875,-500.0,0.0
351.33984375,-31.73828125,-1000.0,-31.25,-31.73828125,-433.59375,0.0
351.34375,-29.78515625,-249.0234375,-28.3203125,-19.53125,195.80078125,0.0
351.34765625,-26.85546875,-922.36328125,-29.78515625,-17.08984375,40.0390625,0.0
351.3515625,-21.97265625,893.5546875,-35.64453125,-28.3203125,-321.2890625,0.0
351.35546875,-20.5078125,-879.39453125,-33.69140625,-39.55078125,-416.015625,0.0
351.359375,-12.20703125,-102.05078125,-26.85546875,-35.64453125,-375.0,0.0
351.36328125,-20.99609375,-257.8125,-27.34375,-29.296875,150.390625,0.0
351.3671875,-40.0390625,-920.41015625,-33.203125,-36.1328125,203.125,0.0
351.37109375,-34.66796875,904.296875,-31.73828125,-33.69140625,-62.98828125,0.0
351.375,-19.04296875,-877.9296875,-26.3671875,-25.87890625,-244.62890625,0.0
351.37890625,-26.3671875,-172.8515625,-27.83203125,-34.1796875,-303.22265625,0.0
351.3828125,-44.43359375,-766.11328125,-20.5078125,-37.109375,156.25,0.0
351.38671875,-40.0390625,837.40234375,-20.99609375,-15.625,171.875,0.0
351.390625,-26.85546875,-1000.0,-26.85546875,-16.11328125,-257.32421875,0.0
351.39453125,-37.59765625,-963.37890625,-37.109375,-39.55078125,-261.23046875,0.0
351.3984375,-49.8046875,-71.2890625,-44.43359375,-48.828125,-105.95703125,0.0
351.40234375,-43.9453125,-1000.0,-31.25,-33.203125,244.140625,0.0
351.40625,-36.1328125,252.44140625,-20.01953125,-22.4609375,321.77734375,0.0
351.41015625,-26.3671875,-947.265625,-23.92578125,-19.04296875,-55.17578125,0.0
351.4140625,-36.1328125,-949.70703125,-30.2734375,-40.52734375,-231.93359375,0.0
351.41796875,-33.203125,162.109375,-28.3203125,-38.57421875,-279.296875,0.0
351.421875,-33.203125,-1000.0,-37.109375,-27.34375,-91.796875,0.0
351.42578125,-26.3671875,10.7421875,-33.69140625,-28.3203125,97.16796875,0.0
351.4296875,-21.97265625,-942.3828125,-22.4609375,-21.484375,-16.6015625,0.0
351.43359375,-22.4609375,-955.078125,-26.85546875,-21.97265625,-157.71484375,0.0
351.4375,-26.3671875,106.4453125,-30.2734375,-29.78515625,-314.453125,0.0
351.44140625,-39.55078125,-1000.0,-29.296875,-34.1796875,-82.51953125,0.0
351.4453125,-24.4140625,-185.546875,-21.97265625,-14.16015625,221.6796875,0.0
351.44921875,-12.6953125,994.62890625,-18.06640625,-7.32421875,49.31640625,0.0
351.453125,-18.06640625,-915.0390625,-22.94921875,-20.01953125,-241.2109375,0.0
351.45703125,-46.875,209.47265625,-42.96875,-50.29296875,-435.546875,0.0
351.4609375,-44.921875,-1000.0,-32.2265625,-40.52734375,-246.58203125,0.0
351.46484375,-24.4140625,-201.171875,-15.13671875,-17.578125,75.1953125,0.0
351.46875,-15.13671875,-997.55859375,-22.94921875,-11.71875,35.15625,0.0
351.47265625,-12.6953125,-26.85546875,-21.97265625,-16.6015625,-121.58203125,0.0
351.4765625,-25.390625,-21.484375,-25.390625,-20.99609375,-335.44921875,0.0
351.48046875,-36.1328125,-29.78515625,-22.94921875,-26.85546875,-287.59765625,0.0
351.484375,-28.80859375,-29.78515625,-17.08984375,-25.390625,82.03125,0.0
351.48828125,-21.484375,-21.484375,-24.4140625,-13.18359375,109.375,0.0
351.4921875,-28.80859375,-16.6015625,-24.90234375,-19.53125,-11.71875,0.0
351.49609375,-36.1328125,-21.97265625,-23.4375,-25.87890625,-221.6796875,0.0
351.5,-37.109375,-31.25,-32.2265625,-32.71484375,-327.1484375,0.0
351.50390625,-30.2734375,-42.48046875,-32.71484375,-31.73828125,3.41796875,0.0
351.5078125,-23.92578125,-43.45703125,-30.76171875,-29.78515625,153.3203125,0.0
351.51171875,-23.92578125,-37.59765625,-27.83203125,-37.59765625,34.66796875,0.0
351.515625,-29.78515625,-35.15625,-30.2734375,-45.8984375,-197.265625,0.0
351.51953125,-37.109375,-1000.0,-36.1328125,-56.640625,-266.6015625,0.0
351.5234375,-30.2734375,-537.109375,-33.69140625,-32.2265625,8.30078125,0.0
351.52734375,-27.83203125,912.109375,-25.390625,-15.625,53.22265625,0.0
351.53125,-29.296875,-940.91796875,-30.76171875,-27.83203125,-65.91796875,0.0
351.53515625,-27.34375,708.984375,-37.109375,-43.9453125,-159.1796875,0.0
351.5390625,-46.38671875,-827.1484375,-35.64453125,-51.7578125,-216.796875,0.0
351.54296875,-42.96875,-797.36328125,-33.69140625,-43.45703125,-49.31640625,0.0
351.546875,-22.94921875,737.79296875,-27.34375,-27.34375,65.4296875,0.0
351.55078125,-17.578125,-956.0546875,-26.3671875,-26.3671875,-112.79296875,0.0
351.5546875,-23.92578125,914.0625,-35.15625,-40.52734375,-196.2890625,0.0
351.55859375,-41.9921875,-461.42578125,-30.2734375,-49.8046875,-220.21484375,0.0
351.5625,-33.69140625,-905.76171875,-20.01953125,-33.69140625,-166.50390625,0.0
351.56640625,-28.3203125,692.3828125,-26.85546875,-33.69140625,1.46484375,0.0
351.5703125,-19.53125,983.88671875,-33.203125,-41.015625,-147.4609375,0.0
351.57421875,-9.27734375,-918.45703125,-28.80859375,-37.109375,-64.94140625,0.0
351.578125,-40.0390625,183.59375,-36.1328125,-40.0390625,-83.984375,0.0
351.58203125,-51.7578125,-1000.0,-38.57421875,-36.1328125,-76.171875,0.0
351.5859375,-29.78515625,387.20703125,-25.87890625,-15.625,-45.41015625,0.0
351.58984375,-24.90234375,-944.3359375,-28.3203125,-14.6484375,-239.2578125,0.0
351.59375,-37.59765625,-948.73046875,-41.50390625,-38.57421875,128.90625,0.0
351.59765625,-41.015625,228.515625,-31.73828125,-44.921875,125.9765625,0.0
351.6015625,-36.62109375,-1000.0,-21.97265625,-34.1796875,-96.19140625,0.0
351.60546875,-34.1796875,84.9609375,-30.76171875,-31.25,-20.99609375,0.0
351.609375,-31.25,-938.96484375,-34.66796875,-28.80859375,-219.7265625,0.0
351.61328125,-24.90234375,-953.125,-35.15625,-34.1796875,15.13671875,0.0
351.6171875,-29.78515625,244.140625,-30.2734375,-46.38671875,263.671875,0.0
351.62109375,-37.109375,-1000.0,-24.90234375,-35.15625,24.90234375,0.0
351.625,-30.76171875,-196.2890625,-26.3671875,-22.4609375,17.578125,0.0
351.62890625,-27.83203125,995.60546875,-24.4140625,-23.4375,-164.55078125,0.0
351.6328125,-31.25,-916.9921875,-18.5546875,-32.2265625,-2.9296875,0.0
351.63671875,-32.2265625,364.2578125,-26.3671875,-43.9453125,149.4140625,0.0
351.640625,-27.34375,-1000.0,-29.296875,-43.9453125,-245.1171875,0.0
351.64453125,-43.45703125,-227.5390625,-23.92578125,-35.64453125,-232.421875,0.0
351.6484375,-54.19921875,-921.875,-23.92578125,-42.48046875,-307.6171875,0.0
351.65234375,-41.9921875,940.91796875,-28.3203125,-40.52734375,-127.44140625,0.0
351.65625,-35.15625,940.91796875,-28.80859375,-28.80859375,265.625,0.0
351.66015625,-34.66796875,974.609375,-23.92578125,-30.76171875,-90.8203125,0.0
351.6640625,-26.3671875,968.26171875,-17.08984375,-20.99609375,-252.44140625,0.0
351.66796875,-27.34375,968.26171875,-11.23046875,-20.5078125,-432.12890625,0.0
351.671875,-41.015625,968.26171875,-17.08984375,-34.66796875,-205.078125,0.0
351.67578125,-35.64453125,968.26171875,-28.3203125,-33.69140625,420.8984375,0.0
351.6796875,-43.9453125,968.26171875,-31.25,-29.78515625,76.171875,0.0
351.68359375,-50.29296875,968.26171875,-33.203125,-26.85546875,-402.34375,0.0
351.6875,-24.90234375,967.7734375,-30.2734375,-12.20703125,-555.6640625,0.0
351.69140625,-15.13671875,968.26171875,-24.90234375,-15.13671875,-313.4765625,0.0
351.6953125,-29.78515625,968.26171875,-33.203125,-43.9453125,431.640625,0.0
351.69921875,-40.0390625,968.26171875,-41.015625,-50.29296875,174.8046875,0.0
351.703125,-35.64453125,968.26171875,-32.2265625,-36.62109375,-442.3828125,0.0
351.70703125,-29.296875,968.26171875,-23.4375,-25.390625,-734.86328125,0.0
351.7109375,-20.99609375,968.26171875,-25.390625,-23.4375,-580.56640625,0.0
351.71484375,-23.4375,968.26171875,-29.78515625,-30.76171875,412.59765625,0.0
351.71875,-28.80859375,967.7734375,-27.83203125,-32.71484375,289.55078125,0.0
351.72265625,-21.97265625,967.7734375,-25.390625,-17.08984375,-597.65625,0.0
351.7265625,-31.25,968.26171875,-34.66796875,-17.08984375,-919.921875,0.0
351.73046875,-36.1328125,968.26171875,-38.0859375,-19.53125,-672.8515625,0.0
351.734375,-30.2734375,968.26171875,-37.59765625,-23.92578125,515.13671875,0.0
351.73828125,-29.78515625,968.26171875,-34.1796875,-30.2734375,576.171875,0.0
351.7421875,-24.90234375,968.26171875,-36.62109375,-21.97265625,-583.0078125,0.0
351.74609375,-19.04296875,968.26171875,-31.25,-13.18359375,-985.83984375,0.0
351.75,-4.39453125,968.26171875,-28.80859375,-15.625,-771.97265625,0.0
351.75390625,-17.08984375,968.26171875,-40.0390625,-31.25,334.47265625,0.0
351.7578125,-32.71484375,968.26171875,-43.9453125,-43.45703125,807.6171875,0.0
351.76171875,-34.1796875,968.26171875,-38.0859375,-31.73828125,-416.50390625,0.0
351.765625,-29.296875,968.26171875,-31.25,-20.99609375,-908.69140625,0.0
351.76953125,-18.5546875,968.26171875,-30.2734375,-21.484375,-633.30078125,0.0
351.7734375,-29.296875,968.26171875,-34.66796875,-35.15625,151.85546875,0.0
351.77734375,-32.2265625,968.26171875,-35.64453125,-42.48046875,813.4765625,0.0
351.78125,-28.3203125,968.26171875,-32.2265625,-30.2734375,-123.53515625,0.0
351.78515625,-30.2734375,967.7734375,-33.203125,-23.92578125,-923.828125,0.0
351.7890625,-18.5546875,968.26171875,-21.484375,-16.6015625,-720.21484375,0.0
351.79296875,-13.671875,968.26171875,-20.99609375,-21.97265625,350.5859375,0.0
351.796875,-29.78515625,967.7734375,-31.25,-33.203125,935.546875,0.0
351.80078125,-47.36328125,968.26171875,-41.015625,-42.48046875,188.4765625,0.0
351.8046875,-58.10546875,969.7265625,-53.22265625,-46.875,-574.70703125,0.0
351.80859375,-30.2734375,957.51953125,-38.0859375,-19.53125,-859.86328125,0.0
351.8125,-16.6015625,906.25,-27.34375,-8.7890625,-193.84765625,0.0
351.81640625,-30.76171875,-840.8203125,-22.94921875,-20.99609375,858.3984375,0.0
351.8203125,-23.92578125,-92.7734375,-9.27734375,-17.08984375,143.5546875,0.0
351.82421875,-19.53125,-776.3671875,-12.6953125,-9.27734375,-846.19140625,0.0
351.828125,-20.5078125,752.9296875,-18.06640625,-10.25390625,-652.34375,0.0
351.83203125,-12.20703125,-809.08203125,-19.04296875,-6.8359375,-151.85546875,0.0
351.8359375,-16.11328125,210.44921875,-21.484375,-12.6953125,639.6484375,0.0
351.83984375,-28.80859375,-1000.0,-30.2734375,-24.90234375,324.70703125,0.0
351.84375,-19.53125,-948.2421875,-26.85546875,-5.37109375,-827.1484375,0.0
351.84765625,-8.30078125,-1000.0,-22.94921875,-2.9296875,-641.6015625,0.0
351.8515625,-15.625,-670.8984375,-22.4609375,-22.94921875,-10.25390625,0.0
351.85546875,-35.64453125,-323.2421875,-26.85546875,-35.15625,457.03125,0.0
351.859375,-36.62109375,-1000.0,-28.3203125,-40.52734375,275.87890625,0.0
351.86328125,-25.390625,-1000.0,-22.94921875,-26.85546875,-748.53515625,0.0
351.8671875,-13.671875,-973.6328125,-25.390625,-15.625,-604.4921875,0.0
351.87109375,-9.765625,-1000.0,-23.4375,-20.01953125,1.46484375,0.0
351.875,-15.13671875,-1000.0,-23.4375,-19.04296875,290.0390625,0.0
351.87890625,-42.96875,-1000.0,-27.83203125,-29.78515625,90.33203125,0.0
351.8828125,-49.8046875,-1000.0,-26.3671875,-33.203125,-658.203125,0.0
351.88671875,-29.296875,-1000.0,-26.85546875,-25.87890625,-647.4609375,0.0
351.890625,-33.69140625,-1000.0,-33.203125,-34.1796875,-82.03125,0.0
351.89453125,-40.52734375,-1000.0,-37.109375,-46.875,437.98828125,0.0
351.8984375,-46.38671875,-1000.0,-31.73828125,-47.8515625,490.72265625,0.0
351.90234375,-37.109375,-1000.0,-25.390625,-27.83203125,-315.91796875,0.0
351.90625,-13.671875,-1000.0,-23.92578125,-11.71875,-562.5,0.0
351.91015625,-13.18359375,-1000.0,-19.53125,-9.765625,-71.2890625,0.0
351.9140625,-18.06640625,-1000.0,-20.5078125,-30.2734375,381.8359375,0.0
351.91796875,-24.4140625,-1000.0,-28.3203125,-48.33984375,429.19921875,0.0
351.921875,-44.921875,-1000.0,-37.109375,-45.8984375,-376.953125,0.0
351.92578125,-45.8984375,-1000.0,-27.83203125,-26.85546875,-601.5625,0.0
351.9296875,-25.390625,-1000.0,-19.53125,-17.08984375,-141.11328125,0.0
351.93359375,-27.83203125,-1000.0,-30.2734375,-37.59765625,305.17578125,0.0
351.9375,-26.85546875,-1000.0,-33.203125,-39.55078125,503.90625,0.0
351.94140625,-19.53125,-1000.0,-25.87890625,-29.296875,-152.34375,0.0
351.9453125,-20.01953125,-1000.0,-22.94921875,-15.13671875,-534.66796875,0.0
351.94921875,-17.08984375,-1000.0,-24.90234375,-9.27734375,-223.6328125,0.0
351.953125,-22.4609375,-1000.0,-29.296875,-24.4140625,145.99609375,0.0
351.95703125,-36.62109375,-1000.0,-29.78515625,-35.64453125,697.265625,0.0
351.9609375,-34.1796875,-1000.0,-23.4375,-34.1796875,154.78515625,0.0
351.96484375,-25.390625,-1000.0,-26.85546875,-24.90234375,-787.109375,0.0
351.96875,-35.15625,-1000.0,-37.59765625,-29.78515625,-518.06640625,0.0
351.97265625,-29.78515625,-1000.0,-27.83203125,-24.90234375,8.30078125,0.0
351.9765625,-27.34375,-1000.0,-15.625,-25.87890625,577.63671875,0.0
351.98046875,-38.0859375,-1000.0,-19.04296875,-31.73828125,109.375,0.0
351.984375,-19.53125,-1000.0,-16.6015625,-7.32421875,-831.0546875,0.0
351.98828125,-15.625,-1000.0,-20.5078125,-9.765625,-489.74609375,0.0
351.9921875,-22.4609375,-1000.0,-24.90234375,-33.69140625,-64.94140625,0.0
351.99609375,-32.71484375,-1000.0,-32.71484375,-44.43359375,395.01953125,0.0
352.0,-37.59765625,-1000.0,-35.64453125,-37.109375,115.234375,0.0
352.00390625,-24.4140625,-1000.0,-33.69140625,-26.3671875,-819.82421875,0.0
352.0078125,-18.5546875,-1000.0,-24.90234375,-18.5546875,-629.39453125,0.0
352.01171875,-29.78515625,-1000.0,-33.203125,-35.15625,-214.84375,0.0
352.015625,-40.52734375,-1000.0,-39.0625,-52.24609375,205.078125,0.0
352.01953125,-36.1328125,-1000.0,-23.4375,-32.71484375,123.53515625,0.0
352.0234375,-35.64453125,-1000.0,-20.01953125,-26.85546875,-609.375,0.0
352.02734375,-25.390625,-1000.0,-23.4375,-25.87890625,-486.328125,0.0
352.03125,-17.578125,-1000.0,-26.3671875,-28.80859375,-17.578125,0.0
352.03515625,-43.45703125,-1000.0,-33.69140625,-42.96875,380.859375,0.0
352.0390625,-58.10546875,-1000.0,-37.109375,-38.57421875,368.1640625,0.0
352.04296875,-51.26953125,-1000.0,-28.80859375,-28.3203125,-410.15625,0.0
352.046875,-41.015625,-1000.0,-25.87890625,-19.53125,-371.58203125,0.0
352.05078125,-39.55078125,-1000.0,-36.1328125,-22.94921875,240.234375,0.0
352.0546875,-52.24609375,-1000.0,-39.55078125,-47.36328125,699.70703125,0.0
352.05859375,-62.5,-1000.0,-41.9921875,-58.59375,674.8046875,0.0
352.0625,-60.05859375,-1000.0,-38.57421875,-44.43359375,-180.6640625,0.0
352.06640625,-44.921875,-1000.0,-30.2734375,-22.94921875,-421.38671875,0.0
352.0703125,-43.45703125,-1000.0,-41.9921875,-35.64453125,17.578125,0.0
352.07421875,-65.4296875,-1000.0,-61.5234375,-70.80078125,481.93359375,0.0
352.078125,-46.875,-1000.0,-41.50390625,-50.78125,852.5390625,0.0
352.08203125,-31.25,-1000.0,-23.92578125,-30.2734375,81.0546875,0.0
352.0859375,-38.57421875,-1000.0,-18.5546875,-23.92578125,-610.83984375,0.0
352.08984375,-31.73828125,-1000.0,-25.390625,-23.92578125,-184.5703125,0.0
352.09375,-24.4140625,-1000.0,-23.92578125,-36.1328125,349.609375,0.0
352.09765625,-24.90234375,-1000.0,-25.87890625,-41.9921875,949.70703125,0.0
352.1015625,-34.66796875,-1000.0,-35.15625,-38.57421875,64.94140625,0.0
352.10546875,-37.109375,-1000.0,-30.2734375,-22.4609375,-1000.0,0.0
352.109375,-24.4140625,-1000.0,-21.484375,-14.16015625,-491.2109375,0.0
352.11328125,-33.69140625,-1000.0,-24.90234375,-27.83203125,-20.01953125,0.0
352.1171875,-59.5703125,-1000.0,-41.9921875,-54.6875,747.55859375,0.0
352.12109375,-57.12890625,-1000.0,-41.50390625,-48.33984375,164.0625,0.0
352.125,-27.83203125,-1000.0,-29.78515625,-24.90234375,-1000.0,0.0
352.12890625,-5.37109375,-1000.0,-31.25,-29.296875,-581.0546875,0.0
352.1328125,-7.8125,-1000.0,-23.4375,-25.390625,50.29296875,0.0
352.13671875,-24.4140625,-1000.0,-14.16015625,-35.15625,852.5390625,0.0
352.140625,-31.73828125,-1000.0,-21.484375,-38.0859375,358.3984375,0.0
352.14453125,-34.1796875,-1000.0,-26.3671875,-23.4375,-1000.0,0.0
352.1484375,-26.85546875,-1000.0,-19.04296875,-16.11328125,-916.015625,0.0
352.15234375,-29.78515625,-1000.0,-24.90234375,-24.90234375,121.58203125,0.0
352.15625,-34.66796875,-1000.0,-29.296875,-33.69140625,-945.3125,0.0
352.16015625,-40.52734375,-1000.0,-31.25,-45.41015625,139.6484375,0.0
352.1640625,-51.26953125,-1000.0,-41.015625,-61.03515625,-1000.0,0.0
352.16796875,-40.52734375,-1000.0,-36.1328125,-39.0625,-930.17578125,0.0
352.171875,-28.3203125,-1000.0,-31.25,-28.80859375,-622.0703125,0.0
352.17578125,-41.9921875,-1000.0,-41.015625,-52.24609375,503.90625,0.0
352.1796875,-43.9453125,-1000.0,-37.109375,-46.875,414.0625,0.0
352.18359375,-20.99609375,-1000.0,-21.97265625,-22.94921875,-1000.0,0.0
352.1875,-17.578125,-1000.0,-25.390625,-14.6484375,-945.80078125,0.0
352.19140625,-29.296875,-1000.0,-35.15625,-26.3671875,-462.40234375,0.0
352.1953125,-32.71484375,-1000.0,-35.64453125,-43.9453125,569.82421875,0.0
352.19921875,-30.76171875,-1000.0,-33.203125,-42.48046875,643.5546875,0.0
352.203125,-28.3203125,-1000.0,-33.69140625,-37.59765625,-820.80078125,0.0
352.20703125,-28.3203125,-1000.0,-25.87890625,-23.92578125,-979.4921875,0.0
352.2109375,-36.1328125,-1000.0,-24.4140625,-29.78515625,-414.55078125,0.0
352.21484375,-42.48046875,-1000.0,-35.15625,-49.31640625,521.484375,0.0
352.21875,-42.48046875,-1000.0,-30.2734375,-42.48046875,732.421875,0.0
352.22265625,-39.0625,-31.25,-22.94921875,-30.2734375,-691.89453125,0.0
352.2265625,-25.390625,-36.62109375,-25.87890625,-21.484375,-1000.0,0.0
352.23046875,-14.16015625,-35.15625,-22.4609375,-22.94921875,-471.6796875,0.0
352.234375,-21.97265625,-33.203125,-19.04296875,-26.3671875,363.28125,0.0
352.23828125,-38.57421875,-29.78515625,-27.34375,-41.015625,-897.4609375,0.0
352.2421875,-27.83203125,-38.0859375,-25.87890625,-40.52734375,142.08984375,0.0
352.24609375,-27.83203125,-25.87890625,-16.6015625,-17.08984375,-1000.0,0.0
352.25,-40.52734375,-31.73828125,-27.83203125,-27.83203125,-869.62890625,0.0
352.25390625,-50.29296875,-56.640625,-45.41015625,-59.5703125,132.32421875,0.0
352.2578125,-35.15625,-43.9453125,-32.2265625,-51.7578125,-914.0625,0.0
352.26171875,-22.4609375,-20.99609375,-20.01953125,-28.80859375,-94.7265625,0.0
352.265625,-27.34375,-23.92578125,-20.01953125,-18.06640625,-1000.0,0.0
352.26953125,-27.83203125,-27.34375,-20.01953125,-24.4140625,-31.25,0.0
352.2734375,-30.76171875,-20.5078125,-24.4140625,-33.203125,-21.97265625,0.0
352.27734375,-46.875,-23.92578125,-24.90234375,-39.55078125,-22.4609375,0.0
352.28125,-52.24609375,-15.625,-28.3203125,-46.875,-50.78125,0.0
352.28515625,-26.85546875,-16.11328125,-17.578125,-21.97265625,-9.27734375,0.0
352.2890625,-18.06640625,-35.15625,-5.37109375,-6.34765625,21.97265625,0.0
352.29296875,-40.0390625,-25.87890625,-12.20703125,-26.85546875,28.3203125,0.0
352.296875,-52.734375,-30.76171875,-18.06640625,-41.9921875,16.6015625,0.0
352.30078125,-59.5703125,-37.109375,-15.625,-43.45703125,-18.06640625,0.0
352.3046875,-59.5703125,-35.64453125,-10.25390625,-42.48046875,-23.4375,0.0
352.30859375,-38.57421875,-37.59765625,-16.6015625,-27.34375,-55.17578125,0.0
352.3125,-20.99609375,-29.296875,-17.08984375,-15.13671875,-70.80078125,0.0
352.31640625,-28.3203125,940.91796875,-19.04296875,-34.66796875,906.25,0.0
352.3203125,-42.96875,975.09765625,-19.53125,-39.0625,416.015625,0.0
352.32421875,-46.38671875,968.26171875,-17.08984375,-37.109375,-890.625,0.0
352.328125,-39.55078125,968.26171875,-21.484375,-41.015625,-646.484375,0.0
352.33203125,-25.390625,968.26171875,-20.99609375,-30.2734375,219.23828125,0.0
352.3359375,-36.62109375,968.26171875,-21.484375,-41.9921875,916.015625,0.0
352.33984375,-50.78125,968.26171875,-21.97265625,-54.19921875,501.46484375,0.0
352.34375,-44.43359375,968.26171875,-28.3203125,-37.59765625,-848.6328125,0.0
352.34765625,-31.25,967.7734375,-31.25,-30.2734375,-729.4921875,0.0
352.3515625,-22.4609375,968.26171875,-33.69140625,-30.2734375,145.5078125,0.0
352.35546875,-38.57421875,968.26171875,-40.0390625,-49.8046875,835.9375,0.0
352.359375,-37.109375,968.26171875,-38.57421875,-48.33984375,612.79296875,0.0
352.36328125,-19.53125,-29.78515625,-30.2734375,-26.3671875,8.7890625,0.0
352.3671875,-24.4140625,-27.83203125,-28.80859375,-30.2734375,-23.92578125,0.0
352.37109375,-28.80859375,-26.85546875,-31.25,-29.296875,-7.32421875,0.0
352.375,-31.25,-30.2734375,-34.66796875,-32.2265625,-4.8828125,0.0
352.37890625,-34.1796875,-38.0859375,-37.59765625,-37.109375,-10.7421875,0.0
352.3828125,-31.25,-20.5078125,-36.62109375,-26.85546875,15.13671875,0.0
352.38671875,-17.578125,-31.73828125,-33.203125,-4.8828125,15.13671875,0.0
352.390625,-8.7890625,-55.6640625,-34.66796875,1.46484375,49.31640625,0.0
352.39453125,-27.34375,-37.109375,-32.71484375,-24.90234375,90.8203125,0.0
352.3984375,-31.25,-38.57421875,-33.69140625,-27.34375,6.34765625,0.0
352.40234375,-29.78515625,-45.41015625,-34.66796875,-17.578125,-66.40625,0.0
352.40625,-28.80859375,-34.1796875,-26.3671875,-7.8125,-75.1953125,0.0
352.41015625,-36.62109375,968.26171875,-31.25,-8.7890625,-142.578125,0.0
352.4140625,-39.0625,968.26171875,-35.64453125,-17.08984375,652.83203125,0.0
352.41796875,-39.55078125,968.26171875,-40.52734375,-27.83203125,948.2421875,0.0
352.421875,-36.1328125,968.26171875,-38.57421875,-25.87890625,-124.51171875,0.0
352.42578125,-21.484375,968.26171875,-25.87890625,-5.37109375,-1000.0,0.0
352.4296875,-12.20703125,968.26171875,-19.04296875,-4.39453125,-458.984375,0.0
352.43359375,-21.484375,968.26171875,-32.71484375,-31.25,541.9921875,0.0
352.4375,-36.1328125,968.26171875,-41.50390625,-32.2265625,948.2421875,0.0
352.44140625,-41.9921875,968.26171875,-34.66796875,-17.08984375,136.71875,0.0
352.4453125,-39.0625,968.26171875,-33.69140625,-24.90234375,-561.03515625,0.0
352.44921875,-38.57421875,968.26171875,-40.0390625,-28.80859375,-140.625,0.0
352.453125,-31.73828125,968.26171875,-40.0390625,-22.4609375,554.19921875,0.0
352.45703125,-41.9921875,968.26171875,-39.55078125,-35.64453125,920.8984375,0.0
352.4609375,-37.109375,968.26171875,-30.76171875,-29.296875,145.99609375,0.0
352.46484375,-21.97265625,968.26171875,-23.4375,-17.08984375,-706.54296875,0.0
352.46875,-14.16015625,968.26171875,-23.4375,-19.53125,-566.40625,0.0
352.47265625,-11.23046875,968.26171875,-25.87890625,-26.85546875,96.19140625,0.0
352.4765625,-37.109375,967.7734375,-35.64453125,-44.921875,882.8125,0.0
352.48046875,-43.9453125,968.26171875,-29.78515625,-41.50390625,587.890625,0.0
352.484375,-13.671875,968.26171875,-25.390625,-10.7421875,-479.98046875,0.0
352.48828125,-5.37109375,968.26171875,-29.78515625,-6.34765625,-571.2890625,0.0
352.4921875,-24.4140625,968.26171875,-38.0859375,-32.71484375,257.32421875,0.0
352.49609375,-38.57421875,968.26171875,-37.59765625,-45.8984375,907.2265625,0.0
352.5,-44.921875,968.26171875,-32.71484375,-45.8984375,491.2109375,0.0
352.50390625,-25.390625,968.26171875,-25.87890625,-27.83203125,-672.36328125,0.0
352.5078125,-17.08984375,968.26171875,-24.4140625,-13.18359375,-586.42578125,0.0
352.51171875,-25.87890625,968.26171875,-31.73828125,-28.80859375,-14.6484375,0.0
352.515625,-29.78515625,968.26171875,-42.48046875,-57.6171875,673.828125,0.0
352.51953125,-42.48046875,968.26171875,-40.0390625,-54.6875,486.81640625,0.0
352.5234375,-45.8984375,968.26171875,-27.34375,-32.2265625,-727.5390625,0.0
352.52734375,-32.71484375,968.26171875,-28.80859375,-18.06640625,-615.72265625,0.0
352.53125,-35.15625,967.7734375,-32.71484375,-26.85546875,41.015625,0.0
352.53515625,-55.17578125,968.26171875,-31.73828125,-41.50390625,559.08203125,0.0
352.5390625,-54.6875,968.26171875,-32.71484375,-47.8515625,537.59765625,0.0
352.54296875,-46.875,968.26171875,-33.69140625,-33.203125,-505.859375,0.0
352.546875,-26.85546875,968.26171875,-30.76171875,-18.06640625,-800.78125,0.0
352.55078125,-13.671875,968.26171875,-26.85546875,-19.53125,-295.8984375,0.0
352.5546875,-19.53125,967.7734375,-30.76171875,-35.64453125,479.00390625,0.0
352.55859375,-27.83203125,968.26171875,-32.2265625,-45.41015625,659.66796875,0.0
352.5625,-42.48046875,968.26171875,-29.296875,-33.69140625,-382.8125,0.0
352.56640625,-54.19921875,968.26171875,-34.66796875,-36.1328125,-977.5390625,0.0
352.5703125,-34.1796875,968.26171875,-25.87890625,-24.4140625,-594.7265625,0.0
352.57421875,-27.83203125,968.26171875,-25.87890625,-24.4140625,477.05078125,0.0
352.578125,-35.64453125,968.26171875,-31.73828125,-32.71484375,896.97265625,0.0
352.58203125,-57.12890625,968.26171875,-39.0625,-43.45703125,-96.19140625,0.0
352.5859375,-42.48046875,968.26171875,-36.62109375,-33.203125,-867.67578125,0.0
352.58984375,-4.39453125,967.7734375,-26.85546875,-11.71875,-147.94921875,0.0
352.59375,-13.671875,967.7734375,-33.69140625,-31.25,750.48828125,0.0
352.59765625,-47.8515625,967.7734375,-34.66796875,-44.43359375,931.640625,0.0
352.6015625,-37.109375,968.26171875,-18.06640625,-23.4375,203.61328125,0.0
352.60546875,-22.94921875,968.26171875,-16.6015625,-14.6484375,-803.7109375,0.0
352.609375,-21.484375,967.7734375,-22.4609375,-16.6015625,-254.8828125,0.0
352.61328125,-18.5546875,968.26171875,-25.390625,-29.296875,793.45703125,0.0
352.6171875,-29.296875,967.7734375,-23.4375,-41.50390625,988.28125,0.0
352.62109375,-32.2265625,968.26171875,-18.5546875,-30.76171875,375.9765625,0.0
352.625,-27.83203125,968.26171875,-28.3203125,-31.73828125,-703.61328125,0.0
352.62890625,-32.71484375,967.7734375,-44.43359375,-46.38671875,-467.7734375,0.0
352.6328125,-29.296875,968.26171875,-34.1796875,-32.71484375,604.98046875,0.0
352.63671875,-29.78515625,968.26171875,-21.97265625,-32.2265625,-982.91015625,0.0
352.640625,-35.64453125,968.26171875,-26.85546875,-33.203125,313.96484375,0.0
352.64453125,-20.5078125,968.26171875,-17.578125,-10.7421875,-556.640625,0.0
352.6484375,-17.578125,968.26171875,-13.18359375,-6.34765625,-408.203125,0.0
352.65234375,-32.2265625,968.26171875,-38.0859375,-32.2265625,246.09375,0.0
352.65625,-33.203125,968.26171875,-43.45703125,-41.9921875,875.48828125,0.0
352.66015625,-26.3671875,968.26171875,-33.203125,-32.71484375,175.78125,0.0
352.6640625,-27.34375,968.26171875,-29.296875,-22.4609375,-820.3125,0.0
352.66796875,-26.85546875,968.26171875,-29.296875,-9.765625,-449.21875,0.0
352.671875,-37.59765625,968.26171875,-47.36328125,-30.2734375,117.1875,0.0
352.67578125,-41.015625,968.26171875,-45.41015625,-49.31640625,653.3203125,0.0
352.6796875,-34.1796875,967.7734375,-26.85546875,-25.87890625,314.94140625,0.0
352.68359375,-34.1796875,968.26171875,-22.94921875,-12.6953125,-817.87109375,0.0
352.6875,-27.83203125,968.75,-18.5546875,-15.13671875,-601.07421875,0.0
352.69140625,-26.85546875,896.484375,-21.97265625,-18.5546875,9.765625,0.0
352.6953125,-27.83203125,-857.91015625,-27.83203125,-32.71484375,627.9296875,0.0
352.69921875,-27.34375,184.5703125,-36.1328125,-39.0625,558.59375,0.0
352.703125,-34.1796875,-1000.0,-36.1328125,-31.73828125,-622.55859375,0.0
352.70703125,-31.25,260.25390625,-28.3203125,-18.06640625,-749.0234375,0.0
352.7109375,-20.01953125,-840.8203125,-30.76171875,-15.625,-270.01953125,0.0
352.71484375,-35.64453125,824.70703125,-39.55078125,-40.52734375,504.8828125,0.0
352.71875,-47.8515625,-415.52734375,-48.33984375,-58.59375,623.53515625,0.0
352.72265625,-34.1796875,-1000.0,-42.48046875,-49.8046875,-508.7890625,0.0
352.7265625,-14.16015625,-89.84375,-32.2265625,-15.625,-914.0625,0.0
352.73046875,-20.01953125,-953.61328125,-30.2734375,-12.6953125,-422.36328125,0.0
352.734375,-31.73828125,942.87109375,-26.3671875,-39.0625,540.52734375,0.0
352.73828125,-40.52734375,945.80078125,-27.34375,-43.45703125,693.359375,0.0
352.7421875,-50.29296875,973.14453125,-24.90234375,-31.73828125,-302.734375,0.0
352.74609375,-36.62109375,968.26171875,-27.83203125,-13.671875,-652.83203125,0.0
352.75,-26.3671875,968.26171875,-35.64453125,-13.18359375,-365.72265625,0.0
352.75390625,-18.06640625,968.26171875,-35.15625,-23.92578125,327.1484375,0.0
352.7578125,-21.97265625,968.26171875,-32.2265625,-24.90234375,610.3515625,0.0
352.76171875,-51.26953125,968.26171875,-46.38671875,-36.62109375,-240.234375,0.0
352.765625,-40.0390625,968.26171875,-41.015625,-33.69140625,-600.5859375,0.0
352.76953125,-17.08984375,968.26171875,-29.296875,-15.13671875,-268.06640625,0.0
352.7734375,-22.94921875,968.26171875,-36.62109375,-23.4375,332.03125,0.0
352.77734375,-34.66796875,968.26171875,-39.55078125,-35.64453125,714.35546875,0.0
352.78125,-32.2265625,968.26171875,-33.69140625,-27.83203125,-149.4140625,0.0
352.78515625,-14.6484375,978.02734375,-30.2734375,-12.6953125,-663.0859375,0.0
352.7890625,-15.625,895.5078125,-28.80859375,-16.11328125,-325.1953125,0.0
352.79296875,-30.76171875,-895.5078125,-22.94921875,-28.80859375,125.9765625,0.0
352.796875,-40.0390625,382.8125,-30.76171875,-31.25,573.2421875,0.0
352.80078125,-32.71484375,-920.41015625,-30.76171875,-29.296875,-120.1171875,0.0
352.8046875,-26.85546875,-1000.0,-34.1796875,-37.109375,-745.60546875,0.0
352.80859375,-36.62109375,-141.6015625,-46.875,-38.57421875,-323.73046875,0.0
352.8125,-22.94921875,943.359375,-33.203125,-22.4609375,137.20703125,0.0
352.81640625,-20.01953125,-507.8125,-27.83203125,-25.390625,525.87890625,0.0
352.8203125,-51.26953125,-1000.0,-38.57421875,-43.9453125,-78.125,0.0
352.82421875,-49.8046875,-926.7578125,-37.109375,-34.66796875,-769.53125,0.0
352.828125,-18.06640625,-1000.0,-30.76171875,-16.6015625,-326.66015625,0.0
352.83203125,-11.23046875,-1000.0,-31.73828125,-27.34375,78.125,0.0
352.8359375,-31.25,-1000.0,-39.55078125,-48.828125,373.046875,0.0
352.83984375,-47.36328125,-1000.0,-37.109375,-50.78125,33.69140625,0.0
352.84375,-38.57421875,-1000.0,-26.3671875,-32.2265625,-748.53515625,0.0
352.84765625,-23.4375,-1000.0,-25.87890625,-26.3671875,-498.046875,0.0
352.8515625,-23.92578125,-1000.0,-35.15625,-33.69140625,15.13671875,0.0
352.85546875,-27.83203125,-1000.0,-31.73828125,-36.1328125,380.37109375,0.0
352.859375,-21.484375,-1000.0,-26.85546875,-27.34375,134.27734375,0.0
352.86328125,-34.1796875,-1000.0,-31.25,-29.78515625,-697.75390625,0.0
352.8671875,-33.203125,-1000.0,-26.3671875,-29.78515625,-503.90625,0.0
352.87109375,-16.6015625,-1000.0,-25.390625,-26.3671875,18.5546875,0.0
352.875,-34.66796875,-1000.0,-29.78515625,-39.55078125,385.25390625,0.0
352.87890625,-45.41015625,-1000.0,-35.64453125,-49.8046875,244.62890625,0.0
352.8828125,-51.26953125,-1000.0,-39.55078125,-48.33984375,-708.984375,0.0
352.88671875,-44.921875,-1000.0,-27.34375,-31.73828125,-668.9453125,0.0
352.890625,-34.1796875,-1000.0,-16.6015625,-34.66796875,-112.3046875,0.0
352.89453125,-51.7578125,-1000.0,-21.97265625,-50.78125,279.78515625,0.0
352.8984375,-61.5234375,-1000.0,-26.3671875,-45.41015625,299.8046875,0.0
352.90234375,-21.484375,-1000.0,-10.25390625,-5.37109375,-458.0078125,0.0
352.90625,-4.39453125,-1000.0,-10.7421875,5.859375,-504.39453125,0.0
352.91015625,-39.55078125,-1000.0,-16.11328125,-35.15625,-120.1171875,0.0
352.9140625,-79.58984375,-1000.0,-23.92578125,-92.28515625,312.5,0.0
352.91796875,-88.8671875,-1000.0,-26.85546875,-113.28125,395.01953125,0.0
352.921875,-94.7265625,-1000.0,-19.04296875,-105.46875,-458.0078125,0.0
352.92578125,-97.65625,-1000.0,-6.8359375,-106.93359375,-579.58984375,0.0
352.9296875,-102.05078125,-1000.0,-4.8828125,-126.46484375,-105.95703125,0.0
352.93359375,-122.0703125,-1000.0,-5.37109375,-151.3671875,261.23046875,0.0
352.9375,-144.04296875,-1000.0,-1.46484375,-175.78125,272.4609375,0.0
352.94140625,-159.1796875,-1000.0,4.39453125,-185.05859375,-390.13671875,0.0
352.9453125,-167.48046875,-1000.0,14.16015625,-188.4765625,-554.6875,0.0
352.94921875,-179.19921875,-1000.0,14.6484375,-207.51953125,-119.140625,0.0
352.953125,-190.91796875,-1000.0,-1.953125,-222.65625,322.75390625,0.0
352.95703125,-215.8203125,-1000.0,-14.6484375,-249.51171875,474.609375,0.0
352.9609375,-222.16796875,-1000.0,-6.34765625,-258.7890625,-200.1953125,0.0
352.96484375,-222.65625,-1000.0,3.41796875,-243.65234375,-587.40234375,0.0
352.96875,-219.7265625,-1000.0,-1.953125,-239.2578125,-219.7265625,0.0
352.97265625,-205.078125,-1000.0,-8.30078125,-251.46484375,231.4453125,0.0
352.9765625,-195.3125,-1000.0,-19.53125,-257.8125,541.015625,0.0
352.98046875,-204.1015625,-1000.0,-25.87890625,-242.1875,-51.7578125,0.0
352.984375,-203.61328125,-1000.0,-24.90234375,-222.16796875,-701.171875,0.0
352.98828125,-174.8046875,-1000.0,-33.203125,-209.47265625,-303.7109375,0.0
352.9921875,-147.4609375,-1000.0,-48.33984375,-200.1953125,189.453125,0.0
352.99609375,-125.48828125,-1000.0,-48.828125,-181.15234375,458.0078125,0.0
353.0,-125.0,-1000.0,-55.17578125,-171.38671875,128.41796875,0.0
353.00390625,-141.11328125,-1000.0,-83.49609375,-169.43359375,-581.54296875,0.0
353.0078125,-97.65625,-1000.0,-70.80078125,-116.2109375,-448.73046875,0.0
353.01171875,-56.640625,-1000.0,-47.36328125,-85.9375,122.0703125,0.0
353.015625,-52.734375,-1000.0,-67.3828125,-96.19140625,689.453125,0.0
353.01953125,-37.59765625,-1000.0,-77.63671875,-74.21875,986.328125,0.0
353.0234375,-24.4140625,-1000.0,-66.40625,-52.24609375,-63.4765625,0.0
353.02734375,-1.46484375,-1000.0,-60.05859375,-32.71484375,-962.890625,0.0
353.03125,20.99609375,-1000.0,-69.82421875,-23.4375,-903.3203125,0.0
353.03515625,14.16015625,-1000.0,-81.54296875,-37.109375,247.0703125,0.0
353.0390625,14.16015625,-1000.0,-69.82421875,-29.296875,210.44921875,0.0
353.04296875,29.78515625,-1000.0,-60.05859375,0.9765625,-1000.0,0.0
353.046875,34.1796875,-1000.0,-72.75390625,13.18359375,-961.9140625,0.0
353.05078125,42.48046875,-1000.0,-74.21875,9.765625,-764.16015625,0.0
353.0546875,33.69140625,-1000.0,-65.4296875,6.34765625,-84.9609375,0.0
353.05859375,20.5078125,-1000.0,-66.89453125,8.7890625,435.546875,0.0
353.0625,31.25,-1000.0,-69.82421875,20.99609375,-649.4140625,0.0
353.06640625,41.9921875,-1000.0,-70.80078125,29.78515625,-846.19140625,0.0
353.0703125,55.17578125,-1000.0,-61.5234375,37.59765625,8.7890625,0.0
353.07421875,54.19921875,-1000.0,-59.08203125,19.04296875,481.4453125,0.0
353.078125,37.59765625,-1000.0,-61.5234375,18.06640625,870.60546875,0.0
353.08203125,39.0625,-1000.0,-60.05859375,41.9921875,-165.52734375,0.0
353.0859375,64.453125,-1000.0,-45.41015625,56.640625,-869.140625,0.0
353.08984375,69.82421875,-1000.0,-41.9921875,52.24609375,-186.03515625,0.0
353.09375,58.59375,-1000.0,-54.19921875,31.25,412.59765625,0.0
353.09765625,52.24609375,-1000.0,-57.12890625,22.94921875,959.9609375,0.0
353.1015625,43.45703125,-1000.0,-54.6875,33.69140625,101.5625,0.0
353.10546875,41.015625,-1000.0,-49.31640625,46.875,-1000.0,0.0
353.109375,55.17578125,-1000.0,-41.9921875,47.36328125,-471.6796875,0.0
353.11328125,58.10546875,-1000.0,-53.7109375,39.55078125,441.89453125,0.0
353.1171875,44.43359375,-937.5,-61.03515625,27.34375,983.3984375,0.0
353.12109375,25.87890625,-1000.0,-45.41015625,28.80859375,308.59375,0.0
353.125,29.78515625,-220.21484375,-44.43359375,36.1328125,-715.8203125,0.0
353.12890625,42.48046875,-960.9375,-44.921875,34.66796875,-246.09375,0.0
353.1328125,42.96875,951.66015625,-42.48046875,27.83203125,428.22265625,0.0
353.13671875,29.296875,940.91796875,-55.17578125,14.6484375,772.4609375,0.0
353.140625,3.90625,975.09765625,-54.19921875,0.48828125,291.015625,0.0
353.14453125,24.4140625,968.26171875,-35.64453125,19.53125,-587.40234375,0.0
353.1484375,41.015625,968.26171875,-34.1796875,37.59765625,-266.11328125,0.0
353.15234375,27.34375,968.26171875,-44.43359375,21.484375,526.85546875,0.0
353.15625,28.80859375,968.26171875,-45.8984375,9.765625,845.21484375,0.0
353.16015625,27.83203125,968.26171875,-44.43359375,10.25390625,247.0703125,0.0
353.1640625,14.16015625,967.7734375,-47.8515625,16.11328125,-547.8515625,0.0
353.16796875,16.6015625,968.26171875,-51.7578125,25.390625,-114.2578125,0.0
353.171875,17.08984375,968.26171875,-51.7578125,12.6953125,349.609375,0.0
353.17578125,20.01953125,967.7734375,-48.828125,-1.953125,503.41796875,0.0
353.1796875,1.953125,967.7734375,-44.43359375,-0.48828125,181.15234375,0.0
353.18359375,-8.30078125,968.26171875,-48.33984375,-2.44140625,-546.38671875,0.0
353.1875,7.8125,968.26171875,-45.8984375,17.578125,-307.6171875,0.0
353.19140625,5.859375,968.26171875,-37.109375,20.01953125,181.15234375,0.0
353.1953125,-2.9296875,967.7734375,-38.0859375,4.39453125,489.74609375,0.0
353.19921875,-14.16015625,968.26171875,-44.921875,-6.8359375,198.2421875,0.0
353.203125,-9.27734375,968.26171875,-36.1328125,4.8828125,-591.796875,0.0
353.20703125,11.23046875,968.26171875,-28.80859375,22.4609375,-328.125,0.0
353.2109375,21.484375,968.26171875,-31.73828125,12.6953125,91.796875,0.0
353.21484375,7.8125,967.7734375,-36.62109375,-8.30078125,348.6328125,0.0
353.21875,1.46484375,968.26171875,-38.0859375,-8.7890625,130.859375,0.0
353.22265625,-1.46484375,968.26171875,-36.62109375,2.44140625,-584.9609375,0.0
353.2265625,-12.20703125,968.26171875,-42.96875,-5.859375,-365.234375,0.0
353.23046875,4.8828125,967.7734375,-48.33984375,-10.7421875,132.8125,0.0
353.234375,6.34765625,968.26171875,-42.48046875,-13.18359375,466.30859375,0.0
353.23828125,-15.13671875,968.26171875,-39.0625,-17.08984375,315.4296875,0.0
353.2421875,-34.1796875,968.26171875,-42.48046875,-20.5078125,-395.99609375,0.0
353.24609375,-26.3671875,968.26171875,-35.64453125,-11.71875,-312.01171875,0.0
353.25,-7.32421875,968.26171875,-34.66796875,-3.90625,105.95703125,0.0
353.25390625,-17.08984375,968.26171875,-37.59765625,-16.6015625,402.34375,0.0
353.2578125,-28.3203125,968.26171875,-38.57421875,-22.4609375,415.52734375,0.0
353.26171875,-27.34375,968.26171875,-37.109375,-15.625,-288.0859375,0.0
353.265625,-15.13671875,969.7265625,-36.1328125,-3.41796875,-450.1953125,0.0
353.26953125,-7.32421875,956.54296875,-34.66796875,-9.765625,66.89453125,0.0
353.2734375,-10.25390625,927.734375,-41.9921875,-30.2734375,397.94921875,0.0
353.27734375,-19.53125,-858.3984375,-37.59765625,-24.4140625,610.3515625,0.0
353.28125,-22.94921875,-114.2578125,-25.87890625,-18.06640625,35.15625,0.0
353.28515625,-14.16015625,-203.125,-28.80859375,-10.25390625,-687.98828125,0.0
353.2890625,-31.73828125,-961.42578125,-36.62109375,-26.85546875,-209.9609375,0.0
353.29296875,-35.15625,-920.8984375,-44.43359375,-32.2265625,294.43359375,0.0
353.296875,-24.90234375,378.90625,-35.15625,-19.04296875,833.0078125,0.0
353.30078125,-28.80859375,-1000.0,-34.1796875,-26.3671875,83.0078125,0.0
353.3046875,-31.73828125,-384.27734375,-40.0390625,-27.34375,-1000.0,0.0
353.30859375,-12.6953125,961.9140625,-27.83203125,-2.44140625,-468.26171875,0.0
353.3125,-4.8828125,-972.65625,-26.3671875,-10.7421875,312.01171875,0.0
353.31640625,-18.5546875,878.90625,-36.62109375,-31.25,802.24609375,0.0
353.3203125,-38.57421875,-500.0,-28.3203125,-30.76171875,187.98828125,0.0
353.32421875,-45.8984375,92.28515625,-30.76171875,-32.2265625,-1000.0,0.0
353.328125,-36.1328125,-828.125,-40.52734375,-34.66796875,-647.4609375,0.0
353.33203125,-37.59765625,895.99609375,-54.6875,-45.41015625,1.953125,0.0
353.3359375,-38.57421875,969.7265625,-53.22265625,-51.26953125,464.35546875,0.0
353.33984375,-24.4140625,968.26171875,-34.1796875,-33.69140625,57.6171875,0.0
353.34375,2.9296875,968.26171875,-29.296875,-15.13671875,-878.41796875,0.0
353.34765625,5.859375,968.26171875,-34.1796875,-19.04296875,-538.0859375,0.0
353.3515625,-25.390625,968.26171875,-40.52734375,-27.83203125,156.73828125,0.0
353.35546875,-20.99609375,968.26171875,-35.15625,-26.3671875,580.56640625,0.0
353.359375,-17.08984375,968.26171875,-42.96875,-36.62109375,295.8984375,0.0
353.36328125,-20.5078125,968.26171875,-36.1328125,-23.4375,-416.9921875,0.0
353.3671875,-8.30078125,968.26171875,-24.90234375,0.0,-41.015625,0.0
353.37109375,-6.8359375,968.26171875,-33.69140625,-13.671875,374.0234375,0.0
353.375,-21.484375,968.26171875,-40.52734375,-30.2734375,384.27734375,0.0
353.37890625,-58.59375,967.7734375,-63.4765625,-64.94140625,292.48046875,0.0
353.3828125,-52.24609375,967.7734375,-53.22265625,-47.8515625,-235.83984375,0.0
353.38671875,-6.8359375,968.26171875,-21.484375,1.953125,-805.17578125,0.0
353.390625,-0.48828125,968.26171875,-32.71484375,-11.23046875,-468.75,0.0
353.39453125,-23.4375,968.26171875,-41.50390625,-30.76171875,665.0390625,0.0
353.3984375,-31.73828125,967.7734375,-27.34375,-25.87890625,668.45703125,0.0
353.40234375,-32.2265625,968.26171875,-34.66796875,-21.97265625,-728.02734375,0.0
353.40625,-28.3203125,968.26171875,-33.69140625,-6.8359375,-698.73046875,0.0
353.41015625,-11.23046875,968.26171875,-29.78515625,-2.9296875,584.47265625,0.0
353.4140625,-1.953125,968.26171875,-34.66796875,-19.53125,-965.8203125,0.0
353.41796875,-12.6953125,967.7734375,-34.66796875,-23.4375,838.8671875,0.0
353.421875,-28.80859375,968.26171875,-29.296875,-17.578125,-89.84375,0.0
353.42578125,-27.34375,968.26171875,-33.203125,-18.5546875,-221.6796875,0.0
353.4296875,-12.20703125,968.26171875,-31.73828125,-22.4609375,781.73828125,0.0
353.43359375,-15.625,968.26171875,-28.80859375,-27.83203125,-977.5390625,0.0
353.4375,-23.92578125,968.26171875,-29.296875,-34.66796875,809.08203125,0.0
353.44140625,-18.5546875,968.26171875,-26.85546875,-22.4609375,411.62109375,0.0
353.4453125,-17.08984375,968.26171875,-31.25,-16.11328125,-504.39453125,0.0
353.44921875,-19.53125,968.26171875,-32.71484375,-21.484375,-366.2109375,0.0
353.453125,-10.25390625,968.26171875,-35.15625,-27.83203125,769.53125,0.0
353.45703125,-20.01953125,968.26171875,-34.1796875,-45.41015625,831.0546875,0.0
353.4609375,-38.57421875,968.26171875,-28.3203125,-32.2265625,218.75,0.0
353.46484375,-58.59375,967.7734375,-34.66796875,-21.97265625,-569.82421875,0.0
353.46875,-56.15234375,968.26171875,-36.62109375,-38.0859375,-403.3203125,0.0
353.47265625,-37.109375,967.7734375,-38.57421875,-44.43359375,458.49609375,0.0
353.4765625,-27.34375,967.7734375,-41.9921875,-42.48046875,643.06640625,0.0
353.48046875,-31.73828125,968.26171875,-37.109375,-48.828125,109.86328125,0.0
353.484375,-52.24609375,968.26171875,-41.9921875,-47.8515625,-662.59765625,0.0
353.48828125,-40.52734375,968.26171875,-37.59765625,-27.83203125,-477.05078125,0.0
353.4921875,-25.87890625,968.26171875,-27.83203125,-26.85546875,189.94140625,0.0
353.49609375,-33.69140625,968.26171875,-30.2734375,-35.15625,488.76953125,0.0
353.5,-42.96875,968.26171875,-28.3203125,-33.69140625,134.765625,0.0
353.50390625,-43.9453125,967.7734375,-28.80859375,-26.3671875,-629.39453125,0.0
353.5078125,-17.578125,968.26171875,-22.4609375,-11.23046875,-589.35546875,0.0
353.51171875,-20.99609375,968.26171875,-36.62109375,-36.62109375,122.55859375,0.0
353.515625,-57.12890625,968.26171875,-51.7578125,-65.4296875,555.17578125,0.0
353.51953125,-52.24609375,968.26171875,-38.57421875,-50.29296875,130.37109375,0.0
353.5234375,-36.1328125,977.05078125,-28.3203125,-43.45703125,-539.0625,0.0
353.52734375,-25.87890625,896.484375,-17.08984375,-26.3671875,-427.24609375,0.0
353.53125,-19.53125,-894.04296875,-27.83203125,-18.5546875,-98.14453125,0.0
353.53515625,-21.97265625,352.5390625,-29.78515625,-35.64453125,356.93359375,0.0
353.5390625,-31.73828125,-946.2890625,-22.94921875,-41.015625,213.37890625,0.0
353.54296875,-43.45703125,-1000.0,-26.85546875,-29.296875,-544.43359375,0.0
353.546875,-38.57421875,-242.1875,-29.78515625,-20.99609375,-443.359375,0.0
353.55078125,-20.01953125,-833.49609375,-30.2734375,-18.06640625,-86.42578125,0.0
353.5546875,-29.78515625,160.15625,-39.0625,-36.62109375,208.984375,0.0
353.55859375,-53.7109375,-1000.0,-42.48046875,-50.29296875,158.203125,0.0
353.5625,-42.48046875,-1000.0,-25.87890625,-20.01953125,-560.546875,0.0
353.56640625,-13.671875,-479.4921875,-18.06640625,-4.8828125,-469.7265625,0.0
353.5703125,-31.25,-990.72265625,-35.64453125,-39.0625,-35.64453125,0.0
353.57421875,-44.921875,781.25,-41.015625,-50.78125,211.9140625,0.0
353.578125,-27.83203125,-627.44140625,-30.2734375,-28.3203125,134.27734375,0.0
353.58203125,-30.76171875,-1000.0,-30.2734375,-29.296875,-478.02734375,0.0
353.5859375,-25.390625,-449.70703125,-26.85546875,-27.34375,-446.2890625,0.0
353.58984375,-10.25390625,-940.4296875,-22.94921875,-15.625,-46.875,0.0
353.59375,-16.6015625,554.6875,-27.34375,-22.94921875,262.6953125,0.0
353.59765625,-22.4609375,-957.51953125,-35.64453125,-51.7578125,382.8125,0.0
353.6015625,-25.87890625,-1000.0,-35.64453125,-49.8046875,-137.6953125,0.0
353.60546875,-29.296875,-945.3125,-32.71484375,-21.97265625,-450.1953125,0.0
353.609375,-16.6015625,-1000.0,-27.83203125,-13.18359375,-226.5625,0.0
353.61328125,-8.30078125,-1000.0,-26.85546875,-25.390625,199.70703125,0.0
353.6171875,-38.0859375,-1000.0,-41.9921875,-54.19921875,588.37890625,0.0
353.62109375,-50.78125,-1000.0,-36.1328125,-48.33984375,461.9140625,0.0
353.625,-31.25,-1000.0,-24.90234375,-25.390625,-369.140625,0.0
353.62890625,-9.27734375,-1000.0,-23.4375,-22.4609375,-786.1328125,0.0
353.6328125,-14.16015625,-1000.0,-29.296875,-27.34375,265.625,0.0
353.63671875,-41.50390625,-1000.0,-31.73828125,-42.48046875,990.72265625,0.0
353.640625,-48.828125,-1000.0,-34.1796875,-45.41015625,-118.65234375,0.0
353.64453125,-42.48046875,-1000.0,-35.15625,-35.64453125,-1000.0,0.0
353.6484375,-26.3671875,-1000.0,-25.87890625,-18.5546875,-819.82421875,0.0
353.65234375,-21.97265625,-1000.0,-28.3203125,-17.578125,-235.83984375,0.0
353.65625,-22.4609375,-1000.0,-29.296875,-25.87890625,468.75,0.0
353.66015625,-40.52734375,-1000.0,-35.64453125,-37.109375,-358.3984375,0.0
353.6640625,-73.73046875,-1000.0,-58.59375,-56.15234375,-1000.0,0.0
353.66796875,-36.1328125,-1000.0,-38.0859375,-25.87890625,-515.625,0.0
353.671875,-18.5546875,-1000.0,-22.4609375,-17.578125,-105.46875,0.0
353.67578125,-33.203125,-958.984375,-25.390625,-31.73828125,233.88671875,0.0
353.6796875,-28.3203125,-1000.0,-28.3203125,-25.390625,-53.22265625,0.0
353.68359375,-19.53125,-967.28515625,-19.53125,-17.08984375,-708.984375,0.0
353.6875,-9.765625,312.98828125,-15.13671875,-11.23046875,-338.8671875,0.0
353.69140625,-15.625,-784.1796875,-30.2734375,-23.92578125,104.00390625,0.0
353.6953125,-33.69140625,189.94140625,-31.73828125,-33.69140625,296.38671875,0.0
353.69921875,-57.6171875,-1000.0,-33.69140625,-44.921875,140.625,0.0
353.703125,-52.24609375,-666.015625,-30.76171875,-35.15625,-497.55859375,0.0
353.70703125,-41.015625,712.40234375,-29.78515625,-29.78515625,-328.125,0.0
353.7109375,-32.2265625,-832.03125,-31.25,-34.1796875,194.82421875,0.0
353.71484375,-24.4140625,315.91796875,-24.4140625,-28.3203125,531.25,0.0
353.71875,-29.78515625,-966.796875,-22.4609375,-30.2734375,401.85546875,0.0
353.72265625,-28.3203125,-1000.0,-19.04296875,-29.78515625,-280.2734375,0.0
353.7265625,-19.53125,86.9140625,-20.99609375,-23.4375,-172.36328125,0.0
353.73046875,-26.85546875,-789.0625,-24.4140625,-27.34375,255.859375,0.0
353.734375,-32.2265625,481.4453125,-25.87890625,-31.73828125,517.08984375,0.0
353.73828125,-35.64453125,-895.99609375,-29.296875,-33.69140625,376.46484375,0.0
353.7421875,-48.828125,-1000.0,-25.87890625,-29.78515625,-312.98828125,0.0
353.74609375,-43.9453125,115.234375,-19.53125,-20.01953125,-294.43359375,0.0
353.75,-46.875,-903.80859375,-34.1796875,-24.4140625,184.08203125,0.0
353.75390625,-61.5234375,912.109375,-57.6171875,-56.15234375,546.875,0.0
353.7578125,-49.8046875,-372.55859375,-41.015625,-58.59375,460.44921875,0.0
353.76171875,-44.43359375,-1000.0,-26.3671875,-35.64453125,-197.75390625,0.0
353.765625,-34.66796875,193.359375,-29.296875,-16.6015625,-264.16015625,0.0
353.76953125,-24.4140625,-961.9140625,-24.4140625,-20.99609375,120.60546875,0.0
353.7734375,-26.3671875,-958.49609375,-16.6015625,-26.85546875,369.62890625,0.0
353.77734375,-32.2265625,183.59375,-20.01953125,-30.76171875,834.47265625,0.0
353.78125,-42.96875,-1000.0,-22.94921875,-36.1328125,-20.99609375,0.0
353.78515625,-37.59765625,-246.09375,-22.4609375,-23.4375,-690.91796875,0.0
353.7890625,-26.3671875,-974.609375,-21.484375,-8.7890625,77.1484375,0.0
353.79296875,-32.2265625,-959.9609375,-29.296875,-20.99609375,285.15625,0.0
353.796875,-46.875,-183.59375,-31.73828125,-39.0625,735.3515625,0.0
353.80078125,-45.41015625,-1000.0,-23.4375,-41.015625,29.296875,0.0
353.8046875,-36.1328125,-943.359375,-19.04296875,-23.4375,-846.19140625,0.0
353.80859375,-28.80859375,-997.0703125,-16.6015625,-9.27734375,-197.75390625,0.0
353.8125,-28.80859375,-1000.0,-15.625,-20.99609375,101.07421875,0.0
353.81640625,-35.15625,-1000.0,-26.85546875,-26.85546875,802.734375,0.0
353.8203125,-42.48046875,-1000.0,-37.59765625,-33.203125,142.578125,0.0
353.82421875,-37.109375,-1000.0,-33.69140625,-24.4140625,-1000.0,0.0
353.828125,-19.53125,-1000.0,-29.296875,-15.13671875,-583.984375,0.0
353.83203125,-26.85546875,-1000.0,-25.390625,-32.71484375,-221.6796875,0.0
353.8359375,-30.2734375,-1000.0,-30.76171875,-39.0625,426.7578125,0.0
353.83984375,-33.69140625,-1000.0,-35.15625,-40.52734375,0.48828125,0.0
353.84375,-39.55078125,-1000.0,-31.25,-40.0390625,-1000.0,0.0
353.84765625,-24.90234375,-1000.0,-25.390625,-28.3203125,-752.44140625,0.0
353.8515625,-13.18359375,-1000.0,-22.94921875,-20.99609375,-205.078125,0.0
353.85546875,-19.04296875,-956.54296875,-29.78515625,-28.80859375,317.87109375,0.0
353.859375,-42.48046875,-1000.0,-36.62109375,-43.9453125,132.32421875,0.0
353.86328125,-45.41015625,-938.96484375,-28.3203125,-43.9453125,-617.67578125,0.0
353.8671875,-31.25,327.1484375,-21.97265625,-31.73828125,-377.44140625,0.0
353.87109375,-23.92578125,-785.15625,-29.78515625,-26.3671875,147.94921875,0.0
353.875,-28.3203125,519.04296875,-26.85546875,-33.69140625,408.69140625,0.0
353.87890625,-35.15625,-1000.0,-26.3671875,-42.48046875,426.26953125,0.0
353.8828125,-33.69140625,-265.625,-24.4140625,-27.34375,-383.7890625,0.0
353.88671875,-29.78515625,-906.25,-27.83203125,-31.73828125,-543.9453125,0.0
353.890625,-19.04296875,936.5234375,-36.1328125,-30.76171875,-8.7890625,0.0
353.89453125,-17.578125,940.91796875,-28.3203125,-24.90234375,238.76953125,0.0
353.8984375,-23.92578125,974.609375,-20.99609375,-30.76171875,130.859375,0.0
353.90234375,-38.0859375,968.26171875,-28.80859375,-32.71484375,-251.953125,0.0
353.90625,-40.0390625,968.26171875,-34.66796875,-27.34375,-284.1796875,0.0
353.91015625,-25.87890625,968.26171875,-35.64453125,-27.83203125,-291.9921875,0.0
353.9140625,-25.390625,968.26171875,-32.71484375,-33.69140625,402.34375,0.0
353.91796875,-36.1328125,968.26171875,-32.2265625,-34.1796875,698.2421875,0.0
353.921875,-48.33984375,968.26171875,-37.109375,-43.45703125,83.0078125,0.0
353.92578125,-33.203125,968.26171875,-31.25,-25.87890625,-329.58984375,0.0
353.9296875,-26.85546875,968.26171875,-26.85546875,-27.83203125,-104.4921875,0.0
353.93359375,-47.36328125,968.26171875,-37.109375,-64.94140625,645.01953125,0.0
353.9375,-44.921875,968.26171875,-43.45703125,-57.12890625,600.09765625,0.0
353.94140625,-33.69140625,968.26171875,-35.15625,-31.73828125,14.6484375,0.0
353.9453125,-35.64453125,968.26171875,-25.390625,-19.53125,-559.5703125,0.0
353.94921875,-43.9453125,968.26171875,-40.0390625,-39.0625,-594.23828125,0.0
353.953125,-38.0859375,968.26171875,-36.62109375,-41.50390625,293.9453125,0.0
353.95703125,-39.0625,968.26171875,-27.83203125,-40.0390625,759.27734375,0.0
353.9609375,-55.6640625,967.7734375,-35.64453125,-56.640625,83.49609375,0.0
353.96484375,-46.875,968.26171875,-31.73828125,-44.921875,-712.890625,0.0
353.96875,-26.3671875,968.26171875,-24.90234375,-23.92578125,-291.015625,0.0
353.97265625,-21.484375,968.26171875,-29.296875,-31.73828125,396.97265625,0.0
353.9765625,-30.76171875,968.26171875,-31.25,-45.8984375,778.80859375,0.0
353.98046875,-40.52734375,968.26171875,-30.2734375,-46.38671875,9.765625,0.0
353.984375,-41.50390625,968.26171875,-30.2734375,-36.1328125,-1000.0,0.0
353.98828125,-46.875,968.26171875,-24.4140625,-35.64453125,-279.296875,0.0
353.9921875,-54.6875,968.26171875,-34.66796875,-55.6640625,770.01953125,0.0
353.99609375,-52.24609375,968.26171875,-40.0390625,-57.6171875,-958.0078125,0.0
354.0,-50.78125,968.26171875,-25.87890625,-41.015625,255.859375,0.0
354.00390625,-49.31640625,-43.45703125,-24.4140625,-30.2734375,-612.79296875,0.0
354.0078125,-23.92578125,-34.1796875,-29.296875,-22.94921875,133.30078125,0.0
354.01171875,-20.5078125,-31.73828125,-25.87890625,-30.76171875,763.18359375,0.0
354.015625,-33.69140625,-39.55078125,-27.83203125,-42.48046875,929.19921875,0.0
354.01953125,-40.0390625,-41.9921875,-28.80859375,-44.921875,422.8515625,0.0
354.0234375,-43.9453125,-28.80859375,-27.83203125,-41.9921875,-783.203125,0.0
354.02734375,-37.109375,-34.1796875,-29.296875,-31.25,-453.61328125,0.0
354.03125,-32.2265625,-38.0859375,-28.3203125,-31.25,423.33984375,0.0
354.03515625,-37.109375,-36.62109375,-30.2734375,-39.0625,792.48046875,0.0
354.0390625,-42.96875,-43.9453125,-28.3203125,-52.734375,654.296875,0.0
354.04296875,-37.59765625,-36.62109375,-26.85546875,-42.48046875,-552.24609375,0.0
354.046875,-26.85546875,-32.71484375,-21.97265625,-17.08984375,-583.984375,0.0
354.05078125,-21.97265625,968.26171875,-22.4609375,-22.4609375,298.828125,0.0
354.0546875,-38.0859375,968.26171875,-26.3671875,-36.1328125,740.234375,0.0
354.05859375,-41.50390625,968.26171875,-21.484375,-38.57421875,699.21875,0.0
354.0625,-35.64453125,968.26171875,-12.6953125,-29.296875,-470.703125,0.0
354.06640625,-32.71484375,968.26171875,-14.6484375,-24.90234375,-675.29296875,0.0
354.0703125,-23.4375,968.26171875,-13.671875,-23.92578125,250.48828125,0.0
354.07421875,-31.25,968.26171875,-22.4609375,-32.2265625,770.01953125,0.0
354.078125,-41.015625,968.26171875,-32.2265625,-47.8515625,773.92578125,0.0
354.08203125,-46.38671875,968.26171875,-32.2265625,-54.6875,-373.53515625,0.0
354.0859375,-27.83203125,968.26171875,-29.296875,-35.15625,-725.09765625,0.0
354.08984375,-25.87890625,968.26171875,-25.87890625,-26.3671875,141.11328125,0.0
354.09375,-47.8515625,968.26171875,-32.71484375,-46.875,698.2421875,0.0
354.09765625,-45.8984375,968.26171875,-41.015625,-56.640625,897.94921875,0.0
354.1015625,-46.875,967.7734375,-33.69140625,-43.9453125,-140.13671875,0.0
354.10546875,-37.59765625,968.26171875,-25.390625,-26.3671875,-739.74609375,0.0
354.109375,-25.390625,968.26171875,-26.85546875,-26.85546875,138.671875,0.0
354.11328125,-29.296875,968.26171875,-27.83203125,-42.96875,807.12890625,0.0
354.1171875,-45.8984375,967.7734375,-36.62109375,-53.7109375,934.08203125,0.0
354.12109375,-43.45703125,968.26171875,-30.76171875,-36.62109375,293.45703125,0.0
354.125,-34.1796875,968.26171875,-31.73828125,-28.3203125,-225.09765625,0.0
354.12890625,-40.0390625,968.26171875,-55.6640625,-48.828125,400.390625,0.0
354.1328125,-41.50390625,968.26171875,-47.8515625,-53.22265625,952.63671875,0.0
354.13671875,-37.59765625,968.26171875,-28.80859375,-50.78125,771.97265625,0.0
354.140625,-33.69140625,968.26171875,-25.390625,-39.55078125,-27.34375,0.0
354.14453125,-34.66796875,968.26171875,-26.85546875,-21.97265625,-385.25390625,0.0
354.1484375,-26.85546875,968.26171875,-25.87890625,-18.5546875,-7.32421875,0.0
354.15234375,-16.11328125,967.7734375,-27.34375,-26.3671875,257.8125,0.0
354.15625,-24.4140625,968.26171875,-34.66796875,-45.41015625,356.93359375,0.0
354.16015625,-36.1328125,968.26171875,-36.1328125,-49.8046875,-57.6171875,0.0
354.1640625,-33.203125,968.26171875,-30.76171875,-35.15625,-621.58203125,0.0
354.16796875,-12.20703125,968.26171875,-29.78515625,-29.78515625,-328.125,0.0
354.171875,-30.2734375,968.26171875,-41.50390625,-49.31640625,178.7109375,0.0
354.17578125,-50.78125,968.26171875,-36.1328125,-50.29296875,333.49609375,0.0
354.1796875,-40.52734375,968.26171875,-28.80859375,-37.59765625,-126.46484375,0.0
354.18359375,-34.1796875,968.26171875,-29.78515625,-37.109375,-863.76953125,0.0
354.1875,-24.90234375,968.26171875,-27.83203125,-33.69140625,-553.22265625,0.0
354.19140625,-13.18359375,968.26171875,-31.25,-33.203125,-64.94140625,0.0
354.1953125,-24.90234375,968.26171875,-29.78515625,-41.9921875,111.328125,0.0
354.19921875,-41.9921875,968.26171875,-32.2265625,-45.41015625,-128.41796875,0.0
354.203125,-29.296875,983.3984375,-30.2734375,-23.4375,-692.87109375,0.0
354.20703125,-21.97265625,893.5546875,-29.78515625,-13.671875,-343.26171875,0.0
354.2109375,-31.25,-909.66796875,-33.203125,-27.34375,70.80078125,0.0
354.21484375,-40.0390625,540.52734375,-36.1328125,-41.015625,313.96484375,0.0
354.21875,-65.91796875,-906.73828125,-54.6875,-65.4296875,66.40625,0.0
354.22265625,-62.01171875,-1000.0,-46.875,-49.31640625,-764.16015625,0.0
354.2265625,-29.78515625,-944.82421875,-22.4609375,-16.11328125,-499.0234375,0.0
354.23046875,-24.90234375,-1000.0,-27.34375,-24.4140625,14.16015625,0.0
354.234375,-39.55078125,-1000.0,-37.109375,-48.828125,335.9375,0.0
354.23828125,-46.38671875,-1000.0,-36.1328125,-50.78125,226.5625,0.0
354.2421875,-42.48046875,-1000.0,-30.76171875,-36.62109375,-611.81640625,0.0
354.24609375,-47.8515625,-1000.0,-26.85546875,-31.73828125,-511.23046875,0.0
354.25,-34.1796875,-1000.0,-29.296875,-27.34375,-1.46484375,0.0
354.25390625,-21.97265625,-1000.0,-33.203125,-28.80859375,353.02734375,0.0
354.2578125,-26.85546875,-1000.0,-31.73828125,-50.78125,339.35546875,0.0
354.26171875,-42.96875,-1000.0,-41.50390625,-59.5703125,-375.9765625,0.0
354.265625,-45.8984375,-1000.0,-37.109375,-39.0625,-343.75,0.0
354.26953125,-26.85546875,-1000.0,-23.92578125,-20.01953125,105.46875,0.0
354.2734375,-16.6015625,-1000.0,-23.92578125,-18.5546875,387.20703125,0.0
354.27734375,-20.5078125,-1000.0,-25.87890625,-29.296875,391.11328125,0.0
354.28125,-28.80859375,-1000.0,-26.3671875,-27.34375,-293.45703125,0.0
354.28515625,-21.97265625,-1000.0,-22.94921875,-11.23046875,-487.3046875,0.0
354.2890625,-20.99609375,-1000.0,-28.3203125,-24.4140625,-8.30078125,0.0
354.29296875,-18.06640625,-1000.0,-40.0390625,-40.52734375,374.51171875,0.0
354.296875,-18.06640625,-1000.0,-33.203125,-35.64453125,481.4453125,0.0
354.30078125,-35.15625,-1000.0,-24.4140625,-37.109375,-124.0234375,0.0
354.3046875,-31.25,-1000.0,-24.4140625,-25.87890625,-462.40234375,0.0
354.30859375,-33.69140625,-1000.0,-38.57421875,-32.71484375,15.13671875,0.0
354.3125,-36.1328125,-1000.0,-36.62109375,-45.8984375,442.3828125,0.0
354.31640625,-32.71484375,-1000.0,-29.296875,-41.50390625,626.46484375,0.0
354.3203125,-35.64453125,-1000.0,-32.2265625,-41.50390625,-105.95703125,0.0
354.32421875,-32.71484375,-1000.0,-34.1796875,-26.85546875,-466.796875,0.0
354.328125,-25.87890625,-1000.0,-32.71484375,-21.484375,86.42578125,0.0
354.33203125,-20.01953125,-1000.0,-33.203125,-35.15625,261.23046875,0.0
354.3359375,-34.66796875,-1000.0,-45.8984375,-57.6171875,535.15625,0.0
354.33984375,-41.9921875,-1000.0,-40.0390625,-46.38671875,-172.36328125,0.0
354.34375,-46.875,-1000.0,-25.87890625,-30.2734375,-794.43359375,0.0
354.34765625,-36.62109375,-1000.0,-30.2734375,-29.296875,-97.16796875,0.0
354.3515625,-27.83203125,-1000.0,-32.71484375,-33.69140625,172.36328125,0.0
354.35546875,-45.41015625,-1000.0,-32.71484375,-47.8515625,415.52734375,0.0
354.359375,-54.6875,-1000.0,-30.76171875,-58.10546875,-30.76171875,0.0
354.36328125,-37.59765625,-1000.0,-31.25,-47.8515625,-821.2890625,0.0
354.3671875,-28.3203125,-1000.0,-31.73828125,-37.109375,-220.21484375,0.0
354.37109375,-39.0625,-1000.0,-27.34375,-45.41015625,210.9375,0.0
354.375,-45.8984375,-1000.0,-24.90234375,-42.48046875,453.125,0.0
354.37890625,-47.36328125,-30.2734375,-26.3671875,-39.0625,-39.0625,0.0
354.3828125,-44.921875,-26.85546875,-31.25,-33.69140625,-62.01171875,0.0
354.38671875,-33.203125,-20.5078125,-33.203125,-22.94921875,-139.6484375,0.0
354.390625,-27.34375,-12.6953125,-34.66796875,-32.2265625,-184.08203125,0.0
354.39453125,-27.83203125,-28.80859375,-33.203125,-37.59765625,-228.515625,0.0
354.3984375,-29.78515625,-45.41015625,-36.1328125,-39.0625,-176.7578125,0.0
354.40234375,-36.1328125,-37.109375,-34.1796875,-37.109375,-21.97265625,0.0
354.40625,-30.76171875,-38.0859375,-23.4375,-20.5078125,55.17578125,0.0
354.41015625,-27.83203125,-36.62109375,-27.83203125,-31.25,64.94140625,0.0
354.4140625,-33.69140625,-31.25,-35.64453125,-47.36328125,33.69140625,0.0
354.41796875,-37.59765625,-20.99609375,-33.203125,-50.78125,10.25390625,0.0
354.421875,-48.33984375,-24.4140625,-35.64453125,-48.33984375,43.9453125,0.0
354.42578125,-45.8984375,-1000.0,-31.25,-31.73828125,-320.3125,0.0
354.4296875,-34.66796875,-1000.0,-28.3203125,-29.78515625,135.7421875,0.0
354.43359375,-26.85546875,-1000.0,-38.57421875,-41.9921875,601.07421875,0.0
354.4375,-36.62109375,-1000.0,-37.109375,-44.921875,730.46875,0.0
354.44140625,-34.1796875,-1000.0,-32.71484375,-40.52734375,-177.24609375,0.0
354.4453125,-29.296875,-1000.0,-36.1328125,-33.69140625,-868.65234375,0.0
354.44921875,-37.109375,-1000.0,-36.62109375,-26.3671875,-439.453125,0.0
354.453125,-44.43359375,-1000.0,-34.66796875,-30.76171875,21.484375,0.0
354.45703125,-54.19921875,-1000.0,-42.96875,-44.921875,208.49609375,0.0
354.4609375,-50.78125,-1000.0,-36.1328125,-49.8046875,-14.16015625,0.0
354.46484375,-19.53125,-1000.0,-19.53125,-31.25,-543.45703125,0.0
354.46875,-9.765625,-1000.0,-28.80859375,-22.4609375,-395.99609375,0.0
354.47265625,-46.38671875,-1000.0,-50.78125,-46.875,247.55859375,0.0
354.4765625,-50.29296875,-1000.0,-44.43359375,-49.31640625,498.046875,0.0
354.48046875,-44.921875,-1000.0,-34.66796875,-34.1796875,-137.6953125,0.0
354.484375,-39.0625,-1000.0,-22.4609375,-15.625,-586.42578125,0.0
354.48828125,-32.71484375,-1000.0,-18.5546875,-15.13671875,-177.24609375,0.0
354.4921875,-34.66796875,-1000.0,-30.2734375,-29.78515625,145.99609375,0.0
354.49609375,-30.2734375,-1000.0,-31.25,-35.15625,344.23828125,0.0
354.5,-40.52734375,-1000.0,-39.0625,-46.875,47.36328125,0.0
354.50390625,-40.0390625,-1000.0,-38.57421875,-37.109375,-410.64453125,0.0
354.5078125,-20.5078125,-1000.0,-28.3203125,-18.06640625,-298.828125,0.0
354.51171875,-32.71484375,-1000.0,-33.203125,-34.1796875,-219.23828125,0.0
354.515625,-45.41015625,-1000.0,-35.15625,-43.9453125,-108.88671875,0.0
354.51953125,-42.96875,-1000.0,-28.80859375,-44.43359375,-130.37109375,0.0
354.5234375,-34.66796875,-1000.0,-28.3203125,-36.62109375,-426.7578125,0.0
354.52734375,-25.87890625,-1000.0,-27.83203125,-23.4375,-256.8359375,0.0
354.53125,-17.08984375,-1000.0,-26.3671875,-24.90234375,-56.640625,0.0
354.53515625,-26.3671875,-1000.0,-28.3203125,-39.55078125,-5.859375,0.0
354.5390625,-36.1328125,-1000.0,-28.3203125,-35.64453125,-12.6953125,0.0
354.54296875,-21.484375,-1000.0,-26.85546875,-24.90234375,-247.0703125,0.0
354.546875,-13.18359375,-1000.0,-36.1328125,-30.76171875,-208.984375,0.0
354.55078125,-26.3671875,-1000.0,-38.0859375,-32.2265625,-114.2578125,0.0
354.5546875,-33.69140625,-1000.0,-29.78515625,-28.80859375,-62.5,0.0
354.55859375,-38.0859375,-1000.0,-30.2734375,-23.92578125,-95.703125,0.0
354.5625,-51.26953125,-1000.0,-32.71484375,-32.71484375,-182.6171875,0.0
354.56640625,-37.109375,-1000.0,-24.4140625,-29.296875,-124.51171875,0.0
354.5703125,-22.94921875,-1000.0,-27.83203125,-15.625,1.953125,0.0
354.57421875,-38.0859375,-1000.0,-30.76171875,-35.64453125,-5.859375,0.0
354.578125,-44.921875,-1000.0,-27.34375,-41.50390625,-120.1171875,0.0
354.58203125,-37.109375,-1000.0,-29.78515625,-26.85546875,-206.0546875,0.0
354.5859375,-30.76171875,-1000.0,-24.90234375,-17.578125,-103.02734375,0.0
354.58984375,-27.83203125,-1000.0,-28.3203125,-21.97265625,20.01953125,0.0
354.59375,-43.9453125,-1000.0,-35.64453125,-45.41015625,-18.06640625,0.0
354.59765625,-54.19921875,-1000.0,-41.015625,-59.5703125,-158.69140625,0.0
354.6015625,-42.48046875,-1000.0,-34.1796875,-41.50390625,-240.234375,0.0
354.60546875,-29.296875,-1000.0,-25.87890625,-23.4375,-126.953125,0.0
354.609375,-18.06640625,-1000.0,-29.296875,-23.92578125,-99.609375,0.0
354.61328125,-25.87890625,-1000.0,-36.62109375,-40.52734375,-144.53125,0.0
354.6171875,-35.64453125,-1000.0,-35.15625,-58.59375,-274.4140625,0.0
354.62109375,-24.4140625,-1000.0,-32.71484375,-51.26953125,-255.859375,0.0
354.625,-19.53125,-1000.0,-35.15625,-39.0625,-70.80078125,0.0
354.62890625,-41.9921875,-1000.0,-29.78515625,-37.109375,41.9921875,0.0
354.6328125,-45.41015625,-1000.0,-26.85546875,-37.109375,44.43359375,0.0
354.63671875,-49.31640625,-944.82421875,-39.55078125,-49.31640625,-167.48046875,0.0
354.640625,-56.640625,-1000.0,-40.52734375,-42.96875,-181.640625,0.0
354.64453125,-39.55078125,-844.7265625,-29.296875,-25.87890625,-25.390625,0.0
354.6484375,-26.3671875,499.51171875,-32.2265625,-23.92578125,56.640625,0.0
354.65234375,-23.92578125,-790.0390625,-29.78515625,-28.3203125,23.4375,0.0
354.65625,-31.25,184.08203125,-32.71484375,-43.45703125,-61.5234375,0.0
354.66015625,-38.0859375,-1000.0,-33.203125,-48.33984375,-36.1328125,0.0
354.6640625,-40.0390625,-194.82421875,-19.53125,-36.62109375,-43.9453125,0.0
354.66796875,-29.78515625,991.2109375,-20.01953125,-29.296875,-17.08984375,0.0
354.671875,-35.15625,-900.390625,-28.80859375,-54.6875,34.1796875,0.0
354.67578125,-39.0625,364.74609375,-25.87890625,-57.12890625,-10.25390625,0.0
354.6796875,-39.55078125,-1000.0,-11.71875,-39.0625,-56.15234375,0.0
354.68359375,-91.796875,34.66796875,-13.671875,-95.703125,86.9140625,0.0
354.6875,-106.93359375,-884.27734375,-4.8828125,-116.2109375,129.8828125,0.0
354.69140625,-98.14453125,873.046875,6.34765625,-110.83984375,40.0390625,0.0
354.6953125,-132.8125,-876.46484375,9.765625,-156.25,30.2734375,0.0
354.69921875,-189.94140625,-236.81640625,11.23046875,-183.10546875,32.71484375,0.0
354.703125,-224.609375,-336.42578125,19.04296875,-198.2421875,-42.96875,0.0
354.70703125,-230.95703125,-982.421875,28.80859375,-209.9609375,-109.86328125,0.0
354.7109375,-235.83984375,-910.64453125,35.64453125,-216.30859375,-88.8671875,0.0
354.71484375,-265.13671875,416.50390625,41.9921875,-253.90625,-102.05078125,0.0
354.71875,-275.87890625,-925.78125,44.921875,-278.3203125,-85.44921875,0.0
354.72265625,-276.85546875,-1000.0,49.31640625,-272.94921875,-204.1015625,0.0
354.7265625,-315.4296875,5.37109375,64.94140625,-290.0390625,-403.3203125,0.0
354.73046875,-325.68359375,-787.109375,65.4296875,-300.78125,-348.14453125,0.0
354.734375,-339.35546875,155.2734375,58.10546875,-322.265625,-187.01171875,0.0
354.73828125,-363.28125,-1000.0,65.91796875,-341.30859375,-191.40625,0.0
354.7421875,-361.81640625,-1000.0,76.171875,-341.796875,-283.69140625,0.0
354.74609375,-354.00390625,15.625,80.56640625,-334.9609375,-339.84375,0.0
354.75,-343.75,-929.19921875,79.58984375,-323.2421875,-438.96484375,0.0
354.75390625,-344.23828125,-968.26171875,73.2421875,-327.1484375,-283.69140625,0.0
354.7578125,-345.703125,-426.26953125,69.82421875,-334.47265625,-188.4765625,0.0
354.76171875,-353.515625,-484.86328125,73.2421875,-333.49609375,-333.49609375,0.0
354.765625,-334.47265625,-944.82421875,76.171875,-312.5,-407.2265625,0.0
354.76953125,-307.6171875,971.19140625,74.21875,-300.78125,-268.06640625,0.0
354.7734375,-296.875,930.17578125,69.82421875,-300.78125,-20.5078125,0.0
354.77734375,-297.36328125,978.515625,69.82421875,-290.52734375,-28.80859375,0.0
354.78125,-301.26953125,968.26171875,79.1015625,-273.4375,-193.84765625,0.0
354.78515625,-288.0859375,967.7734375,81.54296875,-242.1875,-350.09765625,0.0
354.7890625,-282.71484375,968.26171875,48.828125,-251.953125,-332.03125,0.0
354.79296875,-261.23046875,968.26171875,43.9453125,-269.53125,-267.578125,0.0
354.796875,-248.53515625,968.26171875,72.265625,-243.65234375,-185.546875,0.0
354.80078125,-259.27734375,968.26171875,77.63671875,-231.4453125,-46.38671875,0.0
354.8046875,-238.28125,978.02734375,72.75390625,-211.42578125,-290.52734375,0.0
354.80859375,-203.125,895.5078125,65.91796875,-187.5,-370.1171875,0.0
354.8125,-179.19921875,-895.01953125,65.91796875,-176.7578125,-468.75,0.0
354.81640625,-185.546875,381.8359375,64.453125,-187.01171875,-880.859375,0.0
354.8203125,-207.51953125,-996.09375,58.59375,-197.265625,-729.98046875,0.0
354.82421875,-202.63671875,-1000.0,51.26953125,-180.17578125,-890.625,0.0
354.828125,-165.52734375,-957.51953125,52.24609375,-158.203125,-885.7421875,0.0
354.83203125,-155.2734375,-1000.0,41.50390625,-153.3203125,-723.14453125,0.0
354.8359375,-178.22265625,-1000.0,39.0625,-157.2265625,-1000.0,0.0
354.83984375,-186.5234375,-1000.0,45.41015625,-158.69140625,-372.0703125,0.0
354.84375,-177.734375,-1000.0,38.57421875,-151.3671875,526.85546875,0.0
354.84765625,-160.64453125,-1000.0,37.109375,-137.6953125,607.91015625,0.0
354.8515625,-143.5546875,-1000.0,36.1328125,-136.71875,824.70703125,0.0
354.85546875,-145.99609375,-936.5234375,30.2734375,-140.625,660.15625,0.0
354.859375,-159.66796875,-1000.0,26.85546875,-148.92578125,699.70703125,0.0
354.86328125,-157.2265625,-757.32421875,27.34375,-150.87890625,-991.69921875,0.0
354.8671875,-130.859375,680.17578125,30.2734375,-128.90625,890.625,0.0
354.87109375,-117.1875,-944.82421875,27.34375,-115.72265625,795.8984375,0.0
354.875,-140.625,903.3203125,22.94921875,-143.06640625,423.33984375,0.0
354.87890625,-160.64453125,982.421875,12.6953125,-155.2734375,426.26953125,0.0
354.8828125,-142.578125,968.26171875,8.7890625,-134.27734375,924.8046875,0.0
354.88671875,-107.421875,968.26171875,20.01953125,-103.02734375,192.87109375,0.0
354.890625,-95.21484375,968.26171875,16.6015625,-94.7265625,-497.0703125,0.0
354.89453125,-107.91015625,968.26171875,3.41796875,-120.60546875,-347.16796875,0.0
354.8984375,-109.86328125,968.26171875,6.34765625,-119.140625,-217.7734375,0.0
354.90234375,-97.16796875,968.26171875,7.32421875,-93.75,-193.359375,0.0
354.90625,-95.703125,967.7734375,-0.9765625,-83.984375,-458.984375,0.0
354.91015625,-87.40234375,967.7734375,-4.39453125,-92.7734375,-825.1953125,0.0
354.9140625,-87.40234375,968.26171875,-13.671875,-107.421875,-598.6328125,0.0
354.91796875,-86.42578125,968.26171875,-14.6484375,-92.7734375,-319.82421875,0.0
354.921875,-95.703125,968.26171875,-16.6015625,-89.35546875,5.859375,0.0
354.92578125,-85.44921875,967.7734375,-15.625,-73.2421875,117.67578125,0.0
354.9296875,-58.59375,967.7734375,-15.625,-62.01171875,-632.8125,0.0
354.93359375,-60.546875,968.26171875,-24.90234375,-70.3125,-1000.0,0.0
354.9375,-83.0078125,968.26171875,-22.4609375,-83.0078125,-520.01953125,0.0
354.94140625,-85.44921875,968.26171875,-19.53125,-86.42578125,961.9140625,0.0
354.9453125,-70.80078125,967.7734375,-22.94921875,-72.75390625,640.13671875,0.0
354.94921875,-62.01171875,967.7734375,-27.83203125,-71.77734375,-4.8828125,0.0
354.953125,-58.59375,967.7734375,-32.71484375,-71.2890625,224.12109375,0.0
354.95703125,-67.87109375,967.7734375,-34.1796875,-72.265625,413.57421875,0.0
354.9609375,-88.8671875,968.26171875,-31.25,-80.078125,948.2421875,0.0
354.96484375,-96.19140625,967.7734375,-25.87890625,-81.0546875,562.98828125,0.0
354.96875,-102.05078125,967.7734375,-33.69140625,-90.8203125,47.8515625,0.0
354.97265625,-97.65625,967.7734375,-27.34375,-97.65625,-79.58984375,0.0
354.9765625,-77.1484375,968.26171875,-17.578125,-90.33203125,-201.171875,0.0
354.98046875,-67.87109375,968.26171875,-18.5546875,-84.47265625,-521.484375,0.0
354.984375,-74.70703125,967.7734375,-17.08984375,-79.58984375,-508.7890625,0.0
354.98828125,-85.9375,967.7734375,-20.01953125,-82.51953125,24.4140625,0.0
354.9921875,-73.2421875,968.26171875,-22.4609375,-74.70703125,368.1640625,0.0
354.99609375,-50.29296875,968.26171875,-30.76171875,-62.98828125,555.6640625,0.0
355.0,-47.36328125,968.26171875,-32.71484375,-58.59375,138.18359375,0.0
355.00390625,-62.98828125,968.26171875,-34.66796875,-59.5703125,-501.46484375,0.0
355.0078125,-50.78125,967.7734375,-38.57421875,-56.15234375,-364.2578125,0.0
355.01171875,-53.22265625,967.7734375,-56.15234375,-57.12890625,38.0859375,0.0
355.015625,-65.91796875,968.26171875,-63.4765625,-62.01171875,291.50390625,0.0
355.01953125,-50.29296875,967.7734375,-45.8984375,-51.26953125,220.703125,0.0
355.0234375,-36.62109375,968.26171875,-36.62109375,-31.25,-276.85546875,0.0
355.02734375,-12.6953125,967.7734375,-44.43359375,-4.8828125,48.828125,0.0
355.03125,-13.18359375,967.7734375,-52.24609375,-21.97265625,288.57421875,0.0
355.03515625,-28.3203125,968.26171875,-50.78125,-42.48046875,340.8203125,0.0
355.0390625,-13.18359375,968.26171875,-47.36328125,-20.5078125,289.0625,0.0
355.04296875,2.9296875,967.7734375,-47.8515625,-5.859375,-313.4765625,0.0
355.046875,-7.32421875,968.26171875,-44.921875,-20.01953125,-168.9453125,0.0
355.05078125,-26.85546875,968.26171875,-44.921875,-40.0390625,174.31640625,0.0
355.0546875,-42.96875,974.12109375,-56.640625,-54.19921875,244.140625,0.0
355.05859375,-52.24609375,899.4140625,-62.98828125,-64.453125,217.7734375,0.0
355.0625,-31.25,-893.06640625,-41.50390625,-47.8515625,-60.05859375,0.0
355.06640625,-30.76171875,292.48046875,-37.109375,-41.50390625,-183.10546875,0.0
355.0703125,-66.40625,-1000.0,-48.828125,-77.1484375,-56.15234375,0.0
355.07421875,-94.7265625,-1000.0,-57.12890625,-103.02734375,232.91015625,0.0
355.078125,-76.66015625,-964.84375,-47.36328125,-93.26171875,382.8125,0.0
355.08203125,-62.5,-1000.0,-44.43359375,-93.75,-38.57421875,0.0
355.0859375,-74.21875,-1000.0,-49.31640625,-97.16796875,-325.1953125,0.0
355.08984375,-81.54296875,-1000.0,-42.48046875,-105.46875,28.80859375,0.0
355.09375,-87.890625,-1000.0,-36.1328125,-113.28125,373.53515625,0.0
355.09765625,-78.61328125,-1000.0,-34.1796875,-97.65625,363.28125,0.0
355.1015625,-78.61328125,-1000.0,-35.64453125,-94.23828125,-173.33984375,0.0
355.10546875,-84.9609375,-1000.0,-34.66796875,-96.6796875,-259.765625,0.0
355.109375,-69.3359375,-1000.0,-42.96875,-78.125,68.84765625,0.0
355.11328125,-46.38671875,-1000.0,-44.921875,-62.01171875,240.234375,0.0
355.1171875,-58.10546875,-1000.0,-56.640625,-79.1015625,390.13671875,0.0
355.12109375,-66.89453125,-1000.0,-51.7578125,-66.40625,-0.9765625,0.0
355.125,-33.203125,-1000.0,-36.62109375,-32.2265625,-240.234375,0.0
355.12890625,-2.44140625,-1000.0,-42.96875,-20.01953125,-15.13671875,0.0
355.1328125,2.9296875,-1000.0,-56.640625,-23.4375,148.4375,0.0
355.13671875,5.859375,-1000.0,-55.6640625,-20.01953125,228.02734375,0.0
355.140625,-4.8828125,-1000.0,-61.5234375,-15.13671875,-61.5234375,0.0
355.14453125,-20.5078125,-1000.0,-80.078125,-22.4609375,-311.5234375,0.0
355.1484375,-0.9765625,-1000.0,-65.4296875,-16.6015625,-102.05078125,0.0
355.15234375,19.04296875,-1000.0,-62.5,-4.39453125,56.640625,0.0
355.15625,17.08984375,-1000.0,-70.80078125,-3.90625,156.25,0.0
355.16015625,1.953125,-1000.0,-71.77734375,-16.11328125,90.8203125,0.0
355.1640625,-14.6484375,-1000.0,-95.21484375,-29.296875,-156.25,0.0
355.16796875,16.6015625,-1000.0,-93.26171875,-1.953125,-44.43359375,0.0
355.171875,31.73828125,-1000.0,-73.73046875,10.25390625,178.7109375,0.0
355.17578125,14.16015625,-1000.0,-77.1484375,-3.41796875,297.8515625,0.0
355.1796875,7.8125,-1000.0,-87.890625,0.9765625,100.5859375,0.0
355.18359375,28.3203125,-1000.0,-85.9375,19.53125,-326.171875,0.0
355.1875,49.8046875,-1000.0,-73.73046875,38.0859375,-256.34765625,0.0
355.19140625,63.4765625,-1000.0,-70.80078125,47.8515625,-25.87890625,0.0
355.1953125,62.98828125,-1000.0,-89.84375,35.64453125,-17.08984375,0.0
355.19921875,52.24609375,-1000.0,-100.5859375,38.0859375,-223.14453125,0.0
355.203125,65.4296875,-1000.0,-95.703125,57.12890625,-498.046875,0.0
355.20703125,94.7265625,-1000.0,-104.4921875,68.84765625,-228.515625,0.0
355.2109375,110.83984375,-1000.0,-109.86328125,66.89453125,62.5,0.0
355.21484375,103.02734375,-1000.0,-114.2578125,67.3828125,165.0390625,0.0
355.21875,94.23828125,-1000.0,-114.2578125,85.44921875,133.30078125,0.0
355.22265625,99.609375,-1000.0,-107.91015625,99.609375,15.13671875,0.0
355.2265625,116.2109375,-1000.0,-109.375,115.72265625,104.4921875,0.0
355.23046875,130.859375,-1000.0,-115.234375,114.2578125,-10.25390625,0.0
355.234375,134.27734375,-1000.0,-118.1640625,87.40234375,34.1796875,0.0
355.23828125,132.32421875,-1000.0,-123.53515625,88.37890625,97.65625,0.0
355.2421875,135.25390625,-1000.0,-134.27734375,104.98046875,-104.4921875,0.0
355.24609375,149.90234375,-1000.0,-131.34765625,117.67578125,-30.2734375,0.0
