timestamp,TP9,AF7,AF8,TP10,AUX,Marker,
447.00390625,-37.59765625,-26.85546875,-33.69140625,16.6015625,-5.859375,0.0
447.0078125,-15.625,-24.90234375,-35.15625,18.06640625,-12.20703125,0.0
447.01171875,-9.765625,-27.83203125,-34.1796875,12.6953125,-57.12890625,0.0
447.015625,-43.9453125,-49.8046875,-22.94921875,17.08984375,-13.18359375,0.0
447.01953125,-44.43359375,-46.38671875,-23.92578125,12.6953125,8.7890625,0.0
447.0234375,-41.015625,-40.52734375,-22.94921875,7.32421875,-18.06640625,0.0
447.02734375,-9.765625,-36.62109375,-28.3203125,20.01953125,-90.33203125,0.0
447.03125,4.39453125,-31.73828125,-37.109375,6.8359375,-111.328125,0.0
447.03515625,-37.109375,-28.3203125,-38.0859375,14.6484375,-126.46484375,0.0
447.0390625,-51.7578125,-20.01953125,-36.62109375,13.671875,-126.953125,0.0
447.04296875,-31.25,-24.4140625,-31.73828125,4.8828125,-21.97265625,0.0
447.046875,-28.80859375,-41.015625,-29.296875,16.11328125,2.44140625,0.0
447.05078125,-45.41015625,-33.69140625,-21.97265625,7.8125,-1.953125,0.0
447.0546875,-25.87890625,-18.06640625,-18.5546875,16.6015625,-20.01953125,0.0
447.05859375,-15.13671875,-27.83203125,-15.625,14.6484375,-41.50390625,0.0
447.0625,-37.59765625,-33.203125,-13.671875,9.27734375,-59.08203125,0.0
447.06640625,-16.11328125,-20.01953125,-25.87890625,6.8359375,-29.78515625,0.0
447.0703125,-1.953125,-22.94921875,-36.1328125,-14.6484375,105.46875,0.0
447.07421875,-37.59765625,-35.64453125,-37.109375,-29.296875,129.39453125,0.0
447.078125,-29.296875,-34.66796875,-37.109375,-33.203125,94.7265625,0.0
447.08203125,-42.48046875,-43.45703125,-35.15625,-22.94921875,32.2265625,0.0
447.0859375,-37.109375,-38.57421875,-22.94921875,10.25390625,-27.34375,0.0
447.08984375,-11.71875,-20.01953125,-30.76171875,15.625,94.7265625,0.0
447.09375,-14.6484375,-25.87890625,-44.43359375,0.48828125,31.73828125,0.0
447.09765625,-9.27734375,-37.109375,-36.1328125,-13.18359375,-69.82421875,0.0
447.1015625,-8.30078125,-32.2265625,-30.2734375,-23.4375,24.90234375,0.0
447.10546875,-40.52734375,-36.1328125,-36.62109375,-18.06640625,87.890625,0.0
447.109375,-32.2265625,-38.0859375,-33.69140625,-27.34375,58.59375,0.0
447.11328125,-4.39453125,-45.41015625,-30.2734375,-42.48046875,-8.7890625,0.0
447.1171875,-8.30078125,-36.62109375,-29.78515625,-32.71484375,-28.3203125,0.0
447.12109375,-20.5078125,-25.87890625,-25.87890625,-23.4375,-87.890625,0.0
447.125,-38.57421875,-41.50390625,-29.296875,-32.71484375,-105.46875,0.0
447.12890625,-19.04296875,-43.9453125,-36.62109375,-32.71484375,-29.78515625,0.0
447.1328125,-10.7421875,-40.52734375,-40.0390625,-26.85546875,44.921875,0.0
447.13671875,-29.296875,-33.203125,-37.59765625,-39.55078125,13.671875,0.0
447.140625,-7.8125,-27.34375,-27.34375,-30.76171875,-56.640625,0.0
447.14453125,-4.39453125,-28.80859375,-15.625,-27.34375,-3.90625,0.0
447.1484375,-35.64453125,-42.48046875,-18.06640625,-40.0390625,-48.828125,0.0
447.15234375,-55.6640625,-41.9921875,-29.78515625,-52.734375,-37.59765625,0.0
447.15625,-25.390625,-41.50390625,-30.76171875,-42.48046875,38.57421875,0.0
447.16015625,-9.765625,-56.15234375,-26.3671875,-30.2734375,-8.30078125,0.0
447.1640625,-44.43359375,-58.59375,-29.296875,-53.7109375,-26.85546875,0.0
447.16796875,-74.21875,-61.5234375,-24.4140625,-47.36328125,-37.59765625,0.0
447.171875,-65.4296875,-72.265625,-21.484375,-29.296875,-87.40234375,0.0
447.17578125,-53.7109375,-69.82421875,-21.97265625,-39.55078125,-115.72265625,0.0
447.1796875,-62.5,-68.359375,-11.71875,-40.0390625,-101.07421875,0.0
447.18359375,-64.453125,-73.73046875,-15.625,-48.33984375,-72.75390625,0.0
447.1875,-61.5234375,-74.21875,-24.4140625,-34.66796875,-68.84765625,0.0
447.19140625,-50.78125,-80.56640625,-14.6484375,-29.296875,-42.96875,0.0
447.1953125,-47.8515625,-73.73046875,-16.6015625,-31.25,15.625,0.0
447.19921875,-57.12890625,-73.73046875,-22.4609375,-15.625,27.34375,0.0
447.203125,-46.875,-70.80078125,-28.3203125,-6.8359375,37.109375,0.0
447.20703125,-62.01171875,-62.01171875,-27.34375,0.0,38.0859375,0.0
447.2109375,-63.96484375,-59.08203125,-26.3671875,-8.30078125,-18.06640625,0.0
447.21484375,-36.62109375,-48.33984375,-27.34375,-13.671875,-34.1796875,0.0
447.21875,-49.8046875,-53.22265625,-25.390625,-5.37109375,0.0,0.0
447.22265625,-47.36328125,-59.08203125,-33.203125,-15.13671875,-20.01953125,0.0
447.2265625,-44.43359375,-63.96484375,-35.64453125,-38.57421875,-37.109375,0.0
447.23046875,-54.19921875,-64.453125,-32.71484375,-69.82421875,-84.47265625,0.0
447.234375,-49.8046875,-56.640625,-33.69140625,-63.4765625,-79.58984375,0.0
447.23828125,-41.9921875,-50.78125,-36.1328125,-28.80859375,-18.06640625,0.0
447.2421875,-30.2734375,-43.45703125,-33.203125,-25.87890625,-51.7578125,0.0
447.24609375,-30.76171875,-44.921875,-28.3203125,-44.43359375,-115.72265625,0.0
447.25,-26.85546875,-40.0390625,-27.83203125,-55.6640625,-143.5546875,0.0
447.25390625,-27.83203125,-43.9453125,-22.4609375,-46.38671875,-30.2734375,0.0
447.2578125,-41.50390625,-50.29296875,-23.4375,-20.99609375,46.875,0.0
447.26171875,-36.62109375,-41.015625,-24.90234375,-22.4609375,-11.71875,0.0
447.265625,-37.109375,-44.43359375,-30.2734375,-29.78515625,3.41796875,0.0
447.26953125,-47.36328125,-52.24609375,-30.2734375,-24.4140625,67.87109375,0.0
447.2734375,-45.41015625,-41.9921875,-21.97265625,-22.94921875,-21.97265625,0.0
447.27734375,-17.08984375,-41.9921875,-22.94921875,-21.97265625,-153.80859375,0.0
447.28125,-24.90234375,-54.19921875,-30.76171875,-37.109375,-102.5390625,0.0
447.28515625,-52.734375,-51.7578125,-30.76171875,-50.29296875,-21.484375,0.0
447.2890625,-21.97265625,-39.55078125,-29.296875,-48.828125,-78.61328125,0.0
447.29296875,-12.6953125,-39.55078125,-28.80859375,-35.64453125,-101.5625,0.0
447.296875,-42.96875,-36.62109375,-25.87890625,-31.73828125,-124.51171875,0.0
447.30078125,-60.05859375,-40.0390625,-26.3671875,-27.83203125,-91.796875,0.0
447.3046875,-30.2734375,-52.24609375,-30.76171875,-11.23046875,-30.76171875,0.0
447.30859375,-21.484375,-43.45703125,-32.2265625,-27.83203125,25.390625,0.0
447.3125,-48.828125,-40.52734375,-28.80859375,-52.24609375,11.71875,0.0
447.31640625,-36.1328125,-44.43359375,-35.15625,-46.38671875,-128.41796875,0.0
447.3203125,-12.20703125,-41.9921875,-41.9921875,-41.9921875,-170.41015625,0.0
447.32421875,-14.6484375,-32.71484375,-36.62109375,-39.0625,-125.0,0.0
447.328125,-3.90625,-36.1328125,-36.62109375,-33.203125,-82.51953125,0.0
447.33203125,-3.41796875,-49.31640625,-37.109375,-49.8046875,7.8125,0.0
447.3359375,-33.69140625,-44.921875,-29.296875,-58.59375,-35.64453125,0.0
447.33984375,-20.5078125,-41.9921875,-30.76171875,-32.2265625,-162.59765625,0.0
447.34375,-14.6484375,-42.96875,-34.66796875,-36.62109375,-114.74609375,0.0
447.34765625,-26.85546875,-34.1796875,-39.0625,-52.24609375,-100.5859375,0.0
447.3515625,-24.4140625,-33.203125,-35.64453125,-41.50390625,-121.58203125,0.0
447.35546875,1.953125,-37.109375,-25.390625,-26.85546875,-37.59765625,0.0
447.359375,-1.953125,-36.1328125,-27.34375,-45.41015625,-9.765625,0.0
447.36328125,-10.7421875,-27.34375,-28.3203125,-34.1796875,-82.51953125,0.0
447.3671875,15.13671875,-32.2265625,-34.1796875,-12.20703125,-66.89453125,0.0
447.37109375,-11.71875,-29.78515625,-39.0625,-25.390625,49.8046875,0.0
447.375,-44.43359375,-29.78515625,-35.64453125,-41.50390625,37.109375,0.0
447.37890625,-37.109375,-40.0390625,-35.15625,-43.45703125,36.1328125,0.0
447.3828125,-20.99609375,-45.41015625,-30.76171875,-38.0859375,41.015625,0.0
447.38671875,-26.85546875,-48.828125,-30.76171875,-47.36328125,34.1796875,0.0
447.390625,-24.4140625,-41.50390625,-26.3671875,-37.109375,41.50390625,0.0
447.39453125,8.7890625,-30.76171875,-24.90234375,-23.92578125,-16.6015625,0.0
447.3984375,-3.90625,-29.296875,-29.296875,-49.31640625,-107.421875,0.0
447.40234375,-5.859375,-27.83203125,-21.97265625,-56.640625,-63.96484375,0.0
447.40625,-1.46484375,-28.80859375,-22.94921875,-32.71484375,30.76171875,0.0
447.41015625,-27.34375,-24.90234375,-32.2265625,-25.87890625,25.87890625,0.0
447.4140625,-34.1796875,-26.85546875,-27.83203125,-28.3203125,4.39453125,0.0
447.41796875,-27.34375,-30.2734375,-24.90234375,-24.90234375,7.32421875,0.0
447.421875,-30.2734375,-17.08984375,-22.94921875,-32.71484375,-29.296875,0.0
447.42578125,-44.921875,-17.08984375,-25.390625,-31.25,-186.5234375,0.0
447.4296875,-43.9453125,-38.0859375,-31.25,-29.296875,-225.5859375,0.0
447.43359375,-3.41796875,-36.1328125,-32.2265625,-22.94921875,-137.6953125,0.0
447.4375,-23.4375,-30.76171875,-35.15625,-20.01953125,-145.99609375,0.0
447.44140625,-62.98828125,-32.2265625,-36.62109375,-27.83203125,-221.6796875,0.0
447.4453125,-3.41796875,-20.01953125,-32.2265625,-18.5546875,-214.84375,0.0
447.44921875,-6.34765625,-21.484375,-30.2734375,-17.578125,-156.73828125,0.0
447.453125,-43.9453125,-25.390625,-38.0859375,-15.625,-30.2734375,0.0
447.45703125,-29.78515625,-20.5078125,-37.59765625,-4.39453125,26.3671875,0.0
447.4609375,-31.25,-30.2734375,-36.62109375,-13.18359375,-67.87109375,0.0
447.46484375,-35.64453125,-35.15625,-30.2734375,-29.296875,-89.84375,0.0
447.46875,-41.9921875,-25.390625,-23.4375,-18.06640625,-19.04296875,0.0
447.47265625,-50.29296875,-27.83203125,-22.94921875,-9.765625,9.765625,0.0
447.4765625,-47.8515625,-32.71484375,-23.4375,-20.99609375,-13.18359375,0.0
447.48046875,-45.8984375,-31.25,-25.390625,-23.4375,78.61328125,0.0
447.484375,-57.6171875,-24.4140625,-38.57421875,-35.15625,98.14453125,0.0
447.48828125,-52.734375,-27.83203125,-41.9921875,-43.9453125,65.91796875,0.0
447.4921875,-27.83203125,-37.109375,-20.5078125,-42.96875,17.578125,0.0
447.49609375,-28.80859375,-30.2734375,-17.08984375,-51.7578125,30.2734375,0.0
447.5,-41.50390625,-34.66796875,-26.3671875,-49.8046875,79.58984375,0.0
447.50390625,-54.6875,-40.0390625,-22.94921875,-40.52734375,99.12109375,0.0
447.5078125,-41.9921875,-41.015625,-21.484375,-26.3671875,89.84375,0.0
447.51171875,-8.7890625,-41.015625,-21.484375,-34.1796875,44.43359375,0.0
447.515625,-4.8828125,-33.203125,-23.92578125,-41.50390625,9.27734375,0.0
447.51953125,-4.8828125,-41.50390625,-26.85546875,-48.33984375,5.859375,0.0
447.5234375,4.39453125,-38.57421875,-21.484375,-20.99609375,2.9296875,0.0
447.52734375,17.08984375,-16.6015625,-26.3671875,-18.06640625,-59.5703125,0.0
447.53125,23.92578125,-9.765625,-36.1328125,-62.98828125,-69.3359375,0.0
447.53515625,-22.94921875,-26.85546875,-24.90234375,-51.26953125,-35.64453125,0.0
447.5390625,-43.45703125,-25.390625,-38.0859375,-58.59375,-16.11328125,0.0
447.54296875,-16.11328125,-19.53125,-42.48046875,-61.03515625,-27.83203125,0.0
447.546875,-20.99609375,-38.0859375,-31.25,-35.15625,-22.4609375,0.0
447.55078125,-31.25,-41.50390625,-32.2265625,-23.92578125,52.734375,0.0
447.5546875,-26.3671875,-31.73828125,-30.76171875,-20.5078125,-1.953125,0.0
447.55859375,-53.22265625,-27.83203125,-29.78515625,-12.20703125,-58.59375,0.0
447.5625,-54.19921875,-34.1796875,-32.2265625,-12.20703125,7.32421875,0.0
447.56640625,-23.92578125,-34.66796875,-37.109375,-17.08984375,49.8046875,0.0
447.5703125,-37.109375,-32.71484375,-35.64453125,-12.6953125,22.4609375,0.0
447.57421875,-46.38671875,-30.76171875,-36.62109375,-10.25390625,-30.2734375,0.0
447.578125,-16.11328125,-34.1796875,-38.57421875,-5.37109375,-3.41796875,0.0
447.58203125,11.71875,-33.203125,-29.78515625,1.953125,29.78515625,0.0
447.5859375,-19.53125,-23.92578125,-20.99609375,-4.8828125,-9.765625,0.0
447.58984375,-28.80859375,-31.73828125,-21.97265625,0.9765625,-76.66015625,0.0
447.59375,-10.7421875,-34.1796875,-24.4140625,12.20703125,-85.9375,0.0
447.59765625,-39.55078125,-28.3203125,-27.83203125,-1.953125,-105.95703125,0.0
447.6015625,-32.71484375,-32.71484375,-28.3203125,-15.625,-97.65625,0.0
447.60546875,-27.83203125,-31.25,-29.296875,-13.18359375,11.23046875,0.0
447.609375,-9.765625,-25.87890625,-40.52734375,-20.5078125,8.7890625,0.0
447.61328125,15.625,-30.2734375,-42.48046875,-26.3671875,-0.48828125,0.0
447.6171875,-26.85546875,-32.71484375,-36.62109375,-23.92578125,40.52734375,0.0
447.62109375,-40.52734375,-28.3203125,-31.73828125,-27.83203125,61.5234375,0.0
447.625,-14.6484375,-29.78515625,-25.87890625,-42.96875,32.71484375,0.0
447.62890625,-41.50390625,-27.34375,-32.71484375,-53.22265625,-85.44921875,0.0
447.6328125,-56.640625,-22.94921875,-36.62109375,-54.6875,-169.921875,0.0
447.63671875,-42.48046875,-30.2734375,-36.62109375,-56.15234375,-122.55859375,0.0
447.640625,-38.0859375,-39.0625,-32.2265625,-45.8984375,-76.66015625,0.0
447.64453125,-24.4140625,-38.57421875,-34.1796875,-41.50390625,-54.19921875,0.0
447.6484375,-6.34765625,-34.66796875,-40.0390625,-44.43359375,-31.73828125,0.0
447.65234375,14.6484375,-38.0859375,-36.1328125,-32.71484375,10.7421875,0.0
447.65625,-16.6015625,-33.203125,-34.1796875,-42.96875,-12.6953125,0.0
447.66015625,-26.85546875,-29.78515625,-23.92578125,-50.78125,-62.5,0.0
447.6640625,-3.41796875,-36.1328125,-20.5078125,-35.15625,-40.52734375,0.0
447.66796875,-0.48828125,-30.2734375,-25.87890625,-36.1328125,-23.4375,0.0
447.671875,-4.39453125,-29.78515625,-24.4140625,-41.015625,14.6484375,0.0
447.67578125,-16.6015625,-29.78515625,-22.4609375,-30.76171875,-24.90234375,0.0
447.6796875,-21.97265625,-32.71484375,-23.4375,-20.01953125,-30.2734375,0.0
447.68359375,-23.92578125,-36.62109375,-31.25,-23.92578125,24.90234375,0.0
447.6875,-27.34375,-36.62109375,-31.25,-20.99609375,1.46484375,0.0
447.69140625,-22.94921875,-32.71484375,-23.4375,-8.30078125,-12.6953125,0.0
447.6953125,-13.18359375,-35.15625,-24.90234375,-14.6484375,13.18359375,0.0
447.69921875,11.71875,-37.59765625,-32.2265625,-30.76171875,-13.671875,0.0
447.703125,-7.8125,-40.0390625,-30.2734375,-32.71484375,0.48828125,0.0
447.70703125,-35.15625,-44.921875,-28.80859375,-34.1796875,54.19921875,0.0
447.7109375,-47.36328125,-38.0859375,-28.3203125,-23.4375,73.73046875,0.0
447.71484375,-36.62109375,-40.0390625,-25.390625,-14.6484375,-6.34765625,0.0
447.71875,0.0,-39.55078125,-26.85546875,-21.97265625,-85.44921875,0.0
447.72265625,13.18359375,-32.2265625,-19.53125,-22.94921875,-59.5703125,0.0
447.7265625,-2.44140625,-40.0390625,-13.18359375,-8.30078125,-27.83203125,0.0
447.73046875,-31.73828125,-37.59765625,-24.4140625,-0.9765625,45.8984375,0.0
447.734375,-2.9296875,-34.66796875,-31.25,4.8828125,66.89453125,0.0
447.73828125,10.7421875,-38.0859375,-37.109375,-4.8828125,3.90625,0.0
447.7421875,-2.44140625,-43.45703125,-39.0625,-16.6015625,-53.7109375,0.0
447.74609375,-24.4140625,-39.55078125,-42.96875,-26.85546875,-35.15625,0.0
447.75,-38.57421875,-40.52734375,-48.828125,-37.109375,-34.1796875,0.0
447.75390625,-35.64453125,-39.55078125,-39.0625,-39.0625,-27.83203125,0.0
447.7578125,-15.13671875,-35.15625,-41.9921875,-46.38671875,-14.6484375,0.0
447.76171875,-13.671875,-36.62109375,-35.15625,-31.25,-17.08984375,0.0
447.765625,-23.92578125,-31.73828125,-30.76171875,-34.66796875,-19.53125,0.0
447.76953125,-26.85546875,-40.52734375,-40.52734375,-23.4375,-41.015625,0.0
447.7734375,-47.8515625,-49.8046875,-37.59765625,-19.04296875,-1.953125,0.0
447.77734375,-41.9921875,-35.64453125,-35.15625,-36.1328125,-63.96484375,0.0
447.78125,-59.5703125,-34.1796875,-33.69140625,-20.01953125,-122.55859375,0.0
447.78515625,-54.6875,-44.43359375,-42.96875,-13.18359375,-66.89453125,0.0
447.7890625,-23.4375,-37.109375,-44.921875,-6.8359375,-52.24609375,0.0
447.79296875,-39.0625,-30.2734375,-37.109375,-14.16015625,-51.26953125,0.0
447.796875,-47.8515625,-35.64453125,-37.59765625,-25.87890625,-83.49609375,0.0
447.80078125,-28.80859375,-41.9921875,-37.109375,-24.90234375,-133.30078125,0.0
447.8046875,-30.76171875,-36.62109375,-35.64453125,-20.99609375,-167.48046875,0.0
447.80859375,-71.77734375,-35.15625,-33.203125,-24.90234375,-181.15234375,0.0
447.8125,-61.5234375,-42.48046875,-29.78515625,-23.4375,-73.73046875,0.0
447.81640625,-32.2265625,-38.0859375,-23.4375,-21.97265625,-15.13671875,0.0
447.8203125,-26.3671875,-33.69140625,-20.99609375,-19.53125,-109.86328125,0.0
447.82421875,-24.90234375,-28.80859375,-25.87890625,-28.80859375,-127.9296875,0.0
447.828125,-42.96875,-29.78515625,-25.390625,-29.296875,-76.171875,0.0
447.83203125,-25.390625,-30.2734375,-28.80859375,-35.64453125,-104.98046875,0.0
447.8359375,-26.3671875,-28.80859375,-32.2265625,-41.50390625,-47.36328125,0.0
447.83984375,-43.9453125,-35.15625,-24.90234375,-34.66796875,6.34765625,0.0
447.84375,-23.92578125,-33.69140625,-30.76171875,-32.71484375,0.48828125,0.0
447.84765625,-16.11328125,-25.87890625,-39.55078125,-24.4140625,52.24609375,0.0
447.8515625,-11.71875,-41.015625,-29.296875,-38.0859375,91.30859375,0.0
447.85546875,1.46484375,-34.1796875,-17.08984375,-26.3671875,83.984375,0.0
447.859375,-2.9296875,-18.5546875,-26.3671875,-23.4375,1.46484375,0.0
447.86328125,-22.4609375,-29.296875,-42.96875,-62.98828125,-92.28515625,0.0
447.8671875,-22.94921875,-24.4140625,-37.109375,-79.1015625,-52.734375,0.0
447.87109375,-4.8828125,-9.27734375,-29.296875,-75.1953125,7.32421875,0.0
447.875,-4.8828125,-5.37109375,-28.3203125,-79.58984375,29.78515625,0.0
447.87890625,-1.46484375,-5.859375,-29.78515625,-98.14453125,23.92578125,0.0
447.8828125,10.7421875,-7.32421875,-37.59765625,-94.23828125,18.06640625,0.0
447.88671875,-14.6484375,-10.7421875,-41.9921875,-88.37890625,29.78515625,0.0
447.890625,-31.25,-18.06640625,-47.36328125,-95.21484375,-17.08984375,0.0
447.89453125,-6.8359375,-23.92578125,-46.875,-81.54296875,1.46484375,0.0
447.8984375,2.9296875,-18.06640625,-40.52734375,-70.80078125,48.828125,0.0
447.90234375,23.4375,-11.23046875,-35.64453125,-71.2890625,-4.39453125,0.0
447.90625,46.38671875,-14.6484375,-35.15625,-62.01171875,33.69140625,0.0
447.91015625,32.71484375,-23.92578125,-38.57421875,-50.78125,35.64453125,0.0
447.9140625,16.11328125,-20.99609375,-35.64453125,-52.734375,-36.1328125,0.0
447.91796875,25.87890625,-14.6484375,-30.76171875,-60.546875,-27.83203125,0.0
447.921875,16.6015625,-18.06640625,-37.59765625,-70.3125,26.3671875,0.0
447.92578125,-1.46484375,-18.06640625,-32.71484375,-51.7578125,64.453125,0.0
447.9296875,-8.7890625,-20.5078125,-28.3203125,-54.6875,54.19921875,0.0
447.93359375,-1.953125,-19.53125,-31.25,-78.61328125,-2.9296875,0.0
447.9375,-7.8125,-17.08984375,-35.15625,-64.94140625,1.953125,0.0
447.94140625,-10.7421875,-26.3671875,-38.57421875,-68.359375,-52.24609375,0.0
447.9453125,-4.39453125,-24.90234375,-37.59765625,-70.80078125,-130.37109375,0.0
447.94921875,-16.11328125,-16.11328125,-39.0625,-65.91796875,-69.82421875,0.0
447.953125,-17.578125,-17.08984375,-29.296875,-54.6875,34.66796875,0.0
447.95703125,-25.87890625,-23.4375,-27.34375,-39.55078125,-6.8359375,0.0
447.9609375,-30.2734375,-15.625,-36.1328125,-37.59765625,-73.2421875,0.0
447.96484375,-28.80859375,-15.625,-25.390625,-38.0859375,-55.17578125,0.0
447.96875,-41.015625,-30.2734375,-26.3671875,-57.12890625,-54.19921875,0.0
447.97265625,-41.50390625,-36.1328125,-41.015625,-65.4296875,-113.28125,0.0
447.9765625,-29.78515625,-38.57421875,-40.0390625,-53.22265625,-96.19140625,0.0
447.98046875,1.46484375,-36.1328125,-37.59765625,-36.1328125,-26.3671875,0.0
447.984375,0.9765625,-37.109375,-39.55078125,-34.1796875,-41.50390625,0.0
447.98828125,-12.20703125,-39.55078125,-31.25,-51.7578125,-77.63671875,0.0
447.9921875,-15.13671875,-34.66796875,-20.5078125,-60.05859375,-65.4296875,0.0
447.99609375,-44.43359375,-42.96875,-19.04296875,-83.0078125,31.73828125,0.0
448.0,-59.5703125,-33.203125,-29.296875,-94.7265625,4.8828125,0.0
448.00390625,-42.48046875,-15.625,-33.203125,-78.61328125,-95.703125,0.0
448.0078125,-15.13671875,-24.4140625,-25.390625,-76.66015625,-113.76953125,0.0
448.01171875,-6.8359375,-36.62109375,-26.3671875,-70.80078125,-180.6640625,0.0
448.015625,-5.859375,-41.50390625,-36.1328125,-58.10546875,-157.2265625,0.0
448.01953125,0.0,-37.109375,-45.8984375,-51.7578125,-73.73046875,0.0
448.0234375,16.6015625,-36.62109375,-51.7578125,-32.71484375,-32.2265625,0.0
448.02734375,36.62109375,-41.50390625,-49.8046875,-13.671875,-12.6953125,0.0
448.03125,12.20703125,-48.828125,-41.9921875,-15.625,-3.41796875,0.0
448.03515625,11.23046875,-52.24609375,-31.25,-21.97265625,56.640625,0.0
448.0390625,64.94140625,-45.8984375,-35.64453125,-23.92578125,46.875,0.0
448.04296875,50.29296875,-46.38671875,-41.9921875,-13.18359375,-7.32421875,0.0
448.046875,3.90625,-46.875,-32.2265625,-0.48828125,-35.15625,0.0
448.05078125,5.859375,-49.31640625,-29.296875,-9.765625,15.13671875,0.0
448.0546875,-7.8125,-50.29296875,-38.0859375,-26.3671875,39.0625,0.0
448.05859375,-46.875,-47.8515625,-30.76171875,-34.66796875,49.8046875,0.0
448.0625,-51.26953125,-55.6640625,-20.99609375,-10.7421875,50.78125,0.0
448.06640625,-31.73828125,-51.26953125,-31.73828125,-3.41796875,-26.85546875,0.0
448.0703125,-34.66796875,-46.38671875,-41.9921875,-24.4140625,-3.41796875,0.0
448.07421875,-20.01953125,-46.38671875,-40.52734375,-14.16015625,81.0546875,0.0
448.078125,3.41796875,-42.96875,-36.62109375,-6.8359375,77.63671875,0.0
448.08203125,-18.06640625,-37.109375,-37.59765625,3.90625,32.2265625,0.0
448.0859375,-43.45703125,-42.96875,-48.33984375,11.23046875,0.0,0.0
448.08984375,-31.73828125,-53.7109375,-46.875,19.04296875,-74.21875,0.0
448.09375,-44.43359375,-57.6171875,-47.36328125,38.57421875,-84.47265625,0.0
448.09765625,-58.59375,-61.03515625,-50.78125,47.36328125,-25.87890625,0.0
448.1015625,-35.64453125,-59.08203125,-46.38671875,34.66796875,-38.57421875,0.0
448.10546875,-26.85546875,-50.29296875,-46.875,22.4609375,-12.20703125,0.0
448.109375,-43.9453125,-46.38671875,-51.7578125,37.59765625,23.92578125,0.0
448.11328125,-46.38671875,-56.15234375,-53.22265625,33.69140625,5.37109375,0.0
448.1171875,-32.71484375,-59.08203125,-45.41015625,55.17578125,22.4609375,0.0
448.12109375,-64.453125,-56.640625,-47.8515625,60.05859375,61.5234375,0.0
448.125,-66.89453125,-58.10546875,-53.22265625,40.52734375,95.21484375,0.0
448.12890625,-36.62109375,-55.6640625,-49.8046875,48.33984375,113.76953125,0.0
448.1328125,-21.484375,-53.22265625,-50.78125,32.2265625,58.10546875,0.0
448.13671875,-23.4375,-51.26953125,-48.828125,35.15625,59.08203125,0.0
448.140625,-17.08984375,-47.8515625,-41.50390625,60.05859375,14.6484375,0.0
448.14453125,-1.953125,-51.26953125,-43.9453125,28.80859375,-57.6171875,0.0
448.1484375,-22.94921875,-63.4765625,-57.6171875,-6.8359375,-43.9453125,0.0
448.15234375,-43.45703125,-68.359375,-61.03515625,5.37109375,2.9296875,0.0
448.15625,-42.96875,-67.87109375,-57.6171875,13.671875,-21.97265625,0.0
448.16015625,-21.97265625,-62.01171875,-52.734375,3.90625,-13.671875,0.0
448.1640625,-1.46484375,-56.15234375,-51.26953125,4.8828125,-33.203125,0.0
448.16796875,6.8359375,-52.734375,-57.6171875,-2.44140625,-49.31640625,0.0
448.171875,-21.484375,-57.12890625,-61.5234375,-4.8828125,36.1328125,0.0
448.17578125,-19.53125,-59.5703125,-60.05859375,2.44140625,-26.85546875,0.0
448.1796875,0.48828125,-58.59375,-46.38671875,7.8125,-60.05859375,0.0
448.18359375,-0.48828125,-54.6875,-43.45703125,8.30078125,48.828125,0.0
448.1875,-0.48828125,-48.828125,-49.8046875,0.9765625,18.5546875,0.0
448.19140625,-16.11328125,-53.22265625,-49.8046875,4.39453125,-66.89453125,0.0
448.1953125,-3.90625,-47.36328125,-44.921875,6.34765625,-72.265625,0.0
448.19921875,8.7890625,-41.50390625,-42.48046875,4.8828125,-68.359375,0.0
448.203125,-7.32421875,-43.9453125,-47.36328125,13.671875,-35.15625,0.0
448.20703125,-35.64453125,-48.33984375,-47.36328125,16.6015625,14.16015625,0.0
448.2109375,-21.484375,-48.828125,-48.33984375,16.6015625,-7.8125,0.0
448.21484375,-5.859375,-53.22265625,-46.38671875,10.7421875,-47.36328125,0.0
448.21875,-2.44140625,-52.734375,-42.48046875,14.6484375,-65.4296875,0.0
448.22265625,-9.27734375,-41.9921875,-42.48046875,26.85546875,-16.6015625,0.0
448.2265625,-18.06640625,-43.45703125,-39.55078125,4.39453125,-0.48828125,0.0
448.23046875,-30.2734375,-51.7578125,-40.52734375,2.9296875,-9.765625,0.0
448.234375,-46.875,-53.22265625,-43.45703125,11.71875,2.44140625,0.0
448.23828125,-32.71484375,-45.8984375,-51.26953125,0.0,4.39453125,0.0
448.2421875,-41.9921875,-42.48046875,-51.26953125,-2.9296875,-104.00390625,0.0
448.24609375,-49.8046875,-42.96875,-45.41015625,-3.90625,-126.953125,0.0
448.25,-53.7109375,-44.921875,-45.41015625,-1.46484375,-56.15234375,0.0
448.25390625,-56.15234375,-45.8984375,-45.41015625,6.8359375,12.6953125,0.0
448.2578125,-20.01953125,-44.921875,-39.55078125,16.6015625,-5.859375,0.0
448.26171875,-17.08984375,-50.29296875,-41.9921875,27.34375,-29.296875,0.0
448.265625,-33.69140625,-59.08203125,-57.12890625,-6.34765625,18.06640625,0.0
448.26953125,-22.94921875,-58.59375,-62.98828125,-20.99609375,-23.92578125,0.0
448.2734375,-41.50390625,-52.24609375,-48.33984375,0.9765625,-38.0859375,0.0
448.27734375,-78.61328125,-47.8515625,-40.0390625,9.27734375,-45.41015625,0.0
448.28125,-62.98828125,-46.38671875,-44.43359375,11.71875,-69.82421875,0.0
448.28515625,-30.76171875,-51.7578125,-52.24609375,19.04296875,-66.89453125,0.0
448.2890625,-20.01953125,-46.38671875,-43.9453125,18.5546875,-107.91015625,0.0
448.29296875,-37.59765625,-37.59765625,-34.1796875,17.08984375,-88.8671875,0.0
448.296875,-39.55078125,-32.71484375,-37.59765625,27.34375,-73.73046875,0.0
448.30078125,-49.8046875,-37.109375,-37.109375,20.01953125,-51.7578125,0.0
448.3046875,-44.43359375,-45.41015625,-37.59765625,23.92578125,-110.83984375,0.0
448.30859375,-26.85546875,-47.8515625,-38.0859375,25.87890625,-199.70703125,0.0
448.3125,-53.22265625,-38.0859375,-46.875,9.27734375,-92.28515625,0.0
448.31640625,-58.59375,-35.15625,-51.26953125,14.6484375,-25.390625,0.0
448.3203125,-31.73828125,-38.0859375,-38.0859375,11.23046875,-10.7421875,0.0
448.32421875,-18.5546875,-40.0390625,-26.85546875,27.34375,0.48828125,0.0
448.328125,-19.53125,-43.45703125,-28.80859375,27.83203125,10.25390625,0.0
448.33203125,-14.6484375,-44.921875,-34.1796875,8.30078125,-16.11328125,0.0
448.3359375,-41.9921875,-49.31640625,-40.0390625,11.71875,-62.98828125,0.0
448.33984375,-54.19921875,-42.96875,-34.66796875,12.20703125,-67.3828125,0.0
448.34375,-35.64453125,-37.59765625,-31.73828125,22.4609375,-29.78515625,0.0
448.34765625,-48.33984375,-35.15625,-40.0390625,7.8125,41.9921875,0.0
448.3515625,-51.26953125,-41.015625,-41.9921875,24.4140625,23.92578125,0.0
448.35546875,-5.37109375,-41.9921875,-37.109375,39.0625,26.3671875,0.0
448.359375,-18.5546875,-41.50390625,-41.9921875,21.97265625,132.32421875,0.0
448.36328125,-41.50390625,-45.41015625,-44.921875,26.85546875,108.3984375,0.0
448.3671875,-54.19921875,-35.15625,-38.0859375,34.66796875,-24.4140625,0.0
448.37109375,-66.89453125,-31.73828125,-43.9453125,48.33984375,-76.66015625,0.0
448.375,-47.8515625,-38.0859375,-46.38671875,37.59765625,10.25390625,0.0
448.37890625,-56.15234375,-40.52734375,-39.0625,29.296875,8.7890625,0.0
448.3828125,-96.6796875,-35.64453125,-46.38671875,43.45703125,-82.03125,0.0
448.38671875,-89.84375,-31.25,-52.734375,67.87109375,-97.65625,0.0
448.390625,-89.35546875,-33.203125,-40.52734375,50.29296875,-49.8046875,0.0
448.39453125,-92.28515625,-38.0859375,-43.45703125,24.90234375,-48.828125,0.0
448.3984375,-88.8671875,-44.43359375,-42.96875,44.43359375,-28.3203125,0.0
448.40234375,-90.8203125,-40.52734375,-30.2734375,61.5234375,21.484375,0.0
448.40625,-81.54296875,-38.0859375,-33.203125,41.015625,10.25390625,0.0
448.41015625,-85.9375,-44.43359375,-38.57421875,-1.46484375,36.1328125,0.0
448.4140625,-104.98046875,-44.921875,-42.96875,-37.109375,17.08984375,0.0
448.41796875,-115.234375,-34.66796875,-44.921875,-42.48046875,-44.43359375,0.0
448.421875,-96.6796875,-32.71484375,-44.43359375,-51.26953125,4.8828125,0.0
448.42578125,-90.33203125,-37.109375,-60.546875,-73.2421875,0.9765625,0.0
448.4296875,-115.234375,-42.96875,-62.98828125,-80.56640625,-41.9921875,0.0
448.43359375,-102.5390625,-49.31640625,-47.36328125,-80.56640625,-47.36328125,0.0
448.4375,-111.328125,-53.22265625,-41.50390625,-91.30859375,-64.453125,0.0
448.44140625,-131.34765625,-54.6875,-35.15625,-66.40625,-91.796875,0.0
448.4453125,-106.93359375,-49.31640625,-33.203125,-40.52734375,-106.4453125,0.0
448.44921875,-90.8203125,-41.50390625,-49.31640625,-65.4296875,-24.4140625,0.0
448.453125,-99.12109375,-41.50390625,-58.10546875,-93.75,-72.75390625,0.0
448.45703125,-141.6015625,-42.96875,-56.640625,-116.69921875,-176.7578125,0.0
448.4609375,-130.859375,-30.76171875,-62.98828125,-133.30078125,-35.15625,0.0
448.46484375,-119.140625,-22.94921875,-69.82421875,-128.90625,79.58984375,0.0
448.46875,-168.9453125,-25.390625,-68.84765625,-131.8359375,111.328125,0.0
448.47265625,-188.4765625,-22.94921875,-64.94140625,-160.15625,66.89453125,0.0
448.4765625,-198.2421875,-12.20703125,-72.75390625,-190.91796875,2.44140625,0.0
448.48046875,-201.66015625,-8.30078125,-79.58984375,-205.078125,16.6015625,0.0
448.484375,-185.05859375,-0.48828125,-83.0078125,-210.9375,-34.66796875,0.0
448.48828125,-181.15234375,11.23046875,-87.40234375,-218.26171875,-50.78125,0.0
448.4921875,-180.17578125,18.06640625,-76.171875,-220.703125,35.64453125,0.0
448.49609375,-169.921875,28.3203125,-82.51953125,-204.58984375,76.66015625,0.0
448.5,-162.109375,34.1796875,-93.75,-195.3125,-41.015625,0.0
448.50390625,-166.50390625,40.52734375,-88.8671875,-224.12109375,-32.2265625,0.0
448.5078125,-200.1953125,60.546875,-99.609375,-224.609375,54.19921875,0.0
448.51171875,-205.56640625,68.359375,-101.5625,-200.68359375,-24.4140625,0.0
448.515625,-186.03515625,65.4296875,-94.7265625,-204.58984375,-59.08203125,0.0
448.51953125,-169.921875,80.56640625,-91.796875,-196.77734375,46.875,0.0
448.5234375,-169.921875,79.58984375,-89.35546875,-179.19921875,60.546875,0.0
448.52734375,-181.15234375,62.98828125,-89.35546875,-166.50390625,-9.27734375,0.0
448.53125,-163.57421875,42.48046875,-99.609375,-168.9453125,-9.27734375,0.0
448.53515625,-119.62890625,21.97265625,-103.02734375,-135.25390625,-33.69140625,0.0
448.5390625,-111.328125,16.6015625,-91.796875,-104.00390625,-40.52734375,0.0
448.54296875,-122.0703125,20.5078125,-73.2421875,-109.375,-11.71875,0.0
448.546875,-102.5390625,28.80859375,-68.84765625,-76.171875,-41.015625,0.0
448.55078125,-90.8203125,40.0390625,-77.63671875,-56.15234375,-59.5703125,0.0
448.5546875,-76.171875,38.0859375,-68.84765625,-56.640625,-157.2265625,0.0
448.55859375,-41.015625,39.55078125,-60.05859375,-42.96875,-187.01171875,0.0
448.5625,-11.23046875,33.203125,-65.91796875,-17.578125,-55.6640625,0.0
448.56640625,3.90625,16.6015625,-67.3828125,20.5078125,-21.97265625,0.0
448.5703125,3.41796875,4.39453125,-67.87109375,43.45703125,-37.109375,0.0
448.57421875,-1.46484375,-3.41796875,-62.5,42.96875,-61.5234375,0.0
448.578125,-7.8125,-3.41796875,-49.31640625,53.22265625,-121.09375,0.0
448.58203125,-7.8125,-7.32421875,-44.43359375,83.49609375,-73.2421875,0.0
448.5859375,7.8125,-12.20703125,-42.48046875,78.125,-63.96484375,0.0
448.58984375,59.08203125,-19.53125,-41.015625,72.265625,-58.59375,0.0
448.59375,80.078125,-25.390625,-38.57421875,89.84375,3.41796875,0.0
448.59765625,91.796875,-30.76171875,-36.62109375,104.4921875,21.97265625,0.0
448.6015625,106.4453125,-34.1796875,-42.96875,101.5625,-33.203125,0.0
448.60546875,106.93359375,-14.16015625,-45.41015625,93.75,-41.50390625,0.0
448.609375,124.0234375,-19.04296875,-22.94921875,106.4453125,-32.71484375,0.0
448.61328125,130.37109375,-46.875,-9.765625,112.3046875,-99.609375,0.0
448.6171875,111.81640625,-49.8046875,-22.94921875,103.02734375,-39.55078125,0.0
448.62109375,85.9375,-40.0390625,-25.87890625,112.3046875,-13.18359375,0.0
448.625,78.61328125,-47.8515625,-31.25,121.58203125,9.765625,0.0
448.62890625,88.37890625,-49.31640625,-46.38671875,95.21484375,7.8125,0.0
448.6328125,76.171875,-41.50390625,-49.31640625,94.23828125,-107.91015625,0.0
448.63671875,61.5234375,-51.26953125,-42.96875,79.58984375,-45.41015625,0.0
448.640625,73.2421875,-57.12890625,-34.66796875,86.42578125,16.6015625,0.0
448.64453125,91.30859375,-56.640625,-32.2265625,85.9375,-29.296875,0.0
448.6484375,94.7265625,-56.640625,-32.71484375,71.77734375,-16.11328125,0.0
448.65234375,57.6171875,-60.05859375,-28.80859375,100.5859375,18.06640625,0.0
448.65625,41.50390625,-58.10546875,-25.87890625,102.05078125,68.84765625,0.0
448.66015625,70.3125,-51.7578125,-30.76171875,73.2421875,79.1015625,0.0
448.6640625,65.91796875,-51.26953125,-36.1328125,59.08203125,21.97265625,0.0
448.66796875,67.87109375,-63.96484375,-39.0625,66.89453125,-39.55078125,0.0
448.671875,74.70703125,-75.68359375,-41.9921875,86.42578125,-58.59375,0.0
448.67578125,19.04296875,-70.80078125,-33.203125,64.453125,-93.26171875,0.0
448.6796875,-17.578125,-61.03515625,-29.296875,51.7578125,-76.66015625,0.0
448.68359375,13.671875,-49.8046875,-31.73828125,84.9609375,-92.28515625,0.0
448.6875,20.5078125,-43.45703125,-36.1328125,104.00390625,-125.48828125,0.0
448.69140625,10.25390625,-49.8046875,-38.57421875,85.44921875,-62.01171875,0.0
448.6953125,35.15625,-49.8046875,-32.71484375,73.2421875,3.41796875,0.0
448.69921875,75.1953125,-45.8984375,-32.2265625,51.26953125,1.953125,0.0
448.703125,72.75390625,-48.33984375,-36.62109375,46.875,-67.87109375,0.0
448.70703125,31.73828125,-48.828125,-30.2734375,56.15234375,-45.8984375,0.0
448.7109375,25.87890625,-52.24609375,-21.97265625,41.015625,-33.69140625,0.0
448.71484375,36.1328125,-49.8046875,-25.87890625,41.015625,-95.21484375,0.0
448.71875,24.90234375,-47.8515625,-29.296875,50.78125,-20.99609375,0.0
448.72265625,4.8828125,-50.29296875,-26.85546875,30.2734375,-23.4375,0.0
448.7265625,13.671875,-49.8046875,-28.80859375,23.4375,-58.59375,0.0
448.73046875,-10.7421875,-50.29296875,-30.2734375,20.01953125,20.99609375,0.0
448.734375,1.953125,-49.8046875,-29.296875,15.625,0.48828125,0.0
448.73828125,43.45703125,-43.45703125,-23.4375,21.484375,-5.859375,0.0
448.7421875,43.9453125,-47.36328125,-27.83203125,11.71875,77.1484375,0.0
448.74609375,42.48046875,-46.38671875,-31.73828125,3.90625,96.6796875,0.0
448.75,30.2734375,-39.55078125,-31.73828125,25.390625,-2.44140625,0.0
448.75390625,34.1796875,-39.0625,-28.80859375,26.85546875,-15.13671875,0.0
448.7578125,14.6484375,-41.50390625,-19.04296875,18.06640625,-26.3671875,0.0
448.76171875,-19.53125,-44.921875,-25.390625,20.01953125,-111.328125,0.0
448.765625,15.625,-38.57421875,-30.76171875,29.78515625,-96.6796875,0.0
448.76953125,26.3671875,-32.71484375,-21.484375,37.109375,-70.3125,0.0
448.7734375,24.4140625,-30.76171875,-12.6953125,50.78125,-65.91796875,0.0
448.77734375,29.78515625,-39.55078125,-22.4609375,60.546875,-97.16796875,0.0
448.78125,-15.625,-57.6171875,-48.828125,36.1328125,-102.5390625,0.0
448.78515625,-32.2265625,-69.3359375,-62.5,4.39453125,-35.64453125,0.0
448.7890625,-31.73828125,-68.84765625,-53.7109375,10.25390625,27.34375,0.0
448.79296875,-64.94140625,-62.98828125,-56.15234375,15.625,81.54296875,0.0
448.796875,-76.66015625,-62.01171875,-55.17578125,24.90234375,123.53515625,0.0
448.80078125,-47.36328125,-66.40625,-44.921875,42.96875,79.1015625,0.0
448.8046875,-39.55078125,-68.84765625,-48.33984375,24.4140625,15.13671875,0.0
448.80859375,-57.6171875,-64.453125,-48.33984375,41.9921875,-42.48046875,0.0
448.8125,-76.66015625,-64.453125,-51.7578125,66.40625,-72.265625,0.0
448.81640625,-84.9609375,-66.89453125,-51.7578125,53.22265625,-35.15625,0.0
448.8203125,-66.89453125,-63.96484375,-45.8984375,36.62109375,-2.9296875,0.0
448.82421875,-85.44921875,-64.94140625,-53.22265625,49.8046875,-37.59765625,0.0
448.828125,-83.49609375,-63.4765625,-62.01171875,84.9609375,-73.73046875,0.0
448.83203125,-71.2890625,-64.94140625,-50.78125,35.15625,-68.359375,0.0
448.8359375,-67.87109375,-61.5234375,-47.36328125,17.08984375,-58.10546875,0.0
448.83984375,-76.171875,-51.7578125,-53.7109375,44.921875,-93.26171875,0.0
448.84375,-70.3125,-56.15234375,-49.8046875,43.45703125,-165.0390625,0.0
448.84765625,-55.17578125,-62.98828125,-47.36328125,70.3125,-232.421875,0.0
448.8515625,-49.8046875,-57.12890625,-42.96875,104.00390625,-112.3046875,0.0
448.85546875,-32.71484375,-56.15234375,-41.50390625,78.61328125,-66.40625,0.0
448.859375,-64.453125,-52.734375,-47.36328125,70.3125,-36.62109375,0.0
448.86328125,-112.79296875,-50.78125,-55.17578125,62.01171875,14.6484375,0.0
448.8671875,-99.12109375,-54.19921875,-40.0390625,55.6640625,-37.109375,0.0
448.87109375,-68.359375,-41.9921875,-29.296875,61.5234375,-7.32421875,0.0
448.875,-62.98828125,-35.64453125,-34.66796875,57.12890625,-6.8359375,0.0
448.87890625,-50.78125,-36.62109375,-27.34375,48.828125,-50.29296875,0.0
448.8828125,-29.78515625,-32.2265625,-24.90234375,50.29296875,-53.7109375,0.0
448.88671875,-19.53125,-37.59765625,-33.203125,35.15625,-47.36328125,0.0
448.890625,-53.22265625,-45.8984375,-40.0390625,8.30078125,6.34765625,0.0
448.89453125,-59.5703125,-54.19921875,-44.921875,-2.9296875,-11.23046875,0.0
448.8984375,-24.4140625,-51.7578125,-46.875,-15.13671875,-60.546875,0.0
448.90234375,-2.9296875,-39.55078125,-42.48046875,5.859375,-97.16796875,0.0
448.90625,16.6015625,-39.0625,-45.41015625,19.53125,-70.3125,0.0
448.91015625,16.6015625,-52.24609375,-50.78125,3.41796875,20.01953125,0.0
448.9140625,59.08203125,-55.17578125,-37.59765625,-4.8828125,61.03515625,0.0
448.91796875,55.17578125,-44.43359375,-31.73828125,-14.6484375,55.6640625,0.0
448.921875,8.7890625,-46.875,-40.0390625,-34.1796875,7.32421875,0.0
448.92578125,39.55078125,-46.875,-48.33984375,-49.31640625,86.9140625,0.0
448.9296875,51.7578125,-29.78515625,-47.8515625,-42.96875,59.5703125,0.0
448.93359375,28.3203125,-21.97265625,-41.015625,-67.87109375,9.27734375,0.0
448.9375,60.546875,-32.2265625,-46.38671875,-96.19140625,70.80078125,0.0
448.94140625,92.28515625,-40.52734375,-29.78515625,-72.265625,53.22265625,0.0
448.9453125,61.03515625,-44.43359375,-19.04296875,-78.61328125,-52.734375,0.0
448.94921875,43.9453125,-34.66796875,-37.59765625,-98.6328125,-130.37109375,0.0
448.953125,10.25390625,-27.83203125,-53.22265625,-103.515625,-69.82421875,0.0
448.95703125,-1.46484375,-34.1796875,-43.45703125,-102.05078125,-58.10546875,0.0
448.9609375,12.6953125,-39.55078125,-29.78515625,-87.40234375,-76.66015625,0.0
448.96484375,-5.859375,-39.55078125,-25.87890625,-68.359375,-56.640625,0.0
448.96875,-5.859375,-36.62109375,-30.2734375,-63.4765625,-86.42578125,0.0
448.97265625,29.296875,-28.3203125,-46.38671875,-79.1015625,-103.515625,0.0
448.9765625,44.43359375,-24.90234375,-36.1328125,-75.1953125,-82.03125,0.0
448.98046875,35.64453125,-27.83203125,-20.5078125,-47.8515625,-30.76171875,0.0
448.984375,43.45703125,-30.76171875,-21.97265625,-46.38671875,17.08984375,0.0
448.98828125,62.5,-28.80859375,-25.390625,-62.98828125,-34.66796875,0.0
448.9921875,51.26953125,-19.04296875,-29.296875,-63.96484375,-32.71484375,0.0
448.99609375,42.48046875,-18.06640625,-33.203125,-56.15234375,16.6015625,0.0
449.0,55.6640625,-25.390625,-29.296875,-35.64453125,12.6953125,0.0
449.00390625,65.91796875,-35.64453125,-35.15625,-23.92578125,-42.96875,0.0
449.0078125,35.64453125,-45.41015625,-46.875,-37.59765625,-61.03515625,0.0
449.01171875,10.7421875,-37.109375,-50.29296875,-50.78125,-119.62890625,0.0
449.015625,17.578125,-27.83203125,-44.43359375,-40.0390625,-128.90625,0.0
449.01953125,-13.18359375,-38.57421875,-45.8984375,-30.2734375,-80.56640625,0.0
449.0234375,-42.96875,-45.8984375,-48.828125,-21.484375,-32.71484375,0.0
449.02734375,-42.48046875,-44.921875,-41.50390625,-19.04296875,6.8359375,0.0
449.03125,-32.71484375,-41.015625,-41.50390625,-38.0859375,-3.90625,0.0
449.03515625,-23.4375,-42.48046875,-39.55078125,-62.5,42.96875,0.0
449.0390625,-9.765625,-38.0859375,-41.50390625,-83.984375,40.52734375,0.0
449.04296875,8.7890625,-30.2734375,-45.8984375,-74.70703125,-24.90234375,0.0
449.046875,0.9765625,-37.109375,-35.15625,-68.359375,-92.7734375,0.0
449.05078125,7.32421875,-38.57421875,-25.87890625,-91.796875,-84.9609375,0.0
449.0546875,-5.37109375,-38.57421875,-29.78515625,-91.796875,-20.99609375,0.0
449.05859375,-5.37109375,-38.57421875,-34.66796875,-63.96484375,-25.87890625,0.0
449.0625,24.90234375,-35.64453125,-30.76171875,-33.203125,17.578125,0.0
449.06640625,-13.18359375,-41.9921875,-28.80859375,-43.9453125,68.84765625,0.0
449.0703125,-16.6015625,-35.64453125,-34.1796875,-35.15625,24.4140625,0.0
449.07421875,39.0625,-37.59765625,-42.48046875,-34.66796875,47.36328125,0.0
449.078125,46.38671875,-54.6875,-39.0625,-71.2890625,73.73046875,0.0
449.08203125,62.98828125,-51.7578125,-35.15625,-52.24609375,44.921875,0.0
449.0859375,74.21875,-43.45703125,-35.64453125,-8.30078125,-32.71484375,0.0
449.08984375,21.97265625,-50.29296875,-30.76171875,-18.06640625,-27.83203125,0.0
449.09375,12.6953125,-63.96484375,-23.92578125,-30.2734375,-65.91796875,0.0
449.09765625,17.578125,-70.3125,-22.4609375,11.23046875,-117.67578125,0.0
449.1015625,11.71875,-71.77734375,-26.85546875,25.390625,-37.59765625,0.0
449.10546875,5.37109375,-68.84765625,-35.64453125,23.92578125,-4.8828125,0.0
449.109375,18.5546875,-63.96484375,-32.71484375,31.73828125,-23.92578125,0.0
449.11328125,61.03515625,-63.96484375,-29.296875,23.4375,-16.6015625,0.0
449.1171875,61.03515625,-74.70703125,-42.96875,18.06640625,29.296875,0.0
449.12109375,66.89453125,-76.171875,-39.55078125,20.99609375,52.24609375,0.0
449.125,81.54296875,-62.01171875,-43.45703125,48.33984375,44.921875,0.0
449.12890625,47.8515625,-48.33984375,-49.31640625,33.203125,-24.4140625,0.0
449.1328125,23.92578125,-44.43359375,-49.31640625,17.578125,-8.7890625,0.0
449.13671875,18.06640625,-52.734375,-51.7578125,37.109375,18.06640625,0.0
449.140625,-13.671875,-54.6875,-53.7109375,21.484375,-121.09375,0.0
449.14453125,13.18359375,-54.19921875,-54.19921875,33.69140625,-87.40234375,0.0
449.1484375,35.64453125,-60.05859375,-47.36328125,20.5078125,-45.8984375,0.0
449.15234375,18.5546875,-59.5703125,-46.38671875,0.0,-23.92578125,0.0
449.15625,-9.27734375,-50.78125,-43.45703125,-4.8828125,-63.96484375,0.0
449.16015625,-29.78515625,-51.7578125,-54.6875,-14.6484375,-100.5859375,0.0
449.1640625,-39.55078125,-54.6875,-61.5234375,-15.625,-0.9765625,0.0
449.16796875,-52.734375,-44.43359375,-48.33984375,-21.97265625,-54.19921875,0.0
449.171875,-19.53125,-39.55078125,-54.6875,-25.390625,-46.38671875,0.0
449.17578125,-34.1796875,-39.55078125,-58.59375,-54.6875,-32.71484375,0.0
449.1796875,-37.59765625,-46.875,-59.5703125,-66.89453125,-79.58984375,0.0
449.18359375,46.38671875,-52.24609375,-62.98828125,-57.6171875,-67.3828125,0.0
449.1875,71.2890625,-53.7109375,-57.12890625,-76.171875,42.48046875,0.0
449.19140625,85.44921875,-56.15234375,-51.26953125,-76.171875,63.4765625,0.0
449.1953125,114.2578125,-53.22265625,-43.45703125,-80.078125,5.37109375,0.0
449.19921875,96.19140625,-41.50390625,-41.9921875,-91.796875,-4.39453125,0.0
449.203125,100.5859375,-39.55078125,-45.8984375,-98.14453125,14.16015625,0.0
449.20703125,103.515625,-46.38671875,-44.43359375,-96.6796875,18.06640625,0.0
449.2109375,108.88671875,-41.9921875,-45.41015625,-106.4453125,-23.4375,0.0
449.21484375,95.703125,-36.1328125,-44.921875,-109.86328125,-25.87890625,0.0
449.21875,81.54296875,-35.64453125,-41.015625,-90.33203125,46.38671875,0.0
449.22265625,82.51953125,-34.1796875,-43.45703125,-72.75390625,70.3125,0.0
449.2265625,60.05859375,-36.62109375,-38.57421875,-83.984375,-6.34765625,0.0
449.23046875,49.31640625,-38.57421875,-31.73828125,-98.6328125,-22.4609375,0.0
449.234375,51.7578125,-30.76171875,-35.15625,-59.08203125,-4.8828125,0.0
449.23828125,51.7578125,-29.78515625,-32.71484375,-37.109375,-71.77734375,0.0
449.2421875,36.62109375,-36.1328125,-36.1328125,-55.17578125,-72.75390625,0.0
449.24609375,-5.859375,-33.203125,-46.875,-78.61328125,34.1796875,0.0
449.25,-40.0390625,-32.2265625,-45.8984375,-85.44921875,22.4609375,0.0
449.25390625,-41.50390625,-35.15625,-44.43359375,-58.10546875,-3.41796875,0.0
449.2578125,-2.9296875,-34.1796875,-44.43359375,-69.3359375,-14.6484375,0.0
449.26171875,-4.39453125,-39.55078125,-30.76171875,-38.0859375,26.3671875,0.0
449.265625,-16.11328125,-33.69140625,-33.203125,-23.92578125,10.25390625,0.0
449.26953125,0.48828125,-22.94921875,-43.45703125,-55.6640625,-31.25,0.0
449.2734375,-54.6875,-43.45703125,-42.96875,-52.24609375,-38.0859375,0.0
449.27734375,-60.546875,-48.828125,-51.7578125,-44.921875,-108.88671875,0.0
449.28125,-20.99609375,-36.62109375,-43.9453125,-4.39453125,-52.734375,0.0
449.28515625,-9.27734375,-38.0859375,-36.62109375,-20.5078125,29.78515625,0.0
449.2890625,-29.296875,-44.43359375,-38.57421875,-1.953125,70.80078125,0.0
449.29296875,-27.34375,-36.62109375,-34.1796875,31.73828125,47.36328125,0.0
449.296875,-8.30078125,-22.94921875,-30.2734375,34.66796875,17.08984375,0.0
449.30078125,-22.94921875,-27.83203125,-28.80859375,24.90234375,-107.91015625,0.0
449.3046875,-28.80859375,-30.2734375,-30.2734375,31.25,-171.38671875,0.0
449.30859375,6.8359375,-36.62109375,-27.83203125,36.62109375,-121.09375,0.0
449.3125,-13.18359375,-48.828125,-28.3203125,0.48828125,-130.37109375,0.0
449.31640625,-44.43359375,-31.73828125,-33.69140625,-5.37109375,-155.76171875,0.0
449.3203125,-22.94921875,-24.4140625,-28.80859375,13.18359375,-87.890625,0.0
449.32421875,-24.4140625,-23.4375,-35.64453125,-1.46484375,-78.61328125,0.0
449.328125,-33.69140625,-22.4609375,-33.203125,18.5546875,-110.3515625,0.0
449.33203125,-53.22265625,-32.2265625,-30.76171875,-19.53125,-47.8515625,0.0
449.3359375,-54.19921875,-26.85546875,-41.015625,-59.5703125,-62.98828125,0.0
449.33984375,-48.828125,-30.76171875,-39.0625,-36.1328125,-48.828125,0.0
449.34375,-63.4765625,-30.76171875,-34.1796875,-26.85546875,11.71875,0.0
449.34765625,-68.359375,-35.15625,-28.80859375,0.48828125,-35.15625,0.0
449.3515625,-76.66015625,-42.96875,-28.3203125,38.57421875,-71.2890625,0.0
449.35546875,-50.78125,-38.57421875,-30.2734375,75.1953125,-17.578125,0.0
449.359375,-18.06640625,-30.2734375,-29.296875,77.63671875,-2.9296875,0.0
449.36328125,-32.2265625,-27.34375,-35.64453125,59.5703125,-32.2265625,0.0
449.3671875,-31.73828125,-28.3203125,-38.0859375,58.10546875,-42.96875,0.0
449.37109375,-26.85546875,-26.85546875,-29.296875,73.73046875,-79.58984375,0.0
449.375,-57.12890625,-37.59765625,-27.83203125,77.1484375,-96.19140625,0.0
449.37890625,-77.63671875,-50.78125,-33.69140625,68.359375,-9.27734375,0.0
449.3828125,-74.21875,-48.33984375,-37.109375,51.26953125,9.765625,0.0
449.38671875,-33.69140625,-26.85546875,-31.25,61.03515625,-60.546875,0.0
449.390625,-32.71484375,-24.90234375,-30.2734375,69.82421875,-39.0625,0.0
449.39453125,-52.734375,-40.0390625,-37.109375,57.12890625,-0.48828125,0.0
449.3984375,-58.10546875,-41.9921875,-38.0859375,43.45703125,-26.85546875,0.0
449.40234375,-71.77734375,-50.29296875,-32.2265625,26.3671875,1.46484375,0.0
449.40625,-52.24609375,-46.38671875,-22.4609375,27.83203125,-4.39453125,0.0
449.41015625,-25.390625,-26.85546875,-34.66796875,26.3671875,-11.71875,0.0
449.4140625,-40.52734375,-31.25,-51.26953125,39.55078125,31.25,0.0
449.41796875,-46.38671875,-29.78515625,-38.0859375,40.0390625,69.82421875,0.0
449.421875,-39.0625,-27.34375,-25.87890625,32.71484375,-11.23046875,0.0
449.42578125,-2.9296875,-25.87890625,-26.3671875,54.19921875,-89.35546875,0.0
449.4296875,-13.18359375,-20.01953125,-31.73828125,41.015625,-27.34375,0.0
449.43359375,-39.0625,-16.11328125,-30.2734375,10.7421875,5.859375,0.0
449.4375,-35.64453125,-18.06640625,-21.484375,22.4609375,-28.80859375,0.0
449.44140625,-60.546875,-21.97265625,-33.203125,20.99609375,-11.71875,0.0
449.4453125,-51.7578125,-19.04296875,-48.828125,0.9765625,-19.04296875,0.0
449.44921875,-65.4296875,-16.6015625,-54.19921875,-11.23046875,-52.734375,0.0
449.453125,-71.2890625,-18.06640625,-50.29296875,-47.36328125,-48.33984375,0.0
449.45703125,-90.33203125,-19.53125,-58.59375,-57.12890625,-95.21484375,0.0
449.4609375,-113.28125,-14.16015625,-80.078125,-62.5,-73.2421875,0.0
449.46484375,-137.6953125,-10.7421875,-95.703125,-99.12109375,-43.9453125,0.0
449.46875,-159.66796875,-2.9296875,-96.6796875,-86.42578125,-61.5234375,0.0
449.47265625,-189.94140625,6.8359375,-98.6328125,-104.4921875,-25.390625,0.0
449.4765625,-193.359375,7.32421875,-96.19140625,-144.53125,20.01953125,0.0
449.48046875,-208.984375,7.8125,-98.6328125,-135.25390625,25.390625,0.0
449.484375,-253.41796875,0.48828125,-109.375,-128.90625,83.984375,0.0
449.48828125,-277.83203125,-9.27734375,-108.88671875,-171.38671875,5.37109375,0.0
449.4921875,-289.55078125,-9.27734375,-103.02734375,-188.96484375,-175.78125,0.0
449.49609375,-272.4609375,-12.20703125,-104.00390625,-188.4765625,-134.27734375,0.0
449.5,-244.62890625,2.9296875,-97.65625,-165.52734375,-43.9453125,0.0
449.50390625,-240.234375,4.39453125,-90.33203125,-125.0,24.90234375,0.0
449.5078125,-237.79296875,-11.71875,-97.16796875,-105.46875,5.859375,0.0
449.51171875,-224.12109375,0.0,-94.23828125,-104.4921875,-25.390625,0.0
449.515625,-211.42578125,-1.46484375,-83.984375,-118.65234375,-38.0859375,0.0
449.51953125,-203.61328125,-7.8125,-86.42578125,-98.14453125,-69.82421875,0.0
449.5234375,-223.6328125,-7.32421875,-83.0078125,-71.2890625,-64.94140625,0.0
449.52734375,-244.140625,-14.6484375,-73.73046875,-55.17578125,-50.29296875,0.0
449.53125,-211.42578125,-5.859375,-81.54296875,-54.19921875,-94.7265625,0.0
449.53515625,-149.4140625,-10.7421875,-75.68359375,-51.7578125,-15.13671875,0.0
449.5390625,-157.71484375,-18.5546875,-62.5,-41.50390625,126.953125,0.0
449.54296875,-171.38671875,-15.625,-61.5234375,-20.01953125,90.8203125,0.0
449.546875,-143.06640625,-24.4140625,-62.01171875,-21.484375,1.953125,0.0
449.55078125,-115.234375,-25.390625,-68.359375,-23.4375,-61.5234375,0.0
449.5546875,-83.984375,-29.78515625,-61.5234375,2.9296875,-39.0625,0.0
449.55859375,-64.94140625,-38.0859375,-49.31640625,4.39453125,-24.4140625,0.0
449.5625,-48.828125,-39.0625,-38.57421875,24.90234375,-41.9921875,0.0
449.56640625,-31.25,-32.2265625,-34.66796875,47.36328125,11.23046875,0.0
449.5703125,-43.9453125,-37.109375,-37.59765625,50.29296875,-29.78515625,0.0
449.57421875,-23.92578125,-43.9453125,-32.2265625,76.66015625,-69.3359375,0.0
449.578125,29.78515625,-45.41015625,-32.2265625,85.44921875,-6.8359375,0.0
449.58203125,25.390625,-54.6875,-32.71484375,84.47265625,42.48046875,0.0
449.5859375,13.671875,-56.640625,-33.203125,111.81640625,59.08203125,0.0
449.58984375,35.64453125,-50.78125,-33.203125,94.7265625,84.47265625,0.0
449.59375,42.96875,-50.29296875,-26.3671875,85.44921875,14.6484375,0.0
449.59765625,82.51953125,-56.640625,-28.3203125,75.1953125,-15.625,0.0
449.6015625,123.53515625,-53.22265625,-27.34375,52.734375,-85.9375,0.0
449.60546875,105.46875,-55.6640625,-17.08984375,71.77734375,-177.734375,0.0
449.609375,118.65234375,-68.359375,-8.7890625,82.51953125,-230.46875,0.0
449.61328125,85.9375,-72.265625,-8.7890625,66.89453125,-272.4609375,0.0
449.6171875,62.5,-70.3125,-18.06640625,55.17578125,-186.5234375,0.0
449.62109375,69.3359375,-69.82421875,-21.484375,67.87109375,-107.91015625,0.0
449.625,58.10546875,-69.82421875,-16.11328125,41.015625,-134.27734375,0.0
449.62890625,58.59375,-67.87109375,-18.06640625,29.78515625,-82.03125,0.0
449.6328125,68.359375,-66.40625,-19.04296875,68.359375,-52.24609375,0.0
449.63671875,97.16796875,-55.17578125,-19.04296875,64.453125,-59.08203125,0.0
449.640625,85.44921875,-47.8515625,-20.5078125,44.43359375,26.85546875,0.0
449.64453125,52.24609375,-54.19921875,-27.34375,29.296875,-31.25,0.0
449.6484375,61.03515625,-52.734375,-34.66796875,9.27734375,-28.3203125,0.0
449.65234375,55.6640625,-53.7109375,-35.15625,-32.2265625,72.75390625,0.0
449.65625,31.73828125,-57.12890625,-20.5078125,4.8828125,104.4921875,0.0
449.66015625,47.8515625,-57.6171875,-4.8828125,65.91796875,139.6484375,0.0
449.6640625,53.22265625,-64.453125,-7.8125,38.0859375,94.7265625,0.0
449.66796875,29.78515625,-57.12890625,-11.23046875,26.85546875,51.7578125,0.0
449.671875,25.87890625,-43.45703125,-10.25390625,39.0625,6.8359375,0.0
449.67578125,50.29296875,-47.36328125,-8.30078125,62.5,29.78515625,0.0
449.6796875,36.62109375,-53.7109375,-1.953125,82.03125,62.01171875,0.0
449.68359375,-8.7890625,-50.78125,-4.39453125,50.78125,96.6796875,0.0
449.6875,-21.484375,-41.015625,-7.32421875,48.828125,103.515625,0.0
449.69140625,-4.8828125,-35.64453125,-13.18359375,37.59765625,4.39453125,0.0
449.6953125,1.953125,-41.9921875,-14.6484375,36.62109375,15.13671875,0.0
449.69921875,-2.44140625,-51.7578125,-4.8828125,45.41015625,63.4765625,0.0
449.703125,-3.41796875,-55.17578125,-1.953125,70.3125,54.6875,0.0
449.70703125,8.30078125,-44.921875,-11.23046875,65.4296875,-5.859375,0.0
449.7109375,25.87890625,-37.109375,-17.578125,33.203125,-50.78125,0.0
449.71484375,1.953125,-47.8515625,-16.11328125,96.19140625,-26.85546875,0.0
449.71875,-10.7421875,-49.31640625,-21.484375,79.58984375,-11.23046875,0.0
449.72265625,14.16015625,-38.57421875,-18.06640625,36.1328125,-44.43359375,0.0
449.7265625,16.6015625,-38.0859375,-22.4609375,55.17578125,-141.6015625,0.0
449.73046875,-13.18359375,-48.828125,-20.5078125,69.82421875,-107.91015625,0.0
449.734375,-20.5078125,-54.19921875,-12.6953125,71.77734375,-64.94140625,0.0
449.73828125,-37.59765625,-44.921875,-19.04296875,43.45703125,-184.5703125,0.0
449.7421875,-54.19921875,-40.52734375,-24.4140625,25.87890625,-184.5703125,0.0
449.74609375,3.90625,-44.43359375,-24.90234375,51.7578125,-86.42578125,0.0
449.75,1.953125,-48.828125,-26.3671875,67.87109375,-43.45703125,0.0
449.75390625,-40.0390625,-51.7578125,-29.78515625,18.06640625,-58.10546875,0.0
449.7578125,-45.41015625,-45.8984375,-30.76171875,33.203125,-52.24609375,0.0
449.76171875,-41.015625,-40.0390625,-20.99609375,62.98828125,-17.578125,0.0
449.765625,-47.8515625,-40.52734375,-25.87890625,12.6953125,-0.48828125,0.0
449.76953125,-61.03515625,-44.43359375,-29.296875,18.5546875,44.921875,0.0
449.7734375,-31.25,-46.875,-23.92578125,44.921875,-11.23046875,0.0
449.77734375,7.32421875,-47.36328125,-22.94921875,54.19921875,-84.47265625,0.0
449.78125,-0.48828125,-52.24609375,-20.99609375,16.6015625,19.04296875,0.0
449.78515625,-36.1328125,-55.6640625,-30.2734375,-19.53125,21.484375,0.0
449.7890625,-77.1484375,-50.78125,-38.0859375,-39.55078125,-48.33984375,0.0
449.79296875,-71.2890625,-46.875,-34.66796875,-56.15234375,-6.34765625,0.0
449.796875,-43.9453125,-44.43359375,-41.015625,-50.29296875,-0.9765625,0.0
449.80078125,-59.5703125,-44.921875,-45.8984375,-58.10546875,26.85546875,0.0
449.8046875,-88.37890625,-55.17578125,-38.57421875,-31.73828125,67.3828125,0.0
449.80859375,-80.078125,-52.734375,-26.85546875,-55.6640625,18.06640625,0.0
449.8125,-44.921875,-49.8046875,-26.85546875,-90.8203125,-22.4609375,0.0
449.81640625,-6.34765625,-51.7578125,-29.78515625,-72.75390625,-54.19921875,0.0
449.8203125,-20.99609375,-46.875,-28.3203125,-46.38671875,-104.4921875,0.0
449.82421875,-53.7109375,-55.17578125,-26.3671875,-11.71875,-30.2734375,0.0
449.828125,-32.71484375,-56.640625,-41.50390625,-17.578125,1.953125,0.0
449.83203125,-27.83203125,-40.0390625,-51.7578125,-10.7421875,-5.37109375,0.0
449.8359375,-47.8515625,-45.41015625,-30.76171875,6.34765625,1.953125,0.0
449.83984375,-35.15625,-52.734375,-19.53125,35.15625,2.44140625,0.0
449.84375,-17.578125,-42.48046875,-30.2734375,16.6015625,57.12890625,0.0
449.84765625,-28.80859375,-37.59765625,-35.64453125,23.92578125,-6.34765625,0.0
449.8515625,-15.13671875,-39.55078125,-32.71484375,45.41015625,-51.7578125,0.0
449.85546875,13.18359375,-38.0859375,-30.2734375,28.80859375,-19.04296875,0.0
449.859375,21.97265625,-36.1328125,-31.25,56.640625,-41.50390625,0.0
449.86328125,6.8359375,-31.73828125,-41.50390625,38.0859375,-40.0390625,0.0
449.8671875,-4.39453125,-35.64453125,-50.78125,13.18359375,-61.5234375,0.0
449.87109375,9.27734375,-46.38671875,-41.50390625,45.8984375,-114.2578125,0.0
449.875,-4.8828125,-48.33984375,-38.57421875,42.48046875,-81.0546875,0.0
449.87890625,-17.08984375,-43.9453125,-41.50390625,34.66796875,4.39453125,0.0
449.8828125,-3.90625,-45.8984375,-41.9921875,41.50390625,-19.53125,0.0
449.88671875,-18.06640625,-45.41015625,-42.96875,51.7578125,-10.7421875,0.0
449.890625,-45.41015625,-41.015625,-41.50390625,43.9453125,-81.0546875,0.0
449.89453125,-26.85546875,-49.31640625,-44.921875,22.4609375,-173.828125,0.0
449.8984375,-29.296875,-60.546875,-46.38671875,18.5546875,-112.3046875,0.0
449.90234375,-64.453125,-64.453125,-44.43359375,18.06640625,11.23046875,0.0
449.90625,-42.48046875,-47.36328125,-48.33984375,19.53125,-20.01953125,0.0
449.91015625,-38.57421875,-45.8984375,-56.640625,-5.859375,-114.2578125,0.0
449.9140625,-37.109375,-48.33984375,-47.8515625,-32.2265625,-27.34375,0.0
449.91796875,-0.48828125,-43.45703125,-33.69140625,-12.6953125,-30.2734375,0.0
449.921875,1.953125,-39.55078125,-30.2734375,-6.8359375,-104.4921875,0.0
449.92578125,-21.484375,-38.0859375,-34.1796875,-21.484375,-66.89453125,0.0
449.9296875,-32.2265625,-42.48046875,-43.9453125,10.25390625,-19.53125,0.0
449.93359375,-59.5703125,-36.1328125,-41.015625,13.18359375,26.85546875,0.0
449.9375,-63.4765625,-35.64453125,-27.83203125,-26.85546875,-23.4375,0.0
449.94140625,-58.59375,-43.9453125,-23.92578125,-31.25,-77.1484375,0.0
449.9453125,-10.25390625,-43.45703125,-37.109375,-8.7890625,-102.5390625,0.0
449.94921875,17.08984375,-39.0625,-42.48046875,-16.11328125,-189.94140625,0.0
449.953125,-38.57421875,-42.96875,-38.57421875,-62.98828125,-124.51171875,0.0
449.95703125,-55.6640625,-46.38671875,-30.2734375,-34.66796875,-69.3359375,0.0
449.9609375,-16.11328125,-39.55078125,-29.296875,-14.6484375,-134.27734375,0.0
449.96484375,-17.08984375,-24.90234375,-39.0625,-64.94140625,-90.8203125,0.0
449.96875,-27.83203125,-29.78515625,-31.73828125,-44.921875,18.5546875,0.0
449.97265625,6.8359375,-38.0859375,-21.97265625,18.06640625,26.3671875,0.0
449.9765625,-12.20703125,-36.1328125,-35.64453125,0.9765625,10.25390625,0.0
449.98046875,-39.0625,-33.203125,-42.48046875,11.23046875,-29.78515625,0.0
449.984375,-48.828125,-30.2734375,-46.38671875,24.4140625,-35.15625,0.0
449.98828125,-36.1328125,-44.921875,-46.875,20.5078125,-5.37109375,0.0
449.9921875,-40.52734375,-47.8515625,-32.2265625,75.68359375,-45.8984375,0.0
449.99609375,-41.50390625,-31.25,-38.0859375,61.5234375,-55.17578125,0.0
450.0,-23.92578125,-22.94921875,-47.36328125,67.87109375,-52.24609375,0.0
450.00390625,-31.25,-29.78515625,-46.875,80.078125,-5.37109375,0.0
450.0078125,-49.31640625,-39.55078125,-43.45703125,56.15234375,30.2734375,0.0
450.01171875,-56.15234375,-40.52734375,-41.015625,84.47265625,30.76171875,0.0
450.015625,-27.34375,-33.69140625,-38.0859375,102.5390625,37.109375,0.0
450.01953125,-31.73828125,-29.78515625,-27.83203125,100.5859375,1.46484375,0.0
450.0234375,-42.48046875,-29.296875,-32.2265625,67.87109375,2.44140625,0.0
450.02734375,-43.9453125,-25.390625,-38.57421875,60.05859375,-18.5546875,0.0
450.03125,-40.0390625,-33.203125,-35.64453125,83.984375,-35.64453125,0.0
450.03515625,-13.671875,-37.59765625,-29.78515625,89.84375,-48.828125,0.0
450.0390625,0.9765625,-26.3671875,-29.296875,83.0078125,-1.953125,0.0
450.04296875,-10.25390625,-16.6015625,-34.1796875,71.77734375,79.58984375,0.0
450.046875,-30.76171875,-21.97265625,-35.15625,68.359375,45.41015625,0.0
450.05078125,-31.25,-32.2265625,-41.015625,79.1015625,0.9765625,0.0
450.0546875,9.27734375,-25.390625,-46.875,51.26953125,-2.9296875,0.0
450.05859375,11.23046875,-18.06640625,-43.45703125,33.69140625,-5.37109375,0.0
450.0625,-18.06640625,-21.484375,-35.15625,55.17578125,7.8125,0.0
450.06640625,-18.5546875,-35.64453125,-35.15625,54.6875,39.0625,0.0
450.0703125,-17.578125,-37.59765625,-41.9921875,58.10546875,-12.20703125,0.0
450.07421875,-32.71484375,-31.25,-38.57421875,71.2890625,-15.625,0.0
450.078125,-2.44140625,-33.69140625,-31.73828125,56.15234375,5.859375,0.0
450.08203125,4.39453125,-38.57421875,-33.203125,27.34375,-16.11328125,0.0
450.0859375,-33.203125,-46.875,-37.59765625,-20.01953125,-39.0625,0.0
450.08984375,-60.05859375,-48.828125,-40.0390625,-34.66796875,1.953125,0.0
450.09375,-58.10546875,-47.36328125,-32.71484375,-41.9921875,54.6875,0.0
450.09765625,-37.59765625,-36.1328125,-32.2265625,-45.41015625,12.6953125,0.0
450.1015625,-53.7109375,-36.1328125,-27.83203125,-44.43359375,-17.578125,0.0
450.10546875,-36.1328125,-39.55078125,-16.6015625,-62.98828125,-26.85546875,0.0
450.109375,-41.015625,-34.1796875,-21.97265625,-80.56640625,0.9765625,0.0
450.11328125,-52.734375,-47.36328125,-27.34375,-55.6640625,-56.640625,0.0
450.1171875,-15.625,-49.8046875,-28.3203125,-48.828125,-40.0390625,0.0
450.12109375,-4.39453125,-28.80859375,-35.15625,-61.03515625,17.08984375,0.0
450.125,-45.41015625,-27.83203125,-42.48046875,-33.69140625,-34.66796875,0.0
450.12890625,-67.3828125,-33.69140625,-32.71484375,-17.578125,-32.71484375,0.0
450.1328125,-35.15625,-35.64453125,-19.53125,-18.06640625,-33.203125,0.0
450.13671875,-14.6484375,-34.1796875,-19.53125,-27.34375,-58.10546875,0.0
450.140625,-32.71484375,-29.78515625,-29.78515625,-6.34765625,61.5234375,0.0
450.14453125,-12.6953125,-27.83203125,-39.55078125,-35.15625,78.61328125,0.0
450.1484375,2.9296875,-38.0859375,-41.015625,-58.59375,-19.53125,0.0
450.15234375,5.859375,-65.91796875,-28.80859375,-30.2734375,115.234375,0.0
450.15625,2.44140625,-59.5703125,-31.25,-30.76171875,167.96875,0.0
450.16015625,-31.25,-43.9453125,-35.64453125,-43.45703125,38.0859375,0.0
450.1640625,-40.0390625,-45.41015625,-48.33984375,-41.50390625,5.37109375,0.0
450.16796875,-19.53125,-47.8515625,-48.33984375,-23.92578125,63.96484375,0.0
450.171875,-20.99609375,-43.45703125,-49.8046875,-0.48828125,52.734375,0.0
450.17578125,-33.69140625,-37.109375,-53.22265625,-9.765625,-35.15625,0.0
450.1796875,-49.8046875,-38.0859375,-54.19921875,-24.90234375,-21.484375,0.0
450.18359375,-69.3359375,-40.52734375,-57.6171875,-17.578125,-34.66796875,0.0
450.1875,-23.92578125,-41.50390625,-46.875,-26.3671875,-139.6484375,0.0
450.19140625,2.9296875,-41.015625,-43.9453125,-17.08984375,-120.1171875,0.0
450.1953125,-34.1796875,-39.55078125,-40.0390625,-19.53125,30.76171875,0.0
450.19921875,-39.0625,-51.7578125,-48.828125,-12.20703125,66.89453125,0.0
450.203125,-30.2734375,-64.453125,-64.453125,-0.9765625,11.23046875,0.0
450.20703125,-51.26953125,-60.05859375,-65.91796875,-10.25390625,-62.98828125,0.0
450.2109375,-70.3125,-58.59375,-59.08203125,6.8359375,-124.51171875,0.0
450.21484375,-41.50390625,-60.546875,-50.78125,24.4140625,-66.89453125,0.0
450.21875,-40.52734375,-57.6171875,-49.8046875,15.13671875,-11.71875,0.0
450.22265625,-45.8984375,-56.15234375,-49.31640625,5.37109375,-60.546875,0.0
450.2265625,-87.890625,-51.7578125,-51.26953125,-17.08984375,-55.17578125,0.0
450.23046875,-104.4921875,-56.640625,-52.734375,-28.80859375,9.765625,0.0
450.234375,-35.15625,-50.29296875,-47.8515625,-22.94921875,-16.6015625,0.0
450.23828125,-25.87890625,-40.52734375,-42.96875,-17.578125,-104.4921875,0.0
450.2421875,-4.8828125,-39.0625,-46.38671875,-22.94921875,-126.46484375,0.0
450.24609375,11.71875,-41.9921875,-49.31640625,-43.9453125,-84.9609375,0.0
450.25,-28.80859375,-41.50390625,-47.8515625,-29.296875,-108.88671875,0.0
450.25390625,-30.2734375,-39.0625,-51.26953125,2.44140625,-136.23046875,0.0
450.2578125,-25.390625,-39.0625,-45.8984375,26.85546875,-47.36328125,0.0
450.26171875,-24.4140625,-41.9921875,-37.59765625,-4.39453125,25.390625,0.0
450.265625,20.99609375,-46.38671875,-39.55078125,-31.25,35.15625,0.0
450.26953125,18.5546875,-47.36328125,-43.9453125,-1.953125,-18.5546875,0.0
450.2734375,-23.4375,-41.50390625,-32.71484375,22.94921875,-55.6640625,0.0
450.27734375,-26.3671875,-41.9921875,-25.390625,26.3671875,49.31640625,0.0
450.28125,-25.390625,-49.8046875,-29.78515625,14.16015625,91.796875,0.0
450.28515625,-28.80859375,-41.50390625,-22.4609375,9.765625,-29.78515625,0.0
450.2890625,-25.390625,-39.55078125,-22.94921875,26.3671875,-86.42578125,0.0
450.29296875,-9.765625,-47.36328125,-41.015625,11.71875,3.90625,0.0
450.296875,-3.90625,-39.55078125,-52.24609375,-19.04296875,49.31640625,0.0
450.30078125,-49.8046875,-42.96875,-42.48046875,-5.37109375,53.22265625,0.0
450.3046875,-63.96484375,-51.26953125,-36.1328125,3.41796875,48.33984375,0.0
450.30859375,-29.78515625,-48.828125,-36.62109375,24.90234375,-42.48046875,0.0
450.3125,-18.06640625,-51.26953125,-35.64453125,35.15625,-44.921875,0.0
450.31640625,-13.18359375,-47.36328125,-36.62109375,22.4609375,-17.578125,0.0
450.3203125,-29.296875,-39.0625,-35.64453125,17.08984375,-17.08984375,0.0
450.32421875,-43.9453125,-36.62109375,-33.69140625,-2.9296875,-13.671875,0.0
450.328125,-54.6875,-35.64453125,-34.66796875,13.671875,-46.38671875,0.0
450.33203125,-32.2265625,-29.296875,-36.1328125,13.18359375,-93.26171875,0.0
450.3359375,-16.6015625,-23.92578125,-28.3203125,-17.08984375,-111.81640625,0.0
450.33984375,-37.59765625,-30.2734375,-25.390625,-19.04296875,-98.14453125,0.0
450.34375,-25.390625,-34.66796875,-31.73828125,-9.27734375,-109.86328125,0.0
450.34765625,-10.25390625,-35.64453125,-37.109375,12.20703125,-132.32421875,0.0
450.3515625,-5.859375,-32.71484375,-35.15625,7.32421875,-35.64453125,0.0
450.35546875,26.3671875,-36.1328125,-34.66796875,3.90625,-11.23046875,0.0
450.359375,20.5078125,-47.8515625,-36.62109375,12.6953125,-27.83203125,0.0
450.36328125,-17.578125,-49.31640625,-38.57421875,0.48828125,29.78515625,0.0
450.3671875,7.32421875,-44.921875,-33.203125,-1.953125,-26.3671875,0.0
450.37109375,34.1796875,-35.64453125,-29.296875,23.4375,-54.6875,0.0
450.375,-5.859375,-33.203125,-22.4609375,32.2265625,20.01953125,0.0
450.37890625,-40.0390625,-41.015625,-33.203125,-3.90625,4.8828125,0.0
450.3828125,-24.90234375,-36.1328125,-48.828125,-7.32421875,-18.5546875,0.0
450.38671875,12.20703125,-27.83203125,-41.50390625,16.11328125,54.19921875,0.0
450.390625,-4.8828125,-37.59765625,-46.875,12.20703125,42.48046875,0.0
450.39453125,-54.19921875,-45.8984375,-51.7578125,25.390625,18.06640625,0.0
450.3984375,-22.94921875,-38.57421875,-45.41015625,21.97265625,-41.015625,0.0
450.40234375,33.203125,-31.25,-37.59765625,11.71875,-96.6796875,0.0
450.40625,-3.41796875,-27.83203125,-41.015625,28.3203125,-97.16796875,0.0
450.41015625,-4.39453125,-27.83203125,-39.0625,47.36328125,-70.3125,0.0
450.4140625,5.859375,-36.62109375,-32.2265625,36.62109375,-46.875,0.0
450.41796875,-34.66796875,-46.38671875,-35.64453125,30.76171875,-30.2734375,0.0
450.421875,-33.203125,-41.50390625,-41.50390625,22.94921875,-94.23828125,0.0
450.42578125,-18.5546875,-32.2265625,-45.8984375,12.20703125,-99.12109375,0.0
450.4296875,2.44140625,-24.90234375,-42.48046875,28.80859375,-84.9609375,0.0
450.43359375,18.5546875,-20.01953125,-35.64453125,4.39453125,-94.23828125,0.0
450.4375,55.6640625,-36.1328125,-39.0625,-9.765625,-15.13671875,0.0
450.44140625,66.89453125,-42.96875,-32.71484375,-16.6015625,-36.1328125,0.0
450.4453125,24.90234375,-39.0625,-24.4140625,-5.859375,-27.83203125,0.0
450.44921875,28.3203125,-48.828125,-42.48046875,-4.39453125,32.71484375,0.0
450.453125,-16.6015625,-49.31640625,-76.66015625,-28.3203125,47.8515625,0.0
450.45703125,-61.5234375,-48.828125,-80.56640625,-33.203125,42.96875,0.0
450.4609375,-4.39453125,-44.921875,-37.59765625,-33.203125,-41.9921875,0.0
450.46484375,39.0625,-33.203125,-22.94921875,-30.76171875,-56.640625,0.0
450.46875,138.671875,-35.64453125,-27.34375,-42.96875,-4.39453125,0.0
450.47265625,271.97265625,-35.15625,-44.43359375,-111.81640625,3.41796875,0.0
450.4765625,312.01171875,-28.3203125,-50.78125,-157.2265625,17.578125,0.0
450.48046875,228.02734375,-40.0390625,-140.13671875,-185.546875,73.73046875,0.0
450.484375,145.01953125,-67.3828125,-280.2734375,-210.9375,130.859375,0.0
450.48828125,283.69140625,-67.3828125,-315.4296875,-178.22265625,162.109375,0.0
450.4921875,353.02734375,-59.08203125,-345.703125,-166.50390625,66.89453125,0.0
450.49609375,347.65625,-55.17578125,-347.65625,-133.7890625,-17.08984375,0.0
450.5,442.87109375,-49.8046875,-295.41015625,-97.65625,-80.078125,0.0
450.50390625,418.9453125,-42.96875,-308.59375,-114.74609375,-78.61328125,0.0
450.5078125,428.22265625,-29.296875,-350.09765625,-143.5546875,-61.5234375,0.0
450.51171875,433.10546875,-35.15625,-353.515625,-143.5546875,-90.33203125,0.0
450.515625,388.18359375,-47.36328125,-330.078125,-126.46484375,-7.8125,0.0
450.51953125,377.44140625,-55.6640625,-271.484375,-101.07421875,30.2734375,0.0
450.5234375,389.6484375,-65.91796875,-241.2109375,-104.00390625,-42.48046875,0.0
450.52734375,405.76171875,-62.98828125,-250.48828125,-148.92578125,-93.75,0.0
450.53125,313.4765625,-53.22265625,-245.1171875,-168.45703125,-100.5859375,0.0
450.53515625,306.15234375,-52.734375,-248.046875,-115.234375,-147.4609375,0.0
450.5390625,306.640625,-53.7109375,-259.27734375,-103.02734375,-122.55859375,0.0
450.54296875,306.15234375,-52.734375,-254.39453125,-136.71875,-42.48046875,0.0
450.546875,355.46875,-49.31640625,-238.76953125,-92.28515625,-3.41796875,0.0
450.55078125,351.5625,-34.66796875,-211.42578125,-42.48046875,10.25390625,0.0
450.5546875,356.93359375,-18.06640625,-159.1796875,-43.9453125,-46.875,0.0
450.55859375,354.00390625,-25.87890625,-79.1015625,-65.4296875,-29.296875,0.0
450.5625,353.02734375,-23.92578125,73.2421875,-42.48046875,34.66796875,0.0
450.56640625,393.5546875,-17.08984375,156.73828125,-37.109375,-38.0859375,0.0
450.5703125,360.83984375,-17.578125,144.04296875,-54.6875,-38.0859375,0.0
450.57421875,333.49609375,-15.625,158.69140625,-32.2265625,6.8359375,0.0
450.578125,338.8671875,-19.53125,162.109375,-34.66796875,15.625,0.0
450.58203125,327.63671875,-12.20703125,130.859375,-64.94140625,12.6953125,0.0
450.5859375,273.92578125,-20.5078125,100.5859375,-85.44921875,14.16015625,0.0
450.58984375,251.46484375,-27.34375,81.0546875,-83.984375,-8.30078125,0.0
450.59375,258.7890625,-29.296875,83.0078125,-39.55078125,-56.15234375,0.0
450.59765625,258.7890625,-35.15625,81.0546875,-28.80859375,-53.7109375,0.0
450.6015625,267.08984375,-23.92578125,66.40625,-23.92578125,-48.828125,0.0
450.60546875,225.09765625,-28.80859375,62.01171875,-14.16015625,-4.8828125,0.0
450.609375,233.3984375,-29.296875,54.6875,-32.71484375,-11.71875,0.0
450.61328125,225.09765625,-25.390625,42.96875,-65.4296875,-32.71484375,0.0
450.6171875,202.63671875,-28.80859375,40.52734375,-43.9453125,-42.48046875,0.0
450.62109375,197.75390625,-28.80859375,30.76171875,-71.77734375,-38.0859375,0.0
450.625,174.8046875,-29.296875,24.90234375,-92.28515625,-81.0546875,0.0
450.62890625,156.73828125,-29.296875,24.4140625,-44.43359375,-78.125,0.0
450.6328125,114.74609375,-28.80859375,18.5546875,-62.98828125,-6.34765625,0.0
450.63671875,102.5390625,-27.83203125,17.578125,-66.40625,8.7890625,0.0
450.640625,115.72265625,-30.2734375,21.97265625,-39.55078125,-53.22265625,0.0
450.64453125,95.21484375,-25.390625,18.06640625,-21.484375,-62.5,0.0
450.6484375,110.83984375,-32.71484375,0.9765625,-32.71484375,-36.62109375,0.0
450.65234375,79.58984375,-49.31640625,-1.953125,-49.8046875,-110.83984375,0.0
450.65625,65.91796875,-41.50390625,1.953125,-25.390625,-84.9609375,0.0
450.66015625,90.8203125,-41.9921875,-7.32421875,-13.671875,-95.21484375,0.0
450.6640625,101.5625,-44.43359375,-15.13671875,-25.87890625,-95.21484375,0.0
450.66796875,75.1953125,-44.921875,-9.27734375,-32.71484375,13.18359375,0.0
450.671875,46.875,-44.43359375,-9.765625,-22.94921875,-25.390625,0.0
450.67578125,56.15234375,-44.43359375,-20.5078125,-35.15625,-93.26171875,0.0
450.6796875,49.8046875,-50.78125,-23.4375,-33.203125,-53.22265625,0.0
450.68359375,25.87890625,-56.15234375,-21.97265625,-5.859375,-19.04296875,0.0
450.6875,9.27734375,-62.01171875,-21.484375,-5.859375,-75.1953125,0.0
450.69140625,48.33984375,-62.98828125,-28.80859375,0.48828125,-147.4609375,0.0
450.6953125,14.16015625,-57.6171875,-36.1328125,49.8046875,-129.39453125,0.0
450.69921875,-39.0625,-56.640625,-33.203125,67.87109375,-49.31640625,0.0
450.703125,5.859375,-59.5703125,-37.59765625,34.1796875,-22.94921875,0.0
450.70703125,9.765625,-68.359375,-41.9921875,29.296875,-43.45703125,0.0
450.7109375,4.39453125,-72.75390625,-32.2265625,43.9453125,-43.9453125,0.0
450.71484375,19.53125,-66.40625,-23.4375,40.52734375,-97.65625,0.0
450.71875,5.859375,-59.08203125,-24.4140625,52.734375,-95.21484375,0.0
450.72265625,0.9765625,-61.5234375,-29.296875,75.68359375,-46.875,0.0
450.7265625,36.1328125,-56.15234375,-31.73828125,43.45703125,-74.70703125,0.0
450.73046875,63.4765625,-53.22265625,-38.0859375,53.22265625,-50.29296875,0.0
450.734375,52.734375,-44.43359375,-46.38671875,62.98828125,-71.2890625,0.0
450.73828125,17.08984375,-39.0625,-46.38671875,35.64453125,-173.33984375,0.0
450.7421875,6.34765625,-58.10546875,-48.828125,49.8046875,-104.98046875,0.0
450.74609375,51.7578125,-57.12890625,-45.41015625,30.2734375,-32.71484375,0.0
450.75,73.2421875,-58.59375,-36.1328125,6.8359375,-47.8515625,0.0
450.75390625,64.94140625,-68.359375,-38.0859375,24.90234375,-17.08984375,0.0
450.7578125,89.35546875,-63.4765625,-37.59765625,40.0390625,24.4140625,0.0
450.76171875,93.26171875,-53.7109375,-40.0390625,25.87890625,17.578125,0.0
450.765625,78.61328125,-49.31640625,-43.45703125,27.34375,65.4296875,0.0
450.76953125,63.4765625,-50.78125,-42.96875,23.4375,79.1015625,0.0
450.7734375,18.06640625,-61.5234375,-46.38671875,2.9296875,49.8046875,0.0
450.77734375,-0.9765625,-69.82421875,-39.55078125,18.5546875,-14.16015625,0.0
450.78125,20.5078125,-61.5234375,-40.0390625,34.66796875,-66.89453125,0.0
450.78515625,20.99609375,-63.96484375,-52.24609375,10.7421875,1.953125,0.0
450.7890625,17.578125,-71.2890625,-55.6640625,6.34765625,13.18359375,0.0
450.79296875,37.109375,-64.453125,-56.640625,26.3671875,-55.6640625,0.0
450.796875,77.63671875,-49.8046875,-38.0859375,45.41015625,-67.3828125,0.0
450.80078125,84.47265625,-37.109375,-32.71484375,16.11328125,8.7890625,0.0
450.8046875,61.03515625,-46.38671875,-50.29296875,-24.4140625,-7.32421875,0.0
450.80859375,25.390625,-53.7109375,-48.828125,-2.9296875,5.37109375,0.0
450.8125,-4.8828125,-49.8046875,-47.8515625,9.27734375,32.71484375,0.0
450.81640625,15.13671875,-53.7109375,-47.36328125,12.6953125,-27.34375,0.0
450.8203125,42.48046875,-59.08203125,-39.55078125,2.44140625,-25.390625,0.0
450.82421875,40.0390625,-56.640625,-46.38671875,1.46484375,0.9765625,0.0
450.828125,50.78125,-48.828125,-43.45703125,24.90234375,31.73828125,0.0
450.83203125,33.69140625,-45.41015625,-33.203125,21.484375,5.859375,0.0
450.8359375,7.8125,-51.26953125,-36.62109375,-2.44140625,-3.41796875,0.0
450.83984375,-28.3203125,-56.15234375,-32.2265625,-0.9765625,-11.71875,0.0
450.84375,-107.421875,-48.828125,-33.69140625,2.44140625,-94.7265625,0.0
450.84765625,-134.27734375,-53.7109375,-35.64453125,-12.20703125,-64.94140625,0.0
450.8515625,-110.3515625,-53.7109375,-37.59765625,7.32421875,-39.55078125,0.0
450.85546875,-131.34765625,-49.31640625,-50.78125,10.7421875,-87.890625,0.0
450.859375,-151.85546875,-58.59375,-54.6875,-9.765625,-26.85546875,0.0
450.86328125,-105.95703125,-59.08203125,-46.875,7.8125,-0.48828125,0.0
450.8671875,-111.328125,-50.78125,-41.50390625,4.39453125,-92.28515625,0.0
450.87109375,-127.9296875,-48.33984375,-40.0390625,17.578125,-26.85546875,0.0
450.875,-104.00390625,-45.8984375,-41.9921875,24.90234375,80.56640625,0.0
450.87890625,-88.8671875,-50.29296875,-55.17578125,32.71484375,22.94921875,0.0
450.8828125,-113.76953125,-59.08203125,-49.31640625,57.6171875,4.8828125,0.0
450.88671875,-135.25390625,-50.29296875,-43.9453125,44.43359375,-30.2734375,0.0
450.890625,-107.91015625,-49.8046875,-152.83203125,21.97265625,-52.734375,0.0
450.89453125,-92.7734375,-57.12890625,-254.39453125,29.296875,-30.2734375,0.0
450.8984375,-89.35546875,-43.45703125,-272.94921875,70.80078125,-84.47265625,0.0
450.90234375,-88.8671875,-31.25,-285.15625,27.34375,-28.3203125,0.0
450.90625,-108.88671875,-38.0859375,-270.99609375,10.7421875,-7.8125,0.0
450.91015625,-95.703125,-37.59765625,-266.11328125,34.1796875,-63.96484375,0.0
450.9140625,-95.21484375,-29.78515625,-266.11328125,31.73828125,-26.3671875,0.0
450.91796875,-69.82421875,-20.99609375,-260.7421875,22.4609375,-63.96484375,0.0
450.921875,-67.3828125,-32.2265625,-257.8125,4.8828125,-41.50390625,0.0
450.92578125,-99.609375,-45.41015625,-245.60546875,3.41796875,6.34765625,0.0
450.9296875,-80.078125,-39.55078125,-231.93359375,-1.46484375,-12.6953125,0.0
450.93359375,-64.453125,-39.55078125,-221.19140625,26.85546875,-23.92578125,0.0
450.9375,-88.8671875,-40.0390625,-216.30859375,-4.39453125,-44.921875,0.0
450.94140625,-94.23828125,-40.52734375,-208.49609375,-18.5546875,-17.578125,0.0
450.9453125,-50.78125,-39.0625,-198.2421875,10.7421875,60.546875,0.0
450.94921875,-37.109375,-35.64453125,-192.3828125,8.30078125,-11.71875,0.0
450.953125,-60.05859375,-35.64453125,-187.5,27.83203125,-50.29296875,0.0
450.95703125,-53.22265625,-45.8984375,-179.6875,20.5078125,36.1328125,0.0
450.9609375,-70.80078125,-39.0625,-183.10546875,-1.953125,-31.73828125,0.0
450.96484375,-82.03125,-33.69140625,-178.7109375,-8.30078125,-65.91796875,0.0
450.96875,-59.08203125,-30.76171875,-163.0859375,-6.8359375,-74.21875,0.0
450.97265625,-33.203125,-24.90234375,-155.2734375,12.6953125,-71.2890625,0.0
450.9765625,-52.734375,-30.2734375,-147.4609375,11.23046875,-61.03515625,0.0
450.98046875,-56.15234375,-30.2734375,-129.8828125,-19.53125,-48.33984375,0.0
450.984375,-27.34375,-25.390625,-124.0234375,-21.484375,28.3203125,0.0
450.98828125,-41.015625,-40.0390625,-130.37109375,-22.4609375,85.9375,0.0
450.9921875,-51.26953125,-45.8984375,-121.09375,-24.4140625,-4.39453125,0.0
450.99609375,-53.7109375,-37.59765625,-111.81640625,-32.71484375,4.8828125,0.0
451.0,-48.828125,-38.0859375,-119.140625,-54.19921875,74.21875,0.0
451.00390625,-46.38671875,-39.55078125,-121.58203125,-26.85546875,36.1328125,0.0
451.0078125,-39.0625,-34.1796875,-108.3984375,7.8125,41.9921875,0.0
451.01171875,-3.41796875,-33.69140625,-102.05078125,-11.71875,48.828125,0.0
451.015625,2.44140625,-45.41015625,-103.02734375,-38.57421875,-15.13671875,0.0
451.01953125,-21.97265625,-47.36328125,-102.5390625,-44.43359375,-56.15234375,0.0
451.0234375,-46.875,-46.38671875,-106.4453125,-23.92578125,-66.40625,0.0
451.02734375,-85.44921875,-54.6875,-105.95703125,-34.1796875,-69.3359375,0.0
451.03125,-12.20703125,-51.7578125,-106.4453125,-29.78515625,-120.60546875,0.0
451.03515625,50.29296875,-33.69140625,-97.65625,-32.71484375,-115.72265625,0.0
451.0390625,-30.2734375,-33.69140625,-87.890625,-49.8046875,-90.33203125,0.0
451.04296875,-47.8515625,-41.50390625,-74.70703125,-31.25,-145.99609375,0.0
451.046875,-34.66796875,-39.55078125,-76.171875,-38.57421875,-124.0234375,0.0
451.05078125,-28.3203125,-37.59765625,-95.703125,-26.85546875,-78.61328125,0.0
451.0546875,-26.85546875,-37.109375,-90.33203125,-23.92578125,-72.265625,0.0
451.05859375,-29.78515625,-42.48046875,-76.171875,-19.04296875,-62.01171875,0.0
451.0625,-7.32421875,-49.8046875,-71.2890625,4.8828125,-72.75390625,0.0
451.06640625,29.78515625,-45.41015625,-83.0078125,-23.4375,-16.11328125,0.0
451.0703125,12.20703125,-31.25,-84.9609375,-47.36328125,-21.97265625,0.0
451.07421875,19.04296875,-15.625,-68.84765625,-24.90234375,-91.796875,0.0
451.078125,38.0859375,-21.97265625,-56.15234375,-11.23046875,-32.2265625,0.0
451.08203125,17.578125,-40.52734375,-53.7109375,-6.8359375,22.4609375,0.0
451.0859375,44.43359375,-40.52734375,-61.03515625,-20.99609375,40.52734375,0.0
451.08984375,71.2890625,-38.57421875,-62.98828125,-23.92578125,16.11328125,0.0
451.09375,55.6640625,-39.55078125,-56.15234375,16.6015625,-2.44140625,0.0
451.09765625,11.71875,-41.9921875,-54.19921875,21.97265625,2.44140625,0.0
451.1015625,2.44140625,-38.0859375,-60.546875,-13.18359375,-43.45703125,0.0
451.10546875,20.01953125,-27.83203125,-67.3828125,-17.08984375,8.30078125,0.0
451.109375,0.48828125,-30.76171875,-58.59375,-16.6015625,8.7890625,0.0
451.11328125,-19.53125,-35.15625,-55.17578125,-35.64453125,-34.1796875,0.0
451.1171875,-7.8125,-26.3671875,-57.6171875,-43.45703125,-142.08984375,0.0
451.12109375,-18.06640625,-29.78515625,-54.19921875,-26.85546875,-196.77734375,0.0
451.125,-30.2734375,-40.0390625,-43.9453125,-13.671875,-200.1953125,0.0
451.12890625,-31.25,-42.48046875,-44.43359375,-30.2734375,-163.57421875,0.0
451.1328125,-52.24609375,-47.8515625,-54.6875,-41.015625,-140.625,0.0
451.13671875,-21.484375,-48.828125,-62.5,-6.34765625,-104.98046875,0.0
451.140625,1.953125,-47.8515625,-69.3359375,-23.4375,18.06640625,0.0
451.14453125,10.7421875,-47.36328125,-65.91796875,-59.08203125,-29.78515625,0.0
451.1484375,8.30078125,-41.015625,-60.05859375,-22.94921875,-75.68359375,0.0
451.15234375,-16.6015625,-39.0625,-63.96484375,-41.50390625,-4.8828125,0.0
451.15625,-13.18359375,-40.52734375,-58.59375,-36.1328125,21.97265625,0.0
451.16015625,-36.62109375,-38.0859375,-44.43359375,-10.25390625,-15.13671875,0.0
451.1640625,-30.2734375,-33.203125,-34.66796875,-4.8828125,-94.23828125,0.0
451.16796875,-34.66796875,-31.25,-37.109375,4.8828125,-27.34375,0.0
451.171875,-41.50390625,-38.57421875,-50.78125,-24.4140625,53.22265625,0.0
451.17578125,-22.94921875,-45.41015625,-49.8046875,-13.671875,21.484375,0.0
451.1796875,-16.11328125,-46.875,-40.52734375,-2.9296875,16.11328125,0.0
451.18359375,-33.69140625,-33.203125,-39.55078125,-37.109375,22.4609375,0.0
451.1875,16.11328125,-30.2734375,-40.0390625,-28.80859375,15.625,0.0
451.19140625,32.2265625,-37.109375,-37.109375,7.8125,-12.6953125,0.0
451.1953125,-19.53125,-33.203125,-34.66796875,0.0,-9.27734375,0.0
451.19921875,-6.8359375,-43.9453125,-38.57421875,-2.9296875,8.30078125,0.0
451.203125,24.4140625,-41.9921875,-36.1328125,-5.859375,-35.15625,0.0
451.20703125,10.25390625,-35.15625,-34.1796875,-45.41015625,-43.9453125,0.0
451.2109375,-11.71875,-34.1796875,-29.78515625,-20.5078125,30.76171875,0.0
451.21484375,-27.34375,-34.66796875,-29.296875,15.625,104.98046875,0.0
451.21875,-17.578125,-45.41015625,-27.83203125,19.04296875,38.0859375,0.0
451.22265625,5.859375,-36.1328125,-25.390625,-10.7421875,-2.9296875,0.0
451.2265625,-20.5078125,-37.109375,-23.92578125,11.71875,25.87890625,0.0
451.23046875,-1.46484375,-46.875,-33.203125,29.296875,74.21875,0.0
451.234375,46.875,-46.38671875,-32.71484375,3.41796875,62.01171875,0.0
451.23828125,45.41015625,-47.36328125,-25.390625,-7.32421875,25.87890625,0.0
451.2421875,-30.76171875,-38.0859375,-25.87890625,0.48828125,-11.23046875,0.0
451.24609375,-111.328125,-24.90234375,-30.2734375,0.0,-86.42578125,0.0
451.25,-62.98828125,-19.53125,-36.62109375,16.11328125,-71.77734375,0.0
451.25390625,-27.34375,-20.99609375,-38.57421875,46.38671875,33.203125,0.0
451.2578125,-61.5234375,-25.390625,-33.69140625,12.20703125,62.01171875,0.0
451.26171875,-50.29296875,-28.80859375,-25.87890625,0.0,96.6796875,0.0
451.265625,-24.4140625,-38.57421875,-29.296875,3.41796875,89.35546875,0.0
451.26953125,-2.9296875,-40.52734375,-39.0625,-3.41796875,-10.7421875,0.0
451.2734375,-38.57421875,-32.2265625,-27.83203125,-5.37109375,-67.3828125,0.0
451.27734375,-60.546875,-23.92578125,-22.4609375,5.37109375,-59.08203125,0.0
451.28125,-52.734375,-32.2265625,-37.59765625,13.18359375,-75.68359375,0.0
451.28515625,-78.125,-51.7578125,-43.45703125,15.13671875,-77.1484375,0.0
451.2890625,-85.44921875,-45.8984375,-39.0625,-4.39453125,-30.76171875,0.0
451.29296875,-77.63671875,-37.109375,-34.66796875,-20.5078125,-19.04296875,0.0
451.296875,-64.453125,-41.015625,-38.57421875,-20.5078125,-38.0859375,0.0
451.30078125,-62.98828125,-30.76171875,-46.875,-33.203125,-79.1015625,0.0
451.3046875,-29.78515625,-20.99609375,-51.26953125,3.90625,-9.27734375,0.0
451.30859375,-21.484375,-24.90234375,-42.48046875,21.97265625,81.0546875,0.0
451.3125,-89.35546875,-31.25,-21.484375,8.7890625,19.53125,0.0
451.31640625,-85.9375,-41.50390625,-17.578125,20.99609375,-65.91796875,0.0
451.3203125,-47.36328125,-58.10546875,-37.109375,-8.7890625,-85.9375,0.0
451.32421875,-47.36328125,-62.98828125,-38.57421875,-19.04296875,-58.10546875,0.0
451.328125,-51.7578125,-44.921875,-39.0625,-23.4375,60.05859375,0.0
451.33203125,-37.109375,-37.109375,-49.31640625,-27.34375,39.55078125,0.0
451.3359375,-46.38671875,-46.38671875,-48.828125,-27.34375,-15.625,0.0
451.33984375,-46.38671875,-43.45703125,-41.9921875,-8.30078125,-6.8359375,0.0
451.34375,-35.64453125,-45.41015625,-40.0390625,13.18359375,-11.71875,0.0
451.34765625,-47.36328125,-55.6640625,-39.55078125,-23.4375,-12.6953125,0.0
451.3515625,-55.17578125,-47.36328125,-38.57421875,-22.94921875,43.9453125,0.0
451.35546875,-10.7421875,-31.25,-42.96875,-18.06640625,62.01171875,0.0
451.359375,10.7421875,-26.3671875,-42.48046875,-13.18359375,-29.78515625,0.0
451.36328125,-15.13671875,-29.78515625,-34.1796875,-4.8828125,-56.640625,0.0
451.3671875,-20.01953125,-40.0390625,-29.78515625,-17.08984375,-3.90625,0.0
451.37109375,29.296875,-38.57421875,-36.1328125,4.39453125,2.44140625,0.0
451.375,44.921875,-40.0390625,-33.69140625,4.8828125,-21.97265625,0.0
451.37890625,35.64453125,-43.9453125,-29.78515625,-16.11328125,-10.25390625,0.0
451.3828125,22.94921875,-33.69140625,-32.71484375,-4.39453125,-122.0703125,0.0
451.38671875,-8.30078125,-34.66796875,-28.80859375,-0.9765625,-142.578125,0.0
451.390625,-21.97265625,-45.41015625,-30.76171875,1.953125,-10.25390625,0.0
451.39453125,-26.3671875,-49.8046875,-33.69140625,0.48828125,30.76171875,0.0
451.3984375,-39.55078125,-55.17578125,-28.80859375,-7.32421875,-17.08984375,0.0
451.40234375,-49.31640625,-53.7109375,-19.53125,-9.765625,-177.24609375,0.0
451.40625,-44.43359375,-48.33984375,-37.109375,-21.484375,-126.953125,0.0
451.41015625,-44.43359375,-48.828125,-46.38671875,-30.76171875,-20.99609375,0.0
451.4140625,-37.59765625,-51.7578125,-29.78515625,-34.1796875,-18.06640625,0.0
451.41796875,-54.19921875,-42.96875,-25.87890625,-49.31640625,-23.4375,0.0
451.421875,-36.62109375,-41.015625,-39.0625,-46.875,-66.89453125,0.0
451.42578125,-32.71484375,-47.8515625,-44.921875,-50.29296875,-26.3671875,0.0
451.4296875,-81.54296875,-49.8046875,-33.69140625,-38.0859375,-46.875,0.0
451.43359375,-66.89453125,-48.828125,-28.3203125,-28.3203125,-69.3359375,0.0
451.4375,-39.0625,-48.33984375,-24.4140625,-6.8359375,-79.1015625,0.0
451.44140625,-49.8046875,-40.0390625,-24.90234375,-12.6953125,12.20703125,0.0
451.4453125,-32.71484375,-21.97265625,-28.3203125,-45.8984375,62.98828125,0.0
451.44921875,-29.296875,-21.97265625,-32.2265625,-29.296875,-100.5859375,0.0
451.453125,-67.87109375,-37.59765625,-35.15625,-25.390625,-127.44140625,0.0
451.45703125,-71.77734375,-44.921875,-35.15625,-59.08203125,-17.578125,0.0
451.4609375,-24.90234375,-37.59765625,-24.90234375,-42.96875,-51.26953125,0.0
451.46484375,-25.390625,-34.66796875,-22.4609375,-44.921875,-136.23046875,0.0
451.46875,-71.77734375,-36.1328125,-21.97265625,-52.734375,-141.11328125,0.0
451.47265625,-52.734375,-42.48046875,-19.04296875,-42.96875,-51.26953125,0.0
451.4765625,-41.015625,-37.109375,-31.73828125,-58.59375,-0.9765625,0.0
451.48046875,-63.96484375,-24.4140625,-42.48046875,-63.4765625,-63.96484375,0.0
451.484375,-56.15234375,-32.71484375,-38.57421875,-33.69140625,-36.1328125,0.0
451.48828125,-51.7578125,-44.43359375,-34.1796875,-34.66796875,66.89453125,0.0
451.4921875,-78.125,-43.45703125,-36.62109375,-49.8046875,70.3125,0.0
451.49609375,-95.703125,-42.48046875,-38.0859375,-13.671875,16.11328125,0.0
451.5,-80.56640625,-39.55078125,-33.203125,9.27734375,30.2734375,0.0
451.50390625,-69.82421875,-34.1796875,-32.71484375,-2.9296875,6.34765625,0.0
451.5078125,-80.56640625,-29.78515625,-40.52734375,-13.18359375,-67.87109375,0.0
451.51171875,-81.54296875,-36.1328125,-34.66796875,-15.13671875,-36.1328125,0.0
451.515625,-78.61328125,-42.96875,-26.85546875,12.6953125,-24.90234375,0.0
451.51953125,-53.22265625,-27.83203125,-24.90234375,13.18359375,-83.984375,0.0
451.5234375,-57.12890625,-14.6484375,-21.484375,7.32421875,-101.5625,0.0
451.52734375,-78.61328125,-21.97265625,-14.6484375,37.109375,-90.33203125,0.0
451.53125,-77.63671875,-31.73828125,-16.6015625,-5.37109375,-32.71484375,0.0
451.53515625,-78.125,-33.69140625,-17.08984375,-1.953125,-22.94921875,0.0
451.5390625,-83.984375,-28.80859375,-16.11328125,13.18359375,-21.484375,0.0
451.54296875,-67.87109375,-24.90234375,-22.4609375,-1.46484375,-29.296875,0.0
451.546875,-14.16015625,-28.3203125,-26.85546875,13.18359375,-78.125,0.0
451.55078125,-49.8046875,-41.50390625,-29.296875,10.7421875,-21.97265625,0.0
451.5546875,-96.6796875,-54.6875,-32.2265625,0.0,19.04296875,0.0
451.55859375,-86.9140625,-47.36328125,-40.0390625,-12.20703125,-45.41015625,0.0
451.5625,-85.44921875,-37.59765625,-34.66796875,-3.90625,-44.43359375,0.0
451.56640625,-79.1015625,-43.9453125,-33.203125,2.9296875,-9.27734375,0.0
451.5703125,-52.24609375,-40.52734375,-33.69140625,-25.87890625,-34.66796875,0.0
451.57421875,-62.01171875,-34.66796875,-24.4140625,-20.5078125,-29.78515625,0.0
451.578125,-58.10546875,-42.48046875,-26.85546875,1.46484375,0.48828125,0.0
451.58203125,-12.20703125,-40.0390625,-29.78515625,1.953125,0.0,0.0
451.5859375,-33.69140625,-40.0390625,-30.2734375,-6.8359375,-18.5546875,0.0
451.58984375,-52.24609375,-31.25,-33.69140625,-30.2734375,-11.71875,0.0
451.59375,-43.9453125,-23.4375,-29.296875,-8.30078125,42.48046875,0.0
451.59765625,-69.82421875,-29.296875,-24.4140625,-12.6953125,37.109375,0.0
451.6015625,-88.8671875,-36.62109375,-37.109375,-47.36328125,7.8125,0.0
451.60546875,-62.98828125,-39.0625,-40.52734375,-34.1796875,-2.44140625,0.0
451.609375,-16.11328125,-41.9921875,-33.203125,-4.8828125,-30.76171875,0.0
451.61328125,-16.11328125,-47.36328125,-37.109375,-40.52734375,-55.6640625,0.0
451.6171875,8.7890625,-41.015625,-40.0390625,-66.89453125,-19.53125,0.0
451.62109375,29.296875,-36.62109375,-37.109375,-45.41015625,66.40625,0.0
451.625,-30.76171875,-32.2265625,-39.55078125,-28.3203125,36.1328125,0.0
451.62890625,-56.15234375,-36.62109375,-42.96875,-36.62109375,-76.66015625,0.0
451.6328125,-28.3203125,-46.38671875,-40.0390625,-61.03515625,-67.3828125,0.0
451.63671875,-8.7890625,-37.109375,-41.015625,-54.6875,-0.9765625,0.0
451.640625,-10.7421875,-29.296875,-40.0390625,-39.55078125,96.6796875,0.0
451.64453125,-10.7421875,-35.64453125,-37.59765625,-30.76171875,94.23828125,0.0
451.6484375,15.625,-30.2734375,-40.0390625,-56.640625,57.12890625,0.0
451.65234375,37.109375,-26.3671875,-34.1796875,-52.734375,0.0,0.0
451.65625,8.30078125,-35.15625,-31.25,-35.64453125,-79.1015625,0.0
451.66015625,21.97265625,-33.203125,-32.2265625,-32.71484375,-94.7265625,0.0
451.6640625,46.875,-33.69140625,-40.52734375,-21.97265625,-34.66796875,0.0
451.66796875,49.8046875,-32.2265625,-35.15625,-11.71875,27.83203125,0.0
451.671875,20.01953125,-34.66796875,-26.85546875,-2.44140625,-20.99609375,0.0
451.67578125,-2.44140625,-36.1328125,-33.203125,-10.25390625,-44.43359375,0.0
451.6796875,-8.7890625,-37.109375,-37.109375,-41.50390625,-7.32421875,0.0
451.68359375,-28.80859375,-39.55078125,-33.203125,-50.29296875,28.3203125,0.0
451.6875,-32.71484375,-37.109375,-32.2265625,-36.62109375,82.03125,0.0
451.69140625,-8.7890625,-37.59765625,-40.0390625,-24.90234375,38.57421875,0.0
451.6953125,19.53125,-39.55078125,-43.45703125,-30.2734375,-82.03125,0.0
451.69921875,4.39453125,-45.41015625,-39.0625,-40.0390625,-23.4375,0.0
451.703125,-20.99609375,-41.50390625,-37.59765625,-60.546875,51.26953125,0.0
451.70703125,-13.671875,-45.8984375,-42.48046875,-62.01171875,28.3203125,0.0
451.7109375,-7.32421875,-49.31640625,-44.921875,-67.3828125,56.640625,0.0
451.71484375,-24.4140625,-42.48046875,-46.875,-82.03125,59.5703125,0.0
451.71875,-57.6171875,-44.43359375,-42.96875,-100.09765625,47.36328125,0.0
451.72265625,-83.984375,-41.50390625,-41.50390625,-130.37109375,-22.94921875,0.0
451.7265625,-104.00390625,-37.109375,-49.31640625,-120.60546875,-73.73046875,0.0
451.73046875,-92.28515625,-34.1796875,-45.41015625,-105.46875,-49.8046875,0.0
451.734375,-88.37890625,-37.59765625,-33.203125,-87.40234375,-82.03125,0.0
451.73828125,-100.09765625,-46.38671875,-41.50390625,-76.66015625,-130.859375,0.0
451.7421875,-90.8203125,-39.55078125,-46.875,-73.73046875,-116.69921875,0.0
451.74609375,-79.1015625,-33.203125,-38.0859375,-74.21875,-70.80078125,0.0
451.75,-80.078125,-35.64453125,-34.66796875,-86.9140625,-79.58984375,0.0
451.75390625,-65.4296875,-40.0390625,-37.109375,-79.58984375,-142.578125,0.0
451.7578125,-109.375,-38.57421875,-33.69140625,-79.58984375,-116.69921875,0.0
451.76171875,-129.39453125,-34.66796875,-29.78515625,-99.609375,-56.15234375,0.0
451.765625,-107.421875,-34.1796875,-34.66796875,-112.79296875,-34.66796875,0.0
451.76953125,-120.1171875,-35.15625,-41.9921875,-103.02734375,1.953125,0.0
451.7734375,-44.921875,-29.78515625,-29.78515625,-101.07421875,7.8125,0.0
451.77734375,-8.30078125,-32.2265625,-21.484375,-85.9375,-21.97265625,0.0
451.78125,-27.34375,-38.0859375,-38.0859375,-88.37890625,-67.87109375,0.0
451.78515625,-30.2734375,-39.0625,-42.48046875,-123.046875,-83.984375,0.0
451.7890625,-33.203125,-27.83203125,-44.921875,-130.859375,-72.265625,0.0
451.79296875,-29.78515625,-31.25,-45.41015625,-132.8125,-72.75390625,0.0
451.796875,-63.4765625,-58.10546875,-44.921875,-126.46484375,-47.36328125,0.0
451.80078125,-93.26171875,-52.734375,-46.875,-127.44140625,-76.66015625,0.0
451.8046875,-40.52734375,-40.52734375,-34.66796875,-128.90625,-106.93359375,0.0
451.80859375,-51.7578125,-46.875,-31.25,-117.1875,-152.83203125,0.0
451.8125,-58.10546875,-46.38671875,-36.1328125,-125.0,-159.66796875,0.0
451.81640625,-25.87890625,-33.69140625,-39.0625,-107.91015625,-101.07421875,0.0
451.8203125,-57.6171875,-33.69140625,-27.83203125,-92.7734375,-37.59765625,0.0
451.82421875,-53.22265625,-38.0859375,-20.5078125,-108.88671875,10.25390625,0.0
451.828125,-33.69140625,-39.55078125,-26.3671875,-121.09375,-41.50390625,0.0
451.83203125,-1.46484375,-43.9453125,-33.69140625,-134.27734375,-59.5703125,0.0
451.8359375,-35.15625,-43.45703125,-29.296875,-111.328125,-6.34765625,0.0
451.83984375,-71.77734375,-38.57421875,-22.4609375,-89.84375,57.12890625,0.0
451.84375,-38.0859375,-37.59765625,-29.296875,-77.1484375,112.3046875,0.0
451.84765625,-57.12890625,-41.9921875,-35.15625,-70.80078125,60.05859375,0.0
451.8515625,-71.77734375,-39.0625,-33.203125,-72.265625,-11.23046875,0.0
451.85546875,-41.9921875,-33.203125,-34.66796875,-77.63671875,6.8359375,0.0
451.859375,-4.39453125,-42.48046875,-37.109375,-89.35546875,41.015625,0.0
451.86328125,2.44140625,-53.7109375,-28.3203125,-98.14453125,23.92578125,0.0
451.8671875,-18.06640625,-51.26953125,-35.64453125,-99.609375,-67.3828125,0.0
451.87109375,-35.64453125,-44.921875,-42.48046875,-72.265625,-97.65625,0.0
451.875,-49.31640625,-43.45703125,-38.0859375,-67.87109375,21.97265625,0.0
451.87890625,-34.1796875,-37.109375,-36.62109375,-67.3828125,79.1015625,0.0
451.8828125,-27.34375,-33.69140625,-32.71484375,-51.26953125,3.41796875,0.0
451.88671875,-51.7578125,-41.50390625,-46.38671875,-57.12890625,-93.26171875,0.0
451.890625,-55.17578125,-36.62109375,-56.15234375,-50.29296875,-96.6796875,0.0
451.89453125,-50.78125,-28.80859375,-52.24609375,-53.22265625,-83.984375,0.0
451.8984375,-42.96875,-39.55078125,-42.48046875,-49.8046875,-112.3046875,0.0
451.90234375,-56.15234375,-41.015625,-38.0859375,-63.96484375,-35.15625,0.0
451.90625,-74.21875,-38.57421875,-42.96875,-65.4296875,28.3203125,0.0
451.91015625,-43.45703125,-42.48046875,-32.71484375,-43.9453125,-47.8515625,0.0
451.9140625,-35.15625,-35.64453125,-31.73828125,-47.36328125,-49.8046875,0.0
451.91796875,-30.2734375,-34.1796875,-40.52734375,-44.921875,2.44140625,0.0
451.921875,-33.69140625,-39.55078125,-32.2265625,-31.73828125,43.9453125,0.0
451.92578125,-36.62109375,-41.50390625,-30.2734375,-38.0859375,53.7109375,0.0
451.9296875,-42.48046875,-40.0390625,-32.71484375,-41.9921875,3.90625,0.0
451.93359375,-36.62109375,-45.8984375,-25.87890625,-14.16015625,-35.15625,0.0
451.9375,-27.34375,-51.7578125,-25.87890625,-10.25390625,-33.203125,0.0
451.94140625,-39.55078125,-45.8984375,-31.25,-35.15625,-39.0625,0.0
451.9453125,-51.7578125,-37.109375,-31.25,-27.83203125,38.0859375,0.0
451.94921875,-48.33984375,-35.15625,-33.69140625,-29.296875,77.1484375,0.0
451.953125,-52.734375,-39.55078125,-32.2265625,-42.96875,48.828125,0.0
451.95703125,-42.96875,-39.0625,-34.66796875,-38.57421875,-32.71484375,0.0
451.9609375,-70.3125,-30.2734375,-49.8046875,-62.5,-124.51171875,0.0
451.96484375,-114.2578125,-32.2265625,-45.41015625,-56.640625,-45.8984375,0.0
451.96875,-100.5859375,-30.76171875,-30.2734375,-38.0859375,26.3671875,0.0
451.97265625,-104.00390625,-27.34375,-31.25,-39.55078125,-6.8359375,0.0
451.9765625,-96.6796875,-37.109375,-36.1328125,-44.921875,-79.58984375,0.0
451.98046875,-84.9609375,-35.15625,-31.73828125,-51.7578125,-53.7109375,0.0
451.984375,-40.0390625,-34.66796875,-29.78515625,-37.109375,8.30078125,0.0
451.98828125,-8.7890625,-40.52734375,-33.203125,-43.45703125,-55.17578125,0.0
451.9921875,-60.546875,-28.80859375,-38.57421875,-82.51953125,-75.1953125,0.0
451.99609375,-100.09765625,-28.80859375,-41.015625,-81.0546875,-78.125,0.0
452.0,-81.54296875,-48.33984375,-28.3203125,-53.7109375,-66.89453125,0.0
452.00390625,-65.91796875,-45.41015625,-24.90234375,-52.734375,-30.2734375,0.0
452.0078125,-23.4375,-36.62109375,-26.3671875,-42.48046875,-156.25,0.0
452.01171875,-35.15625,-45.41015625,-25.390625,-55.17578125,-174.31640625,0.0
452.015625,-89.35546875,-51.7578125,-36.1328125,-77.63671875,-92.28515625,0.0
452.01953125,-77.1484375,-47.36328125,-41.9921875,-64.94140625,-86.42578125,0.0
452.0234375,-44.43359375,-49.31640625,-42.96875,-73.73046875,-64.94140625,0.0
452.02734375,-23.4375,-41.50390625,-41.50390625,-79.1015625,-30.76171875,0.0
452.03125,-40.52734375,-36.1328125,-36.62109375,-55.17578125,-35.15625,0.0
452.03515625,-16.6015625,-45.41015625,-41.9921875,-36.1328125,-4.39453125,0.0
452.0390625,14.6484375,-40.0390625,-52.24609375,-51.7578125,0.9765625,0.0
452.04296875,-49.31640625,-35.15625,-51.7578125,-71.77734375,-66.40625,0.0
452.046875,-71.77734375,-40.0390625,-46.875,-52.734375,-29.78515625,0.0
452.05078125,-61.5234375,-46.38671875,-41.9921875,-28.80859375,-10.25390625,0.0
452.0546875,-72.75390625,-45.8984375,-47.8515625,-41.50390625,-117.1875,0.0
452.05859375,-74.21875,-46.875,-48.33984375,-67.3828125,-76.171875,0.0
452.0625,-64.453125,-43.45703125,-35.64453125,-61.03515625,9.27734375,0.0
452.06640625,-69.82421875,-39.0625,-34.1796875,-54.19921875,74.21875,0.0
452.0703125,-49.8046875,-43.45703125,-39.55078125,-63.96484375,108.88671875,0.0
452.07421875,-45.8984375,-43.45703125,-31.25,-73.2421875,39.55078125,0.0
452.078125,-35.15625,-41.9921875,-27.34375,-60.546875,44.43359375,0.0
452.08203125,-25.390625,-44.43359375,-31.25,-69.82421875,37.109375,0.0
452.0859375,-22.94921875,-41.015625,-28.3203125,-88.8671875,-75.1953125,0.0
452.08984375,-46.875,-44.921875,-28.3203125,-61.03515625,-36.1328125,0.0
452.09375,-58.59375,-49.8046875,-39.55078125,-66.40625,76.171875,0.0
452.09765625,-48.33984375,-44.921875,-37.109375,-82.51953125,28.80859375,0.0
452.1015625,-63.4765625,-31.73828125,-27.34375,-76.66015625,0.48828125,0.0
452.10546875,-64.453125,-23.92578125,-33.69140625,-86.42578125,141.11328125,0.0
452.109375,-69.82421875,-42.96875,-31.25,-73.2421875,121.58203125,0.0
452.11328125,-101.07421875,-53.7109375,-28.3203125,-93.26171875,34.1796875,0.0
452.1171875,-97.65625,-44.43359375,-30.76171875,-120.60546875,32.2265625,0.0
452.12109375,-90.8203125,-44.43359375,-35.15625,-113.28125,-17.08984375,0.0
452.125,-90.33203125,-46.38671875,-37.109375,-92.7734375,-45.8984375,0.0
452.12890625,-108.88671875,-42.48046875,-36.62109375,-88.37890625,-43.45703125,0.0
452.1328125,-63.96484375,-31.73828125,-36.1328125,-84.47265625,-83.0078125,0.0
452.13671875,-22.4609375,-28.80859375,-31.73828125,-60.05859375,-61.5234375,0.0
452.140625,-78.125,-38.0859375,-30.76171875,-67.3828125,30.76171875,0.0
452.14453125,-82.51953125,-39.55078125,-26.3671875,-76.66015625,68.359375,0.0
452.1484375,-47.36328125,-38.0859375,-20.5078125,-76.171875,25.390625,0.0
452.15234375,-61.5234375,-45.8984375,-13.671875,-61.5234375,-39.55078125,0.0
452.15625,-73.73046875,-46.875,-19.53125,-75.1953125,-51.7578125,0.0
452.16015625,-26.3671875,-44.43359375,-39.0625,-94.7265625,-45.8984375,0.0
452.1640625,-0.9765625,-41.015625,-56.15234375,-71.2890625,-68.359375,0.0
452.16796875,-52.24609375,-35.15625,-53.7109375,-84.9609375,-91.796875,0.0
452.171875,-95.703125,-33.69140625,-36.62109375,-96.6796875,-41.9921875,0.0
452.17578125,-70.3125,-35.15625,-30.76171875,-87.40234375,22.4609375,0.0
452.1796875,-40.52734375,-40.0390625,-36.1328125,-83.984375,-31.73828125,0.0
452.18359375,-35.15625,-42.96875,-32.71484375,-71.77734375,-13.18359375,0.0
452.1875,-12.20703125,-39.0625,-27.34375,-75.68359375,-9.27734375,0.0
452.19140625,-49.8046875,-42.48046875,-31.25,-79.58984375,-132.32421875,0.0
452.1953125,-75.1953125,-52.24609375,-30.76171875,-79.58984375,-112.3046875,0.0
452.19921875,-48.33984375,-51.26953125,-28.80859375,-57.12890625,-97.65625,0.0
452.203125,-40.52734375,-48.33984375,-33.69140625,-62.98828125,-121.58203125,0.0
452.20703125,-64.453125,-45.8984375,-35.64453125,-63.4765625,-58.59375,0.0
452.2109375,-105.46875,-46.38671875,-30.2734375,-54.6875,5.37109375,0.0
452.21484375,-85.44921875,-44.921875,-27.34375,-38.0859375,-14.16015625,0.0
452.21875,-58.10546875,-39.55078125,-30.2734375,-15.625,-89.35546875,0.0
452.22265625,-68.84765625,-44.43359375,-32.71484375,-34.1796875,-61.5234375,0.0
452.2265625,-53.7109375,-46.875,-33.203125,-42.48046875,-15.625,0.0
452.23046875,-23.4375,-38.0859375,-28.80859375,-37.59765625,-22.94921875,0.0
452.234375,-59.5703125,-36.62109375,-24.4140625,-31.73828125,-26.85546875,0.0
452.23828125,-61.03515625,-36.62109375,-23.92578125,-39.0625,-7.32421875,0.0
452.2421875,-52.734375,-38.0859375,-23.92578125,-32.2265625,60.546875,0.0
452.24609375,-48.828125,-29.296875,-28.80859375,-43.9453125,98.14453125,0.0
452.25,-40.52734375,-25.87890625,-33.203125,-50.29296875,26.3671875,0.0
452.25390625,-48.33984375,-40.0390625,-33.203125,-21.97265625,20.99609375,0.0
452.2578125,-27.34375,-39.55078125,-33.203125,-7.8125,92.28515625,0.0
452.26171875,-20.5078125,-35.15625,-37.59765625,-23.4375,7.8125,0.0
452.265625,-60.05859375,-37.59765625,-34.1796875,-24.4140625,-128.90625,0.0
452.26953125,-84.47265625,-37.109375,-25.87890625,0.0,-88.8671875,0.0
452.2734375,-77.63671875,-35.64453125,-26.85546875,-15.13671875,7.8125,0.0
452.27734375,-70.3125,-41.50390625,-29.296875,-6.8359375,11.23046875,0.0
452.28125,-64.94140625,-45.41015625,-27.34375,-2.44140625,33.69140625,0.0
452.28515625,-59.08203125,-39.55078125,-17.578125,-12.6953125,86.9140625,0.0
452.2890625,-39.55078125,-38.0859375,-20.01953125,-6.8359375,106.4453125,0.0
452.29296875,-56.15234375,-39.0625,-31.25,-22.94921875,0.9765625,0.0
452.296875,-73.2421875,-37.59765625,-31.73828125,-18.06640625,-98.14453125,0.0
452.30078125,-54.6875,-37.59765625,-28.80859375,-1.46484375,-77.63671875,0.0
452.3046875,-43.45703125,-30.2734375,-28.3203125,0.9765625,27.83203125,0.0
452.30859375,-37.109375,-30.76171875,-28.3203125,7.8125,49.31640625,0.0
452.3125,-26.85546875,-32.71484375,-26.85546875,13.18359375,-51.7578125,0.0
452.31640625,-26.3671875,-26.3671875,-29.78515625,17.578125,-50.78125,0.0
452.3203125,-62.5,-30.2734375,-35.15625,15.625,-47.8515625,0.0
452.32421875,-78.125,-38.0859375,-37.59765625,3.90625,-112.79296875,0.0
452.328125,-80.078125,-43.45703125,-34.1796875,13.18359375,-136.71875,0.0
452.33203125,-72.265625,-42.48046875,-25.390625,26.3671875,-134.765625,0.0
452.3359375,-41.50390625,-42.48046875,-26.3671875,-9.27734375,-104.4921875,0.0
452.33984375,-41.015625,-36.62109375,-40.52734375,-38.0859375,-58.59375,0.0
452.34375,-72.75390625,-24.4140625,-50.29296875,-62.01171875,-31.25,0.0
452.34765625,-60.05859375,-31.25,-41.015625,-75.68359375,-52.734375,0.0
452.3515625,-63.4765625,-44.921875,-39.0625,-66.89453125,-77.1484375,0.0
452.35546875,-69.3359375,-36.62109375,-48.828125,-79.1015625,-101.5625,0.0
452.359375,-83.0078125,-37.59765625,-52.734375,-114.74609375,-47.36328125,0.0
452.36328125,-88.8671875,-38.0859375,-51.7578125,-124.51171875,20.01953125,0.0
452.3671875,-82.03125,-25.87890625,-47.36328125,-132.32421875,-25.390625,0.0
452.37109375,-107.421875,-22.4609375,-44.43359375,-135.25390625,-53.22265625,0.0
452.375,-126.953125,-26.3671875,-46.875,-131.8359375,-16.11328125,0.0
452.37890625,-119.62890625,-26.85546875,-45.41015625,-122.0703125,-8.7890625,0.0
452.3828125,-109.86328125,-22.4609375,-50.29296875,-137.6953125,-120.1171875,0.0
452.38671875,-137.6953125,-27.83203125,-66.89453125,-221.19140625,-114.2578125,0.0
452.390625,-187.98828125,-23.92578125,-69.82421875,-259.765625,-29.78515625,0.0
452.39453125,-208.984375,-12.6953125,-71.77734375,-276.85546875,-47.36328125,0.0
452.3984375,-201.171875,-6.8359375,-77.1484375,-304.6875,-32.2265625,0.0
452.40234375,-229.98046875,-10.7421875,-84.9609375,-334.9609375,-14.6484375,0.0
452.40625,-232.91015625,-15.13671875,-94.7265625,-358.88671875,-8.30078125,0.0
452.41015625,-222.65625,-12.6953125,-100.5859375,-347.16796875,46.38671875,0.0
452.4140625,-243.65234375,-5.859375,-104.4921875,-341.796875,26.85546875,0.0
452.41796875,-264.6484375,6.8359375,-104.4921875,-336.9140625,-34.66796875,0.0
452.421875,-260.7421875,4.39453125,-96.6796875,-329.1015625,18.5546875,0.0
452.42578125,-194.82421875,0.0,-93.75,-339.35546875,56.15234375,0.0
452.4296875,-173.33984375,0.0,-99.12109375,-346.6796875,9.27734375,0.0
452.43359375,-166.9921875,-6.8359375,-96.19140625,-335.44921875,27.34375,0.0
452.4375,-110.3515625,-2.44140625,-78.125,-317.3828125,100.5859375,0.0
452.44140625,-94.7265625,5.37109375,-73.2421875,-324.21875,51.26953125,0.0
452.4453125,-73.2421875,5.37109375,-73.73046875,-335.44921875,48.828125,0.0
452.44921875,-54.6875,1.953125,-70.3125,-311.03515625,52.734375,0.0
452.453125,-14.6484375,-3.90625,-71.2890625,-278.3203125,-38.0859375,0.0
452.45703125,20.01953125,-4.8828125,-64.453125,-263.671875,-89.35546875,0.0
452.4609375,-9.27734375,-5.859375,-58.10546875,-265.625,-108.3984375,0.0
452.46484375,19.53125,-1.46484375,-46.38671875,-241.2109375,-127.44140625,0.0
452.46875,51.26953125,-0.9765625,-39.55078125,-208.0078125,-39.0625,0.0
452.47265625,26.3671875,-8.7890625,-44.921875,-208.49609375,-52.24609375,0.0
452.4765625,25.87890625,-14.16015625,-44.921875,-194.82421875,-169.921875,0.0
452.48046875,41.50390625,-16.11328125,-40.0390625,-200.68359375,-92.7734375,0.0
452.484375,57.6171875,-22.4609375,-38.0859375,-212.890625,-11.71875,0.0
452.48828125,61.03515625,-35.64453125,-30.2734375,-180.6640625,21.484375,0.0
452.4921875,98.6328125,-38.0859375,-15.625,-165.0390625,14.16015625,0.0
452.49609375,104.4921875,-28.80859375,-9.765625,-153.3203125,-68.359375,0.0
452.5,71.77734375,-35.15625,-15.13671875,-127.44140625,-9.27734375,0.0
452.50390625,88.8671875,-41.9921875,-19.04296875,-112.79296875,21.97265625,0.0
452.5078125,82.51953125,-43.9453125,-12.20703125,-101.07421875,-38.57421875,0.0
452.51171875,62.5,-41.015625,-10.25390625,-106.4453125,-78.125,0.0
452.515625,74.21875,-45.41015625,-13.671875,-114.74609375,-64.94140625,0.0
452.51953125,105.95703125,-53.7109375,-12.20703125,-83.0078125,-51.26953125,0.0
452.5234375,94.7265625,-49.31640625,-3.90625,-71.77734375,11.23046875,0.0
452.52734375,46.875,-48.828125,-4.8828125,-102.05078125,35.15625,0.0
452.53125,46.38671875,-57.12890625,-11.71875,-99.12109375,-9.27734375,0.0
452.53515625,62.98828125,-54.6875,-2.44140625,-88.8671875,20.5078125,0.0
452.5390625,71.77734375,-42.96875,-0.9765625,-80.56640625,-70.3125,0.0
452.54296875,60.05859375,-46.38671875,-4.8828125,-60.05859375,-150.390625,0.0
452.546875,83.0078125,-62.98828125,-6.8359375,-79.1015625,-78.125,0.0
452.55078125,84.9609375,-65.91796875,-0.48828125,-93.75,-0.48828125,0.0
452.5546875,68.359375,-57.12890625,9.765625,-88.37890625,52.24609375,0.0
452.55859375,61.5234375,-53.22265625,2.44140625,-83.984375,-24.4140625,0.0
452.5625,39.55078125,-62.5,-4.39453125,-95.703125,-41.015625,0.0
452.56640625,41.50390625,-71.2890625,-2.44140625,-96.6796875,14.16015625,0.0
452.5703125,43.9453125,-63.4765625,4.39453125,-71.2890625,-41.015625,0.0
452.57421875,53.7109375,-49.31640625,0.48828125,-76.171875,23.4375,0.0
452.578125,36.1328125,-56.640625,-7.8125,-102.5390625,24.4140625,0.0
452.58203125,11.23046875,-64.94140625,-13.671875,-97.65625,-53.7109375,0.0
452.5859375,14.6484375,-62.98828125,-15.13671875,-83.49609375,4.39453125,0.0
452.58984375,50.29296875,-58.10546875,-16.6015625,-100.5859375,-23.4375,0.0
452.59375,54.19921875,-51.26953125,-20.01953125,-86.9140625,-76.171875,0.0
452.59765625,18.5546875,-50.78125,-17.08984375,-68.359375,-0.48828125,0.0
452.6015625,14.16015625,-49.31640625,-18.06640625,-83.0078125,48.828125,0.0
452.60546875,0.9765625,-51.7578125,-19.53125,-73.2421875,53.7109375,0.0
452.609375,-12.6953125,-49.8046875,-13.18359375,-60.05859375,-55.17578125,0.0
452.61328125,6.8359375,-47.36328125,-6.34765625,-59.08203125,-19.53125,0.0
452.6171875,25.390625,-48.33984375,-1.953125,-40.52734375,87.40234375,0.0
452.62109375,6.34765625,-51.26953125,-4.8828125,-35.64453125,-30.76171875,0.0
452.625,-11.23046875,-52.734375,-7.32421875,-33.69140625,-100.5859375,0.0
452.62890625,4.39453125,-48.33984375,-8.7890625,-37.109375,-106.93359375,0.0
452.6328125,19.53125,-50.29296875,-17.578125,-47.8515625,-76.66015625,0.0
452.63671875,4.8828125,-44.921875,-16.11328125,-45.8984375,-13.671875,0.0
452.640625,14.16015625,-40.52734375,-13.18359375,-49.8046875,-32.2265625,0.0
452.64453125,5.37109375,-46.875,-23.4375,-39.55078125,-47.8515625,0.0
452.6484375,-0.48828125,-45.8984375,-25.390625,-55.17578125,7.8125,0.0
452.65234375,9.765625,-48.828125,-24.4140625,-84.47265625,-31.25,0.0
452.65625,20.01953125,-43.9453125,-26.85546875,-86.9140625,-94.23828125,0.0
452.66015625,37.59765625,-40.0390625,-15.625,-72.75390625,-14.6484375,0.0
452.6640625,35.64453125,-41.015625,-21.484375,-87.890625,21.484375,0.0
452.66796875,19.53125,-39.55078125,-38.0859375,-119.62890625,-43.45703125,0.0
452.671875,31.25,-47.36328125,-30.2734375,-98.6328125,-54.19921875,0.0
452.67578125,32.2265625,-48.33984375,-24.90234375,-72.75390625,-14.16015625,0.0
452.6796875,-1.46484375,-41.50390625,-24.90234375,-63.4765625,11.23046875,0.0
452.68359375,-7.32421875,-42.96875,-23.4375,-52.24609375,13.18359375,0.0
452.6875,9.765625,-45.8984375,-21.484375,-46.38671875,-15.625,0.0
452.69140625,9.765625,-38.57421875,-22.4609375,-55.6640625,-18.06640625,0.0
452.6953125,11.71875,-27.83203125,-24.4140625,-54.6875,-36.62109375,0.0
452.69921875,22.4609375,-30.76171875,-19.53125,-58.59375,-47.36328125,0.0
452.703125,4.39453125,-40.52734375,-13.18359375,-53.7109375,-31.73828125,0.0
452.70703125,-8.30078125,-37.59765625,-12.6953125,-37.109375,-73.2421875,0.0
452.7109375,-0.9765625,-31.73828125,-15.13671875,-44.43359375,-113.76953125,0.0
452.71484375,5.37109375,-29.296875,-13.671875,-63.4765625,-45.41015625,0.0
452.71875,37.109375,-31.25,-12.6953125,-60.546875,-53.7109375,0.0
452.72265625,28.3203125,-36.62109375,-16.6015625,-46.38671875,-109.86328125,0.0
452.7265625,-9.765625,-44.921875,-17.08984375,-41.015625,-158.69140625,0.0
452.73046875,13.18359375,-41.015625,-15.13671875,-64.94140625,-117.67578125,0.0
452.734375,32.71484375,-36.62109375,-6.34765625,-83.49609375,14.6484375,0.0
452.73828125,14.16015625,-38.0859375,-3.90625,-73.73046875,-30.2734375,0.0
452.7421875,-4.8828125,-33.203125,-10.25390625,-55.17578125,-84.9609375,0.0
452.74609375,-11.71875,-29.296875,-9.27734375,-55.6640625,26.85546875,0.0
452.75,-12.20703125,-31.73828125,-6.8359375,-73.73046875,-29.78515625,0.0
452.75390625,14.6484375,-34.66796875,-14.16015625,-75.1953125,-112.3046875,0.0
452.7578125,31.73828125,-46.38671875,-17.08984375,-77.63671875,-11.23046875,0.0
452.76171875,7.32421875,-44.43359375,1.46484375,-83.984375,17.578125,0.0
452.765625,-19.04296875,-34.66796875,4.39453125,-69.3359375,42.96875,0.0
452.76953125,-17.08984375,-36.1328125,-8.7890625,-73.73046875,46.875,0.0
452.7734375,0.9765625,-32.2265625,-17.578125,-102.05078125,-72.75390625,0.0
452.77734375,9.27734375,-35.64453125,-12.20703125,-92.7734375,-130.37109375,0.0
452.78125,-19.04296875,-46.875,-8.30078125,-88.8671875,-48.828125,0.0
452.78515625,-54.6875,-45.41015625,-14.16015625,-99.12109375,-34.66796875,0.0
452.7890625,-66.40625,-36.62109375,-19.53125,-117.67578125,-21.97265625,0.0
452.79296875,-36.62109375,-37.109375,-16.11328125,-115.72265625,49.31640625,0.0
452.796875,-25.87890625,-48.33984375,-10.7421875,-104.98046875,59.5703125,0.0
452.80078125,-38.57421875,-54.6875,-12.6953125,-100.5859375,22.94921875,0.0
452.8046875,-13.671875,-41.9921875,-18.06640625,-95.21484375,81.0546875,0.0
452.80859375,-23.92578125,-39.0625,-18.5546875,-111.328125,63.96484375,0.0
452.8125,-2.9296875,-47.8515625,-12.6953125,-108.3984375,-104.4921875,0.0
452.81640625,8.7890625,-44.43359375,-12.6953125,-96.19140625,-66.89453125,0.0
452.8203125,-50.78125,-41.50390625,-21.484375,-101.07421875,1.953125,0.0
452.82421875,-72.265625,-38.57421875,-25.390625,-94.7265625,-7.32421875,0.0
452.828125,-55.17578125,-40.0390625,-16.6015625,-72.265625,20.99609375,0.0
452.83203125,-36.62109375,-44.921875,-13.18359375,-55.6640625,-13.18359375,0.0
452.8359375,-49.31640625,-54.6875,-19.53125,-67.87109375,-27.34375,0.0
452.83984375,-34.66796875,-47.8515625,-22.94921875,-55.17578125,-13.18359375,0.0
452.84375,-37.109375,-28.3203125,-28.80859375,-48.33984375,-76.66015625,0.0
452.84765625,-44.921875,-24.90234375,-32.2265625,-72.265625,-113.76953125,0.0
452.8515625,-32.71484375,-30.2734375,-25.390625,-89.35546875,-128.41796875,0.0
452.85546875,-37.59765625,-38.0859375,-27.34375,-86.42578125,-48.33984375,0.0
452.859375,-41.015625,-37.109375,-31.25,-86.42578125,44.921875,0.0
452.86328125,-30.76171875,-33.69140625,-24.90234375,-82.51953125,-14.6484375,0.0
452.8671875,-29.78515625,-41.015625,-22.4609375,-79.58984375,-16.6015625,0.0
452.87109375,-44.43359375,-45.8984375,-24.4140625,-68.84765625,20.5078125,0.0
452.875,-51.26953125,-37.109375,-24.4140625,-72.265625,-54.6875,0.0
452.87890625,-54.6875,-35.15625,-20.5078125,-75.68359375,-106.4453125,0.0
452.8828125,-38.0859375,-41.50390625,-18.06640625,-49.8046875,-68.84765625,0.0
452.88671875,-26.85546875,-40.52734375,-14.6484375,-56.640625,2.44140625,0.0
452.890625,-44.43359375,-43.45703125,-12.20703125,-76.66015625,-22.4609375,0.0
452.89453125,-42.96875,-46.875,-12.6953125,-66.40625,-83.984375,0.0
452.8984375,-23.92578125,-40.0390625,-9.765625,-63.4765625,-26.3671875,0.0
452.90234375,-43.9453125,-36.62109375,-10.7421875,-71.77734375,49.8046875,0.0
452.90625,-66.40625,-45.41015625,-15.13671875,-66.40625,-71.2890625,0.0
452.91015625,-63.4765625,-42.96875,-22.4609375,-55.6640625,-105.95703125,0.0
452.9140625,-60.546875,-35.15625,-26.3671875,-65.4296875,-69.3359375,0.0
452.91796875,-106.93359375,-42.48046875,-24.90234375,-60.05859375,-115.234375,0.0
452.921875,-160.15625,-45.8984375,-30.2734375,-31.73828125,-141.11328125,0.0
452.92578125,-176.7578125,-39.55078125,-31.25,-41.9921875,-50.78125,0.0
452.9296875,-171.38671875,-39.0625,-29.78515625,-65.4296875,-70.3125,0.0
452.93359375,-157.71484375,-40.52734375,-34.1796875,-50.29296875,-142.578125,0.0
452.9375,-179.19921875,-36.1328125,-30.2734375,-27.34375,-109.375,0.0
452.94140625,-184.5703125,-34.1796875,-32.2265625,-21.484375,-85.9375,0.0
452.9453125,-176.7578125,-27.34375,-30.76171875,-25.390625,-3.41796875,0.0
452.94921875,-203.61328125,-28.3203125,-24.90234375,-37.59765625,19.04296875,0.0
452.953125,-201.66015625,-39.0625,-32.71484375,-51.26953125,3.90625,0.0
452.95703125,-183.59375,-45.8984375,-37.59765625,-44.43359375,16.11328125,0.0
452.9609375,-177.734375,-43.45703125,-37.109375,-38.57421875,6.8359375,0.0
452.96484375,-181.15234375,-39.0625,-33.69140625,-43.45703125,-36.62109375,0.0
452.96875,-193.84765625,-40.52734375,-36.62109375,-28.80859375,-25.390625,0.0
452.97265625,-179.6875,-39.0625,-41.015625,-10.25390625,-59.08203125,0.0
452.9765625,-162.109375,-28.80859375,-38.57421875,-20.99609375,-29.296875,0.0
452.98046875,-163.0859375,-24.90234375,-40.52734375,-36.1328125,31.25,0.0
452.984375,-162.109375,-30.76171875,-40.0390625,-44.43359375,-75.1953125,0.0
452.98828125,-166.50390625,-36.62109375,-34.66796875,-49.31640625,-52.24609375,0.0
452.9921875,-168.9453125,-41.9921875,-27.34375,-50.29296875,-28.3203125,0.0
452.99609375,-154.78515625,-44.43359375,-31.73828125,-66.40625,-62.98828125,0.0
453.0,-141.6015625,-42.48046875,-33.203125,-61.03515625,-115.234375,0.0
453.00390625,-159.1796875,-39.55078125,-32.71484375,-52.24609375,-74.70703125,0.0
453.0078125,-176.26953125,-45.41015625,-36.1328125,-51.7578125,-7.32421875,0.0
453.01171875,-176.7578125,-45.8984375,-39.0625,-62.01171875,-27.34375,0.0
453.015625,-166.9921875,-41.015625,-39.0625,-46.875,-20.5078125,0.0
453.01953125,-138.18359375,-38.0859375,-33.69140625,-22.4609375,15.625,0.0
453.0234375,-144.04296875,-39.55078125,-26.85546875,-30.2734375,71.77734375,0.0
453.02734375,-150.390625,-36.62109375,-20.01953125,-52.734375,76.66015625,0.0
453.03125,-129.8828125,-30.2734375,-22.94921875,-47.8515625,-4.39453125,0.0
453.03515625,-126.953125,-23.92578125,-23.4375,-32.2265625,-46.875,0.0
453.0390625,-124.51171875,-22.4609375,-18.06640625,-15.625,17.578125,0.0
453.04296875,-148.92578125,-29.78515625,-17.578125,-19.53125,-0.9765625,0.0
453.046875,-154.78515625,-37.109375,-19.53125,-36.62109375,-14.16015625,0.0
453.05078125,-117.67578125,-31.73828125,-22.94921875,-11.71875,26.85546875,0.0
453.0546875,-94.23828125,-30.76171875,-23.4375,1.953125,13.671875,0.0
453.05859375,-101.5625,-28.3203125,-26.85546875,-19.04296875,2.44140625,0.0
453.0625,-105.95703125,-28.3203125,-27.83203125,-19.04296875,-6.34765625,0.0
453.06640625,-95.21484375,-42.48046875,-15.13671875,4.39453125,-22.4609375,0.0
453.0703125,-111.328125,-38.0859375,-4.39453125,7.32421875,-31.25,0.0
453.07421875,-126.46484375,-38.0859375,-11.23046875,-7.32421875,-80.078125,0.0
453.078125,-112.79296875,-41.9921875,-17.578125,-15.625,-105.46875,0.0
453.08203125,-120.1171875,-43.45703125,-12.6953125,-0.48828125,-99.609375,0.0
453.0859375,-136.23046875,-58.10546875,-17.08984375,-6.34765625,-70.80078125,0.0
453.08984375,-116.69921875,-65.91796875,-25.87890625,-26.3671875,-58.59375,0.0
453.09375,-121.09375,-74.21875,-17.578125,-21.484375,-41.9921875,0.0
453.09765625,-141.6015625,-78.125,-8.7890625,-2.44140625,-7.8125,0.0
453.1015625,-130.37109375,-79.1015625,-7.8125,-4.8828125,-72.75390625,0.0
453.10546875,-132.32421875,-79.58984375,-5.859375,-14.6484375,-107.421875,0.0
453.109375,-120.60546875,-79.1015625,-8.7890625,-22.4609375,-40.0390625,0.0
453.11328125,-133.30078125,-83.0078125,-8.30078125,-38.0859375,-4.8828125,0.0
453.1171875,-128.90625,-84.47265625,-11.71875,-35.15625,-76.171875,0.0
453.12109375,-107.91015625,-77.63671875,-19.04296875,-35.15625,-40.52734375,0.0
453.125,-114.2578125,-69.3359375,-15.625,-35.64453125,39.0625,0.0
453.12890625,-122.55859375,-65.4296875,-14.16015625,-15.625,116.2109375,0.0
453.1328125,-151.85546875,-74.21875,-15.13671875,-10.25390625,93.26171875,0.0
453.13671875,-141.6015625,-79.58984375,-9.27734375,-40.52734375,-12.20703125,0.0
453.140625,-113.28125,-68.359375,-11.71875,-41.9921875,-3.41796875,0.0
453.14453125,-101.07421875,-58.10546875,-12.20703125,-6.8359375,6.8359375,0.0
453.1484375,-100.09765625,-59.5703125,-15.13671875,-11.23046875,-25.87890625,0.0
453.15234375,-105.46875,-58.59375,-17.08984375,-19.04296875,-6.34765625,0.0
453.15625,-107.91015625,-51.26953125,-10.7421875,0.9765625,43.9453125,0.0
453.16015625,-107.421875,-49.31640625,-10.7421875,-13.18359375,23.4375,0.0
453.1640625,-81.0546875,-48.33984375,-18.06640625,-39.0625,-36.62109375,0.0
453.16796875,-75.68359375,-48.33984375,-17.08984375,-18.5546875,18.5546875,0.0
453.171875,-105.95703125,-51.26953125,-12.6953125,-7.32421875,83.0078125,0.0
453.17578125,-97.16796875,-51.26953125,-15.13671875,-20.99609375,1.46484375,0.0
453.1796875,-108.3984375,-54.6875,-18.5546875,-26.3671875,-0.9765625,0.0
453.18359375,-111.328125,-48.33984375,-28.80859375,-26.85546875,83.49609375,0.0
453.1875,-91.796875,-46.875,-31.73828125,-22.4609375,42.48046875,0.0
453.19140625,-114.2578125,-54.6875,-30.2734375,-35.15625,-67.3828125,0.0
453.1953125,-123.53515625,-45.41015625,-23.4375,-59.5703125,-20.5078125,0.0
453.19921875,-107.421875,-38.0859375,-15.13671875,-76.171875,47.36328125,0.0
453.203125,-120.60546875,-46.875,-9.27734375,-78.61328125,-52.734375,0.0
453.20703125,-148.92578125,-60.546875,-12.20703125,-62.5,-100.5859375,0.0
453.2109375,-133.7890625,-56.640625,-17.578125,-62.98828125,-132.32421875,0.0
453.21484375,-110.83984375,-37.59765625,-18.06640625,-64.94140625,-80.56640625,0.0
453.21875,-104.98046875,-33.69140625,-20.99609375,-70.3125,-56.640625,0.0
453.22265625,-90.8203125,-40.0390625,-18.5546875,-65.91796875,-33.69140625,0.0
453.2265625,-88.8671875,-41.015625,-22.4609375,-55.6640625,10.7421875,0.0
453.23046875,-99.609375,-37.109375,-25.390625,-64.94140625,10.7421875,0.0
453.234375,-116.69921875,-37.109375,-21.97265625,-51.26953125,35.15625,0.0
