timestamp,TP9,AF7,AF8,TP10,AUX,Marker,
392.00390625,9.27734375,-45.8984375,-26.85546875,-46.875,-64.94140625,0.0
392.0078125,18.06640625,-43.9453125,-27.83203125,-47.36328125,-4.8828125,0.0
392.01171875,13.671875,-45.41015625,-34.1796875,-62.5,-41.015625,0.0
392.015625,5.859375,-43.9453125,-36.1328125,-59.5703125,-55.17578125,0.0
392.01953125,4.39453125,-45.41015625,-37.59765625,-57.12890625,-8.7890625,0.0
392.0234375,-2.9296875,-48.828125,-35.64453125,-67.3828125,-79.1015625,0.0
392.02734375,-10.7421875,-48.33984375,-35.64453125,-74.21875,-52.734375,0.0
392.03125,-13.671875,-50.78125,-41.50390625,-90.33203125,13.671875,0.0
392.03515625,-17.578125,-46.875,-41.9921875,-86.9140625,-11.23046875,0.0
392.0390625,-27.34375,-53.22265625,-51.7578125,-91.30859375,-29.78515625,0.0
392.04296875,-25.390625,-62.98828125,-61.5234375,-91.30859375,7.32421875,0.0
392.046875,-7.8125,-56.15234375,-51.7578125,-83.0078125,0.9765625,0.0
392.05078125,-17.578125,-55.17578125,-51.26953125,-81.0546875,10.7421875,0.0
392.0546875,-15.13671875,-49.31640625,-44.43359375,-71.77734375,0.48828125,0.0
392.05859375,-13.671875,-41.50390625,-32.2265625,-63.4765625,-66.40625,0.0
392.0625,-13.671875,-38.0859375,-23.92578125,-57.12890625,-79.58984375,0.0
392.06640625,-11.71875,-34.1796875,-22.4609375,-60.546875,-18.06640625,0.0
392.0703125,-41.50390625,-54.6875,-39.55078125,-95.703125,-6.8359375,0.0
392.07421875,-42.48046875,-50.29296875,-35.64453125,-104.98046875,-11.71875,0.0
392.078125,-18.5546875,-33.69140625,-31.73828125,-83.984375,40.0390625,0.0
392.08203125,-2.44140625,-33.69140625,-29.296875,-74.70703125,35.64453125,0.0
392.0859375,-10.7421875,-32.71484375,-27.34375,-68.359375,-50.78125,0.0
392.08984375,-21.97265625,-32.2265625,-33.203125,-72.265625,-71.77734375,0.0
392.09375,-15.625,-36.1328125,-32.71484375,-70.3125,-137.6953125,0.0
392.09765625,-22.94921875,-46.875,-41.9921875,-77.1484375,-269.04296875,0.0
392.1015625,-33.203125,-52.24609375,-43.9453125,-83.984375,-274.90234375,0.0
392.10546875,-25.87890625,-40.0390625,-24.4140625,-70.80078125,-248.046875,0.0
392.109375,-30.2734375,-39.0625,-27.34375,-66.40625,-161.62109375,0.0
392.11328125,-31.73828125,-38.57421875,-32.71484375,-68.359375,-30.76171875,0.0
392.1171875,-33.69140625,-40.52734375,-34.1796875,-69.82421875,36.62109375,0.0
392.12109375,-23.92578125,-39.0625,-33.203125,-49.31640625,61.5234375,0.0
392.125,-17.08984375,-34.66796875,-28.3203125,-51.7578125,29.296875,0.0
392.12890625,-46.875,-43.9453125,-29.78515625,-84.9609375,-24.90234375,0.0
392.1328125,-60.546875,-45.8984375,-36.1328125,-89.84375,-31.73828125,0.0
392.13671875,-34.1796875,-40.52734375,-38.0859375,-85.44921875,31.25,0.0
392.140625,-16.6015625,-34.1796875,-31.73828125,-79.58984375,6.8359375,0.0
392.14453125,-25.390625,-42.96875,-35.64453125,-89.35546875,-14.16015625,0.0
392.1484375,-23.92578125,-48.828125,-42.48046875,-88.8671875,-76.171875,0.0
392.15234375,-15.625,-34.66796875,-32.2265625,-75.68359375,-190.4296875,0.0
392.15625,-11.71875,-31.25,-19.53125,-71.2890625,-219.23828125,0.0
392.16015625,-2.9296875,-31.73828125,-19.04296875,-56.640625,-189.94140625,0.0
392.1640625,-4.39453125,-38.57421875,-22.94921875,-69.3359375,-187.01171875,0.0
392.16796875,-13.18359375,-40.0390625,-20.01953125,-73.2421875,-177.734375,0.0
392.171875,-29.296875,-35.64453125,-18.5546875,-67.87109375,-139.6484375,0.0
392.17578125,-39.0625,-41.50390625,-24.4140625,-67.87109375,-134.27734375,0.0
392.1796875,-31.25,-36.1328125,-20.5078125,-57.12890625,-116.2109375,0.0
392.18359375,-16.11328125,-30.2734375,-16.11328125,-52.734375,-49.8046875,0.0
392.1875,-23.4375,-41.50390625,-24.4140625,-57.6171875,-27.34375,0.0
392.19140625,-48.33984375,-55.6640625,-31.25,-63.4765625,-62.01171875,0.0
392.1953125,-41.9921875,-50.78125,-23.4375,-58.59375,5.37109375,0.0
392.19921875,-23.92578125,-39.55078125,-20.5078125,-52.24609375,92.28515625,0.0
392.203125,-15.625,-33.69140625,-22.94921875,-43.9453125,51.7578125,0.0
392.20703125,-14.6484375,-27.34375,-24.90234375,-53.7109375,72.75390625,0.0
392.2109375,-22.4609375,-28.80859375,-24.90234375,-55.6640625,146.97265625,0.0
392.21484375,-34.66796875,-32.71484375,-24.4140625,-59.5703125,155.2734375,0.0
392.21875,-38.0859375,-34.1796875,-31.25,-70.80078125,86.42578125,0.0
392.22265625,-21.97265625,-35.64453125,-33.203125,-53.7109375,41.015625,0.0
392.2265625,-6.8359375,-31.25,-28.3203125,-38.0859375,67.87109375,0.0
392.23046875,-15.13671875,-28.3203125,-31.25,-49.31640625,92.28515625,0.0
392.234375,-30.2734375,-41.015625,-46.38671875,-65.91796875,97.65625,0.0
392.23828125,-36.1328125,-44.43359375,-46.875,-72.265625,56.640625,0.0
392.2421875,-30.76171875,-33.69140625,-33.69140625,-63.96484375,85.9375,0.0
392.24609375,-26.85546875,-31.73828125,-34.66796875,-58.59375,47.36328125,0.0
392.25,-28.80859375,-32.71484375,-36.1328125,-52.734375,-68.359375,0.0
392.25390625,-28.80859375,-30.76171875,-39.55078125,-47.36328125,-16.6015625,0.0
392.2578125,-34.66796875,-27.83203125,-36.1328125,-54.19921875,56.15234375,0.0
392.26171875,-34.66796875,-25.390625,-28.80859375,-49.8046875,3.90625,0.0
392.265625,-23.92578125,-25.390625,-24.90234375,-40.52734375,-10.25390625,0.0
392.26953125,-38.0859375,-29.78515625,-29.78515625,-45.41015625,5.37109375,0.0
392.2734375,-49.31640625,-32.2265625,-32.71484375,-54.19921875,-62.5,0.0
392.27734375,-33.203125,-31.25,-33.203125,-43.9453125,-125.9765625,0.0
392.28125,-46.875,-42.96875,-52.24609375,-57.6171875,-99.609375,0.0
392.28515625,-49.31640625,-40.52734375,-50.78125,-77.63671875,-49.8046875,0.0
392.2890625,-13.671875,-18.06640625,-25.87890625,-51.7578125,-25.390625,0.0
392.29296875,-25.87890625,-18.06640625,-20.99609375,-54.19921875,-7.32421875,0.0
392.296875,-38.0859375,-22.4609375,-25.390625,-56.15234375,31.73828125,0.0
392.30078125,-20.01953125,-23.4375,-28.80859375,-28.80859375,75.68359375,0.0
392.3046875,-22.4609375,-26.85546875,-27.83203125,-39.0625,60.05859375,0.0
392.30859375,-22.4609375,-28.3203125,-24.90234375,-49.8046875,31.73828125,0.0
392.3125,-27.83203125,-29.78515625,-26.3671875,-39.0625,76.171875,0.0
392.31640625,-46.38671875,-33.203125,-28.3203125,-42.48046875,96.6796875,0.0
392.3203125,-40.52734375,-29.296875,-21.97265625,-38.57421875,60.546875,0.0
392.32421875,-49.8046875,-46.38671875,-39.55078125,-45.8984375,62.01171875,0.0
392.328125,-59.08203125,-54.6875,-48.828125,-59.08203125,117.1875,0.0
392.33203125,-39.0625,-33.203125,-31.25,-41.9921875,67.3828125,0.0
392.3359375,-33.203125,-35.64453125,-32.2265625,-35.15625,-62.01171875,0.0
392.33984375,-32.71484375,-36.62109375,-28.80859375,-38.0859375,-60.546875,0.0
392.34375,-23.92578125,-28.3203125,-25.87890625,-36.62109375,-19.53125,0.0
392.34765625,-18.5546875,-27.34375,-28.3203125,-29.296875,-69.3359375,0.0
392.3515625,-40.0390625,-34.1796875,-28.80859375,-43.45703125,-82.03125,0.0
392.35546875,-39.0625,-26.85546875,-28.3203125,-46.875,-52.24609375,0.0
392.359375,-21.97265625,-22.4609375,-24.4140625,-27.34375,29.296875,0.0
392.36328125,-15.13671875,-29.78515625,-19.53125,-22.4609375,47.36328125,0.0
392.3671875,-30.2734375,-35.64453125,-21.97265625,-31.25,-19.04296875,0.0
392.37109375,-49.8046875,-44.43359375,-34.1796875,-39.0625,-60.546875,0.0
392.375,-45.8984375,-39.0625,-29.78515625,-35.64453125,-62.01171875,0.0
392.37890625,-40.0390625,-29.296875,-22.4609375,-39.55078125,-138.18359375,0.0
392.3828125,-36.1328125,-31.25,-24.90234375,-39.0625,-124.51171875,0.0
392.38671875,-34.1796875,-35.64453125,-30.2734375,-31.73828125,-23.4375,0.0
392.390625,-24.4140625,-28.80859375,-31.25,-42.96875,-5.859375,0.0
392.39453125,-26.85546875,-29.78515625,-33.203125,-52.734375,-42.96875,0.0
392.3984375,-43.9453125,-21.97265625,-20.5078125,-43.45703125,-62.5,0.0
392.40234375,-41.50390625,-16.11328125,-9.765625,-26.85546875,-6.34765625,0.0
392.40625,-33.69140625,-27.34375,-25.87890625,-22.4609375,79.1015625,0.0
392.41015625,-36.1328125,-33.203125,-27.34375,-40.0390625,67.3828125,0.0
392.4140625,-47.36328125,-30.76171875,-27.34375,-41.50390625,-37.59765625,0.0
392.41796875,-49.31640625,-26.3671875,-26.85546875,-31.25,-41.9921875,0.0
392.421875,-39.55078125,-25.87890625,-21.484375,-32.2265625,14.16015625,0.0
392.42578125,-41.015625,-25.390625,-27.83203125,-34.1796875,-5.859375,0.0
392.4296875,-63.4765625,-47.36328125,-53.22265625,-56.15234375,-54.6875,0.0
392.43359375,-63.96484375,-49.8046875,-45.8984375,-66.89453125,-13.671875,0.0
392.4375,-45.8984375,-30.76171875,-26.85546875,-50.29296875,-45.8984375,0.0
392.44140625,-37.109375,-31.25,-31.73828125,-46.875,-65.91796875,0.0
392.4453125,-37.109375,-35.64453125,-36.62109375,-55.6640625,-11.71875,0.0
392.44921875,-41.50390625,-33.69140625,-28.3203125,-57.12890625,-38.57421875,0.0
392.453125,-44.43359375,-31.25,-26.3671875,-52.734375,-72.75390625,0.0
392.45703125,-52.24609375,-33.69140625,-38.0859375,-62.98828125,-52.734375,0.0
392.4609375,-47.8515625,-27.83203125,-27.34375,-62.5,-26.3671875,0.0
392.46484375,-28.3203125,-11.23046875,-1.953125,-49.31640625,-40.0390625,0.0
392.46875,-26.3671875,-7.32421875,-2.44140625,-49.31640625,-74.21875,0.0
392.47265625,-39.0625,-33.69140625,-20.99609375,-38.57421875,-35.64453125,0.0
392.4765625,-61.5234375,-61.03515625,-44.921875,-50.29296875,-34.1796875,0.0
392.48046875,-57.12890625,-52.24609375,-49.8046875,-58.10546875,-48.33984375,0.0
392.484375,-28.3203125,-34.66796875,-40.52734375,-38.57421875,-97.65625,0.0
392.48828125,-26.85546875,-40.52734375,-39.55078125,-36.1328125,-76.171875,0.0
392.4921875,-49.31640625,-41.015625,-36.1328125,-48.33984375,-29.296875,0.0
392.49609375,-56.640625,-30.76171875,-33.203125,-60.546875,-119.140625,0.0
392.5,-48.828125,-26.85546875,-29.296875,-56.640625,-91.796875,0.0
392.50390625,-52.734375,-33.69140625,-34.66796875,-62.5,-16.11328125,0.0
392.5078125,-45.41015625,-39.0625,-36.1328125,-58.10546875,-59.5703125,0.0
392.51171875,-35.15625,-27.83203125,-31.73828125,-48.828125,-15.13671875,0.0
392.515625,-36.62109375,-25.390625,-28.3203125,-48.33984375,10.7421875,0.0
392.51953125,-40.0390625,-37.59765625,-35.15625,-51.7578125,30.76171875,0.0
392.5234375,-35.64453125,-37.109375,-38.57421875,-56.640625,49.31640625,0.0
392.52734375,-32.2265625,-23.4375,-24.4140625,-53.22265625,20.99609375,0.0
392.53125,-33.203125,-24.4140625,-22.4609375,-49.31640625,24.4140625,0.0
392.53515625,-36.1328125,-34.1796875,-28.3203125,-51.7578125,5.37109375,0.0
392.5390625,-42.48046875,-33.69140625,-25.390625,-50.29296875,-16.11328125,0.0
392.54296875,-36.62109375,-26.85546875,-21.484375,-45.41015625,-65.91796875,0.0
392.546875,-38.57421875,-26.85546875,-25.87890625,-58.10546875,-95.703125,0.0
392.55078125,-39.55078125,-29.296875,-29.296875,-47.8515625,-26.85546875,0.0
392.5546875,-42.96875,-26.85546875,-29.296875,-28.3203125,-29.296875,0.0
392.55859375,-44.921875,-27.34375,-31.25,-24.4140625,-60.05859375,0.0
392.5625,-34.66796875,-34.1796875,-34.1796875,-17.08984375,-29.296875,0.0
392.56640625,-38.0859375,-39.55078125,-32.2265625,-15.625,13.18359375,0.0
392.5703125,-39.55078125,-39.0625,-29.78515625,-18.5546875,-13.671875,0.0
392.57421875,-44.921875,-39.0625,-32.71484375,-25.87890625,-86.9140625,0.0
392.578125,-52.734375,-37.59765625,-29.78515625,-30.76171875,-58.10546875,0.0
392.58203125,-34.66796875,-28.80859375,-26.85546875,-23.92578125,-59.5703125,0.0
392.5859375,-32.2265625,-35.64453125,-30.2734375,-26.85546875,-42.96875,0.0
392.58984375,-44.921875,-45.41015625,-32.2265625,-41.015625,-27.83203125,0.0
392.59375,-41.50390625,-37.59765625,-31.73828125,-44.921875,-103.515625,0.0
392.59765625,-47.36328125,-37.59765625,-30.2734375,-49.8046875,-183.10546875,0.0
392.6015625,-49.8046875,-39.0625,-28.3203125,-51.26953125,-190.91796875,0.0
392.60546875,-35.64453125,-28.80859375,-31.25,-43.9453125,-241.2109375,0.0
392.609375,-38.0859375,-33.203125,-43.9453125,-54.6875,-317.3828125,0.0
392.61328125,-53.22265625,-44.921875,-51.7578125,-68.359375,-297.8515625,0.0
392.6171875,-53.7109375,-45.41015625,-48.828125,-63.96484375,-257.8125,0.0
392.62109375,-45.41015625,-34.66796875,-41.9921875,-49.31640625,-173.33984375,0.0
392.625,-37.109375,-26.3671875,-35.15625,-51.7578125,-114.74609375,0.0
392.62890625,-35.64453125,-26.85546875,-32.2265625,-54.6875,-191.89453125,0.0
392.6328125,-38.57421875,-23.92578125,-30.76171875,-37.109375,-166.015625,0.0
392.63671875,-36.1328125,-22.94921875,-26.3671875,-28.80859375,-83.984375,0.0
392.640625,-33.203125,-27.83203125,-29.296875,-30.2734375,-101.07421875,0.0
392.64453125,-33.203125,-24.4140625,-34.66796875,-29.78515625,-141.11328125,0.0
392.6484375,-34.1796875,-20.5078125,-26.3671875,-24.90234375,-164.0625,0.0
392.65234375,-37.59765625,-26.3671875,-25.390625,-21.97265625,-84.9609375,0.0
392.65625,-45.41015625,-29.78515625,-44.921875,-34.1796875,-48.828125,0.0
392.66015625,-45.41015625,-32.71484375,-40.52734375,-36.62109375,-108.88671875,0.0
392.6640625,-35.15625,-38.57421875,-27.34375,-23.92578125,-71.2890625,0.0
392.66796875,-23.4375,-27.83203125,-25.87890625,-14.6484375,70.80078125,0.0
392.671875,-32.2265625,-23.4375,-28.3203125,-31.73828125,94.23828125,0.0
392.67578125,-41.015625,-23.4375,-26.85546875,-46.38671875,89.35546875,0.0
392.6796875,-39.55078125,-17.08984375,-32.2265625,-48.33984375,84.9609375,0.0
392.68359375,-47.36328125,-31.25,-36.1328125,-37.59765625,32.2265625,0.0
392.6875,-47.36328125,-39.55078125,-36.1328125,-34.66796875,72.75390625,0.0
392.69140625,-40.0390625,-34.1796875,-41.015625,-39.55078125,126.46484375,0.0
392.6953125,-42.48046875,-33.203125,-39.0625,-36.1328125,182.6171875,0.0
392.69921875,-33.69140625,-32.71484375,-36.62109375,-29.296875,173.828125,0.0
392.703125,-20.99609375,-37.109375,-33.203125,-29.296875,117.1875,0.0
392.70703125,-30.76171875,-39.0625,-33.69140625,-28.80859375,57.12890625,0.0
392.7109375,-46.875,-36.62109375,-42.96875,-23.92578125,0.9765625,0.0
392.71484375,-46.38671875,-20.5078125,-48.33984375,-22.94921875,14.16015625,0.0
392.71875,-33.69140625,-11.71875,-38.0859375,-6.34765625,-43.9453125,0.0
392.72265625,-31.25,-32.2265625,-39.0625,-6.8359375,0.0,0.0
392.7265625,-37.109375,-48.828125,-53.22265625,-22.94921875,72.75390625,0.0
392.73046875,-43.45703125,-45.41015625,-56.15234375,-22.94921875,26.3671875,0.0
392.734375,-48.33984375,-37.59765625,-53.22265625,-14.16015625,-23.92578125,0.0
392.73828125,-46.875,-34.66796875,-48.828125,-10.25390625,-41.50390625,0.0
392.7421875,-37.109375,-32.2265625,-43.45703125,-18.5546875,-29.78515625,0.0
392.74609375,-46.38671875,-32.71484375,-40.0390625,-26.85546875,0.9765625,0.0
392.75,-55.17578125,-35.64453125,-40.0390625,-22.94921875,33.203125,0.0
392.75390625,-53.7109375,-33.203125,-39.55078125,-20.99609375,43.45703125,0.0
392.7578125,-47.8515625,-33.69140625,-39.0625,-31.25,-7.8125,0.0
392.76171875,-34.1796875,-40.52734375,-33.69140625,-21.484375,3.41796875,0.0
392.765625,-28.3203125,-35.64453125,-28.80859375,-18.06640625,50.29296875,0.0
392.76953125,-28.80859375,-31.25,-29.296875,-35.15625,9.27734375,0.0
392.7734375,-36.62109375,-33.203125,-31.73828125,-31.73828125,-76.171875,0.0
392.77734375,-41.50390625,-35.15625,-30.2734375,-31.25,-109.86328125,0.0
392.78125,-38.57421875,-39.55078125,-35.15625,-30.2734375,-74.70703125,0.0
392.78515625,-30.76171875,-31.25,-40.52734375,-18.5546875,-25.87890625,0.0
392.7890625,-37.59765625,-26.85546875,-38.0859375,-25.390625,23.92578125,0.0
392.79296875,-46.38671875,-32.71484375,-32.71484375,-26.85546875,-13.18359375,0.0
392.796875,-50.29296875,-33.69140625,-34.66796875,-14.16015625,-40.52734375,0.0
392.80078125,-47.8515625,-28.80859375,-34.66796875,-11.23046875,-57.6171875,0.0
392.8046875,-41.015625,-40.52734375,-35.15625,-20.99609375,-103.515625,0.0
392.80859375,-44.43359375,-49.31640625,-47.8515625,-25.87890625,-66.40625,0.0
392.8125,-44.921875,-39.0625,-46.38671875,-23.92578125,-15.13671875,0.0
392.81640625,-46.38671875,-31.73828125,-38.0859375,-14.16015625,-13.671875,0.0
392.8203125,-48.828125,-32.2265625,-37.59765625,-14.16015625,-8.30078125,0.0
392.82421875,-51.7578125,-34.66796875,-36.1328125,-25.87890625,-19.04296875,0.0
392.828125,-48.33984375,-34.1796875,-32.71484375,-20.99609375,-96.6796875,0.0
392.83203125,-58.59375,-41.50390625,-37.109375,-31.73828125,-73.2421875,0.0
392.8359375,-65.91796875,-40.52734375,-39.0625,-41.015625,20.5078125,0.0
392.83984375,-53.22265625,-33.203125,-22.94921875,-26.3671875,-20.99609375,0.0
392.84375,-42.96875,-34.1796875,-22.4609375,-23.4375,-55.17578125,0.0
392.84765625,-46.875,-38.0859375,-37.109375,-34.1796875,-68.359375,0.0
392.8515625,-52.734375,-36.62109375,-37.59765625,-35.15625,-132.8125,0.0
392.85546875,-42.48046875,-36.1328125,-23.4375,-17.08984375,-116.69921875,0.0
392.859375,-39.55078125,-40.52734375,-27.83203125,-16.6015625,-86.9140625,0.0
392.86328125,-39.55078125,-38.0859375,-37.59765625,-39.0625,-67.87109375,0.0
392.8671875,-50.29296875,-41.015625,-36.1328125,-19.04296875,-26.85546875,0.0
392.87109375,-54.6875,-41.50390625,-36.1328125,-14.16015625,46.875,0.0
392.875,-42.96875,-37.59765625,-35.64453125,-32.71484375,75.68359375,0.0
392.87890625,-32.71484375,-32.71484375,-31.73828125,-16.11328125,-24.4140625,0.0
392.8828125,-26.85546875,-28.80859375,-29.296875,-15.13671875,-19.04296875,0.0
392.88671875,-30.2734375,-24.4140625,-34.1796875,-25.390625,-48.828125,0.0
392.890625,-39.55078125,-26.3671875,-34.66796875,-22.4609375,-147.4609375,0.0
392.89453125,-45.8984375,-37.109375,-33.69140625,-20.99609375,-130.37109375,0.0
392.8984375,-41.50390625,-37.109375,-30.76171875,-6.8359375,-102.5390625,0.0
392.90234375,-44.921875,-32.2265625,-12.6953125,-8.30078125,-54.19921875,0.0
392.90625,-59.5703125,-35.15625,-10.7421875,-23.4375,-34.66796875,0.0
392.91015625,-68.84765625,-39.0625,-21.97265625,-26.3671875,17.578125,0.0
392.9140625,-75.1953125,-36.62109375,-22.4609375,-26.3671875,4.8828125,0.0
392.91796875,-70.3125,-32.71484375,-20.01953125,-19.53125,-69.82421875,0.0
392.921875,-63.96484375,-34.66796875,-19.04296875,-17.08984375,-7.32421875,0.0
392.92578125,-53.22265625,-36.1328125,-18.5546875,-23.4375,66.89453125,0.0
392.9296875,-51.26953125,-37.109375,-26.3671875,-31.25,52.24609375,0.0
392.93359375,-55.17578125,-36.1328125,-33.69140625,-28.80859375,14.16015625,0.0
392.9375,-48.828125,-31.73828125,-30.76171875,-22.4609375,29.78515625,0.0
392.94140625,-37.109375,-34.66796875,-24.4140625,-28.80859375,58.59375,0.0
392.9453125,-33.69140625,-37.109375,-25.390625,-21.484375,60.546875,0.0
392.94921875,-47.36328125,-38.57421875,-29.78515625,-22.4609375,48.33984375,0.0
392.953125,-45.8984375,-36.62109375,-36.1328125,-32.2265625,51.26953125,0.0
392.95703125,-30.2734375,-30.76171875,-36.1328125,-18.5546875,53.22265625,0.0
392.9609375,-31.25,-32.71484375,-29.78515625,-22.4609375,22.94921875,0.0
392.96484375,-36.1328125,-37.109375,-36.1328125,-26.3671875,-53.22265625,0.0
392.96875,-41.9921875,-44.43359375,-49.31640625,-33.203125,-79.1015625,0.0
392.97265625,-45.8984375,-45.8984375,-48.33984375,-39.0625,3.41796875,0.0
392.9765625,-40.52734375,-35.15625,-42.48046875,-33.203125,-5.37109375,0.0
392.98046875,-40.0390625,-32.71484375,-38.0859375,-30.2734375,-38.0859375,0.0
392.984375,-39.55078125,-25.87890625,-40.0390625,-30.2734375,-86.9140625,0.0
392.98828125,-41.015625,-34.1796875,-40.52734375,-33.203125,-118.1640625,0.0
392.9921875,-46.875,-36.62109375,-32.71484375,-28.3203125,-10.25390625,0.0
392.99609375,-38.57421875,-27.83203125,-32.2265625,-24.4140625,99.609375,0.0
393.0,-30.76171875,-31.25,-34.1796875,-24.90234375,82.51953125,0.0
393.00390625,-26.85546875,-27.83203125,-31.25,-27.83203125,15.13671875,0.0
393.0078125,-33.203125,-33.203125,-31.73828125,-32.2265625,10.25390625,0.0
393.01171875,-45.8984375,-30.76171875,-38.0859375,-39.0625,9.765625,0.0
393.015625,-47.8515625,-30.76171875,-39.55078125,-40.0390625,-57.12890625,0.0
393.01953125,-36.1328125,-27.83203125,-35.15625,-33.203125,-107.91015625,0.0
393.0234375,-33.69140625,-29.296875,-37.59765625,-28.3203125,-115.72265625,0.0
393.02734375,-37.109375,-33.69140625,-37.109375,-23.4375,-104.00390625,0.0
393.03125,-51.7578125,-50.78125,-50.29296875,-45.8984375,-59.08203125,0.0
393.03515625,-56.15234375,-41.015625,-46.875,-54.19921875,15.625,0.0
393.0390625,-41.015625,-28.3203125,-28.3203125,-27.83203125,50.78125,0.0
393.04296875,-35.64453125,-39.55078125,-40.0390625,-37.59765625,54.19921875,0.0
393.046875,-41.015625,-39.55078125,-43.9453125,-59.08203125,106.4453125,0.0
393.05078125,-30.2734375,-35.15625,-36.1328125,-40.0390625,52.24609375,0.0
393.0546875,-13.671875,-19.53125,-26.85546875,-12.20703125,-51.7578125,0.0
393.05859375,-40.52734375,-38.0859375,-40.0390625,-51.7578125,-48.828125,0.0
393.0625,-33.203125,-42.48046875,-42.96875,-56.15234375,-28.80859375,0.0
393.06640625,-19.53125,-26.3671875,-29.78515625,-32.2265625,-44.43359375,0.0
393.0703125,-33.203125,-20.5078125,-28.80859375,-43.45703125,-41.015625,0.0
393.07421875,-35.64453125,-20.01953125,-30.2734375,-48.33984375,10.25390625,0.0
393.078125,-22.4609375,-21.97265625,-32.2265625,-52.24609375,-18.5546875,0.0
393.08203125,-21.484375,-20.01953125,-31.73828125,-51.7578125,-42.96875,0.0
393.0859375,-34.1796875,-15.13671875,-26.85546875,-51.7578125,2.9296875,0.0
393.08984375,-59.5703125,-39.55078125,-56.640625,-80.078125,-24.4140625,0.0
393.09375,-50.29296875,-42.96875,-56.640625,-78.125,-38.0859375,0.0
393.09765625,-14.6484375,-20.01953125,-12.20703125,-36.62109375,-9.27734375,0.0
393.1015625,-31.73828125,-9.765625,-22.4609375,-50.78125,-57.12890625,0.0
393.10546875,-50.29296875,-24.4140625,-45.41015625,-52.24609375,-83.0078125,0.0
393.109375,-35.15625,-52.734375,-31.73828125,-28.3203125,-74.70703125,0.0
393.11328125,-40.0390625,-45.8984375,-23.4375,-41.50390625,-75.1953125,0.0
393.1171875,-61.03515625,-23.4375,-40.52734375,-43.45703125,-72.265625,0.0
393.12109375,-63.96484375,19.04296875,-48.828125,-58.59375,-23.4375,0.0
393.125,-53.22265625,7.32421875,-43.9453125,-66.40625,-4.8828125,0.0
393.12890625,-30.2734375,-17.08984375,-41.9921875,-45.8984375,-41.9921875,0.0
393.1328125,-49.31640625,-22.94921875,-56.640625,-43.45703125,-54.6875,0.0
393.13671875,-73.73046875,-15.13671875,-61.5234375,-58.59375,-80.56640625,0.0
393.140625,-45.8984375,38.0859375,-37.59765625,-48.33984375,-32.2265625,0.0
393.14453125,-31.25,52.24609375,-25.87890625,-35.15625,-20.01953125,0.0
393.1484375,-38.0859375,73.73046875,-22.94921875,-61.03515625,-0.48828125,0.0
393.15234375,-43.45703125,103.515625,-40.0390625,-60.546875,19.53125,0.0
393.15625,-48.828125,97.65625,-53.22265625,-54.6875,-64.453125,0.0
393.16015625,-46.875,154.296875,-28.3203125,-86.42578125,-85.44921875,0.0
393.1640625,-82.03125,169.43359375,-63.96484375,-138.671875,-71.77734375,0.0
393.16796875,-69.82421875,132.8125,-74.70703125,-126.46484375,-50.78125,0.0
393.171875,-18.5546875,171.38671875,-37.109375,-70.3125,-40.0390625,0.0
393.17578125,-36.62109375,236.328125,-82.51953125,-95.21484375,-38.0859375,0.0
393.1796875,-56.640625,265.13671875,-95.703125,-118.65234375,-0.9765625,0.0
393.18359375,-49.31640625,297.8515625,-79.1015625,-108.3984375,-40.52734375,0.0
393.1875,-45.8984375,358.88671875,-38.57421875,-120.60546875,-79.1015625,0.0
393.19140625,-29.296875,467.7734375,29.296875,-98.14453125,-53.7109375,0.0
393.1953125,-31.25,549.8046875,-7.8125,-86.9140625,1.953125,0.0
393.19921875,-32.71484375,531.25,-50.78125,-76.66015625,5.859375,0.0
393.203125,-20.5078125,616.69921875,-83.49609375,-77.63671875,14.16015625,0.0
393.20703125,-50.29296875,764.6484375,-89.84375,-110.3515625,-33.69140625,0.0
393.2109375,-28.3203125,891.11328125,-31.73828125,-95.703125,-64.94140625,0.0
393.21484375,-33.69140625,970.703125,-43.9453125,-104.4921875,-2.44140625,0.0
393.21875,-56.15234375,965.33203125,-56.640625,-145.01953125,-5.37109375,0.0
393.22265625,-17.08984375,966.796875,59.08203125,-120.1171875,-77.63671875,0.0
393.2265625,-19.04296875,968.26171875,58.10546875,-118.1640625,-86.42578125,0.0
393.23046875,-99.609375,968.26171875,-6.34765625,-210.9375,-130.37109375,0.0
393.234375,-129.39453125,967.7734375,114.2578125,-229.98046875,-129.39453125,0.0
393.23828125,-95.21484375,967.7734375,223.6328125,-166.9921875,-111.328125,0.0
393.2421875,-107.91015625,968.26171875,214.84375,-156.25,-84.47265625,0.0
393.24609375,-110.3515625,968.26171875,202.1484375,-172.36328125,6.8359375,0.0
393.25,-94.7265625,967.7734375,237.79296875,-177.24609375,-22.4609375,0.0
393.25390625,-83.0078125,967.7734375,273.4375,-173.33984375,-64.94140625,0.0
393.2578125,-94.23828125,967.7734375,330.56640625,-186.5234375,-56.640625,0.0
393.26171875,-122.0703125,967.7734375,430.6640625,-229.4921875,-86.42578125,0.0
393.265625,-78.61328125,968.26171875,469.23828125,-184.5703125,-68.84765625,0.0
393.26953125,-101.5625,967.7734375,459.9609375,-186.5234375,-53.22265625,0.0
393.2734375,-61.03515625,967.7734375,580.56640625,-161.62109375,-101.5625,0.0
393.27734375,-21.484375,968.26171875,573.2421875,-112.79296875,-213.37890625,0.0
393.28125,-87.40234375,967.7734375,518.5546875,-186.5234375,-224.609375,0.0
393.28515625,-118.1640625,968.26171875,636.71875,-229.4921875,-94.7265625,0.0
393.2890625,-90.8203125,967.7734375,807.12890625,-199.21875,-55.6640625,0.0
393.29296875,-63.4765625,967.7734375,956.54296875,-155.2734375,-60.546875,0.0
393.296875,-90.33203125,968.26171875,967.7734375,-172.36328125,2.9296875,0.0
393.30078125,-79.1015625,967.7734375,964.35546875,-169.43359375,-37.59765625,0.0
393.3046875,-83.984375,968.26171875,968.75,-185.546875,-36.1328125,0.0
393.30859375,-115.72265625,968.26171875,968.26171875,-206.0546875,78.61328125,0.0
393.3125,-111.81640625,967.7734375,967.7734375,-193.359375,90.33203125,0.0
393.31640625,-96.19140625,968.26171875,967.7734375,-178.22265625,20.01953125,0.0
393.3203125,-137.20703125,968.26171875,968.26171875,-211.9140625,15.13671875,0.0
393.32421875,-145.99609375,967.28515625,967.7734375,-214.84375,-26.85546875,0.0
393.328125,-76.66015625,965.33203125,967.7734375,-135.7421875,-44.43359375,0.0
393.33203125,-110.3515625,975.5859375,967.7734375,-135.25390625,-24.90234375,0.0
393.3359375,-191.40625,896.97265625,967.7734375,-186.5234375,3.41796875,0.0
393.33984375,-146.484375,837.40234375,968.26171875,-145.99609375,51.26953125,0.0
393.34375,-95.703125,757.8125,967.7734375,-103.515625,21.97265625,0.0
393.34765625,-127.9296875,606.93359375,967.7734375,-136.23046875,-9.27734375,0.0
393.3515625,-141.11328125,555.6640625,967.7734375,-133.7890625,-40.52734375,0.0
393.35546875,-139.16015625,505.37109375,967.7734375,-137.20703125,-61.03515625,0.0
393.359375,-97.65625,449.21875,967.7734375,-107.91015625,-24.4140625,0.0
393.36328125,-75.68359375,378.90625,967.7734375,-94.23828125,-37.59765625,0.0
393.3671875,-104.4921875,306.15234375,968.26171875,-102.05078125,-43.9453125,0.0
393.37109375,-120.1171875,253.90625,968.26171875,-99.609375,16.11328125,0.0
393.375,-115.234375,203.125,967.7734375,-99.609375,29.296875,0.0
393.37890625,-89.35546875,148.4375,968.26171875,-76.171875,-58.10546875,0.0
393.3828125,-82.03125,92.28515625,967.7734375,-62.01171875,-119.140625,0.0
393.38671875,-89.84375,21.484375,967.7734375,-78.125,-60.05859375,0.0
393.390625,-80.078125,-60.05859375,968.75,-62.98828125,-5.37109375,0.0
393.39453125,-76.171875,-138.671875,965.33203125,-45.8984375,-2.9296875,0.0
393.3984375,-57.12890625,-227.05078125,965.8203125,-46.38671875,-16.11328125,0.0
393.40234375,-57.6171875,-355.95703125,963.37890625,-53.7109375,-81.54296875,0.0
393.40625,-82.51953125,-500.48828125,824.21875,-64.94140625,-35.15625,0.0
393.41015625,-79.1015625,-614.2578125,596.6796875,-61.03515625,51.26953125,0.0
393.4140625,-72.265625,-681.15234375,396.484375,-45.8984375,-26.3671875,0.0
393.41796875,-29.296875,-687.5,247.55859375,-9.27734375,-144.04296875,0.0
393.421875,-9.765625,-735.3515625,78.125,8.7890625,-95.21484375,0.0
393.42578125,-29.296875,-799.31640625,-132.32421875,5.859375,34.1796875,0.0
393.4296875,-45.41015625,-838.8671875,-275.390625,-12.20703125,-3.90625,0.0
393.43359375,-28.80859375,-851.5625,-445.3125,6.8359375,-36.62109375,0.0
393.4375,-0.9765625,-824.70703125,-626.953125,51.7578125,-39.0625,0.0
393.44140625,16.6015625,-796.38671875,-754.8828125,55.17578125,24.90234375,0.0
393.4453125,28.3203125,-774.90234375,-866.69921875,68.359375,77.63671875,0.0
393.44921875,28.3203125,-761.23046875,-960.44921875,61.03515625,-68.84765625,0.0
393.453125,10.7421875,-770.01953125,-1000.0,34.1796875,-199.21875,0.0
393.45703125,-4.8828125,-785.64453125,-998.53515625,34.1796875,-212.40234375,0.0
393.4609375,20.01953125,-772.4609375,-1000.0,54.6875,-208.49609375,0.0
393.46484375,62.98828125,-728.515625,-1000.0,75.1953125,-138.18359375,0.0
393.46875,66.89453125,-698.2421875,-1000.0,87.40234375,-69.3359375,0.0
393.47265625,55.17578125,-690.91796875,-1000.0,96.19140625,-101.07421875,0.0
393.4765625,54.6875,-686.5234375,-1000.0,69.3359375,-99.609375,0.0
393.48046875,31.73828125,-693.359375,-1000.0,32.2265625,-8.7890625,0.0
393.484375,39.0625,-665.0390625,-1000.0,51.7578125,-38.57421875,0.0
393.48828125,60.546875,-628.41796875,-1000.0,66.89453125,-60.546875,0.0
393.4921875,40.52734375,-617.67578125,-1000.0,38.0859375,34.1796875,0.0
393.49609375,20.5078125,-601.5625,-1000.0,23.4375,-25.390625,0.0
393.5,19.53125,-579.58984375,-1000.0,25.87890625,-18.06640625,0.0
393.50390625,-12.6953125,-585.44921875,-1000.0,-12.6953125,30.76171875,0.0
393.5078125,-16.6015625,-563.96484375,-1000.0,-12.6953125,65.91796875,0.0
393.51171875,54.19921875,-484.375,-1000.0,80.078125,90.8203125,0.0
393.515625,17.578125,-494.62890625,-999.51171875,64.453125,37.59765625,0.0
393.51953125,-29.78515625,-521.97265625,-1000.0,5.859375,-51.7578125,0.0
393.5234375,-12.6953125,-500.48828125,-993.65234375,14.6484375,-50.29296875,0.0
393.52734375,-8.30078125,-480.46875,-944.3359375,32.2265625,28.3203125,0.0
393.53125,-37.59765625,-495.60546875,-894.04296875,-7.32421875,6.8359375,0.0
393.53515625,-51.26953125,-483.88671875,-831.0546875,-6.8359375,-20.99609375,0.0
393.5390625,-24.4140625,-446.77734375,-805.6640625,24.4140625,-0.9765625,0.0
393.54296875,4.8828125,-418.45703125,-812.98828125,33.203125,-36.62109375,0.0
393.546875,11.23046875,-413.0859375,-769.53125,37.109375,-95.703125,0.0
393.55078125,-33.203125,-410.64453125,-740.72265625,13.671875,-12.20703125,0.0
393.5546875,-56.640625,-397.94921875,-714.84375,14.16015625,35.64453125,0.0
393.55859375,-4.39453125,-391.6015625,-655.2734375,25.87890625,-16.11328125,0.0
393.5625,0.9765625,-381.34765625,-616.69921875,11.23046875,25.390625,0.0
393.56640625,-28.80859375,-388.18359375,-635.7421875,-33.69140625,8.7890625,0.0
393.5703125,-16.6015625,-371.58203125,-576.171875,-24.90234375,4.39453125,0.0
393.57421875,10.7421875,-331.0546875,-496.58203125,6.8359375,75.1953125,0.0
393.578125,-3.41796875,-329.58984375,-523.92578125,-6.34765625,107.421875,0.0
393.58203125,-35.64453125,-350.5859375,-524.90234375,-7.8125,31.73828125,0.0
393.5859375,-54.6875,-335.9375,-464.35546875,-5.859375,-85.44921875,0.0
393.58984375,-37.109375,-323.2421875,-426.7578125,-16.6015625,-114.74609375,0.0
393.59375,-11.71875,-321.77734375,-395.5078125,-11.23046875,-46.875,0.0
393.59765625,-11.71875,-300.78125,-349.609375,21.484375,-18.5546875,0.0
393.6015625,-12.6953125,-304.19921875,-337.40234375,2.9296875,13.671875,0.0
393.60546875,24.90234375,-263.18359375,-294.921875,19.04296875,7.8125,0.0
393.609375,20.01953125,-260.25390625,-272.4609375,36.1328125,-114.2578125,0.0
393.61328125,13.18359375,-288.57421875,-300.78125,9.27734375,-141.11328125,0.0
393.6171875,-5.859375,-278.80859375,-274.4140625,1.46484375,-114.2578125,0.0
393.62109375,-6.8359375,-272.4609375,-252.9296875,8.30078125,-88.37890625,0.0
393.625,16.11328125,-254.39453125,-268.06640625,4.8828125,-65.91796875,0.0
393.62890625,-10.25390625,-268.06640625,-289.0625,-39.0625,6.8359375,0.0
393.6328125,-10.7421875,-257.8125,-286.62109375,-46.875,46.875,0.0
393.63671875,20.01953125,-220.703125,-239.74609375,-23.92578125,8.30078125,0.0
393.640625,-0.9765625,-224.609375,-224.12109375,-44.921875,-14.6484375,0.0
393.64453125,-25.87890625,-229.00390625,-236.328125,-65.4296875,-45.41015625,0.0
393.6484375,-23.92578125,-218.75,-230.46875,-66.89453125,-5.859375,0.0
393.65234375,-31.25,-216.796875,-223.6328125,-85.44921875,8.7890625,0.0
393.65625,-38.57421875,-212.40234375,-228.515625,-104.00390625,-47.8515625,0.0
393.66015625,-65.4296875,-211.42578125,-230.95703125,-112.79296875,-77.1484375,0.0
393.6640625,-61.03515625,-195.80078125,-229.00390625,-89.35546875,-44.921875,0.0
393.66796875,-47.36328125,-183.10546875,-214.84375,-77.1484375,-4.8828125,0.0
393.671875,-72.75390625,-191.89453125,-217.28515625,-98.14453125,-51.26953125,0.0
393.67578125,-73.2421875,-187.5,-220.21484375,-95.21484375,-46.38671875,0.0
393.6796875,-67.3828125,-171.875,-216.796875,-112.3046875,41.50390625,0.0
393.68359375,-79.58984375,-164.0625,-223.14453125,-138.18359375,23.4375,0.0
393.6875,-87.40234375,-166.50390625,-216.796875,-123.53515625,-38.57421875,0.0
393.69140625,-67.87109375,-146.97265625,-198.73046875,-88.8671875,-69.82421875,0.0
393.6953125,-74.70703125,-154.296875,-205.078125,-104.00390625,-166.50390625,0.0
393.69921875,-92.7734375,-176.7578125,-210.9375,-114.74609375,-198.2421875,0.0
393.703125,-80.078125,-167.48046875,-213.37890625,-108.3984375,-104.98046875,0.0
393.70703125,-68.359375,-167.48046875,-230.95703125,-96.19140625,-114.2578125,0.0
393.7109375,-88.8671875,-189.94140625,-253.90625,-84.47265625,-75.68359375,0.0
393.71484375,-63.96484375,-165.52734375,-241.2109375,-62.01171875,-33.203125,0.0
393.71875,-25.390625,-158.203125,-242.67578125,-39.55078125,-80.078125,0.0
393.72265625,-47.8515625,-185.05859375,-274.4140625,-28.3203125,-31.73828125,0.0
393.7265625,-41.9921875,-181.15234375,-276.85546875,-30.2734375,-43.45703125,0.0
393.73046875,-22.94921875,-177.734375,-269.53125,-18.06640625,-54.19921875,0.0
393.734375,-31.73828125,-191.89453125,-276.85546875,1.953125,-28.3203125,0.0
393.73828125,-24.90234375,-198.73046875,-286.1328125,3.90625,21.484375,0.0
393.7421875,-5.37109375,-196.77734375,-286.1328125,14.6484375,-17.578125,0.0
393.74609375,-7.8125,-200.1953125,-284.1796875,18.5546875,-6.8359375,0.0
393.75,-2.9296875,-203.125,-277.83203125,33.203125,87.890625,0.0
393.75390625,9.27734375,-206.0546875,-270.01953125,40.0390625,-14.6484375,0.0
393.7578125,0.0,-209.9609375,-267.578125,44.43359375,-138.18359375,0.0
393.76171875,6.8359375,-210.9375,-266.11328125,54.19921875,-107.421875,0.0
393.765625,11.71875,-205.56640625,-252.9296875,68.359375,-30.2734375,0.0
393.76953125,-1.46484375,-210.44921875,-243.65234375,63.4765625,-82.03125,0.0
393.7734375,6.34765625,-213.37890625,-236.328125,65.91796875,-167.48046875,0.0
393.77734375,21.97265625,-208.0078125,-225.09765625,75.68359375,-108.3984375,0.0
393.78125,34.66796875,-203.125,-212.40234375,86.42578125,-64.453125,0.0
393.78515625,41.50390625,-192.3828125,-196.2890625,113.28125,-47.8515625,0.0
393.7890625,22.4609375,-199.21875,-198.2421875,112.3046875,35.15625,0.0
393.79296875,12.6953125,-208.984375,-198.2421875,96.19140625,40.0390625,0.0
393.796875,8.30078125,-208.984375,-190.4296875,79.1015625,34.66796875,0.0
393.80078125,8.30078125,-206.0546875,-190.4296875,78.125,6.34765625,0.0
393.8046875,2.44140625,-204.58984375,-193.359375,79.58984375,10.25390625,0.0
393.80859375,0.0,-199.70703125,-190.91796875,79.1015625,-90.8203125,0.0
393.8125,12.20703125,-189.94140625,-178.22265625,80.078125,-175.29296875,0.0
393.81640625,3.90625,-189.94140625,-171.875,71.2890625,-154.296875,0.0
393.8203125,-3.90625,-191.89453125,-174.8046875,50.78125,-174.31640625,0.0
393.82421875,26.3671875,-179.19921875,-160.64453125,65.4296875,-91.796875,0.0
393.828125,19.53125,-182.12890625,-155.2734375,76.171875,-24.90234375,0.0
393.83203125,6.34765625,-189.453125,-162.109375,62.01171875,31.73828125,0.0
393.8359375,13.18359375,-183.59375,-152.34375,62.5,18.06640625,0.0
393.83984375,10.25390625,-177.24609375,-145.5078125,68.84765625,20.5078125,0.0
393.84375,6.8359375,-173.828125,-149.4140625,71.77734375,-26.85546875,0.0
393.84765625,2.44140625,-177.734375,-149.4140625,69.3359375,-53.7109375,0.0
393.8515625,7.32421875,-174.8046875,-150.87890625,59.08203125,103.02734375,0.0
393.85546875,0.9765625,-169.921875,-149.4140625,71.77734375,48.33984375,0.0
393.859375,1.46484375,-166.50390625,-142.578125,88.8671875,-45.41015625,0.0
393.86328125,7.8125,-164.0625,-142.08984375,94.7265625,-16.6015625,0.0
393.8671875,7.32421875,-160.64453125,-138.18359375,119.140625,-41.9921875,0.0
393.87109375,10.25390625,-156.25,-132.32421875,145.99609375,-60.05859375,0.0
393.875,-0.48828125,-158.69140625,-127.9296875,152.34375,-53.22265625,0.0
393.87890625,-4.39453125,-157.71484375,-131.8359375,159.1796875,-59.08203125,0.0
393.8828125,-0.48828125,-160.64453125,-128.41796875,178.22265625,-38.57421875,0.0
393.88671875,-13.671875,-168.9453125,-123.046875,182.12890625,-26.85546875,0.0
393.890625,-29.296875,-172.8515625,-126.953125,169.43359375,-3.41796875,0.0
393.89453125,-30.2734375,-169.921875,-124.51171875,156.73828125,55.17578125,0.0
393.8984375,-30.2734375,-166.9921875,-120.1171875,138.18359375,46.875,0.0
393.90234375,-28.3203125,-161.62109375,-112.3046875,110.83984375,53.7109375,0.0
393.90625,-28.3203125,-162.59765625,-111.328125,97.65625,29.296875,0.0
393.91015625,-39.0625,-163.57421875,-107.421875,88.8671875,-54.6875,0.0
393.9140625,-39.55078125,-153.80859375,-96.19140625,73.73046875,-76.66015625,0.0
393.91796875,-25.390625,-145.99609375,-93.26171875,63.96484375,-73.73046875,0.0
393.921875,-38.57421875,-148.4375,-98.6328125,60.05859375,-60.05859375,0.0
393.92578125,-40.0390625,-154.296875,-94.7265625,60.05859375,-41.015625,0.0
393.9296875,-17.08984375,-146.97265625,-87.40234375,44.43359375,-71.2890625,0.0
393.93359375,-24.90234375,-141.11328125,-85.44921875,42.48046875,-70.80078125,0.0
393.9375,-36.1328125,-143.06640625,-85.44921875,50.29296875,-71.77734375,0.0
393.94140625,-52.734375,-142.08984375,-86.9140625,31.73828125,-62.01171875,0.0
393.9453125,-45.8984375,-143.06640625,-90.33203125,21.484375,-45.8984375,0.0
393.94921875,-16.6015625,-143.06640625,-94.23828125,47.36328125,-186.5234375,0.0
393.953125,-13.671875,-130.37109375,-82.51953125,65.4296875,-173.828125,0.0
393.95703125,-42.48046875,-128.90625,-76.66015625,48.828125,-51.7578125,0.0
393.9609375,-56.15234375,-128.41796875,-82.51953125,40.0390625,12.6953125,0.0
393.96484375,-50.78125,-125.0,-85.44921875,37.59765625,25.390625,0.0
393.96875,-52.734375,-127.44140625,-77.63671875,43.45703125,-32.71484375,0.0
393.97265625,-40.52734375,-125.48828125,-72.265625,43.45703125,6.34765625,0.0
393.9765625,-38.0859375,-121.58203125,-76.171875,34.1796875,42.48046875,0.0
393.98046875,-32.2265625,-115.72265625,-79.58984375,47.36328125,31.25,0.0
393.984375,-37.109375,-116.69921875,-81.54296875,45.41015625,-42.48046875,0.0
393.98828125,-44.43359375,-119.140625,-78.125,40.0390625,-78.125,0.0
393.9921875,-34.1796875,-110.3515625,-70.3125,44.43359375,-62.01171875,0.0
393.99609375,-37.59765625,-104.00390625,-63.96484375,45.41015625,-62.5,0.0
394.0,-42.48046875,-107.421875,-67.87109375,52.24609375,3.90625,0.0
394.00390625,-40.52734375,-109.375,-71.77734375,59.08203125,-35.15625,0.0
394.0078125,-41.015625,-109.86328125,-74.21875,61.03515625,-68.84765625,0.0
394.01171875,-25.87890625,-98.6328125,-62.5,69.3359375,15.13671875,0.0
394.015625,-24.4140625,-92.28515625,-56.15234375,58.10546875,23.4375,0.0
394.01953125,-33.203125,-97.65625,-62.5,50.78125,26.85546875,0.0
394.0234375,-35.15625,-102.05078125,-63.96484375,56.640625,0.48828125,0.0
394.02734375,-43.45703125,-108.3984375,-73.73046875,40.0390625,-22.4609375,0.0
394.03125,-43.45703125,-106.4453125,-71.2890625,24.90234375,-12.20703125,0.0
394.03515625,-34.66796875,-107.91015625,-64.453125,30.76171875,-38.0859375,0.0
394.0390625,-26.85546875,-103.02734375,-57.6171875,39.0625,-12.20703125,0.0
394.04296875,-38.0859375,-97.16796875,-58.59375,26.85546875,40.0390625,0.0
394.046875,-37.109375,-97.16796875,-72.265625,17.08984375,-29.296875,0.0
394.05078125,-34.1796875,-97.65625,-74.70703125,7.8125,-150.390625,0.0
394.0546875,-33.203125,-93.75,-66.40625,23.92578125,-108.88671875,0.0
394.05859375,24.90234375,-44.921875,-18.5546875,88.8671875,-64.453125,0.0
394.0625,35.64453125,-39.55078125,-12.20703125,82.03125,-35.64453125,0.0
394.06640625,-28.3203125,-87.890625,-60.05859375,19.53125,19.53125,0.0
394.0703125,-41.50390625,-94.23828125,-70.80078125,20.5078125,-18.06640625,0.0
394.07421875,-33.69140625,-94.23828125,-67.87109375,23.92578125,-50.78125,0.0
394.078125,-40.0390625,-93.26171875,-68.84765625,28.80859375,0.9765625,0.0
394.08203125,-43.45703125,-89.84375,-68.359375,26.3671875,46.38671875,0.0
394.0859375,-34.1796875,-85.9375,-61.03515625,23.92578125,48.828125,0.0
394.08984375,-31.25,-83.0078125,-61.5234375,27.34375,-0.48828125,0.0
394.09375,-40.52734375,-85.9375,-61.5234375,16.11328125,-21.97265625,0.0
394.09765625,-28.80859375,-88.8671875,-56.640625,28.3203125,-53.22265625,0.0
394.1015625,-31.25,-89.35546875,-54.19921875,33.69140625,-71.77734375,0.0
394.10546875,-50.78125,-91.30859375,-58.59375,9.765625,-99.609375,0.0
394.109375,-48.828125,-96.19140625,-63.96484375,10.25390625,-170.8984375,0.0
394.11328125,-37.109375,-86.9140625,-54.6875,21.97265625,-137.6953125,0.0
394.1171875,-31.73828125,-78.125,-45.8984375,25.390625,-36.62109375,0.0
394.12109375,-39.0625,-85.44921875,-51.7578125,18.5546875,-50.78125,0.0
394.125,-36.62109375,-85.44921875,-51.7578125,10.25390625,-104.4921875,0.0
394.12890625,-25.87890625,-81.54296875,-50.29296875,15.13671875,-62.98828125,0.0
394.1328125,-4.8828125,-62.5,-31.73828125,43.9453125,-94.23828125,0.0
394.13671875,-18.06640625,-58.59375,-31.25,43.45703125,-70.80078125,0.0
394.140625,-49.31640625,-85.44921875,-58.10546875,19.53125,-13.18359375,0.0
394.14453125,-38.57421875,-85.9375,-52.24609375,23.92578125,-56.15234375,0.0
394.1484375,-17.08984375,-71.2890625,-39.0625,27.83203125,-54.19921875,0.0
394.15234375,-26.85546875,-80.078125,-48.828125,17.08984375,-57.12890625,0.0
394.15625,-33.69140625,-83.984375,-50.29296875,18.5546875,-32.71484375,0.0
394.16015625,-32.2265625,-76.171875,-42.96875,22.94921875,-50.78125,0.0
394.1640625,-47.8515625,-82.51953125,-56.15234375,14.6484375,-16.6015625,0.0
394.16796875,-50.29296875,-86.9140625,-64.94140625,4.8828125,62.5,0.0
394.171875,-33.69140625,-81.0546875,-51.26953125,16.6015625,46.875,0.0
394.17578125,-30.2734375,-76.171875,-50.78125,20.01953125,20.5078125,0.0
394.1796875,-28.3203125,-77.1484375,-58.10546875,18.06640625,73.73046875,0.0
394.18359375,-34.66796875,-79.1015625,-55.6640625,19.04296875,103.515625,0.0
394.1875,-50.29296875,-79.58984375,-53.22265625,3.41796875,66.89453125,0.0
394.19140625,-42.48046875,-77.63671875,-50.78125,11.71875,59.5703125,0.0
394.1953125,-30.76171875,-69.3359375,-48.33984375,32.71484375,-18.06640625,0.0
394.19921875,-32.71484375,-67.3828125,-52.24609375,40.0390625,-54.19921875,0.0
394.203125,-39.55078125,-70.80078125,-52.24609375,44.43359375,-13.671875,0.0
394.20703125,-49.8046875,-76.171875,-52.24609375,48.33984375,-41.50390625,0.0
394.2109375,-54.6875,-79.1015625,-54.19921875,41.9921875,-89.84375,0.0
394.21484375,-45.8984375,-76.171875,-59.5703125,34.1796875,-71.77734375,0.0
394.21875,-42.48046875,-70.80078125,-77.1484375,42.48046875,-62.5,0.0
394.22265625,-43.9453125,-69.82421875,-84.47265625,43.9453125,-12.6953125,0.0
394.2265625,-44.43359375,-68.84765625,-82.03125,51.7578125,-65.4296875,0.0
394.23046875,-40.52734375,-69.82421875,-80.56640625,49.8046875,-110.3515625,0.0
394.234375,-39.55078125,-73.2421875,-82.03125,33.203125,-12.20703125,0.0
394.23828125,-51.26953125,-77.63671875,-84.9609375,30.2734375,-7.8125,0.0
394.2421875,-44.43359375,-73.2421875,-83.49609375,34.1796875,-11.71875,0.0
394.24609375,-32.2265625,-68.84765625,-79.1015625,36.1328125,-20.01953125,0.0
394.25,-48.33984375,-77.63671875,-78.125,24.4140625,-79.1015625,0.0
394.25390625,-61.03515625,-83.0078125,-84.47265625,11.71875,-48.828125,0.0
394.2578125,-51.26953125,-78.61328125,-78.125,19.04296875,-77.63671875,0.0
394.26171875,-45.8984375,-75.68359375,-73.73046875,21.97265625,-168.9453125,0.0
394.265625,-47.36328125,-74.70703125,-74.70703125,14.16015625,-145.01953125,0.0
394.26953125,-41.015625,-72.265625,-69.3359375,10.25390625,-109.86328125,0.0
394.2734375,-47.8515625,-76.171875,-69.3359375,7.8125,-149.4140625,0.0
394.27734375,-52.24609375,-76.171875,-76.171875,7.32421875,-203.125,0.0
394.28125,-49.31640625,-67.3828125,-72.75390625,5.859375,-152.83203125,0.0
394.28515625,-50.78125,-71.77734375,-66.40625,9.765625,6.8359375,0.0
394.2890625,-52.24609375,-81.0546875,-65.91796875,6.8359375,99.609375,0.0
394.29296875,-59.08203125,-79.1015625,-68.359375,4.39453125,82.51953125,0.0
394.296875,-27.83203125,-54.19921875,-43.9453125,36.62109375,56.640625,0.0
394.30078125,-23.92578125,-52.734375,-38.0859375,34.1796875,73.73046875,0.0
394.3046875,-51.7578125,-79.1015625,-67.87109375,-11.71875,88.37890625,0.0
394.30859375,-48.33984375,-76.171875,-67.3828125,-10.25390625,14.6484375,0.0
394.3125,-43.45703125,-68.359375,-61.03515625,1.953125,-72.75390625,0.0
394.31640625,-35.64453125,-62.98828125,-57.6171875,0.9765625,-48.828125,0.0
394.3203125,-31.73828125,-64.94140625,-60.05859375,-3.41796875,-1.46484375,0.0
394.32421875,-28.80859375,-63.4765625,-57.12890625,-4.8828125,25.87890625,0.0
394.328125,-21.97265625,-52.24609375,-50.78125,-6.34765625,-5.37109375,0.0
394.33203125,-27.34375,-59.08203125,-57.12890625,-6.8359375,40.0390625,0.0
394.3359375,-28.80859375,-65.91796875,-62.98828125,-14.6484375,83.49609375,0.0
394.33984375,-18.5546875,-53.22265625,-42.48046875,-15.13671875,39.0625,0.0
394.34375,-17.08984375,-42.48046875,-22.4609375,4.39453125,-0.48828125,0.0
394.34765625,-21.97265625,-58.59375,-43.45703125,-10.25390625,38.57421875,0.0
394.3515625,-43.9453125,-76.66015625,-59.5703125,-27.83203125,15.625,0.0
394.35546875,-17.578125,-45.8984375,-30.76171875,9.27734375,-35.15625,0.0
394.359375,8.7890625,-21.97265625,-6.8359375,35.64453125,-19.53125,0.0
394.36328125,-38.57421875,-63.4765625,-46.875,2.44140625,-23.4375,0.0
394.3671875,-54.6875,-77.63671875,-60.546875,-15.13671875,-12.20703125,0.0
394.37109375,-49.8046875,-69.3359375,-53.7109375,-23.4375,39.55078125,0.0
394.375,-44.43359375,-65.91796875,-50.29296875,-9.765625,32.2265625,0.0
394.37890625,-54.6875,-66.40625,-48.33984375,-6.34765625,-104.4921875,0.0
394.3828125,-62.01171875,-71.77734375,-54.19921875,-35.15625,-133.30078125,0.0
394.38671875,-34.66796875,-53.22265625,-31.73828125,-22.4609375,-93.26171875,0.0
394.390625,-21.97265625,-38.57421875,-9.765625,-8.30078125,-87.890625,0.0
394.39453125,-49.8046875,-62.5,-37.59765625,-39.0625,-42.48046875,0.0
394.3984375,-56.640625,-69.3359375,-46.38671875,-38.0859375,53.22265625,0.0
394.40234375,-57.6171875,-68.84765625,-49.8046875,-40.52734375,-40.52734375,0.0
394.40625,-65.4296875,-73.2421875,-55.6640625,-45.41015625,-156.73828125,0.0
394.41015625,-63.4765625,-70.80078125,-59.08203125,-41.9921875,-65.91796875,0.0
394.4140625,-45.8984375,-64.94140625,-60.546875,-38.0859375,-31.25,0.0
394.41796875,-41.9921875,-61.5234375,-53.22265625,-43.45703125,-16.6015625,0.0
394.421875,-47.36328125,-65.4296875,-52.734375,-46.875,59.08203125,0.0
394.42578125,-52.734375,-68.84765625,-53.7109375,-41.015625,30.76171875,0.0
394.4296875,-45.8984375,-61.03515625,-49.31640625,-34.1796875,-19.53125,0.0
394.43359375,-42.48046875,-59.08203125,-42.96875,-32.71484375,-66.89453125,0.0
394.4375,-41.015625,-60.05859375,-42.96875,-31.25,-114.74609375,0.0
394.44140625,-47.36328125,-61.03515625,-47.36328125,-41.015625,-31.73828125,0.0
394.4453125,-54.6875,-66.40625,-47.8515625,-47.36328125,-2.44140625,0.0
394.44921875,-49.31640625,-70.3125,-46.38671875,-39.55078125,-121.58203125,0.0
394.453125,-32.71484375,-71.2890625,-48.33984375,-36.62109375,-103.02734375,0.0
394.45703125,-20.5078125,-64.453125,-50.78125,-41.015625,-13.18359375,0.0
394.4609375,-32.2265625,-65.91796875,-49.8046875,-57.12890625,5.859375,0.0
394.46484375,-49.8046875,-69.3359375,-50.29296875,-70.3125,100.09765625,0.0
394.46875,-51.26953125,-66.40625,-53.7109375,-62.01171875,52.734375,0.0
394.47265625,-43.45703125,-68.84765625,-51.7578125,-50.29296875,-103.02734375,0.0
394.4765625,-20.99609375,-54.19921875,-41.50390625,-42.96875,-111.328125,0.0
394.48046875,-10.7421875,-52.734375,-43.45703125,-46.875,-32.2265625,0.0
394.484375,-20.01953125,-62.5,-50.78125,-47.8515625,-56.640625,0.0
394.48828125,-26.3671875,-63.96484375,-52.24609375,-54.19921875,-99.609375,0.0
394.4921875,12.20703125,-33.69140625,-23.92578125,-22.94921875,-27.34375,0.0
394.49609375,66.89453125,14.6484375,26.3671875,34.66796875,-18.5546875,0.0
394.5,43.9453125,1.46484375,15.13671875,16.6015625,-53.22265625,0.0
394.50390625,-14.16015625,-45.8984375,-38.0859375,-41.50390625,3.41796875,0.0
394.5078125,-27.83203125,-63.4765625,-59.08203125,-67.87109375,71.2890625,0.0
394.51171875,-34.1796875,-72.75390625,-63.96484375,-67.87109375,31.73828125,0.0
394.515625,-50.78125,-83.49609375,-70.80078125,-79.58984375,-13.671875,0.0
394.51953125,-51.7578125,-73.73046875,-59.5703125,-74.70703125,17.08984375,0.0
394.5234375,-32.71484375,-56.640625,-45.8984375,-51.7578125,32.71484375,0.0
394.52734375,-42.96875,-69.3359375,-60.05859375,-66.40625,6.8359375,0.0
394.53125,-53.7109375,-81.54296875,-65.91796875,-71.77734375,-37.109375,0.0
394.53515625,-30.76171875,-62.01171875,-48.33984375,-44.43359375,-119.62890625,0.0
394.5390625,-8.30078125,-46.38671875,-34.1796875,-28.80859375,-123.046875,0.0
394.54296875,-42.48046875,-68.84765625,-51.7578125,-56.640625,-108.88671875,0.0
394.546875,-66.40625,-77.1484375,-60.05859375,-67.87109375,-100.5859375,0.0
394.55078125,-43.45703125,-66.40625,-50.29296875,-51.7578125,-77.1484375,0.0
394.5546875,-41.50390625,-63.4765625,-50.29296875,-55.17578125,12.6953125,0.0
394.55859375,-53.22265625,-72.265625,-61.5234375,-62.98828125,-20.99609375,0.0
394.5625,-52.734375,-72.265625,-64.453125,-56.15234375,-104.00390625,0.0
394.56640625,-48.33984375,-67.3828125,-62.01171875,-50.78125,-43.45703125,0.0
394.5703125,-37.59765625,-64.453125,-56.15234375,-40.52734375,-62.5,0.0
394.57421875,-45.41015625,-63.96484375,-47.8515625,-43.45703125,-41.015625,0.0
394.578125,-43.9453125,-64.94140625,-46.38671875,-47.8515625,38.57421875,0.0
394.58203125,-41.015625,-62.98828125,-47.8515625,-46.38671875,6.34765625,0.0
394.5859375,-51.26953125,-60.05859375,-50.78125,-43.9453125,23.4375,0.0
394.58984375,-51.26953125,-64.453125,-50.78125,-34.66796875,115.234375,0.0
394.59375,-45.41015625,-64.94140625,-45.8984375,-31.25,129.39453125,0.0
394.59765625,-27.34375,-47.8515625,-29.78515625,-18.06640625,111.328125,0.0
394.6015625,-37.59765625,-43.45703125,-28.3203125,-24.90234375,69.82421875,0.0
394.60546875,-57.6171875,-52.24609375,-36.62109375,-41.9921875,-41.9921875,0.0
394.609375,-51.26953125,-50.29296875,-33.203125,-29.78515625,-101.07421875,0.0
394.61328125,-42.96875,-41.9921875,-28.80859375,-25.390625,-61.5234375,0.0
394.6171875,-45.8984375,-47.36328125,-38.0859375,-35.64453125,-20.5078125,0.0
394.62109375,-50.78125,-55.17578125,-46.38671875,-30.2734375,-20.01953125,0.0
394.625,-43.9453125,-48.828125,-41.50390625,-27.34375,-53.22265625,0.0
394.62890625,-38.0859375,-41.50390625,-34.66796875,-26.85546875,-119.140625,0.0
394.6328125,-37.109375,-56.15234375,-40.52734375,-28.80859375,-130.37109375,0.0
394.63671875,-34.1796875,-58.59375,-46.875,-43.9453125,-95.21484375,0.0
394.640625,-41.50390625,-55.6640625,-49.8046875,-43.9453125,-98.6328125,0.0
394.64453125,-46.38671875,-57.12890625,-48.828125,-45.8984375,-74.21875,0.0
394.6484375,-35.64453125,-51.7578125,-42.96875,-52.24609375,25.87890625,0.0
394.65234375,-29.78515625,-45.41015625,-40.52734375,-45.8984375,51.7578125,0.0
394.65625,-35.64453125,-49.8046875,-40.52734375,-32.71484375,-14.16015625,0.0
394.66015625,-41.015625,-54.6875,-39.0625,-25.87890625,-29.78515625,0.0
394.6640625,-41.50390625,-49.31640625,-37.59765625,-25.87890625,-39.0625,0.0
394.66796875,-46.875,-50.78125,-42.48046875,-27.34375,-98.6328125,0.0
394.671875,-45.41015625,-46.38671875,-34.1796875,-19.04296875,-105.46875,0.0
394.67578125,-31.25,-42.48046875,-25.390625,-9.765625,-59.08203125,0.0
394.6796875,-31.25,-46.38671875,-32.71484375,-19.53125,15.625,0.0
394.68359375,-32.2265625,-44.921875,-37.109375,-19.04296875,42.96875,0.0
394.6875,-39.0625,-48.828125,-36.1328125,-21.484375,-0.9765625,0.0
394.69140625,-40.52734375,-51.7578125,-32.71484375,-19.53125,4.39453125,0.0
394.6953125,-32.71484375,-48.828125,-35.15625,-8.7890625,-10.25390625,0.0
394.69921875,-30.2734375,-47.36328125,-42.96875,-12.6953125,8.7890625,0.0
394.703125,-31.25,-51.7578125,-44.43359375,-18.5546875,0.0,0.0
394.70703125,-37.59765625,-53.7109375,-42.96875,-21.97265625,-113.76953125,0.0
394.7109375,-44.921875,-53.7109375,-45.8984375,-20.99609375,-94.7265625,0.0
394.71484375,-41.9921875,-49.8046875,-40.52734375,-19.53125,-41.015625,0.0
394.71875,-40.0390625,-49.8046875,-37.109375,-23.4375,2.9296875,0.0
394.72265625,-31.25,-51.26953125,-40.0390625,-21.484375,30.2734375,0.0
394.7265625,-31.73828125,-49.8046875,-40.0390625,-14.6484375,-2.9296875,0.0
394.73046875,-29.296875,-41.50390625,-38.0859375,-2.9296875,-11.23046875,0.0
394.734375,-10.25390625,-37.59765625,-37.59765625,-8.7890625,3.90625,0.0
394.73828125,-29.296875,-46.38671875,-41.015625,-21.97265625,44.43359375,0.0
394.7421875,-44.921875,-49.31640625,-44.43359375,-21.484375,-55.6640625,0.0
394.74609375,-32.71484375,-41.015625,-40.52734375,-10.25390625,-94.7265625,0.0
394.75,-30.2734375,-41.50390625,-37.109375,-4.8828125,-99.12109375,0.0
394.75390625,-28.3203125,-48.828125,-37.59765625,-12.20703125,-141.6015625,0.0
394.7578125,-43.45703125,-51.7578125,-42.96875,-17.08984375,-10.7421875,0.0
394.76171875,-24.4140625,-33.69140625,-27.34375,7.32421875,-17.578125,0.0
394.765625,-9.765625,-24.4140625,-17.578125,14.16015625,-139.6484375,0.0
394.76953125,-34.66796875,-47.8515625,-43.45703125,-13.671875,-92.7734375,0.0
394.7734375,-38.57421875,-53.7109375,-43.45703125,-4.8828125,-72.75390625,0.0
394.77734375,-28.3203125,-42.96875,-24.90234375,44.43359375,-82.03125,0.0
394.78125,-39.0625,-53.22265625,-29.78515625,0.0,-58.59375,0.0
394.78515625,-45.41015625,-62.01171875,-40.52734375,-10.25390625,-46.875,0.0
394.7890625,-38.0859375,-55.17578125,-42.48046875,-8.7890625,-51.26953125,0.0
394.79296875,-41.015625,-48.828125,-48.33984375,-101.5625,29.296875,0.0
394.796875,-46.38671875,-50.78125,-41.50390625,-39.55078125,72.265625,0.0
394.80078125,-62.01171875,-66.40625,-36.62109375,10.7421875,-84.47265625,0.0
394.8046875,-37.109375,-50.78125,-31.73828125,-55.17578125,-111.81640625,0.0
394.80859375,16.11328125,1.46484375,9.765625,-27.34375,-92.28515625,0.0
394.8125,-4.8828125,-19.53125,-2.9296875,-11.23046875,-37.59765625,0.0
394.81640625,-37.109375,-60.546875,-36.62109375,-59.08203125,27.34375,0.0
394.8203125,-34.66796875,-56.15234375,-31.73828125,-55.17578125,47.36328125,0.0
394.82421875,-40.0390625,-54.19921875,-31.73828125,-51.7578125,27.83203125,0.0
394.828125,-46.875,-58.59375,-34.66796875,-50.29296875,-25.390625,0.0
394.83203125,-47.8515625,-55.17578125,-37.59765625,-48.828125,-52.734375,0.0
394.8359375,-40.52734375,-44.921875,-36.1328125,-57.6171875,-108.88671875,0.0
394.83984375,-45.8984375,-45.8984375,-39.0625,-8.30078125,-98.14453125,0.0
394.84375,-50.78125,-53.7109375,-43.45703125,-40.0390625,-86.42578125,0.0
394.84765625,-45.41015625,-49.31640625,-38.0859375,-95.703125,-63.96484375,0.0
394.8515625,-37.109375,-41.9921875,-32.2265625,-51.7578125,6.34765625,0.0
394.85546875,-22.94921875,-42.96875,-38.57421875,-55.6640625,23.92578125,0.0
394.859375,-32.71484375,-53.22265625,-42.96875,-74.70703125,3.41796875,0.0
394.86328125,-30.2734375,-48.33984375,-35.64453125,-62.01171875,0.48828125,0.0
394.8671875,-13.18359375,-41.9921875,-30.76171875,-45.8984375,-22.4609375,0.0
394.87109375,-2.9296875,-48.33984375,-33.69140625,-36.1328125,-18.5546875,0.0
394.875,8.7890625,-46.875,-34.66796875,-18.06640625,2.44140625,0.0
394.87890625,11.23046875,-42.48046875,-36.62109375,-31.25,-20.99609375,0.0
394.8828125,1.46484375,-42.96875,-35.15625,-37.109375,2.44140625,0.0
394.88671875,-6.34765625,-43.45703125,-32.2265625,-12.20703125,13.18359375,0.0
394.890625,2.9296875,-38.57421875,-34.66796875,-2.9296875,-45.41015625,0.0
394.89453125,7.8125,-29.78515625,-33.69140625,-12.20703125,-50.29296875,0.0
394.8984375,10.7421875,-21.97265625,-30.2734375,-38.57421875,-118.65234375,0.0
394.90234375,-2.44140625,-29.78515625,-38.0859375,-41.50390625,-112.3046875,0.0
394.90625,-10.25390625,-34.66796875,-42.48046875,-38.0859375,0.9765625,0.0
394.91015625,-7.32421875,-37.109375,-47.36328125,-41.015625,10.25390625,0.0
394.9140625,-3.41796875,-37.109375,-50.78125,-36.62109375,-8.30078125,0.0
394.91796875,-10.7421875,-37.59765625,-50.78125,-31.25,36.62109375,0.0
394.921875,-21.97265625,-41.015625,-49.31640625,-19.04296875,2.44140625,0.0
394.92578125,-28.3203125,-40.0390625,-51.26953125,-14.16015625,-82.03125,0.0
394.9296875,-29.296875,-41.015625,-54.19921875,-20.01953125,-107.421875,0.0
394.93359375,-23.92578125,-43.9453125,-58.59375,-27.34375,-72.265625,0.0
394.9375,-23.4375,-44.43359375,-62.01171875,-25.390625,48.33984375,0.0
394.94140625,-27.34375,-46.38671875,-56.640625,-28.3203125,49.31640625,0.0
394.9453125,-26.85546875,-47.36328125,-53.7109375,-29.296875,31.73828125,0.0
394.94921875,-25.390625,-44.43359375,-53.22265625,-20.99609375,39.55078125,0.0
394.953125,-24.4140625,-41.50390625,-48.828125,-21.484375,-8.7890625,0.0
394.95703125,-8.30078125,-28.3203125,-38.0859375,-2.9296875,-7.8125,0.0
394.9609375,-5.37109375,-29.78515625,-37.59765625,10.7421875,-43.45703125,0.0
394.96484375,-12.20703125,-43.9453125,-40.52734375,14.16015625,-74.21875,0.0
394.96875,-5.859375,-38.57421875,-37.109375,-0.9765625,-22.4609375,0.0
394.97265625,-7.32421875,-36.1328125,-35.15625,-13.18359375,-33.69140625,0.0
394.9765625,-0.9765625,-34.1796875,-32.71484375,-20.01953125,-60.546875,0.0
394.98046875,-4.39453125,-31.73828125,-36.1328125,-30.2734375,-2.9296875,0.0
394.984375,-7.8125,-28.80859375,-39.0625,-9.27734375,48.33984375,0.0
394.98828125,1.953125,-17.08984375,-26.85546875,11.23046875,-17.08984375,0.0
394.9921875,-13.671875,-30.2734375,-27.34375,-3.41796875,-80.078125,0.0
394.99609375,-24.90234375,-46.875,-37.59765625,-14.16015625,-60.05859375,0.0
395.0,-12.6953125,-36.62109375,-29.78515625,0.48828125,-24.90234375,0.0
395.00390625,0.48828125,-19.53125,-12.20703125,20.01953125,18.06640625,0.0
395.0078125,-18.5546875,-37.59765625,-28.80859375,5.859375,37.59765625,0.0
395.01171875,-23.92578125,-52.24609375,-42.48046875,-10.7421875,4.39453125,0.0
395.015625,-18.06640625,-43.45703125,-38.0859375,-5.37109375,-98.6328125,0.0
395.01953125,-26.3671875,-40.52734375,-33.69140625,-0.48828125,-136.71875,0.0
395.0234375,-30.2734375,-42.48046875,-37.59765625,-7.8125,-110.3515625,0.0
395.02734375,-21.97265625,-42.96875,-41.9921875,-5.37109375,-103.515625,0.0
395.03125,-23.4375,-47.36328125,-35.64453125,4.39453125,-53.7109375,0.0
395.03515625,-24.4140625,-49.31640625,-34.66796875,-0.9765625,-8.7890625,0.0
395.0390625,-23.4375,-38.57421875,-37.59765625,-9.27734375,-55.6640625,0.0
395.04296875,-33.203125,-33.203125,-33.203125,-7.8125,-64.453125,0.0
395.046875,-29.78515625,-42.96875,-27.34375,-6.34765625,-41.50390625,0.0
395.05078125,-23.4375,-43.9453125,-21.97265625,0.0,-42.96875,0.0
395.0546875,-29.78515625,-40.0390625,-19.53125,13.671875,-48.828125,0.0
395.05859375,-23.92578125,-39.0625,-24.4140625,27.83203125,-93.26171875,0.0
395.0625,-21.484375,-39.0625,-28.3203125,5.37109375,-49.31640625,0.0
395.06640625,-31.25,-42.96875,-31.73828125,-14.6484375,18.06640625,0.0
395.0703125,-28.3203125,-44.43359375,-33.203125,-2.9296875,40.0390625,0.0
395.07421875,-22.94921875,-41.50390625,-30.76171875,-1.46484375,-14.16015625,0.0
395.078125,-22.4609375,-45.8984375,-30.76171875,-10.25390625,-138.671875,0.0
395.08203125,-25.390625,-47.36328125,-36.1328125,-23.4375,-122.0703125,0.0
395.0859375,-26.85546875,-41.50390625,-32.71484375,-26.85546875,-39.55078125,0.0
395.08984375,-28.3203125,-48.828125,-31.73828125,-11.71875,-3.90625,0.0
395.09375,-45.41015625,-72.265625,-55.6640625,-26.85546875,30.76171875,0.0
395.09765625,-36.1328125,-63.4765625,-48.33984375,-27.83203125,29.78515625,0.0
395.1015625,-20.01953125,-44.921875,-20.99609375,2.44140625,39.55078125,0.0
395.10546875,-30.76171875,-51.26953125,-23.92578125,-1.46484375,-16.6015625,0.0
395.109375,-31.73828125,-47.8515625,-28.3203125,-9.765625,-81.54296875,0.0
395.11328125,-23.4375,-40.0390625,-27.34375,-3.90625,-30.76171875,0.0
395.1171875,-19.04296875,-41.50390625,-27.83203125,-4.39453125,-14.16015625,0.0
395.12109375,-13.18359375,-46.875,-29.78515625,-4.8828125,-38.57421875,0.0
395.125,-23.92578125,-46.875,-29.78515625,-9.765625,6.34765625,0.0
395.12890625,-34.66796875,-41.9921875,-23.4375,-5.37109375,32.71484375,0.0
395.1328125,-23.4375,-37.59765625,-20.01953125,5.859375,-36.1328125,0.0
395.13671875,-15.625,-35.15625,-16.6015625,19.53125,-41.50390625,0.0
395.140625,-22.4609375,-39.0625,-22.94921875,12.6953125,77.1484375,0.0
395.14453125,-28.80859375,-41.50390625,-26.3671875,5.37109375,86.42578125,0.0
395.1484375,-35.64453125,-40.0390625,-27.34375,9.765625,6.8359375,0.0
395.15234375,-39.0625,-40.0390625,-34.66796875,7.8125,-26.3671875,0.0
395.15625,-24.4140625,-40.52734375,-30.2734375,-30.76171875,-59.5703125,0.0
395.16015625,-33.203125,-47.8515625,-34.1796875,-47.8515625,-36.62109375,0.0
395.1640625,-36.62109375,-45.41015625,-37.59765625,-29.296875,-37.109375,0.0
395.16796875,-38.0859375,-43.45703125,-33.69140625,-22.94921875,-70.80078125,0.0
395.171875,-46.38671875,-46.875,-38.57421875,-22.4609375,-62.98828125,0.0
395.17578125,-43.9453125,-44.921875,-38.0859375,-22.94921875,-43.9453125,0.0
395.1796875,-48.828125,-49.31640625,-33.203125,-26.85546875,-56.640625,0.0
395.18359375,-51.26953125,-56.640625,-38.57421875,-26.85546875,-82.03125,0.0
395.1875,-41.015625,-55.6640625,-40.0390625,-14.6484375,-96.19140625,0.0
395.19140625,-35.15625,-51.7578125,-35.15625,-17.08984375,-79.1015625,0.0
395.1953125,-33.203125,-47.8515625,-29.296875,-13.671875,10.7421875,0.0
395.19921875,-33.203125,-43.45703125,-29.296875,-4.39453125,5.37109375,0.0
395.203125,-32.71484375,-44.43359375,-27.83203125,2.44140625,-182.6171875,0.0
395.20703125,-26.85546875,-43.9453125,-20.01953125,11.23046875,-221.19140625,0.0
395.2109375,-31.73828125,-39.55078125,-21.484375,7.32421875,-66.40625,0.0
395.21484375,-32.2265625,-39.55078125,-22.94921875,7.8125,18.06640625,0.0
395.21875,-23.4375,-42.96875,-25.390625,8.7890625,-17.578125,0.0
395.22265625,-32.71484375,-43.45703125,-25.87890625,-0.48828125,-2.44140625,0.0
395.2265625,-35.15625,-41.9921875,-20.5078125,0.9765625,-49.31640625,0.0
395.23046875,-30.76171875,-41.9921875,-23.4375,-6.8359375,-90.33203125,0.0
395.234375,-27.83203125,-45.8984375,-35.15625,-22.94921875,-8.30078125,0.0
395.23828125,-17.578125,-47.8515625,-38.57421875,-21.484375,32.71484375,0.0
395.2421875,-14.6484375,-36.1328125,-25.87890625,-15.625,23.92578125,0.0
395.24609375,-22.4609375,-33.69140625,-29.296875,-31.25,-108.88671875,0.0
395.25,-31.25,-41.9921875,-33.203125,-29.296875,-171.875,0.0
395.25390625,-31.73828125,-38.0859375,-24.90234375,-15.13671875,-173.33984375,0.0
395.2578125,-31.25,-37.109375,-23.4375,-30.2734375,-196.2890625,0.0
395.26171875,-28.80859375,-41.015625,-19.04296875,-34.66796875,-188.96484375,0.0
395.265625,-18.5546875,-40.0390625,-15.625,-9.27734375,-162.59765625,0.0
395.26953125,-15.625,-34.66796875,-19.53125,-15.13671875,-20.5078125,0.0
395.2734375,-16.6015625,-28.80859375,-9.765625,-26.85546875,137.6953125,0.0
395.27734375,-31.73828125,-37.109375,0.48828125,-37.59765625,136.71875,0.0
395.28125,-51.7578125,-53.22265625,-11.71875,-55.6640625,90.8203125,0.0
395.28515625,-54.19921875,-48.828125,-19.04296875,-33.203125,7.32421875,0.0
395.2890625,-48.33984375,-42.48046875,-21.97265625,-22.4609375,-31.25,0.0
395.29296875,-27.83203125,-44.43359375,-27.83203125,-29.78515625,69.3359375,0.0
395.296875,-23.4375,-46.38671875,-29.78515625,-29.296875,105.95703125,0.0
395.30078125,-30.2734375,-45.41015625,-31.73828125,-52.24609375,71.77734375,0.0
395.3046875,-29.78515625,-49.8046875,-32.71484375,-41.50390625,40.0390625,0.0
395.30859375,-34.66796875,-50.29296875,-23.92578125,-13.18359375,-49.31640625,0.0
395.3125,-22.4609375,-48.828125,-25.390625,-21.97265625,-84.47265625,0.0
395.31640625,-18.5546875,-49.31640625,-34.1796875,-35.15625,-25.87890625,0.0
395.3203125,-24.90234375,-46.875,-34.1796875,-53.22265625,-67.87109375,0.0
395.32421875,-34.1796875,-43.9453125,-31.73828125,-56.15234375,-64.94140625,0.0
395.328125,-45.8984375,-41.9921875,-32.2265625,-59.5703125,-59.5703125,0.0
395.33203125,-36.62109375,-43.45703125,-36.62109375,-51.26953125,-95.21484375,0.0
395.3359375,-27.83203125,-40.52734375,-29.78515625,-44.43359375,11.23046875,0.0
395.33984375,-33.69140625,-39.0625,-25.390625,-36.1328125,82.03125,0.0
395.34375,-35.64453125,-36.62109375,-32.71484375,-31.25,92.28515625,0.0
395.34765625,-35.15625,-36.1328125,-33.69140625,-37.109375,83.0078125,0.0
395.3515625,-41.015625,-38.57421875,-28.3203125,-29.296875,105.46875,0.0
395.35546875,-32.71484375,-41.50390625,-26.3671875,-27.34375,65.91796875,0.0
395.359375,-21.97265625,-39.0625,-28.80859375,-24.90234375,18.06640625,0.0
395.36328125,-34.1796875,-39.55078125,-31.25,-27.34375,-26.85546875,0.0
395.3671875,-43.9453125,-47.8515625,-28.3203125,-27.83203125,-95.21484375,0.0
395.37109375,-43.9453125,-49.31640625,-28.3203125,-23.92578125,-84.47265625,0.0
395.375,-37.109375,-41.9921875,-29.78515625,-19.04296875,-110.83984375,0.0
395.37890625,-38.57421875,-33.203125,-31.73828125,-9.765625,-184.5703125,0.0
395.3828125,-43.9453125,-36.62109375,-37.59765625,-27.83203125,-201.66015625,0.0
395.38671875,-37.59765625,-37.109375,-31.25,-31.25,-101.07421875,0.0
395.390625,-41.50390625,-35.64453125,-29.78515625,-22.94921875,-58.59375,0.0
395.39453125,-40.52734375,-38.57421875,-37.109375,-19.53125,-28.3203125,0.0
395.3984375,-42.96875,-41.9921875,-34.66796875,-22.94921875,-17.578125,0.0
395.40234375,-48.33984375,-40.52734375,-29.78515625,-33.69140625,-37.109375,0.0
395.40625,-41.015625,-37.59765625,-29.78515625,-22.94921875,-16.11328125,0.0
395.41015625,-29.78515625,-36.1328125,-33.203125,-18.5546875,-30.2734375,0.0
395.4140625,-20.99609375,-30.76171875,-33.203125,-23.4375,-56.640625,0.0
395.41796875,-30.76171875,-36.62109375,-34.1796875,-34.1796875,-96.6796875,0.0
395.421875,-29.78515625,-37.59765625,-29.296875,-43.45703125,-163.57421875,0.0
395.42578125,-23.92578125,-27.34375,-16.6015625,-33.203125,-81.0546875,0.0
395.4296875,-35.64453125,-35.64453125,-20.5078125,-35.64453125,14.16015625,0.0
395.43359375,-36.1328125,-38.57421875,-27.34375,-37.109375,27.83203125,0.0
395.4375,-36.1328125,-33.69140625,-29.296875,-20.01953125,21.97265625,0.0
395.44140625,-35.64453125,-40.0390625,-34.1796875,-21.97265625,35.15625,0.0
395.4453125,-41.50390625,-43.45703125,-34.66796875,-25.390625,48.828125,0.0
395.44921875,-40.52734375,-41.50390625,-32.71484375,-9.765625,8.7890625,0.0
395.453125,-27.34375,-38.57421875,-26.3671875,-12.6953125,-72.75390625,0.0
395.45703125,-26.3671875,-36.1328125,-29.78515625,-21.484375,-50.78125,0.0
395.4609375,-42.96875,-42.96875,-36.62109375,-13.18359375,-32.71484375,0.0
395.46484375,-49.8046875,-46.875,-31.73828125,-12.6953125,-81.54296875,0.0
395.46875,-40.0390625,-31.25,-22.4609375,-19.04296875,-14.16015625,0.0
395.47265625,-42.48046875,-28.3203125,-23.92578125,-25.390625,72.75390625,0.0
395.4765625,-40.0390625,-35.64453125,-31.25,-28.3203125,53.22265625,0.0
395.48046875,-32.71484375,-34.1796875,-28.3203125,-32.2265625,-20.01953125,0.0
395.484375,-41.9921875,-36.1328125,-38.57421875,-37.59765625,-24.90234375,0.0
395.48828125,-52.734375,-41.50390625,-48.828125,-33.203125,-48.33984375,0.0
395.4921875,-59.08203125,-47.36328125,-41.50390625,-34.1796875,-91.30859375,0.0
395.49609375,-61.03515625,-47.8515625,-32.71484375,-37.109375,-72.75390625,0.0
395.5,-54.6875,-46.875,-32.71484375,-28.3203125,-88.37890625,0.0
395.50390625,-62.01171875,-46.38671875,-39.0625,-28.80859375,-126.46484375,0.0
395.5078125,-62.01171875,-44.921875,-39.0625,-44.43359375,-98.14453125,0.0
395.51171875,-47.36328125,-43.9453125,-31.73828125,-31.73828125,-3.90625,0.0
395.515625,-40.52734375,-44.921875,-28.3203125,-31.73828125,19.04296875,0.0
395.51953125,-42.96875,-43.45703125,-31.25,-35.64453125,41.50390625,0.0
395.5234375,-48.33984375,-44.921875,-38.0859375,-23.4375,45.41015625,0.0
395.52734375,-53.22265625,-46.38671875,-38.57421875,-31.25,-28.3203125,0.0
395.53125,-49.31640625,-40.52734375,-36.1328125,-35.15625,-21.484375,0.0
395.53515625,-45.8984375,-39.55078125,-34.66796875,-23.4375,20.5078125,0.0
395.5390625,-57.12890625,-45.41015625,-36.1328125,-29.78515625,45.8984375,0.0
395.54296875,-51.26953125,-43.9453125,-34.66796875,-37.59765625,-55.17578125,0.0
395.546875,-44.43359375,-39.55078125,-31.73828125,-42.96875,-105.46875,0.0
395.55078125,-48.828125,-38.0859375,-29.78515625,-48.828125,-63.96484375,0.0
395.5546875,-51.26953125,-33.69140625,-27.34375,-32.71484375,-48.828125,0.0
395.55859375,-40.0390625,-20.5078125,-20.99609375,-26.85546875,-49.31640625,0.0
395.5625,-42.96875,-26.3671875,-22.4609375,-31.25,-103.02734375,0.0
395.56640625,-63.96484375,-41.50390625,-35.64453125,-32.2265625,-100.09765625,0.0
395.5703125,-63.4765625,-40.0390625,-39.0625,-51.7578125,-35.15625,0.0
395.57421875,-42.96875,-38.0859375,-40.0390625,-60.05859375,-3.90625,0.0
395.578125,-33.203125,-36.62109375,-41.9921875,-63.4765625,-104.00390625,0.0
395.58203125,-45.8984375,-35.15625,-40.52734375,-59.08203125,-52.24609375,0.0
395.5859375,-49.31640625,-34.66796875,-38.0859375,-50.29296875,16.6015625,0.0
395.58984375,-43.45703125,-34.66796875,-26.3671875,-45.41015625,-7.8125,0.0
395.59375,-46.38671875,-35.15625,-24.4140625,-46.38671875,32.71484375,0.0
395.59765625,-44.921875,-35.15625,-29.78515625,-41.50390625,33.203125,0.0
395.6015625,-44.43359375,-36.1328125,-27.83203125,-35.64453125,30.2734375,0.0
395.60546875,-44.921875,-36.62109375,-33.69140625,-39.55078125,-22.4609375,0.0
395.609375,-47.36328125,-40.52734375,-39.55078125,-37.109375,-80.56640625,0.0
395.61328125,-56.15234375,-40.0390625,-35.15625,-32.71484375,16.11328125,0.0
395.6171875,-42.96875,-26.85546875,-22.94921875,-23.4375,26.85546875,0.0
395.62109375,-39.0625,-29.78515625,-23.4375,-26.3671875,-49.31640625,0.0
395.625,-56.640625,-40.52734375,-38.57421875,-27.83203125,-44.921875,0.0
395.62890625,-49.8046875,-40.0390625,-38.0859375,-30.2734375,-121.09375,0.0
395.6328125,-49.31640625,-41.9921875,-36.62109375,-41.9921875,-77.1484375,0.0
395.63671875,-50.29296875,-41.9921875,-39.0625,-42.96875,0.0,0.0
395.640625,-41.50390625,-37.59765625,-33.69140625,-42.48046875,-125.9765625,0.0
395.64453125,-48.828125,-40.0390625,-32.71484375,-31.73828125,-164.55078125,0.0
395.6484375,-50.78125,-43.9453125,-33.69140625,-23.4375,-20.5078125,0.0
395.65234375,-34.66796875,-44.43359375,-37.109375,-26.3671875,14.16015625,0.0
395.65625,-28.3203125,-48.828125,-39.0625,-38.57421875,-28.80859375,0.0
395.66015625,-36.1328125,-44.43359375,-37.59765625,-46.38671875,85.9375,0.0
395.6640625,-36.62109375,-41.015625,-36.62109375,-41.50390625,112.79296875,0.0
395.66796875,-40.0390625,-46.38671875,-39.0625,-46.875,-5.859375,0.0
395.671875,-41.015625,-49.8046875,-43.45703125,-48.828125,-75.1953125,0.0
395.67578125,-27.83203125,-37.109375,-36.1328125,-43.9453125,-51.7578125,0.0
395.6796875,-8.30078125,-13.671875,-12.6953125,-16.6015625,-46.875,0.0
395.68359375,-35.64453125,-25.87890625,-20.01953125,-16.6015625,-91.30859375,0.0
395.6875,-65.4296875,-51.7578125,-44.43359375,-35.15625,-85.9375,0.0
395.69140625,-60.546875,-51.7578125,-44.921875,-41.015625,-61.5234375,0.0
395.6953125,-63.96484375,-50.29296875,-44.43359375,-46.38671875,-74.70703125,0.0
395.69921875,-66.40625,-54.19921875,-46.38671875,-35.15625,-66.89453125,0.0
395.703125,-66.40625,-54.19921875,-43.9453125,-29.78515625,-72.265625,0.0
395.70703125,-53.7109375,-41.9921875,-37.59765625,-27.34375,-41.9921875,0.0
395.7109375,-43.45703125,-39.55078125,-36.1328125,-28.3203125,-53.22265625,0.0
395.71484375,-41.015625,-43.9453125,-39.55078125,-25.87890625,-61.5234375,0.0
395.71875,-37.59765625,-42.48046875,-43.45703125,-32.71484375,-30.2734375,0.0
395.72265625,-47.8515625,-47.8515625,-44.43359375,-46.875,-82.03125,0.0
395.7265625,-58.10546875,-46.38671875,-38.0859375,-41.50390625,-64.453125,0.0
395.73046875,-56.640625,-45.8984375,-35.15625,-23.4375,-51.26953125,0.0
395.734375,-55.6640625,-44.43359375,-33.203125,-22.4609375,-15.13671875,0.0
395.73828125,-68.84765625,-44.921875,-36.62109375,-44.921875,38.0859375,0.0
395.7421875,-62.01171875,-44.921875,-40.0390625,-41.50390625,-3.41796875,0.0
395.74609375,-46.875,-41.015625,-38.0859375,-36.1328125,-17.578125,0.0
395.75,-47.8515625,-45.8984375,-34.1796875,-51.26953125,-37.109375,0.0
395.75390625,-44.921875,-50.29296875,-36.1328125,-58.59375,-65.4296875,0.0
395.7578125,-40.52734375,-43.9453125,-34.1796875,-40.0390625,-26.85546875,0.0
395.76171875,-45.41015625,-39.0625,-27.34375,-29.78515625,6.34765625,0.0
395.765625,-59.5703125,-39.55078125,-23.92578125,-31.25,4.8828125,0.0
395.76953125,-60.05859375,-39.55078125,-25.87890625,-30.2734375,-55.6640625,0.0
395.7734375,-38.57421875,-36.62109375,-25.87890625,-22.4609375,-86.42578125,0.0
395.77734375,-40.0390625,-37.59765625,-24.4140625,-31.73828125,-62.01171875,0.0
395.78125,-39.0625,-37.109375,-24.90234375,-34.1796875,-105.95703125,0.0
395.78515625,-37.109375,-37.59765625,-29.296875,-9.27734375,-180.6640625,0.0
395.7890625,-48.33984375,-42.96875,-27.83203125,-10.7421875,-73.73046875,0.0
395.79296875,-45.8984375,-43.45703125,-27.34375,-25.87890625,15.13671875,0.0
395.796875,-42.96875,-46.38671875,-28.3203125,-10.7421875,-17.578125,0.0
395.80078125,-47.8515625,-46.875,-32.2265625,-4.8828125,-53.22265625,0.0
395.8046875,-48.828125,-43.45703125,-33.69140625,-32.71484375,-19.53125,0.0
395.80859375,-41.015625,-41.50390625,-31.25,-43.9453125,34.66796875,0.0
395.8125,-39.55078125,-47.36328125,-33.69140625,-24.90234375,34.66796875,0.0
395.81640625,-42.96875,-49.31640625,-33.69140625,-30.2734375,18.06640625,0.0
395.8203125,-45.8984375,-41.50390625,-32.2265625,-34.66796875,-24.4140625,0.0
395.82421875,-41.50390625,-39.55078125,-33.69140625,-25.87890625,-40.52734375,0.0
395.828125,-43.45703125,-49.31640625,-36.62109375,-24.4140625,-32.2265625,0.0
395.83203125,-39.55078125,-50.29296875,-35.15625,-21.484375,-5.859375,0.0
395.8359375,-36.62109375,-43.45703125,-35.15625,-26.85546875,27.34375,0.0
395.83984375,-45.41015625,-41.50390625,-34.1796875,-38.57421875,18.5546875,0.0
395.84375,-45.41015625,-43.9453125,-35.64453125,-35.15625,12.20703125,0.0
395.84765625,-39.0625,-42.96875,-35.15625,-21.484375,-70.3125,0.0
395.8515625,-31.73828125,-40.0390625,-20.01953125,-21.484375,-224.609375,0.0
395.85546875,-33.69140625,-41.9921875,-20.01953125,-36.1328125,-253.90625,0.0
395.859375,-34.1796875,-44.43359375,-23.4375,-41.015625,-191.40625,0.0
395.86328125,-35.15625,-41.50390625,-19.04296875,-38.57421875,-115.72265625,0.0
395.8671875,-45.8984375,-41.50390625,-25.87890625,-50.78125,-138.18359375,0.0
395.87109375,-47.36328125,-42.48046875,-24.90234375,-44.43359375,-159.1796875,0.0
395.875,-36.62109375,-40.52734375,-22.4609375,-31.73828125,-59.08203125,0.0
395.87890625,-42.48046875,-38.0859375,-24.90234375,-33.203125,7.8125,0.0
395.8828125,-41.50390625,-35.64453125,-21.97265625,-35.15625,47.8515625,0.0
395.88671875,-40.0390625,-43.9453125,-25.390625,-31.25,-1.46484375,0.0
395.890625,-41.9921875,-51.26953125,-30.76171875,-27.83203125,15.13671875,0.0
395.89453125,-30.2734375,-46.38671875,-27.34375,-22.4609375,127.44140625,0.0
395.8984375,-37.59765625,-47.8515625,-30.2734375,-31.73828125,21.97265625,0.0
395.90234375,-37.59765625,-45.8984375,-32.2265625,-40.52734375,-38.0859375,0.0
395.90625,-35.15625,-38.0859375,-27.83203125,-25.87890625,25.87890625,0.0
395.91015625,-29.296875,-36.1328125,-24.90234375,-14.16015625,56.15234375,0.0
395.9140625,-32.71484375,-39.0625,-34.1796875,-21.97265625,-30.2734375,0.0
395.91796875,-41.50390625,-42.96875,-38.57421875,-47.8515625,21.97265625,0.0
395.921875,-37.109375,-38.57421875,-31.25,-58.59375,38.0859375,0.0
395.92578125,-32.71484375,-38.0859375,-31.25,-60.546875,-20.99609375,0.0
395.9296875,-22.94921875,-41.015625,-33.203125,-54.6875,52.24609375,0.0
395.93359375,-22.4609375,-41.9921875,-32.71484375,-50.78125,41.50390625,0.0
395.9375,-23.4375,-47.36328125,-35.15625,-57.6171875,12.20703125,0.0
395.94140625,-24.90234375,-45.41015625,-41.015625,-52.24609375,-25.390625,0.0
395.9453125,-24.90234375,-42.48046875,-39.55078125,-42.48046875,-59.5703125,0.0
395.94921875,-24.90234375,-47.36328125,-34.1796875,-30.2734375,-52.24609375,0.0
395.953125,-27.34375,-45.8984375,-34.1796875,-23.92578125,-19.04296875,0.0
395.95703125,-34.66796875,-41.015625,-30.2734375,-30.76171875,45.8984375,0.0
395.9609375,-35.15625,-41.50390625,-29.296875,-32.2265625,40.52734375,0.0
395.96484375,-37.109375,-41.50390625,-27.83203125,-38.57421875,-46.875,0.0
395.96875,-42.96875,-39.0625,-28.80859375,-43.45703125,-65.91796875,0.0
395.97265625,-33.203125,-40.0390625,-33.69140625,-40.0390625,-2.44140625,0.0
395.9765625,-25.87890625,-42.48046875,-37.109375,-37.59765625,10.7421875,0.0
395.98046875,-35.64453125,-46.38671875,-40.52734375,-39.55078125,-13.18359375,0.0
395.984375,-32.71484375,-44.921875,-36.1328125,-50.29296875,-1.953125,0.0
395.98828125,-31.73828125,-37.59765625,-31.25,-47.8515625,14.16015625,0.0
395.9921875,-41.9921875,-44.43359375,-44.43359375,-47.8515625,88.8671875,0.0
395.99609375,-33.203125,-45.8984375,-47.8515625,-49.8046875,93.26171875,0.0
396.0,-29.78515625,-37.109375,-37.59765625,-42.96875,-93.26171875,0.0
396.00390625,-28.80859375,-35.15625,-34.66796875,-41.9921875,-159.1796875,0.0
396.0078125,-20.01953125,-35.64453125,-30.76171875,-53.22265625,-95.21484375,0.0
396.01171875,-27.83203125,-38.0859375,-28.3203125,-57.6171875,-117.67578125,0.0
396.015625,-26.85546875,-35.64453125,-30.76171875,-43.45703125,-47.36328125,0.0
396.01953125,-28.3203125,-43.9453125,-42.48046875,-49.8046875,10.25390625,0.0
396.0234375,-45.41015625,-56.15234375,-53.22265625,-70.3125,-16.11328125,0.0
396.02734375,-42.96875,-48.828125,-44.43359375,-62.01171875,1.953125,0.0
396.03125,-27.83203125,-38.0859375,-28.80859375,-45.41015625,-32.71484375,0.0
396.03515625,-14.6484375,-30.76171875,-25.87890625,-38.0859375,-72.75390625,0.0
396.0390625,-7.32421875,-36.62109375,-32.71484375,-38.0859375,-96.6796875,0.0
396.04296875,-12.6953125,-37.59765625,-34.66796875,-43.9453125,-34.1796875,0.0
396.046875,-22.4609375,-37.109375,-34.1796875,-42.48046875,67.87109375,0.0
396.05078125,-15.13671875,-37.59765625,-34.66796875,-43.9453125,33.203125,0.0
396.0546875,-13.18359375,-40.0390625,-38.0859375,-50.29296875,83.49609375,0.0
396.05859375,-23.92578125,-42.96875,-41.015625,-49.8046875,10.7421875,0.0
396.0625,-29.296875,-40.0390625,-35.15625,-41.015625,-102.05078125,0.0
396.06640625,-38.57421875,-37.109375,-29.296875,-33.69140625,8.7890625,0.0
396.0703125,-32.2265625,-34.66796875,-31.73828125,-34.1796875,41.50390625,0.0
396.07421875,-28.3203125,-39.0625,-31.73828125,-36.1328125,-73.2421875,0.0
396.078125,-38.57421875,-39.0625,-27.83203125,-43.45703125,-86.9140625,0.0
396.08203125,-33.203125,-32.71484375,-24.90234375,-34.1796875,-21.97265625,0.0
396.0859375,-20.99609375,-32.71484375,-27.83203125,-30.76171875,-41.015625,0.0
396.08984375,-16.6015625,-33.203125,-29.78515625,-43.9453125,-17.578125,0.0
396.09375,-18.5546875,-35.64453125,-27.34375,-39.55078125,-44.43359375,0.0
396.09765625,-16.6015625,-42.96875,-29.296875,-29.78515625,-71.77734375,0.0
396.1015625,-10.25390625,-45.8984375,-32.71484375,-33.69140625,-24.90234375,0.0
396.10546875,-11.71875,-41.9921875,-30.76171875,-24.4140625,-34.66796875,0.0
396.109375,-18.06640625,-39.0625,-26.3671875,-12.6953125,-138.18359375,0.0
396.11328125,-20.99609375,-41.50390625,-21.97265625,-21.97265625,-98.14453125,0.0
396.1171875,-17.08984375,-41.9921875,-25.390625,-31.73828125,-18.5546875,0.0
396.12109375,-27.34375,-42.96875,-34.1796875,-45.41015625,-15.13671875,0.0
396.125,-26.3671875,-46.875,-35.64453125,-47.8515625,-59.5703125,0.0
396.12890625,-17.578125,-45.8984375,-36.62109375,-31.25,-112.3046875,0.0
396.1328125,-18.06640625,-37.59765625,-38.0859375,-33.203125,-66.89453125,0.0
396.13671875,-17.578125,-33.203125,-35.15625,-37.59765625,-32.2265625,0.0
396.140625,-19.04296875,-36.62109375,-34.66796875,-30.2734375,-15.625,0.0
396.14453125,-21.97265625,-41.50390625,-38.0859375,-33.69140625,-42.48046875,0.0
396.1484375,-21.484375,-40.52734375,-41.015625,-32.2265625,-92.7734375,0.0
396.15234375,-22.4609375,-41.9921875,-37.109375,-18.5546875,-132.8125,0.0
396.15625,-18.5546875,-43.45703125,-38.57421875,-21.97265625,-196.77734375,0.0
396.16015625,-17.08984375,-42.48046875,-43.45703125,-24.90234375,-100.5859375,0.0
396.1640625,-26.85546875,-41.50390625,-45.8984375,-20.99609375,3.41796875,0.0
396.16796875,-24.90234375,-40.0390625,-47.36328125,-15.13671875,13.18359375,0.0
396.171875,-27.83203125,-43.45703125,-53.22265625,-24.90234375,37.59765625,0.0
396.17578125,-33.69140625,-45.41015625,-57.6171875,-40.52734375,16.6015625,0.0
396.1796875,-37.109375,-39.0625,-43.45703125,-27.34375,-9.765625,0.0
396.18359375,-39.0625,-36.1328125,-37.59765625,-15.625,-28.80859375,0.0
396.1875,-41.50390625,-41.50390625,-37.59765625,-3.41796875,-41.015625,0.0
396.19140625,-42.96875,-42.48046875,-28.3203125,-0.9765625,-31.73828125,0.0
396.1953125,-34.1796875,-38.0859375,-27.34375,-22.94921875,-37.109375,0.0
396.19921875,-36.1328125,-43.45703125,-36.1328125,-26.85546875,-34.66796875,0.0
396.203125,-42.96875,-44.43359375,-35.64453125,-26.85546875,-5.37109375,0.0
396.20703125,-39.0625,-39.55078125,-32.2265625,-36.1328125,-24.90234375,0.0
396.2109375,-32.71484375,-36.1328125,-32.71484375,-34.1796875,-91.796875,0.0
396.21484375,-28.80859375,-36.1328125,-36.1328125,-31.25,-121.09375,0.0
396.21875,-34.1796875,-43.9453125,-45.41015625,-44.921875,-83.0078125,0.0
396.22265625,-41.9921875,-47.8515625,-47.36328125,-52.24609375,13.18359375,0.0
396.2265625,-38.57421875,-44.43359375,-41.50390625,-40.0390625,45.8984375,0.0
396.23046875,-37.59765625,-43.9453125,-41.50390625,-32.2265625,17.578125,0.0
396.234375,-27.83203125,-43.9453125,-41.50390625,-44.43359375,-50.78125,0.0
396.23828125,-26.85546875,-43.9453125,-34.1796875,-43.9453125,-4.8828125,0.0
396.2421875,-37.59765625,-46.875,-35.15625,-47.8515625,54.19921875,0.0
396.24609375,-28.80859375,-46.875,-39.0625,-49.31640625,27.83203125,0.0
396.25,-34.66796875,-43.9453125,-36.1328125,-37.109375,-49.8046875,0.0
396.25390625,-41.50390625,-41.50390625,-36.1328125,-37.59765625,-57.6171875,0.0
396.2578125,-43.45703125,-40.52734375,-39.0625,-49.31640625,-0.9765625,0.0
396.26171875,-51.26953125,-46.875,-45.41015625,-51.7578125,22.4609375,0.0
396.265625,-51.26953125,-48.828125,-42.48046875,-37.59765625,-11.23046875,0.0
396.26953125,-41.9921875,-39.0625,-34.1796875,-30.76171875,-10.7421875,0.0
396.2734375,-44.43359375,-40.0390625,-37.59765625,-42.96875,-4.39453125,0.0
396.27734375,-51.7578125,-41.015625,-41.015625,-41.015625,-45.41015625,0.0
396.28125,-38.57421875,-37.109375,-43.9453125,-38.57421875,-9.765625,0.0
396.28515625,-36.1328125,-38.0859375,-47.36328125,-47.8515625,55.6640625,0.0
396.2890625,-39.55078125,-39.55078125,-38.57421875,-41.015625,105.95703125,0.0
396.29296875,-39.55078125,-39.0625,-33.203125,-33.69140625,154.78515625,0.0
396.296875,-39.55078125,-37.59765625,-39.55078125,-41.015625,77.63671875,0.0
396.30078125,-40.0390625,-35.64453125,-34.1796875,-36.1328125,11.23046875,0.0
396.3046875,-43.9453125,-39.0625,-29.78515625,-36.1328125,-5.37109375,0.0
396.30859375,-48.828125,-41.015625,-35.15625,-47.8515625,-79.58984375,0.0
396.3125,-47.8515625,-39.55078125,-38.0859375,-41.50390625,-44.921875,0.0
396.31640625,-36.1328125,-34.1796875,-34.1796875,-37.109375,-25.87890625,0.0
396.3203125,-44.43359375,-38.57421875,-41.9921875,-52.24609375,-37.109375,0.0
396.32421875,-49.31640625,-47.36328125,-45.8984375,-53.22265625,-47.36328125,0.0
396.328125,-35.15625,-43.45703125,-34.66796875,-50.29296875,-74.70703125,0.0
396.33203125,-39.55078125,-37.59765625,-32.2265625,-40.0390625,-93.75,0.0
396.3359375,-42.96875,-43.45703125,-43.45703125,-40.0390625,-111.328125,0.0
396.33984375,-26.85546875,-48.33984375,-51.7578125,-57.12890625,-127.44140625,0.0
396.34375,-26.85546875,-42.96875,-38.0859375,-51.26953125,-107.91015625,0.0
396.34765625,-36.62109375,-33.69140625,-28.80859375,-39.55078125,-70.80078125,0.0
396.3515625,-28.3203125,-29.78515625,-33.203125,-34.66796875,-85.9375,0.0
396.35546875,-20.01953125,-34.66796875,-39.0625,-26.85546875,-77.1484375,0.0
396.359375,-24.4140625,-37.59765625,-41.50390625,-32.2265625,-40.52734375,0.0
396.36328125,-30.2734375,-40.0390625,-44.921875,-25.390625,-14.16015625,0.0
396.3671875,-38.0859375,-47.36328125,-51.26953125,-27.83203125,20.99609375,0.0
396.37109375,-46.38671875,-47.36328125,-45.41015625,-30.2734375,30.76171875,0.0
396.375,-51.26953125,-43.9453125,-31.73828125,-12.20703125,60.05859375,0.0
396.37890625,-46.875,-41.9921875,-25.390625,-18.06640625,51.7578125,0.0
396.3828125,-46.875,-40.52734375,-27.34375,-34.66796875,-18.06640625,0.0
396.38671875,-59.08203125,-41.50390625,-26.3671875,-36.1328125,-55.17578125,0.0
396.390625,-55.6640625,-43.9453125,-29.296875,-31.25,-37.59765625,0.0
396.39453125,-50.78125,-45.8984375,-33.203125,-46.38671875,2.9296875,0.0
396.3984375,-50.29296875,-48.828125,-42.48046875,-67.3828125,-47.8515625,0.0
396.40234375,-43.9453125,-52.24609375,-45.41015625,-56.640625,-62.01171875,0.0
396.40625,-46.875,-46.875,-38.57421875,-50.29296875,-40.0390625,0.0
396.41015625,-48.33984375,-38.0859375,-31.73828125,-55.6640625,-79.58984375,0.0
396.4140625,-46.875,-41.015625,-31.25,-48.33984375,-35.15625,0.0
396.41796875,-46.875,-41.015625,-20.01953125,-43.45703125,53.7109375,0.0
396.421875,-47.8515625,-35.15625,-11.71875,-41.50390625,68.84765625,0.0
396.42578125,-61.5234375,-31.73828125,-23.4375,-46.38671875,0.0,0.0
396.4296875,-86.9140625,-31.73828125,-26.3671875,-72.75390625,-48.828125,0.0
396.43359375,-87.40234375,-32.2265625,-22.4609375,-76.171875,-68.359375,0.0
396.4375,-90.33203125,-27.34375,-22.94921875,-57.12890625,-81.0546875,0.0
396.44140625,-102.5390625,-19.04296875,-19.04296875,-70.3125,-39.55078125,0.0
396.4453125,-94.7265625,-20.5078125,-5.859375,-79.58984375,-36.62109375,0.0
396.44921875,-107.421875,-24.90234375,-6.34765625,-91.796875,-6.34765625,0.0
396.453125,-110.3515625,-16.11328125,2.44140625,-113.76953125,40.52734375,0.0
396.45703125,-109.86328125,-4.39453125,10.25390625,-103.515625,-50.29296875,0.0
396.4609375,-133.7890625,0.9765625,-1.953125,-126.46484375,-55.17578125,0.0
396.46484375,-152.83203125,0.9765625,-17.578125,-171.875,57.12890625,0.0
396.46875,-163.0859375,8.7890625,-13.18359375,-179.6875,44.43359375,0.0
396.47265625,-155.76171875,13.18359375,0.0,-170.41015625,24.4140625,0.0
396.4765625,-168.45703125,-1.46484375,-7.8125,-175.78125,-49.31640625,0.0
396.48046875,-176.7578125,0.48828125,-8.7890625,-185.05859375,-7.32421875,0.0
396.484375,-177.734375,-0.9765625,-19.04296875,-209.47265625,-0.48828125,0.0
396.48828125,-182.12890625,-13.18359375,-29.78515625,-232.421875,-101.5625,0.0
396.4921875,-171.875,-0.48828125,-15.13671875,-196.2890625,-95.703125,0.0
396.49609375,-174.31640625,8.7890625,-9.765625,-184.5703125,-47.36328125,0.0
396.5,-157.2265625,-2.9296875,-15.625,-202.1484375,-39.0625,0.0
396.50390625,-158.69140625,-13.18359375,-25.87890625,-201.171875,-41.015625,0.0
396.5078125,-161.1328125,-8.7890625,-16.11328125,-190.91796875,-82.03125,0.0
396.51171875,-147.4609375,-8.7890625,-14.6484375,-181.640625,-67.3828125,0.0
396.515625,-128.90625,-6.8359375,-22.4609375,-145.5078125,42.48046875,0.0
396.51953125,-134.765625,-16.11328125,-20.99609375,-143.06640625,7.8125,0.0
396.5234375,-135.7421875,-20.99609375,-26.85546875,-163.0859375,-81.0546875,0.0
396.52734375,-101.5625,-20.01953125,-25.87890625,-134.27734375,-116.2109375,0.0
396.53125,-93.75,-26.85546875,-21.484375,-123.046875,-59.5703125,0.0
396.53515625,-99.12109375,-30.76171875,-29.296875,-141.11328125,-41.9921875,0.0
396.5390625,-92.28515625,-33.69140625,-22.4609375,-114.74609375,-33.69140625,0.0
396.54296875,-72.265625,-40.0390625,-29.296875,-82.03125,58.59375,0.0
396.546875,-66.40625,-43.45703125,-43.45703125,-90.33203125,79.1015625,0.0
396.55078125,-49.8046875,-41.9921875,-37.109375,-86.9140625,11.23046875,0.0
396.5546875,-33.203125,-42.96875,-37.109375,-66.89453125,-9.765625,0.0
396.55859375,-44.43359375,-54.19921875,-44.921875,-95.703125,-53.22265625,0.0
396.5625,-57.12890625,-59.5703125,-44.43359375,-100.09765625,-138.671875,0.0
396.56640625,-53.22265625,-62.5,-42.96875,-65.91796875,-49.8046875,0.0
396.5703125,-30.76171875,-56.640625,-32.71484375,-49.8046875,12.6953125,0.0
396.57421875,-28.80859375,-76.171875,-56.640625,-48.828125,-64.94140625,0.0
396.578125,-65.91796875,-114.2578125,-82.03125,-83.0078125,7.32421875,0.0
396.58203125,-28.80859375,-83.984375,-5.859375,-59.08203125,-7.8125,0.0
396.5859375,-60.546875,-96.6796875,-9.27734375,-64.94140625,-62.5,0.0
396.58984375,-9.27734375,-59.5703125,-51.7578125,21.484375,-29.78515625,0.0
396.59375,52.24609375,-26.85546875,-39.55078125,78.61328125,-35.15625,0.0
396.59765625,-8.7890625,-62.5,-61.03515625,24.90234375,-85.9375,0.0
396.6015625,-11.23046875,-60.546875,-51.26953125,5.37109375,-19.53125,0.0
396.60546875,-42.96875,-94.23828125,-69.82421875,-47.8515625,61.03515625,0.0
396.609375,-47.8515625,-97.65625,-79.58984375,-80.56640625,44.921875,0.0
396.61328125,3.41796875,-49.8046875,-25.87890625,-107.91015625,73.2421875,0.0
396.6171875,4.8828125,-45.8984375,12.20703125,-146.97265625,77.63671875,0.0
396.62109375,-14.6484375,-66.40625,36.1328125,-161.62109375,-33.203125,0.0
396.625,-27.83203125,-62.5,79.58984375,-172.8515625,2.44140625,0.0
396.62890625,-3.41796875,-56.15234375,142.578125,-183.10546875,48.33984375,0.0
396.6328125,21.484375,-52.734375,174.31640625,-160.15625,-21.484375,0.0
396.63671875,-10.25390625,-58.59375,180.17578125,-161.62109375,-12.6953125,0.0
396.640625,-26.85546875,-69.3359375,184.08203125,-171.38671875,7.8125,0.0
396.64453125,-7.8125,-60.546875,192.87109375,-192.87109375,-69.82421875,0.0
396.6484375,-19.53125,-52.734375,194.3359375,-189.453125,-67.3828125,0.0
396.65234375,-2.44140625,-33.203125,202.63671875,-147.94921875,-15.625,0.0
396.65625,8.7890625,-29.296875,204.58984375,-189.94140625,-22.4609375,0.0
396.66015625,-8.30078125,-44.43359375,182.6171875,-248.53515625,-54.6875,0.0
396.6640625,-39.0625,-48.828125,157.71484375,-237.3046875,-57.12890625,0.0
396.66796875,-82.51953125,-40.0390625,138.671875,-241.69921875,-115.72265625,0.0
396.671875,-65.4296875,-27.34375,131.34765625,-275.87890625,-88.37890625,0.0
396.67578125,-70.3125,-24.90234375,112.79296875,-258.7890625,1.953125,0.0
396.6796875,-70.80078125,-14.16015625,100.09765625,-203.61328125,-59.08203125,0.0
396.68359375,-91.796875,3.90625,93.75,-224.12109375,-67.3828125,0.0
396.6875,-113.28125,2.44140625,69.3359375,-224.12109375,-19.53125,0.0
396.69140625,-112.79296875,-4.8828125,36.62109375,-208.49609375,-30.2734375,0.0
396.6953125,-137.6953125,4.39453125,-8.7890625,-250.0,-131.8359375,0.0
396.69921875,-123.53515625,15.625,-47.8515625,-269.53125,-119.140625,0.0
396.703125,-141.11328125,6.34765625,-60.546875,-263.18359375,-4.8828125,0.0
396.70703125,-136.71875,3.90625,-67.87109375,-227.05078125,17.578125,0.0
396.7109375,-123.046875,4.8828125,-81.0546875,-242.67578125,-30.2734375,0.0
396.71484375,-153.3203125,-4.8828125,-93.26171875,-252.9296875,-82.51953125,0.0
396.71875,-143.06640625,-5.859375,-88.8671875,-215.33203125,-65.91796875,0.0
396.72265625,-142.08984375,-6.8359375,-93.26171875,-217.7734375,-93.26171875,0.0
396.7265625,-133.30078125,2.9296875,-92.7734375,-212.40234375,-133.7890625,0.0
396.73046875,-85.44921875,17.08984375,-90.33203125,-182.12890625,-114.74609375,0.0
396.734375,-109.86328125,3.90625,-93.75,-194.3359375,-39.0625,0.0
396.73828125,-154.296875,-8.7890625,-96.19140625,-219.23828125,49.8046875,0.0
396.7421875,-124.0234375,-10.7421875,-100.5859375,-208.0078125,29.296875,0.0
396.74609375,-94.7265625,-7.32421875,-90.8203125,-191.40625,37.59765625,0.0
396.75,-115.72265625,-9.27734375,-84.47265625,-189.453125,45.8984375,0.0
396.75390625,-112.79296875,-10.7421875,-83.49609375,-171.38671875,-17.08984375,0.0
396.7578125,-90.8203125,-11.71875,-78.125,-147.94921875,-46.38671875,0.0
396.76171875,-107.91015625,-17.578125,-83.0078125,-151.85546875,-75.68359375,0.0
396.765625,-122.55859375,-27.34375,-86.9140625,-156.25,-95.703125,0.0
396.76953125,-86.42578125,-29.78515625,-78.125,-122.55859375,-117.67578125,0.0
396.7734375,-69.3359375,-12.6953125,-70.3125,-94.7265625,-128.90625,0.0
396.77734375,-66.89453125,-8.7890625,-64.453125,-106.93359375,-49.8046875,0.0
396.78125,-81.54296875,-22.4609375,-70.80078125,-128.90625,-36.62109375,0.0
396.78515625,-117.1875,-34.1796875,-89.35546875,-151.3671875,-99.609375,0.0
396.7890625,-103.515625,-31.25,-84.9609375,-145.99609375,-200.68359375,0.0
396.79296875,-88.8671875,-23.4375,-61.5234375,-117.1875,-147.94921875,0.0
396.796875,-78.61328125,-23.92578125,-51.26953125,-119.62890625,-32.2265625,0.0
396.80078125,-72.265625,-21.97265625,-51.7578125,-116.69921875,-40.0390625,0.0
396.8046875,-99.609375,-18.5546875,-47.8515625,-113.76953125,-161.1328125,0.0
396.80859375,-93.26171875,-17.08984375,-38.57421875,-103.515625,-133.7890625,0.0
396.8125,-80.56640625,-22.94921875,-44.43359375,-111.328125,-85.9375,0.0
396.81640625,-74.70703125,-21.484375,-43.9453125,-130.37109375,-106.93359375,0.0
396.8203125,-62.01171875,-18.06640625,-40.0390625,-115.234375,-122.0703125,0.0
396.82421875,-66.89453125,-18.5546875,-45.41015625,-104.98046875,-146.97265625,0.0
396.828125,-77.63671875,-26.3671875,-44.43359375,-84.47265625,-46.875,0.0
396.83203125,-83.49609375,-35.64453125,-45.41015625,-92.7734375,51.26953125,0.0
396.8359375,-56.15234375,-29.296875,-45.41015625,-100.09765625,19.53125,0.0
396.83984375,-40.0390625,-23.92578125,-44.921875,-93.75,-21.484375,0.0
396.84375,-76.66015625,-30.76171875,-41.9921875,-95.21484375,19.53125,0.0
396.84765625,-77.63671875,-36.1328125,-43.9453125,-80.56640625,120.60546875,0.0
396.8515625,-53.7109375,-38.57421875,-45.41015625,-69.82421875,68.359375,0.0
396.85546875,-39.0625,-36.1328125,-45.8984375,-85.44921875,43.9453125,0.0
396.859375,-36.62109375,-31.73828125,-51.7578125,-80.56640625,82.51953125,0.0
396.86328125,-41.9921875,-39.0625,-62.01171875,-72.265625,30.76171875,0.0
396.8671875,-11.23046875,-37.59765625,-74.21875,-62.5,-32.2265625,0.0
396.87109375,-8.7890625,-39.55078125,-68.359375,-43.9453125,-66.40625,0.0
396.875,-38.57421875,-46.875,-65.91796875,-55.6640625,-6.8359375,0.0
396.87890625,-27.83203125,-44.43359375,-75.1953125,-38.57421875,78.125,0.0
396.8828125,-20.5078125,-46.875,-80.56640625,-44.921875,42.96875,0.0
396.88671875,-29.296875,-47.8515625,-73.2421875,-59.08203125,-108.3984375,0.0
396.890625,-28.3203125,-45.8984375,-62.01171875,-32.71484375,-41.50390625,0.0
396.89453125,-26.3671875,-42.96875,-63.96484375,-44.43359375,104.00390625,0.0
396.8984375,-41.9921875,-40.52734375,-67.3828125,-63.4765625,53.7109375,0.0
396.90234375,-54.6875,-43.9453125,-65.91796875,-55.6640625,0.9765625,0.0
396.90625,-47.8515625,-46.38671875,-63.4765625,-41.015625,2.9296875,0.0
396.91015625,-35.64453125,-44.921875,-64.453125,-30.76171875,70.80078125,0.0
396.9140625,-28.80859375,-46.38671875,-64.453125,-31.25,19.53125,0.0
396.91796875,-35.15625,-57.6171875,-63.96484375,-39.55078125,-118.1640625,0.0
396.921875,-42.96875,-63.4765625,-61.5234375,-32.2265625,-102.05078125,0.0
396.92578125,-23.92578125,-49.8046875,-53.22265625,-14.16015625,-107.91015625,0.0
396.9296875,-9.27734375,-35.64453125,-48.33984375,-29.78515625,-71.77734375,0.0
396.93359375,-18.06640625,-49.31640625,-63.4765625,-53.22265625,4.39453125,0.0
396.9375,-26.85546875,-57.12890625,-66.40625,-46.38671875,-14.6484375,0.0
396.94140625,-28.80859375,-49.31640625,-55.6640625,-31.25,-89.35546875,0.0
396.9453125,-22.94921875,-46.38671875,-56.640625,-29.78515625,-68.84765625,0.0
396.94921875,-25.87890625,-53.22265625,-56.640625,-37.59765625,-60.546875,0.0
396.953125,-20.5078125,-55.6640625,-54.19921875,-27.83203125,-201.171875,0.0
396.95703125,5.859375,-41.015625,-41.015625,-8.7890625,-195.3125,0.0
396.9609375,-3.41796875,-41.50390625,-51.7578125,-31.73828125,-122.0703125,0.0
396.96484375,-41.015625,-70.3125,-77.1484375,-53.7109375,-47.36328125,0.0
396.96875,-58.59375,-100.5859375,-93.26171875,-63.96484375,0.9765625,0.0
396.97265625,-27.83203125,-80.078125,-74.21875,-47.8515625,-24.90234375,0.0
396.9765625,-1.46484375,-52.734375,-46.875,-27.34375,9.765625,0.0
396.98046875,2.9296875,-58.59375,-54.19921875,-30.76171875,41.9921875,0.0
396.984375,2.9296875,-65.4296875,-52.24609375,-41.50390625,4.8828125,0.0
396.98828125,-3.90625,-71.77734375,-68.359375,-38.0859375,11.71875,0.0
396.9921875,-12.6953125,-79.1015625,-94.23828125,-36.62109375,12.6953125,0.0
396.99609375,-1.46484375,-69.3359375,-82.03125,-43.9453125,19.04296875,0.0
397.0,26.85546875,-57.6171875,-60.546875,-10.7421875,-7.8125,0.0
397.00390625,28.80859375,-49.31640625,-61.03515625,3.90625,-55.17578125,0.0
397.0078125,40.0390625,-33.203125,-62.01171875,12.6953125,-49.31640625,0.0
397.01171875,38.0859375,-52.24609375,-70.80078125,15.625,-81.0546875,0.0
397.015625,29.78515625,-63.4765625,-79.58984375,5.859375,-142.578125,0.0
397.01953125,46.38671875,-50.78125,-70.80078125,28.3203125,-185.05859375,0.0
397.0234375,42.48046875,-53.22265625,-65.91796875,36.62109375,-153.3203125,0.0
397.02734375,29.296875,-59.5703125,-74.70703125,25.87890625,-85.9375,0.0
397.03125,46.875,-56.15234375,-78.125,43.45703125,-66.89453125,0.0
397.03515625,47.8515625,-46.38671875,-63.4765625,70.80078125,-45.8984375,0.0
397.0390625,36.1328125,-46.875,-58.10546875,62.01171875,-99.609375,0.0
397.04296875,42.96875,-53.7109375,-59.5703125,70.3125,-81.54296875,0.0
397.046875,44.43359375,-53.7109375,-62.5,88.8671875,19.04296875,0.0
397.05078125,56.640625,-50.29296875,-63.4765625,86.42578125,2.44140625,0.0
397.0546875,62.01171875,-43.45703125,-55.17578125,104.98046875,32.2265625,0.0
397.05859375,54.19921875,-47.8515625,-56.640625,103.515625,-61.03515625,0.0
397.0625,34.1796875,-58.59375,-70.80078125,81.54296875,-33.203125,0.0
397.06640625,45.8984375,-49.31640625,-65.91796875,82.03125,35.64453125,0.0
397.0703125,40.52734375,-51.7578125,-61.5234375,76.66015625,-14.6484375,0.0
397.07421875,30.2734375,-55.6640625,-62.01171875,87.890625,5.37109375,0.0
397.078125,45.41015625,-45.8984375,-52.24609375,91.30859375,-22.94921875,0.0
397.08203125,49.31640625,-43.9453125,-55.17578125,72.75390625,-67.3828125,0.0
397.0859375,37.59765625,-45.8984375,-63.96484375,65.91796875,-56.640625,0.0
397.08984375,34.66796875,-48.33984375,-60.05859375,65.91796875,-87.890625,0.0
397.09375,35.64453125,-49.31640625,-61.03515625,74.21875,-159.66796875,0.0
397.09765625,23.92578125,-48.828125,-63.4765625,72.265625,-117.67578125,0.0
397.1015625,28.80859375,-42.48046875,-59.08203125,61.03515625,-46.875,0.0
397.10546875,35.64453125,-41.015625,-57.6171875,72.265625,-121.58203125,0.0
397.109375,28.80859375,-47.36328125,-55.17578125,75.68359375,-222.16796875,0.0
397.11328125,27.83203125,-45.41015625,-45.41015625,81.0546875,-176.26953125,0.0
397.1171875,27.34375,-45.8984375,-53.22265625,72.265625,-44.43359375,0.0
397.12109375,19.04296875,-49.8046875,-60.546875,61.5234375,16.11328125,0.0
397.125,9.765625,-48.33984375,-46.875,71.77734375,-20.01953125,0.0
397.12890625,7.8125,-43.9453125,-43.9453125,67.3828125,-19.04296875,0.0
397.1328125,8.7890625,-38.57421875,-48.33984375,72.75390625,29.296875,0.0
397.13671875,2.9296875,-39.0625,-46.875,74.70703125,46.875,0.0
397.140625,-15.13671875,-43.9453125,-43.45703125,58.59375,49.8046875,0.0
397.14453125,-18.5546875,-43.45703125,-45.41015625,52.24609375,-42.48046875,0.0
397.1484375,-3.41796875,-38.0859375,-45.8984375,44.921875,-44.921875,0.0
397.15234375,-7.32421875,-39.55078125,-41.015625,36.62109375,64.94140625,0.0
397.15625,-11.23046875,-39.55078125,-39.0625,25.390625,78.125,0.0
397.16015625,-20.5078125,-38.0859375,-43.45703125,22.94921875,81.0546875,0.0
397.1640625,-27.83203125,-41.015625,-41.50390625,27.83203125,58.10546875,0.0
397.16796875,-19.04296875,-43.45703125,-37.109375,24.90234375,-42.96875,0.0
397.171875,-13.671875,-36.62109375,-33.69140625,22.4609375,-50.78125,0.0
397.17578125,-7.8125,-30.2734375,-31.25,25.87890625,40.52734375,0.0
397.1796875,-4.8828125,-40.0390625,-39.55078125,34.1796875,35.64453125,0.0
397.18359375,-15.13671875,-49.8046875,-42.48046875,36.1328125,-47.36328125,0.0
397.1875,-28.3203125,-45.8984375,-42.48046875,26.85546875,-62.5,0.0
397.19140625,-25.390625,-41.015625,-40.52734375,35.15625,-47.36328125,0.0
397.1953125,-9.27734375,-39.0625,-38.0859375,43.45703125,4.39453125,0.0
397.19921875,-23.92578125,-41.9921875,-40.52734375,30.2734375,-0.9765625,0.0
397.203125,-26.85546875,-49.31640625,-41.015625,27.83203125,-42.96875,0.0
397.20703125,-7.8125,-42.96875,-40.0390625,35.15625,-62.01171875,0.0
397.2109375,-6.8359375,-36.1328125,-39.55078125,39.55078125,19.53125,0.0
397.21484375,-9.765625,-39.0625,-39.0625,39.0625,34.1796875,0.0
397.21875,-9.27734375,-39.55078125,-38.57421875,32.71484375,0.48828125,0.0
397.22265625,-12.20703125,-37.109375,-40.52734375,34.66796875,-18.5546875,0.0
397.2265625,-18.5546875,-36.62109375,-40.0390625,39.0625,-40.0390625,0.0
397.23046875,-13.671875,-32.71484375,-34.1796875,21.484375,-22.4609375,0.0
397.234375,-8.7890625,-31.73828125,-35.64453125,9.765625,7.8125,0.0
397.23828125,-12.6953125,-34.1796875,-37.59765625,17.578125,3.41796875,0.0
397.2421875,-19.53125,-36.62109375,-35.15625,19.53125,-4.8828125,0.0
397.24609375,-22.94921875,-34.1796875,-35.15625,26.85546875,-38.57421875,0.0
397.25,-17.08984375,-33.203125,-34.1796875,31.73828125,-64.453125,0.0
397.25390625,-14.16015625,-33.203125,-31.25,33.203125,-83.49609375,0.0
397.2578125,-10.7421875,-32.71484375,-31.73828125,30.76171875,-76.66015625,0.0
397.26171875,-11.23046875,-34.66796875,-37.59765625,25.390625,10.25390625,0.0
397.265625,-20.5078125,-38.57421875,-38.0859375,26.3671875,-41.9921875,0.0
397.26953125,-21.484375,-37.109375,-31.25,22.4609375,-139.16015625,0.0
397.2734375,-17.08984375,-34.1796875,-28.3203125,24.4140625,-96.19140625,0.0
397.27734375,-13.671875,-36.1328125,-28.3203125,27.34375,-83.49609375,0.0
397.28125,-22.4609375,-39.0625,-37.109375,17.08984375,-89.35546875,0.0
397.28515625,-30.2734375,-43.45703125,-44.921875,7.32421875,-72.265625,0.0
397.2890625,-20.5078125,-35.64453125,-39.55078125,14.16015625,-152.83203125,0.0
397.29296875,-23.4375,-29.296875,-30.76171875,22.94921875,-191.40625,0.0
397.296875,-30.2734375,-31.73828125,-30.2734375,32.2265625,-87.890625,0.0
397.30078125,-26.85546875,-35.64453125,-32.2265625,22.94921875,-2.44140625,0.0
397.3046875,-31.25,-40.52734375,-30.2734375,5.37109375,18.06640625,0.0
397.30859375,-27.83203125,-41.9921875,-32.2265625,-0.9765625,-39.55078125,0.0
397.3125,-24.90234375,-41.015625,-32.2265625,8.30078125,-21.484375,0.0
397.31640625,-32.2265625,-44.43359375,-29.296875,19.53125,12.20703125,0.0
397.3203125,-30.76171875,-47.36328125,-31.73828125,29.78515625,27.34375,0.0
397.32421875,-31.73828125,-37.59765625,-38.0859375,4.39453125,23.4375,0.0
397.328125,-39.55078125,-32.71484375,-36.62109375,-20.99609375,-1.46484375,0.0
397.33203125,-43.9453125,-39.0625,-37.59765625,-22.4609375,16.11328125,0.0
397.3359375,-40.0390625,-41.015625,-41.9921875,-24.4140625,-47.8515625,0.0
397.33984375,-39.55078125,-39.0625,-41.9921875,-17.08984375,-59.5703125,0.0
397.34375,-38.57421875,-35.64453125,-34.1796875,-14.6484375,-61.03515625,0.0
397.34765625,-42.96875,-33.203125,-37.109375,-18.06640625,-36.1328125,0.0
397.3515625,-41.50390625,-39.0625,-42.48046875,-17.578125,-6.34765625,0.0
397.35546875,-34.66796875,-44.921875,-42.48046875,-20.5078125,-0.48828125,0.0
397.359375,-34.66796875,-47.8515625,-44.921875,-22.94921875,-21.97265625,0.0
397.36328125,-36.1328125,-50.29296875,-42.48046875,-11.23046875,-70.3125,0.0
397.3671875,-32.2265625,-45.41015625,-38.57421875,-23.4375,-48.33984375,0.0
397.37109375,-23.4375,-40.0390625,-35.64453125,-24.4140625,25.87890625,0.0
397.375,-16.11328125,-36.62109375,-31.25,-6.8359375,5.859375,0.0
397.37890625,-22.94921875,-34.66796875,-30.76171875,-5.859375,-75.1953125,0.0
397.3828125,-29.78515625,-38.57421875,-36.62109375,-14.16015625,-14.6484375,0.0
397.38671875,-19.53125,-34.1796875,-35.15625,-8.30078125,18.5546875,0.0
397.390625,-20.01953125,-29.296875,-28.3203125,1.953125,-27.83203125,0.0
397.39453125,-27.83203125,-33.69140625,-34.66796875,-8.7890625,-26.3671875,0.0
397.3984375,-35.15625,-36.62109375,-41.015625,-14.6484375,-2.44140625,0.0
397.40234375,-33.203125,-37.59765625,-36.62109375,-9.765625,4.8828125,0.0
397.40625,-29.296875,-34.1796875,-25.87890625,-8.7890625,-25.390625,0.0
397.41015625,-28.3203125,-29.78515625,-22.94921875,1.46484375,-43.45703125,0.0
397.4140625,-21.97265625,-28.3203125,-26.85546875,-7.8125,-66.89453125,0.0
397.41796875,-26.85546875,-31.73828125,-27.34375,-19.53125,-27.34375,0.0
397.421875,-27.34375,-35.15625,-30.2734375,-16.6015625,-38.0859375,0.0
397.42578125,-23.92578125,-31.73828125,-25.390625,-12.6953125,-86.9140625,0.0
397.4296875,-27.83203125,-30.2734375,-20.5078125,-7.8125,-46.875,0.0
397.43359375,-20.99609375,-33.203125,-25.87890625,-16.6015625,-61.03515625,0.0
397.4375,-29.296875,-40.52734375,-30.76171875,-27.34375,-28.80859375,0.0
397.44140625,-31.25,-39.55078125,-33.203125,-28.80859375,29.296875,0.0
397.4453125,-32.71484375,-39.55078125,-32.71484375,-33.203125,-5.859375,0.0
397.44921875,-45.41015625,-44.43359375,-33.69140625,-37.109375,-9.27734375,0.0
397.453125,-28.80859375,-40.0390625,-29.296875,-28.80859375,-42.48046875,0.0
397.45703125,-23.4375,-35.64453125,-28.80859375,-25.390625,-67.3828125,0.0
397.4609375,-38.0859375,-41.9921875,-32.71484375,-34.66796875,-39.55078125,0.0
397.46484375,-42.96875,-44.921875,-30.2734375,-37.59765625,-18.5546875,0.0
397.46875,-36.62109375,-39.0625,-29.296875,-27.83203125,-39.55078125,0.0
397.47265625,-23.4375,-39.55078125,-31.25,-25.87890625,-57.6171875,0.0
397.4765625,-34.66796875,-40.0390625,-23.4375,-30.76171875,-24.4140625,0.0
397.48046875,-46.38671875,-37.59765625,-19.04296875,-36.1328125,40.0390625,0.0
397.484375,-41.9921875,-42.48046875,-24.90234375,-42.48046875,79.58984375,0.0
397.48828125,-37.59765625,-42.48046875,-27.83203125,-43.9453125,78.61328125,0.0
397.4921875,-39.0625,-41.50390625,-26.3671875,-50.78125,30.2734375,0.0
397.49609375,-45.41015625,-46.38671875,-30.2734375,-52.734375,-27.34375,0.0
397.5,-46.38671875,-41.50390625,-34.66796875,-54.6875,-28.3203125,0.0
397.50390625,-48.33984375,-38.57421875,-38.0859375,-45.8984375,-19.53125,0.0
397.5078125,-52.734375,-41.015625,-37.109375,-36.1328125,-23.92578125,0.0
397.51171875,-47.8515625,-34.1796875,-33.69140625,-41.50390625,-0.9765625,0.0
397.515625,-49.31640625,-37.59765625,-36.1328125,-44.921875,13.18359375,0.0
397.51953125,-55.17578125,-41.9921875,-37.109375,-51.26953125,-22.94921875,0.0
397.5234375,-46.875,-36.62109375,-35.64453125,-50.29296875,-0.48828125,0.0
397.52734375,-22.94921875,-37.109375,-33.69140625,-41.50390625,62.5,0.0
397.53125,-25.390625,-40.52734375,-32.71484375,-41.9921875,48.828125,0.0
397.53515625,-42.96875,-41.50390625,-32.2265625,-35.15625,56.15234375,0.0
397.5390625,-39.55078125,-38.0859375,-30.76171875,-25.87890625,60.05859375,0.0
397.54296875,-41.015625,-36.1328125,-32.2265625,-38.57421875,-22.4609375,0.0
397.546875,-42.48046875,-41.50390625,-31.25,-37.109375,-112.3046875,0.0
397.55078125,-31.25,-42.96875,-33.203125,-26.3671875,-164.0625,0.0
397.5546875,-38.0859375,-40.52734375,-40.0390625,-35.15625,-155.76171875,0.0
397.55859375,-48.33984375,-40.52734375,-40.52734375,-36.62109375,-119.140625,0.0
397.5625,-44.921875,-41.9921875,-32.71484375,-36.62109375,-67.87109375,0.0
397.56640625,-49.31640625,-39.55078125,-28.80859375,-41.015625,-25.390625,0.0
397.5703125,-56.640625,-36.1328125,-30.76171875,-38.57421875,-42.96875,0.0
397.57421875,-56.640625,-41.50390625,-33.69140625,-51.7578125,-53.22265625,0.0
397.578125,-53.22265625,-37.59765625,-32.2265625,-49.8046875,-13.18359375,0.0
397.58203125,-62.01171875,-40.0390625,-35.15625,-44.921875,13.671875,0.0
397.5859375,-63.96484375,-47.8515625,-35.15625,-54.19921875,-27.83203125,0.0
397.58984375,-47.8515625,-37.109375,-28.80859375,-48.33984375,-68.84765625,0.0
397.59375,-45.41015625,-30.2734375,-30.2734375,-42.48046875,-2.44140625,0.0
397.59765625,-59.08203125,-38.57421875,-37.109375,-52.24609375,41.015625,0.0
397.6015625,-52.734375,-36.62109375,-39.55078125,-64.453125,-28.3203125,0.0
397.60546875,-30.2734375,-29.78515625,-39.0625,-51.26953125,-67.3828125,0.0
397.609375,-27.83203125,-31.25,-30.76171875,-33.69140625,-97.16796875,0.0
397.61328125,-38.57421875,-29.78515625,-24.4140625,-36.62109375,-12.6953125,0.0
397.6171875,-54.6875,-36.1328125,-30.76171875,-51.26953125,39.55078125,0.0
397.62109375,-60.546875,-41.015625,-35.15625,-49.8046875,-33.203125,0.0
397.625,-53.22265625,-40.0390625,-34.66796875,-33.203125,-112.79296875,0.0
397.62890625,-48.33984375,-37.59765625,-26.85546875,-31.25,-197.75390625,0.0
397.6328125,-47.36328125,-38.57421875,-21.97265625,-34.66796875,-41.9921875,0.0
397.63671875,-57.12890625,-43.9453125,-24.4140625,-46.875,31.25,0.0
397.640625,-61.03515625,-39.55078125,-31.25,-57.12890625,-111.81640625,0.0
397.64453125,-57.6171875,-36.1328125,-33.203125,-52.734375,-223.14453125,0.0
397.6484375,-46.38671875,-38.57421875,-33.69140625,-51.26953125,-201.66015625,0.0
397.65234375,-32.71484375,-39.55078125,-35.64453125,-50.78125,-129.8828125,0.0
397.65625,-28.3203125,-36.62109375,-33.203125,-34.66796875,-63.4765625,0.0
397.66015625,-41.50390625,-34.1796875,-37.59765625,-29.78515625,41.9921875,0.0
397.6640625,-45.41015625,-35.15625,-39.0625,-28.3203125,23.92578125,0.0
397.66796875,-51.26953125,-42.96875,-36.62109375,-29.78515625,57.12890625,0.0
397.671875,-42.48046875,-34.66796875,-33.203125,-22.4609375,102.05078125,0.0
397.67578125,-37.109375,-20.99609375,-28.3203125,-15.625,90.33203125,0.0
397.6796875,-53.22265625,-29.296875,-36.62109375,-30.2734375,148.92578125,0.0
397.68359375,-49.31640625,-35.15625,-41.9921875,-26.3671875,93.26171875,0.0
397.6875,-45.41015625,-37.109375,-41.50390625,-35.15625,3.41796875,0.0
397.69140625,-51.7578125,-37.59765625,-41.50390625,-49.31640625,24.4140625,0.0
397.6953125,-47.36328125,-39.55078125,-37.109375,-39.55078125,-6.34765625,0.0
397.69921875,-47.8515625,-46.875,-39.55078125,-36.62109375,-88.8671875,0.0
397.703125,-41.9921875,-44.921875,-42.96875,-42.48046875,-36.1328125,0.0
397.70703125,-51.7578125,-43.9453125,-41.50390625,-52.734375,62.01171875,0.0
397.7109375,-58.10546875,-43.9453125,-38.57421875,-46.38671875,132.32421875,0.0
397.71484375,-52.24609375,-39.55078125,-36.1328125,-32.2265625,74.21875,0.0
397.71875,-61.03515625,-46.38671875,-42.48046875,-44.43359375,4.8828125,0.0
397.72265625,-47.36328125,-48.828125,-49.8046875,-51.7578125,2.9296875,0.0
397.7265625,-34.66796875,-39.0625,-43.9453125,-42.96875,-38.57421875,0.0
397.73046875,-39.55078125,-34.66796875,-38.0859375,-36.62109375,-85.9375,0.0
397.734375,-25.87890625,-36.1328125,-38.0859375,-42.96875,-41.9921875,0.0
397.73828125,-28.3203125,-38.0859375,-33.69140625,-43.9453125,19.04296875,0.0
397.7421875,-33.203125,-34.66796875,-27.83203125,-29.78515625,-51.7578125,0.0
397.74609375,-33.203125,-33.203125,-38.57421875,-46.875,-190.4296875,0.0
397.75,-32.2265625,-30.76171875,-49.31640625,-53.22265625,-89.84375,0.0
397.75390625,-21.484375,-27.83203125,-44.43359375,-42.48046875,56.640625,0.0
397.7578125,-29.296875,-27.83203125,-42.48046875,-39.0625,14.6484375,0.0
397.76171875,-40.0390625,-31.73828125,-41.50390625,-39.0625,-11.71875,0.0
397.765625,-39.0625,-39.0625,-36.62109375,-39.0625,-78.61328125,0.0
397.76953125,-26.85546875,-29.78515625,-37.109375,-26.85546875,-94.7265625,0.0
397.7734375,-23.92578125,-23.4375,-38.57421875,-28.80859375,-42.96875,0.0
397.77734375,-31.73828125,-33.69140625,-40.52734375,-29.296875,-31.25,0.0
397.78125,-40.0390625,-36.1328125,-38.57421875,-33.203125,-9.765625,0.0
397.78515625,-38.57421875,-31.73828125,-41.9921875,-39.55078125,-31.73828125,0.0
397.7890625,-27.34375,-32.2265625,-42.48046875,-32.2265625,-107.421875,0.0
397.79296875,-17.578125,-26.85546875,-44.43359375,-25.390625,-155.2734375,0.0
397.796875,-18.06640625,-21.97265625,-47.36328125,-41.50390625,-142.08984375,0.0
397.80078125,-19.04296875,-30.76171875,-43.9453125,-37.109375,-108.3984375,0.0
397.8046875,-23.92578125,-33.203125,-41.015625,-16.11328125,-20.01953125,0.0
397.80859375,-8.7890625,-14.6484375,-22.4609375,2.44140625,4.39453125,0.0
397.8125,-9.765625,-17.08984375,-25.390625,-7.32421875,-28.3203125,0.0
397.81640625,-32.2265625,-38.0859375,-44.43359375,-23.92578125,-68.359375,0.0
397.8203125,-35.15625,-39.0625,-49.31640625,-22.94921875,-55.17578125,0.0
397.82421875,-38.57421875,-40.52734375,-51.7578125,-31.25,-42.48046875,0.0
397.828125,-33.69140625,-44.43359375,-48.828125,-34.1796875,-29.78515625,0.0
397.83203125,-28.3203125,-37.59765625,-48.33984375,-35.64453125,27.34375,0.0
397.8359375,-40.52734375,-35.64453125,-47.36328125,-40.0390625,3.90625,0.0
397.83984375,-40.0390625,-33.69140625,-48.828125,-41.50390625,-48.828125,0.0
397.84375,-47.36328125,-31.73828125,-49.31640625,-31.73828125,-28.80859375,0.0
397.84765625,-51.7578125,-32.2265625,-41.9921875,-15.625,-5.37109375,0.0
397.8515625,-48.828125,-29.296875,-43.9453125,-6.34765625,-42.48046875,0.0
397.85546875,-58.59375,-28.3203125,-47.8515625,-14.16015625,-36.1328125,0.0
397.859375,-46.875,-31.25,-44.921875,-18.5546875,-23.4375,0.0
397.86328125,-36.1328125,-27.34375,-41.015625,-20.99609375,-43.45703125,0.0
397.8671875,-47.36328125,-32.2265625,-45.41015625,-26.3671875,-124.51171875,0.0
397.87109375,-41.9921875,-38.57421875,-50.78125,-13.671875,-173.828125,0.0
397.875,-51.7578125,-36.1328125,-50.78125,-22.94921875,-109.375,0.0
397.87890625,-52.734375,-33.69140625,-44.921875,-27.34375,-59.08203125,0.0
397.8828125,-43.45703125,-36.1328125,-44.921875,-20.01953125,-16.11328125,0.0
397.88671875,-42.48046875,-37.59765625,-45.41015625,-29.296875,6.8359375,0.0
397.890625,-33.203125,-31.25,-34.66796875,-26.85546875,-27.83203125,0.0
397.89453125,-35.64453125,-29.78515625,-37.59765625,-31.73828125,-18.5546875,0.0
397.8984375,-35.64453125,-38.0859375,-48.828125,-41.50390625,-15.625,0.0
397.90234375,-39.55078125,-40.52734375,-47.36328125,-33.203125,-41.50390625,0.0
397.90625,-39.55078125,-34.1796875,-44.43359375,-25.87890625,-39.55078125,0.0
397.91015625,-45.41015625,-30.2734375,-42.48046875,-32.2265625,-45.41015625,0.0
397.9140625,-56.15234375,-37.59765625,-46.875,-43.45703125,-94.23828125,0.0
397.91796875,-38.0859375,-31.73828125,-44.921875,-34.1796875,-87.890625,0.0
397.921875,-28.3203125,-27.34375,-38.0859375,-22.4609375,-53.7109375,0.0
397.92578125,-27.83203125,-31.25,-34.66796875,-24.90234375,-65.91796875,0.0
397.9296875,-36.62109375,-33.203125,-31.73828125,-29.296875,-63.4765625,0.0
397.93359375,-35.64453125,-33.69140625,-30.2734375,-21.484375,20.01953125,0.0
397.9375,-36.1328125,-37.59765625,-31.73828125,-20.5078125,92.28515625,0.0
397.94140625,-49.8046875,-44.43359375,-37.59765625,-30.76171875,89.84375,0.0
397.9453125,-42.48046875,-41.015625,-33.69140625,-15.13671875,13.18359375,0.0
397.94921875,-27.83203125,-38.0859375,-32.71484375,-16.11328125,-80.078125,0.0
397.953125,-32.2265625,-34.1796875,-36.62109375,-31.25,-72.265625,0.0
397.95703125,-44.43359375,-29.78515625,-38.57421875,-24.90234375,-45.8984375,0.0
397.9609375,-43.9453125,-34.66796875,-39.55078125,-23.92578125,-109.86328125,0.0
397.96484375,-40.0390625,-34.66796875,-33.69140625,-13.18359375,-75.1953125,0.0
397.96875,-48.33984375,-35.64453125,-30.2734375,-13.18359375,-101.5625,0.0
397.97265625,-43.45703125,-36.62109375,-28.80859375,-19.04296875,-163.57421875,0.0
397.9765625,-45.41015625,-35.15625,-32.2265625,-18.06640625,-117.67578125,0.0
397.98046875,-45.8984375,-34.66796875,-37.109375,-27.83203125,-123.53515625,0.0
397.984375,-47.8515625,-41.50390625,-37.109375,-32.71484375,-126.953125,0.0
397.98828125,-52.24609375,-44.921875,-40.0390625,-31.25,-65.91796875,0.0
397.9921875,-48.33984375,-37.59765625,-37.59765625,-27.83203125,-88.8671875,0.0
397.99609375,-45.8984375,-34.1796875,-32.2265625,-20.99609375,-84.9609375,0.0
398.0,-43.45703125,-40.52734375,-34.1796875,-23.92578125,34.66796875,0.0
398.00390625,-53.22265625,-52.24609375,-46.38671875,-45.41015625,8.7890625,0.0
398.0078125,-45.8984375,-50.29296875,-43.45703125,-27.34375,-34.1796875,0.0
398.01171875,-33.69140625,-40.0390625,-30.76171875,-7.8125,5.859375,0.0
398.015625,-46.38671875,-34.1796875,-29.78515625,-29.296875,30.2734375,0.0
398.01953125,-65.4296875,-34.66796875,-27.83203125,-49.8046875,69.82421875,0.0
398.0234375,-63.4765625,-30.2734375,-29.78515625,-46.38671875,56.15234375,0.0
398.02734375,-51.7578125,-30.76171875,-34.1796875,-40.52734375,20.01953125,0.0
398.03125,-45.8984375,-41.50390625,-34.66796875,-39.55078125,-4.39453125,0.0
398.03515625,-41.015625,-40.52734375,-37.109375,-41.9921875,0.0,0.0
398.0390625,-42.48046875,-39.55078125,-36.62109375,-43.45703125,9.765625,0.0
398.04296875,-51.26953125,-41.9921875,-33.203125,-27.83203125,-2.44140625,0.0
398.046875,-60.05859375,-40.52734375,-36.62109375,-25.87890625,26.85546875,0.0
398.05078125,-51.7578125,-38.0859375,-40.52734375,-38.0859375,25.87890625,0.0
398.0546875,-48.33984375,-35.15625,-34.1796875,-31.73828125,82.03125,0.0
398.05859375,-55.6640625,-39.55078125,-30.2734375,-16.6015625,56.640625,0.0
398.0625,-50.29296875,-37.109375,-34.66796875,-17.08984375,-50.29296875,0.0
398.06640625,-46.875,-32.71484375,-35.64453125,-31.25,-41.9921875,0.0
398.0703125,-44.921875,-37.109375,-32.71484375,-34.1796875,-66.40625,0.0
398.07421875,-32.71484375,-36.62109375,-35.64453125,-22.4609375,-41.50390625,0.0
398.078125,-33.203125,-35.15625,-37.59765625,-27.34375,-10.25390625,0.0
398.08203125,-31.25,-31.25,-36.1328125,-27.83203125,-44.43359375,0.0
398.0859375,-31.25,-33.203125,-35.15625,-24.90234375,-70.3125,0.0
398.08984375,-30.2734375,-41.015625,-32.71484375,-40.52734375,-60.546875,0.0
398.09375,-29.78515625,-36.62109375,-29.296875,-35.15625,-49.8046875,0.0
398.09765625,-39.55078125,-30.2734375,-27.34375,-24.90234375,-16.6015625,0.0
398.1015625,-41.015625,-35.64453125,-30.76171875,-40.0390625,71.77734375,0.0
398.10546875,-47.8515625,-39.0625,-27.83203125,-49.31640625,11.23046875,0.0
398.109375,-50.29296875,-42.96875,-20.99609375,-30.76171875,-87.40234375,0.0
398.11328125,-37.59765625,-36.62109375,-19.53125,-19.04296875,-37.59765625,0.0
398.1171875,-38.0859375,-34.66796875,-21.484375,-40.52734375,-11.71875,0.0
398.12109375,-48.828125,-42.96875,-28.80859375,-48.828125,-54.19921875,0.0
398.125,-58.59375,-45.41015625,-30.2734375,-45.41015625,-90.33203125,0.0
398.12890625,-43.45703125,-42.96875,-27.83203125,-37.59765625,-110.83984375,0.0
398.1328125,-21.484375,-34.66796875,-30.2734375,-29.296875,-119.62890625,0.0
398.13671875,-38.57421875,-46.875,-38.0859375,-50.29296875,-158.203125,0.0
398.140625,-64.453125,-66.89453125,-50.29296875,-71.2890625,-90.8203125,0.0
398.14453125,-55.6640625,-52.734375,-36.1328125,-45.8984375,28.80859375,0.0
398.1484375,-38.57421875,-38.0859375,-28.80859375,-28.3203125,-47.8515625,0.0
398.15234375,-41.50390625,-37.59765625,-36.62109375,-31.25,-76.66015625,0.0
398.15625,-32.2265625,-33.69140625,-29.296875,-17.08984375,-45.41015625,0.0
398.16015625,-31.73828125,-33.203125,-26.3671875,-4.39453125,-60.546875,0.0
398.1640625,-41.9921875,-38.0859375,-35.15625,-8.7890625,-41.015625,0.0
398.16796875,-35.15625,-42.48046875,-39.55078125,-8.7890625,-28.3203125,0.0
398.171875,-20.5078125,-39.0625,-29.296875,2.44140625,-27.34375,0.0
398.17578125,-22.94921875,-38.57421875,-26.85546875,10.7421875,-36.1328125,0.0
398.1796875,-22.4609375,-38.0859375,-30.2734375,4.8828125,-87.890625,0.0
398.18359375,-39.0625,-58.10546875,-45.8984375,-26.85546875,-203.125,0.0
398.1875,-42.96875,-58.10546875,-46.38671875,-33.203125,-107.91015625,0.0
398.19140625,-18.06640625,-35.64453125,-28.3203125,-12.20703125,1.953125,0.0
398.1953125,-20.01953125,-31.73828125,-24.90234375,-11.23046875,-62.01171875,0.0
398.19921875,-27.34375,-29.296875,-28.3203125,-8.30078125,10.7421875,0.0
398.203125,-40.52734375,-32.71484375,-30.76171875,-11.23046875,38.57421875,0.0
398.20703125,-44.921875,-36.1328125,-25.87890625,-23.4375,-115.234375,0.0
