timestam,TP9,AF7,AF8,TP10,AUX,Marker
207.00390625,-44.921875,-23.92578125,-28.80859375,-39.0625,47.8515625,0.0
207.0078125,-43.45703125,-27.83203125,-30.76171875,-44.43359375,-28.3203125,0.0
207.01171875,-38.57421875,-36.1328125,-26.85546875,-44.921875,-98.6328125,0.0
207.015625,-41.50390625,-40.52734375,-24.4140625,-40.0390625,-49.8046875,0.0
207.01953125,-47.36328125,-33.203125,-29.296875,-38.57421875,-27.83203125,0.0
207.0234375,-44.43359375,-28.80859375,-32.71484375,-45.8984375,-31.25,0.0
207.02734375,-39.55078125,-30.76171875,-30.76171875,-43.9453125,-46.38671875,0.0
207.03125,-37.109375,-26.3671875,-38.57421875,-41.015625,-12.20703125,0.0
207.03515625,-35.15625,-29.296875,-39.0625,-32.2265625,65.4296875,0.0
207.0390625,-16.6015625,-35.15625,-29.78515625,-12.20703125,24.4140625,0.0
207.04296875,-17.578125,-22.94921875,-28.80859375,-9.765625,-77.63671875,0.0
207.046875,-45.41015625,-13.18359375,-35.64453125,-49.31640625,-88.8671875,0.0
207.05078125,-59.08203125,-14.6484375,-44.43359375,-77.63671875,-55.6640625,0.0
207.0546875,-47.8515625,-11.71875,-48.828125,-68.359375,-85.44921875,0.0
207.05859375,-53.7109375,-10.25390625,-54.19921875,-65.91796875,-46.38671875,0.0
207.0625,-64.94140625,-9.765625,-61.5234375,-87.890625,32.71484375,0.0
207.06640625,-56.640625,-3.41796875,-69.82421875,-97.65625,-21.97265625,0.0
207.0703125,-54.19921875,-4.8828125,-62.01171875,-90.33203125,-33.203125,0.0
207.07421875,-64.453125,-10.7421875,-55.17578125,-89.35546875,45.8984375,0.0
207.078125,-60.05859375,-11.71875,-60.546875,-79.58984375,40.52734375,0.0
207.08203125,-46.875,-14.16015625,-58.59375,-66.40625,-49.8046875,0.0
207.0859375,-43.9453125,-14.16015625,-52.24609375,-67.3828125,-121.09375,0.0
207.08984375,-43.45703125,-15.625,-49.31640625,-70.3125,-100.5859375,0.0
207.09375,-52.24609375,-20.01953125,-50.29296875,-60.546875,-97.16796875,0.0
207.09765625,-62.5,-19.04296875,-48.828125,-52.734375,-42.48046875,0.0
207.1015625,-65.91796875,-22.4609375,-51.7578125,-54.6875,74.70703125,0.0
207.10546875,-65.91796875,-29.78515625,-60.05859375,-66.40625,105.95703125,0.0
207.109375,-47.36328125,-24.4140625,-55.6640625,-69.82421875,64.94140625,0.0
207.11328125,-32.71484375,-21.97265625,-50.29296875,-58.59375,19.53125,0.0
207.1171875,-41.9921875,-23.4375,-42.48046875,-49.31640625,32.71484375,0.0
207.12109375,-51.26953125,-23.92578125,-44.43359375,-50.29296875,37.59765625,0.0
207.125,-53.22265625,-25.87890625,-52.734375,-56.15234375,-16.6015625,0.0
207.12890625,-44.43359375,-25.87890625,-43.45703125,-60.05859375,14.6484375,0.0
207.1328125,-45.41015625,-28.3203125,-34.1796875,-59.08203125,29.296875,0.0
207.13671875,-54.6875,-31.73828125,-38.0859375,-49.8046875,-34.66796875,0.0
207.140625,-54.6875,-29.78515625,-43.45703125,-43.9453125,-60.05859375,0.0
207.14453125,-43.9453125,-30.2734375,-43.9453125,-47.8515625,-50.29296875,0.0
207.1484375,-35.15625,-39.0625,-40.0390625,-49.31640625,-51.26953125,0.0
207.15234375,-28.80859375,-41.9921875,-40.0390625,-49.31640625,-72.75390625,0.0
207.15625,-33.69140625,-29.296875,-41.015625,-41.9921875,-123.53515625,0.0
207.16015625,-41.015625,-17.578125,-36.62109375,-23.4375,-123.53515625,0.0
207.1640625,-24.4140625,-20.01953125,-33.203125,-18.5546875,-143.06640625,0.0
207.16796875,-20.5078125,-28.80859375,-36.1328125,-33.69140625,-217.28515625,0.0
207.171875,-26.85546875,-28.3203125,-41.50390625,-33.69140625,-158.69140625,0.0
207.17578125,-33.69140625,-25.87890625,-42.48046875,-24.90234375,-70.80078125,0.0
207.1796875,-41.9921875,-31.25,-40.0390625,-28.3203125,-56.640625,0.0
207.18359375,-43.45703125,-36.1328125,-32.71484375,-36.62109375,-73.73046875,0.0
207.1875,-28.3203125,-28.80859375,-29.296875,-31.25,-75.1953125,0.0
207.19140625,-18.5546875,-20.5078125,-33.203125,-29.78515625,94.23828125,0.0
207.1953125,-33.203125,-30.76171875,-34.66796875,-30.76171875,215.33203125,0.0
207.19921875,-36.1328125,-35.64453125,-35.15625,-30.76171875,164.0625,0.0
207.203125,-35.15625,-27.34375,-38.0859375,-41.015625,32.71484375,0.0
207.20703125,-32.71484375,-22.4609375,-36.62109375,-41.9921875,-34.66796875,0.0
207.2109375,-25.87890625,-26.85546875,-35.64453125,-38.0859375,-0.48828125,0.0
207.21484375,-33.69140625,-25.390625,-37.109375,-36.62109375,-44.43359375,0.0
207.21875,-38.0859375,-23.4375,-35.15625,-29.78515625,19.04296875,0.0
207.22265625,-31.73828125,-38.0859375,-31.73828125,-17.08984375,-6.8359375,0.0
207.2265625,-29.78515625,-43.45703125,-30.76171875,-21.97265625,-78.61328125,0.0
207.23046875,-30.2734375,-36.1328125,-38.0859375,-39.55078125,-95.703125,0.0
207.234375,-35.15625,-43.45703125,-53.7109375,-39.55078125,-67.3828125,0.0
207.23828125,-38.0859375,-43.45703125,-59.5703125,-30.76171875,46.38671875,0.0
207.2421875,-39.0625,-34.1796875,-46.38671875,-36.1328125,83.0078125,0.0
207.24609375,-41.50390625,-33.69140625,-36.62109375,-48.828125,73.2421875,0.0
207.25,-36.62109375,-37.59765625,-34.1796875,-54.6875,-1.953125,0.0
207.25390625,-35.64453125,-35.64453125,-30.76171875,-46.875,31.25,0.0
207.2578125,-41.9921875,-36.1328125,-31.73828125,-37.109375,11.23046875,0.0
207.26171875,-37.59765625,-36.62109375,-32.71484375,-40.0390625,-61.03515625,0.0
207.265625,-28.3203125,-33.203125,-39.55078125,-44.43359375,4.8828125,0.0
207.26953125,-21.97265625,-35.15625,-46.875,-44.921875,-8.7890625,0.0
207.2734375,-19.53125,-33.69140625,-40.0390625,-39.55078125,-22.4609375,0.0
207.27734375,-24.90234375,-40.0390625,-34.66796875,-37.109375,-6.34765625,0.0
207.28125,-38.0859375,-43.9453125,-36.62109375,-41.015625,-22.94921875,0.0
207.28515625,-42.48046875,-37.59765625,-40.52734375,-38.0859375,-57.12890625,0.0
207.2890625,-31.25,-34.1796875,-41.50390625,-35.15625,-112.3046875,0.0
207.29296875,-25.87890625,-34.1796875,-37.109375,-34.66796875,-139.16015625,0.0
207.296875,-37.109375,-35.64453125,-35.64453125,-28.3203125,-112.3046875,0.0
207.30078125,-36.62109375,-33.69140625,-37.59765625,-23.4375,-114.74609375,0.0
207.3046875,-24.4140625,-27.34375,-35.15625,-28.80859375,-132.8125,0.0
207.30859375,-25.390625,-25.87890625,-31.73828125,-34.1796875,-149.4140625,0.0
207.3125,-33.203125,-34.1796875,-23.4375,-36.1328125,-164.55078125,0.0
207.31640625,-33.69140625,-46.38671875,-20.99609375,-40.52734375,-136.23046875,0.0
207.3203125,-30.2734375,-37.109375,-25.390625,-39.0625,-77.63671875,0.0
207.32421875,-35.64453125,-32.2265625,-28.80859375,-39.55078125,-112.3046875,0.0
207.328125,-37.109375,-36.1328125,-33.69140625,-39.55078125,-89.35546875,0.0
207.33203125,-23.92578125,-31.73828125,-37.109375,-38.0859375,-28.3203125,0.0
207.3359375,-26.3671875,-31.25,-35.15625,-32.2265625,0.9765625,0.0
207.33984375,-41.015625,-25.390625,-32.2265625,-29.78515625,-63.4765625,0.0
207.34375,-43.9453125,-23.4375,-33.203125,-37.59765625,-38.0859375,0.0
207.34765625,-39.55078125,-29.78515625,-36.62109375,-43.45703125,-10.7421875,0.0
207.3515625,-36.1328125,-26.3671875,-38.0859375,-39.55078125,-9.765625,0.0
207.35546875,-36.62109375,-25.87890625,-32.71484375,-35.64453125,-45.41015625,0.0
207.359375,-42.96875,-36.62109375,-30.76171875,-35.15625,-143.5546875,0.0
207.36328125,-43.9453125,-39.0625,-33.69140625,-32.71484375,-104.98046875,0.0
207.3671875,-34.66796875,-34.1796875,-36.1328125,-35.15625,-49.31640625,0.0
207.37109375,-28.80859375,-26.3671875,-34.1796875,-35.64453125,-82.03125,0.0
207.375,-29.296875,-25.87890625,-39.0625,-36.1328125,-59.08203125,0.0
207.37890625,-39.0625,-35.64453125,-44.921875,-36.62109375,32.2265625,0.0
207.3828125,-38.57421875,-40.0390625,-30.2734375,-38.0859375,27.34375,0.0
207.38671875,-26.3671875,-27.83203125,-22.94921875,-39.55078125,-59.5703125,0.0
207.390625,-22.94921875,-22.4609375,-33.203125,-24.90234375,-60.546875,0.0
207.39453125,-21.484375,-25.87890625,-34.1796875,-32.71484375,-17.578125,0.0
207.3984375,-29.78515625,-29.296875,-29.296875,-39.55078125,-24.90234375,0.0
207.40234375,-38.57421875,-32.71484375,-31.73828125,-32.71484375,-91.796875,0.0
207.40625,-41.015625,-32.2265625,-35.64453125,-40.52734375,-83.0078125,0.0
207.41015625,-25.390625,-30.76171875,-43.45703125,-42.48046875,-50.78125,0.0
207.4140625,-20.01953125,-24.4140625,-46.875,-34.66796875,-83.984375,0.0
207.41796875,-49.31640625,-34.1796875,-35.64453125,-31.25,-63.96484375,0.0
207.421875,-56.15234375,-34.66796875,-28.80859375,-37.109375,28.3203125,0.0
207.42578125,-39.55078125,-15.625,-24.4140625,-39.55078125,95.21484375,0.0
207.4296875,-39.0625,-19.53125,-16.6015625,-38.0859375,-22.4609375,0.0
207.43359375,-48.33984375,-31.73828125,-20.5078125,-37.109375,-110.3515625,0.0
207.4375,-39.0625,-32.2265625,-28.3203125,-21.484375,-82.03125,0.0
207.44140625,-41.015625,-32.2265625,-28.80859375,-25.390625,-102.5390625,0.0
207.4453125,-38.57421875,-33.203125,-27.34375,-37.59765625,-77.1484375,0.0
207.44921875,-24.4140625,-27.83203125,-27.34375,-35.15625,-58.59375,0.0
207.453125,-19.53125,-21.97265625,-25.87890625,-31.73828125,-79.58984375,0.0
207.45703125,-29.78515625,-23.4375,-23.92578125,-28.3203125,-65.4296875,0.0
207.4609375,-38.57421875,-26.85546875,-20.5078125,-25.87890625,-11.71875,0.0
207.46484375,-31.73828125,-30.2734375,-21.97265625,-31.25,-11.23046875,0.0
207.46875,-20.99609375,-35.15625,-31.25,-37.109375,6.8359375,0.0
207.47265625,-29.78515625,-37.59765625,-31.25,-36.62109375,41.50390625,0.0
207.4765625,-53.22265625,-37.59765625,-31.73828125,-35.64453125,83.984375,0.0
207.48046875,-58.59375,-39.55078125,-27.83203125,-38.0859375,112.3046875,0.0
207.484375,-51.7578125,-38.57421875,-25.390625,-41.015625,130.859375,0.0
207.48828125,-41.50390625,-39.0625,-38.57421875,-43.45703125,52.24609375,0.0
207.4921875,-38.57421875,-39.0625,-34.1796875,-43.9453125,-57.6171875,0.0
207.49609375,-43.9453125,-35.15625,-22.94921875,-33.69140625,-22.4609375,0.0
207.5,-43.45703125,-40.0390625,-22.94921875,-30.76171875,19.04296875,0.0
207.50390625,-45.41015625,-37.59765625,-27.34375,-35.64453125,44.43359375,0.0
207.5078125,-42.48046875,-41.015625,-30.2734375,-40.0390625,0.0,0.0
207.51171875,-37.109375,-41.9921875,-35.15625,-39.0625,-14.16015625,0.0
207.515625,-35.64453125,-25.390625,-38.0859375,-32.71484375,-3.90625,0.0
207.51953125,-36.1328125,-26.85546875,-40.0390625,-31.73828125,-56.640625,0.0
207.5234375,-16.6015625,-26.3671875,-33.203125,-30.2734375,-76.66015625,0.0
207.52734375,-6.8359375,-20.99609375,-33.203125,-36.1328125,-28.3203125,0.0
207.53125,-20.01953125,-29.78515625,-39.55078125,-41.50390625,32.71484375,0.0
207.53515625,-27.83203125,-36.62109375,-32.71484375,-28.80859375,6.8359375,0.0
207.5390625,-37.59765625,-31.73828125,-33.203125,-20.5078125,-61.5234375,0.0
207.54296875,-43.9453125,-26.3671875,-36.1328125,-33.203125,-21.97265625,0.0
207.546875,-37.109375,-24.4140625,-32.2265625,-38.57421875,-0.9765625,0.0
207.55078125,-30.76171875,-35.15625,-35.15625,-36.62109375,-62.98828125,0.0
207.5546875,-34.66796875,-37.109375,-38.57421875,-39.55078125,-45.41015625,0.0
207.55859375,-44.921875,-27.34375,-35.64453125,-38.0859375,-32.71484375,0.0
207.5625,-44.921875,-30.2734375,-45.8984375,-39.0625,-34.1796875,0.0
207.56640625,-40.0390625,-37.109375,-41.50390625,-42.48046875,-76.66015625,0.0
207.5703125,-35.64453125,-36.1328125,-24.90234375,-41.50390625,-126.46484375,0.0
207.57421875,-32.2265625,-26.3671875,-29.78515625,-34.66796875,-40.52734375,0.0
207.578125,-34.1796875,-26.3671875,-35.64453125,-27.34375,50.78125,0.0
207.58203125,-32.71484375,-30.76171875,-44.43359375,-29.296875,15.13671875,0.0
207.5859375,-31.73828125,-22.94921875,-52.24609375,-33.69140625,8.30078125,0.0
207.58984375,-32.71484375,-21.484375,-42.96875,-30.76171875,8.30078125,0.0
207.59375,-33.203125,-30.2734375,-32.71484375,-23.4375,-24.90234375,0.0
207.59765625,-31.73828125,-30.2734375,-20.5078125,-19.53125,-64.94140625,0.0
207.6015625,-26.3671875,-25.390625,-23.92578125,-25.390625,-111.81640625,0.0
207.60546875,-26.3671875,-28.3203125,-41.015625,-27.83203125,-88.8671875,0.0
207.609375,-31.73828125,-35.64453125,-37.59765625,-32.71484375,-23.4375,0.0
207.61328125,-38.57421875,-46.38671875,-29.296875,-39.0625,-45.41015625,0.0
207.6171875,-49.8046875,-47.36328125,-33.203125,-39.0625,-88.8671875,0.0
207.62109375,-49.8046875,-42.96875,-32.2265625,-40.52734375,-97.65625,0.0
207.625,-38.57421875,-43.9453125,-28.80859375,-38.0859375,-123.53515625,0.0
207.62890625,-36.1328125,-47.36328125,-41.50390625,-45.41015625,-115.72265625,0.0
207.6328125,-35.15625,-39.0625,-37.59765625,-47.36328125,-152.34375,0.0
207.63671875,-33.203125,-26.3671875,-34.66796875,-39.0625,-149.4140625,0.0
207.640625,-24.4140625,-19.53125,-37.109375,-35.15625,-31.73828125,0.0
207.64453125,-27.34375,-26.3671875,-19.04296875,-34.1796875,-36.62109375,0.0
207.6484375,-43.45703125,-30.2734375,-27.83203125,-34.66796875,-61.03515625,0.0
207.65234375,-44.43359375,-29.296875,-34.1796875,-38.0859375,-63.4765625,0.0
207.65625,-41.9921875,-34.66796875,-32.71484375,-44.921875,-60.05859375,0.0
207.66015625,-48.33984375,-38.0859375,-38.57421875,-41.50390625,0.48828125,0.0
207.6640625,-44.43359375,-38.0859375,-35.64453125,-38.0859375,-31.73828125,0.0
207.66796875,-36.1328125,-30.2734375,-30.76171875,-49.31640625,-72.265625,0.0
207.671875,-26.85546875,-27.34375,-25.87890625,-43.9453125,-9.765625,0.0
207.67578125,-36.62109375,-29.78515625,-30.2734375,-32.71484375,-17.578125,0.0
207.6796875,-47.36328125,-30.76171875,-35.15625,-21.97265625,-67.3828125,0.0
207.68359375,-41.015625,-29.78515625,-35.64453125,-15.625,-80.56640625,0.0
207.6875,-38.0859375,-29.78515625,-22.4609375,-25.390625,-23.92578125,0.0
207.69140625,-32.71484375,-29.78515625,-19.53125,-34.1796875,-62.5,0.0
207.6953125,-36.62109375,-34.1796875,-36.62109375,-39.0625,-79.58984375,0.0
207.69921875,-50.78125,-36.1328125,-41.015625,-35.64453125,-57.12890625,0.0
207.703125,-54.19921875,-30.2734375,-47.36328125,-38.57421875,-151.85546875,0.0
207.70703125,-48.33984375,-28.3203125,-48.828125,-46.38671875,-89.84375,0.0
207.7109375,-46.38671875,-32.2265625,-43.9453125,-47.8515625,-30.2734375,0.0
207.71484375,-49.31640625,-38.0859375,-39.55078125,-43.45703125,-61.5234375,0.0
207.71875,-44.921875,-43.45703125,-39.55078125,-27.34375,15.625,0.0
207.72265625,-42.96875,-41.50390625,-46.38671875,-37.59765625,35.15625,0.0
207.7265625,-51.7578125,-37.109375,-56.640625,-75.1953125,-12.20703125,0.0
207.73046875,-44.43359375,-39.0625,-55.6640625,-67.3828125,-16.11328125,0.0
207.734375,-37.109375,-31.25,-47.36328125,-38.57421875,-46.38671875,0.0
207.73828125,-40.52734375,-20.01953125,-48.33984375,-38.57421875,-48.33984375,0.0
207.7421875,-39.0625,-16.6015625,-47.8515625,-48.33984375,18.5546875,0.0
207.74609375,-35.64453125,-13.18359375,-49.8046875,-52.24609375,-9.765625,0.0
207.75,-26.85546875,-8.7890625,-50.29296875,-55.6640625,-21.484375,0.0
207.75390625,-15.625,-13.671875,-50.78125,-47.8515625,43.45703125,0.0
207.7578125,-8.30078125,-21.484375,-64.94140625,-35.15625,-1.46484375,0.0
207.76171875,-18.5546875,-18.06640625,-54.19921875,-33.69140625,-21.97265625,0.0
207.765625,-21.97265625,-26.85546875,-36.62109375,-41.015625,-35.64453125,0.0
207.76953125,-26.3671875,-29.78515625,-38.0859375,-41.9921875,-21.484375,0.0
207.7734375,-32.2265625,-16.6015625,-32.2265625,-34.1796875,-4.8828125,0.0
207.77734375,-41.015625,-15.625,-23.92578125,-36.1328125,-69.3359375,0.0
207.78125,-49.31640625,-19.53125,-29.296875,-42.48046875,-41.50390625,0.0
207.78515625,-44.921875,-16.6015625,-37.59765625,-35.64453125,-13.18359375,0.0
207.7890625,-42.48046875,-23.92578125,-39.55078125,-50.29296875,-72.75390625,0.0
207.79296875,-43.9453125,-34.66796875,-34.1796875,-54.6875,-40.52734375,0.0
207.796875,-43.45703125,-27.83203125,-33.69140625,-42.48046875,26.3671875,0.0
207.80078125,-38.0859375,-20.99609375,-33.203125,-35.64453125,1.46484375,0.0
207.8046875,-26.3671875,-29.296875,-36.62109375,-31.73828125,-22.4609375,0.0
207.80859375,-15.625,-37.109375,-31.73828125,-34.1796875,-47.36328125,0.0
207.8125,-28.80859375,-31.25,-22.4609375,-35.64453125,-90.8203125,0.0
207.81640625,-36.1328125,-21.97265625,-20.5078125,-33.203125,20.5078125,0.0
207.8203125,-34.1796875,-23.92578125,-19.04296875,-36.62109375,82.51953125,0.0
207.82421875,-45.41015625,-27.34375,-28.80859375,-31.73828125,-17.08984375,0.0
207.828125,-41.015625,-31.25,-33.203125,-34.66796875,38.0859375,0.0
207.83203125,-36.1328125,-49.31640625,-29.296875,-41.50390625,60.05859375,0.0
207.8359375,-36.62109375,-44.921875,-28.80859375,-34.66796875,-26.3671875,0.0
207.83984375,-37.109375,-30.76171875,-26.3671875,-38.0859375,-54.6875,0.0
207.84375,-40.0390625,-22.94921875,-28.3203125,-45.8984375,-48.828125,0.0
207.84765625,-43.9453125,-21.97265625,-36.62109375,-51.26953125,53.7109375,0.0
207.8515625,-34.66796875,-19.04296875,-37.109375,-48.828125,-8.30078125,0.0
207.85546875,-36.62109375,-24.4140625,-34.1796875,-46.38671875,-123.53515625,0.0
207.859375,-39.55078125,-28.80859375,-34.66796875,-42.48046875,6.8359375,0.0
207.86328125,-38.0859375,-27.83203125,-39.55078125,-40.0390625,79.1015625,0.0
207.8671875,-39.0625,-33.69140625,-35.15625,-47.36328125,52.734375,0.0
207.87109375,-34.66796875,-38.0859375,-31.25,-49.31640625,-29.296875,0.0
207.875,-43.45703125,-31.25,-30.2734375,-42.96875,-95.703125,0.0
207.87890625,-46.875,-22.4609375,-29.296875,-36.1328125,-0.9765625,0.0
207.8828125,-30.2734375,-26.85546875,-30.76171875,-41.50390625,7.8125,0.0
207.88671875,-26.85546875,-36.1328125,-31.73828125,-52.24609375,-66.40625,0.0
207.890625,-24.4140625,-31.25,-35.15625,-47.36328125,-117.1875,0.0
207.89453125,-22.94921875,-26.3671875,-41.50390625,-44.43359375,-81.0546875,0.0
207.8984375,-40.0390625,-24.90234375,-36.1328125,-39.0625,-13.18359375,0.0
207.90234375,-50.78125,-30.2734375,-37.59765625,-32.71484375,-43.9453125,0.0
207.90625,-41.9921875,-32.2265625,-42.48046875,-30.76171875,-44.43359375,0.0
207.91015625,-32.71484375,-32.2265625,-36.1328125,-35.64453125,-24.4140625,0.0
207.9140625,-32.71484375,-34.1796875,-35.64453125,-35.15625,-85.9375,0.0
207.91796875,-48.828125,-32.2265625,-34.66796875,-30.2734375,-144.04296875,0.0
207.921875,-51.7578125,-34.1796875,-32.2265625,-29.296875,-45.41015625,0.0
207.92578125,-46.38671875,-39.0625,-28.80859375,-37.59765625,-48.828125,0.0
207.9296875,-37.59765625,-32.2265625,-26.3671875,-35.15625,-149.90234375,0.0
207.93359375,-37.59765625,-27.83203125,-26.85546875,-26.3671875,-72.265625,0.0
207.9375,-42.96875,-38.0859375,-28.3203125,-25.87890625,-40.0390625,0.0
207.94140625,-43.45703125,-44.921875,-35.64453125,-26.3671875,-67.3828125,0.0
207.9453125,-51.7578125,-43.9453125,-38.57421875,-36.1328125,-25.390625,0.0
207.94921875,-39.0625,-37.59765625,-30.76171875,-45.8984375,-28.80859375,0.0
207.953125,-34.1796875,-33.203125,-27.34375,-35.15625,-38.57421875,0.0
207.95703125,-45.41015625,-31.25,-21.97265625,-26.85546875,-18.5546875,0.0
207.9609375,-48.33984375,-25.87890625,-22.94921875,-26.3671875,37.109375,0.0
207.96484375,-46.38671875,-26.85546875,-25.390625,-28.80859375,11.71875,0.0
207.96875,-38.57421875,-35.15625,-26.85546875,-29.296875,-59.08203125,0.0
207.97265625,-30.2734375,-38.57421875,-25.87890625,-24.90234375,-70.80078125,0.0
207.9765625,-36.62109375,-39.55078125,-21.97265625,-31.73828125,-76.171875,0.0
207.98046875,-48.33984375,-41.9921875,-22.94921875,-38.0859375,-90.8203125,0.0
207.984375,-51.7578125,-37.59765625,-29.78515625,-35.64453125,-122.0703125,0.0
207.98828125,-47.36328125,-25.87890625,-33.203125,-44.921875,-136.71875,0.0
207.9921875,-45.41015625,-29.296875,-31.73828125,-50.78125,-93.26171875,0.0
207.99609375,-51.7578125,-37.109375,-36.1328125,-38.57421875,-24.90234375,0.0
208.0,-52.24609375,-31.73828125,-31.25,-31.73828125,-8.30078125,0.0
208.00390625,-43.9453125,-34.66796875,-32.71484375,-46.875,18.06640625,0.0
208.0078125,-33.203125,-38.57421875,-38.0859375,-48.828125,26.3671875,0.0
208.01171875,-24.4140625,-40.0390625,-36.1328125,-35.15625,31.25,0.0
208.015625,-30.2734375,-43.45703125,-34.66796875,-26.3671875,109.86328125,0.0
208.01953125,-39.0625,-41.9921875,-32.2265625,-22.4609375,80.56640625,0.0
208.0234375,-35.64453125,-37.59765625,-34.1796875,-27.34375,-53.22265625,0.0
208.02734375,-10.7421875,-41.9921875,-33.203125,-31.73828125,-164.0625,0.0
208.03125,-5.859375,-42.48046875,-34.1796875,-31.25,-173.33984375,0.0
208.03515625,-33.69140625,-37.109375,-37.109375,-29.78515625,-80.078125,0.0
208.0390625,-47.8515625,-41.9921875,-34.66796875,-33.203125,36.62109375,0.0
208.04296875,-36.62109375,-39.0625,-31.73828125,-32.71484375,89.35546875,0.0
208.046875,-28.80859375,-25.87890625,-34.1796875,-31.73828125,64.94140625,0.0
208.05078125,-36.62109375,-24.4140625,-37.59765625,-37.109375,33.203125,0.0
208.0546875,-41.50390625,-35.64453125,-31.25,-36.62109375,4.8828125,0.0
208.05859375,-42.48046875,-42.48046875,-31.73828125,-33.203125,-34.66796875,0.0
208.0625,-45.41015625,-36.62109375,-33.203125,-37.59765625,-5.37109375,0.0
208.06640625,-41.015625,-37.59765625,-29.78515625,-44.921875,-8.30078125,0.0
208.0703125,-26.85546875,-43.9453125,-35.15625,-43.45703125,-49.31640625,0.0
208.07421875,-30.76171875,-41.50390625,-38.0859375,-34.1796875,-98.6328125,0.0
208.078125,-37.59765625,-37.59765625,-38.0859375,-33.69140625,-133.30078125,0.0
208.08203125,-30.2734375,-35.64453125,-41.015625,-38.57421875,-102.5390625,0.0
208.0859375,-21.97265625,-41.015625,-39.55078125,-36.62109375,-59.5703125,0.0
208.08984375,-12.6953125,-36.62109375,-34.1796875,-28.80859375,-97.16796875,0.0
208.09375,-22.4609375,-30.76171875,-36.1328125,-30.76171875,-42.48046875,0.0
208.09765625,-37.109375,-32.2265625,-38.57421875,-28.3203125,20.5078125,0.0
208.1015625,-31.73828125,-28.3203125,-29.78515625,-21.97265625,-8.7890625,0.0
208.10546875,-26.3671875,-29.78515625,-23.4375,-24.4140625,-49.8046875,0.0
208.109375,-25.390625,-34.1796875,-21.97265625,-27.83203125,-42.48046875,0.0
208.11328125,-24.90234375,-31.25,-18.06640625,-27.83203125,3.41796875,0.0
208.1171875,-34.1796875,-34.66796875,-23.4375,-25.87890625,-14.16015625,0.0
208.12109375,-30.76171875,-33.69140625,-20.99609375,-15.625,-78.61328125,0.0
208.125,-8.7890625,-22.94921875,-15.625,-0.9765625,-111.328125,0.0
208.12890625,-9.765625,-18.5546875,-23.4375,-15.13671875,-35.64453125,0.0
208.1328125,-30.76171875,-21.484375,-31.25,-45.41015625,-63.4765625,0.0
208.13671875,-37.59765625,-18.06640625,-34.1796875,-42.48046875,-18.06640625,0.0
208.140625,-40.0390625,-20.5078125,-35.15625,-32.71484375,89.35546875,0.0
208.14453125,-38.57421875,-30.2734375,-35.64453125,-37.59765625,8.7890625,0.0
208.1484375,-18.06640625,-26.85546875,-35.15625,-42.48046875,-46.38671875,0.0
208.15234375,-6.8359375,-24.90234375,-24.90234375,-37.109375,-7.32421875,0.0
208.15625,-20.01953125,-30.2734375,-24.4140625,-31.25,-41.50390625,0.0
208.16015625,-25.390625,-33.203125,-32.2265625,-23.92578125,-106.93359375,0.0
208.1640625,-17.578125,-34.1796875,-32.71484375,-24.90234375,-83.984375,0.0
208.16796875,-20.01953125,-29.78515625,-35.15625,-37.59765625,31.73828125,0.0
208.171875,-21.484375,-29.296875,-35.64453125,-31.25,50.29296875,0.0
208.17578125,-25.390625,-31.73828125,-36.1328125,-25.87890625,29.78515625,0.0
208.1796875,-36.1328125,-27.34375,-40.52734375,-32.2265625,-18.5546875,0.0
208.18359375,-44.43359375,-28.80859375,-41.50390625,-39.0625,-69.3359375,0.0
208.1875,-37.109375,-31.73828125,-39.55078125,-46.38671875,-13.18359375,0.0
208.19140625,-27.34375,-25.390625,-41.015625,-42.96875,46.875,0.0
208.1953125,-41.015625,-23.4375,-41.50390625,-35.64453125,-9.765625,0.0
208.19921875,-48.828125,-30.76171875,-36.62109375,-38.57421875,-41.50390625,0.0
208.203125,-41.9921875,-34.1796875,-37.59765625,-35.64453125,-47.8515625,0.0
208.20703125,-33.203125,-29.78515625,-37.59765625,-32.71484375,-51.7578125,0.0
208.2109375,-25.390625,-30.76171875,-37.109375,-38.0859375,-70.3125,0.0
208.21484375,-31.73828125,-45.41015625,-40.52734375,-31.73828125,-104.4921875,0.0
208.21875,-41.015625,-50.29296875,-38.0859375,-27.83203125,-22.94921875,0.0
208.22265625,-33.69140625,-41.9921875,-32.2265625,-41.015625,5.859375,0.0
208.2265625,-27.83203125,-39.55078125,-34.1796875,-38.0859375,-80.078125,0.0
208.23046875,-29.78515625,-37.109375,-28.80859375,-29.78515625,-63.96484375,0.0
208.234375,-38.0859375,-35.15625,-22.94921875,-28.80859375,-8.7890625,0.0
208.23828125,-39.0625,-35.64453125,-20.99609375,-19.53125,-6.34765625,0.0
208.2421875,-33.69140625,-31.73828125,-21.97265625,-15.13671875,-25.87890625,0.0
208.24609375,-36.62109375,-35.64453125,-30.2734375,-25.390625,-86.9140625,0.0
208.25,-35.15625,-38.57421875,-34.66796875,-26.3671875,-90.8203125,0.0
208.25390625,-40.0390625,-37.109375,-33.203125,-27.83203125,-49.31640625,0.0
208.2578125,-41.9921875,-43.45703125,-23.4375,-33.69140625,-70.3125,0.0
208.26171875,-46.875,-38.0859375,-19.53125,-34.66796875,-6.8359375,0.0
208.265625,-54.19921875,-33.203125,-32.71484375,-36.62109375,15.13671875,0.0
208.26953125,-42.48046875,-34.66796875,-39.55078125,-34.1796875,-59.08203125,0.0
208.2734375,-32.2265625,-44.921875,-33.203125,-30.76171875,-75.68359375,0.0
208.27734375,-36.62109375,-52.734375,-34.1796875,-31.73828125,-20.99609375,0.0
208.28125,-36.62109375,-41.50390625,-39.0625,-27.34375,-16.11328125,0.0
208.28515625,-26.85546875,-34.66796875,-36.1328125,-34.66796875,-31.25,0.0
208.2890625,-15.625,-37.59765625,-25.87890625,-33.203125,11.71875,0.0
208.29296875,-24.90234375,-41.015625,-29.78515625,-27.83203125,-19.04296875,0.0
208.296875,-34.66796875,-45.41015625,-29.78515625,-31.25,-20.01953125,0.0
208.30078125,-31.25,-35.15625,-22.94921875,-26.3671875,74.70703125,0.0
208.3046875,-23.92578125,-19.04296875,-20.5078125,-22.4609375,97.16796875,0.0
208.30859375,-20.5078125,-20.99609375,-23.4375,-29.296875,84.9609375,0.0
208.3125,-23.4375,-31.73828125,-31.25,-36.62109375,-22.4609375,0.0
208.31640625,-34.66796875,-34.1796875,-39.0625,-31.25,-41.015625,0.0
208.3203125,-47.8515625,-32.71484375,-44.921875,-37.109375,41.9921875,0.0
208.32421875,-40.0390625,-31.73828125,-38.0859375,-41.9921875,21.484375,0.0
208.328125,-29.78515625,-31.73828125,-31.25,-41.9921875,9.27734375,0.0
208.33203125,-36.1328125,-34.66796875,-27.34375,-41.50390625,-61.5234375,0.0
208.3359375,-40.52734375,-35.64453125,-22.94921875,-28.80859375,-54.19921875,0.0
208.33984375,-40.52734375,-36.1328125,-23.4375,-32.2265625,-7.32421875,0.0
208.34375,-44.43359375,-34.66796875,-26.3671875,-41.50390625,-4.8828125,0.0
208.34765625,-41.9921875,-36.62109375,-25.87890625,-41.50390625,-12.20703125,0.0
208.3515625,-30.2734375,-44.43359375,-22.4609375,-43.45703125,-52.24609375,0.0
208.35546875,-28.80859375,-44.921875,-27.83203125,-38.0859375,2.44140625,0.0
208.359375,-46.875,-33.69140625,-25.390625,-26.3671875,28.3203125,0.0
208.36328125,-54.19921875,-26.85546875,-27.34375,-32.2265625,-12.6953125,0.0
208.3671875,-35.64453125,-23.4375,-30.2734375,-35.64453125,-38.0859375,0.0
208.37109375,-23.92578125,-25.87890625,-25.87890625,-40.0390625,-71.2890625,0.0
208.375,-40.52734375,-32.2265625,-25.390625,-40.0390625,-69.82421875,0.0
208.37890625,-47.8515625,-27.34375,-31.25,-34.1796875,-31.25,0.0
208.3828125,-33.203125,-21.97265625,-33.203125,-24.4140625,-52.734375,0.0
208.38671875,-10.7421875,-20.99609375,-32.2265625,-15.625,-40.0390625,0.0
208.390625,-16.11328125,-24.90234375,-40.0390625,-36.1328125,-19.53125,0.0
208.39453125,-38.57421875,-25.87890625,-39.55078125,-44.43359375,-106.93359375,0.0
208.3984375,-42.96875,-19.53125,-35.15625,-28.80859375,-114.2578125,0.0
208.40234375,-34.1796875,-19.04296875,-33.69140625,-41.9921875,-83.984375,0.0
208.40625,-24.4140625,-16.6015625,-34.1796875,-45.8984375,-88.37890625,0.0
208.41015625,-21.97265625,-20.5078125,-39.55078125,-47.8515625,-86.9140625,0.0
208.4140625,-28.3203125,-27.34375,-41.50390625,-50.29296875,-66.40625,0.0
208.41796875,-31.73828125,-23.4375,-44.43359375,-40.0390625,-31.25,0.0
208.421875,-24.4140625,-22.94921875,-41.9921875,-39.55078125,17.578125,0.0
208.42578125,-24.90234375,-31.25,-37.109375,-48.33984375,21.97265625,0.0
208.4296875,-26.85546875,-24.90234375,-38.57421875,-48.33984375,-45.41015625,0.0
208.43359375,-21.97265625,-20.99609375,-39.55078125,-34.1796875,-99.12109375,0.0
208.4375,-32.71484375,-30.76171875,-27.83203125,-29.296875,-84.47265625,0.0
208.44140625,-33.69140625,-35.64453125,-24.90234375,-27.83203125,-30.76171875,0.0
208.4453125,-22.4609375,-34.1796875,-39.55078125,-24.90234375,-59.5703125,0.0
208.44921875,-20.01953125,-38.0859375,-45.41015625,-29.296875,-112.3046875,0.0
208.453125,-23.4375,-36.1328125,-41.9921875,-24.4140625,-79.58984375,0.0
208.45703125,-31.25,-32.71484375,-41.50390625,-17.08984375,-39.55078125,0.0
208.4609375,-31.73828125,-35.64453125,-46.38671875,-10.25390625,21.97265625,0.0
208.46484375,-29.78515625,-36.1328125,-43.45703125,-7.8125,-29.296875,0.0
208.46875,-19.53125,-32.71484375,-39.0625,-20.99609375,-58.59375,0.0
208.47265625,-15.625,-27.83203125,-36.1328125,-20.99609375,-10.25390625,0.0
208.4765625,-27.34375,-22.4609375,-31.25,-15.13671875,26.85546875,0.0
208.48046875,-34.1796875,-28.3203125,-36.62109375,-18.5546875,47.36328125,0.0
208.484375,-23.4375,-37.109375,-33.203125,-21.97265625,-17.08984375,0.0
208.48828125,-5.859375,-34.1796875,-34.1796875,-21.484375,-36.1328125,0.0
208.4921875,-2.9296875,-29.296875,-38.0859375,-14.6484375,-55.6640625,0.0
208.49609375,-8.7890625,-31.25,-34.1796875,-14.16015625,-79.58984375,0.0
208.5,-17.578125,-24.4140625,-30.2734375,-23.4375,-41.015625,0.0
208.50390625,-14.16015625,-17.578125,-30.2734375,-27.34375,-61.03515625,0.0
208.5078125,-7.32421875,-20.01953125,-27.34375,-26.3671875,-79.1015625,0.0
208.51171875,-15.625,-23.4375,-27.83203125,-27.83203125,-79.1015625,0.0
208.515625,-27.34375,-21.97265625,-29.78515625,-28.3203125,-89.35546875,0.0
208.51953125,-29.78515625,-23.4375,-29.296875,-24.4140625,-112.3046875,0.0
208.5234375,-22.94921875,-23.4375,-30.2734375,-24.4140625,-88.8671875,0.0
208.52734375,-16.11328125,-20.99609375,-29.296875,-19.04296875,-66.89453125,0.0
208.53125,-23.92578125,-26.85546875,-28.80859375,-23.92578125,-51.7578125,0.0
208.53515625,-41.015625,-31.73828125,-26.85546875,-29.78515625,-6.34765625,0.0
208.5390625,-46.875,-26.85546875,-28.3203125,-34.1796875,-64.94140625,0.0
208.54296875,-36.62109375,-28.80859375,-31.25,-35.15625,-32.71484375,0.0
208.546875,-26.85546875,-30.2734375,-33.203125,-29.78515625,49.31640625,0.0
208.55078125,-24.4140625,-27.34375,-35.64453125,-36.62109375,36.1328125,0.0
208.5546875,-22.4609375,-30.2734375,-32.2265625,-34.1796875,41.50390625,0.0
208.55859375,-33.203125,-30.2734375,-26.3671875,-33.69140625,14.6484375,0.0
208.5625,-44.921875,-32.71484375,-28.3203125,-38.57421875,-38.0859375,0.0
208.56640625,-41.015625,-37.109375,-32.71484375,-34.66796875,-53.22265625,0.0
208.5703125,-23.92578125,-30.2734375,-33.69140625,-37.59765625,-92.28515625,0.0
208.57421875,-26.3671875,-29.296875,-26.85546875,-31.73828125,-68.359375,0.0
208.578125,-39.55078125,-33.69140625,-29.296875,-27.83203125,1.953125,0.0
208.58203125,-32.71484375,-27.34375,-29.296875,-28.3203125,-0.48828125,0.0
208.5859375,-13.18359375,-26.3671875,-26.85546875,-28.80859375,-82.03125,0.0
208.58984375,-20.01953125,-30.2734375,-36.1328125,-38.0859375,-56.640625,0.0
208.59375,-30.2734375,-25.87890625,-41.50390625,-41.50390625,4.39453125,0.0
208.59765625,-43.9453125,-27.34375,-40.0390625,-40.52734375,-5.37109375,0.0
208.6015625,-55.17578125,-31.25,-31.73828125,-29.296875,3.41796875,0.0
208.60546875,-41.50390625,-35.64453125,-28.3203125,-30.76171875,58.59375,0.0
208.609375,-31.73828125,-39.55078125,-31.25,-40.0390625,49.31640625,0.0
208.61328125,-27.83203125,-34.66796875,-29.78515625,-24.90234375,-5.859375,0.0
208.6171875,-22.4609375,-30.2734375,-25.390625,-17.08984375,11.71875,0.0
208.62109375,-16.6015625,-34.1796875,-23.4375,-23.92578125,33.203125,0.0
208.625,-20.01953125,-30.76171875,-27.34375,-36.62109375,-21.484375,0.0
208.62890625,-23.4375,-28.3203125,-28.80859375,-43.45703125,-73.73046875,0.0
208.6328125,-23.4375,-33.69140625,-25.390625,-38.57421875,-75.1953125,0.0
208.63671875,-27.34375,-31.73828125,-23.92578125,-31.25,-50.78125,0.0
208.640625,-32.2265625,-26.85546875,-27.34375,-32.71484375,-41.50390625,0.0
208.64453125,-31.25,-30.2734375,-29.296875,-41.9921875,-125.48828125,0.0
208.6484375,-24.4140625,-36.1328125,-32.2265625,-43.9453125,-154.296875,0.0
208.65234375,-35.64453125,-34.1796875,-35.64453125,-42.96875,-63.4765625,0.0
208.65625,-43.45703125,-32.71484375,-35.64453125,-45.41015625,-11.23046875,0.0
208.66015625,-32.71484375,-30.76171875,-40.52734375,-49.8046875,6.34765625,0.0
208.6640625,-23.4375,-36.62109375,-40.52734375,-41.015625,24.90234375,0.0
208.66796875,-18.5546875,-35.15625,-28.80859375,-32.71484375,-31.25,0.0
208.671875,-27.83203125,-31.73828125,-27.83203125,-50.29296875,-54.19921875,0.0
208.67578125,-42.48046875,-40.0390625,-29.78515625,-54.6875,-86.42578125,0.0
208.6796875,-38.0859375,-41.9921875,-21.97265625,-39.55078125,-115.72265625,0.0
208.68359375,-21.484375,-34.1796875,-24.90234375,-39.55078125,-66.40625,0.0
208.6875,-13.671875,-29.296875,-27.34375,-42.48046875,-34.66796875,0.0
208.69140625,-9.27734375,-27.83203125,-31.73828125,-40.52734375,-35.64453125,0.0
208.6953125,-0.9765625,-33.69140625,-37.59765625,-41.015625,-97.65625,0.0
208.69921875,-16.11328125,-43.45703125,-32.71484375,-33.69140625,-84.9609375,0.0
208.703125,-24.4140625,-36.1328125,-27.34375,-22.94921875,1.953125,0.0
208.70703125,-24.4140625,-34.66796875,-28.3203125,-31.73828125,-77.1484375,0.0
208.7109375,-16.6015625,-39.0625,-31.73828125,-48.33984375,-89.84375,0.0
208.71484375,-12.6953125,-37.59765625,-32.2265625,-46.38671875,-49.31640625,0.0
208.71875,-44.921875,-41.9921875,-29.78515625,-35.15625,-20.01953125,0.0
208.72265625,-53.7109375,-44.921875,-20.5078125,-24.90234375,-31.73828125,0.0
208.7265625,-40.52734375,-41.9921875,-16.6015625,-24.90234375,-78.61328125,0.0
208.73046875,-40.0390625,-45.41015625,-29.296875,-40.52734375,-11.23046875,0.0
208.734375,-48.33984375,-44.43359375,-37.59765625,-38.57421875,-25.87890625,0.0
208.73828125,-63.96484375,-41.015625,-34.66796875,-31.73828125,-19.53125,0.0
208.7421875,-54.19921875,-44.43359375,-32.2265625,-23.4375,-4.8828125,0.0
208.74609375,-27.34375,-36.1328125,-32.71484375,-12.6953125,-116.69921875,0.0
208.75,-40.0390625,-23.92578125,-34.1796875,-28.80859375,-183.10546875,0.0
208.75390625,-54.6875,-28.3203125,-34.66796875,-49.31640625,-123.53515625,0.0
208.7578125,-50.78125,-28.3203125,-29.296875,-37.109375,-65.4296875,0.0
208.76171875,-42.48046875,-23.4375,-25.87890625,-16.11328125,13.18359375,0.0
208.765625,-31.73828125,-26.3671875,-29.78515625,-34.1796875,50.29296875,0.0
208.76953125,-43.9453125,-34.66796875,-30.2734375,-52.734375,-37.59765625,0.0
208.7734375,-56.15234375,-35.64453125,-34.1796875,-43.45703125,-68.84765625,0.0
208.77734375,-49.31640625,-36.1328125,-35.15625,-38.0859375,-54.19921875,0.0
208.78125,-42.96875,-37.59765625,-25.390625,-26.3671875,-61.03515625,0.0
208.78515625,-35.64453125,-35.15625,-27.83203125,-29.296875,-41.015625,0.0
208.7890625,3.41796875,-28.3203125,-36.62109375,-36.1328125,-35.15625,0.0
208.79296875,14.6484375,-24.90234375,-37.109375,-34.66796875,-9.27734375,0.0
208.796875,-29.78515625,-29.78515625,-32.71484375,-37.109375,11.23046875,0.0
208.80078125,-51.26953125,-31.25,-32.2265625,-35.15625,-35.15625,0.0
208.8046875,-56.15234375,-35.64453125,-40.52734375,-37.109375,-96.6796875,0.0
208.80859375,-43.9453125,-38.0859375,-40.0390625,-35.15625,-84.47265625,0.0
208.8125,-38.0859375,-39.0625,-25.390625,-30.2734375,-2.44140625,0.0
208.81640625,-42.96875,-34.1796875,-18.5546875,-31.25,51.26953125,0.0
208.8203125,-43.45703125,-31.73828125,-21.97265625,-29.296875,35.15625,0.0
208.82421875,-41.50390625,-41.015625,-28.3203125,-29.296875,-61.5234375,0.0
208.828125,-34.66796875,-41.9921875,-31.25,-40.52734375,-134.27734375,0.0
208.83203125,-32.71484375,-29.296875,-32.2265625,-42.96875,-95.703125,0.0
208.8359375,-31.25,-20.01953125,-33.203125,-39.55078125,-45.8984375,0.0
208.83984375,-31.73828125,-23.4375,-30.2734375,-45.41015625,-43.45703125,0.0
208.84375,-40.52734375,-30.2734375,-27.34375,-49.31640625,-48.828125,0.0
208.84765625,-24.4140625,-29.296875,-29.78515625,-43.45703125,-48.828125,0.0
208.8515625,-16.6015625,-29.78515625,-36.1328125,-34.66796875,-68.84765625,0.0
208.85546875,-33.69140625,-34.66796875,-33.69140625,-32.2265625,-103.515625,0.0
208.859375,-33.69140625,-29.78515625,-22.4609375,-28.3203125,-61.03515625,0.0
208.86328125,-37.59765625,-26.85546875,-29.296875,-28.3203125,31.25,0.0
208.8671875,-38.0859375,-31.25,-33.203125,-35.64453125,-23.4375,0.0
208.87109375,-28.80859375,-33.69140625,-31.73828125,-41.50390625,-17.08984375,0.0
208.875,-36.62109375,-38.57421875,-39.0625,-42.48046875,33.69140625,0.0
208.87890625,-50.29296875,-38.0859375,-38.0859375,-43.45703125,-7.8125,0.0
208.8828125,-42.96875,-33.69140625,-36.1328125,-41.9921875,-34.66796875,0.0
208.88671875,-32.71484375,-28.3203125,-37.109375,-22.94921875,-44.43359375,0.0
208.890625,-35.15625,-29.296875,-35.15625,-31.25,-68.84765625,0.0
208.89453125,-39.55078125,-34.66796875,-34.1796875,-52.734375,-16.6015625,0.0
208.8984375,-54.19921875,-30.76171875,-31.25,-47.8515625,-10.25390625,0.0
208.90234375,-54.6875,-29.78515625,-31.73828125,-42.48046875,-24.90234375,0.0
208.90625,-46.875,-38.57421875,-30.2734375,-45.41015625,81.54296875,0.0
208.91015625,-36.1328125,-39.0625,-30.76171875,-46.875,90.33203125,0.0
208.9140625,-27.83203125,-35.15625,-33.69140625,-35.64453125,15.625,0.0
208.91796875,-38.0859375,-42.48046875,-28.3203125,-29.296875,-42.48046875,0.0
208.921875,-41.50390625,-44.43359375,-26.3671875,-33.69140625,-68.359375,0.0
208.92578125,-38.0859375,-38.0859375,-26.3671875,-40.52734375,-38.0859375,0.0
208.9296875,-31.73828125,-27.83203125,-26.85546875,-43.9453125,30.2734375,0.0
208.93359375,-29.78515625,-26.3671875,-26.85546875,-34.1796875,32.2265625,0.0
208.9375,-43.45703125,-35.64453125,-26.85546875,-17.08984375,-22.94921875,0.0
208.94140625,-48.33984375,-33.69140625,-29.78515625,-14.6484375,-41.015625,0.0
208.9453125,-55.17578125,-29.78515625,-24.90234375,-33.69140625,-31.73828125,0.0
208.94921875,-54.6875,-34.66796875,-28.3203125,-53.7109375,6.8359375,0.0
208.953125,-45.8984375,-34.66796875,-29.296875,-48.828125,-12.6953125,0.0
208.95703125,-54.19921875,-38.0859375,-27.34375,-37.59765625,-149.4140625,0.0
208.9609375,-62.5,-42.48046875,-27.83203125,-34.66796875,-104.98046875,0.0
208.96484375,-52.24609375,-33.69140625,-34.1796875,-36.62109375,42.96875,0.0
208.96875,-32.2265625,-24.4140625,-43.45703125,-41.9921875,16.11328125,0.0
208.97265625,-29.296875,-28.3203125,-31.25,-47.8515625,-50.29296875,0.0
208.9765625,-40.52734375,-33.69140625,-20.99609375,-41.50390625,-67.87109375,0.0
208.98046875,-40.52734375,-25.87890625,-26.85546875,-37.59765625,-10.7421875,0.0
208.984375,-39.0625,-22.4609375,-31.73828125,-35.15625,-37.109375,0.0
208.98828125,-35.15625,-27.83203125,-29.296875,-39.0625,-60.05859375,0.0
208.9921875,-34.66796875,-26.3671875,-28.3203125,-41.9921875,-75.1953125,0.0
208.99609375,-39.0625,-24.90234375,-37.109375,-45.41015625,-58.10546875,0.0
209.0,-34.66796875,-24.4140625,-40.52734375,-43.9453125,-11.23046875,0.0
209.00390625,-38.0859375,-28.3203125,-36.62109375,-41.015625,-87.890625,0.0
209.0078125,-41.015625,-34.1796875,-26.3671875,-47.36328125,-99.12109375,0.0
209.01171875,-35.15625,-26.3671875,-9.765625,-46.38671875,-5.859375,0.0
209.015625,-36.62109375,-21.484375,-20.99609375,-41.015625,25.390625,0.0
209.01953125,-47.8515625,-29.296875,-34.1796875,-29.78515625,68.359375,0.0
209.0234375,-59.08203125,-37.59765625,-34.66796875,-37.109375,100.5859375,0.0
209.02734375,-48.33984375,-32.2265625,-33.203125,-46.875,47.36328125,0.0
209.03125,-38.0859375,-23.92578125,-33.69140625,-40.0390625,3.90625,0.0
209.03515625,-42.48046875,-26.85546875,-34.1796875,-31.25,-47.8515625,0.0
209.0390625,-48.828125,-25.390625,-30.76171875,-28.3203125,-91.30859375,0.0
209.04296875,-50.29296875,-26.85546875,-38.57421875,-33.203125,-117.67578125,0.0
209.046875,-40.52734375,-30.2734375,-45.41015625,-38.57421875,-163.57421875,0.0
209.05078125,-26.85546875,-31.25,-35.64453125,-31.25,-213.37890625,0.0
209.0546875,-19.04296875,-35.15625,-19.04296875,-32.2265625,-142.578125,0.0
209.05859375,-23.4375,-31.73828125,-15.13671875,-35.64453125,-123.53515625,0.0
209.0625,-28.3203125,-22.94921875,-17.08984375,-35.15625,-60.05859375,0.0
209.06640625,-27.34375,-20.99609375,-18.5546875,-35.64453125,-29.296875,0.0
209.0703125,-31.73828125,-31.25,-28.3203125,-36.1328125,0.48828125,0.0
209.07421875,-35.15625,-42.48046875,-34.66796875,-33.69140625,48.828125,0.0
209.078125,-40.52734375,-35.15625,-37.109375,-22.94921875,68.359375,0.0
209.08203125,-36.62109375,-26.85546875,-34.66796875,-24.90234375,46.38671875,0.0
209.0859375,-20.01953125,-25.87890625,-34.1796875,-40.0390625,-5.859375,0.0
209.08984375,-25.87890625,-31.25,-41.50390625,-43.45703125,-17.578125,0.0
209.09375,-35.64453125,-38.57421875,-44.43359375,-36.1328125,0.9765625,0.0
209.09765625,-31.73828125,-34.1796875,-26.85546875,-36.1328125,13.18359375,0.0
209.1015625,-38.57421875,-35.15625,-19.53125,-35.15625,27.34375,0.0
209.10546875,-38.0859375,-32.2265625,-33.203125,-38.0859375,72.265625,0.0
209.109375,-29.296875,-25.87890625,-34.66796875,-42.96875,-1.46484375,0.0
209.11328125,-33.69140625,-23.4375,-24.4140625,-39.55078125,-94.23828125,0.0
209.1171875,-50.78125,-28.80859375,-22.4609375,-31.25,-31.25,0.0
209.12109375,-52.734375,-36.1328125,-27.34375,-18.5546875,-24.90234375,0.0
209.125,-44.43359375,-33.203125,-23.92578125,-24.4140625,-45.8984375,0.0
209.12890625,-43.45703125,-31.73828125,-23.4375,-34.66796875,-31.25,0.0
209.1328125,-39.55078125,-26.85546875,-33.203125,-22.94921875,-78.125,0.0
209.13671875,-39.0625,-27.34375,-37.59765625,-24.90234375,-70.3125,0.0
209.140625,-42.96875,-36.62109375,-30.2734375,-32.2265625,-82.03125,0.0
209.14453125,-43.45703125,-37.59765625,-19.53125,-29.78515625,-118.1640625,0.0
209.1484375,-39.55078125,-33.69140625,-28.80859375,-34.1796875,-21.484375,0.0
209.15234375,-35.64453125,-33.69140625,-35.64453125,-35.15625,28.80859375,0.0
209.15625,-36.62109375,-41.50390625,-30.2734375,-29.296875,-79.58984375,0.0
209.16015625,-38.57421875,-46.875,-32.71484375,-24.90234375,-139.16015625,0.0
209.1640625,-34.66796875,-37.109375,-40.0390625,-26.3671875,-152.34375,0.0
209.16796875,-25.87890625,-26.85546875,-37.59765625,-39.0625,-225.09765625,0.0
209.171875,-23.4375,-27.83203125,-31.25,-36.1328125,-139.6484375,0.0
209.17578125,-27.34375,-35.64453125,-28.80859375,-31.25,-44.43359375,0.0
209.1796875,-27.83203125,-30.76171875,-25.87890625,-34.1796875,-78.125,0.0
209.18359375,-20.99609375,-27.83203125,-26.3671875,-32.71484375,-88.8671875,0.0
209.1875,-17.08984375,-28.3203125,-11.71875,-26.3671875,-79.1015625,0.0
209.19140625,-20.01953125,-28.3203125,-3.41796875,-24.4140625,-153.3203125,0.0
209.1953125,-27.34375,-32.71484375,-20.99609375,-30.76171875,-177.24609375,0.0
209.19921875,-35.64453125,-32.2265625,-31.25,-25.87890625,-97.65625,0.0
209.203125,-30.2734375,-34.66796875,-33.69140625,-26.85546875,12.6953125,0.0
209.20703125,-19.04296875,-35.64453125,-34.1796875,-33.69140625,101.07421875,0.0
209.2109375,-26.3671875,-32.71484375,-35.15625,-32.2265625,99.609375,0.0
209.21484375,-36.1328125,-32.71484375,-34.66796875,-37.59765625,6.34765625,0.0
209.21875,-36.62109375,-33.203125,-30.76171875,-30.76171875,-16.11328125,0.0
209.22265625,-31.25,-31.73828125,-23.4375,-20.5078125,-36.1328125,0.0
209.2265625,-26.85546875,-36.1328125,-27.34375,-27.34375,-13.18359375,0.0
209.23046875,-28.80859375,-36.1328125,-35.64453125,-35.64453125,-6.34765625,0.0
209.234375,-37.59765625,-34.66796875,-27.34375,-29.78515625,-6.34765625,0.0
209.23828125,-38.57421875,-33.69140625,-30.2734375,-22.4609375,72.75390625,0.0
209.2421875,-32.2265625,-27.34375,-32.71484375,-27.83203125,-7.8125,0.0
209.24609375,-23.92578125,-23.4375,-32.2265625,-31.25,-65.91796875,0.0
209.25,-13.671875,-22.4609375,-30.76171875,-24.4140625,-55.17578125,0.0
209.25390625,-18.06640625,-20.99609375,-26.85546875,-29.296875,-34.1796875,0.0
209.2578125,-20.99609375,-19.04296875,-33.203125,-34.1796875,-56.15234375,0.0
209.26171875,-10.7421875,-12.6953125,-33.203125,-31.73828125,-29.78515625,0.0
209.265625,-10.7421875,-18.5546875,-26.3671875,-32.71484375,41.9921875,0.0
209.26953125,-19.04296875,-22.94921875,-24.90234375,-29.78515625,24.4140625,0.0
209.2734375,-21.97265625,-20.5078125,-29.78515625,-20.01953125,-46.875,0.0
209.27734375,-28.80859375,-27.83203125,-25.390625,-12.6953125,-88.37890625,0.0
209.28125,-35.15625,-32.71484375,-15.13671875,-23.4375,-50.29296875,0.0
209.28515625,-30.76171875,-26.85546875,-28.80859375,-39.55078125,-54.19921875,0.0
209.2890625,-23.4375,-22.4609375,-35.64453125,-39.0625,-93.75,0.0
209.29296875,-27.34375,-30.76171875,-25.390625,-39.0625,-52.734375,0.0
209.296875,-37.109375,-40.52734375,-29.296875,-34.1796875,6.34765625,0.0
209.30078125,-42.48046875,-34.66796875,-39.0625,-30.76171875,37.109375,0.0
209.3046875,-40.0390625,-35.15625,-35.64453125,-39.0625,31.25,0.0
209.30859375,-28.3203125,-40.52734375,-29.78515625,-34.66796875,57.6171875,0.0
209.3125,-28.80859375,-35.15625,-32.71484375,-34.1796875,84.9609375,0.0
209.31640625,-41.015625,-35.15625,-33.203125,-30.2734375,98.14453125,0.0
209.3203125,-42.96875,-32.2265625,-29.78515625,-29.296875,101.07421875,0.0
209.32421875,-35.15625,-27.34375,-18.06640625,-33.203125,97.65625,0.0
209.328125,-31.25,-35.64453125,-21.484375,-42.96875,80.56640625,0.0
209.33203125,-32.71484375,-34.66796875,-30.76171875,-45.41015625,31.25,0.0
209.3359375,-29.78515625,-38.0859375,-31.73828125,-37.109375,24.4140625,0.0
209.33984375,-45.41015625,-43.45703125,-26.3671875,-26.85546875,18.5546875,0.0
209.34375,-46.875,-42.48046875,-24.90234375,-22.4609375,28.3203125,0.0
209.34765625,-25.87890625,-37.59765625,-29.78515625,-27.34375,31.73828125,0.0
209.3515625,-21.97265625,-24.90234375,-31.25,-32.71484375,4.39453125,0.0
209.35546875,-29.296875,-25.87890625,-32.71484375,-30.2734375,-2.9296875,0.0
209.359375,-36.1328125,-35.64453125,-40.0390625,-24.90234375,23.4375,0.0
209.36328125,-36.1328125,-33.203125,-41.015625,-26.3671875,20.01953125,0.0
209.3671875,-31.73828125,-36.62109375,-34.1796875,-36.62109375,-20.01953125,0.0
209.37109375,-31.25,-39.55078125,-30.2734375,-40.0390625,-35.64453125,0.0
209.375,-28.80859375,-33.69140625,-38.0859375,-39.55078125,-67.87109375,0.0
209.37890625,-37.109375,-33.203125,-37.109375,-41.50390625,-23.92578125,0.0
209.3828125,-53.7109375,-33.203125,-26.3671875,-32.71484375,-74.70703125,0.0
209.38671875,-44.921875,-30.2734375,-23.92578125,-28.3203125,-91.796875,0.0
209.390625,-26.3671875,-29.296875,-22.4609375,-38.0859375,-45.8984375,0.0
209.39453125,-38.0859375,-30.76171875,-22.94921875,-40.52734375,-68.84765625,0.0
209.3984375,-58.10546875,-29.78515625,-25.390625,-41.9921875,-0.9765625,0.0
209.40234375,-51.7578125,-26.85546875,-28.3203125,-40.52734375,30.2734375,0.0
209.40625,-42.96875,-27.83203125,-30.2734375,-43.45703125,-36.62109375,0.0
209.41015625,-34.1796875,-29.296875,-34.1796875,-41.50390625,-95.703125,0.0
209.4140625,-26.85546875,-22.4609375,-34.1796875,-26.85546875,-83.49609375,0.0
209.41796875,-33.203125,-23.92578125,-26.85546875,-23.92578125,-125.0,0.0
209.421875,-36.62109375,-33.69140625,-30.2734375,-32.71484375,-107.421875,0.0
209.42578125,-33.203125,-33.69140625,-36.1328125,-36.62109375,-58.10546875,0.0
209.4296875,-31.73828125,-36.62109375,-34.66796875,-31.73828125,-92.7734375,0.0
209.43359375,-25.390625,-36.62109375,-33.69140625,-28.3203125,-130.859375,0.0
209.4375,-21.97265625,-23.4375,-22.4609375,-32.71484375,-68.84765625,0.0
209.44140625,-34.1796875,-20.99609375,-23.4375,-31.25,-40.0390625,0.0
209.4453125,-27.34375,-19.53125,-34.66796875,-32.71484375,-142.578125,0.0
209.44921875,-24.4140625,-18.5546875,-36.1328125,-36.1328125,-108.3984375,0.0
209.453125,-26.85546875,-26.85546875,-43.45703125,-41.015625,-29.78515625,0.0
209.45703125,-16.11328125,-26.85546875,-41.015625,-45.41015625,-86.9140625,0.0
209.4609375,-21.97265625,-30.2734375,-33.203125,-43.45703125,-78.125,0.0
209.46484375,-18.5546875,-30.76171875,-35.64453125,-41.9921875,-27.34375,0.0
209.46875,-1.46484375,-21.484375,-35.15625,-50.29296875,0.0,0.0
209.47265625,-8.30078125,-26.3671875,-19.53125,-54.6875,3.41796875,0.0
209.4765625,-14.6484375,-29.78515625,-10.25390625,-46.38671875,21.97265625,0.0
209.48046875,-28.3203125,-23.4375,-33.69140625,-39.55078125,9.765625,0.0
209.484375,-40.0390625,-28.3203125,-45.8984375,-42.48046875,16.6015625,0.0
209.48828125,-41.015625,-39.0625,-39.55078125,-49.8046875,35.15625,0.0
209.4921875,-43.45703125,-35.64453125,-35.15625,-43.9453125,19.04296875,0.0
209.49609375,-36.62109375,-28.80859375,-30.2734375,-34.66796875,-9.27734375,0.0
209.5,-29.296875,-28.80859375,-29.296875,-31.73828125,-48.33984375,0.0
209.50390625,-39.0625,-32.71484375,-31.25,-33.69140625,-53.7109375,0.0
209.5078125,-40.52734375,-31.25,-32.2265625,-43.9453125,-167.48046875,0.0
209.51171875,-24.90234375,-29.296875,-34.1796875,-37.59765625,-185.05859375,0.0
209.515625,-32.2265625,-34.66796875,-30.2734375,-32.2265625,-146.484375,0.0
209.51953125,-50.78125,-29.296875,-22.4609375,-34.1796875,-172.36328125,0.0
209.5234375,-51.7578125,-26.3671875,-28.80859375,-35.64453125,-90.33203125,0.0
209.52734375,-43.9453125,-26.85546875,-29.296875,-47.36328125,-20.99609375,0.0
209.53125,-40.0390625,-25.390625,-28.3203125,-47.36328125,11.23046875,0.0
209.53515625,-41.50390625,-27.34375,-32.2265625,-37.109375,1.46484375,0.0
209.5390625,-46.875,-29.78515625,-30.76171875,-35.15625,-47.36328125,0.0
209.54296875,-37.109375,-28.3203125,-24.90234375,-38.0859375,-66.89453125,0.0
209.546875,-32.2265625,-31.25,-27.83203125,-41.9921875,-26.3671875,0.0
209.55078125,-45.41015625,-32.71484375,-35.64453125,-41.50390625,-16.11328125,0.0
209.5546875,-49.8046875,-29.78515625,-33.69140625,-39.55078125,-65.91796875,0.0
209.55859375,-49.31640625,-35.15625,-37.59765625,-37.109375,-25.390625,0.0
209.5625,-49.8046875,-41.015625,-31.73828125,-28.3203125,-9.765625,0.0
209.56640625,-38.57421875,-40.0390625,-22.4609375,-28.3203125,48.828125,0.0
209.5703125,-15.625,-38.57421875,-32.71484375,-19.04296875,44.43359375,0.0
209.57421875,-46.875,-38.0859375,-37.109375,-29.296875,-65.91796875,0.0
209.578125,-71.2890625,-36.62109375,-35.64453125,-46.38671875,-97.16796875,0.0
209.58203125,-48.828125,-38.57421875,-37.109375,-33.69140625,-60.546875,0.0
209.5859375,-31.25,-31.25,-35.64453125,-22.94921875,25.390625,0.0
209.58984375,-25.87890625,-32.71484375,-32.71484375,-26.3671875,-36.62109375,0.0
209.59375,-20.01953125,-36.62109375,-32.71484375,-26.85546875,-118.1640625,0.0
209.59765625,-22.4609375,-30.2734375,-27.34375,-16.11328125,-62.98828125,0.0
209.6015625,-32.2265625,-27.34375,-28.80859375,-1.953125,-18.06640625,0.0
209.60546875,-25.87890625,-32.71484375,-30.76171875,-3.41796875,0.0,0.0
209.609375,-12.6953125,-38.0859375,-12.6953125,-12.20703125,-9.765625,0.0
209.61328125,-21.484375,-33.69140625,-15.13671875,-5.859375,-83.984375,0.0
209.6171875,-21.97265625,-33.203125,-22.94921875,0.48828125,-22.94921875,0.0
209.62109375,-18.06640625,-36.62109375,-25.390625,-14.6484375,76.66015625,0.0
209.625,-26.3671875,-35.15625,-28.3203125,-22.94921875,3.90625,0.0
209.62890625,-15.13671875,-26.3671875,-30.2734375,-17.08984375,-100.09765625,0.0
209.6328125,-8.7890625,-24.4140625,-34.1796875,-6.34765625,-129.8828125,0.0
209.63671875,-23.4375,-23.92578125,-28.80859375,-1.953125,-137.6953125,0.0
209.640625,-28.3203125,-27.83203125,-26.3671875,-5.37109375,-131.8359375,0.0
209.64453125,-24.4140625,-27.83203125,-25.87890625,-13.671875,-188.4765625,0.0
209.6484375,-8.7890625,-18.5546875,-23.4375,-21.484375,-206.54296875,0.0
209.65234375,-15.13671875,-25.390625,-20.5078125,-24.90234375,-187.5,0.0
209.65625,-39.0625,-37.59765625,-18.5546875,-25.87890625,-235.83984375,0.0
209.66015625,-39.55078125,-31.25,-30.2734375,-17.08984375,-153.80859375,0.0
209.6640625,-30.2734375,-27.34375,-33.69140625,-27.83203125,-125.9765625,0.0
209.66796875,-6.34765625,-29.78515625,-28.80859375,-26.85546875,-157.2265625,0.0
209.671875,-5.37109375,-29.78515625,-30.76171875,-10.25390625,-120.1171875,0.0
209.67578125,-33.203125,-33.203125,-30.76171875,-29.296875,-51.7578125,0.0
209.6796875,-39.0625,-29.78515625,-27.34375,-37.59765625,-28.3203125,0.0
209.68359375,-35.15625,-29.78515625,-26.3671875,-29.78515625,-64.453125,0.0
209.6875,-28.80859375,-35.15625,-32.2265625,-35.15625,-32.71484375,0.0
209.69140625,-26.3671875,-39.0625,-39.0625,-35.64453125,22.94921875,0.0
209.6953125,-32.2265625,-34.1796875,-38.0859375,-26.3671875,42.96875,0.0
209.69921875,-42.96875,-34.1796875,-34.66796875,-18.06640625,58.10546875,0.0
209.703125,-45.8984375,-39.0625,-34.1796875,-14.6484375,62.98828125,0.0
209.70703125,-39.55078125,-38.0859375,-40.0390625,-24.4140625,50.29296875,0.0
209.7109375,-40.0390625,-47.36328125,-44.43359375,-29.78515625,53.22265625,0.0
209.71484375,-45.8984375,-43.45703125,-35.15625,-23.92578125,34.1796875,0.0
209.71875,-31.73828125,-30.76171875,-26.3671875,-20.99609375,12.20703125,0.0
209.72265625,-20.01953125,-35.15625,-23.92578125,-26.85546875,61.5234375,0.0
209.7265625,-27.34375,-44.921875,-24.4140625,-26.3671875,126.46484375,0.0
209.73046875,-26.85546875,-46.875,-32.71484375,-13.18359375,168.9453125,0.0
209.734375,-23.92578125,-37.109375,-42.48046875,-28.3203125,105.46875,0.0
209.73828125,-34.1796875,-32.71484375,-39.55078125,-36.62109375,18.06640625,0.0
209.7421875,-33.203125,-29.296875,-37.109375,-31.25,24.4140625,0.0
209.74609375,-31.25,-36.62109375,-41.50390625,-42.48046875,0.0,0.0
209.75,-27.83203125,-39.0625,-40.52734375,-36.1328125,32.2265625,0.0
209.75390625,-16.6015625,-37.59765625,-38.57421875,-28.80859375,72.265625,0.0
209.7578125,-29.78515625,-36.1328125,-32.71484375,-27.34375,-60.05859375,0.0
209.76171875,-49.31640625,-31.73828125,-27.34375,-35.64453125,-103.515625,0.0
209.765625,-44.43359375,-42.48046875,-29.78515625,-41.50390625,-44.43359375,0.0
209.76953125,-34.1796875,-42.48046875,-34.1796875,-41.9921875,-19.53125,0.0
209.7734375,-43.9453125,-32.2265625,-34.66796875,-41.50390625,-54.19921875,0.0
209.77734375,-51.26953125,-26.85546875,-29.296875,-29.78515625,-156.73828125,0.0
209.78125,-45.8984375,-23.92578125,-26.3671875,-20.99609375,-159.66796875,0.0
209.78515625,-36.1328125,-27.83203125,-29.296875,-35.15625,-91.30859375,0.0
209.7890625,-24.4140625,-31.73828125,-34.66796875,-37.59765625,-45.8984375,0.0
209.79296875,-27.83203125,-33.69140625,-34.1796875,-29.296875,-54.19921875,0.0
209.796875,-35.64453125,-30.76171875,-29.78515625,-36.1328125,2.9296875,0.0
209.80078125,-39.55078125,-31.25,-22.94921875,-44.43359375,12.20703125,0.0
209.8046875,-36.62109375,-34.66796875,-19.04296875,-40.0390625,4.8828125,0.0
209.80859375,-15.13671875,-27.83203125,-32.2265625,-33.69140625,43.9453125,0.0
209.8125,-18.06640625,-21.97265625,-36.62109375,-34.66796875,-38.0859375,0.0
209.81640625,-31.25,-27.34375,-25.87890625,-27.34375,-83.984375,0.0
209.8203125,-22.4609375,-31.25,-17.08984375,-26.85546875,11.71875,0.0
209.82421875,-22.4609375,-26.3671875,-15.13671875,-29.78515625,89.35546875,0.0
209.828125,-29.78515625,-20.5078125,-21.97265625,-36.1328125,78.125,0.0
209.83203125,-28.3203125,-26.3671875,-30.76171875,-45.8984375,34.66796875,0.0
209.8359375,-32.2265625,-36.1328125,-33.203125,-41.015625,-11.71875,0.0
209.83984375,-50.29296875,-35.15625,-38.0859375,-23.92578125,35.15625,0.0
209.84375,-48.828125,-27.34375,-38.0859375,-28.80859375,51.7578125,0.0
209.84765625,-29.296875,-30.2734375,-32.2265625,-47.8515625,-11.71875,0.0
209.8515625,-25.87890625,-36.62109375,-25.390625,-41.015625,0.9765625,0.0
209.85546875,-35.15625,-34.66796875,-24.90234375,-23.4375,48.33984375,0.0
209.859375,-40.0390625,-27.83203125,-28.80859375,-16.11328125,41.50390625,0.0
209.86328125,-38.0859375,-26.3671875,-27.83203125,-24.4140625,41.50390625,0.0
209.8671875,-30.2734375,-30.76171875,-32.71484375,-39.0625,39.55078125,0.0
209.87109375,-24.4140625,-30.2734375,-34.1796875,-40.52734375,-105.95703125,0.0
209.875,-29.296875,-26.85546875,-27.83203125,-33.203125,-183.59375,0.0
209.87890625,-32.2265625,-30.2734375,-30.2734375,-29.78515625,-126.46484375,0.0
209.8828125,-20.99609375,-30.76171875,-25.390625,-25.390625,-107.421875,0.0
209.88671875,-25.87890625,-21.484375,-26.3671875,-28.3203125,-56.640625,0.0
209.890625,-33.69140625,-24.4140625,-27.34375,-23.92578125,-52.24609375,0.0
209.89453125,-32.71484375,-32.71484375,-16.6015625,-16.11328125,-55.17578125,0.0
209.8984375,-43.45703125,-32.2265625,-25.390625,-34.1796875,30.2734375,0.0
209.90234375,-35.64453125,-25.390625,-36.1328125,-45.41015625,37.109375,0.0
209.90625,-30.2734375,-22.4609375,-34.1796875,-45.41015625,-13.18359375,0.0
209.91015625,-28.3203125,-25.87890625,-32.2265625,-43.45703125,-20.99609375,0.0
209.9140625,-23.92578125,-22.4609375,-30.76171875,-36.1328125,41.015625,0.0
209.91796875,-30.76171875,-21.484375,-28.3203125,-29.78515625,52.734375,0.0
209.921875,-32.2265625,-24.90234375,-25.390625,-22.4609375,-1.46484375,0.0
209.92578125,-26.85546875,-25.390625,-30.2734375,-27.34375,22.4609375,0.0
209.9296875,-25.390625,-27.34375,-27.83203125,-39.0625,28.3203125,0.0
209.93359375,-34.1796875,-23.4375,-20.01953125,-32.2265625,59.5703125,0.0
209.9375,-45.8984375,-27.34375,-15.625,-32.71484375,87.40234375,0.0
209.94140625,-48.828125,-30.2734375,-14.6484375,-33.69140625,102.5390625,0.0
209.9453125,-40.0390625,-28.3203125,-26.3671875,-34.66796875,58.10546875,0.0
209.94921875,-23.92578125,-30.2734375,-30.2734375,-50.29296875,-9.27734375,0.0
209.953125,-33.203125,-33.69140625,-23.92578125,-51.7578125,20.01953125,0.0
209.95703125,-48.828125,-31.25,-23.92578125,-32.2265625,8.7890625,0.0
209.9609375,-54.6875,-26.85546875,-27.34375,-34.1796875,35.15625,0.0
209.96484375,-50.29296875,-28.80859375,-31.25,-53.7109375,32.2265625,0.0
209.96875,-37.109375,-28.80859375,-32.2265625,-55.17578125,-8.30078125,0.0
209.97265625,-45.8984375,-33.203125,-28.80859375,-45.41015625,7.32421875,0.0
209.9765625,-43.9453125,-30.76171875,-29.296875,-34.66796875,-43.45703125,0.0
209.98046875,-40.0390625,-26.85546875,-26.85546875,-33.203125,-68.84765625,0.0
209.984375,-39.0625,-26.85546875,-12.20703125,-32.71484375,-71.2890625,0.0
209.98828125,-29.296875,-28.3203125,-20.5078125,-37.59765625,-24.4140625,0.0
209.9921875,-35.15625,-37.59765625,-31.73828125,-35.15625,1.953125,0.0
209.99609375,-33.69140625,-35.64453125,-27.83203125,-21.484375,-39.0625,0.0
210.0,-40.0390625,-31.73828125,-27.34375,-29.78515625,-49.31640625,0.0
210.00390625,-30.76171875,-24.90234375,-38.57421875,-41.50390625,-63.96484375,0.0
210.0078125,-30.76171875,-21.484375,-38.57421875,-38.0859375,-77.63671875,0.0
210.01171875,-31.25,-24.4140625,-24.90234375,-35.15625,-129.39453125,0.0
210.015625,-34.66796875,-27.34375,-27.83203125,-37.59765625,-79.58984375,0.0
210.01953125,-48.33984375,-29.296875,-38.0859375,-35.64453125,-66.40625,0.0
210.0234375,-50.29296875,-31.73828125,-35.64453125,-38.57421875,-101.5625,0.0
210.02734375,-45.41015625,-31.73828125,-23.4375,-46.875,-87.40234375,0.0
210.03125,-41.015625,-26.3671875,-21.97265625,-48.33984375,-42.96875,0.0
210.03515625,-39.0625,-23.92578125,-33.69140625,-38.0859375,65.91796875,0.0
210.0390625,-38.0859375,-26.85546875,-33.69140625,-41.50390625,32.2265625,0.0
210.04296875,-36.1328125,-31.25,-28.80859375,-47.36328125,40.0390625,0.0
210.046875,-34.66796875,-35.64453125,-35.15625,-41.015625,154.296875,0.0
210.05078125,-32.71484375,-35.15625,-39.0625,-41.50390625,58.59375,0.0
210.0546875,-36.1328125,-34.1796875,-32.2265625,-40.52734375,-119.62890625,0.0
210.05859375,-37.59765625,-37.109375,-31.73828125,-42.48046875,-39.0625,0.0
210.0625,-37.109375,-41.9921875,-34.66796875,-37.59765625,41.50390625,0.0
210.06640625,-35.64453125,-35.15625,-32.71484375,-35.15625,-1.46484375,0.0
210.0703125,-20.01953125,-25.390625,-25.390625,-32.2265625,-64.94140625,0.0
210.07421875,-13.18359375,-31.73828125,-17.08984375,-23.92578125,-123.046875,0.0
210.078125,-35.15625,-30.76171875,-23.92578125,-20.5078125,-109.86328125,0.0
210.08203125,-41.015625,-29.78515625,-32.71484375,-24.4140625,-132.32421875,0.0
210.0859375,-35.64453125,-38.57421875,-29.296875,-36.62109375,-48.33984375,0.0
210.08984375,-25.390625,-37.109375,-28.80859375,-47.8515625,17.08984375,0.0
210.09375,-22.94921875,-27.34375,-26.3671875,-42.96875,-49.8046875,0.0
210.09765625,-39.0625,-23.4375,-19.53125,-24.4140625,-87.890625,0.0
210.1015625,-41.015625,-27.83203125,-21.484375,-24.4140625,-160.64453125,0.0
210.10546875,-25.390625,-34.1796875,-32.2265625,-46.38671875,-237.79296875,0.0
210.109375,-30.2734375,-36.62109375,-36.1328125,-42.48046875,-199.21875,0.0
210.11328125,-40.52734375,-32.71484375,-31.73828125,-28.80859375,-103.515625,0.0
210.1171875,-41.50390625,-33.69140625,-28.3203125,-29.78515625,-50.29296875,0.0
210.12109375,-38.57421875,-41.015625,-32.71484375,-34.66796875,-6.34765625,0.0
210.125,-45.8984375,-43.9453125,-34.66796875,-44.921875,-48.828125,0.0
210.12890625,-30.76171875,-37.109375,-32.71484375,-42.96875,-166.50390625,0.0
210.1328125,-20.01953125,-40.0390625,-39.0625,-39.55078125,-159.66796875,0.0
210.13671875,-45.8984375,-48.33984375,-34.66796875,-38.0859375,-57.12890625,0.0
210.140625,-38.57421875,-39.0625,-24.90234375,-29.296875,-25.390625,0.0
210.14453125,-34.1796875,-34.66796875,-28.80859375,-27.34375,-49.8046875,0.0
210.1484375,-43.45703125,-37.109375,-28.80859375,-39.55078125,-80.56640625,0.0
210.15234375,-41.50390625,-35.64453125,-30.76171875,-45.8984375,-62.98828125,0.0
210.15625,-43.45703125,-40.0390625,-34.66796875,-42.96875,-18.06640625,0.0
210.16015625,-44.43359375,-36.1328125,-29.296875,-33.203125,-1.953125,0.0
210.1640625,-39.0625,-30.76171875,-24.4140625,-27.34375,-30.2734375,0.0
210.16796875,-28.3203125,-32.2265625,-24.90234375,-32.2265625,-99.12109375,0.0
210.171875,-22.4609375,-27.34375,-25.390625,-32.71484375,-83.984375,0.0
210.17578125,-37.109375,-28.3203125,-25.390625,-33.69140625,-52.24609375,0.0
210.1796875,-48.33984375,-38.0859375,-22.4609375,-32.71484375,-46.38671875,0.0
210.18359375,-43.45703125,-39.0625,-25.390625,-24.90234375,-16.11328125,0.0
210.1875,-40.0390625,-37.59765625,-30.2734375,-31.73828125,67.3828125,0.0
210.19140625,-26.3671875,-38.0859375,-29.296875,-48.33984375,78.61328125,0.0
210.1953125,-37.59765625,-29.296875,-29.296875,-41.50390625,40.52734375,0.0
210.19921875,-52.24609375,-29.296875,-30.76171875,-28.80859375,20.99609375,0.0
210.203125,-48.828125,-34.1796875,-33.203125,-32.71484375,3.90625,0.0
210.20703125,-48.828125,-29.78515625,-37.59765625,-42.48046875,0.9765625,0.0
210.2109375,-52.24609375,-32.2265625,-41.9921875,-47.8515625,-23.92578125,0.0
210.21484375,-48.33984375,-32.2265625,-38.57421875,-39.55078125,-20.5078125,0.0
210.21875,-41.015625,-31.73828125,-32.2265625,-38.57421875,-28.3203125,0.0
210.22265625,-32.71484375,-35.64453125,-29.296875,-44.43359375,-86.42578125,0.0
210.2265625,-22.4609375,-32.2265625,-26.85546875,-42.48046875,-124.0234375,0.0
210.23046875,-22.4609375,-31.73828125,-31.25,-37.109375,-140.625,0.0
210.234375,-21.97265625,-35.64453125,-37.109375,-40.52734375,-193.84765625,0.0
210.23828125,-22.4609375,-36.62109375,-35.15625,-37.59765625,-169.921875,0.0
210.2421875,-33.203125,-37.109375,-33.203125,-29.78515625,-188.4765625,0.0
210.24609375,-29.78515625,-40.0390625,-33.69140625,-39.55078125,-194.82421875,0.0
210.25,-25.87890625,-39.0625,-31.73828125,-39.55078125,-138.18359375,0.0
210.25390625,-42.48046875,-34.66796875,-34.1796875,-37.59765625,-89.84375,0.0
210.2578125,-51.26953125,-26.3671875,-33.69140625,-26.85546875,-57.12890625,0.0
210.26171875,-50.78125,-23.4375,-33.69140625,-27.34375,-69.3359375,0.0
210.265625,-38.0859375,-25.390625,-32.2265625,-41.015625,-57.12890625,0.0
210.26953125,-40.0390625,-28.80859375,-24.90234375,-36.62109375,-107.421875,0.0
210.2734375,-51.7578125,-30.76171875,-29.296875,-26.3671875,-91.796875,0.0
210.27734375,-50.78125,-32.2265625,-34.66796875,-24.90234375,-79.58984375,0.0
210.28125,-56.15234375,-31.73828125,-34.66796875,-31.73828125,-121.58203125,0.0
210.28515625,-54.19921875,-30.2734375,-36.1328125,-42.48046875,-61.5234375,0.0
210.2890625,-36.62109375,-30.76171875,-33.69140625,-36.1328125,10.25390625,0.0
210.29296875,-28.3203125,-31.25,-30.2734375,-27.83203125,-34.66796875,0.0
210.296875,-54.6875,-27.83203125,-31.25,-41.015625,-109.86328125,0.0
210.30078125,-55.6640625,-22.4609375,-31.25,-35.64453125,-26.85546875,0.0
210.3046875,-21.484375,-22.94921875,-35.64453125,-31.25,-8.30078125,0.0
210.30859375,-2.44140625,-24.90234375,-39.55078125,-20.99609375,46.38671875,0.0
210.3125,-16.6015625,-39.0625,-25.390625,-19.53125,147.4609375,0.0
210.31640625,-52.24609375,-50.78125,-17.578125,-41.015625,98.6328125,0.0
210.3203125,-43.9453125,-44.43359375,-26.3671875,-31.25,80.078125,0.0
210.32421875,-19.53125,-38.0859375,-29.78515625,-16.11328125,65.91796875,0.0
210.328125,-17.08984375,-36.1328125,-24.4140625,-17.08984375,80.078125,0.0
210.33203125,-27.34375,-35.64453125,-16.11328125,-18.5546875,63.4765625,0.0
210.3359375,-30.76171875,-38.0859375,-19.04296875,-19.04296875,7.8125,0.0
210.33984375,-33.203125,-38.0859375,-21.484375,-16.11328125,69.3359375,0.0
210.34375,-36.1328125,-43.45703125,-18.06640625,-11.71875,82.51953125,0.0
210.34765625,-15.13671875,-44.43359375,-24.4140625,-20.5078125,32.71484375,0.0
210.3515625,-6.34765625,-40.0390625,-25.390625,-22.4609375,-10.25390625,0.0
210.35546875,-25.390625,-42.96875,-20.99609375,-11.23046875,-56.640625,0.0
210.359375,-22.94921875,-43.45703125,-20.01953125,-6.8359375,-83.49609375,0.0
210.36328125,-11.23046875,-34.66796875,-32.71484375,-6.34765625,-1.46484375,0.0
210.3671875,7.32421875,-23.4375,-32.2265625,-9.27734375,71.2890625,0.0
210.37109375,4.8828125,-26.3671875,-23.92578125,-22.94921875,8.30078125,0.0
210.375,-16.11328125,-32.2265625,-22.94921875,-25.390625,-26.3671875,0.0
210.37890625,-22.94921875,-32.2265625,-23.4375,-16.6015625,-6.8359375,0.0
210.3828125,-21.484375,-36.1328125,-26.85546875,-12.6953125,-34.66796875,0.0
210.38671875,-13.18359375,-35.15625,-31.25,-21.97265625,-72.265625,0.0
210.390625,-4.39453125,-32.71484375,-27.83203125,-21.97265625,-56.640625,0.0
210.39453125,-13.671875,-33.203125,-19.53125,-12.6953125,-38.0859375,0.0
210.3984375,-32.2265625,-34.1796875,-28.80859375,-20.99609375,-26.3671875,0.0
210.40234375,-31.25,-36.62109375,-34.66796875,-18.5546875,40.0390625,0.0
210.40625,-20.99609375,-35.15625,-24.90234375,-15.625,27.83203125,0.0
210.41015625,-16.11328125,-26.85546875,-25.390625,-27.83203125,-63.4765625,0.0
210.4140625,-24.4140625,-29.78515625,-24.4140625,-21.97265625,-106.4453125,0.0
210.41796875,-31.25,-35.15625,-22.94921875,-20.01953125,-105.95703125,0.0
210.421875,-28.80859375,-33.69140625,-27.34375,-29.296875,-80.078125,0.0
210.42578125,-27.83203125,-32.71484375,-28.80859375,-27.34375,-56.640625,0.0
210.4296875,-21.97265625,-32.2265625,-32.2265625,-26.3671875,-18.5546875,0.0
210.43359375,-20.01953125,-38.57421875,-30.2734375,-31.73828125,25.390625,0.0
210.4375,-30.2734375,-36.62109375,-19.53125,-22.4609375,-17.08984375,0.0
210.44140625,-30.76171875,-27.34375,-20.5078125,-17.08984375,-20.01953125,0.0
210.4453125,-20.5078125,-25.390625,-22.94921875,-20.5078125,10.25390625,0.0
210.44921875,-17.08984375,-27.83203125,-22.4609375,-21.484375,10.7421875,0.0
210.453125,-24.90234375,-30.76171875,-30.2734375,-32.2265625,-4.8828125,0.0
210.45703125,-24.90234375,-28.3203125,-31.73828125,-31.73828125,-7.32421875,0.0
210.4609375,-22.4609375,-27.83203125,-28.80859375,-24.4140625,-19.04296875,0.0
210.46484375,-28.3203125,-30.76171875,-35.15625,-28.80859375,-1.46484375,0.0
210.46875,-21.97265625,-29.78515625,-33.69140625,-28.80859375,33.69140625,0.0
210.47265625,-15.625,-24.90234375,-31.25,-29.296875,-32.2265625,0.0
210.4765625,-30.2734375,-23.92578125,-27.34375,-22.4609375,-16.6015625,0.0
210.48046875,-28.80859375,-25.390625,-23.92578125,-16.6015625,90.8203125,0.0
210.484375,-25.87890625,-25.87890625,-25.87890625,-21.97265625,76.66015625,0.0
210.48828125,-32.2265625,-27.34375,-29.78515625,-23.4375,60.05859375,0.0
210.4921875,-34.1796875,-28.80859375,-28.3203125,-21.97265625,35.64453125,0.0
210.49609375,-41.015625,-36.62109375,-25.87890625,-24.4140625,-21.97265625,0.0
210.5,-38.57421875,-41.50390625,-24.90234375,-25.390625,-13.671875,0.0
210.50390625,-32.2265625,-30.2734375,-20.01953125,-17.08984375,-0.9765625,0.0
210.5078125,-38.0859375,-34.1796875,-28.80859375,-28.3203125,-102.05078125,0.0
210.51171875,-36.62109375,-42.48046875,-37.109375,-40.52734375,-199.70703125,0.0
210.515625,-34.66796875,-33.203125,-26.3671875,-25.87890625,-202.1484375,0.0
210.51953125,-40.52734375,-30.76171875,-28.3203125,-17.578125,-118.1640625,0.0
210.5234375,-46.875,-37.59765625,-30.2734375,-25.87890625,-19.04296875,0.0
210.52734375,-42.96875,-37.109375,-24.90234375,-37.109375,-17.08984375,0.0
210.53125,-27.34375,-36.62109375,-26.3671875,-42.48046875,-37.109375,0.0
210.53515625,-30.2734375,-35.64453125,-28.80859375,-33.69140625,-23.92578125,0.0
210.5390625,-46.38671875,-34.1796875,-30.2734375,-26.3671875,-40.52734375,0.0
210.54296875,-54.6875,-36.1328125,-31.73828125,-32.71484375,-124.0234375,0.0
210.546875,-47.8515625,-34.1796875,-28.3203125,-37.109375,-116.2109375,0.0
210.55078125,-27.83203125,-37.109375,-31.25,-38.57421875,15.13671875,0.0
210.5546875,-29.296875,-37.109375,-30.2734375,-38.0859375,59.08203125,0.0
210.55859375,-40.0390625,-32.71484375,-25.390625,-29.296875,18.5546875,0.0
210.5625,-41.015625,-32.71484375,-31.25,-20.99609375,2.44140625,0.0
210.56640625,-35.64453125,-36.62109375,-37.109375,-34.66796875,-50.78125,0.0
210.5703125,-38.0859375,-33.69140625,-39.55078125,-52.734375,-71.2890625,0.0
210.57421875,-30.76171875,-29.296875,-37.59765625,-43.45703125,-82.51953125,0.0
210.578125,-23.4375,-28.3203125,-26.3671875,-26.85546875,-72.265625,0.0
210.58203125,-32.71484375,-34.1796875,-27.83203125,-34.66796875,-34.1796875,0.0
210.5859375,-30.76171875,-38.0859375,-28.80859375,-29.78515625,-25.390625,0.0
210.58984375,-37.109375,-34.66796875,-24.4140625,-23.4375,12.20703125,0.0
210.59375,-39.0625,-29.78515625,-29.296875,-36.62109375,15.13671875,0.0
210.59765625,-47.36328125,-36.62109375,-31.73828125,-33.69140625,32.2265625,0.0
210.6015625,-51.26953125,-42.48046875,-32.71484375,-30.76171875,8.7890625,0.0
210.60546875,-34.66796875,-34.1796875,-30.2734375,-37.59765625,-15.625,0.0
210.609375,-12.6953125,-22.94921875,-23.4375,-36.1328125,3.41796875,0.0
210.61328125,-19.53125,-25.390625,-25.390625,-31.73828125,-59.08203125,0.0
210.6171875,-38.57421875,-35.64453125,-32.2265625,-28.3203125,-62.01171875,0.0
210.62109375,-36.1328125,-37.109375,-32.71484375,-32.2265625,-6.8359375,0.0
210.625,-35.15625,-33.203125,-24.90234375,-33.69140625,-25.390625,0.0
210.62890625,-34.66796875,-37.59765625,-25.390625,-25.390625,-37.59765625,0.0
210.6328125,-31.25,-38.0859375,-31.25,-35.15625,-72.75390625,0.0
210.63671875,-29.78515625,-30.2734375,-28.3203125,-34.66796875,-82.03125,0.0
210.640625,-30.2734375,-30.2734375,-27.34375,-30.76171875,-53.7109375,0.0
210.64453125,-43.9453125,-38.0859375,-37.109375,-45.41015625,-58.59375,0.0
210.6484375,-33.203125,-38.57421875,-38.0859375,-47.36328125,-41.50390625,0.0
210.65234375,-22.94921875,-31.25,-31.25,-41.9921875,-4.8828125,0.0
210.65625,-33.203125,-25.87890625,-26.85546875,-35.15625,-83.49609375,0.0
210.66015625,-37.109375,-21.484375,-27.83203125,-29.296875,-97.16796875,0.0
210.6640625,-32.71484375,-24.4140625,-32.71484375,-24.90234375,-39.0625,0.0
210.66796875,-23.92578125,-25.87890625,-30.2734375,-28.80859375,-77.1484375,0.0
210.671875,-21.97265625,-30.76171875,-23.92578125,-32.71484375,-26.85546875,0.0
210.67578125,-40.52734375,-37.109375,-24.4140625,-27.34375,68.84765625,0.0
210.6796875,-28.3203125,-35.64453125,-27.83203125,-39.0625,-11.71875,0.0
210.68359375,-9.765625,-30.2734375,-24.4140625,-37.59765625,-71.77734375,0.0
210.6875,-41.50390625,-32.71484375,-21.97265625,-25.390625,-46.875,0.0
210.69140625,-49.8046875,-36.62109375,-32.71484375,-36.62109375,-63.4765625,0.0
210.6953125,-43.9453125,-32.2265625,-34.1796875,-37.109375,24.90234375,0.0
210.69921875,-41.9921875,-30.2734375,-33.203125,-27.34375,9.765625,0.0
210.703125,-36.1328125,-34.1796875,-32.2265625,-34.1796875,-52.734375,0.0
210.70703125,-34.66796875,-36.62109375,-30.76171875,-41.9921875,65.4296875,0.0
210.7109375,-31.25,-34.66796875,-30.76171875,-44.43359375,91.796875,0.0
210.71484375,-35.15625,-32.2265625,-25.390625,-40.0390625,18.5546875,0.0
210.71875,-48.33984375,-36.1328125,-24.90234375,-32.2265625,-0.48828125,0.0
210.72265625,-49.8046875,-31.25,-30.76171875,-29.296875,-2.44140625,0.0
210.7265625,-33.203125,-27.83203125,-33.203125,-33.69140625,-24.90234375,0.0
210.73046875,-19.04296875,-34.1796875,-36.1328125,-25.87890625,-6.8359375,0.0
210.734375,-23.92578125,-33.203125,-29.78515625,-31.25,18.06640625,0.0
210.73828125,-30.76171875,-26.3671875,-21.97265625,-30.2734375,-49.8046875,0.0
210.7421875,-22.4609375,-34.1796875,-26.85546875,-30.76171875,-91.30859375,0.0
210.74609375,-22.4609375,-40.0390625,-28.3203125,-40.0390625,-82.03125,0.0
210.75,-41.015625,-33.69140625,-29.296875,-37.59765625,-99.609375,0.0
210.75390625,-44.43359375,-30.2734375,-29.296875,-33.69140625,-139.16015625,0.0
210.7578125,-45.41015625,-28.3203125,-24.90234375,-28.80859375,-89.35546875,0.0
210.76171875,-46.38671875,-28.3203125,-32.2265625,-31.25,-22.94921875,0.0
210.765625,-39.0625,-34.66796875,-37.59765625,-39.55078125,-4.39453125,0.0
210.76953125,-33.203125,-38.57421875,-38.0859375,-45.8984375,16.6015625,0.0
210.7734375,-20.99609375,-25.87890625,-39.0625,-38.57421875,-2.9296875,0.0
210.77734375,-16.6015625,-24.4140625,-30.76171875,-18.06640625,-41.015625,0.0
210.78125,-37.59765625,-40.0390625,-19.04296875,-18.5546875,-27.83203125,0.0
210.78515625,-53.7109375,-42.96875,-23.4375,-45.41015625,69.82421875,0.0
210.7890625,-37.59765625,-41.015625,-24.90234375,-53.22265625,31.25,0.0
210.79296875,-34.1796875,-43.9453125,-18.5546875,-45.41015625,-27.34375,0.0
210.796875,-64.453125,-48.33984375,-16.11328125,-46.38671875,-30.76171875,0.0
210.80078125,-74.70703125,-45.41015625,-15.625,-46.875,-76.171875,0.0
210.8046875,-44.43359375,-42.96875,-18.06640625,-52.734375,-86.9140625,0.0
210.80859375,-26.3671875,-42.48046875,-22.94921875,-54.19921875,-65.4296875,0.0
210.8125,-48.33984375,-42.96875,-28.3203125,-42.48046875,-36.62109375,0.0
210.81640625,-59.08203125,-39.55078125,-27.83203125,-32.71484375,-26.85546875,0.0
210.8203125,-54.6875,-38.0859375,-25.87890625,-37.59765625,-45.41015625,0.0
210.82421875,-45.8984375,-39.55078125,-26.3671875,-39.55078125,-95.21484375,0.0
210.828125,-26.3671875,-37.109375,-22.4609375,-28.3203125,-100.5859375,0.0
210.83203125,-28.3203125,-36.62109375,-18.5546875,-34.66796875,-57.12890625,0.0
210.8359375,-50.78125,-35.64453125,-19.53125,-40.52734375,-60.05859375,0.0
210.83984375,-50.78125,-42.96875,-20.5078125,-33.203125,-42.48046875,0.0
210.84375,-36.1328125,-45.41015625,-20.01953125,-34.1796875,-31.73828125,0.0
210.84765625,-35.15625,-41.50390625,-21.484375,-43.45703125,-21.484375,0.0
210.8515625,-37.59765625,-39.55078125,-23.4375,-45.41015625,-14.6484375,0.0
210.85546875,-35.64453125,-34.1796875,-21.484375,-37.109375,-74.70703125,0.0
210.859375,-50.29296875,-35.15625,-20.99609375,-39.55078125,-128.41796875,0.0
210.86328125,-50.29296875,-35.15625,-26.3671875,-40.0390625,-87.40234375,0.0
210.8671875,-41.50390625,-38.0859375,-28.3203125,-37.59765625,1.46484375,0.0
210.87109375,-37.109375,-45.8984375,-24.4140625,-39.0625,-72.265625,0.0
210.875,-46.38671875,-42.48046875,-19.04296875,-30.76171875,-90.33203125,0.0
210.87890625,-54.19921875,-34.66796875,-17.08984375,-34.66796875,-3.90625,0.0
210.8828125,-43.9453125,-41.015625,-16.6015625,-38.0859375,-32.71484375,0.0
210.88671875,-40.0390625,-44.43359375,-24.4140625,-46.875,5.859375,0.0
210.890625,-33.69140625,-37.59765625,-40.0390625,-53.22265625,-4.39453125,0.0
210.89453125,-34.1796875,-33.69140625,-39.0625,-41.9921875,-63.4765625,0.0
210.8984375,-37.109375,-33.203125,-21.484375,-35.15625,-23.92578125,0.0
210.90234375,-30.2734375,-37.109375,-22.4609375,-34.66796875,36.1328125,0.0
210.90625,-41.015625,-37.59765625,-32.71484375,-38.57421875,21.484375,0.0
210.91015625,-41.015625,-36.1328125,-35.64453125,-43.9453125,-6.34765625,0.0
210.9140625,-37.109375,-36.1328125,-29.78515625,-37.109375,9.765625,0.0
210.91796875,-43.45703125,-40.52734375,-34.1796875,-25.390625,16.6015625,0.0
210.921875,-42.48046875,-41.50390625,-40.52734375,-28.3203125,-47.36328125,0.0
210.92578125,-31.73828125,-33.69140625,-37.109375,-36.62109375,-68.359375,0.0
210.9296875,-29.296875,-30.76171875,-31.25,-37.59765625,-89.84375,0.0
210.93359375,-38.0859375,-31.25,-28.3203125,-41.015625,-11.23046875,0.0
210.9375,-36.1328125,-30.2734375,-32.2265625,-42.48046875,-5.37109375,0.0
210.94140625,-29.296875,-30.2734375,-35.64453125,-37.59765625,-49.8046875,0.0
210.9453125,-43.45703125,-31.25,-31.25,-34.66796875,-25.87890625,0.0
210.94921875,-43.45703125,-34.66796875,-29.78515625,-41.50390625,-85.44921875,0.0
210.953125,-30.76171875,-34.1796875,-35.64453125,-42.96875,-115.72265625,0.0
210.95703125,-42.48046875,-38.57421875,-42.48046875,-41.015625,-121.58203125,0.0
210.9609375,-41.50390625,-33.69140625,-41.015625,-40.52734375,-91.30859375,0.0
210.96484375,-36.62109375,-25.390625,-35.15625,-28.80859375,-5.37109375,0.0
210.96875,-36.62109375,-29.296875,-36.62109375,-35.15625,12.20703125,0.0
210.97265625,-31.73828125,-36.62109375,-37.59765625,-37.109375,-51.26953125,0.0
210.9765625,-36.62109375,-40.0390625,-33.69140625,-32.71484375,-54.19921875,0.0
210.98046875,-27.83203125,-28.3203125,-37.109375,-39.0625,75.1953125,0.0
210.984375,18.06640625,-23.92578125,-38.0859375,-20.5078125,41.50390625,0.0
210.98828125,20.01953125,-31.73828125,-33.69140625,-27.83203125,-100.09765625,0.0
210.9921875,-49.31640625,-32.71484375,-30.76171875,-75.1953125,-34.66796875,0.0
210.99609375,-67.87109375,-32.71484375,-30.76171875,-79.1015625,29.78515625,0.0
211.0,-53.7109375,-39.55078125,-34.1796875,-53.7109375,-39.55078125,0.0
211.00390625,-61.03515625,-45.41015625,-32.2265625,-54.6875,-22.94921875,0.0
211.0078125,-74.70703125,-50.78125,-29.78515625,-64.453125,49.31640625,0.0
211.01171875,-72.265625,-52.24609375,-27.83203125,-58.59375,61.5234375,0.0
211.015625,-86.42578125,-49.31640625,-26.3671875,-55.17578125,33.203125,0.0
211.01953125,-90.8203125,-52.734375,-26.3671875,-45.8984375,-27.83203125,0.0
211.0234375,-70.80078125,-46.875,-31.25,-40.52734375,-112.3046875,0.0
211.02734375,-49.8046875,-38.0859375,-33.69140625,-40.52734375,-92.7734375,0.0
211.03125,-41.9921875,-42.48046875,-27.34375,-49.31640625,-37.109375,0.0
211.03515625,-37.109375,-41.50390625,-25.87890625,-47.8515625,-32.2265625,0.0
211.0390625,-49.8046875,-38.57421875,-27.83203125,-33.203125,-57.12890625,0.0
211.04296875,-61.5234375,-41.015625,-24.90234375,-35.64453125,-80.56640625,0.0
211.046875,-46.875,-41.9921875,-26.3671875,-49.8046875,-63.4765625,0.0
211.05078125,-36.1328125,-41.9921875,-33.203125,-53.22265625,-38.0859375,0.0
211.0546875,-43.45703125,-41.9921875,-31.73828125,-49.8046875,55.17578125,0.0
211.05859375,-73.2421875,-39.55078125,-26.85546875,-45.41015625,117.1875,0.0
211.0625,-71.2890625,-34.66796875,-26.3671875,-45.8984375,65.91796875,0.0
211.06640625,-51.7578125,-32.71484375,-29.78515625,-51.7578125,24.4140625,0.0
211.0703125,-43.9453125,-36.1328125,-27.83203125,-52.24609375,6.8359375,0.0
211.07421875,-41.50390625,-33.203125,-28.3203125,-44.921875,50.78125,0.0
211.078125,-46.875,-32.2265625,-23.4375,-45.41015625,41.9921875,0.0
211.08203125,-39.55078125,-37.109375,-21.97265625,-51.26953125,-66.89453125,0.0
211.0859375,-29.296875,-34.66796875,-28.3203125,-46.875,-86.42578125,0.0
211.08984375,-35.15625,-31.73828125,-27.83203125,-43.45703125,0.9765625,0.0
211.09375,-38.57421875,-35.15625,-27.83203125,-49.8046875,14.6484375,0.0
211.09765625,-32.71484375,-37.109375,-23.4375,-32.2265625,13.671875,0.0
211.1015625,-59.5703125,-34.66796875,-21.484375,-28.80859375,-38.0859375,0.0
211.10546875,-61.5234375,-32.2265625,-24.4140625,-41.9921875,-7.8125,0.0
211.109375,-47.36328125,-40.0390625,-24.90234375,-32.2265625,-5.859375,0.0
211.11328125,-50.29296875,-42.96875,-29.296875,-19.04296875,-79.58984375,0.0
211.1171875,-48.828125,-35.15625,-32.2265625,-28.80859375,-47.36328125,0.0
211.12109375,-38.57421875,-32.71484375,-29.78515625,-32.2265625,-94.23828125,0.0
211.125,-32.2265625,-33.203125,-31.25,-21.484375,-161.62109375,0.0
211.12890625,-40.0390625,-29.78515625,-37.59765625,-27.83203125,-152.34375,0.0
211.1328125,-51.26953125,-30.2734375,-34.66796875,-29.78515625,-106.4453125,0.0
211.13671875,-51.7578125,-35.64453125,-28.3203125,-18.06640625,-43.45703125,0.0
211.140625,-48.828125,-33.203125,-30.2734375,-16.6015625,2.9296875,0.0
211.14453125,-41.015625,-38.0859375,-35.64453125,-27.34375,-25.390625,0.0
211.1484375,-25.390625,-46.38671875,-36.1328125,-32.2265625,-72.75390625,0.0
211.15234375,-27.83203125,-42.48046875,-26.85546875,-36.1328125,-58.59375,0.0
211.15625,-37.109375,-33.203125,-20.99609375,-30.76171875,-79.58984375,0.0
211.16015625,-18.06640625,-26.85546875,-25.87890625,-26.85546875,-75.68359375,0.0
211.1640625,-12.20703125,-32.71484375,-31.73828125,-30.76171875,-83.0078125,0.0
211.16796875,-31.73828125,-34.66796875,-32.71484375,-30.2734375,-100.5859375,0.0
211.171875,-24.4140625,-30.76171875,-30.2734375,-23.92578125,-22.94921875,0.0
211.17578125,-15.13671875,-33.69140625,-29.296875,-19.04296875,-49.8046875,0.0
211.1796875,-17.578125,-31.73828125,-24.90234375,-20.01953125,-83.49609375,0.0
211.18359375,-21.484375,-23.92578125,-20.99609375,-26.85546875,-4.39453125,0.0
211.1875,-18.06640625,-21.97265625,-28.80859375,-36.1328125,-12.20703125,0.0
211.19140625,-8.30078125,-27.34375,-37.109375,-36.62109375,-57.6171875,0.0
211.1953125,-15.13671875,-30.2734375,-33.203125,-33.69140625,-59.08203125,0.0
211.19921875,-27.34375,-34.1796875,-22.94921875,-28.3203125,-6.8359375,0.0
211.203125,-30.2734375,-33.69140625,-27.83203125,-33.203125,-2.44140625,0.0
211.20703125,-31.25,-34.1796875,-34.1796875,-44.921875,-25.87890625,0.0
211.2109375,-28.3203125,-37.109375,-34.1796875,-43.45703125,-17.578125,0.0
211.21484375,-35.15625,-36.62109375,-35.15625,-33.69140625,-69.82421875,0.0
211.21875,-47.36328125,-35.15625,-32.71484375,-31.25,-111.328125,0.0
211.22265625,-41.50390625,-33.203125,-30.2734375,-37.59765625,-106.93359375,0.0
211.2265625,-28.80859375,-26.85546875,-32.2265625,-34.66796875,-71.2890625,0.0
211.23046875,-24.90234375,-26.85546875,-32.2265625,-34.1796875,41.50390625,0.0
211.234375,-33.69140625,-33.203125,-28.3203125,-39.0625,47.8515625,0.0
211.23828125,-19.04296875,-25.390625,-29.78515625,-25.390625,7.8125,0.0
211.2421875,-15.13671875,-20.5078125,-31.25,-21.97265625,-24.4140625,0.0
211.24609375,-24.4140625,-24.90234375,-28.3203125,-32.71484375,-55.17578125,0.0
211.25,-15.625,-33.203125,-31.25,-38.57421875,-45.41015625,0.0
211.25390625,-28.80859375,-39.0625,-34.66796875,-37.109375,-34.66796875,0.0
211.2578125,-37.109375,-33.203125,-33.203125,-20.99609375,-32.71484375,0.0
211.26171875,-32.2265625,-31.73828125,-32.2265625,-33.203125,-73.2421875,0.0
211.265625,-16.11328125,-31.25,-30.76171875,-49.31640625,-36.1328125,0.0
211.26953125,-13.671875,-27.83203125,-34.66796875,-51.26953125,-21.484375,0.0
211.2734375,-27.34375,-25.87890625,-34.66796875,-48.828125,-64.94140625,0.0
211.27734375,-40.0390625,-28.80859375,-26.85546875,-33.69140625,-24.90234375,0.0
211.28125,-48.33984375,-29.78515625,-20.99609375,-30.2734375,17.08984375,0.0
211.28515625,-35.15625,-27.83203125,-19.53125,-41.015625,-6.8359375,0.0
211.2890625,-14.16015625,-33.69140625,-21.484375,-43.45703125,-35.15625,0.0
211.29296875,-34.66796875,-45.41015625,-25.390625,-38.57421875,60.05859375,0.0
211.296875,-48.828125,-40.0390625,-31.73828125,-39.0625,155.76171875,0.0
211.30078125,-33.203125,-35.64453125,-31.73828125,-32.71484375,49.31640625,0.0
211.3046875,-16.11328125,-30.76171875,-20.99609375,-19.53125,-67.3828125,0.0
211.30859375,-17.08984375,-24.4140625,-26.85546875,-22.94921875,-24.90234375,0.0
211.3125,-39.55078125,-29.78515625,-34.1796875,-23.92578125,0.0,0.0
211.31640625,-40.52734375,-33.69140625,-31.73828125,-34.66796875,-83.0078125,0.0
211.3203125,-38.0859375,-34.1796875,-30.2734375,-32.71484375,-141.11328125,0.0
211.32421875,-38.0859375,-35.15625,-35.64453125,-27.34375,-88.37890625,0.0
211.328125,-15.13671875,-34.1796875,-38.57421875,-33.203125,-42.96875,0.0
211.33203125,-12.6953125,-36.1328125,-32.71484375,-26.3671875,-85.44921875,0.0
211.3359375,-33.203125,-36.62109375,-27.83203125,-23.4375,-68.359375,0.0
211.33984375,-28.80859375,-34.66796875,-27.34375,-22.94921875,-63.96484375,0.0
211.34375,-14.16015625,-27.83203125,-35.64453125,-20.5078125,-50.29296875,0.0
211.34765625,-13.671875,-33.203125,-39.55078125,-22.4609375,-77.1484375,0.0
211.3515625,-11.71875,-31.25,-28.3203125,-24.4140625,-91.796875,0.0
211.35546875,-7.32421875,-24.4140625,-25.87890625,-26.85546875,-59.08203125,0.0
211.359375,-20.01953125,-34.1796875,-28.80859375,-30.2734375,-68.84765625,0.0
211.36328125,-20.99609375,-31.25,-26.85546875,-29.296875,-83.0078125,0.0
211.3671875,-10.7421875,-25.87890625,-30.76171875,-33.69140625,-73.73046875,0.0
211.37109375,-10.25390625,-30.2734375,-29.78515625,-33.69140625,10.7421875,0.0
211.375,-21.97265625,-37.109375,-28.3203125,-32.71484375,-25.87890625,0.0
211.37890625,-26.3671875,-34.1796875,-31.25,-31.73828125,-73.2421875,0.0
211.3828125,-21.97265625,-26.3671875,-32.71484375,-25.87890625,-56.15234375,0.0
211.38671875,-22.94921875,-34.1796875,-36.1328125,-34.1796875,-87.890625,0.0
211.390625,-26.3671875,-30.76171875,-36.1328125,-34.66796875,-83.49609375,0.0
211.39453125,-33.69140625,-27.83203125,-24.4140625,-32.71484375,-24.90234375,0.0
211.3984375,-36.1328125,-32.71484375,-26.3671875,-30.76171875,-44.921875,0.0
211.40234375,-18.06640625,-30.76171875,-36.62109375,-27.34375,-117.1875,0.0
211.40625,-20.5078125,-32.71484375,-44.43359375,-24.90234375,-163.0859375,0.0
211.41015625,-27.34375,-39.55078125,-43.9453125,-26.3671875,-137.6953125,0.0
211.4140625,4.8828125,-30.76171875,-21.484375,2.44140625,0.0,0.0
211.41796875,2.9296875,-22.94921875,-16.11328125,10.7421875,61.5234375,0.0
211.421875,-44.921875,-22.4609375,-28.3203125,-38.57421875,60.546875,0.0
211.42578125,-46.875,-17.08984375,-34.66796875,-54.6875,72.265625,0.0
211.4296875,-35.15625,-16.11328125,-37.59765625,-53.22265625,21.97265625,0.0
211.43359375,-37.109375,-15.13671875,-41.50390625,-62.01171875,8.30078125,0.0
211.4375,-47.8515625,-19.53125,-42.96875,-70.3125,-22.4609375,0.0
211.44140625,-72.265625,-26.3671875,-43.9453125,-78.125,-70.80078125,0.0
211.4453125,-65.91796875,-20.99609375,-50.78125,-73.73046875,11.71875,0.0
211.44921875,-52.24609375,-18.06640625,-55.6640625,-67.87109375,-20.99609375,0.0
211.453125,-50.29296875,-27.34375,-52.734375,-76.66015625,-76.171875,0.0
211.45703125,-59.5703125,-39.0625,-44.43359375,-72.75390625,0.48828125,0.0
211.4609375,-55.6640625,-33.69140625,-44.921875,-67.3828125,35.64453125,0.0
211.46484375,-44.43359375,-24.90234375,-45.41015625,-73.2421875,11.23046875,0.0
211.46875,-39.0625,-27.83203125,-42.48046875,-63.4765625,-23.4375,0.0
211.47265625,-30.76171875,-23.92578125,-40.52734375,-55.17578125,-41.9921875,0.0
211.4765625,-29.78515625,-20.01953125,-41.015625,-60.546875,10.7421875,0.0
211.48046875,-43.45703125,-22.4609375,-38.0859375,-49.8046875,86.9140625,0.0
211.484375,-52.734375,-27.83203125,-33.69140625,-55.17578125,62.01171875,0.0
211.48828125,-39.0625,-29.296875,-33.69140625,-56.15234375,-17.08984375,0.0
211.4921875,-34.66796875,-25.87890625,-39.0625,-51.26953125,-35.64453125,0.0
211.49609375,-47.36328125,-27.34375,-39.0625,-55.17578125,-0.9765625,0.0
211.5,-58.10546875,-26.3671875,-40.52734375,-56.15234375,72.75390625,0.0
211.50390625,-55.17578125,-25.390625,-42.48046875,-57.6171875,7.32421875,0.0
211.5078125,-33.69140625,-29.296875,-41.9921875,-60.05859375,-111.328125,0.0
211.51171875,-24.90234375,-29.296875,-42.48046875,-54.19921875,-125.48828125,0.0
211.515625,-38.57421875,-27.83203125,-40.0390625,-42.48046875,-118.65234375,0.0
211.51953125,-42.96875,-31.25,-31.25,-36.62109375,-69.82421875,0.0
211.5234375,-38.0859375,-32.2265625,-27.34375,-36.62109375,21.97265625,0.0
211.52734375,-32.2265625,-29.78515625,-39.0625,-44.43359375,-1.953125,0.0
211.53125,-32.2265625,-40.0390625,-40.52734375,-42.48046875,-89.84375,0.0
211.53515625,-30.2734375,-45.41015625,-30.2734375,-37.59765625,-130.859375,0.0
211.5390625,-35.15625,-36.1328125,-29.78515625,-38.0859375,-100.5859375,0.0
211.54296875,-31.73828125,-32.71484375,-30.76171875,-35.64453125,-62.98828125,0.0
211.546875,-38.0859375,-27.83203125,-27.83203125,-38.57421875,-47.36328125,0.0
211.55078125,-41.50390625,-22.94921875,-33.203125,-37.109375,-108.3984375,0.0
211.5546875,-35.15625,-25.390625,-36.1328125,-27.83203125,-119.140625,0.0
211.55859375,-39.55078125,-32.2265625,-30.2734375,-23.4375,-57.6171875,0.0
211.5625,-36.1328125,-37.59765625,-36.1328125,-26.85546875,-26.85546875,0.0
211.56640625,-31.73828125,-33.203125,-45.8984375,-34.66796875,-55.17578125,0.0
211.5703125,-26.85546875,-12.6953125,-40.0390625,-35.64453125,-22.4609375,0.0
211.57421875,-28.80859375,-14.6484375,-32.2265625,-25.87890625,8.30078125,0.0
211.578125,-40.52734375,-34.1796875,-25.390625,-22.4609375,13.18359375,0.0
211.58203125,-32.2265625,-27.34375,-24.90234375,-39.0625,85.9375,0.0
211.5859375,-28.80859375,-19.04296875,-33.69140625,-55.6640625,29.78515625,0.0
211.58984375,-36.62109375,-27.34375,-28.80859375,-59.08203125,-85.44921875,0.0
211.59375,-36.62109375,-33.69140625,-22.94921875,-41.50390625,-76.66015625,0.0
211.59765625,-49.8046875,-25.87890625,-26.85546875,-25.390625,-12.6953125,0.0
211.6015625,-50.29296875,-29.296875,-28.3203125,-30.2734375,13.18359375,0.0
211.60546875,-34.1796875,-41.50390625,-31.25,-34.66796875,-38.57421875,0.0
211.609375,-33.69140625,-30.76171875,-34.66796875,-40.0390625,-78.61328125,0.0
211.61328125,-41.9921875,-16.11328125,-33.69140625,-38.0859375,-105.95703125,0.0
211.6171875,-36.62109375,-20.99609375,-26.3671875,-34.66796875,-28.3203125,0.0
211.62109375,-28.3203125,-31.73828125,-27.34375,-33.203125,14.16015625,0.0
211.625,-25.87890625,-38.57421875,-31.25,-29.78515625,-18.06640625,0.0
211.62890625,-31.73828125,-40.52734375,-27.83203125,-24.90234375,-45.8984375,0.0
211.6328125,-35.64453125,-33.203125,-30.2734375,-23.4375,-80.56640625,0.0
211.63671875,-37.109375,-23.4375,-35.64453125,-23.4375,-89.84375,0.0
211.640625,-38.57421875,-29.78515625,-31.25,-22.94921875,-66.89453125,0.0
211.64453125,-21.97265625,-23.4375,-20.99609375,-20.5078125,-66.89453125,0.0
211.6484375,-23.92578125,-17.08984375,-22.4609375,-28.3203125,-70.80078125,0.0
211.65234375,-29.296875,-26.85546875,-36.1328125,-33.69140625,-29.296875,0.0
211.65625,-20.99609375,-30.2734375,-39.55078125,-25.390625,-39.55078125,0.0
211.66015625,-28.3203125,-34.66796875,-26.85546875,-20.01953125,-21.484375,0.0
211.6640625,-30.76171875,-31.25,-23.4375,-24.4140625,5.37109375,0.0
211.66796875,-17.08984375,-30.76171875,-28.80859375,-35.64453125,-64.94140625,0.0
211.671875,-28.80859375,-31.25,-28.80859375,-28.80859375,-51.7578125,0.0
211.67578125,-38.57421875,-32.71484375,-24.4140625,-28.80859375,57.12890625,0.0
211.6796875,-41.015625,-42.48046875,-22.4609375,-37.59765625,92.28515625,0.0
211.68359375,-42.48046875,-42.96875,-26.3671875,-32.71484375,45.41015625,0.0
211.6875,-38.0859375,-34.66796875,-26.3671875,-43.45703125,15.625,0.0
211.69140625,-37.109375,-27.34375,-23.4375,-46.875,14.16015625,0.0
211.6953125,-47.36328125,-26.85546875,-26.3671875,-36.1328125,-4.39453125,0.0
211.69921875,-50.78125,-32.2265625,-32.2265625,-26.85546875,6.8359375,0.0
211.703125,-38.0859375,-34.66796875,-41.015625,-27.34375,-17.08984375,0.0
211.70703125,-29.78515625,-31.25,-40.0390625,-30.2734375,-99.609375,0.0
211.7109375,-23.4375,-27.83203125,-35.15625,-31.73828125,-110.83984375,0.0
211.71484375,-22.94921875,-29.78515625,-29.296875,-23.92578125,-109.86328125,0.0
211.71875,-35.64453125,-28.3203125,-27.34375,-18.06640625,-69.3359375,0.0
211.72265625,-29.296875,-23.4375,-28.80859375,-31.25,-56.640625,0.0
211.7265625,-17.578125,-29.296875,-32.2265625,-40.0390625,-50.29296875,0.0
211.73046875,-14.6484375,-34.66796875,-37.109375,-36.62109375,-40.52734375,0.0
211.734375,-21.97265625,-29.78515625,-39.0625,-43.45703125,-41.9921875,0.0
211.73828125,-33.203125,-29.296875,-32.2265625,-42.48046875,-82.03125,0.0
211.7421875,-42.96875,-32.2265625,-26.3671875,-24.90234375,-95.703125,0.0
211.74609375,-27.34375,-35.64453125,-27.34375,0.0,28.3203125,0.0
211.75,-26.85546875,-30.76171875,-36.62109375,-24.90234375,-7.8125,0.0
211.75390625,-66.40625,-23.4375,-42.96875,-62.01171875,-79.58984375,0.0
211.7578125,-73.2421875,-13.671875,-36.62109375,-61.5234375,-25.390625,0.0
211.76171875,-73.73046875,-20.01953125,-38.57421875,-59.5703125,-9.27734375,0.0
211.765625,-65.91796875,-31.73828125,-37.109375,-59.5703125,77.1484375,0.0
211.76953125,-64.453125,-37.59765625,-32.71484375,-69.82421875,77.63671875,0.0
211.7734375,-70.80078125,-28.3203125,-41.015625,-62.01171875,74.70703125,0.0
211.77734375,-62.01171875,-22.94921875,-46.38671875,-51.26953125,66.40625,0.0
211.78125,-63.4765625,-27.34375,-44.43359375,-57.12890625,12.6953125,0.0
211.78515625,-58.10546875,-33.69140625,-38.57421875,-55.17578125,-10.7421875,0.0
211.7890625,-38.57421875,-35.64453125,-34.1796875,-46.38671875,14.16015625,0.0
211.79296875,-28.80859375,-29.296875,-30.2734375,-37.109375,-4.8828125,0.0
211.796875,-45.8984375,-29.78515625,-25.390625,-35.64453125,-62.98828125,0.0
211.80078125,-59.5703125,-31.73828125,-32.71484375,-33.69140625,-40.0390625,0.0
211.8046875,-50.29296875,-34.1796875,-38.0859375,-37.109375,-3.90625,0.0
211.80859375,-51.7578125,-30.2734375,-39.0625,-39.55078125,-32.2265625,0.0
211.8125,-54.6875,-25.390625,-24.90234375,-42.48046875,-19.53125,0.0
211.81640625,-59.08203125,-29.78515625,-13.18359375,-40.0390625,-11.23046875,0.0
211.8203125,-49.8046875,-31.25,-27.34375,-40.52734375,-39.0625,0.0
211.82421875,-44.921875,-36.62109375,-33.203125,-41.50390625,-69.3359375,0.0
211.828125,-41.9921875,-31.25,-31.73828125,-40.52734375,-132.32421875,0.0
211.83203125,-39.55078125,-30.76171875,-34.1796875,-37.109375,-116.2109375,0.0
211.8359375,-44.43359375,-43.9453125,-44.921875,-21.97265625,-108.88671875,0.0
211.83984375,-35.15625,-38.0859375,-41.50390625,-33.69140625,-145.01953125,0.0
211.84375,-48.33984375,-30.76171875,-26.3671875,-41.50390625,-74.21875,0.0
211.84765625,-56.15234375,-31.73828125,-26.3671875,-38.57421875,-113.28125,0.0
211.8515625,-39.55078125,-29.78515625,-31.73828125,-40.0390625,-140.13671875,0.0
211.85546875,-48.828125,-28.80859375,-29.78515625,-37.59765625,-78.61328125,0.0
211.859375,-54.6875,-37.109375,-21.97265625,-34.66796875,-52.734375,0.0
211.86328125,-43.45703125,-45.8984375,-29.78515625,-30.76171875,-5.859375,0.0
211.8671875,-41.015625,-41.9921875,-37.59765625,-23.92578125,-1.46484375,0.0
211.87109375,-39.55078125,-35.15625,-38.0859375,-30.2734375,13.18359375,0.0
211.875,-35.15625,-33.203125,-47.8515625,-39.0625,22.94921875,0.0
211.87890625,-43.9453125,-29.296875,-34.1796875,-29.296875,18.06640625,0.0
211.8828125,-46.875,-24.4140625,-19.53125,-30.2734375,27.83203125,0.0
211.88671875,-45.41015625,-28.3203125,-26.3671875,-41.50390625,-39.55078125,0.0
211.890625,-41.50390625,-31.25,-33.203125,-46.875,-61.5234375,0.0
211.89453125,-34.66796875,-28.80859375,-33.69140625,-38.0859375,-30.2734375,0.0
211.8984375,-42.96875,-33.69140625,-38.0859375,-30.2734375,97.16796875,0.0
211.90234375,-48.33984375,-44.43359375,-35.15625,-36.1328125,130.859375,0.0
211.90625,-34.66796875,-47.8515625,-28.80859375,-40.0390625,30.2734375,0.0
211.91015625,-18.06640625,-40.0390625,-37.109375,-34.66796875,22.4609375,0.0
211.9140625,-21.97265625,-35.64453125,-40.0390625,-40.52734375,30.76171875,0.0
211.91796875,-42.96875,-30.76171875,-42.96875,-52.24609375,-17.08984375,0.0
211.921875,-41.9921875,-29.78515625,-38.0859375,-38.57421875,-15.13671875,0.0
211.92578125,-35.15625,-39.0625,-27.83203125,-37.59765625,18.5546875,0.0
211.9296875,-26.85546875,-30.76171875,-31.73828125,-43.9453125,16.6015625,0.0
211.93359375,-14.6484375,-21.484375,-34.1796875,-37.109375,-30.76171875,0.0
211.9375,-19.04296875,-21.484375,-30.2734375,-32.71484375,-69.3359375,0.0
211.94140625,-27.83203125,-30.2734375,-30.76171875,-34.1796875,-97.65625,0.0
211.9453125,-16.11328125,-41.015625,-29.296875,-40.0390625,-86.42578125,0.0
211.94921875,-5.37109375,-41.50390625,-21.97265625,-39.55078125,-162.59765625,0.0
211.953125,-6.8359375,-35.64453125,-29.78515625,-34.66796875,-171.38671875,0.0
211.95703125,-10.25390625,-28.80859375,-36.1328125,-26.85546875,-58.10546875,0.0
211.9609375,-20.01953125,-37.109375,-31.73828125,-21.484375,-34.1796875,0.0
211.96484375,-7.32421875,-38.57421875,-23.4375,-32.71484375,-19.53125,0.0
211.96875,-5.37109375,-25.87890625,-32.71484375,-35.15625,-17.08984375,0.0
211.97265625,-28.3203125,-27.83203125,-35.64453125,-39.55078125,-20.99609375,0.0
211.9765625,-23.4375,-30.2734375,-24.90234375,-37.59765625,2.44140625,0.0
211.98046875,-15.625,-30.2734375,-35.15625,-30.2734375,9.27734375,0.0
211.984375,-19.04296875,-32.2265625,-44.43359375,-27.83203125,0.48828125,0.0
211.98828125,-20.5078125,-36.1328125,-32.2265625,-33.203125,-54.6875,0.0
211.9921875,-25.390625,-34.1796875,-24.90234375,-37.59765625,-106.4453125,0.0
211.99609375,-14.16015625,-30.76171875,-26.85546875,-26.85546875,-72.75390625,0.0
212.0,-18.06640625,-31.73828125,-32.2265625,-34.1796875,-55.6640625,0.0
212.00390625,-22.94921875,-30.2734375,-32.2265625,-39.0625,-26.85546875,0.0
212.0078125,-16.11328125,-30.76171875,-22.94921875,-30.76171875,-15.13671875,0.0
212.01171875,-17.578125,-41.9921875,-31.25,-35.15625,-57.12890625,0.0
212.015625,-18.06640625,-39.0625,-42.96875,-31.73828125,-76.171875,0.0
212.01953125,-19.53125,-38.57421875,-41.9921875,-21.484375,-39.0625,0.0
212.0234375,-0.48828125,-42.48046875,-19.53125,-32.2265625,-3.41796875,0.0
212.02734375,-7.32421875,-41.50390625,-9.27734375,-29.296875,52.734375,0.0
212.03125,-38.0859375,-38.0859375,-28.3203125,-27.83203125,53.7109375,0.0
212.03515625,-38.57421875,-32.71484375,-30.2734375,-36.62109375,-26.85546875,0.0
212.0390625,-41.015625,-33.69140625,-23.92578125,-35.15625,-101.5625,0.0
212.04296875,-49.8046875,-37.109375,-28.3203125,-40.0390625,-133.30078125,0.0
212.046875,-47.8515625,-34.1796875,-33.203125,-47.36328125,-31.25,0.0
212.05078125,-38.0859375,-35.15625,-30.76171875,-54.6875,16.6015625,0.0
212.0546875,-28.80859375,-34.66796875,-22.94921875,-47.36328125,-27.83203125,0.0
212.05859375,-35.64453125,-34.66796875,-32.71484375,-42.48046875,-1.953125,0.0
212.0625,-33.203125,-35.64453125,-37.109375,-44.43359375,-26.3671875,0.0
212.06640625,-22.94921875,-25.87890625,-38.57421875,-43.9453125,-45.41015625,0.0
212.0703125,-20.5078125,-23.4375,-47.8515625,-38.57421875,-15.625,0.0
212.07421875,-20.01953125,-31.25,-38.0859375,-31.25,-20.5078125,0.0
212.078125,-18.5546875,-39.0625,-27.34375,-30.2734375,-63.96484375,0.0
212.08203125,-21.97265625,-32.2265625,-30.2734375,-32.2265625,-36.1328125,0.0
212.0859375,-25.87890625,-26.3671875,-26.85546875,-46.38671875,-11.23046875,0.0
212.08984375,-17.578125,-29.78515625,-24.90234375,-41.015625,-54.19921875,0.0
212.09375,-9.765625,-41.50390625,-34.66796875,-24.90234375,-66.40625,0.0
212.09765625,-27.34375,-40.52734375,-36.62109375,-32.2265625,-15.625,0.0
212.1015625,-41.015625,-24.4140625,-29.78515625,-40.52734375,-2.9296875,0.0
212.10546875,-39.0625,-25.87890625,-24.90234375,-38.0859375,-21.484375,0.0
212.109375,-28.3203125,-32.71484375,-29.296875,-37.109375,-24.90234375,0.0
212.11328125,-18.5546875,-29.296875,-29.296875,-32.2265625,-72.265625,0.0
212.1171875,-8.30078125,-31.25,-25.87890625,-31.25,-65.91796875,0.0
212.12109375,-30.76171875,-38.57421875,-28.3203125,-30.2734375,-52.24609375,0.0
212.125,-45.41015625,-42.48046875,-33.203125,-35.64453125,-92.7734375,0.0
212.12890625,-31.25,-46.875,-31.73828125,-45.41015625,-130.859375,0.0
212.1328125,-33.69140625,-38.57421875,-29.78515625,-44.921875,-83.49609375,0.0
212.13671875,-40.52734375,-30.76171875,-34.66796875,-32.71484375,9.27734375,0.0
212.140625,-40.0390625,-33.203125,-31.73828125,-30.76171875,48.828125,0.0
212.14453125,-44.43359375,-41.50390625,-36.62109375,-42.96875,-25.390625,0.0
212.1484375,-36.1328125,-31.25,-36.62109375,-44.921875,-57.12890625,0.0
212.15234375,-30.2734375,-22.94921875,-29.78515625,-38.0859375,-74.70703125,0.0
212.15625,-23.92578125,-28.3203125,-31.25,-28.3203125,55.6640625,0.0
212.16015625,-26.85546875,-24.4140625,-36.62109375,-31.25,134.27734375,0.0
212.1640625,-30.2734375,-22.94921875,-40.52734375,-42.48046875,22.4609375,0.0
212.16796875,-24.90234375,-32.2265625,-34.1796875,-45.8984375,-16.6015625,0.0
212.171875,-15.625,-33.69140625,-35.64453125,-41.9921875,-65.91796875,0.0
212.17578125,-15.625,-34.66796875,-31.73828125,-32.2265625,-20.01953125,0.0
212.1796875,-32.2265625,-29.78515625,-22.94921875,-33.203125,11.71875,0.0
212.18359375,-29.78515625,-39.0625,-30.2734375,-43.9453125,-17.08984375,0.0
212.1875,-30.2734375,-48.33984375,-38.0859375,-44.43359375,-20.01953125,0.0
212.19140625,-33.69140625,-36.1328125,-34.1796875,-42.48046875,-18.06640625,0.0
212.1953125,-28.3203125,-29.296875,-28.80859375,-30.2734375,68.359375,0.0
212.19921875,-27.34375,-32.2265625,-34.66796875,-25.390625,29.296875,0.0
212.203125,-34.1796875,-31.25,-53.7109375,-31.25,-15.13671875,0.0
212.20703125,-32.71484375,-30.2734375,-46.38671875,-38.57421875,49.31640625,0.0
212.2109375,-23.92578125,-43.9453125,-37.109375,-42.48046875,39.55078125,0.0
212.21484375,-28.80859375,-41.9921875,-45.41015625,-29.296875,-8.7890625,0.0
212.21875,-36.62109375,-35.64453125,-31.25,-31.25,-30.76171875,0.0
212.22265625,-44.43359375,-42.48046875,-23.4375,-35.15625,-48.828125,0.0
212.2265625,-40.52734375,-35.64453125,-28.80859375,-41.50390625,-47.36328125,0.0
212.23046875,-23.4375,-28.3203125,-25.390625,-51.26953125,-79.1015625,0.0
212.234375,-24.90234375,-31.25,-25.87890625,-42.96875,-49.8046875,0.0
212.23828125,-42.96875,-33.203125,-31.73828125,-37.109375,16.11328125,0.0
212.2421875,-52.24609375,-38.57421875,-34.66796875,-35.15625,-6.8359375,0.0
212.24609375,-38.0859375,-32.71484375,-31.25,-35.64453125,4.8828125,0.0
212.25,-33.203125,-25.87890625,-27.34375,-36.1328125,-34.66796875,0.0
212.25390625,-19.04296875,-34.1796875,-23.92578125,-29.78515625,-23.4375,0.0
212.2578125,3.41796875,-28.3203125,-27.34375,-20.5078125,52.24609375,0.0
212.26171875,-31.25,-28.3203125,-29.296875,-24.90234375,-21.97265625,0.0
212.265625,-44.921875,-38.57421875,-33.203125,-34.1796875,32.71484375,0.0
212.26953125,-16.6015625,-30.2734375,-30.76171875,-31.25,82.03125,0.0
212.2734375,-14.16015625,-27.83203125,-38.0859375,-23.4375,-44.43359375,0.0
212.27734375,-28.80859375,-26.85546875,-51.7578125,-23.4375,-4.39453125,0.0
212.28125,-21.97265625,-30.2734375,-35.64453125,-25.390625,68.359375,0.0
212.28515625,-16.6015625,-38.0859375,-23.4375,-35.64453125,-48.828125,0.0
212.2890625,-23.4375,-36.62109375,-19.04296875,-35.15625,-71.2890625,0.0
212.29296875,-17.08984375,-34.1796875,-28.3203125,-23.92578125,-64.453125,0.0
212.296875,-5.37109375,-38.57421875,-33.203125,6.8359375,-100.5859375,0.0
212.30078125,-15.625,-31.25,-25.87890625,3.41796875,-125.9765625,0.0
212.3046875,-61.03515625,-20.99609375,-39.55078125,-56.640625,-87.40234375,0.0
212.30859375,-89.84375,-28.80859375,-36.62109375,-88.37890625,-42.48046875,0.0
212.3125,-77.63671875,-38.57421875,-33.69140625,-76.171875,-21.484375,0.0
212.31640625,-69.3359375,-49.8046875,-40.52734375,-66.89453125,22.94921875,0.0
212.3203125,-88.8671875,-50.78125,-23.92578125,-81.54296875,-25.87890625,0.0
212.32421875,-112.79296875,-45.41015625,-21.484375,-91.796875,-83.984375,0.0
212.328125,-109.375,-41.015625,-36.1328125,-96.19140625,-30.2734375,0.0
212.33203125,-94.7265625,-37.59765625,-34.1796875,-104.4921875,-5.859375,0.0
212.3359375,-75.68359375,-36.62109375,-17.578125,-83.984375,-24.4140625,0.0
212.33984375,-70.80078125,-37.59765625,-24.90234375,-74.70703125,7.32421875,0.0
212.34375,-64.453125,-35.64453125,-46.875,-76.171875,5.37109375,0.0
212.34765625,-43.9453125,-36.1328125,-44.921875,-69.82421875,-29.78515625,0.0
212.3515625,-37.59765625,-37.59765625,-35.64453125,-55.17578125,-74.70703125,0.0
212.35546875,-47.8515625,-30.76171875,-27.83203125,-53.22265625,-56.640625,0.0
212.359375,-53.22265625,-27.83203125,-25.390625,-59.08203125,25.87890625,0.0
212.36328125,-53.22265625,-26.3671875,-38.57421875,-58.10546875,-0.48828125,0.0
212.3671875,-51.7578125,-40.0390625,-50.29296875,-57.6171875,-154.296875,0.0
212.37109375,-54.6875,-53.22265625,-33.203125,-55.17578125,-112.79296875,0.0
212.375,-53.22265625,-51.7578125,-16.11328125,-54.19921875,-30.76171875,0.0
212.37890625,-46.38671875,-50.29296875,-17.08984375,-50.29296875,-30.2734375,0.0
212.3828125,-47.8515625,-37.59765625,-19.53125,-43.9453125,3.41796875,0.0
212.38671875,-26.85546875,-20.5078125,-24.4140625,-36.1328125,-49.31640625,0.0
212.390625,-30.2734375,-19.53125,-36.1328125,-30.2734375,-48.828125,0.0
212.39453125,-43.9453125,-35.64453125,-38.57421875,-24.90234375,-41.9921875,0.0
212.3984375,-46.875,-39.0625,-23.92578125,-28.3203125,-59.08203125,0.0
212.40234375,-50.78125,-33.203125,-15.625,-38.57421875,-16.11328125,0.0
212.40625,-46.875,-33.69140625,-25.87890625,-46.38671875,33.203125,0.0
212.41015625,-35.64453125,-33.69140625,-44.43359375,-47.8515625,-1.953125,0.0
212.4140625,-19.53125,-40.52734375,-36.62109375,-37.109375,6.8359375,0.0
212.41796875,-28.80859375,-45.41015625,-22.4609375,-31.73828125,-15.625,0.0
212.421875,-39.0625,-35.15625,-22.94921875,-37.109375,-57.12890625,0.0
212.42578125,-37.109375,-26.3671875,-20.99609375,-30.76171875,-61.03515625,0.0
212.4296875,-43.45703125,-36.62109375,-18.5546875,-37.109375,-56.15234375,0.0
212.43359375,-37.109375,-46.875,-35.15625,-47.36328125,44.43359375,0.0
212.4375,-40.0390625,-48.828125,-49.31640625,-38.57421875,-3.41796875,0.0
212.44140625,-49.31640625,-42.48046875,-44.921875,-38.57421875,-123.53515625,0.0
212.4453125,-28.80859375,-27.34375,-30.76171875,-50.29296875,-10.7421875,0.0
212.44921875,-9.27734375,-17.578125,-29.296875,-44.921875,30.2734375,0.0
212.453125,-12.6953125,-25.87890625,-39.0625,-33.203125,2.44140625,0.0
212.45703125,-21.484375,-37.109375,-38.57421875,-37.109375,-53.22265625,0.0
212.4609375,-21.484375,-38.0859375,-24.90234375,-47.36328125,-135.25390625,0.0
212.46484375,-32.71484375,-41.9921875,-30.76171875,-41.50390625,-60.546875,0.0
212.46875,-30.2734375,-28.3203125,-33.203125,-24.4140625,-4.39453125,0.0
212.47265625,-26.85546875,-24.90234375,-29.78515625,-31.73828125,37.59765625,0.0
212.4765625,-49.8046875,-41.50390625,-37.59765625,-22.4609375,35.64453125,0.0
212.48046875,-58.59375,-45.41015625,-35.15625,-15.13671875,6.34765625,0.0
212.484375,-59.08203125,-33.69140625,-24.4140625,-27.83203125,-41.9921875,0.0
212.48828125,-59.5703125,-29.296875,-33.69140625,-25.390625,-100.09765625,0.0
212.4921875,-51.26953125,-25.390625,-37.109375,-25.390625,-97.16796875,0.0
212.49609375,-52.734375,-20.99609375,-17.08984375,-27.83203125,-109.86328125,0.0
212.5,-49.8046875,-34.1796875,-13.18359375,-26.3671875,-108.88671875,0.0
212.50390625,-47.36328125,-41.50390625,-22.4609375,-31.73828125,-31.25,0.0
212.5078125,-38.0859375,-27.83203125,-29.296875,-30.76171875,14.16015625,0.0
212.51171875,-24.4140625,-37.59765625,-34.66796875,-31.25,-96.19140625,0.0
212.515625,-30.76171875,-31.73828125,-24.90234375,-28.3203125,-108.88671875,0.0
212.51953125,-36.1328125,-21.97265625,-26.3671875,-23.4375,-8.30078125,0.0
212.5234375,-36.62109375,-37.109375,-38.0859375,-32.71484375,-8.30078125,0.0
212.52734375,-22.94921875,-38.57421875,-26.3671875,-40.52734375,-15.625,0.0
212.53125,-29.296875,-19.53125,-19.53125,-33.69140625,-20.99609375,0.0
212.53515625,-40.52734375,-7.8125,-27.34375,-24.4140625,20.01953125,0.0
212.5390625,-28.3203125,-20.01953125,-37.109375,-18.06640625,-6.34765625,0.0
212.54296875,-26.3671875,-31.73828125,-33.69140625,-15.625,-71.77734375,0.0
212.546875,-16.11328125,-19.53125,-27.34375,-26.3671875,-28.80859375,0.0
212.55078125,-17.578125,-15.625,-30.76171875,-27.34375,-5.37109375,0.0
212.5546875,-36.62109375,-22.94921875,-29.78515625,-25.390625,-49.8046875,0.0
212.55859375,-48.828125,-26.3671875,-25.87890625,-30.2734375,-78.61328125,0.0
212.5625,-42.96875,-37.109375,-21.484375,-23.92578125,-44.43359375,0.0
212.56640625,-27.34375,-38.0859375,-29.296875,-30.76171875,-27.83203125,0.0
212.5703125,-37.109375,-25.390625,-37.59765625,-31.25,17.578125,0.0
212.57421875,-44.921875,-32.2265625,-27.34375,-20.01953125,59.08203125,0.0
212.578125,-36.62109375,-33.69140625,-31.73828125,-27.83203125,-18.06640625,0.0
212.58203125,-20.99609375,-19.53125,-42.48046875,-17.08984375,-68.84765625,0.0
212.5859375,-34.66796875,-23.4375,-37.59765625,-33.69140625,-87.890625,0.0
212.58984375,-70.3125,-38.57421875,-27.34375,-58.59375,-123.53515625,0.0
212.59375,-76.171875,-41.015625,-25.390625,-47.36328125,-109.375,0.0
212.59765625,-60.05859375,-41.50390625,-17.578125,-44.921875,-89.35546875,0.0
212.6015625,-61.03515625,-53.22265625,-18.06640625,-52.24609375,25.87890625,0.0
212.60546875,-67.3828125,-52.24609375,-27.34375,-49.8046875,69.82421875,0.0
212.609375,-62.01171875,-52.24609375,-12.6953125,-43.9453125,-39.0625,0.0
212.61328125,-48.33984375,-35.15625,-23.4375,-44.921875,-54.6875,0.0
212.6171875,-35.15625,-14.6484375,-36.62109375,-35.64453125,-91.30859375,0.0
212.62109375,-33.203125,-29.78515625,-20.5078125,-36.1328125,-42.48046875,0.0
212.625,-41.50390625,-36.1328125,-12.6953125,-41.9921875,0.48828125,0.0
212.62890625,-37.109375,-36.62109375,-27.83203125,-38.0859375,3.90625,0.0
212.6328125,-29.78515625,-43.45703125,-28.3203125,-36.62109375,22.94921875,0.0
212.63671875,-38.0859375,-44.921875,-16.6015625,-41.015625,11.23046875,0.0
212.640625,-39.0625,-35.15625,-27.34375,-42.48046875,-28.80859375,0.0
212.64453125,-33.203125,-25.87890625,-38.0859375,-42.48046875,-42.48046875,0.0
212.6484375,-27.83203125,-37.109375,-39.0625,-48.33984375,-1.46484375,0.0
212.65234375,-20.5078125,-41.50390625,-31.73828125,-45.8984375,-3.90625,0.0
212.65625,-28.3203125,-40.0390625,-26.3671875,-38.0859375,11.71875,0.0
212.66015625,-36.1328125,-53.7109375,-31.25,-32.71484375,37.109375,0.0
212.6640625,-33.203125,-51.7578125,-25.87890625,-29.78515625,34.1796875,0.0
212.66796875,-24.90234375,-39.0625,-20.5078125,-38.0859375,62.5,0.0
212.671875,-27.34375,-35.64453125,-26.3671875,-45.8984375,6.34765625,0.0
212.67578125,-41.50390625,-24.90234375,-41.50390625,-43.45703125,6.8359375,0.0
212.6796875,-56.640625,-18.5546875,-22.94921875,-37.109375,-11.71875,0.0
212.68359375,-56.15234375,-31.73828125,-3.90625,-38.57421875,-53.22265625,0.0
212.6875,-44.921875,-32.2265625,-29.296875,-41.015625,-52.734375,0.0
212.69140625,-43.9453125,-26.3671875,-51.7578125,-31.73828125,-134.27734375,0.0
212.6953125,-48.33984375,-31.73828125,-20.5078125,-29.78515625,-65.91796875,0.0
212.69921875,-56.640625,-30.76171875,2.44140625,-27.83203125,-24.4140625,0.0
212.703125,-58.10546875,-30.2734375,-20.01953125,-24.90234375,-53.22265625,0.0
212.70703125,-48.33984375,-48.828125,-32.2265625,-28.80859375,14.16015625,0.0
212.7109375,-47.8515625,-62.98828125,-41.9921875,-27.83203125,29.296875,0.0
212.71484375,-62.5,-36.62109375,-43.45703125,-24.4140625,5.37109375,0.0
212.71875,-62.98828125,-19.04296875,-27.83203125,-28.3203125,-67.87109375,0.0
212.72265625,-60.05859375,-25.87890625,-26.3671875,-33.203125,-134.765625,0.0
212.7265625,-63.96484375,-28.80859375,-33.69140625,-24.4140625,-81.54296875,0.0
212.73046875,-55.6640625,-32.71484375,-42.48046875,-20.5078125,-153.3203125,0.0
212.734375,-53.22265625,-33.203125,-41.9921875,-31.25,-280.2734375,0.0
212.73828125,-57.12890625,-30.2734375,-30.76171875,-33.69140625,-224.12109375,0.0
212.7421875,-51.26953125,-33.203125,-24.4140625,-24.90234375,-161.1328125,0.0
212.74609375,-51.26953125,-29.78515625,-16.6015625,-17.08984375,-198.2421875,0.0
212.75,-51.26953125,-30.76171875,-27.83203125,-18.06640625,-229.00390625,0.0
212.75390625,-42.96875,-38.0859375,-33.203125,-22.4609375,-265.13671875,0.0
212.7578125,-41.015625,-37.109375,-8.7890625,-19.04296875,-250.9765625,0.0
212.76171875,-55.17578125,-31.73828125,-9.765625,-17.08984375,-125.0,0.0
212.765625,-61.03515625,-27.34375,-13.18359375,-16.11328125,-18.06640625,0.0
212.76953125,-43.9453125,-31.73828125,-25.390625,-23.4375,-36.1328125,0.0
212.7734375,-39.55078125,-36.1328125,-32.2265625,-18.5546875,-34.1796875,0.0
212.77734375,-49.31640625,-35.15625,-26.85546875,-16.6015625,-30.76171875,0.0
212.78125,-52.24609375,-20.99609375,-19.53125,-25.390625,-53.7109375,0.0
212.78515625,-53.22265625,-13.18359375,-12.6953125,-25.390625,-0.48828125,0.0
212.7890625,-50.29296875,-21.97265625,-17.578125,-22.94921875,18.5546875,0.0
212.79296875,-48.33984375,-26.3671875,-31.25,-22.4609375,16.6015625,0.0
212.796875,-51.7578125,-27.34375,-29.78515625,-25.87890625,47.8515625,0.0
212.80078125,-51.7578125,-33.69140625,-20.99609375,-29.78515625,50.78125,0.0
212.8046875,-51.26953125,-35.15625,-6.34765625,-40.0390625,0.0,0.0
212.80859375,-58.59375,-34.1796875,-18.06640625,-48.33984375,-19.53125,0.0
212.8125,-55.17578125,-36.62109375,-24.4140625,-41.9921875,-17.578125,0.0
212.81640625,-53.7109375,-33.203125,-21.484375,-41.50390625,-14.6484375,0.0
212.8203125,-52.24609375,-31.25,-22.94921875,-45.41015625,64.453125,0.0
212.82421875,-41.50390625,-34.66796875,-20.99609375,-46.875,132.8125,0.0
212.828125,-47.8515625,-38.57421875,-14.16015625,-42.96875,57.6171875,0.0
212.83203125,-57.12890625,-32.71484375,-18.06640625,-39.0625,-35.64453125,0.0
212.8359375,-59.5703125,-34.1796875,-27.83203125,-31.73828125,-46.875,0.0
212.83984375,-55.6640625,-31.25,-23.92578125,-22.4609375,-56.15234375,0.0
212.84375,-52.24609375,-24.4140625,-15.13671875,-20.99609375,-57.12890625,0.0
212.84765625,-50.29296875,-33.203125,-12.20703125,-28.3203125,-84.9609375,0.0
212.8515625,-30.2734375,-35.15625,-17.578125,-20.01953125,-143.06640625,0.0
212.85546875,-41.50390625,-33.69140625,-20.01953125,-21.484375,-89.35546875,0.0
212.859375,-65.4296875,-39.0625,-13.671875,-37.109375,8.30078125,0.0
212.86328125,-57.12890625,-40.0390625,-15.625,-36.62109375,34.66796875,0.0
212.8671875,-43.45703125,-33.203125,-17.08984375,-32.2265625,51.7578125,0.0
212.87109375,-45.8984375,-29.296875,-28.80859375,-35.15625,28.80859375,0.0
212.875,-53.7109375,-26.85546875,-31.25,-30.2734375,-29.296875,0.0
212.87890625,-59.08203125,-24.90234375,-20.99609375,-29.78515625,-16.6015625,0.0
212.8828125,-55.6640625,-28.80859375,-18.06640625,-40.0390625,-55.6640625,0.0
212.88671875,-36.62109375,-29.78515625,-29.296875,-37.109375,-61.5234375,0.0
212.890625,-26.3671875,-29.78515625,-42.48046875,-20.5078125,-34.1796875,0.0
212.89453125,-36.1328125,-44.43359375,-20.5078125,-23.4375,-21.97265625,0.0
212.8984375,-41.9921875,-43.45703125,-16.11328125,-30.76171875,39.55078125,0.0
212.90234375,-45.41015625,-26.3671875,-25.87890625,-37.109375,42.48046875,0.0
212.90625,-49.8046875,-22.4609375,-30.2734375,-42.96875,-13.18359375,0.0
212.91015625,-31.73828125,-24.4140625,-36.1328125,-36.62109375,-84.9609375,0.0
212.9140625,-21.484375,-28.80859375,-30.2734375,-29.296875,-40.0390625,0.0
212.91796875,-41.015625,-31.73828125,-27.34375,-25.390625,44.43359375,0.0
212.921875,-39.0625,-15.625,-25.87890625,-24.90234375,-38.57421875,0.0
212.92578125,-24.90234375,-14.16015625,-32.71484375,-29.78515625,-9.27734375,0.0
212.9296875,-39.0625,-22.94921875,-25.87890625,-40.0390625,-14.6484375,0.0
212.93359375,-42.96875,-24.4140625,-16.6015625,-31.73828125,-71.77734375,0.0
212.9375,-36.1328125,-28.3203125,-11.71875,-18.5546875,-14.6484375,0.0
212.94140625,-32.71484375,-43.45703125,-3.41796875,-32.2265625,-8.7890625,0.0
212.9453125,-28.3203125,-41.015625,-33.203125,-44.43359375,-29.78515625,0.0
212.94921875,-22.4609375,-23.92578125,-36.62109375,-38.0859375,17.578125,0.0
212.953125,-22.4609375,-11.71875,-20.99609375,-26.3671875,27.83203125,0.0
212.95703125,-46.38671875,-20.5078125,-20.99609375,-36.62109375,-7.32421875,0.0
212.9609375,-59.08203125,-30.76171875,-27.34375,-44.43359375,-43.45703125,0.0
212.96484375,-44.43359375,-28.3203125,-25.87890625,-35.15625,-118.1640625,0.0
212.96875,-38.57421875,-21.97265625,-22.4609375,-42.96875,-111.328125,0.0
212.97265625,-39.55078125,-21.97265625,-31.73828125,-53.7109375,-61.5234375,0.0
212.9765625,-37.59765625,-25.390625,-41.50390625,-48.828125,7.32421875,0.0
212.98046875,-36.62109375,-28.3203125,-39.55078125,-47.36328125,21.97265625,0.0
212.984375,-48.33984375,-38.0859375,-29.78515625,-46.875,-1.953125,0.0
212.98828125,-39.0625,-38.0859375,-42.48046875,-42.96875,3.90625,0.0
212.9921875,-26.85546875,-43.9453125,-42.48046875,-39.55078125,17.08984375,0.0
212.99609375,-42.96875,-48.33984375,-34.66796875,-39.55078125,-44.43359375,0.0
213.0,-51.26953125,-29.296875,-29.296875,-45.41015625,-93.26171875,0.0
213.00390625,-48.828125,-23.92578125,-24.90234375,-43.45703125,-50.29296875,0.0
213.0078125,-36.62109375,-25.87890625,-40.52734375,-35.64453125,10.25390625,0.0
213.01171875,-24.4140625,-25.87890625,-42.48046875,-35.64453125,-7.32421875,0.0
213.015625,-28.80859375,-27.34375,-22.94921875,-34.1796875,-34.1796875,0.0
213.01953125,-36.62109375,-26.85546875,-22.4609375,-18.5546875,-25.87890625,0.0
213.0234375,-18.06640625,-25.87890625,-38.57421875,-16.11328125,-79.58984375,0.0
213.02734375,-23.92578125,-36.62109375,-30.76171875,-45.8984375,-63.4765625,0.0
213.03125,-52.734375,-44.43359375,-10.25390625,-70.80078125,-25.390625,0.0
213.03515625,-60.05859375,-32.71484375,-19.04296875,-57.12890625,-19.04296875,0.0
213.0390625,-68.84765625,-34.1796875,-31.25,-45.41015625,-10.25390625,0.0
213.04296875,-67.87109375,-38.0859375,-39.0625,-51.26953125,-41.9921875,0.0
213.046875,-46.38671875,-38.57421875,-34.66796875,-44.43359375,-11.23046875,0.0
213.05078125,-41.015625,-49.8046875,-26.85546875,-47.36328125,-9.765625,0.0
213.0546875,-53.7109375,-43.45703125,-27.34375,-52.24609375,-63.4765625,0.0
213.05859375,-52.24609375,-30.2734375,-32.71484375,-45.8984375,-70.80078125,0.0
213.0625,-51.7578125,-27.34375,-25.390625,-42.96875,9.27734375,0.0
213.06640625,-50.78125,-40.52734375,-16.11328125,-39.0625,-15.13671875,0.0
213.0703125,-43.45703125,-46.38671875,-22.4609375,-29.78515625,-87.40234375,0.0
213.07421875,-40.0390625,-34.66796875,-20.5078125,-21.97265625,-85.44921875,0.0
213.078125,-36.62109375,-21.484375,-19.04296875,-19.53125,-26.3671875,0.0
213.08203125,-35.15625,-30.2734375,-34.1796875,-36.62109375,37.109375,0.0
213.0859375,-33.203125,-48.33984375,-44.43359375,-53.7109375,19.53125,0.0
213.08984375,-23.92578125,-43.9453125,-42.96875,-47.8515625,59.08203125,0.0
213.09375,-36.1328125,-29.296875,-48.33984375,-42.48046875,38.57421875,0.0
213.09765625,-46.38671875,-28.3203125,-42.48046875,-41.9921875,-32.71484375,0.0
213.1015625,-38.57421875,-32.71484375,-38.0859375,-41.015625,-21.97265625,0.0
213.10546875,-27.34375,-44.43359375,-36.62109375,-39.55078125,-2.9296875,0.0
213.109375,-12.6953125,-51.7578125,-23.4375,-32.71484375,0.48828125,0.0
213.11328125,-20.99609375,-36.1328125,-17.578125,-31.73828125,-62.5,0.0
213.1171875,-41.9921875,-25.87890625,-20.5078125,-42.96875,-96.6796875,0.0
213.12109375,-44.43359375,-25.87890625,-23.4375,-36.1328125,-85.9375,0.0
213.125,-43.9453125,-45.41015625,-34.66796875,-28.3203125,-64.453125,0.0
213.12890625,-38.0859375,-52.24609375,-41.015625,-39.55078125,-20.99609375,0.0
213.1328125,-32.2265625,-43.9453125,-36.62109375,-46.38671875,-33.69140625,0.0
213.13671875,-50.29296875,-45.8984375,-20.01953125,-35.64453125,-66.40625,0.0
213.140625,-59.5703125,-42.96875,-23.92578125,-25.390625,34.1796875,0.0
213.14453125,-39.55078125,-45.41015625,-32.71484375,-29.296875,9.765625,0.0
213.1484375,-26.3671875,-48.33984375,-37.109375,-26.3671875,-68.84765625,0.0
213.15234375,-35.15625,-40.52734375,-44.43359375,-32.71484375,-4.8828125,0.0
213.15625,-34.66796875,-30.76171875,-31.73828125,-29.78515625,4.39453125,0.0
213.16015625,-44.43359375,-30.76171875,-26.85546875,-31.73828125,-80.56640625,0.0
213.1640625,-48.828125,-35.15625,-34.66796875,-36.1328125,-91.30859375,0.0
213.16796875,-31.73828125,-34.1796875,-35.15625,-34.66796875,3.90625,0.0
213.171875,-33.203125,-27.83203125,-37.59765625,-35.15625,-41.015625,0.0
213.17578125,-38.57421875,-28.3203125,-31.73828125,-22.94921875,-75.1953125,0.0
213.1796875,-40.52734375,-35.15625,-10.7421875,-23.4375,-14.16015625,0.0
213.18359375,-39.0625,-36.1328125,-36.62109375,-34.66796875,35.64453125,0.0
213.1875,-23.92578125,-35.15625,-50.29296875,-31.73828125,21.484375,0.0
213.19140625,-21.97265625,-45.8984375,-25.390625,-27.83203125,-16.11328125,0.0
