timestam,TP9,AF7,AF8,TP10,AUX,Marker
318.00390625,-39.0625,-28.3203125,-48.828125,-53.7109375,-91.30859375,0.0
318.0078125,-20.5078125,-35.64453125,-41.50390625,-57.6171875,14.16015625,0.0
318.01171875,-26.85546875,-35.64453125,-32.2265625,-37.59765625,60.05859375,0.0
318.015625,-45.41015625,-33.69140625,-36.62109375,-30.76171875,77.63671875,0.0
318.01953125,-38.0859375,-35.64453125,-41.9921875,-38.0859375,78.61328125,0.0
318.0234375,-34.66796875,-34.1796875,-28.80859375,-40.0390625,22.4609375,0.0
318.02734375,-48.33984375,-36.1328125,-26.3671875,-47.8515625,5.37109375,0.0
318.03125,-41.50390625,-43.45703125,-41.015625,-41.015625,34.1796875,0.0
318.03515625,-37.59765625,-43.45703125,-33.203125,-26.3671875,28.80859375,0.0
318.0390625,-41.50390625,-36.1328125,-13.18359375,-22.94921875,-34.66796875,0.0
318.04296875,-25.390625,-33.69140625,-20.99609375,-40.52734375,-69.82421875,0.0
318.046875,-30.2734375,-41.50390625,-46.875,-41.9921875,-13.671875,0.0
318.05078125,-48.828125,-45.41015625,-43.45703125,-25.390625,-58.10546875,0.0
318.0546875,-42.48046875,-34.66796875,-38.0859375,-16.6015625,-75.1953125,0.0
318.05859375,-35.15625,-32.2265625,-40.0390625,-29.78515625,25.87890625,0.0
318.0625,-32.71484375,-36.62109375,-41.50390625,-46.38671875,-21.484375,0.0
318.06640625,-35.15625,-29.78515625,-41.015625,-22.94921875,-10.7421875,0.0
318.0703125,-43.45703125,-41.015625,-30.2734375,-28.3203125,16.11328125,0.0
318.07421875,-37.109375,-55.17578125,-32.71484375,-48.33984375,48.828125,0.0
318.078125,-40.0390625,-41.9921875,-38.0859375,-28.80859375,64.453125,0.0
318.08203125,-38.57421875,-30.2734375,-34.1796875,-26.3671875,24.90234375,0.0
318.0859375,-18.06640625,-31.25,-30.76171875,-29.78515625,3.90625,0.0
318.08984375,-14.6484375,-28.80859375,-28.80859375,-22.4609375,-24.4140625,0.0
318.09375,-40.0390625,-31.25,-29.78515625,-20.5078125,-37.109375,0.0
318.09765625,-47.36328125,-36.1328125,-30.76171875,-34.1796875,-70.80078125,0.0
318.1015625,-23.92578125,-30.76171875,-29.296875,-43.9453125,-66.40625,0.0
318.10546875,-9.765625,-26.3671875,-35.64453125,-33.69140625,-124.51171875,0.0
318.109375,-13.671875,-23.4375,-36.62109375,-10.7421875,-116.69921875,0.0
318.11328125,-30.76171875,-26.3671875,-30.76171875,-9.27734375,-106.4453125,0.0
318.1171875,-33.69140625,-32.2265625,-18.5546875,-28.3203125,-89.84375,0.0
318.12109375,-22.94921875,-37.59765625,-15.13671875,-38.0859375,-56.15234375,0.0
318.125,-22.4609375,-37.59765625,-35.64453125,-42.48046875,-71.77734375,0.0
318.12890625,-29.78515625,-36.1328125,-34.1796875,-38.0859375,-93.26171875,0.0
318.1328125,-26.3671875,-36.1328125,-19.53125,-30.2734375,-57.6171875,0.0
318.13671875,-35.64453125,-34.1796875,-32.2265625,-26.85546875,-22.94921875,0.0
318.140625,-25.87890625,-27.83203125,-39.55078125,-39.55078125,36.62109375,0.0
318.14453125,-15.625,-26.85546875,-30.76171875,-32.2265625,100.09765625,0.0
318.1484375,-27.34375,-26.3671875,-27.83203125,-17.08984375,22.94921875,0.0
318.15234375,-35.64453125,-34.66796875,-30.76171875,-38.0859375,-46.38671875,0.0
318.15625,-23.92578125,-42.48046875,-40.0390625,-31.25,-2.9296875,0.0
318.16015625,-7.32421875,-33.69140625,-41.50390625,-22.94921875,49.8046875,0.0
318.1640625,-23.92578125,-36.62109375,-34.66796875,-30.76171875,-32.71484375,0.0
318.16796875,-44.921875,-41.50390625,-35.64453125,-32.71484375,-107.91015625,0.0
318.171875,-53.22265625,-33.203125,-32.2265625,-39.0625,-100.5859375,0.0
318.17578125,-46.875,-33.203125,-19.04296875,-36.1328125,-108.3984375,0.0
318.1796875,-38.57421875,-31.25,-34.66796875,-29.296875,-78.61328125,0.0
318.18359375,-24.90234375,-23.4375,-38.57421875,-37.59765625,-52.24609375,0.0
318.1875,-21.484375,-30.2734375,-30.76171875,-37.59765625,-66.89453125,0.0
318.19140625,-31.25,-34.1796875,-29.296875,-30.2734375,-95.21484375,0.0
318.1953125,-16.11328125,-31.25,-28.3203125,-14.16015625,-67.3828125,0.0
318.19921875,-4.8828125,-28.3203125,-29.78515625,-6.8359375,-24.90234375,0.0
318.203125,-42.48046875,-30.2734375,-36.62109375,-54.19921875,-22.4609375,0.0
318.20703125,-63.4765625,-35.15625,-47.8515625,-71.77734375,31.25,0.0
318.2109375,-68.84765625,-38.0859375,-41.50390625,-76.66015625,-15.13671875,0.0
318.21484375,-83.984375,-35.15625,-43.45703125,-90.33203125,4.39453125,0.0
318.21875,-87.40234375,-36.1328125,-36.1328125,-72.75390625,67.3828125,0.0
318.22265625,-82.03125,-39.0625,-24.90234375,-72.265625,8.7890625,0.0
318.2265625,-61.03515625,-34.66796875,-40.0390625,-80.56640625,17.08984375,0.0
318.23046875,-44.921875,-31.25,-36.62109375,-62.98828125,32.71484375,0.0
318.234375,-62.01171875,-35.15625,-32.2265625,-60.05859375,-4.39453125,0.0
318.23828125,-58.59375,-34.66796875,-44.43359375,-65.91796875,20.01953125,0.0
318.2421875,-50.29296875,-31.25,-47.8515625,-55.6640625,76.66015625,0.0
318.24609375,-40.0390625,-30.2734375,-42.48046875,-60.546875,14.16015625,0.0
318.25,-38.57421875,-24.4140625,-37.109375,-56.640625,-65.91796875,0.0
318.25390625,-41.9921875,-24.90234375,-34.66796875,-45.8984375,-62.5,0.0
318.2578125,-43.45703125,-27.34375,-35.15625,-41.50390625,-56.15234375,0.0
318.26171875,-31.73828125,-29.296875,-33.203125,-40.52734375,-97.16796875,0.0
318.265625,-30.76171875,-29.78515625,-19.53125,-49.8046875,-149.4140625,0.0
318.26953125,-38.57421875,-31.73828125,-28.80859375,-32.71484375,-51.7578125,0.0
318.2734375,-46.38671875,-36.62109375,-35.15625,-20.5078125,39.0625,0.0
318.27734375,-55.17578125,-35.64453125,-31.73828125,-40.52734375,-11.71875,0.0
318.28125,-38.0859375,-30.2734375,-35.64453125,-41.9921875,42.96875,0.0
318.28515625,-19.04296875,-27.83203125,-28.80859375,-37.109375,60.05859375,0.0
318.2890625,-26.85546875,-30.2734375,-30.76171875,-42.96875,-20.01953125,0.0
318.29296875,-31.73828125,-28.3203125,-40.0390625,-41.50390625,13.671875,0.0
318.296875,-27.83203125,-34.1796875,-40.0390625,-36.1328125,91.796875,0.0
318.30078125,-29.78515625,-36.1328125,-40.0390625,-47.8515625,21.97265625,0.0
318.3046875,-11.71875,-27.83203125,-44.43359375,-44.43359375,22.4609375,0.0
318.30859375,-17.578125,-34.1796875,-23.92578125,-35.15625,-8.7890625,0.0
318.3125,-28.3203125,-33.69140625,4.8828125,-34.66796875,-86.9140625,0.0
318.31640625,-23.4375,-25.390625,-23.4375,-27.83203125,-80.56640625,0.0
318.3203125,-25.87890625,-27.34375,-37.59765625,-37.59765625,-104.4921875,0.0
318.32421875,-29.78515625,-28.80859375,-28.3203125,-60.546875,-149.4140625,0.0
318.328125,-34.1796875,-24.4140625,-35.15625,-59.08203125,-76.66015625,0.0
318.33203125,-25.87890625,-22.94921875,-28.80859375,-29.78515625,-40.52734375,0.0
318.3359375,-29.78515625,-27.83203125,-31.25,-17.08984375,-97.65625,0.0
318.33984375,-26.85546875,-35.64453125,-45.8984375,-32.71484375,-54.6875,0.0
318.34375,-15.625,-39.0625,-35.15625,-37.59765625,1.953125,0.0
318.34765625,-21.97265625,-38.0859375,-25.87890625,-41.015625,10.7421875,0.0
318.3515625,-24.90234375,-37.59765625,-24.90234375,-36.62109375,26.3671875,0.0
318.35546875,-34.1796875,-35.64453125,-24.90234375,-36.1328125,-34.66796875,0.0
318.359375,-35.64453125,-34.1796875,-35.64453125,-40.0390625,-81.0546875,0.0
318.36328125,-32.2265625,-32.71484375,-35.64453125,-22.94921875,-50.29296875,0.0
318.3671875,-37.109375,-31.25,-28.3203125,-34.1796875,-65.4296875,0.0
318.37109375,-41.50390625,-32.2265625,-25.390625,-51.26953125,-70.3125,0.0
318.375,-43.9453125,-37.59765625,-26.85546875,-42.48046875,6.34765625,0.0
318.37890625,-25.390625,-33.69140625,-29.296875,-36.62109375,37.59765625,0.0
318.3828125,-13.671875,-22.4609375,-36.1328125,-34.66796875,-19.04296875,0.0
318.38671875,-27.34375,-20.5078125,-33.203125,-40.52734375,9.765625,0.0
318.390625,-27.83203125,-32.71484375,-24.90234375,-39.55078125,62.01171875,0.0
318.39453125,-28.3203125,-39.0625,-29.78515625,-11.71875,53.7109375,0.0
318.3984375,-29.296875,-35.15625,-34.66796875,-16.11328125,3.41796875,0.0
318.40234375,-24.4140625,-37.109375,-36.62109375,-38.0859375,-20.99609375,0.0
318.40625,-24.4140625,-33.69140625,-39.0625,-40.52734375,-97.16796875,0.0
318.41015625,-29.78515625,-32.2265625,-30.76171875,-32.71484375,-92.28515625,0.0
318.4140625,-29.296875,-22.4609375,-16.6015625,-18.06640625,-68.359375,0.0
318.41796875,-36.1328125,-13.18359375,-6.34765625,-22.4609375,-118.1640625,0.0
318.421875,-34.66796875,-19.04296875,-20.99609375,-24.90234375,-86.42578125,0.0
318.42578125,-25.390625,-22.94921875,-34.1796875,-24.4140625,-67.87109375,0.0
318.4296875,-20.5078125,-30.76171875,-31.73828125,-33.69140625,-113.76953125,0.0
318.43359375,-25.87890625,-38.0859375,-26.3671875,-33.203125,-74.21875,0.0
318.4375,-36.62109375,-32.2265625,-21.484375,-31.73828125,-32.2265625,0.0
318.44140625,-32.71484375,-29.78515625,-21.484375,-35.15625,-33.69140625,0.0
318.4453125,-24.4140625,-34.66796875,-28.3203125,-24.90234375,-70.80078125,0.0
318.44921875,-35.64453125,-38.0859375,-34.1796875,-29.296875,-84.9609375,0.0
318.453125,-42.96875,-41.9921875,-30.2734375,-28.3203125,-97.65625,0.0
318.45703125,-35.64453125,-40.52734375,-18.06640625,-21.97265625,-119.62890625,0.0
318.4609375,-29.296875,-36.62109375,-2.9296875,-32.2265625,-95.21484375,0.0
318.46484375,-32.2265625,-36.62109375,-15.625,-33.203125,25.390625,0.0
318.46875,-20.99609375,-37.59765625,-29.78515625,-38.0859375,55.6640625,0.0
318.47265625,-17.578125,-40.52734375,-30.2734375,-27.34375,11.71875,0.0
318.4765625,-18.06640625,-31.73828125,-35.64453125,-24.90234375,-9.27734375,0.0
318.48046875,-7.32421875,-27.83203125,-33.69140625,-27.83203125,-48.828125,0.0
318.484375,-11.71875,-31.25,-24.4140625,-22.4609375,47.36328125,0.0
318.48828125,-18.5546875,-31.73828125,-19.53125,-28.3203125,83.984375,0.0
318.4921875,-27.83203125,-29.78515625,-19.04296875,-33.69140625,20.01953125,0.0
318.49609375,-34.66796875,-33.69140625,-26.85546875,-17.08984375,33.203125,0.0
318.5,-27.83203125,-25.390625,-40.52734375,-17.578125,79.58984375,0.0
318.50390625,-33.69140625,-28.3203125,-24.4140625,-24.4140625,31.73828125,0.0
318.5078125,-29.78515625,-40.0390625,-5.37109375,-36.1328125,-9.765625,0.0
318.51171875,-20.5078125,-32.71484375,-14.6484375,-35.15625,19.04296875,0.0
318.515625,-32.2265625,-24.90234375,-20.5078125,-25.87890625,14.6484375,0.0
318.51953125,-34.66796875,-20.5078125,-22.94921875,-16.6015625,-32.2265625,0.0
318.5234375,-18.5546875,-23.4375,-21.97265625,-16.11328125,-50.29296875,0.0
318.52734375,-14.6484375,-32.71484375,-22.4609375,-29.78515625,-49.31640625,0.0
318.53125,-35.64453125,-36.62109375,-24.4140625,-17.578125,-49.8046875,0.0
318.53515625,-47.8515625,-31.25,-26.85546875,-26.85546875,-37.59765625,0.0
318.5390625,-38.57421875,-29.296875,-30.76171875,-44.43359375,-41.9921875,0.0
318.54296875,-33.69140625,-42.96875,-36.1328125,-38.0859375,-70.80078125,0.0
318.546875,-28.80859375,-46.38671875,-32.71484375,-40.0390625,-85.9375,0.0
318.55078125,-19.53125,-31.25,-10.25390625,-43.9453125,-90.33203125,0.0
318.5546875,-23.92578125,-29.78515625,-13.671875,-25.87890625,15.625,0.0
318.55859375,-24.90234375,-40.52734375,-27.34375,-25.390625,-25.87890625,0.0
318.5625,-29.296875,-39.0625,-30.76171875,-43.45703125,-52.734375,0.0
318.56640625,-32.2265625,-34.66796875,-35.64453125,-38.57421875,8.30078125,0.0
318.5703125,-31.73828125,-27.83203125,-34.66796875,-28.80859375,5.859375,0.0
318.57421875,-19.53125,-23.4375,-31.73828125,-33.203125,-78.125,0.0
318.578125,-26.85546875,-34.66796875,-32.2265625,-28.80859375,-95.703125,0.0
318.58203125,-37.109375,-36.1328125,-31.73828125,-47.36328125,20.5078125,0.0
318.5859375,-23.92578125,-26.85546875,-31.25,-44.921875,14.16015625,0.0
318.58984375,-23.92578125,-29.296875,-40.52734375,-33.69140625,-16.11328125,0.0
318.59375,-29.78515625,-33.69140625,-29.78515625,-29.296875,-82.51953125,0.0
318.59765625,-30.2734375,-32.71484375,-5.37109375,-22.4609375,-180.6640625,0.0
318.6015625,-31.25,-29.78515625,-16.11328125,-41.015625,-130.859375,0.0
318.60546875,-23.4375,-31.73828125,-32.71484375,-45.41015625,-20.5078125,0.0
318.609375,-27.83203125,-30.76171875,-39.0625,-33.203125,-30.76171875,0.0
318.61328125,-35.15625,-32.2265625,-45.41015625,-38.57421875,-97.16796875,0.0
318.6171875,-29.78515625,-44.921875,-42.96875,-42.96875,-97.16796875,0.0
318.62109375,-28.3203125,-41.50390625,-34.66796875,-41.9921875,-63.4765625,0.0
318.625,-29.296875,-30.2734375,-25.87890625,-25.390625,-33.69140625,0.0
318.62890625,-24.4140625,-21.97265625,-33.203125,-11.71875,-28.80859375,0.0
318.6328125,-23.4375,-25.390625,-41.9921875,-21.97265625,-50.78125,0.0
318.63671875,-19.53125,-34.66796875,-30.2734375,-25.87890625,-72.265625,0.0
318.640625,-24.90234375,-36.1328125,-17.08984375,-32.2265625,-62.01171875,0.0
318.64453125,-22.4609375,-33.203125,-28.3203125,-36.1328125,34.66796875,0.0
318.6484375,-31.25,-38.0859375,-36.62109375,-39.55078125,103.515625,0.0
318.65234375,-40.0390625,-37.59765625,-34.66796875,-34.66796875,-33.203125,0.0
318.65625,-34.66796875,-33.203125,-30.76171875,-23.4375,-48.33984375,0.0
318.66015625,-23.4375,-19.53125,-34.1796875,-29.78515625,49.31640625,0.0
318.6640625,-25.390625,-19.53125,-38.57421875,-19.53125,-1.953125,0.0
318.66796875,-30.2734375,-29.296875,-29.78515625,-19.04296875,-32.2265625,0.0
318.671875,-29.296875,-28.80859375,-20.99609375,-21.484375,52.734375,0.0
318.67578125,-29.296875,-27.34375,-27.83203125,-32.71484375,18.5546875,0.0
318.6796875,-30.76171875,-28.3203125,-41.9921875,-41.9921875,-35.15625,0.0
318.68359375,-38.57421875,-31.73828125,-34.66796875,-41.9921875,-78.125,0.0
318.6875,-26.85546875,-36.62109375,-32.2265625,-38.57421875,-85.44921875,0.0
318.69140625,-23.92578125,-43.45703125,-28.3203125,-35.64453125,-20.5078125,0.0
318.6953125,-30.2734375,-46.38671875,-18.5546875,-36.1328125,-52.734375,0.0
318.69921875,-28.3203125,-29.296875,-9.27734375,-30.2734375,-24.4140625,0.0
318.703125,-16.11328125,-19.04296875,-5.37109375,-23.4375,30.2734375,0.0
318.70703125,-15.13671875,-33.69140625,-23.4375,-28.3203125,-41.015625,0.0
318.7109375,-20.5078125,-32.2265625,-26.85546875,-29.296875,-62.5,0.0
318.71484375,-16.11328125,-20.5078125,-26.85546875,-20.99609375,-51.26953125,0.0
318.71875,-30.76171875,-21.484375,-32.2265625,-21.484375,-160.15625,0.0
318.72265625,-35.64453125,-32.71484375,-30.76171875,-31.25,-208.0078125,0.0
318.7265625,-31.73828125,-39.0625,-21.97265625,-32.2265625,-169.921875,0.0
318.73046875,-28.3203125,-37.109375,-16.11328125,-17.578125,-178.7109375,0.0
318.734375,-27.83203125,-30.76171875,-27.34375,-5.37109375,-166.015625,0.0
318.73828125,-35.15625,-26.85546875,-29.78515625,-13.671875,-138.671875,0.0
318.7421875,-28.80859375,-28.3203125,-24.4140625,-26.85546875,-172.8515625,0.0
318.74609375,-27.34375,-50.78125,-27.34375,-38.0859375,-129.8828125,0.0
318.75,-35.15625,-56.640625,-47.36328125,-36.1328125,-13.671875,0.0
318.75390625,-30.2734375,-33.203125,-43.45703125,-47.36328125,47.36328125,0.0
318.7578125,-37.59765625,-21.97265625,-25.87890625,-32.2265625,81.0546875,0.0
318.76171875,-37.59765625,-22.4609375,-33.203125,-14.6484375,32.2265625,0.0
318.765625,-29.296875,-31.25,-34.1796875,-32.71484375,-13.18359375,0.0
318.76953125,-45.41015625,-33.69140625,-24.4140625,-37.109375,-20.5078125,0.0
318.7734375,-48.33984375,-35.64453125,-19.04296875,-29.296875,-31.73828125,0.0
318.77734375,-37.109375,-39.0625,-31.73828125,-35.64453125,-42.96875,0.0
318.78125,-36.62109375,-39.55078125,-39.55078125,-44.43359375,-90.33203125,0.0
318.78515625,-42.48046875,-40.52734375,-35.64453125,-40.0390625,-46.875,0.0
318.7890625,-43.45703125,-39.0625,-24.4140625,-39.0625,3.41796875,0.0
318.79296875,-45.8984375,-31.73828125,-16.11328125,-25.390625,-2.9296875,0.0
318.796875,-37.109375,-30.2734375,-21.97265625,-25.87890625,88.8671875,0.0
318.80078125,-20.01953125,-34.66796875,-24.4140625,-39.0625,94.23828125,0.0
318.8046875,-37.109375,-34.66796875,-30.76171875,-30.76171875,28.80859375,0.0
318.80859375,-46.875,-34.1796875,-35.15625,-29.78515625,90.33203125,0.0
318.8125,-43.9453125,-28.3203125,-34.66796875,-40.0390625,100.5859375,0.0
318.81640625,-55.17578125,-34.66796875,-31.25,-43.45703125,35.64453125,0.0
318.8203125,-54.6875,-37.59765625,-33.203125,-53.22265625,-40.52734375,0.0
318.82421875,-47.8515625,-29.296875,-37.59765625,-38.57421875,-121.09375,0.0
318.828125,-44.921875,-32.71484375,-39.55078125,-27.34375,-20.5078125,0.0
318.83203125,-44.43359375,-35.64453125,-41.50390625,-47.8515625,91.30859375,0.0
318.8359375,-37.59765625,-39.55078125,-20.01953125,-41.9921875,38.0859375,0.0
318.83984375,-42.48046875,-39.0625,-11.23046875,-26.85546875,-60.546875,0.0
318.84375,-46.875,-27.34375,-22.94921875,-30.76171875,-72.75390625,0.0
318.84765625,-46.38671875,-25.390625,-25.87890625,-33.69140625,-32.2265625,0.0
318.8515625,-48.828125,-27.34375,-33.203125,-26.85546875,-39.0625,0.0
318.85546875,-41.50390625,-26.3671875,-36.1328125,-11.71875,-50.29296875,0.0
318.859375,-30.76171875,-25.390625,-31.73828125,-20.01953125,-71.2890625,0.0
318.86328125,-23.92578125,-33.69140625,-31.73828125,-28.3203125,-24.4140625,0.0
318.8671875,-21.97265625,-39.0625,-31.25,-29.78515625,-59.08203125,0.0
318.87109375,-30.2734375,-27.34375,-31.73828125,-32.2265625,-117.1875,0.0
318.875,-37.59765625,-23.92578125,-33.69140625,-28.3203125,-116.69921875,0.0
318.87890625,-37.109375,-26.3671875,-20.01953125,-24.4140625,-116.2109375,0.0
318.8828125,-35.64453125,-30.2734375,-3.90625,-26.85546875,-16.6015625,0.0
318.88671875,-37.59765625,-40.0390625,-25.87890625,-37.109375,33.69140625,0.0
318.890625,-40.0390625,-41.50390625,-37.109375,-34.1796875,-27.34375,0.0
318.89453125,-46.38671875,-42.48046875,-27.83203125,-38.0859375,-64.94140625,0.0
318.8984375,-35.15625,-34.66796875,-28.3203125,-44.43359375,-83.0078125,0.0
318.90234375,-36.1328125,-26.85546875,-33.203125,-36.1328125,-94.23828125,0.0
318.90625,-44.43359375,-29.78515625,-33.203125,-36.62109375,-57.12890625,0.0
318.91015625,-39.0625,-34.66796875,-26.85546875,-42.48046875,2.9296875,0.0
318.9140625,-40.0390625,-36.1328125,-36.1328125,-41.50390625,-63.4765625,0.0
318.91796875,-31.73828125,-28.80859375,-41.015625,-28.80859375,-118.1640625,0.0
318.921875,-29.78515625,-32.2265625,-28.3203125,-36.1328125,-61.5234375,0.0
318.92578125,-33.203125,-43.9453125,-10.7421875,-30.2734375,-74.70703125,0.0
318.9296875,-32.71484375,-32.71484375,-21.484375,-22.4609375,-48.828125,0.0
318.93359375,-39.0625,-30.76171875,-30.76171875,-21.97265625,31.25,0.0
318.9375,-16.6015625,-39.0625,-20.5078125,1.46484375,54.6875,0.0
318.94140625,-2.9296875,-31.73828125,-25.390625,-20.01953125,-38.0859375,0.0
318.9453125,-34.66796875,-26.85546875,-31.73828125,-63.96484375,-74.70703125,0.0
318.94921875,-52.24609375,-37.59765625,-36.62109375,-58.59375,6.8359375,0.0
318.953125,-61.03515625,-35.15625,-46.38671875,-53.22265625,-12.20703125,0.0
318.95703125,-72.75390625,-22.94921875,-42.96875,-57.12890625,13.671875,0.0
318.9609375,-63.96484375,-22.94921875,-33.69140625,-72.75390625,-2.9296875,0.0
318.96484375,-54.19921875,-29.78515625,-34.66796875,-68.84765625,-41.9921875,0.0
318.96875,-52.734375,-41.015625,-32.71484375,-57.6171875,-45.41015625,0.0
318.97265625,-50.78125,-36.1328125,-17.578125,-54.19921875,-82.03125,0.0
318.9765625,-59.08203125,-29.296875,-33.203125,-33.69140625,-5.37109375,0.0
318.98046875,-48.828125,-29.296875,-40.52734375,-40.52734375,-13.18359375,0.0
318.984375,-38.57421875,-35.15625,-32.2265625,-63.96484375,-19.04296875,0.0
318.98828125,-39.0625,-51.26953125,-32.71484375,-38.57421875,66.40625,0.0
318.9921875,-24.90234375,-43.45703125,-19.53125,-27.83203125,55.17578125,0.0
318.99609375,-33.69140625,-23.92578125,-19.04296875,-34.66796875,-20.01953125,0.0
319.0,-44.43359375,-17.578125,-29.296875,-38.0859375,-29.78515625,0.0
319.00390625,-29.78515625,-17.08984375,-37.109375,-42.48046875,-20.5078125,0.0
319.0078125,-15.625,-18.06640625,-41.015625,-54.6875,20.99609375,0.0
319.01171875,-28.80859375,-22.94921875,-27.83203125,-41.015625,126.46484375,0.0
319.015625,-44.43359375,-28.80859375,0.48828125,-25.390625,82.03125,0.0
319.01953125,-30.2734375,-36.62109375,-12.6953125,-31.73828125,10.25390625,0.0
319.0234375,-34.1796875,-35.15625,-38.57421875,-33.203125,9.27734375,0.0
319.02734375,-37.109375,-29.296875,-34.1796875,-36.62109375,3.41796875,0.0
319.03125,-36.1328125,-33.69140625,-31.73828125,-42.48046875,-42.96875,0.0
319.03515625,-37.109375,-33.203125,-28.3203125,-37.109375,-53.7109375,0.0
319.0390625,-32.71484375,-34.1796875,-24.4140625,-37.59765625,-1.46484375,0.0
319.04296875,-28.80859375,-35.15625,-28.80859375,-24.4140625,-54.6875,0.0
319.046875,-31.73828125,-41.9921875,-32.2265625,-21.97265625,-36.62109375,0.0
319.05078125,-24.4140625,-57.12890625,-35.15625,-36.62109375,-9.27734375,0.0
319.0546875,-25.87890625,-35.64453125,-33.69140625,-31.73828125,-54.19921875,0.0
319.05859375,-41.015625,-8.7890625,-24.4140625,-30.76171875,17.08984375,0.0
319.0625,-42.48046875,-10.25390625,-17.08984375,-38.57421875,45.41015625,0.0
319.06640625,-35.64453125,-18.06640625,-30.2734375,-37.59765625,69.3359375,0.0
319.0703125,-41.9921875,-25.87890625,-40.0390625,-39.55078125,15.13671875,0.0
319.07421875,-40.52734375,-25.87890625,-32.2265625,-36.1328125,-118.1640625,0.0
319.078125,-30.2734375,-28.3203125,-28.80859375,-17.08984375,-95.21484375,0.0
319.08203125,-28.3203125,-40.0390625,-32.71484375,-30.2734375,-88.8671875,0.0
319.0859375,-17.08984375,-28.3203125,-31.25,-24.4140625,-95.703125,0.0
319.08984375,-21.484375,-19.04296875,-34.1796875,-33.69140625,-80.56640625,0.0
319.09375,-50.29296875,-28.3203125,-35.64453125,-56.640625,-48.33984375,0.0
319.09765625,-63.4765625,-22.94921875,-40.52734375,-59.08203125,-32.71484375,0.0
319.1015625,-47.36328125,-20.01953125,-45.8984375,-59.5703125,-100.5859375,0.0
319.10546875,-43.45703125,-18.5546875,-37.109375,-59.08203125,-127.9296875,0.0
319.109375,-44.921875,-16.6015625,-55.6640625,-58.10546875,-90.33203125,0.0
319.11328125,-40.0390625,-24.4140625,-71.2890625,-48.33984375,15.13671875,0.0
319.1171875,-49.8046875,-37.109375,-54.6875,-36.62109375,13.671875,0.0
319.12109375,-39.55078125,-37.59765625,-48.33984375,-38.57421875,-42.48046875,0.0
319.125,-20.01953125,-29.78515625,-42.96875,-52.24609375,7.32421875,0.0
319.12890625,-35.64453125,-32.2265625,-44.43359375,-52.24609375,0.48828125,0.0
319.1328125,-46.875,-38.0859375,-49.31640625,-35.15625,5.859375,0.0
319.13671875,-39.0625,-32.2265625,-54.6875,-33.69140625,-5.859375,0.0
319.140625,-34.1796875,-34.1796875,-54.6875,-48.33984375,-78.125,0.0
319.14453125,-26.85546875,-29.296875,-44.43359375,-56.15234375,-55.6640625,0.0
319.1484375,-24.4140625,-22.4609375,-38.57421875,-31.73828125,-36.62109375,0.0
319.15234375,-28.3203125,-30.2734375,-39.0625,-21.97265625,-87.40234375,0.0
319.15625,-34.66796875,-32.71484375,-40.52734375,-22.4609375,-176.7578125,0.0
319.16015625,-24.4140625,-32.71484375,-35.15625,-33.69140625,-110.3515625,0.0
319.1640625,-19.53125,-31.25,-33.69140625,-44.43359375,-0.48828125,0.0
319.16796875,-29.296875,-29.296875,-36.1328125,-36.62109375,-8.30078125,0.0
319.171875,-35.15625,-27.83203125,-37.59765625,-25.87890625,-43.45703125,0.0
319.17578125,-36.1328125,-24.90234375,-35.64453125,-34.66796875,-43.9453125,0.0
319.1796875,-27.34375,-24.90234375,-34.1796875,-48.33984375,-61.03515625,0.0
319.18359375,-22.4609375,-33.203125,-36.62109375,-39.0625,-59.5703125,0.0
319.1875,-19.53125,-37.59765625,-43.9453125,-38.57421875,20.01953125,0.0
319.19140625,-22.4609375,-33.203125,-39.0625,-36.1328125,5.859375,0.0
319.1953125,-26.85546875,-27.83203125,-32.71484375,-21.484375,-67.3828125,0.0
319.19921875,-32.2265625,-26.3671875,-37.109375,-30.76171875,-7.8125,0.0
319.203125,-25.390625,-24.90234375,-40.0390625,-45.8984375,119.140625,0.0
319.20703125,-12.20703125,-21.484375,-41.015625,-45.41015625,64.94140625,0.0
319.2109375,-19.53125,-27.34375,-50.29296875,-34.1796875,-45.8984375,0.0
319.21484375,-23.92578125,-40.0390625,-50.78125,-32.71484375,-100.09765625,0.0
319.21875,-12.6953125,-35.15625,-42.96875,-31.73828125,-76.171875,0.0
319.22265625,-15.13671875,-38.0859375,-41.015625,-28.80859375,3.41796875,0.0
319.2265625,-21.97265625,-33.69140625,-43.45703125,-38.0859375,-58.59375,0.0
319.23046875,-36.1328125,-23.4375,-41.9921875,-39.0625,-155.76171875,0.0
319.234375,-49.8046875,-21.484375,-28.3203125,-28.80859375,-91.30859375,0.0
319.23828125,-46.875,-21.97265625,-31.25,-29.78515625,-148.4375,0.0
319.2421875,-54.6875,-29.78515625,-38.0859375,-38.57421875,-236.81640625,0.0
319.24609375,-44.43359375,-30.2734375,-35.64453125,-46.38671875,-165.0390625,0.0
319.25,-32.71484375,-31.73828125,-39.55078125,-45.8984375,-175.29296875,0.0
319.25390625,-44.43359375,-28.3203125,-39.55078125,-31.73828125,-117.67578125,0.0
319.2578125,-37.59765625,-25.390625,-28.3203125,-31.73828125,-42.96875,0.0
319.26171875,-34.66796875,-28.80859375,-32.71484375,-41.015625,-99.609375,0.0
319.265625,-47.8515625,-31.73828125,-40.0390625,-53.22265625,-105.95703125,0.0
319.26953125,-58.59375,-41.50390625,-37.109375,-46.875,64.94140625,0.0
319.2734375,-57.6171875,-41.50390625,-34.66796875,-28.80859375,71.2890625,0.0
319.27734375,-52.24609375,-33.69140625,-32.2265625,-32.2265625,-2.44140625,0.0
319.28125,-45.41015625,-34.1796875,-29.296875,-37.109375,21.97265625,0.0
319.28515625,-24.4140625,-37.59765625,-24.4140625,-33.203125,-45.41015625,0.0
319.2890625,-19.53125,-37.109375,-25.87890625,-35.64453125,-25.87890625,0.0
319.29296875,-46.875,-36.62109375,-40.52734375,-36.62109375,84.47265625,0.0
319.296875,-53.22265625,-47.36328125,-37.59765625,-22.4609375,4.8828125,0.0
319.30078125,-45.8984375,-44.921875,-13.18359375,-19.53125,-40.52734375,0.0
319.3046875,-31.25,-35.64453125,-11.71875,-23.4375,19.53125,0.0
319.30859375,-25.87890625,-32.71484375,-24.4140625,-35.15625,-15.13671875,0.0
319.3125,-37.109375,-30.76171875,-35.64453125,-35.64453125,-43.9453125,0.0
319.31640625,-37.109375,-31.73828125,-37.59765625,-32.71484375,-13.671875,0.0
319.3203125,-25.87890625,-41.50390625,-31.73828125,-29.296875,-27.34375,0.0
319.32421875,-29.78515625,-42.96875,-45.8984375,-30.76171875,-33.69140625,0.0
319.328125,-17.08984375,-25.390625,-55.17578125,-24.90234375,12.6953125,0.0
319.33203125,-7.8125,-21.484375,-29.296875,-14.6484375,65.4296875,0.0
319.3359375,-28.80859375,-34.1796875,-11.71875,-25.390625,22.4609375,0.0
319.33984375,-33.203125,-32.2265625,-19.04296875,-29.78515625,-30.76171875,0.0
319.34375,-35.64453125,-30.76171875,-21.484375,-37.59765625,-51.7578125,0.0
319.34765625,-33.69140625,-37.109375,-6.34765625,-29.78515625,-79.1015625,0.0
319.3515625,-30.2734375,-29.78515625,-19.53125,-20.01953125,-71.2890625,0.0
319.35546875,-21.97265625,-24.4140625,-40.0390625,-28.3203125,-55.17578125,0.0
319.359375,-17.08984375,-28.80859375,-35.15625,-17.08984375,-24.90234375,0.0
319.36328125,-24.4140625,-32.71484375,-28.80859375,-27.83203125,-69.3359375,0.0
319.3671875,-25.87890625,-35.15625,-27.83203125,-40.52734375,-166.50390625,0.0
319.37109375,-21.484375,-34.66796875,-28.3203125,-25.390625,-169.43359375,0.0
319.375,-33.69140625,-33.69140625,-34.1796875,-11.23046875,-134.27734375,0.0
319.37890625,-40.52734375,-38.0859375,-33.69140625,-17.578125,-161.1328125,0.0
319.3828125,-24.90234375,-37.109375,-32.71484375,-29.78515625,-184.08203125,0.0
319.38671875,-10.7421875,-30.2734375,-44.921875,-30.2734375,-172.36328125,0.0
319.390625,-26.3671875,-37.59765625,-41.9921875,-41.9921875,-114.2578125,0.0
319.39453125,-32.71484375,-44.43359375,-26.85546875,-37.109375,-54.6875,0.0
319.3984375,-33.203125,-28.3203125,-32.71484375,-36.62109375,-95.703125,0.0
319.40234375,-41.9921875,-19.04296875,-32.71484375,-34.66796875,-117.1875,0.0
319.40625,-44.921875,-25.390625,-30.76171875,-33.69140625,-100.5859375,0.0
319.41015625,-29.78515625,-32.2265625,-40.52734375,-60.05859375,-22.94921875,0.0
319.4140625,-21.484375,-32.71484375,-37.109375,-64.453125,44.43359375,0.0
319.41796875,-35.15625,-25.87890625,-32.71484375,-28.80859375,28.3203125,0.0
319.421875,-34.66796875,-21.97265625,-36.1328125,-29.78515625,50.78125,0.0
319.42578125,-23.4375,-30.76171875,-32.2265625,-34.1796875,66.40625,0.0
319.4296875,-20.5078125,-40.0390625,-31.25,-36.62109375,51.7578125,0.0
319.43359375,-28.3203125,-35.64453125,-27.34375,-35.15625,37.59765625,0.0
319.4375,-38.57421875,-33.69140625,-22.4609375,-23.92578125,5.37109375,0.0
319.44140625,-41.9921875,-35.64453125,-35.15625,-30.76171875,31.25,0.0
319.4453125,-35.15625,-35.64453125,-39.55078125,-45.41015625,78.61328125,0.0
319.44921875,-25.390625,-37.59765625,-31.73828125,-42.96875,48.828125,0.0
319.453125,-33.69140625,-37.109375,-30.76171875,-29.296875,-23.92578125,0.0
319.45703125,-60.546875,-46.38671875,-33.69140625,-31.25,50.29296875,0.0
319.4609375,-51.7578125,-56.640625,-31.73828125,-42.48046875,144.53125,0.0
319.46484375,-32.71484375,-38.57421875,-30.76171875,-42.96875,58.59375,0.0
319.46875,-41.015625,-32.71484375,-35.64453125,-42.96875,-14.6484375,0.0
319.47265625,-39.55078125,-42.96875,-37.59765625,-34.66796875,-5.859375,0.0
319.4765625,-41.50390625,-40.0390625,-30.2734375,-34.1796875,-40.52734375,0.0
319.48046875,-39.55078125,-39.0625,-9.765625,-44.43359375,-70.3125,0.0
319.484375,-23.4375,-44.921875,-15.13671875,-25.87890625,-47.36328125,0.0
319.48828125,-27.83203125,-33.69140625,-21.484375,-11.71875,-56.640625,0.0
319.4921875,-37.59765625,-23.92578125,-19.04296875,-8.7890625,-78.61328125,0.0
319.49609375,-25.390625,-21.484375,-24.4140625,-6.8359375,-23.92578125,0.0
319.5,-33.203125,-19.53125,-25.390625,-18.5546875,-3.90625,0.0
319.50390625,-18.06640625,-38.57421875,-33.203125,-25.390625,-7.8125,0.0
319.5078125,-24.4140625,-44.921875,-34.66796875,-15.625,21.484375,0.0
319.51171875,-44.921875,-38.0859375,-28.3203125,-26.3671875,-37.59765625,0.0
319.515625,-51.26953125,-34.1796875,-26.85546875,-32.2265625,-81.54296875,0.0
319.51953125,-47.8515625,-38.0859375,-31.73828125,-30.2734375,-43.45703125,0.0
319.5234375,-35.15625,-37.109375,-23.92578125,-32.71484375,-164.55078125,0.0
319.52734375,-41.50390625,-33.203125,-12.20703125,-35.64453125,-175.78125,0.0
319.53125,-39.0625,-36.62109375,-16.11328125,-27.34375,-37.59765625,0.0
319.53515625,-29.78515625,-33.69140625,-17.578125,-16.6015625,49.31640625,0.0
319.5390625,-28.3203125,-31.73828125,-13.671875,-25.390625,22.4609375,0.0
319.54296875,-15.13671875,-20.99609375,-23.4375,-24.4140625,21.97265625,0.0
319.546875,-8.7890625,-17.08984375,-35.15625,-12.20703125,61.5234375,0.0
319.55078125,-28.3203125,-29.78515625,-36.1328125,-15.13671875,-3.90625,0.0
319.5546875,-39.0625,-32.2265625,-23.4375,-21.97265625,32.71484375,0.0
319.55859375,-40.52734375,-30.2734375,-16.6015625,-32.2265625,64.453125,0.0
319.5625,-24.90234375,-37.109375,-21.97265625,-36.1328125,-19.04296875,0.0
319.56640625,-6.8359375,-39.55078125,-27.83203125,-45.8984375,-14.6484375,0.0
319.5703125,-16.6015625,-33.69140625,-20.99609375,-22.4609375,-70.3125,0.0
319.57421875,-29.296875,-35.15625,-26.85546875,-10.7421875,-62.98828125,0.0
319.578125,-14.6484375,-26.3671875,-39.0625,-29.78515625,24.90234375,0.0
319.58203125,-9.765625,-19.04296875,-38.0859375,-40.0390625,2.44140625,0.0
319.5859375,-27.83203125,-23.92578125,-30.2734375,-38.57421875,-25.390625,0.0
319.58984375,-30.76171875,-24.90234375,-17.08984375,-32.71484375,-119.62890625,0.0
319.59375,-34.66796875,-24.90234375,-17.08984375,-36.62109375,-282.2265625,0.0
319.59765625,-34.1796875,-28.80859375,-24.90234375,-28.3203125,-208.49609375,0.0
319.6015625,-2.44140625,-30.76171875,-32.71484375,-40.0390625,-106.4453125,0.0
319.60546875,0.9765625,-40.0390625,-38.57421875,-56.640625,-140.13671875,0.0
319.609375,-21.484375,-34.1796875,-28.80859375,-35.15625,-62.98828125,0.0
319.61328125,-38.57421875,-24.90234375,-25.390625,-29.78515625,-24.4140625,0.0
319.6171875,-42.96875,-25.87890625,-29.296875,-31.73828125,-53.22265625,0.0
319.62109375,-36.1328125,-29.78515625,-29.296875,-31.73828125,-30.2734375,0.0
319.625,-43.45703125,-37.59765625,-37.59765625,-41.015625,-104.98046875,0.0
319.62890625,-46.875,-38.0859375,-44.921875,-47.8515625,-110.3515625,0.0
319.6328125,-54.19921875,-36.62109375,-33.203125,-33.69140625,-85.9375,0.0
319.63671875,-52.734375,-39.55078125,-25.390625,-40.0390625,-58.10546875,0.0
319.640625,-25.390625,-36.62109375,-30.76171875,-28.80859375,-36.62109375,0.0
319.64453125,-16.11328125,-23.4375,-28.3203125,-13.671875,-117.67578125,0.0
319.6484375,-41.015625,-20.01953125,-20.5078125,-38.0859375,-91.796875,0.0
319.65234375,-54.6875,-29.296875,-34.1796875,-50.29296875,1.46484375,0.0
319.65625,-48.828125,-14.16015625,-46.875,-42.96875,59.08203125,0.0
319.66015625,-33.203125,-4.8828125,-54.6875,-48.828125,60.05859375,0.0
319.6640625,-33.69140625,-14.16015625,-64.453125,-54.19921875,52.24609375,0.0
319.66796875,-39.55078125,-12.20703125,-69.82421875,-53.22265625,62.01171875,0.0
319.671875,-50.29296875,-3.90625,-74.70703125,-50.78125,58.10546875,0.0
319.67578125,-47.8515625,-8.7890625,-69.82421875,-48.828125,13.671875,0.0
319.6796875,-32.2265625,-16.11328125,-66.89453125,-41.9921875,-19.53125,0.0
319.68359375,-28.80859375,-18.06640625,-70.3125,-41.015625,3.90625,0.0
319.6875,-28.3203125,-27.34375,-73.73046875,-60.546875,20.01953125,0.0
319.69140625,-30.76171875,-29.296875,-73.2421875,-55.17578125,-58.59375,0.0
319.6953125,-26.85546875,-14.16015625,-59.08203125,-34.1796875,-64.94140625,0.0
319.69921875,-20.01953125,-18.06640625,-57.12890625,-23.4375,13.671875,0.0
319.703125,-14.16015625,-16.11328125,-57.6171875,-23.92578125,53.7109375,0.0
319.70703125,-11.23046875,-9.27734375,-49.8046875,-38.57421875,38.0859375,0.0
319.7109375,-11.23046875,-26.85546875,-43.45703125,-30.2734375,0.9765625,0.0
319.71484375,-30.76171875,-22.4609375,-43.45703125,-13.18359375,43.45703125,0.0
319.71875,-41.50390625,-19.04296875,-38.57421875,-14.16015625,43.45703125,0.0
319.72265625,-23.4375,-40.52734375,-35.15625,-35.15625,-43.45703125,0.0
319.7265625,-23.4375,-40.52734375,-49.31640625,-38.0859375,-62.01171875,0.0
319.73046875,-32.2265625,-23.4375,-45.8984375,-24.4140625,-58.10546875,0.0
319.734375,-22.4609375,-21.484375,-37.109375,-11.23046875,-20.99609375,0.0
319.73828125,-15.625,-25.87890625,-55.17578125,-20.5078125,17.08984375,0.0
319.7421875,-19.04296875,-31.73828125,-50.29296875,-36.1328125,22.4609375,0.0
319.74609375,-32.2265625,-38.57421875,-33.203125,-37.59765625,-74.70703125,0.0
319.75,-41.50390625,-24.4140625,-36.62109375,-39.0625,-71.77734375,0.0
319.75390625,-44.43359375,-12.6953125,-32.2265625,-26.3671875,1.953125,0.0
319.7578125,-37.59765625,-19.04296875,-31.73828125,-25.87890625,-49.8046875,0.0
319.76171875,-21.97265625,-35.64453125,-39.55078125,-33.203125,-66.40625,0.0
319.765625,-16.11328125,-36.1328125,-40.52734375,-23.92578125,-110.83984375,0.0
319.76953125,-18.06640625,-27.34375,-44.43359375,-23.92578125,-32.2265625,0.0
319.7734375,-30.76171875,-24.90234375,-38.0859375,-24.90234375,64.453125,0.0
319.77734375,-34.1796875,-29.296875,-30.2734375,-13.671875,-40.52734375,0.0
319.78125,-14.6484375,-38.0859375,-32.2265625,-18.5546875,-34.1796875,0.0
319.78515625,0.0,-36.1328125,-37.59765625,-40.0390625,-36.62109375,0.0
319.7890625,-0.48828125,-26.85546875,-50.29296875,-30.76171875,-76.171875,0.0
319.79296875,-6.34765625,-25.87890625,-41.50390625,-9.27734375,-91.796875,0.0
319.796875,-33.203125,-25.87890625,-23.4375,-33.203125,-145.5078125,0.0
319.80078125,-31.25,-22.94921875,-26.3671875,-44.921875,-134.765625,0.0
319.8046875,-19.04296875,-24.4140625,-35.64453125,-30.2734375,-73.2421875,0.0
319.80859375,-21.97265625,-32.2265625,-34.66796875,-17.578125,-5.859375,0.0
319.8125,-14.16015625,-32.2265625,-21.484375,-18.06640625,-3.90625,0.0
319.81640625,-17.08984375,-30.2734375,-27.34375,-26.85546875,-21.97265625,0.0
319.8203125,-23.92578125,-38.0859375,-38.57421875,-36.1328125,-21.97265625,0.0
319.82421875,-31.73828125,-40.52734375,-33.69140625,-38.0859375,-47.36328125,0.0
319.828125,-37.109375,-39.55078125,-25.390625,-41.50390625,5.37109375,0.0
319.83203125,-27.83203125,-43.45703125,-23.4375,-34.66796875,45.8984375,0.0
319.8359375,-23.4375,-33.69140625,-29.296875,-21.484375,12.6953125,0.0
319.83984375,-20.01953125,-28.3203125,-31.25,-20.5078125,39.55078125,0.0
319.84375,-18.5546875,-34.1796875,-34.1796875,-34.66796875,-1.46484375,0.0
319.84765625,-34.66796875,-35.15625,-39.55078125,-42.96875,-35.15625,0.0
319.8515625,-42.96875,-34.1796875,-31.25,-36.1328125,-30.76171875,0.0
319.85546875,-40.0390625,-29.296875,-15.625,-36.62109375,-41.50390625,0.0
319.859375,-41.9921875,-26.3671875,-21.484375,-35.64453125,-24.4140625,0.0
319.86328125,-32.71484375,-30.2734375,-39.0625,-42.48046875,10.25390625,0.0
319.8671875,-19.53125,-35.15625,-39.55078125,-46.875,3.90625,0.0
319.87109375,-42.48046875,-43.9453125,-36.1328125,-45.8984375,-79.58984375,0.0
319.875,-43.45703125,-48.828125,-38.0859375,-43.45703125,-63.96484375,0.0
319.87890625,-35.64453125,-43.9453125,-34.1796875,-43.9453125,-3.41796875,0.0
319.8828125,-41.015625,-41.9921875,-41.015625,-45.8984375,-17.08984375,0.0
319.88671875,-22.94921875,-34.1796875,-46.875,-38.0859375,-49.8046875,0.0
319.890625,-24.90234375,-25.390625,-37.109375,-36.1328125,-15.13671875,0.0
319.89453125,-43.45703125,-31.73828125,-35.64453125,-27.34375,-50.78125,0.0
319.8984375,-42.48046875,-38.57421875,-52.24609375,-25.87890625,-62.5,0.0
319.90234375,-46.38671875,-42.96875,-49.31640625,-38.57421875,-65.4296875,0.0
319.90625,-43.45703125,-43.45703125,-33.69140625,-43.9453125,-71.77734375,0.0
319.91015625,-37.109375,-37.109375,-30.2734375,-32.2265625,-136.23046875,0.0
319.9140625,-54.19921875,-45.41015625,-41.9921875,-30.2734375,-185.546875,0.0
319.91796875,-56.640625,-52.24609375,-52.734375,-28.3203125,-150.87890625,0.0
319.921875,-39.0625,-47.8515625,-41.9921875,-29.78515625,-90.8203125,0.0
319.92578125,-42.96875,-44.43359375,-39.55078125,-41.015625,-104.98046875,0.0
319.9296875,-44.921875,-36.1328125,-50.78125,-44.921875,-111.328125,0.0
319.93359375,-40.52734375,-28.3203125,-35.64453125,-33.69140625,-66.40625,0.0
319.9375,-36.62109375,-24.4140625,-19.53125,-40.0390625,-88.37890625,0.0
319.94140625,-31.73828125,-30.76171875,-28.3203125,-40.52734375,-64.453125,0.0
319.9453125,-17.08984375,-36.1328125,-31.25,-22.94921875,2.44140625,0.0
319.94921875,-12.6953125,-40.52734375,-27.34375,-35.64453125,-6.8359375,0.0
319.953125,-32.71484375,-43.45703125,-28.3203125,-49.8046875,-202.1484375,0.0
319.95703125,-40.52734375,-35.15625,-36.62109375,-44.921875,-253.90625,0.0
319.9609375,-29.78515625,-30.76171875,-38.0859375,-43.45703125,-2.44140625,0.0
319.96484375,-25.390625,-37.59765625,-30.76171875,-59.5703125,62.98828125,0.0
319.96875,-29.296875,-35.64453125,-27.34375,-39.0625,-69.82421875,0.0
319.97265625,-36.1328125,-33.69140625,-27.83203125,-18.06640625,-32.2265625,0.0
319.9765625,-44.921875,-39.0625,-27.34375,-20.99609375,38.57421875,0.0
319.98046875,-48.828125,-37.109375,-24.90234375,-29.296875,27.83203125,0.0
319.984375,-33.203125,-41.015625,-30.2734375,-35.64453125,-48.33984375,0.0
319.98828125,-42.48046875,-47.36328125,-30.2734375,-42.48046875,-197.265625,0.0
319.9921875,-49.8046875,-35.64453125,-20.99609375,-26.3671875,-255.859375,0.0
319.99609375,-52.24609375,-33.203125,-19.04296875,-11.23046875,-178.22265625,0.0
320.0,-53.7109375,-36.1328125,-25.87890625,-33.69140625,-80.078125,0.0
320.00390625,-36.62109375,-22.94921875,-18.5546875,-55.17578125,-76.66015625,0.0
320.0078125,-25.87890625,-19.04296875,-15.625,-56.15234375,-102.05078125,0.0
320.01171875,-39.55078125,-28.3203125,-27.83203125,-41.015625,-74.70703125,0.0
320.015625,-41.015625,-26.85546875,-25.87890625,-28.3203125,-60.546875,0.0
320.01953125,-47.8515625,-29.78515625,-25.87890625,-37.109375,-86.42578125,0.0
320.0234375,-52.24609375,-36.62109375,-30.76171875,-42.96875,-113.76953125,0.0
320.02734375,-38.0859375,-30.76171875,-29.296875,-36.1328125,-88.37890625,0.0
320.03125,-36.1328125,-29.78515625,-25.87890625,-35.15625,-89.84375,0.0
320.03515625,-49.8046875,-34.1796875,-24.4140625,-34.1796875,-98.6328125,0.0
320.0390625,-36.1328125,-25.87890625,-29.296875,-30.76171875,-138.18359375,0.0
320.04296875,-20.5078125,-22.4609375,-29.296875,-30.2734375,-102.5390625,0.0
320.046875,-32.71484375,-19.53125,-21.97265625,-48.33984375,-46.875,0.0
320.05078125,-39.55078125,-14.6484375,-10.25390625,-39.55078125,-16.11328125,0.0
320.0546875,-41.9921875,-17.578125,-18.06640625,-23.92578125,2.44140625,0.0
320.05859375,-49.31640625,-23.4375,-32.71484375,-39.55078125,19.04296875,0.0
320.0625,-42.96875,-24.90234375,-27.83203125,-22.94921875,18.06640625,0.0
320.06640625,-35.15625,-24.90234375,-26.3671875,-20.01953125,90.33203125,0.0
320.0703125,-28.80859375,-31.25,-30.76171875,-37.109375,95.703125,0.0
320.07421875,-33.69140625,-28.80859375,-30.2734375,-34.66796875,74.70703125,0.0
320.078125,-46.875,-24.4140625,-29.296875,-41.50390625,-8.7890625,0.0
320.08203125,-51.7578125,-28.80859375,-28.3203125,-41.015625,-135.25390625,0.0
320.0859375,-44.43359375,-25.87890625,-30.76171875,-35.64453125,-165.0390625,0.0
320.08984375,-41.50390625,-27.83203125,-33.69140625,-42.48046875,-119.62890625,0.0
320.09375,-46.38671875,-31.25,-29.78515625,-37.59765625,-52.734375,0.0
320.09765625,-46.875,-30.2734375,-29.78515625,-39.0625,-37.59765625,0.0
320.1015625,-38.0859375,-32.2265625,-44.43359375,-45.8984375,-19.04296875,0.0
320.10546875,-25.87890625,-34.1796875,-42.48046875,-42.96875,-53.7109375,0.0
320.109375,-17.08984375,-38.0859375,-32.71484375,-49.8046875,-145.01953125,0.0
320.11328125,-22.4609375,-41.50390625,-35.64453125,-41.50390625,-99.12109375,0.0
320.1171875,-18.06640625,-43.45703125,-40.52734375,-31.25,2.44140625,0.0
320.12109375,-12.6953125,-37.59765625,-35.15625,-35.64453125,4.8828125,0.0
320.125,-14.16015625,-36.1328125,-22.94921875,-20.99609375,26.3671875,0.0
320.12890625,-16.11328125,-41.015625,-26.3671875,-36.62109375,102.5390625,0.0
320.1328125,-24.4140625,-39.55078125,-37.109375,-46.38671875,123.53515625,0.0
320.13671875,-31.73828125,-39.55078125,-39.0625,-31.25,83.984375,0.0
320.140625,-23.92578125,-39.0625,-24.4140625,-27.34375,57.6171875,0.0
320.14453125,-18.06640625,-35.15625,-26.85546875,-33.203125,0.0,0.0
320.1484375,-15.625,-30.2734375,-33.203125,-26.85546875,-0.48828125,0.0
320.15234375,-12.20703125,-28.80859375,-29.78515625,-22.94921875,74.70703125,0.0
320.15625,-28.3203125,-31.25,-36.62109375,-30.76171875,78.125,0.0
320.16015625,-33.203125,-36.1328125,-42.96875,-27.34375,56.640625,0.0
320.1640625,-18.06640625,-45.8984375,-37.59765625,-30.2734375,45.41015625,0.0
320.16796875,-25.87890625,-42.48046875,-30.2734375,-40.0390625,33.69140625,0.0
320.171875,-27.34375,-32.2265625,-20.01953125,-29.296875,76.66015625,0.0
320.17578125,-27.34375,-39.55078125,-26.85546875,-21.97265625,69.82421875,0.0
320.1796875,-33.203125,-41.015625,-48.828125,-39.55078125,102.5390625,0.0
320.18359375,-34.1796875,-33.203125,-40.52734375,-42.96875,86.9140625,0.0
320.1875,-20.99609375,-29.296875,-14.16015625,-32.2265625,14.6484375,0.0
320.19140625,-12.6953125,-23.4375,-15.13671875,-23.4375,-22.94921875,0.0
320.1953125,-27.83203125,-23.4375,-28.3203125,-42.48046875,-12.20703125,0.0
320.19921875,-26.3671875,-30.2734375,-26.85546875,-56.640625,46.38671875,0.0
320.203125,-34.1796875,-39.55078125,-34.66796875,-30.76171875,69.82421875,0.0
320.20703125,-38.57421875,-27.34375,-38.0859375,-40.0390625,75.1953125,0.0
320.2109375,-36.62109375,-23.4375,-35.15625,-46.38671875,45.8984375,0.0
320.21484375,-39.0625,-34.1796875,-36.62109375,-35.15625,37.109375,0.0
320.21875,-28.80859375,-30.2734375,-40.0390625,-42.96875,66.40625,0.0
320.22265625,-21.97265625,-25.87890625,-40.52734375,-37.59765625,38.0859375,0.0
320.2265625,-13.671875,-25.87890625,-34.66796875,-24.4140625,7.8125,0.0
320.23046875,-14.16015625,-29.78515625,-18.06640625,-33.69140625,-24.90234375,0.0
320.234375,-45.41015625,-36.62109375,-16.11328125,-43.9453125,-89.35546875,0.0
320.23828125,-49.31640625,-46.875,-32.71484375,-47.36328125,-44.43359375,0.0
320.2421875,-14.6484375,-39.0625,-38.0859375,-41.50390625,-46.38671875,0.0
320.24609375,-27.34375,-27.83203125,-29.78515625,-40.0390625,-98.6328125,0.0
320.25,-49.8046875,-24.90234375,-25.87890625,-51.7578125,-154.78515625,0.0
320.25390625,-49.8046875,-27.34375,-26.3671875,-49.8046875,-181.640625,0.0
320.2578125,-43.9453125,-26.85546875,-20.5078125,-34.1796875,-65.91796875,0.0
320.26171875,-35.15625,-29.78515625,-29.296875,-34.1796875,13.671875,0.0
320.265625,-37.109375,-36.1328125,-45.8984375,-43.45703125,43.9453125,0.0
320.26953125,-23.4375,-37.109375,-36.62109375,-41.50390625,78.61328125,0.0
320.2734375,-34.66796875,-40.52734375,-21.97265625,-41.9921875,41.9921875,0.0
320.27734375,-50.78125,-44.43359375,-22.4609375,-37.59765625,36.1328125,0.0
320.28125,-40.0390625,-39.0625,-27.34375,-25.390625,70.80078125,0.0
320.28515625,-15.625,-34.1796875,-35.15625,-41.015625,15.13671875,0.0
320.2890625,-23.92578125,-27.34375,-22.4609375,-35.64453125,-68.84765625,0.0
320.29296875,-45.41015625,-25.390625,0.0,-28.3203125,-82.03125,0.0
320.296875,-43.9453125,-30.76171875,-12.20703125,-33.69140625,-92.7734375,0.0
320.30078125,-42.96875,-31.25,-31.25,-37.109375,-55.6640625,0.0
320.3046875,-43.9453125,-33.69140625,-39.0625,-48.828125,11.71875,0.0
320.30859375,-42.48046875,-44.921875,-34.66796875,-45.8984375,-15.625,0.0
320.3125,-49.8046875,-48.33984375,-33.69140625,-31.73828125,-44.43359375,0.0
320.31640625,-50.78125,-49.8046875,-41.50390625,-20.5078125,-37.59765625,0.0
320.3203125,-29.78515625,-44.43359375,-33.69140625,-26.85546875,-47.36328125,0.0
320.32421875,-38.0859375,-37.59765625,-32.71484375,-49.31640625,-57.6171875,0.0
320.328125,-42.96875,-38.57421875,-47.8515625,-48.33984375,-79.58984375,0.0
320.33203125,-38.0859375,-35.15625,-48.828125,-35.15625,-75.1953125,0.0
320.3359375,-46.875,-29.78515625,-29.78515625,-31.73828125,-45.8984375,0.0
320.33984375,-46.38671875,-29.78515625,-26.3671875,-36.1328125,2.9296875,0.0
320.34375,-40.52734375,-38.0859375,-30.76171875,-36.62109375,-43.45703125,0.0
320.34765625,-27.83203125,-41.015625,-33.203125,-22.94921875,-71.2890625,0.0
320.3515625,-38.0859375,-35.15625,-33.203125,-25.390625,-37.59765625,0.0
320.35546875,-48.828125,-36.1328125,-35.64453125,-34.66796875,-139.6484375,0.0
320.359375,-44.921875,-44.43359375,-41.015625,-39.55078125,-231.4453125,0.0
320.36328125,-45.8984375,-39.0625,-42.96875,-43.9453125,-148.92578125,0.0
320.3671875,-40.52734375,-33.203125,-41.50390625,-37.59765625,-82.03125,0.0
320.37109375,-36.1328125,-37.109375,-35.64453125,-27.34375,-31.25,0.0
320.375,-29.78515625,-34.66796875,-31.25,-31.73828125,3.41796875,0.0
320.37890625,-28.80859375,-35.15625,-28.3203125,-45.8984375,-35.64453125,0.0
320.3828125,-40.0390625,-35.64453125,-21.97265625,-56.15234375,-79.1015625,0.0
320.38671875,-33.69140625,-24.90234375,-28.3203125,-52.24609375,-106.93359375,0.0
320.390625,-40.0390625,-26.85546875,-40.0390625,-49.31640625,-106.4453125,0.0
320.39453125,-62.98828125,-40.52734375,-31.73828125,-35.15625,-95.703125,0.0
320.3984375,-67.87109375,-43.9453125,-26.85546875,-42.96875,-40.0390625,0.0
320.40234375,-62.5,-41.9921875,-33.69140625,-49.31640625,35.64453125,0.0
320.40625,-51.7578125,-37.109375,-32.2265625,-32.71484375,24.4140625,0.0
320.41015625,-34.1796875,-38.0859375,-22.94921875,-41.015625,-20.99609375,0.0
320.4140625,-31.25,-36.1328125,-30.76171875,-39.0625,-135.7421875,0.0
320.41796875,-40.52734375,-25.87890625,-46.875,-42.48046875,-278.80859375,0.0
320.421875,-29.78515625,-29.296875,-33.69140625,-26.3671875,-244.140625,0.0
320.42578125,-15.13671875,-27.83203125,-19.04296875,-8.30078125,-174.31640625,0.0
320.4296875,-26.85546875,-20.01953125,-26.85546875,-31.73828125,-65.4296875,0.0
320.43359375,-45.41015625,-21.97265625,-36.62109375,-50.78125,-41.9921875,0.0
320.4375,-27.83203125,-24.90234375,-44.43359375,-51.26953125,-60.546875,0.0
320.44140625,10.7421875,-18.06640625,-50.29296875,-33.69140625,-22.4609375,0.0
320.4453125,15.13671875,-18.5546875,-48.828125,-4.39453125,34.1796875,0.0
320.44921875,1.46484375,-26.3671875,-47.8515625,-6.34765625,56.15234375,0.0
320.453125,-0.9765625,-28.80859375,-42.48046875,-3.41796875,30.2734375,0.0
320.45703125,3.41796875,-27.34375,-38.57421875,17.578125,81.54296875,0.0
320.4609375,18.06640625,-21.97265625,-36.62109375,23.4375,105.46875,0.0
320.46484375,25.390625,-30.2734375,-35.64453125,10.7421875,-16.11328125,0.0
320.46875,26.85546875,-32.2265625,-23.4375,13.671875,21.484375,0.0
320.47265625,20.5078125,-20.99609375,-5.859375,23.92578125,33.69140625,0.0
320.4765625,12.20703125,-17.578125,-21.484375,27.34375,43.45703125,0.0
320.48046875,19.53125,-23.92578125,-32.2265625,24.4140625,24.90234375,0.0
320.484375,37.59765625,-24.4140625,-28.3203125,-1.953125,-100.5859375,0.0
320.48828125,40.0390625,-18.5546875,-33.203125,8.7890625,-97.65625,0.0
320.4921875,9.765625,-19.53125,-39.0625,7.32421875,-26.3671875,0.0
320.49609375,-2.44140625,-26.3671875,-39.0625,-4.8828125,-41.015625,0.0
320.5,4.8828125,-27.83203125,-36.62109375,0.48828125,-30.2734375,0.0
320.50390625,8.30078125,-27.34375,-34.66796875,-3.90625,-10.25390625,0.0
320.5078125,2.9296875,-27.34375,-32.2265625,-4.39453125,-11.23046875,0.0
320.51171875,-11.71875,-23.92578125,-28.80859375,-1.953125,38.57421875,0.0
320.515625,-12.20703125,-22.4609375,-15.13671875,-0.9765625,20.5078125,0.0
320.51953125,-1.46484375,-22.94921875,-18.06640625,-3.90625,-12.6953125,0.0
320.5234375,4.39453125,-27.34375,-35.15625,-12.20703125,-5.859375,0.0
320.52734375,6.8359375,-26.3671875,-34.66796875,-16.6015625,-58.10546875,0.0
320.53125,-1.953125,-20.99609375,-33.203125,-10.25390625,-72.265625,0.0
320.53515625,1.46484375,-24.90234375,-31.73828125,2.9296875,-13.18359375,0.0
320.5390625,-9.27734375,-25.390625,-26.85546875,-3.90625,6.34765625,0.0
320.54296875,-27.83203125,-29.296875,-29.296875,-20.01953125,-36.1328125,0.0
320.546875,-14.6484375,-28.80859375,-30.76171875,-25.87890625,-44.921875,0.0
320.55078125,-14.16015625,-25.87890625,-29.78515625,-17.08984375,-81.54296875,0.0
320.5546875,-21.97265625,-29.296875,-39.0625,-7.32421875,-41.50390625,0.0
320.55859375,-13.18359375,-32.2265625,-34.66796875,-5.859375,-57.12890625,0.0
320.5625,-6.8359375,-36.1328125,-9.765625,-21.97265625,-168.45703125,0.0
320.56640625,-11.71875,-32.2265625,-22.94921875,-22.94921875,-90.33203125,0.0
320.5703125,-8.30078125,-20.99609375,-36.62109375,-6.8359375,6.34765625,0.0
320.57421875,-8.30078125,-22.94921875,-24.90234375,-8.30078125,-15.13671875,0.0
320.578125,-28.3203125,-31.73828125,-26.85546875,-16.6015625,-5.37109375,0.0
320.58203125,-34.1796875,-29.296875,-34.1796875,-27.34375,57.12890625,0.0
320.5859375,-30.76171875,-32.2265625,-33.69140625,-34.66796875,47.36328125,0.0
320.58984375,-40.0390625,-42.96875,-35.15625,-37.109375,-31.73828125,0.0
320.59375,-47.36328125,-40.0390625,-37.59765625,-31.25,19.53125,0.0
320.59765625,-40.0390625,-33.203125,-40.52734375,-22.94921875,70.80078125,0.0
320.6015625,-22.4609375,-30.76171875,-39.55078125,-26.85546875,78.61328125,0.0
320.60546875,-24.90234375,-32.2265625,-31.73828125,-22.94921875,41.9921875,0.0
320.609375,-30.76171875,-31.25,-34.1796875,-20.5078125,-1.953125,0.0
320.61328125,-32.71484375,-26.3671875,-33.69140625,-28.80859375,-40.52734375,0.0
320.6171875,-50.29296875,-26.85546875,-28.80859375,-33.203125,-115.72265625,0.0
320.62109375,-43.45703125,-25.87890625,-32.71484375,-32.2265625,-114.74609375,0.0
320.625,-32.71484375,-28.80859375,-36.62109375,-28.80859375,-85.9375,0.0
320.62890625,-42.48046875,-32.71484375,-38.57421875,-34.1796875,-55.6640625,0.0
320.6328125,-35.15625,-29.78515625,-34.1796875,-24.90234375,-16.6015625,0.0
320.63671875,-25.87890625,-31.73828125,-27.34375,-22.4609375,-48.33984375,0.0
320.640625,-23.92578125,-31.25,-32.2265625,-31.25,-24.4140625,0.0
320.64453125,-27.34375,-35.15625,-40.52734375,-31.25,12.20703125,0.0
320.6484375,-33.69140625,-32.71484375,-28.80859375,-28.3203125,29.296875,0.0
320.65234375,-39.0625,-24.90234375,-18.06640625,-18.5546875,65.91796875,0.0
320.65625,-43.9453125,-25.87890625,-25.390625,-26.3671875,83.984375,0.0
320.66015625,-43.9453125,-39.55078125,-28.80859375,-22.4609375,148.4375,0.0
320.6640625,-37.109375,-42.48046875,-21.484375,-8.7890625,30.76171875,0.0
320.66796875,-38.57421875,-30.2734375,-21.484375,-29.296875,-75.68359375,0.0
320.671875,-50.78125,-35.64453125,-30.76171875,-41.50390625,-11.23046875,0.0
320.67578125,-47.36328125,-37.109375,-30.2734375,-17.578125,-71.77734375,0.0
320.6796875,-43.9453125,-25.87890625,-27.83203125,-20.99609375,-145.5078125,0.0
320.68359375,-40.0390625,-33.203125,-31.73828125,-29.296875,-95.21484375,0.0
320.6875,-37.59765625,-40.52734375,-32.71484375,-22.94921875,-13.18359375,0.0
320.69140625,-40.52734375,-31.73828125,-25.390625,-20.01953125,9.765625,0.0
320.6953125,-17.08984375,-21.97265625,-20.01953125,-3.90625,90.33203125,0.0
320.69921875,-26.3671875,-19.53125,-24.4140625,-27.34375,49.31640625,0.0
320.703125,-65.91796875,-23.4375,-32.2265625,-58.10546875,-37.109375,0.0
320.70703125,-40.0390625,-21.484375,-33.203125,-49.8046875,-61.5234375,0.0
320.7109375,-36.1328125,-24.90234375,-27.34375,-48.33984375,-81.54296875,0.0
320.71484375,-59.08203125,-29.296875,-31.25,-35.64453125,-15.13671875,0.0
320.71875,-50.29296875,-24.90234375,-30.2734375,-38.0859375,48.33984375,0.0
320.72265625,-39.0625,-29.296875,-32.71484375,-42.48046875,-24.4140625,0.0
320.7265625,-26.3671875,-26.3671875,-35.15625,-32.2265625,-109.86328125,0.0
320.73046875,-20.01953125,-21.97265625,-30.76171875,-39.0625,-116.69921875,0.0
320.734375,-24.90234375,-27.34375,-33.203125,-41.50390625,-64.453125,0.0
320.73828125,-28.3203125,-24.90234375,-29.296875,-29.78515625,-18.06640625,0.0
320.7421875,-25.390625,-28.80859375,-25.390625,-31.73828125,-43.9453125,0.0
320.74609375,-22.94921875,-36.1328125,-26.85546875,-35.64453125,-30.2734375,0.0
320.75,-33.69140625,-29.296875,-25.87890625,-35.64453125,32.2265625,0.0
320.75390625,-40.0390625,-27.34375,-23.92578125,-26.85546875,2.44140625,0.0
320.7578125,-42.96875,-25.390625,-15.625,-19.04296875,42.96875,0.0
320.76171875,-47.36328125,-26.85546875,-31.25,-41.015625,40.52734375,0.0
320.765625,-37.109375,-30.2734375,-34.66796875,-40.52734375,7.8125,0.0
320.76953125,-41.015625,-25.390625,-26.3671875,-34.66796875,14.6484375,0.0
320.7734375,-50.29296875,-27.34375,-29.78515625,-40.52734375,-73.2421875,0.0
320.77734375,-51.26953125,-33.203125,-32.2265625,-43.45703125,-133.30078125,0.0
320.78125,-50.29296875,-28.80859375,-33.203125,-29.78515625,-63.4765625,0.0
320.78515625,-46.875,-29.78515625,-30.76171875,-20.5078125,-33.69140625,0.0
320.7890625,-47.8515625,-37.109375,-30.2734375,-28.80859375,-48.33984375,0.0
320.79296875,-39.55078125,-29.296875,-31.73828125,-38.0859375,-28.80859375,0.0
320.796875,-46.38671875,-23.92578125,-30.2734375,-29.78515625,-33.69140625,0.0
320.80078125,-56.15234375,-31.25,-21.484375,-32.71484375,-31.25,0.0
320.8046875,-38.57421875,-29.78515625,-21.484375,-30.2734375,-31.25,0.0
320.80859375,-30.2734375,-30.2734375,-32.71484375,-19.53125,-41.9921875,0.0
320.8125,-47.8515625,-31.25,-34.1796875,-34.1796875,-119.140625,0.0
320.81640625,-52.24609375,-33.69140625,-40.52734375,-47.8515625,-90.33203125,0.0
320.8203125,-52.24609375,-39.55078125,-48.33984375,-45.8984375,-20.99609375,0.0
320.82421875,-44.43359375,-39.0625,-41.9921875,-41.015625,6.8359375,0.0
320.828125,-24.4140625,-40.0390625,-39.55078125,-39.55078125,7.32421875,0.0
320.83203125,-33.69140625,-41.015625,-39.0625,-41.50390625,-30.2734375,0.0
320.8359375,-37.59765625,-37.59765625,-35.15625,-26.85546875,-53.7109375,0.0
320.83984375,-12.6953125,-34.66796875,-38.57421875,-27.83203125,-111.81640625,0.0
320.84375,-38.0859375,-38.57421875,-35.15625,-56.15234375,-156.73828125,0.0
320.84765625,-54.6875,-33.69140625,-18.06640625,-33.203125,-47.36328125,0.0
320.8515625,-56.15234375,-28.80859375,-25.87890625,-15.625,90.8203125,0.0
320.85546875,-51.26953125,-37.59765625,-46.875,-26.3671875,67.87109375,0.0
320.859375,-33.69140625,-42.48046875,-47.36328125,-33.203125,-9.27734375,0.0
320.86328125,-34.1796875,-34.66796875,-39.0625,-34.1796875,-22.4609375,0.0
320.8671875,-34.1796875,-25.87890625,-40.0390625,-30.76171875,85.9375,0.0
320.87109375,-17.578125,-25.87890625,-38.0859375,-28.80859375,69.3359375,0.0
320.875,-20.5078125,-30.76171875,-37.59765625,-21.484375,-28.3203125,0.0
320.87890625,-41.9921875,-34.66796875,-36.62109375,-11.23046875,-58.10546875,0.0
320.8828125,-37.59765625,-33.69140625,-29.296875,-19.53125,-165.0390625,0.0
320.88671875,-34.1796875,-34.66796875,-30.2734375,-29.78515625,-181.640625,0.0
320.890625,-30.76171875,-35.64453125,-25.87890625,-16.6015625,-95.703125,0.0
320.89453125,-38.0859375,-31.73828125,-23.4375,-24.4140625,-55.17578125,0.0
320.8984375,-44.921875,-31.73828125,-28.3203125,-38.0859375,-54.6875,0.0
320.90234375,-35.15625,-34.66796875,-32.71484375,-38.57421875,-70.3125,0.0
320.90625,-17.08984375,-41.9921875,-30.2734375,-34.1796875,-87.40234375,0.0
320.91015625,-8.30078125,-36.62109375,-30.2734375,-32.71484375,-91.30859375,0.0
320.9140625,-38.0859375,-28.80859375,-35.15625,-36.1328125,-75.68359375,0.0
320.91796875,-60.05859375,-36.62109375,-33.69140625,-38.57421875,-157.2265625,0.0
320.921875,-47.8515625,-35.15625,-25.390625,-40.0390625,-78.61328125,0.0
320.92578125,-37.59765625,-26.3671875,-23.92578125,-38.0859375,14.16015625,0.0
320.9296875,-39.0625,-25.87890625,-31.25,-34.1796875,-9.27734375,0.0
320.93359375,-36.1328125,-29.78515625,-27.34375,-32.71484375,-32.71484375,0.0
320.9375,-36.1328125,-34.1796875,-21.97265625,-28.80859375,-52.24609375,0.0
320.94140625,-39.0625,-35.15625,-37.59765625,-40.0390625,-39.55078125,0.0
320.9453125,-24.90234375,-33.203125,-37.59765625,-47.36328125,0.48828125,0.0
320.94921875,-21.484375,-27.34375,-29.78515625,-35.64453125,-20.5078125,0.0
320.953125,-30.76171875,-28.3203125,-30.2734375,-43.9453125,-27.34375,0.0
320.95703125,-25.390625,-42.48046875,-29.78515625,-44.921875,59.08203125,0.0
320.9609375,-28.80859375,-36.1328125,-31.25,-26.3671875,52.734375,0.0
320.96484375,-21.484375,-21.484375,-19.53125,-29.78515625,4.8828125,0.0
320.96875,-23.4375,-24.90234375,-19.04296875,-36.62109375,-14.16015625,0.0
320.97265625,-30.2734375,-23.92578125,-27.34375,-41.9921875,-44.43359375,0.0
320.9765625,-29.296875,-21.97265625,-26.85546875,-44.921875,-14.6484375,0.0
320.98046875,-6.8359375,-23.4375,-9.765625,-40.0390625,-5.859375,0.0
320.984375,-4.39453125,-23.92578125,-10.25390625,-37.59765625,-39.0625,0.0
320.98828125,-22.94921875,-24.4140625,-21.484375,-42.96875,36.62109375,0.0
320.9921875,-39.55078125,-30.2734375,-32.71484375,-34.1796875,52.734375,0.0
320.99609375,-47.8515625,-39.55078125,-38.0859375,-37.109375,-5.859375,0.0
321.0,-42.48046875,-30.2734375,-32.71484375,-52.734375,-12.6953125,0.0
321.00390625,-38.57421875,-18.5546875,-33.69140625,-47.8515625,-33.69140625,0.0
321.0078125,-49.31640625,-27.34375,-38.57421875,-44.921875,-69.82421875,0.0
321.01171875,-56.640625,-33.69140625,-36.1328125,-44.921875,-33.69140625,0.0
321.015625,-50.29296875,-41.9921875,-34.1796875,-36.62109375,-22.94921875,0.0
321.01953125,-50.29296875,-41.50390625,-39.55078125,-32.71484375,-28.80859375,0.0
321.0234375,-40.0390625,-38.57421875,-37.109375,-43.45703125,-31.73828125,0.0
321.02734375,-30.2734375,-39.55078125,-21.97265625,-56.15234375,4.8828125,0.0
321.03125,-40.0390625,-33.69140625,-24.4140625,-38.0859375,-2.44140625,0.0
321.03515625,-55.6640625,-36.62109375,-35.15625,-23.4375,-12.6953125,0.0
321.0390625,-61.03515625,-43.9453125,-32.71484375,-40.0390625,-16.11328125,0.0
321.04296875,-55.17578125,-45.8984375,-31.25,-61.03515625,-44.43359375,0.0
321.046875,-38.0859375,-39.0625,-38.57421875,-57.6171875,-6.34765625,0.0
321.05078125,-35.64453125,-34.66796875,-32.71484375,-34.1796875,-26.85546875,0.0
321.0546875,-49.31640625,-34.66796875,-29.78515625,-34.1796875,-81.54296875,0.0
321.05859375,-55.6640625,-37.109375,-33.203125,-46.38671875,-82.03125,0.0
321.0625,-43.9453125,-41.9921875,-39.55078125,-33.203125,-100.09765625,0.0
321.06640625,-20.99609375,-30.76171875,-36.1328125,-13.18359375,-98.14453125,0.0
321.0703125,-38.0859375,-22.94921875,-23.4375,-27.34375,-189.94140625,0.0
321.07421875,-76.171875,-36.1328125,-32.2265625,-51.7578125,-234.86328125,0.0
321.078125,-66.40625,-32.2265625,-48.33984375,-55.6640625,-132.8125,0.0
321.08203125,-42.96875,-21.97265625,-52.24609375,-70.3125,-148.92578125,0.0
321.0859375,-49.8046875,-22.4609375,-47.8515625,-71.77734375,-177.24609375,0.0
321.08984375,-66.89453125,-22.94921875,-52.24609375,-56.15234375,-94.23828125,0.0
321.09375,-64.94140625,-20.5078125,-59.5703125,-55.17578125,-122.0703125,0.0
321.09765625,-59.08203125,-16.11328125,-58.10546875,-54.6875,-143.5546875,0.0
321.1015625,-52.734375,-26.3671875,-56.15234375,-61.03515625,-32.2265625,0.0
321.10546875,-42.96875,-30.2734375,-44.921875,-62.98828125,2.44140625,0.0
321.109375,-40.52734375,-20.01953125,-35.64453125,-41.50390625,5.859375,0.0
321.11328125,-37.59765625,-22.4609375,-42.96875,-34.66796875,22.4609375,0.0
321.1171875,-38.0859375,-25.87890625,-41.015625,-35.15625,15.13671875,0.0
321.12109375,-42.96875,-23.4375,-34.1796875,-30.76171875,7.32421875,0.0
321.125,-34.66796875,-15.625,-39.0625,-40.0390625,-33.203125,0.0
321.12890625,-23.92578125,-18.06640625,-38.57421875,-36.1328125,-12.20703125,0.0
321.1328125,-25.87890625,-28.3203125,-28.80859375,-30.2734375,-83.0078125,0.0
321.13671875,-23.92578125,-25.87890625,-37.109375,-39.0625,-189.94140625,0.0
321.140625,-29.78515625,-20.99609375,-37.59765625,-37.109375,-44.921875,0.0
321.14453125,-36.62109375,-14.16015625,-29.78515625,-47.8515625,-33.203125,0.0
321.1484375,-35.15625,-21.484375,-31.73828125,-43.9453125,-64.453125,0.0
321.15234375,-42.48046875,-30.76171875,-30.76171875,-19.04296875,51.26953125,0.0
321.15625,-42.48046875,-27.83203125,-32.71484375,-21.97265625,-23.4375,0.0
321.16015625,-22.4609375,-26.3671875,-35.15625,-33.69140625,-19.04296875,0.0
321.1640625,-8.30078125,-24.90234375,-36.1328125,-36.1328125,-60.05859375,0.0
321.16796875,-14.6484375,-24.90234375,-39.55078125,-37.109375,-88.8671875,0.0
321.171875,-24.4140625,-27.83203125,-31.73828125,-30.2734375,29.78515625,0.0
321.17578125,-22.94921875,-26.85546875,-22.4609375,-37.59765625,17.08984375,0.0
321.1796875,-18.06640625,-25.87890625,-33.203125,-30.2734375,-12.20703125,0.0
321.18359375,-13.671875,-27.34375,-37.59765625,-23.4375,-9.765625,0.0
321.1875,-23.4375,-40.52734375,-37.109375,-36.62109375,0.9765625,0.0
321.19140625,-28.3203125,-43.45703125,-37.59765625,-33.69140625,10.7421875,0.0
321.1953125,-37.109375,-34.1796875,-31.73828125,-27.34375,1.953125,0.0
321.19921875,-38.0859375,-28.80859375,-33.203125,-35.64453125,19.53125,0.0
321.203125,-26.3671875,-24.4140625,-39.0625,-42.48046875,29.296875,0.0
321.20703125,-17.578125,-21.484375,-38.0859375,-47.8515625,37.59765625,0.0
321.2109375,-21.484375,-25.87890625,-29.78515625,-37.59765625,7.32421875,0.0
321.21484375,-24.90234375,-33.203125,-29.296875,-27.34375,20.01953125,0.0
321.21875,-20.99609375,-31.25,-32.2265625,-34.1796875,1.46484375,0.0
321.22265625,-24.90234375,-33.69140625,-27.83203125,-34.1796875,-80.078125,0.0
321.2265625,-28.3203125,-35.64453125,-34.66796875,-33.69140625,-64.94140625,0.0
321.23046875,-29.78515625,-35.15625,-37.109375,-40.52734375,-47.36328125,0.0
321.234375,-35.15625,-28.3203125,-30.2734375,-36.62109375,-12.6953125,0.0
321.23828125,-42.48046875,-24.4140625,-29.78515625,-33.203125,35.15625,0.0
321.2421875,-38.0859375,-29.78515625,-33.69140625,-31.73828125,-40.0390625,0.0
321.24609375,-24.4140625,-30.2734375,-30.2734375,-37.109375,-73.73046875,0.0
321.25,-9.27734375,-21.484375,-27.34375,-34.66796875,-53.22265625,0.0
321.25390625,-18.5546875,-20.5078125,-31.25,-30.2734375,-41.015625,0.0
321.2578125,-45.8984375,-34.1796875,-29.78515625,-30.2734375,-47.8515625,0.0
321.26171875,-47.36328125,-42.48046875,-27.83203125,-36.1328125,-15.625,0.0
321.265625,-36.62109375,-36.62109375,-24.90234375,-39.55078125,23.4375,0.0
321.26953125,-30.2734375,-33.69140625,-28.80859375,-32.2265625,47.36328125,0.0
321.2734375,-39.0625,-41.015625,-36.1328125,-36.62109375,54.6875,0.0
321.27734375,-35.64453125,-33.69140625,-37.59765625,-40.52734375,-4.8828125,0.0
321.28125,-16.6015625,-34.66796875,-38.57421875,-37.109375,-7.32421875,0.0
321.28515625,-25.87890625,-41.9921875,-33.69140625,-37.59765625,15.625,0.0
321.2890625,-35.15625,-32.71484375,-33.203125,-40.0390625,-28.3203125,0.0
321.29296875,-29.78515625,-26.3671875,-36.62109375,-28.80859375,-80.56640625,0.0
321.296875,-37.109375,-34.66796875,-32.71484375,-22.4609375,-67.87109375,0.0
321.30078125,-39.0625,-41.50390625,-34.66796875,-33.203125,4.39453125,0.0
321.3046875,-32.2265625,-37.59765625,-45.41015625,-37.59765625,41.015625,0.0
321.30859375,-27.34375,-28.80859375,-45.41015625,-34.1796875,3.90625,0.0
321.3125,-33.203125,-22.94921875,-21.484375,-28.80859375,-14.16015625,0.0
321.31640625,-40.52734375,-23.4375,-22.4609375,-26.85546875,68.359375,0.0
321.3203125,-44.921875,-30.76171875,-30.2734375,-29.296875,110.83984375,0.0
321.32421875,-39.55078125,-39.55078125,-24.4140625,-20.99609375,41.50390625,0.0
321.328125,-31.73828125,-38.57421875,-25.87890625,-26.3671875,-48.828125,0.0
321.33203125,-33.69140625,-33.69140625,-28.3203125,-34.66796875,-89.35546875,0.0
321.3359375,-43.45703125,-35.15625,-25.87890625,-26.85546875,-89.35546875,0.0
321.33984375,-46.875,-33.203125,-25.87890625,-37.59765625,-181.15234375,0.0
321.34375,-38.0859375,-31.25,-32.2265625,-27.34375,-217.28515625,0.0
321.34765625,-38.57421875,-37.109375,-31.73828125,-17.578125,-65.4296875,0.0
321.3515625,-46.875,-32.2265625,-26.3671875,-19.04296875,62.5,0.0
321.35546875,-52.734375,-25.87890625,-13.18359375,-11.23046875,35.64453125,0.0
321.359375,-41.50390625,-28.3203125,-16.6015625,-30.2734375,-12.6953125,0.0
321.36328125,-33.69140625,-28.80859375,-38.57421875,-45.41015625,-36.62109375,0.0
321.3671875,-36.62109375,-33.203125,-44.43359375,-44.921875,2.44140625,0.0
321.37109375,-32.71484375,-38.0859375,-37.109375,-40.52734375,20.5078125,0.0
321.375,-41.015625,-37.59765625,-35.15625,-28.80859375,-4.39453125,0.0
321.37890625,-39.55078125,-38.57421875,-42.48046875,-35.15625,-5.37109375,0.0
321.3828125,-24.90234375,-44.921875,-43.45703125,-41.9921875,-38.0859375,0.0
321.38671875,-24.90234375,-42.96875,-43.9453125,-36.62109375,-37.59765625,0.0
321.390625,-34.66796875,-31.25,-40.0390625,-29.296875,16.11328125,0.0
321.39453125,-47.8515625,-25.87890625,-34.1796875,-28.3203125,31.73828125,0.0
321.3984375,-45.8984375,-25.87890625,-29.78515625,-30.2734375,-23.4375,0.0
321.40234375,-40.52734375,-29.296875,-24.90234375,-40.52734375,-16.11328125,0.0
321.40625,-24.4140625,-24.90234375,-22.94921875,-37.59765625,37.59765625,0.0
321.41015625,-33.203125,-22.94921875,-28.80859375,-30.2734375,-8.7890625,0.0
321.4140625,-50.78125,-36.62109375,-23.92578125,-29.78515625,-115.72265625,0.0
321.41796875,-42.48046875,-46.38671875,-23.4375,-29.78515625,-83.0078125,0.0
321.421875,-35.15625,-35.15625,-38.57421875,-31.73828125,52.24609375,0.0
321.42578125,-25.87890625,-22.4609375,-37.59765625,-34.66796875,-32.2265625,0.0
321.4296875,-40.52734375,-21.97265625,-32.2265625,-39.0625,-154.78515625,0.0
321.43359375,-60.546875,-29.296875,-36.62109375,-33.203125,-75.1953125,0.0
321.4375,-55.6640625,-29.78515625,-27.83203125,-32.2265625,26.3671875,0.0
321.44140625,-49.31640625,-23.4375,-18.5546875,-39.55078125,-38.0859375,0.0
321.4453125,-46.38671875,-25.390625,-21.484375,-39.0625,-56.15234375,0.0
321.44921875,-46.38671875,-28.80859375,-15.13671875,-36.1328125,7.8125,0.0
321.453125,-55.6640625,-29.78515625,-14.6484375,-39.0625,-25.87890625,0.0
321.45703125,-59.5703125,-30.76171875,-22.94921875,-33.69140625,-50.29296875,0.0
321.4609375,-46.38671875,-43.9453125,-14.16015625,-20.01953125,-2.9296875,0.0
321.46484375,-21.484375,-44.43359375,-17.578125,-35.15625,-44.43359375,0.0
321.46875,-27.83203125,-26.85546875,-23.92578125,-37.59765625,-53.7109375,0.0
321.47265625,-42.48046875,-21.97265625,-24.90234375,-12.20703125,-23.92578125,0.0
321.4765625,-32.2265625,-21.97265625,-22.94921875,-12.6953125,20.01953125,0.0
321.48046875,-24.4140625,-24.4140625,-27.34375,-26.85546875,44.43359375,0.0
321.484375,-20.01953125,-28.80859375,-35.15625,-22.4609375,52.734375,0.0
321.48828125,-11.23046875,-35.15625,-31.25,-21.484375,-3.90625,0.0
321.4921875,-16.11328125,-33.203125,-25.87890625,-22.94921875,-41.50390625,0.0
321.49609375,-21.97265625,-24.90234375,-28.3203125,-28.3203125,-51.26953125,0.0
321.5,-19.53125,-30.2734375,-36.1328125,-35.64453125,-107.421875,0.0
321.50390625,-22.4609375,-47.36328125,-35.15625,-23.4375,-114.2578125,0.0
321.5078125,-32.2265625,-43.9453125,-29.78515625,-24.4140625,-104.98046875,0.0
321.51171875,-38.57421875,-32.71484375,-28.3203125,-29.78515625,-95.703125,0.0
321.515625,-46.38671875,-37.109375,-33.203125,-15.625,-139.16015625,0.0
321.51953125,-44.921875,-32.2265625,-31.73828125,-20.99609375,-75.1953125,0.0
321.5234375,-45.41015625,-27.34375,-25.87890625,-29.296875,21.484375,0.0
321.52734375,-48.828125,-40.52734375,-33.203125,-43.45703125,0.0,0.0
321.53125,-41.50390625,-45.41015625,-38.0859375,-46.875,-32.71484375,0.0
321.53515625,-37.59765625,-42.96875,-36.62109375,-31.25,-21.97265625,0.0
321.5390625,-28.3203125,-39.0625,-34.66796875,-26.3671875,-20.5078125,0.0
321.54296875,-16.11328125,-38.57421875,-39.0625,-30.76171875,-82.51953125,0.0
321.546875,-26.3671875,-41.015625,-41.9921875,-41.015625,-114.74609375,0.0
321.55078125,-43.9453125,-34.66796875,-20.99609375,-36.62109375,-77.63671875,0.0
321.5546875,-54.19921875,-40.52734375,-14.6484375,-21.97265625,-33.69140625,0.0
321.55859375,-51.7578125,-38.57421875,-21.97265625,-27.34375,-18.5546875,0.0
321.5625,-31.25,-33.203125,-27.83203125,-28.80859375,25.390625,0.0
321.56640625,-31.73828125,-38.0859375,-35.64453125,-22.94921875,16.11328125,0.0
321.5703125,-42.48046875,-38.57421875,-33.203125,-17.578125,-51.7578125,0.0
321.57421875,-36.62109375,-38.0859375,-30.76171875,-15.625,-58.59375,0.0
321.578125,-35.64453125,-35.64453125,-30.2734375,-13.18359375,-64.94140625,0.0
321.58203125,-35.15625,-28.80859375,-29.78515625,-29.296875,-81.0546875,0.0
321.5859375,-21.484375,-29.296875,-32.71484375,-47.8515625,-104.4921875,0.0
321.58984375,-29.296875,-32.71484375,-32.71484375,-34.1796875,-110.3515625,0.0
321.59375,-52.24609375,-36.1328125,-28.3203125,-22.4609375,-40.52734375,0.0
321.59765625,-44.921875,-35.64453125,-25.390625,-36.1328125,41.50390625,0.0
321.6015625,-31.73828125,-36.1328125,-39.0625,-40.0390625,39.0625,0.0
321.60546875,-41.015625,-42.48046875,-45.8984375,-31.73828125,-61.03515625,0.0
321.609375,-43.45703125,-41.015625,-40.0390625,-29.78515625,-62.5,0.0
321.61328125,-40.0390625,-32.71484375,-36.1328125,-34.1796875,15.625,0.0
321.6171875,-32.2265625,-36.62109375,-40.0390625,-28.80859375,11.71875,0.0
321.62109375,-39.55078125,-40.52734375,-40.52734375,-30.76171875,-65.91796875,0.0
321.625,-39.0625,-33.69140625,-42.48046875,-37.59765625,-91.30859375,0.0
321.62890625,-29.78515625,-30.76171875,-39.55078125,-33.69140625,-29.296875,0.0
321.6328125,-44.921875,-38.0859375,-29.296875,-30.2734375,-98.6328125,0.0
321.63671875,-51.26953125,-38.0859375,-21.484375,-28.3203125,-285.15625,0.0
321.640625,-41.9921875,-34.66796875,-22.4609375,-17.578125,-308.59375,0.0
321.64453125,-30.76171875,-35.15625,-30.2734375,-36.1328125,-225.5859375,0.0
321.6484375,-28.3203125,-39.0625,-30.2734375,-46.875,-122.0703125,0.0
321.65234375,-35.64453125,-36.1328125,-22.4609375,-24.90234375,-159.1796875,0.0
321.65625,-17.08984375,-25.390625,-15.625,-28.80859375,-254.39453125,0.0
321.66015625,-0.48828125,-21.484375,-22.94921875,-34.66796875,-168.9453125,0.0
321.6640625,-19.04296875,-25.390625,-30.76171875,-29.296875,-110.3515625,0.0
321.66796875,-26.3671875,-29.296875,-33.69140625,-26.3671875,-109.375,0.0
321.671875,-22.94921875,-21.484375,-27.34375,-30.2734375,-80.56640625,0.0
321.67578125,-21.484375,-21.97265625,-27.83203125,-23.92578125,6.34765625,0.0
321.6796875,-16.6015625,-31.25,-34.66796875,-9.27734375,48.828125,0.0
321.68359375,-10.7421875,-28.80859375,-31.73828125,-9.765625,-3.90625,0.0
321.6875,-3.41796875,-20.01953125,-12.6953125,-26.3671875,7.8125,0.0
321.69140625,-10.7421875,-19.04296875,-11.23046875,-42.48046875,11.71875,0.0
321.6953125,-22.4609375,-23.4375,-22.94921875,-23.92578125,-35.15625,0.0
321.69921875,-18.5546875,-27.34375,-22.4609375,-17.578125,-65.4296875,0.0
321.703125,-20.99609375,-28.80859375,-18.5546875,-21.484375,-185.546875,0.0
321.70703125,-14.16015625,-28.80859375,-20.5078125,-17.08984375,-242.1875,0.0
321.7109375,-10.7421875,-22.94921875,-24.4140625,-26.85546875,-131.8359375,0.0
321.71484375,-34.66796875,-26.85546875,-34.66796875,-33.203125,-59.5703125,0.0
321.71875,-37.59765625,-34.1796875,-35.64453125,-25.390625,-104.00390625,0.0
321.72265625,-18.06640625,-33.203125,-28.3203125,-13.18359375,-172.36328125,0.0
321.7265625,-12.20703125,-35.15625,-26.85546875,-31.73828125,-146.97265625,0.0
321.73046875,-27.83203125,-30.2734375,-16.11328125,-37.109375,-140.625,0.0
321.734375,-31.73828125,-29.78515625,-21.484375,-25.87890625,-111.81640625,0.0
321.73828125,-17.08984375,-33.203125,-37.109375,-29.296875,-69.3359375,0.0
321.7421875,-4.39453125,-29.296875,-31.73828125,-32.2265625,51.26953125,0.0
321.74609375,-7.32421875,-33.69140625,-27.34375,-23.92578125,67.87109375,0.0
321.75,-15.625,-31.73828125,-31.25,-12.6953125,3.90625,0.0
321.75390625,-14.6484375,-29.296875,-29.296875,-9.27734375,122.0703125,0.0
321.7578125,4.8828125,-28.80859375,-22.94921875,14.16015625,122.55859375,0.0
321.76171875,0.48828125,-27.83203125,-24.4140625,0.9765625,-71.77734375,0.0
321.765625,-49.8046875,-26.3671875,-34.66796875,-56.15234375,-1.953125,0.0
321.76953125,-64.453125,-28.3203125,-40.0390625,-73.2421875,125.48828125,0.0
321.7734375,-61.03515625,-36.1328125,-31.73828125,-64.94140625,73.2421875,0.0
321.77734375,-77.1484375,-36.62109375,-26.3671875,-80.078125,99.12109375,0.0
321.78125,-92.7734375,-38.57421875,-36.62109375,-93.26171875,60.546875,0.0
321.78515625,-98.6328125,-42.48046875,-44.921875,-111.81640625,60.05859375,0.0
321.7890625,-101.5625,-41.50390625,-30.76171875,-107.91015625,86.42578125,0.0
321.79296875,-89.35546875,-42.96875,-16.11328125,-75.68359375,47.36328125,0.0
321.796875,-82.03125,-48.33984375,-32.71484375,-82.51953125,74.70703125,0.0
321.80078125,-98.6328125,-48.828125,-41.50390625,-87.40234375,91.796875,0.0
321.8046875,-89.84375,-39.55078125,-45.41015625,-77.1484375,38.0859375,0.0
321.80859375,-70.3125,-41.9921875,-45.8984375,-77.1484375,68.359375,0.0
321.8125,-82.03125,-34.66796875,-36.62109375,-72.75390625,89.35546875,0.0
321.81640625,-83.984375,-25.390625,-36.1328125,-72.75390625,110.3515625,0.0
321.8203125,-69.82421875,-21.97265625,-32.2265625,-75.1953125,75.68359375,0.0
321.82421875,-57.6171875,-23.4375,-35.15625,-62.5,-48.33984375,0.0
321.828125,-52.734375,-32.2265625,-47.36328125,-58.10546875,-17.578125,0.0
321.83203125,-46.875,-35.64453125,-40.52734375,-58.10546875,11.23046875,0.0
321.8359375,-50.29296875,-32.71484375,-31.25,-51.7578125,-12.6953125,0.0
321.83984375,-50.78125,-33.203125,-36.62109375,-54.6875,25.87890625,0.0
321.84375,-39.0625,-41.015625,-39.55078125,-62.01171875,-18.5546875,0.0
321.84765625,-40.52734375,-36.62109375,-35.15625,-58.59375,-24.90234375,0.0
321.8515625,-52.734375,-34.66796875,-37.109375,-66.89453125,-23.92578125,0.0
321.85546875,-72.265625,-46.875,-34.1796875,-66.40625,-47.36328125,0.0
321.859375,-67.87109375,-32.71484375,-32.2265625,-61.03515625,-48.33984375,0.0
321.86328125,-45.8984375,-16.6015625,-34.66796875,-46.875,-87.40234375,0.0
321.8671875,-29.296875,-30.2734375,-36.1328125,-37.59765625,-33.69140625,0.0
321.87109375,-40.0390625,-35.15625,-36.1328125,-46.875,-22.4609375,0.0
321.875,-55.6640625,-25.87890625,-43.45703125,-48.828125,-61.5234375,0.0
321.87890625,-56.640625,-28.3203125,-38.0859375,-36.62109375,-68.84765625,0.0
321.8828125,-60.546875,-25.87890625,-20.5078125,-39.55078125,-148.4375,0.0
321.88671875,-54.19921875,-28.3203125,-36.62109375,-54.6875,-105.46875,0.0
321.890625,-47.8515625,-32.2265625,-47.36328125,-34.1796875,-12.6953125,0.0
321.89453125,-55.6640625,-31.73828125,-40.52734375,-30.76171875,4.8828125,0.0
321.8984375,-45.8984375,-34.1796875,-41.015625,-41.9921875,20.5078125,0.0
321.90234375,-30.2734375,-35.15625,-49.31640625,-32.71484375,15.13671875,0.0
321.90625,-37.59765625,-40.0390625,-44.921875,-28.80859375,-50.29296875,0.0
321.91015625,-41.50390625,-48.828125,-31.25,-25.390625,-104.4921875,0.0
321.9140625,-47.8515625,-37.109375,-34.1796875,-27.83203125,-59.08203125,0.0
321.91796875,-49.8046875,-33.69140625,-45.8984375,-35.15625,-61.5234375,0.0
321.921875,-38.57421875,-44.43359375,-43.45703125,-32.71484375,-132.8125,0.0
321.92578125,-30.2734375,-38.57421875,-28.80859375,-30.76171875,-110.3515625,0.0
321.9296875,-22.94921875,-24.4140625,-28.80859375,-40.52734375,-65.4296875,0.0
321.93359375,-28.80859375,-16.11328125,-29.78515625,-31.25,-49.8046875,0.0
321.9375,-37.109375,-20.99609375,-27.34375,-25.87890625,61.5234375,0.0
321.94140625,-39.0625,-33.69140625,-27.34375,-36.62109375,73.2421875,0.0
321.9453125,-20.01953125,-41.015625,-35.15625,-39.55078125,13.671875,0.0
321.94921875,-18.06640625,-44.921875,-43.45703125,-30.76171875,9.765625,0.0
321.953125,-40.0390625,-41.9921875,-34.1796875,-27.34375,-32.2265625,0.0
321.95703125,-37.59765625,-28.3203125,-28.80859375,-28.80859375,-33.69140625,0.0
321.9609375,-27.83203125,-20.5078125,-26.85546875,-26.85546875,-22.4609375,0.0
321.96484375,-12.6953125,-28.3203125,-23.92578125,-26.85546875,-41.015625,0.0
321.96875,-10.7421875,-27.83203125,-17.578125,-25.87890625,-1.46484375,0.0
321.97265625,-40.52734375,-30.2734375,-11.71875,-25.87890625,-1.953125,0.0
321.9765625,-41.9921875,-40.0390625,-21.484375,-29.296875,0.9765625,0.0
321.98046875,-34.1796875,-34.1796875,-27.83203125,-44.921875,-5.37109375,0.0
321.984375,-29.296875,-29.296875,-31.25,-48.33984375,-26.3671875,0.0
321.98828125,0.48828125,-32.71484375,-36.62109375,-9.27734375,0.9765625,0.0
321.9921875,-14.16015625,-33.69140625,-26.85546875,-4.39453125,-19.04296875,0.0
321.99609375,-57.12890625,-38.57421875,-19.53125,-31.73828125,19.53125,0.0
322.0,-52.24609375,-42.96875,-19.53125,-14.6484375,-19.53125,0.0
322.00390625,-20.99609375,-39.0625,-12.6953125,7.32421875,-93.26171875,0.0
322.0078125,-20.01953125,-40.0390625,-6.34765625,-7.32421875,-124.0234375,0.0
322.01171875,-16.11328125,-47.36328125,-0.48828125,-0.9765625,-41.50390625,0.0
322.015625,-8.7890625,-50.78125,12.6953125,15.625,60.546875,0.0
322.01953125,-4.39453125,-49.8046875,8.7890625,6.8359375,38.57421875,0.0
322.0234375,4.39453125,-49.8046875,-8.7890625,4.39453125,-83.49609375,0.0
322.02734375,5.859375,-51.26953125,-14.16015625,14.16015625,-157.71484375,0.0
322.03125,8.7890625,-44.43359375,-14.6484375,20.99609375,-119.62890625,0.0
322.03515625,0.48828125,-40.52734375,-16.11328125,19.04296875,-87.40234375,0.0
322.0390625,1.46484375,-45.8984375,-14.6484375,13.18359375,-51.26953125,0.0
322.04296875,5.859375,-41.9921875,-16.6015625,8.30078125,-74.21875,0.0
322.046875,4.39453125,-33.69140625,-16.6015625,3.41796875,-93.75,0.0
322.05078125,8.7890625,-30.76171875,-12.6953125,9.765625,-7.8125,0.0
322.0546875,-5.859375,-29.296875,-21.484375,19.53125,-50.29296875,0.0
322.05859375,-15.625,-29.296875,-17.578125,13.671875,-113.28125,0.0
322.0625,-6.34765625,-31.73828125,-2.9296875,-7.8125,-83.984375,0.0
322.06640625,-4.8828125,-32.71484375,-18.06640625,-18.06640625,-64.94140625,0.0
322.0703125,-6.34765625,-35.64453125,-34.1796875,-18.5546875,-31.25,0.0
322.07421875,-13.18359375,-36.62109375,-24.4140625,-17.578125,-60.05859375,0.0
322.078125,-20.01953125,-37.109375,-20.5078125,-13.671875,-9.27734375,0.0
322.08203125,-6.8359375,-38.57421875,-28.3203125,-13.18359375,-4.39453125,0.0
322.0859375,3.90625,-38.0859375,-25.390625,-12.6953125,-42.48046875,0.0
322.08984375,0.9765625,-35.15625,-24.4140625,-16.6015625,-9.765625,0.0
322.09375,-18.06640625,-31.73828125,-28.80859375,-11.23046875,-21.484375,0.0
322.09765625,-23.92578125,-26.85546875,-28.80859375,-7.32421875,-40.0390625,0.0
322.1015625,-15.13671875,-22.94921875,-23.92578125,-16.6015625,44.921875,0.0
322.10546875,-8.7890625,-22.4609375,-17.578125,-9.765625,75.1953125,0.0
322.109375,-13.671875,-26.85546875,-20.01953125,-3.41796875,59.08203125,0.0
322.11328125,-23.4375,-31.73828125,-26.3671875,-6.34765625,65.91796875,0.0
322.1171875,-27.83203125,-31.73828125,-24.90234375,-16.11328125,-13.671875,0.0
322.12109375,-21.97265625,-38.57421875,-28.3203125,-18.5546875,-88.37890625,0.0
322.125,-21.484375,-38.57421875,-37.109375,-23.92578125,-83.984375,0.0
322.12890625,-25.390625,-34.1796875,-42.48046875,-26.85546875,-55.6640625,0.0
322.1328125,-24.4140625,-35.64453125,-36.62109375,-26.3671875,-93.26171875,0.0
322.13671875,-26.3671875,-33.203125,-26.3671875,-20.01953125,-21.484375,0.0
322.140625,-25.390625,-33.69140625,-19.53125,-20.99609375,64.94140625,0.0
322.14453125,-24.4140625,-34.66796875,-23.92578125,-33.203125,0.0,0.0
322.1484375,-24.4140625,-34.1796875,-32.71484375,-24.90234375,12.20703125,0.0
322.15234375,-28.3203125,-36.62109375,-30.2734375,5.37109375,83.0078125,0.0
322.15625,-41.9921875,-41.9921875,-21.484375,-4.8828125,5.859375,0.0
322.16015625,-45.8984375,-40.52734375,-21.97265625,-37.109375,3.41796875,0.0
322.1640625,-25.87890625,-33.69140625,-35.15625,-29.296875,-19.53125,0.0
322.16796875,-20.01953125,-35.15625,-49.31640625,-20.01953125,-71.2890625,0.0
322.171875,-27.34375,-26.3671875,-30.2734375,-30.2734375,-71.77734375,0.0
322.17578125,-29.296875,-20.01953125,-11.71875,-24.4140625,-67.3828125,0.0
322.1796875,-27.34375,-30.2734375,-21.484375,-9.765625,-15.625,0.0
322.18359375,-10.25390625,-39.55078125,-28.80859375,-26.85546875,-30.76171875,0.0
322.1875,-16.6015625,-41.015625,-32.2265625,-34.1796875,-66.40625,0.0
322.19140625,-41.015625,-31.73828125,-26.85546875,-28.80859375,3.90625,0.0
322.1953125,-45.41015625,-36.1328125,-16.11328125,-19.04296875,29.296875,0.0
322.19921875,-32.71484375,-42.96875,-27.34375,-14.6484375,-27.34375,0.0
322.203125,-9.765625,-26.3671875,-36.62109375,-17.08984375,-6.34765625,0.0
322.20703125,-5.859375,-25.87890625,-24.90234375,-25.87890625,-93.75,0.0
322.2109375,-29.296875,-33.203125,-24.4140625,-27.34375,-131.34765625,0.0
322.21484375,-7.8125,-14.6484375,-29.296875,8.7890625,5.37109375,0.0
322.21875,-3.90625,-10.25390625,-15.13671875,13.18359375,-20.99609375,0.0
322.22265625,-40.52734375,-20.5078125,-2.9296875,-30.76171875,-93.26171875,0.0
322.2265625,-64.94140625,-34.1796875,-7.8125,-65.4296875,-95.21484375,0.0
322.23046875,-79.1015625,-42.96875,0.9765625,-78.61328125,-126.953125,0.0
322.234375,-92.7734375,-50.78125,16.6015625,-83.49609375,-83.984375,0.0
322.23828125,-114.74609375,-60.05859375,20.01953125,-106.4453125,-59.5703125,0.0
322.2421875,-132.8125,-58.10546875,27.83203125,-126.46484375,-63.4765625,0.0
322.24609375,-145.99609375,-72.75390625,22.4609375,-150.390625,1.953125,0.0
322.25,-169.921875,-97.65625,37.59765625,-165.0390625,-20.01953125,0.0
322.25390625,-223.14453125,-101.07421875,73.2421875,-180.6640625,-62.5,0.0
322.2578125,-264.6484375,-101.07421875,58.59375,-210.9375,-58.59375,0.0
322.26171875,-260.25390625,-104.98046875,55.6640625,-211.9140625,-64.453125,0.0
322.265625,-249.0234375,-98.6328125,58.10546875,-201.171875,-34.66796875,0.0
322.26953125,-268.06640625,-100.5859375,57.6171875,-210.9375,-20.99609375,0.0
322.2734375,-279.78515625,-105.95703125,80.56640625,-220.21484375,9.765625,0.0
322.27734375,-273.92578125,-99.609375,74.21875,-212.890625,74.70703125,0.0
322.28125,-233.88671875,-88.37890625,80.56640625,-201.66015625,80.56640625,0.0
322.28515625,-219.7265625,-85.9375,83.984375,-198.2421875,38.57421875,0.0
322.2890625,-258.7890625,-97.65625,68.359375,-190.4296875,54.19921875,0.0
322.29296875,-239.74609375,-86.9140625,65.4296875,-173.33984375,52.734375,0.0
322.296875,-212.890625,-86.9140625,49.31640625,-153.3203125,14.6484375,0.0
322.30078125,-197.75390625,-84.9609375,36.1328125,-142.578125,-41.50390625,0.0
322.3046875,-180.6640625,-69.82421875,19.53125,-138.671875,-21.97265625,0.0
322.30859375,-177.24609375,-66.89453125,23.4375,-133.7890625,-57.12890625,0.0
322.3125,-160.15625,-66.40625,45.8984375,-116.2109375,-165.52734375,0.0
322.31640625,-153.80859375,-62.5,38.57421875,-115.72265625,-119.140625,0.0
322.3203125,-141.6015625,-53.7109375,23.92578125,-121.09375,-99.609375,0.0
322.32421875,-112.3046875,-52.24609375,16.6015625,-82.51953125,-167.96875,0.0
322.328125,-82.03125,-52.734375,6.8359375,-54.19921875,-190.91796875,0.0
322.33203125,-85.44921875,-57.12890625,4.39453125,-52.734375,-163.57421875,0.0
322.3359375,-85.44921875,-55.6640625,10.25390625,-49.31640625,-149.4140625,0.0
322.33984375,-67.3828125,-48.33984375,-13.18359375,-40.0390625,-63.96484375,0.0
322.34375,-62.01171875,-46.875,-26.85546875,-25.390625,-41.015625,0.0
322.34765625,-54.19921875,-45.41015625,4.39453125,-20.5078125,-112.79296875,0.0
322.3515625,-43.45703125,-48.828125,10.7421875,-13.671875,-125.0,0.0
322.35546875,-39.0625,-48.828125,-16.11328125,-5.859375,-163.57421875,0.0
322.359375,-30.2734375,-51.26953125,-24.90234375,-1.953125,-166.50390625,0.0
322.36328125,-13.18359375,-46.875,-16.6015625,-0.9765625,-111.81640625,0.0
322.3671875,-5.859375,-35.64453125,-14.6484375,-10.25390625,-177.24609375,0.0
322.37109375,-8.7890625,-34.1796875,-9.765625,-6.8359375,-108.88671875,0.0
322.375,-12.20703125,-35.15625,-11.23046875,13.671875,-27.83203125,0.0
322.37890625,-4.8828125,-32.2265625,-33.203125,14.6484375,-57.12890625,0.0
322.3828125,6.8359375,-38.0859375,-43.45703125,13.671875,-3.41796875,0.0
322.38671875,11.71875,-35.15625,-21.484375,9.27734375,10.25390625,0.0
322.390625,12.6953125,-26.3671875,-11.23046875,13.18359375,6.34765625,0.0
322.39453125,10.25390625,-21.484375,-19.53125,24.90234375,-14.6484375,0.0
322.3984375,-0.9765625,-27.34375,-25.87890625,15.625,-94.7265625,0.0
322.40234375,0.48828125,-37.109375,-24.90234375,13.18359375,-90.33203125,0.0
322.40625,18.5546875,-28.3203125,-20.99609375,10.7421875,-101.07421875,0.0
322.41015625,22.4609375,-14.6484375,-23.92578125,3.90625,-97.65625,0.0
322.4140625,1.953125,-21.484375,-41.9921875,17.08984375,-57.12890625,0.0
322.41796875,1.46484375,-27.83203125,-47.8515625,29.78515625,-78.125,0.0
322.421875,14.16015625,-26.3671875,-49.31640625,11.23046875,17.578125,0.0
322.42578125,14.16015625,-35.64453125,-56.640625,12.6953125,45.41015625,0.0
322.4296875,24.90234375,-40.0390625,-55.17578125,20.5078125,55.17578125,0.0
322.43359375,36.62109375,-31.25,-13.18359375,20.99609375,94.7265625,0.0
322.4375,25.87890625,-28.3203125,38.57421875,21.484375,83.984375,0.0
322.44140625,10.25390625,-31.25,-4.39453125,0.9765625,49.8046875,0.0
322.4453125,15.13671875,-30.76171875,-60.05859375,0.0,58.59375,0.0
322.44921875,24.90234375,-33.203125,-56.15234375,12.6953125,-16.11328125,0.0
322.453125,20.5078125,-28.80859375,-23.4375,1.953125,66.40625,0.0
322.45703125,3.41796875,-21.97265625,-20.5078125,8.30078125,170.8984375,0.0
322.4609375,0.9765625,-21.484375,-41.015625,12.6953125,102.05078125,0.0
322.46484375,2.9296875,-20.01953125,-32.2265625,-3.90625,68.84765625,0.0
322.46875,5.37109375,-22.4609375,-26.3671875,-6.34765625,47.36328125,0.0
322.47265625,6.34765625,-34.66796875,-45.41015625,5.37109375,16.6015625,0.0
322.4765625,6.34765625,-29.78515625,-36.1328125,2.9296875,15.625,0.0
322.48046875,14.6484375,-23.4375,-22.4609375,-6.8359375,19.53125,0.0
322.484375,11.71875,-39.0625,-35.64453125,-7.32421875,26.85546875,0.0
322.48828125,4.39453125,-42.96875,-49.31640625,-6.34765625,33.69140625,0.0
322.4921875,-2.9296875,-24.4140625,-53.22265625,-16.6015625,34.66796875,0.0
322.49609375,-2.44140625,-18.5546875,-41.9921875,-12.20703125,37.59765625,0.0
322.5,5.37109375,-26.85546875,-45.8984375,-5.859375,25.87890625,0.0
322.50390625,9.765625,-33.203125,-42.48046875,-27.34375,73.73046875,0.0
322.5078125,11.71875,-34.66796875,-38.0859375,-26.85546875,0.0,0.0
322.51171875,3.90625,-29.78515625,-45.41015625,-10.7421875,-109.375,0.0
322.515625,-2.9296875,-30.2734375,-34.1796875,-4.39453125,-85.9375,0.0
322.51953125,-13.18359375,-33.203125,-28.3203125,-14.16015625,-24.4140625,0.0
322.5234375,-6.34765625,-30.2734375,-38.0859375,-30.2734375,-9.765625,0.0
322.52734375,1.46484375,-25.390625,-39.0625,-16.11328125,-1.953125,0.0
322.53125,-5.859375,-26.85546875,-44.43359375,5.859375,-1.953125,0.0
322.53515625,-4.39453125,-30.2734375,-49.8046875,-2.44140625,-51.26953125,0.0
322.5390625,-5.37109375,-22.4609375,-33.203125,-4.39453125,-77.1484375,0.0
322.54296875,-2.9296875,-21.484375,-22.4609375,-3.90625,-15.13671875,0.0
322.546875,-2.44140625,-34.66796875,-36.62109375,-12.6953125,-28.80859375,0.0
322.55078125,12.6953125,-30.76171875,-42.96875,-22.94921875,-22.94921875,0.0
322.5546875,6.34765625,-20.99609375,-41.9921875,-20.01953125,-20.99609375,0.0
322.55859375,-15.625,-23.92578125,-47.36328125,-11.23046875,-66.40625,0.0
322.5625,-10.7421875,-30.2734375,-40.0390625,-17.08984375,-17.578125,0.0
322.56640625,-11.23046875,-29.296875,-41.015625,-22.4609375,-22.94921875,0.0
322.5703125,-13.18359375,-21.484375,-53.7109375,-12.6953125,-69.3359375,0.0
322.57421875,-9.27734375,-20.5078125,-63.96484375,-10.25390625,7.8125,0.0
322.578125,-20.5078125,-25.390625,-39.0625,-26.85546875,62.5,0.0
322.58203125,-16.6015625,-24.4140625,-24.4140625,-31.73828125,19.53125,0.0
322.5859375,-1.46484375,-22.4609375,-36.62109375,-25.390625,-10.25390625,0.0
322.58984375,-3.90625,-29.78515625,-29.296875,-39.55078125,-15.625,0.0
322.59375,-22.94921875,-29.78515625,-37.59765625,-26.3671875,-26.85546875,0.0
322.59765625,-25.87890625,-20.01953125,-34.66796875,-24.90234375,-0.9765625,0.0
322.6015625,-27.34375,-23.92578125,-18.5546875,-37.59765625,21.484375,0.0
322.60546875,-23.92578125,-23.4375,-29.78515625,-31.73828125,-10.25390625,0.0
322.609375,-6.8359375,-20.01953125,-44.921875,-38.0859375,0.48828125,0.0
322.61328125,-14.6484375,-26.85546875,-44.43359375,-27.83203125,-32.2265625,0.0
322.6171875,-18.5546875,-26.3671875,-37.109375,-30.76171875,-76.66015625,0.0
322.62109375,-2.44140625,-29.78515625,-44.921875,-42.48046875,-112.3046875,0.0
322.625,-24.4140625,-38.57421875,-44.921875,-40.0390625,-130.37109375,0.0
322.62890625,-28.80859375,-34.1796875,-29.78515625,-26.3671875,-52.24609375,0.0
322.6328125,-9.765625,-30.2734375,-27.34375,-9.765625,-72.265625,0.0
322.63671875,-12.20703125,-23.4375,-39.55078125,-13.18359375,-62.5,0.0
322.640625,-35.15625,-20.5078125,-48.828125,-39.55078125,59.5703125,0.0
322.64453125,-41.015625,-20.5078125,-63.96484375,-54.6875,46.38671875,0.0
322.6484375,-40.0390625,-11.23046875,-78.61328125,-62.5,-79.1015625,0.0
322.65234375,-44.43359375,-5.37109375,-82.03125,-71.2890625,-48.33984375,0.0
322.65625,-36.1328125,-5.37109375,-87.40234375,-46.38671875,18.06640625,0.0
322.66015625,-18.06640625,-2.9296875,-96.6796875,-34.66796875,-74.70703125,0.0
322.6640625,-6.34765625,3.41796875,-102.05078125,-50.78125,-114.2578125,0.0
322.66796875,-3.41796875,0.48828125,-113.28125,-49.31640625,-52.734375,0.0
322.671875,5.37109375,1.953125,-122.0703125,-43.9453125,6.8359375,0.0
322.67578125,22.94921875,12.20703125,-105.95703125,-20.99609375,-89.35546875,0.0
322.6796875,18.5546875,13.18359375,-96.6796875,-4.39453125,-130.37109375,0.0
322.68359375,22.94921875,6.8359375,-106.4453125,-14.16015625,-46.38671875,0.0
322.6875,25.390625,2.9296875,-110.83984375,-27.34375,-39.55078125,0.0
322.69140625,10.7421875,5.37109375,-101.5625,-14.6484375,-42.96875,0.0
322.6953125,4.39453125,3.41796875,-94.23828125,-8.7890625,-19.04296875,0.0
322.69921875,4.8828125,-2.44140625,-96.19140625,-24.90234375,-58.59375,0.0
322.703125,14.6484375,-1.46484375,-88.8671875,-10.25390625,-54.6875,0.0
322.70703125,10.7421875,-5.37109375,-82.51953125,-12.20703125,-91.796875,0.0
322.7109375,3.41796875,-3.90625,-81.54296875,-24.90234375,-147.4609375,0.0
322.71484375,-6.34765625,-5.859375,-78.61328125,-30.76171875,-119.140625,0.0
322.71875,-9.27734375,-12.20703125,-73.73046875,-22.94921875,-106.4453125,0.0
322.72265625,-6.34765625,-9.27734375,-63.96484375,-19.04296875,-74.70703125,0.0
322.7265625,-10.7421875,-6.8359375,-65.4296875,-40.52734375,-35.15625,0.0
322.73046875,-12.20703125,-8.30078125,-68.84765625,-23.92578125,-97.65625,0.0
322.734375,-10.25390625,-10.25390625,-64.453125,-8.7890625,-51.26953125,0.0
322.73828125,7.8125,-8.30078125,-57.12890625,-11.23046875,-45.8984375,0.0
322.7421875,9.27734375,-10.25390625,-57.12890625,-16.6015625,-59.08203125,0.0
322.74609375,-12.20703125,-12.6953125,-50.78125,-36.1328125,-1.46484375,0.0
322.75,-21.97265625,-9.765625,-31.25,-32.2265625,9.765625,0.0
322.75390625,-8.7890625,-20.01953125,-33.203125,-0.9765625,12.6953125,0.0
322.7578125,1.953125,-25.390625,-40.52734375,11.23046875,-23.92578125,0.0
322.76171875,12.6953125,-18.5546875,-43.45703125,-5.37109375,-61.5234375,0.0
322.765625,27.34375,-19.53125,-29.78515625,14.16015625,-31.25,0.0
322.76953125,32.71484375,-20.01953125,-27.34375,38.57421875,-21.484375,0.0
322.7734375,31.73828125,-17.08984375,-35.64453125,36.1328125,-62.5,0.0
322.77734375,39.55078125,-20.99609375,-31.73828125,27.83203125,-16.6015625,0.0
322.78125,38.57421875,-17.08984375,-25.390625,18.5546875,-0.48828125,0.0
322.78515625,35.15625,-14.16015625,-28.80859375,33.203125,-11.71875,0.0
322.7890625,35.64453125,-16.6015625,-31.73828125,35.64453125,-55.6640625,0.0
322.79296875,30.76171875,-12.6953125,-22.4609375,24.4140625,-53.7109375,0.0
322.796875,22.94921875,-11.71875,-19.04296875,30.76171875,-77.63671875,0.0
322.80078125,17.578125,-7.32421875,-22.94921875,26.3671875,-71.77734375,0.0
322.8046875,6.8359375,-7.8125,-20.01953125,15.625,-49.8046875,0.0
322.80859375,3.41796875,-16.11328125,-16.11328125,17.578125,-23.4375,0.0
322.8125,0.9765625,-19.04296875,-18.06640625,21.484375,-29.78515625,0.0
322.81640625,-8.30078125,-24.4140625,-17.08984375,17.08984375,-44.43359375,0.0
322.8203125,-5.37109375,-26.85546875,-18.06640625,9.27734375,-36.62109375,0.0
322.82421875,-0.9765625,-28.3203125,-23.92578125,3.41796875,-94.23828125,0.0
322.828125,-5.859375,-30.76171875,-26.85546875,-1.46484375,-57.6171875,0.0
322.83203125,3.90625,-25.390625,-21.97265625,-3.41796875,53.7109375,0.0
322.8359375,-3.90625,-24.90234375,-18.5546875,3.90625,38.57421875,0.0
322.83984375,-15.625,-25.390625,-28.80859375,-10.25390625,40.0390625,0.0
322.84375,-7.32421875,-20.99609375,-29.78515625,-4.39453125,27.83203125,0.0
322.84765625,-9.765625,-19.04296875,-28.80859375,5.37109375,-41.50390625,0.0
322.8515625,-11.23046875,-20.01953125,-35.64453125,-3.90625,-38.57421875,0.0
322.85546875,-6.34765625,-19.04296875,-30.76171875,-7.32421875,39.55078125,0.0
322.859375,4.39453125,-22.94921875,-28.3203125,-14.16015625,44.43359375,0.0
322.86328125,7.32421875,-27.34375,-31.73828125,-13.671875,-28.80859375,0.0
322.8671875,-8.30078125,-24.90234375,-32.2265625,-4.8828125,-16.11328125,0.0
322.87109375,-13.671875,-25.390625,-26.85546875,-15.13671875,0.0,0.0
322.875,-9.27734375,-30.2734375,-24.4140625,-23.92578125,-17.578125,0.0
322.87890625,-19.04296875,-37.59765625,-32.2265625,-18.06640625,-28.80859375,0.0
322.8828125,-26.3671875,-31.73828125,-44.43359375,-22.94921875,11.23046875,0.0
322.88671875,-12.20703125,-26.85546875,-32.2265625,-13.18359375,-11.23046875,0.0
322.890625,-17.578125,-28.80859375,-20.5078125,-12.20703125,-63.96484375,0.0
322.89453125,-19.04296875,-26.85546875,-25.390625,-24.90234375,11.23046875,0.0
322.8984375,-20.5078125,-25.87890625,-22.4609375,-9.765625,-4.39453125,0.0
322.90234375,-23.4375,-28.3203125,-20.99609375,-2.9296875,-71.77734375,0.0
322.90625,-8.7890625,-33.69140625,-37.59765625,-25.390625,-21.484375,0.0
322.91015625,-10.7421875,-32.71484375,-40.0390625,-19.53125,-22.94921875,0.0
322.9140625,-30.2734375,-33.203125,-24.90234375,-16.11328125,-80.56640625,0.0
322.91796875,-31.73828125,-42.96875,-18.5546875,-18.06640625,-105.95703125,0.0
322.921875,-33.69140625,-37.59765625,-28.80859375,-26.3671875,-108.88671875,0.0
322.92578125,-27.34375,-24.4140625,-33.69140625,-26.3671875,-87.40234375,0.0
322.9296875,-14.16015625,-25.390625,-27.34375,-11.23046875,-104.4921875,0.0
322.93359375,-9.765625,-24.4140625,-29.78515625,-15.13671875,-44.43359375,0.0
322.9375,-19.53125,-24.90234375,-35.15625,-29.296875,31.25,0.0
322.94140625,-25.390625,-30.76171875,-38.0859375,-21.484375,-41.015625,0.0
322.9453125,-22.4609375,-30.2734375,-36.1328125,-26.3671875,-121.58203125,0.0
322.94921875,-24.90234375,-39.0625,-33.69140625,-45.41015625,-66.40625,0.0
322.953125,-27.34375,-41.50390625,-26.85546875,-33.69140625,-17.08984375,0.0
322.95703125,-35.64453125,-24.90234375,-22.94921875,-16.6015625,-78.125,0.0
322.9609375,-36.1328125,-22.4609375,-31.25,-20.99609375,3.90625,0.0
322.96484375,-35.64453125,-28.80859375,-30.76171875,-30.2734375,64.94140625,0.0
322.96875,-38.57421875,-33.203125,-29.296875,-23.92578125,-0.9765625,0.0
322.97265625,-41.9921875,-34.1796875,-32.71484375,-21.97265625,-46.875,0.0
322.9765625,-39.0625,-29.78515625,-21.484375,-19.53125,-41.015625,0.0
322.98046875,-35.15625,-34.1796875,-25.87890625,-15.13671875,-10.25390625,0.0
322.984375,-24.4140625,-43.45703125,-34.66796875,-25.390625,-38.0859375,0.0
322.98828125,-20.99609375,-36.1328125,-31.25,-32.71484375,-19.53125,0.0
322.9921875,-15.13671875,-21.484375,-34.66796875,-35.64453125,0.0,0.0
322.99609375,-19.53125,-19.04296875,-28.80859375,-39.55078125,-77.63671875,0.0
323.0,-29.296875,-22.4609375,-24.90234375,-36.62109375,-74.21875,0.0
323.00390625,-21.484375,-29.78515625,-36.1328125,-44.43359375,-47.36328125,0.0
323.0078125,-10.7421875,-33.69140625,-24.90234375,-43.9453125,-74.21875,0.0
323.01171875,-8.30078125,-34.66796875,-21.97265625,-35.15625,-60.05859375,0.0
323.015625,-9.27734375,-30.2734375,-41.015625,-38.0859375,-18.06640625,0.0
323.01953125,-19.04296875,-31.73828125,-39.55078125,-24.4140625,-11.23046875,0.0
323.0234375,-27.83203125,-52.734375,-36.1328125,-6.8359375,-61.5234375,0.0
323.02734375,1.46484375,-48.828125,-24.90234375,8.7890625,-42.48046875,0.0
323.03125,-2.44140625,-34.66796875,-23.4375,-18.06640625,-76.66015625,0.0
323.03515625,-65.91796875,-24.4140625,-26.85546875,-55.6640625,-79.58984375,0.0
323.0390625,-64.453125,-18.06640625,-30.2734375,-69.3359375,-12.20703125,0.0
323.04296875,-69.3359375,-23.4375,-45.8984375,-103.02734375,-0.48828125,0.0
323.046875,-105.46875,-29.78515625,-55.6640625,-118.1640625,-26.85546875,0.0
323.05078125,-116.69921875,-41.50390625,-47.36328125,-114.74609375,-77.63671875,0.0
323.0546875,-145.5078125,-30.2734375,-49.31640625,-142.578125,-153.3203125,0.0
323.05859375,-164.55078125,-21.484375,-67.87109375,-154.78515625,-97.65625,0.0
323.0625,-145.99609375,-28.80859375,-83.49609375,-147.4609375,-2.44140625,0.0
323.06640625,-136.71875,-29.78515625,-89.35546875,-150.390625,-14.6484375,0.0
323.0703125,-147.4609375,-24.90234375,-84.47265625,-183.10546875,-50.78125,0.0
323.07421875,-161.62109375,-21.484375,-65.91796875,-175.29296875,-62.01171875,0.0
323.078125,-159.66796875,-24.4140625,-63.4765625,-169.43359375,-2.44140625,0.0
323.08203125,-162.59765625,-23.92578125,-68.359375,-194.3359375,2.44140625,0.0
323.0859375,-156.73828125,-18.5546875,-63.96484375,-178.22265625,-46.38671875,0.0
323.08984375,-141.6015625,-21.97265625,-62.01171875,-161.1328125,-142.08984375,0.0
323.09375,-132.8125,-40.0390625,-67.87109375,-147.94921875,-125.0,0.0
323.09765625,-125.0,-34.1796875,-70.3125,-121.58203125,-52.734375,0.0
323.1015625,-96.6796875,-23.4375,-58.59375,-111.328125,-4.39453125,0.0
323.10546875,-75.1953125,-30.76171875,-40.52734375,-111.328125,38.57421875,0.0
323.109375,-88.8671875,-24.90234375,-43.45703125,-125.48828125,51.26953125,0.0
323.11328125,-92.28515625,-16.6015625,-49.8046875,-99.609375,33.203125,0.0
323.1171875,-83.49609375,-21.97265625,-44.43359375,-80.078125,-14.16015625,0.0
323.12109375,-70.80078125,-29.78515625,-44.921875,-88.8671875,-34.66796875,0.0
323.125,-48.828125,-35.15625,-48.828125,-71.2890625,-28.3203125,0.0
323.12890625,-51.26953125,-41.015625,-47.36328125,-56.15234375,-18.5546875,0.0
323.1328125,-58.59375,-57.12890625,-47.8515625,-58.10546875,49.31640625,0.0
323.13671875,-40.52734375,-69.3359375,-55.6640625,-52.24609375,-4.8828125,0.0
323.140625,-25.87890625,-43.45703125,-52.734375,-49.8046875,-50.29296875,0.0
323.14453125,-42.48046875,-15.625,-45.41015625,-57.12890625,-21.97265625,0.0
323.1484375,-49.8046875,-28.3203125,-45.41015625,-60.05859375,-40.52734375,0.0
323.15234375,-52.734375,-34.1796875,-44.43359375,-54.6875,-87.890625,0.0
323.15625,-52.734375,-36.1328125,-33.69140625,-47.36328125,-73.73046875,0.0
323.16015625,-53.22265625,-53.7109375,-35.64453125,-53.7109375,-84.47265625,0.0
323.1640625,-52.24609375,-35.64453125,-44.43359375,-75.68359375,-195.3125,0.0
323.16796875,-27.34375,-23.4375,-30.76171875,-69.82421875,-244.140625,0.0
323.171875,-32.71484375,-37.59765625,-29.78515625,-45.41015625,-175.29296875,0.0
323.17578125,-45.8984375,-38.0859375,-43.9453125,-32.71484375,-79.58984375,0.0
323.1796875,-27.34375,-22.94921875,-36.62109375,-22.4609375,74.21875,0.0
323.18359375,-24.4140625,-17.08984375,-22.94921875,-36.1328125,104.4921875,0.0
323.1875,-33.203125,-21.484375,-9.765625,-48.33984375,22.94921875,0.0
323.19140625,-35.64453125,-28.3203125,-9.765625,-31.25,-1.953125,0.0
323.1953125,-37.59765625,-34.1796875,-22.4609375,-34.66796875,-38.0859375,0.0
323.19921875,-48.33984375,-30.2734375,-31.25,-46.875,-91.30859375,0.0
323.203125,-39.55078125,-29.296875,-31.25,-29.296875,-4.8828125,0.0
323.20703125,-23.4375,-32.2265625,-23.4375,-20.5078125,86.42578125,0.0
323.2109375,-26.85546875,-14.6484375,-17.08984375,-33.69140625,70.80078125,0.0
323.21484375,-38.57421875,-0.9765625,-18.06640625,-28.80859375,4.39453125,0.0
323.21875,-35.64453125,-10.25390625,-21.484375,-10.7421875,37.59765625,0.0
323.22265625,-22.4609375,-23.4375,-26.85546875,-11.71875,27.34375,0.0
323.2265625,-22.94921875,-29.296875,-25.87890625,-19.04296875,-4.8828125,0.0
323.23046875,-20.99609375,-25.87890625,-17.08984375,-28.80859375,27.83203125,0.0
323.234375,-22.94921875,-27.34375,-29.296875,-24.90234375,33.203125,0.0
323.23828125,-23.4375,-26.3671875,-42.48046875,-27.34375,8.30078125,0.0
323.2421875,-14.6484375,-24.90234375,-32.71484375,-39.55078125,23.4375,0.0
323.24609375,-19.53125,-27.34375,-30.76171875,-17.08984375,-9.27734375,0.0
323.25,-26.3671875,-37.109375,-30.2734375,-30.76171875,-7.8125,0.0
323.25390625,-36.1328125,-49.8046875,-26.3671875,-40.52734375,36.62109375,0.0
323.2578125,-34.66796875,-35.64453125,-28.3203125,-16.6015625,34.66796875,0.0
323.26171875,-26.85546875,-20.01953125,-34.66796875,-30.76171875,6.8359375,0.0
323.265625,-27.34375,-17.578125,-34.1796875,-55.6640625,-5.37109375,0.0
323.26953125,-24.90234375,-13.671875,-27.83203125,-41.015625,32.2265625,0.0
323.2734375,-29.78515625,-21.97265625,-26.3671875,-32.2265625,-2.44140625,0.0
323.27734375,-38.0859375,-32.2265625,-26.3671875,-37.109375,-16.11328125,0.0
323.28125,-40.0390625,-38.0859375,-43.45703125,-37.109375,45.41015625,0.0
323.28515625,-32.71484375,-41.9921875,-48.828125,-36.1328125,-9.27734375,0.0
323.2890625,-19.53125,-33.203125,-27.34375,-34.66796875,-74.70703125,0.0
323.29296875,-35.15625,-24.4140625,-7.8125,-39.55078125,-39.0625,0.0
323.296875,-44.43359375,-26.85546875,-18.06640625,-37.59765625,-30.76171875,0.0
323.30078125,-39.0625,-29.296875,-31.73828125,-44.921875,-56.15234375,0.0
323.3046875,-38.0859375,-33.69140625,-32.71484375,-50.29296875,-53.7109375,0.0
323.30859375,-40.52734375,-32.2265625,-37.109375,-41.50390625,-18.06640625,0.0
323.3125,-44.43359375,-34.1796875,-40.0390625,-33.203125,-78.61328125,0.0
323.31640625,-42.96875,-40.0390625,-34.66796875,-25.390625,-124.0234375,0.0
323.3203125,-34.1796875,-47.8515625,-25.87890625,-22.94921875,-89.84375,0.0
323.32421875,-27.83203125,-46.875,-28.80859375,-32.71484375,-3.41796875,0.0
323.328125,-26.3671875,-30.76171875,-30.2734375,-40.0390625,5.37109375,0.0
323.33203125,-27.83203125,-18.5546875,-31.73828125,-42.48046875,-66.40625,0.0
323.3359375,-25.87890625,-20.5078125,-25.390625,-40.0390625,-58.59375,0.0
323.33984375,-19.53125,-29.296875,-22.94921875,-10.25390625,-72.75390625,0.0
323.34375,3.90625,-35.15625,-20.5078125,-0.9765625,-32.2265625,0.0
323.34765625,16.6015625,-34.1796875,-18.06640625,0.48828125,45.41015625,0.0
323.3515625,-22.94921875,-22.4609375,-25.87890625,-21.97265625,5.37109375,0.0
323.35546875,-41.015625,-19.53125,-36.1328125,-47.8515625,-75.1953125,0.0
323.359375,-17.08984375,-26.3671875,-43.45703125,-43.9453125,-52.24609375,0.0
323.36328125,-8.7890625,-26.3671875,-45.8984375,-35.15625,-10.7421875,0.0
323.3671875,-14.16015625,-25.87890625,-48.828125,-21.484375,-40.52734375,0.0
323.37109375,-19.04296875,-25.87890625,-44.921875,-11.71875,-79.1015625,0.0
323.375,-21.97265625,-24.4140625,-41.9921875,-0.48828125,-63.4765625,0.0
323.37890625,-23.92578125,-25.390625,-38.0859375,-8.30078125,-15.625,0.0
323.3828125,-17.08984375,-29.296875,-21.97265625,-9.765625,5.37109375,0.0
323.38671875,-8.30078125,-36.62109375,-31.25,-2.44140625,-3.41796875,0.0
323.390625,-10.25390625,-35.64453125,-42.48046875,-0.48828125,-111.328125,0.0
323.39453125,-17.578125,-33.203125,-35.64453125,7.32421875,-126.953125,0.0
323.3984375,-20.01953125,-26.3671875,-40.0390625,-14.6484375,-53.22265625,0.0
323.40234375,0.0,-20.01953125,-42.96875,-30.76171875,-51.26953125,0.0
323.40625,-1.953125,-16.6015625,-35.15625,-23.92578125,-13.671875,0.0
323.41015625,-13.18359375,-15.13671875,-32.71484375,-16.11328125,-33.203125,0.0
323.4140625,-10.25390625,-29.296875,-35.64453125,-6.8359375,4.39453125,0.0
323.41796875,-9.27734375,-30.76171875,-34.1796875,-12.20703125,37.109375,0.0
323.421875,-6.34765625,-32.2265625,-32.2265625,-15.625,-49.31640625,0.0
323.42578125,-8.30078125,-33.203125,-22.94921875,-30.2734375,-49.8046875,0.0
323.4296875,-8.7890625,-20.5078125,-21.484375,-28.80859375,-41.50390625,0.0
323.43359375,-13.18359375,-21.97265625,-23.92578125,-7.32421875,-85.9375,0.0
323.4375,-22.4609375,-17.08984375,-23.92578125,-14.16015625,-64.453125,0.0
323.44140625,-21.97265625,-16.11328125,-25.390625,-16.6015625,-46.875,0.0
323.4453125,-9.27734375,-22.4609375,-28.80859375,-20.5078125,-62.01171875,0.0
323.44921875,-14.16015625,-23.4375,-34.66796875,-33.69140625,-17.578125,0.0
323.453125,-24.90234375,-33.69140625,-35.15625,-17.578125,-40.0390625,0.0
323.45703125,-26.85546875,-29.296875,-37.109375,-0.48828125,-80.078125,0.0
323.4609375,-27.83203125,-20.01953125,-31.25,-26.3671875,-102.5390625,0.0
323.46484375,-15.13671875,-25.87890625,-38.0859375,-22.94921875,-112.3046875,0.0
323.46875,-12.6953125,-33.203125,-32.2265625,-8.30078125,-59.5703125,0.0
323.47265625,-34.1796875,-34.1796875,-4.39453125,-22.4609375,-126.46484375,0.0
323.4765625,-43.9453125,-30.76171875,-1.953125,-34.66796875,-85.9375,0.0
323.48046875,-30.76171875,-30.2734375,-20.01953125,-39.55078125,18.06640625,0.0
323.484375,-21.97265625,-31.73828125,-22.94921875,-33.203125,-84.47265625,0.0
323.48828125,-35.64453125,-38.57421875,-24.90234375,-41.015625,-91.796875,0.0
323.4921875,-42.96875,-42.48046875,-33.69140625,-39.0625,-32.2265625,0.0
323.49609375,-41.015625,-34.1796875,-30.76171875,-32.2265625,-22.94921875,0.0
323.5,-39.55078125,-23.4375,-23.92578125,-30.76171875,-41.015625,0.0
323.50390625,-29.296875,-24.4140625,-24.4140625,-33.203125,6.34765625,0.0
323.5078125,-12.6953125,-26.3671875,-26.3671875,-37.109375,-22.94921875,0.0
323.51171875,-17.08984375,-29.296875,-26.3671875,-35.64453125,-31.73828125,0.0
323.515625,-26.3671875,-31.73828125,-16.11328125,-19.04296875,-41.50390625,0.0
323.51953125,-27.83203125,-21.97265625,-14.16015625,-7.8125,-71.2890625,0.0
323.5234375,-26.3671875,-23.4375,-26.85546875,-28.80859375,-30.76171875,0.0
323.52734375,-4.39453125,-19.53125,-36.1328125,-36.62109375,-84.9609375,0.0
323.53125,-9.765625,-16.6015625,-35.64453125,-30.76171875,-119.140625,0.0
323.53515625,-27.83203125,-26.85546875,-48.33984375,-28.80859375,-59.5703125,0.0
323.5390625,-16.6015625,-26.3671875,-43.45703125,-24.90234375,-26.3671875,0.0
323.54296875,-7.8125,-31.73828125,-38.0859375,-28.3203125,-59.08203125,0.0
323.546875,-20.99609375,-36.62109375,-43.9453125,-59.08203125,-25.390625,0.0
323.55078125,-34.66796875,-30.76171875,-33.203125,-47.8515625,37.109375,0.0
323.5546875,-36.1328125,-33.203125,-29.78515625,-13.18359375,5.37109375,0.0
323.55859375,-31.73828125,-40.0390625,-31.25,-12.6953125,-18.06640625,0.0
323.5625,-13.18359375,-38.0859375,-27.83203125,-34.1796875,17.08984375,0.0
323.56640625,-4.39453125,-28.3203125,-32.71484375,-42.96875,88.8671875,0.0
323.5703125,-21.97265625,-25.390625,-37.59765625,-35.64453125,-14.16015625,0.0
323.57421875,-46.875,-32.71484375,-26.85546875,-30.76171875,-29.296875,0.0
323.578125,-47.8515625,-31.73828125,-21.97265625,-25.87890625,-67.3828125,0.0
323.58203125,-26.85546875,-20.99609375,-40.52734375,-15.13671875,-132.8125,0.0
323.5859375,-23.4375,-18.06640625,-38.57421875,-22.94921875,-20.5078125,0.0
323.58984375,-29.78515625,-23.4375,-26.3671875,-47.36328125,-19.04296875,0.0
323.59375,-34.66796875,-31.25,-25.390625,-38.57421875,-4.8828125,0.0
323.59765625,-43.45703125,-37.59765625,-30.2734375,-14.6484375,-7.8125,0.0
323.6015625,-37.59765625,-26.3671875,-37.59765625,-22.94921875,-101.07421875,0.0
323.60546875,-27.83203125,-26.3671875,-28.80859375,-59.5703125,-149.4140625,0.0
323.609375,-29.296875,-38.57421875,-30.2734375,-58.10546875,-104.98046875,0.0
323.61328125,-39.0625,-38.0859375,-44.921875,-45.8984375,-8.30078125,0.0
323.6171875,-36.1328125,-31.25,-41.50390625,-44.43359375,-9.765625,0.0
323.62109375,-25.87890625,-32.71484375,-39.55078125,-34.66796875,-9.765625,0.0
323.625,-34.1796875,-32.2265625,-45.8984375,-47.36328125,-20.99609375,0.0
323.62890625,-36.62109375,-27.34375,-41.9921875,-41.015625,-63.96484375,0.0
323.6328125,-39.0625,-22.94921875,-33.69140625,-26.3671875,-14.6484375,0.0
323.63671875,-32.2265625,-31.73828125,-30.2734375,-39.0625,27.83203125,0.0
323.640625,-24.4140625,-30.76171875,-37.59765625,-36.1328125,15.13671875,0.0
323.64453125,-25.390625,-22.4609375,-42.96875,-28.80859375,19.53125,0.0
323.6484375,-23.92578125,-21.484375,-31.25,-41.015625,-5.37109375,0.0
323.65234375,-23.4375,-20.01953125,-23.4375,-38.0859375,-26.3671875,0.0
323.65625,-23.4375,-29.296875,-39.0625,-33.69140625,6.8359375,0.0
323.66015625,-25.87890625,-37.59765625,-56.15234375,-27.34375,14.6484375,0.0
323.6640625,-18.5546875,-43.45703125,-48.828125,-36.1328125,-39.55078125,0.0
323.66796875,-20.99609375,-47.8515625,-34.66796875,-52.734375,-27.34375,0.0
323.671875,-42.48046875,-36.1328125,-25.390625,-38.0859375,42.96875,0.0
323.67578125,-51.26953125,-27.83203125,-24.4140625,-24.4140625,60.05859375,0.0
323.6796875,-40.0390625,-20.5078125,-23.4375,-24.4140625,76.66015625,0.0
323.68359375,-32.2265625,-25.87890625,-25.87890625,-41.50390625,93.75,0.0
323.6875,-39.0625,-33.203125,-35.64453125,-46.38671875,88.37890625,0.0
323.69140625,-48.33984375,-33.203125,-36.62109375,-43.45703125,124.0234375,0.0
323.6953125,-44.43359375,-30.2734375,-24.4140625,-44.921875,100.5859375,0.0
323.69921875,-34.66796875,-29.78515625,-21.97265625,-48.33984375,-44.43359375,0.0
323.703125,-33.203125,-39.55078125,-33.203125,-47.36328125,-80.56640625,0.0
323.70703125,-18.06640625,-30.76171875,-27.83203125,-43.9453125,-72.75390625,0.0
323.7109375,-34.66796875,-24.90234375,-27.83203125,-58.10546875,-51.26953125,0.0
323.71484375,-57.6171875,-30.2734375,-32.71484375,-64.453125,-29.296875,0.0
323.71875,-51.7578125,-18.5546875,-26.85546875,-56.640625,-20.5078125,0.0
323.72265625,-56.640625,-16.6015625,-23.92578125,-70.3125,-41.9921875,0.0
323.7265625,-66.40625,-24.90234375,-28.80859375,-86.9140625,-28.80859375,0.0
323.73046875,-59.5703125,-10.25390625,-34.1796875,-74.21875,11.71875,0.0
323.734375,-42.96875,-2.9296875,-31.73828125,-55.17578125,-8.30078125,0.0
323.73828125,-71.77734375,-19.53125,-17.08984375,-77.1484375,-101.5625,0.0
323.7421875,-127.9296875,-27.83203125,-7.8125,-118.1640625,-61.5234375,0.0
323.74609375,-129.8828125,-29.78515625,-17.08984375,-132.32421875,-21.97265625,0.0
323.75,-128.90625,-38.57421875,0.48828125,-129.39453125,-57.12890625,0.0
323.75390625,-171.38671875,-48.828125,30.2734375,-141.11328125,-30.2734375,0.0
323.7578125,-198.73046875,-56.15234375,37.59765625,-154.78515625,-28.80859375,0.0
323.76171875,-201.66015625,-66.40625,40.52734375,-162.109375,-65.4296875,0.0
323.765625,-202.63671875,-72.75390625,62.98828125,-184.08203125,-74.21875,0.0
323.76953125,-203.125,-83.0078125,85.9375,-193.84765625,-33.203125,0.0
323.7734375,-204.1015625,-89.35546875,93.75,-190.4296875,39.55078125,0.0
323.77734375,-213.37890625,-96.19140625,97.65625,-191.89453125,34.66796875,0.0
323.78125,-204.58984375,-99.12109375,100.09765625,-178.7109375,1.953125,0.0
323.78515625,-197.75390625,-96.6796875,97.65625,-177.734375,-59.5703125,0.0
323.7890625,-201.171875,-108.3984375,94.7265625,-169.921875,-129.8828125,0.0
323.79296875,-225.5859375,-114.74609375,98.6328125,-154.78515625,-138.671875,0.0
323.796875,-242.1875,-110.83984375,97.65625,-152.83203125,-74.21875,0.0
323.80078125,-226.07421875,-114.2578125,83.984375,-163.0859375,-50.29296875,0.0
323.8046875,-214.84375,-129.39453125,74.21875,-160.64453125,-10.25390625,0.0
323.80859375,-206.0546875,-132.32421875,73.2421875,-144.53125,-6.34765625,0.0
323.8125,-183.59375,-102.5390625,76.66015625,-122.55859375,-5.859375,0.0
323.81640625,-158.69140625,-80.078125,70.80078125,-117.67578125,30.76171875,0.0
323.8203125,-154.296875,-80.56640625,57.6171875,-122.55859375,-26.3671875,0.0
323.82421875,-141.11328125,-81.0546875,45.8984375,-117.1875,-86.9140625,0.0
323.828125,-125.48828125,-75.1953125,34.1796875,-105.95703125,-49.8046875,0.0
323.83203125,-100.5859375,-82.03125,33.203125,-86.9140625,-39.55078125,0.0
323.8359375,-68.84765625,-82.03125,31.25,-73.2421875,-85.44921875,0.0
323.83984375,-81.0546875,-66.89453125,23.92578125,-62.01171875,-106.4453125,0.0
323.84375,-91.796875,-62.5,20.01953125,-74.70703125,-113.76953125,0.0
323.84765625,-68.359375,-61.5234375,14.6484375,-67.87109375,-118.65234375,0.0
323.8515625,-58.59375,-56.15234375,7.32421875,-32.71484375,-56.15234375,0.0
323.85546875,-62.98828125,-60.546875,2.44140625,-20.99609375,40.52734375,0.0
323.859375,-53.7109375,-62.01171875,0.48828125,-22.4609375,22.94921875,0.0
323.86328125,-35.15625,-56.15234375,-0.9765625,-15.625,-25.390625,0.0
323.8671875,-29.78515625,-54.19921875,-7.32421875,-11.23046875,-40.52734375,0.0
323.87109375,-31.73828125,-62.98828125,-18.06640625,-6.8359375,-33.203125,0.0
323.875,-19.04296875,-59.08203125,-19.53125,1.953125,-27.34375,0.0
323.87890625,4.39453125,-49.8046875,-17.578125,9.765625,-53.22265625,0.0
323.8828125,12.6953125,-53.7109375,-20.99609375,0.48828125,-17.08984375,0.0
323.88671875,8.30078125,-57.12890625,-28.80859375,-0.9765625,-41.9921875,0.0
323.890625,9.27734375,-51.26953125,-20.99609375,0.0,-91.30859375,0.0
323.89453125,3.90625,-43.9453125,-15.13671875,12.6953125,18.5546875,0.0
323.8984375,-2.44140625,-40.52734375,-22.4609375,14.16015625,56.640625,0.0
323.90234375,5.37109375,-41.015625,-24.4140625,2.44140625,4.8828125,0.0
323.90625,8.30078125,-45.41015625,-20.01953125,2.44140625,15.13671875,0.0
323.91015625,8.30078125,-47.36328125,-29.78515625,6.8359375,78.125,0.0
323.9140625,5.37109375,-41.9921875,-32.2265625,17.08984375,33.203125,0.0
323.91796875,2.44140625,-38.57421875,-25.390625,13.18359375,-95.703125,0.0
323.921875,12.20703125,-37.59765625,-34.1796875,7.32421875,-82.51953125,0.0
323.92578125,18.06640625,-38.57421875,-38.57421875,9.765625,-0.48828125,0.0
323.9296875,9.27734375,-41.015625,-33.203125,13.671875,-16.6015625,0.0
323.93359375,6.8359375,-41.9921875,-28.80859375,12.20703125,-16.11328125,0.0
323.9375,16.11328125,-41.9921875,-18.06640625,9.27734375,-24.90234375,0.0
323.94140625,17.578125,-41.50390625,-24.90234375,33.69140625,8.7890625,0.0
323.9453125,17.578125,-37.59765625,-38.57421875,40.0390625,8.7890625,0.0
323.94921875,17.08984375,-35.64453125,-34.66796875,22.4609375,-31.73828125,0.0
323.953125,7.32421875,-33.203125,-25.390625,19.04296875,-11.71875,0.0
323.95703125,-0.48828125,-33.203125,-28.3203125,19.04296875,-38.0859375,0.0
323.9609375,0.9765625,-31.73828125,-37.109375,14.16015625,-80.56640625,0.0
323.96484375,6.8359375,-29.78515625,-43.9453125,19.04296875,-57.12890625,0.0
323.96875,3.41796875,-33.69140625,-39.0625,13.18359375,57.6171875,0.0
323.97265625,1.953125,-32.71484375,-37.109375,7.8125,4.39453125,0.0
323.9765625,1.953125,-31.73828125,-53.22265625,22.94921875,-49.31640625,0.0
323.98046875,3.41796875,-40.52734375,-31.25,23.92578125,-52.734375,0.0
323.984375,11.71875,-42.48046875,-13.18359375,9.765625,-38.0859375,0.0
323.98828125,7.8125,-34.1796875,-23.92578125,8.30078125,-39.0625,0.0
323.9921875,6.8359375,-32.2265625,-29.296875,0.0,-26.3671875,0.0
323.99609375,2.44140625,-29.296875,-26.3671875,13.18359375,-20.99609375,0.0
324.0,-1.953125,-24.90234375,-27.83203125,15.625,-40.52734375,0.0
324.00390625,6.34765625,-25.87890625,-37.109375,-0.9765625,-55.6640625,0.0
324.0078125,7.8125,-24.90234375,-39.0625,6.34765625,-69.3359375,0.0
324.01171875,5.37109375,-35.15625,-44.921875,11.23046875,-69.82421875,0.0
324.015625,-3.90625,-41.9921875,-36.1328125,0.48828125,-20.99609375,0.0
324.01953125,-9.27734375,-28.3203125,-21.484375,-2.44140625,21.484375,0.0
324.0234375,-14.16015625,-28.3203125,-27.83203125,6.8359375,38.57421875,0.0
324.02734375,-10.25390625,-43.45703125,-19.04296875,2.44140625,-6.34765625,0.0
324.03125,-7.8125,-41.50390625,-15.625,5.859375,-67.3828125,0.0
324.03515625,-13.18359375,-39.55078125,-33.203125,4.8828125,-32.2265625,0.0
324.0390625,-10.7421875,-41.9921875,-34.66796875,-4.39453125,-83.984375,0.0
324.04296875,-5.859375,-30.2734375,-32.2265625,-2.9296875,-89.35546875,0.0
324.046875,-1.46484375,-25.390625,-35.15625,-2.9296875,0.9765625,0.0
324.05078125,0.48828125,-35.64453125,-34.1796875,-8.30078125,-60.05859375,0.0
324.0546875,-3.41796875,-31.73828125,-33.203125,2.9296875,-75.68359375,0.0
324.05859375,-6.8359375,-32.71484375,-36.62109375,-7.8125,-20.01953125,0.0
324.0625,19.04296875,-37.59765625,-35.15625,21.484375,-24.4140625,0.0
324.06640625,34.1796875,-25.390625,-39.55078125,24.90234375,43.9453125,0.0
324.0703125,2.9296875,-21.484375,-51.7578125,-18.5546875,0.48828125,0.0
324.07421875,-20.99609375,-20.01953125,-58.10546875,-25.390625,-112.3046875,0.0
324.078125,-6.8359375,-11.71875,-68.359375,-19.04296875,-57.6171875,0.0
324.08203125,16.6015625,-3.90625,-78.125,-16.6015625,-6.34765625,0.0
324.0859375,25.390625,-2.44140625,-84.47265625,-11.71875,-36.62109375,0.0
324.08984375,46.875,-0.48828125,-96.19140625,5.37109375,2.44140625,0.0
324.09375,52.734375,9.765625,-108.3984375,16.11328125,-28.3203125,0.0
324.09765625,45.8984375,13.18359375,-108.3984375,14.16015625,-12.6953125,0.0
324.1015625,50.78125,9.27734375,-107.91015625,21.484375,-64.94140625,0.0
324.10546875,57.6171875,3.90625,-109.375,36.62109375,-76.171875,0.0
324.109375,61.5234375,0.0,-106.4453125,44.43359375,-45.8984375,0.0
324.11328125,53.22265625,-1.953125,-103.02734375,41.9921875,-94.23828125,0.0
324.1171875,71.77734375,2.9296875,-96.6796875,48.828125,-43.9453125,0.0
324.12109375,85.9375,5.37109375,-88.37890625,55.17578125,-10.25390625,0.0
324.125,69.3359375,3.90625,-84.47265625,30.76171875,-50.78125,0.0
324.12890625,45.8984375,3.41796875,-78.125,27.83203125,-93.75,0.0
324.1328125,35.15625,-2.9296875,-74.70703125,32.71484375,-37.59765625,0.0
324.13671875,33.69140625,-4.8828125,-71.77734375,20.01953125,58.10546875,0.0
324.140625,39.0625,-0.9765625,-68.84765625,15.13671875,83.49609375,0.0
324.14453125,35.64453125,-3.90625,-65.4296875,9.765625,8.30078125,0.0
324.1484375,30.76171875,-4.39453125,-62.98828125,5.859375,-39.55078125,0.0
324.15234375,33.203125,-0.9765625,-64.453125,9.27734375,-0.9765625,0.0
324.15625,30.76171875,-2.44140625,-66.40625,9.27734375,-24.4140625,0.0
324.16015625,39.55078125,0.0,-59.08203125,6.8359375,-47.36328125,0.0
324.1640625,33.203125,-5.859375,-52.734375,12.20703125,-42.48046875,0.0
324.16796875,24.4140625,-12.6953125,-49.8046875,14.6484375,-73.2421875,0.0
324.171875,19.53125,-7.8125,-46.38671875,7.8125,-107.91015625,0.0
324.17578125,9.27734375,-6.34765625,-39.55078125,9.27734375,-83.984375,0.0
324.1796875,15.625,-7.8125,-38.57421875,16.11328125,-40.0390625,0.0
324.18359375,14.16015625,-12.20703125,-45.8984375,4.8828125,-52.24609375,0.0
324.1875,10.25390625,-12.6953125,-48.828125,-3.41796875,-56.640625,0.0
324.19140625,18.06640625,-17.578125,-41.015625,8.7890625,-47.8515625,0.0
324.1953125,5.37109375,-22.94921875,-39.0625,4.39453125,-11.23046875,0.0
324.19921875,4.8828125,-7.8125,-43.45703125,-14.6484375,-30.2734375,0.0
324.203125,13.671875,-7.32421875,-48.828125,1.46484375,-113.28125,0.0
324.20703125,15.13671875,-14.6484375,-53.22265625,0.48828125,-138.18359375,0.0
324.2109375,8.7890625,-17.08984375,-48.828125,-7.8125,-78.61328125,0.0
324.21484375,-1.46484375,-20.01953125,-43.9453125,2.9296875,-12.6953125,0.0
