timestam,TP9,AF7,AF8,TP10,AUX,Marker
225.00390625,-42.48046875,-30.76171875,-31.25,-32.2265625,-7.8125,0.0
225.0078125,-30.76171875,-34.66796875,-31.25,-30.76171875,41.50390625,0.0
225.01171875,-16.11328125,-32.2265625,-31.73828125,-36.1328125,50.29296875,0.0
225.015625,-24.4140625,-33.69140625,-24.90234375,-45.8984375,-0.48828125,0.0
225.01953125,-40.52734375,-33.69140625,-28.80859375,-41.9921875,13.671875,0.0
225.0234375,-45.41015625,-34.66796875,-33.203125,-36.1328125,-52.734375,0.0
225.02734375,-40.52734375,-37.109375,-30.2734375,-42.96875,-145.01953125,0.0
225.03125,-41.50390625,-43.45703125,-25.390625,-51.26953125,-96.6796875,0.0
225.03515625,-41.50390625,-42.48046875,-24.4140625,-46.38671875,-69.3359375,0.0
225.0390625,-44.43359375,-39.55078125,-28.3203125,-41.015625,-92.7734375,0.0
225.04296875,-42.96875,-39.55078125,-32.2265625,-43.9453125,-66.40625,0.0
225.046875,-43.9453125,-36.1328125,-32.71484375,-53.7109375,-62.5,0.0
225.05078125,-32.71484375,-32.2265625,-29.296875,-52.734375,-92.28515625,0.0
225.0546875,-28.3203125,-29.296875,-25.87890625,-39.55078125,-61.5234375,0.0
225.05859375,-40.0390625,-35.64453125,-25.87890625,-29.78515625,-59.5703125,0.0
225.0625,-44.43359375,-38.0859375,-26.3671875,-28.80859375,-149.4140625,0.0
225.06640625,-48.828125,-33.69140625,-26.3671875,-35.64453125,-119.140625,0.0
225.0703125,-54.19921875,-33.203125,-32.71484375,-38.57421875,-23.92578125,0.0
225.07421875,-49.31640625,-41.9921875,-35.64453125,-40.0390625,-40.52734375,0.0
225.078125,-47.36328125,-40.52734375,-33.69140625,-47.8515625,-36.1328125,0.0
225.08203125,-57.12890625,-28.80859375,-39.0625,-50.78125,20.5078125,0.0
225.0859375,-56.15234375,-30.76171875,-33.203125,-48.33984375,11.71875,0.0
225.08984375,-41.50390625,-39.0625,-33.69140625,-48.828125,-32.2265625,0.0
225.09375,-36.1328125,-37.59765625,-40.0390625,-47.36328125,-48.828125,0.0
225.09765625,-43.9453125,-36.62109375,-41.015625,-29.296875,-87.40234375,0.0
225.1015625,-48.828125,-44.43359375,-37.109375,-18.06640625,-78.125,0.0
225.10546875,-37.59765625,-46.38671875,-40.52734375,-29.296875,-92.28515625,0.0
225.109375,-37.59765625,-44.921875,-38.0859375,-43.9453125,-59.5703125,0.0
225.11328125,-40.52734375,-36.62109375,-28.80859375,-49.8046875,-15.13671875,0.0
225.1171875,-33.69140625,-32.2265625,-20.99609375,-30.76171875,-38.57421875,0.0
225.12109375,-33.69140625,-32.71484375,-26.85546875,-23.4375,-4.39453125,0.0
225.125,-30.2734375,-29.296875,-33.69140625,-31.73828125,-15.13671875,0.0
225.12890625,-28.80859375,-30.2734375,-28.80859375,-32.71484375,-24.90234375,0.0
225.1328125,-39.55078125,-32.2265625,-30.2734375,-41.015625,37.109375,0.0
225.13671875,-40.52734375,-34.66796875,-25.87890625,-41.9921875,7.32421875,0.0
225.140625,-44.43359375,-36.62109375,-29.296875,-33.203125,-25.87890625,0.0
225.14453125,-45.8984375,-38.57421875,-40.52734375,-35.64453125,-63.4765625,0.0
225.1484375,-29.296875,-38.57421875,-33.203125,-34.1796875,-48.33984375,0.0
225.15234375,-29.296875,-40.0390625,-34.66796875,-30.76171875,61.5234375,0.0
225.15625,-42.96875,-39.0625,-37.59765625,-46.875,-34.66796875,0.0
225.16015625,-39.55078125,-33.69140625,-32.71484375,-46.38671875,-107.91015625,0.0
225.1640625,-36.1328125,-29.296875,-30.2734375,-28.3203125,-53.22265625,0.0
225.16796875,-36.62109375,-29.296875,-33.69140625,-37.109375,-66.40625,0.0
225.171875,-31.73828125,-34.66796875,-32.2265625,-41.015625,-11.71875,0.0
225.17578125,-33.69140625,-36.62109375,-34.66796875,-30.2734375,58.10546875,0.0
225.1796875,-43.45703125,-32.71484375,-37.109375,-27.83203125,37.109375,0.0
225.18359375,-36.62109375,-33.203125,-27.83203125,-24.90234375,65.91796875,0.0
225.1875,-29.78515625,-31.73828125,-32.2265625,-22.4609375,23.92578125,0.0
225.19140625,-39.55078125,-34.66796875,-32.2265625,-34.66796875,-59.5703125,0.0
225.1953125,-42.96875,-35.15625,-25.390625,-36.62109375,37.59765625,0.0
225.19921875,-42.48046875,-32.71484375,-28.80859375,-38.57421875,64.453125,0.0
225.203125,-43.9453125,-29.78515625,-30.2734375,-31.73828125,-31.73828125,0.0
225.20703125,-38.57421875,-27.34375,-28.80859375,-27.83203125,-124.51171875,0.0
225.2109375,-29.78515625,-32.71484375,-30.2734375,-32.71484375,-72.75390625,0.0
225.21484375,-27.83203125,-35.64453125,-38.0859375,-27.34375,-17.08984375,0.0
225.21875,-30.76171875,-30.2734375,-33.69140625,-25.87890625,-25.390625,0.0
225.22265625,-28.80859375,-30.76171875,-21.484375,-18.06640625,-12.20703125,0.0
225.2265625,-36.1328125,-33.69140625,-13.671875,-16.6015625,-78.125,0.0
225.23046875,-28.80859375,-27.34375,-21.97265625,-32.71484375,-117.1875,0.0
225.234375,-4.39453125,-26.3671875,-36.1328125,-41.50390625,-77.1484375,0.0
225.23828125,-17.578125,-25.87890625,-31.73828125,-28.3203125,-92.28515625,0.0
225.2421875,-42.48046875,-30.76171875,-26.85546875,-28.3203125,-100.09765625,0.0
225.24609375,-36.62109375,-35.15625,-26.3671875,-37.109375,-52.734375,0.0
225.25,-19.04296875,-34.66796875,-29.78515625,-34.1796875,-26.3671875,0.0
225.25390625,-5.859375,-39.0625,-29.78515625,-40.52734375,-40.52734375,0.0
225.2578125,-23.4375,-33.203125,-29.296875,-42.48046875,-20.01953125,0.0
225.26171875,-29.296875,-36.1328125,-41.015625,-34.66796875,-30.2734375,0.0
225.265625,-29.296875,-40.52734375,-41.50390625,-26.85546875,-3.90625,0.0
225.26953125,-53.7109375,-36.62109375,-25.87890625,-24.90234375,-18.5546875,0.0
225.2734375,-50.29296875,-42.48046875,-20.01953125,-24.90234375,-48.828125,0.0
225.27734375,-51.26953125,-36.62109375,-31.73828125,-29.296875,-28.80859375,0.0
225.28125,-58.59375,-24.90234375,-33.203125,-33.203125,-42.96875,0.0
225.28515625,-42.96875,-23.4375,-24.90234375,-36.1328125,-8.30078125,0.0
225.2890625,-40.52734375,-23.92578125,-27.83203125,-31.73828125,15.625,0.0
225.29296875,-45.41015625,-33.69140625,-35.15625,-35.64453125,-37.59765625,0.0
225.296875,-31.25,-36.1328125,-34.1796875,-39.55078125,-71.2890625,0.0
225.30078125,-31.25,-26.3671875,-35.15625,-22.94921875,-123.046875,0.0
225.3046875,-50.29296875,-22.94921875,-37.59765625,-31.73828125,-56.15234375,0.0
225.30859375,-40.0390625,-36.1328125,-39.55078125,-51.7578125,11.23046875,0.0
225.3125,-44.921875,-44.921875,-30.2734375,-41.015625,-75.68359375,0.0
225.31640625,-42.96875,-44.921875,-17.08984375,-36.1328125,-118.1640625,0.0
225.3203125,-32.2265625,-35.15625,-19.04296875,-33.69140625,-65.4296875,0.0
225.32421875,-36.1328125,-24.4140625,-30.2734375,-26.85546875,-33.69140625,0.0
225.328125,-37.109375,-25.87890625,-34.66796875,-38.57421875,3.41796875,0.0
225.33203125,-35.15625,-30.76171875,-37.59765625,-42.48046875,58.59375,0.0
225.3359375,-34.66796875,-27.34375,-34.66796875,-36.1328125,36.1328125,0.0
225.33984375,-46.38671875,-28.3203125,-28.80859375,-35.15625,-34.66796875,0.0
225.34375,-51.7578125,-33.203125,-25.87890625,-35.15625,-74.21875,0.0
225.34765625,-47.36328125,-32.2265625,-37.109375,-41.015625,-71.2890625,0.0
225.3515625,-42.48046875,-30.2734375,-45.8984375,-41.50390625,-39.55078125,0.0
225.35546875,-41.015625,-32.2265625,-40.52734375,-39.0625,-15.625,0.0
225.359375,-37.59765625,-36.62109375,-31.25,-38.0859375,-41.015625,0.0
225.36328125,-33.69140625,-44.43359375,-30.2734375,-21.97265625,-39.0625,0.0
225.3671875,-20.5078125,-31.73828125,-38.57421875,-18.5546875,-13.18359375,0.0
225.37109375,-21.97265625,-13.671875,-42.96875,-26.85546875,0.0,0.0
225.375,-32.2265625,-14.16015625,-45.41015625,-34.1796875,2.9296875,0.0
225.37890625,-40.52734375,-10.25390625,-56.640625,-55.17578125,3.41796875,0.0
225.3828125,-49.31640625,-5.859375,-71.2890625,-63.4765625,-24.4140625,0.0
225.38671875,-23.92578125,-0.9765625,-74.70703125,-66.40625,-69.3359375,0.0
225.390625,-20.01953125,9.765625,-78.61328125,-75.1953125,-60.05859375,0.0
225.39453125,-32.2265625,10.25390625,-81.54296875,-66.40625,-23.92578125,0.0
225.3984375,-40.0390625,7.8125,-81.54296875,-56.15234375,-50.78125,0.0
225.40234375,-54.19921875,6.34765625,-81.0546875,-63.96484375,-119.62890625,0.0
225.40625,-33.69140625,-1.953125,-75.68359375,-68.84765625,-111.328125,0.0
225.41015625,-10.25390625,-3.90625,-72.265625,-65.4296875,-69.82421875,0.0
225.4140625,-19.53125,-2.9296875,-75.68359375,-56.640625,-24.4140625,0.0
225.41796875,-29.296875,-2.44140625,-71.2890625,-47.8515625,-3.41796875,0.0
225.421875,-32.2265625,0.48828125,-61.03515625,-55.17578125,5.37109375,0.0
225.42578125,-35.64453125,-4.8828125,-62.01171875,-57.12890625,-17.578125,0.0
225.4296875,-36.62109375,-20.01953125,-65.4296875,-52.734375,28.80859375,0.0
225.43359375,-40.52734375,-24.4140625,-60.546875,-43.9453125,40.0390625,0.0
225.4375,-36.1328125,-16.11328125,-55.17578125,-47.8515625,-32.71484375,0.0
225.44140625,-29.78515625,-2.44140625,-52.734375,-36.1328125,-42.48046875,0.0
225.4453125,-19.53125,-13.671875,-51.7578125,-31.25,-50.78125,0.0
225.44921875,-21.484375,-14.6484375,-62.5,-45.41015625,-97.65625,0.0
225.453125,-28.80859375,-6.8359375,-54.19921875,-45.8984375,-126.953125,0.0
225.45703125,-27.83203125,-10.7421875,-49.8046875,-44.921875,-25.87890625,0.0
225.4609375,-37.59765625,-13.671875,-50.29296875,-37.109375,-37.109375,0.0
225.46484375,-42.48046875,-19.53125,-36.62109375,-29.296875,-109.375,0.0
225.46875,-30.2734375,-23.4375,-34.66796875,-38.0859375,-83.0078125,0.0
225.47265625,-15.625,-20.5078125,-43.45703125,-44.43359375,-79.1015625,0.0
225.4765625,-32.71484375,-21.97265625,-48.828125,-37.109375,-16.11328125,0.0
225.48046875,-58.10546875,-35.64453125,-44.921875,-31.25,-21.484375,0.0
225.484375,-51.26953125,-30.76171875,-41.015625,-22.4609375,-3.41796875,0.0
225.48828125,-41.9921875,-20.01953125,-33.203125,-33.203125,-13.18359375,0.0
225.4921875,-28.80859375,-23.4375,-31.25,-40.52734375,-74.21875,0.0
225.49609375,-29.78515625,-24.4140625,-41.50390625,-33.203125,-54.6875,0.0
225.5,-43.9453125,-31.73828125,-40.0390625,-18.06640625,9.765625,0.0
225.50390625,-42.96875,-32.2265625,-31.25,-23.92578125,-49.8046875,0.0
225.5078125,-35.64453125,-17.578125,-30.2734375,-41.50390625,-40.0390625,0.0
225.51171875,-14.16015625,-17.08984375,-29.78515625,-37.59765625,-2.44140625,0.0
225.515625,-19.04296875,-24.4140625,-35.15625,-37.109375,-6.34765625,0.0
225.51953125,-51.7578125,-26.3671875,-38.57421875,-33.69140625,-41.9921875,0.0
225.5234375,-54.19921875,-27.34375,-38.0859375,-30.2734375,-80.56640625,0.0
225.52734375,-41.50390625,-38.57421875,-34.1796875,-36.62109375,-72.75390625,0.0
225.53125,-26.3671875,-44.921875,-33.69140625,-30.2734375,-17.08984375,0.0
225.53515625,-31.25,-34.66796875,-29.78515625,-23.92578125,7.32421875,0.0
225.5390625,-48.33984375,-18.06640625,-30.76171875,-17.578125,-20.5078125,0.0
225.54296875,-46.38671875,-17.578125,-31.73828125,-16.11328125,41.50390625,0.0
225.546875,-20.01953125,-21.484375,-31.25,-31.73828125,57.12890625,0.0
225.55078125,-21.484375,-23.92578125,-29.78515625,-33.69140625,8.30078125,0.0
225.5546875,-45.41015625,-39.55078125,-20.99609375,-37.59765625,23.4375,0.0
225.55859375,-47.8515625,-34.66796875,-23.92578125,-35.64453125,74.70703125,0.0
225.5625,-47.8515625,-21.484375,-31.25,-28.80859375,84.47265625,0.0
225.56640625,-41.9921875,-30.76171875,-36.1328125,-38.57421875,62.98828125,0.0
225.5703125,-20.01953125,-36.1328125,-35.64453125,-32.71484375,20.01953125,0.0
225.57421875,-36.1328125,-34.1796875,-31.25,-28.3203125,-60.546875,0.0
225.578125,-59.08203125,-35.64453125,-31.25,-29.296875,-33.69140625,0.0
225.58203125,-50.78125,-27.83203125,-34.66796875,-26.85546875,-7.8125,0.0
225.5859375,-45.41015625,-25.390625,-38.0859375,-33.203125,-63.4765625,0.0
225.58984375,-37.109375,-33.69140625,-39.55078125,-41.50390625,-8.7890625,0.0
225.59375,-28.80859375,-33.203125,-43.9453125,-45.41015625,9.765625,0.0
225.59765625,-30.76171875,-38.0859375,-39.55078125,-42.96875,-4.39453125,0.0
225.6015625,-46.875,-41.015625,-30.76171875,-40.52734375,-65.4296875,0.0
225.60546875,-54.19921875,-32.2265625,-37.59765625,-44.921875,-82.51953125,0.0
225.609375,-34.1796875,-33.203125,-41.9921875,-48.828125,-15.625,0.0
225.61328125,-24.90234375,-32.2265625,-37.109375,-41.9921875,-27.83203125,0.0
225.6171875,-34.66796875,-32.2265625,-28.3203125,-33.69140625,-36.62109375,0.0
225.62109375,-45.41015625,-32.71484375,-36.62109375,-26.85546875,-48.828125,0.0
225.625,-36.62109375,-25.87890625,-35.15625,-26.85546875,-109.86328125,0.0
225.62890625,-24.90234375,-28.80859375,-35.15625,-40.0390625,-142.08984375,0.0
225.6328125,-35.15625,-27.34375,-35.15625,-47.8515625,-145.5078125,0.0
225.63671875,-36.62109375,-28.3203125,-25.390625,-44.43359375,-90.33203125,0.0
225.640625,-44.921875,-36.1328125,-29.296875,-42.96875,-59.08203125,0.0
225.64453125,-45.8984375,-46.38671875,-22.94921875,-35.15625,-79.58984375,0.0
225.6484375,-25.390625,-52.734375,-15.625,-31.73828125,-51.7578125,0.0
225.65234375,-20.01953125,-41.015625,-20.99609375,-42.96875,3.41796875,0.0
225.65625,-36.62109375,-44.43359375,-18.06640625,-32.2265625,65.91796875,0.0
225.66015625,-46.38671875,-42.48046875,-24.4140625,-28.80859375,67.87109375,0.0
225.6640625,-44.43359375,-30.2734375,-29.78515625,-31.73828125,37.59765625,0.0
225.66796875,-27.34375,-33.203125,-29.296875,-25.390625,6.34765625,0.0
225.671875,-31.73828125,-38.0859375,-29.78515625,-22.4609375,-50.78125,0.0
225.67578125,-42.48046875,-39.55078125,-35.15625,-26.3671875,-64.453125,0.0
225.6796875,-46.38671875,-36.62109375,-38.0859375,-29.78515625,16.11328125,0.0
225.68359375,-60.546875,-30.2734375,-26.3671875,-27.83203125,78.125,0.0
225.6875,-47.36328125,-28.80859375,-16.11328125,-36.1328125,-110.83984375,0.0
225.69140625,-39.55078125,-23.92578125,-13.671875,-37.109375,-188.96484375,0.0
225.6953125,-36.1328125,-29.296875,-22.4609375,-29.78515625,-159.66796875,0.0
225.69921875,-21.97265625,-37.109375,-28.3203125,-26.3671875,-226.07421875,0.0
225.703125,-39.0625,-36.1328125,-20.99609375,-24.90234375,-206.54296875,0.0
225.70703125,-48.828125,-36.62109375,-25.390625,-38.0859375,-165.52734375,0.0
225.7109375,-34.1796875,-34.66796875,-30.76171875,-49.31640625,-86.9140625,0.0
225.71484375,-39.55078125,-34.1796875,-27.34375,-41.50390625,-47.36328125,0.0
225.71875,-33.69140625,-31.73828125,-25.390625,-31.73828125,-99.12109375,0.0
225.72265625,-36.62109375,-27.83203125,-31.25,-28.80859375,-102.05078125,0.0
225.7265625,-45.41015625,-29.296875,-35.15625,-35.15625,-112.3046875,0.0
225.73046875,-29.296875,-31.25,-42.48046875,-35.64453125,-202.63671875,0.0
225.734375,-33.69140625,-35.15625,-40.0390625,-41.015625,-193.359375,0.0
225.73828125,-45.41015625,-32.2265625,-28.80859375,-44.921875,-130.37109375,0.0
225.7421875,-44.43359375,-30.2734375,-29.78515625,-30.2734375,-72.265625,0.0
225.74609375,-41.50390625,-39.55078125,-39.0625,-37.59765625,-37.59765625,0.0
225.75,-43.9453125,-34.1796875,-39.0625,-52.24609375,-6.8359375,0.0
225.75390625,-40.0390625,-23.4375,-34.1796875,-45.41015625,-13.671875,0.0
225.7578125,-34.1796875,-31.25,-33.203125,-41.015625,-79.58984375,0.0
225.76171875,-47.36328125,-49.31640625,-33.203125,-41.50390625,-86.9140625,0.0
225.765625,-48.828125,-40.52734375,-33.69140625,-41.50390625,-65.4296875,0.0
225.76953125,-37.59765625,-24.90234375,-32.2265625,-35.15625,5.37109375,0.0
225.7734375,-37.109375,-26.3671875,-30.2734375,-30.2734375,80.56640625,0.0
225.77734375,-23.92578125,-26.85546875,-27.83203125,-21.484375,73.2421875,0.0
225.78125,-33.203125,-33.203125,-18.06640625,-21.484375,49.8046875,0.0
225.78515625,-48.828125,-36.1328125,-20.5078125,-41.015625,36.62109375,0.0
225.7890625,-44.43359375,-36.1328125,-25.87890625,-55.6640625,31.73828125,0.0
225.79296875,-41.9921875,-36.62109375,-34.1796875,-48.33984375,85.9375,0.0
225.796875,-27.34375,-32.71484375,-36.1328125,-43.45703125,58.59375,0.0
225.80078125,-23.4375,-36.62109375,-23.4375,-36.1328125,-14.16015625,0.0
225.8046875,-32.2265625,-44.43359375,-22.94921875,-34.1796875,9.765625,0.0
225.80859375,-31.73828125,-44.921875,-24.90234375,-39.55078125,-3.41796875,0.0
225.8125,-36.62109375,-34.66796875,-29.296875,-42.96875,40.0390625,0.0
225.81640625,-38.0859375,-22.4609375,-30.76171875,-37.59765625,1.46484375,0.0
225.8203125,-32.71484375,-20.5078125,-31.25,-36.62109375,-122.0703125,0.0
225.82421875,-36.62109375,-30.2734375,-27.34375,-25.87890625,-69.82421875,0.0
225.828125,-39.0625,-33.203125,-24.90234375,-24.90234375,-11.23046875,0.0
225.83203125,-33.69140625,-28.3203125,-39.0625,-33.203125,35.64453125,0.0
225.8359375,-31.73828125,-34.1796875,-43.45703125,-20.01953125,1.46484375,0.0
225.83984375,-39.55078125,-38.0859375,-39.55078125,-19.53125,-114.2578125,0.0
225.84375,-37.59765625,-29.296875,-29.78515625,-19.04296875,-145.99609375,0.0
225.84765625,-28.80859375,-26.3671875,-17.578125,-26.3671875,-65.91796875,0.0
225.8515625,-23.4375,-21.97265625,-15.625,-32.71484375,132.32421875,0.0
225.85546875,-31.25,-29.78515625,-15.625,-31.73828125,144.53125,0.0
225.859375,-35.64453125,-34.66796875,-22.94921875,-32.2265625,103.02734375,0.0
225.86328125,-29.78515625,-28.80859375,-30.2734375,-23.4375,53.22265625,0.0
225.8671875,-22.94921875,-35.15625,-25.87890625,-27.34375,-15.13671875,0.0
225.87109375,-18.5546875,-34.1796875,-13.18359375,-16.6015625,-83.0078125,0.0
225.875,-35.15625,-23.4375,-17.578125,-20.01953125,-79.1015625,0.0
225.87890625,-50.78125,-29.296875,-33.203125,-41.50390625,55.6640625,0.0
225.8828125,-51.7578125,-39.55078125,-35.15625,-37.109375,50.78125,0.0
225.88671875,-45.8984375,-38.57421875,-26.3671875,-39.55078125,-47.8515625,0.0
225.890625,-39.0625,-27.83203125,-28.80859375,-44.921875,-14.16015625,0.0
225.89453125,-33.203125,-24.90234375,-30.2734375,-38.0859375,29.296875,0.0
225.8984375,-30.76171875,-24.90234375,-27.34375,-31.25,-5.859375,0.0
225.90234375,-25.87890625,-26.85546875,-30.76171875,-30.76171875,-2.44140625,0.0
225.90625,-33.69140625,-31.25,-35.64453125,-44.43359375,12.20703125,0.0
225.91015625,-37.109375,-34.66796875,-37.109375,-45.8984375,-45.41015625,0.0
225.9140625,-33.203125,-40.52734375,-21.484375,-36.1328125,-107.421875,0.0
225.91796875,-25.390625,-38.57421875,-10.25390625,-25.87890625,-151.85546875,0.0
225.921875,-24.90234375,-38.0859375,-21.97265625,-20.5078125,-91.30859375,0.0
225.92578125,-29.78515625,-40.52734375,-27.83203125,-28.80859375,-31.25,0.0
225.9296875,-22.4609375,-35.64453125,-26.85546875,-38.0859375,-22.4609375,0.0
225.93359375,-30.76171875,-33.69140625,-41.50390625,-31.73828125,-48.828125,0.0
225.9375,-49.8046875,-38.57421875,-41.9921875,-23.4375,-38.57421875,0.0
225.94140625,-41.50390625,-41.50390625,-29.296875,-21.484375,-25.390625,0.0
225.9453125,-30.76171875,-29.78515625,-21.484375,-27.83203125,34.1796875,0.0
225.94921875,-21.97265625,-24.4140625,-22.94921875,-40.0390625,48.828125,0.0
225.953125,-31.73828125,-29.78515625,-36.1328125,-41.015625,44.43359375,0.0
225.95703125,-33.203125,-25.390625,-36.62109375,-29.78515625,52.24609375,0.0
225.9609375,-31.73828125,-28.3203125,-26.85546875,-28.3203125,24.4140625,0.0
225.96484375,-47.36328125,-36.1328125,-26.85546875,-31.25,-46.38671875,0.0
225.96875,-39.55078125,-33.203125,-28.3203125,-34.66796875,-117.67578125,0.0
225.97265625,-25.390625,-30.2734375,-24.90234375,-35.64453125,-119.62890625,0.0
225.9765625,-24.90234375,-40.52734375,-19.53125,-33.69140625,-136.71875,0.0
225.98046875,-34.66796875,-41.015625,-29.296875,-33.203125,-58.10546875,0.0
225.984375,-36.62109375,-30.2734375,-34.66796875,-30.76171875,41.50390625,0.0
225.98828125,-28.3203125,-29.296875,-30.76171875,-19.53125,54.19921875,0.0
225.9921875,-2.9296875,-31.73828125,-30.76171875,-15.13671875,20.99609375,0.0
225.99609375,-12.6953125,-34.1796875,-25.87890625,-22.4609375,-20.5078125,0.0
226.0,-40.0390625,-38.57421875,-20.99609375,-20.99609375,-57.6171875,0.0
226.00390625,-31.25,-38.57421875,-18.06640625,-21.97265625,16.6015625,0.0
226.0078125,-27.83203125,-37.59765625,-21.97265625,-29.78515625,92.7734375,0.0
226.01171875,-33.203125,-35.15625,-29.78515625,-37.59765625,45.41015625,0.0
226.015625,-29.296875,-27.83203125,-34.1796875,-37.109375,-21.484375,0.0
226.01953125,-25.390625,-22.4609375,-29.78515625,-30.76171875,-23.92578125,0.0
226.0234375,-20.5078125,-23.92578125,-26.3671875,-36.1328125,-20.99609375,0.0
226.02734375,-11.71875,-31.73828125,-35.64453125,-44.921875,-63.4765625,0.0
226.03125,-11.71875,-35.15625,-42.96875,-38.57421875,-31.25,0.0
226.03515625,-18.06640625,-35.64453125,-37.109375,-41.015625,-68.359375,0.0
226.0390625,-34.66796875,-44.921875,-30.2734375,-45.41015625,-34.1796875,0.0
226.04296875,-43.9453125,-38.0859375,-30.2734375,-35.15625,-49.31640625,0.0
226.046875,-46.875,-28.3203125,-28.80859375,-26.85546875,-25.87890625,0.0
226.05078125,-42.48046875,-32.2265625,-30.76171875,-36.62109375,56.15234375,0.0
226.0546875,-36.62109375,-39.0625,-38.0859375,-47.8515625,10.7421875,0.0
226.05859375,-47.36328125,-39.0625,-39.55078125,-38.0859375,-54.19921875,0.0
226.0625,-44.43359375,-34.66796875,-31.25,-22.4609375,-52.24609375,0.0
226.06640625,-43.9453125,-37.109375,-27.34375,-28.3203125,15.13671875,0.0
226.0703125,-40.0390625,-41.9921875,-36.62109375,-39.0625,-1.46484375,0.0
226.07421875,-39.55078125,-42.96875,-35.64453125,-35.64453125,-80.078125,0.0
226.078125,-54.6875,-36.62109375,-26.3671875,-34.1796875,-65.4296875,0.0
226.08203125,-50.78125,-27.34375,-30.2734375,-33.69140625,-44.921875,0.0
226.0859375,-35.64453125,-30.2734375,-30.2734375,-36.62109375,11.23046875,0.0
226.08984375,-33.69140625,-37.109375,-30.76171875,-45.8984375,-5.859375,0.0
226.09375,-18.5546875,-36.62109375,-34.1796875,-46.875,-86.9140625,0.0
226.09765625,-26.85546875,-39.55078125,-26.85546875,-34.66796875,-114.2578125,0.0
226.1015625,-44.921875,-40.52734375,-25.390625,-32.2265625,-62.5,0.0
226.10546875,-40.0390625,-36.62109375,-25.390625,-36.62109375,-5.859375,0.0
226.109375,-34.66796875,-36.62109375,-21.484375,-38.57421875,22.94921875,0.0
226.11328125,-38.57421875,-40.0390625,-30.76171875,-39.0625,66.89453125,0.0
226.1171875,-37.109375,-33.69140625,-33.203125,-33.69140625,12.20703125,0.0
226.12109375,-32.2265625,-32.71484375,-31.25,-32.2265625,-6.34765625,0.0
226.125,-27.34375,-41.50390625,-37.109375,-30.2734375,48.828125,0.0
226.12890625,-26.85546875,-40.0390625,-41.015625,-40.0390625,14.16015625,0.0
226.1328125,-16.6015625,-35.15625,-40.52734375,-41.9921875,4.39453125,0.0
226.13671875,-18.5546875,-38.57421875,-39.0625,-42.96875,-44.921875,0.0
226.140625,-46.875,-45.41015625,-36.1328125,-42.48046875,-40.52734375,0.0
226.14453125,-51.7578125,-49.31640625,-38.57421875,-34.66796875,-11.71875,0.0
226.1484375,-36.62109375,-52.24609375,-41.015625,-33.69140625,-59.5703125,0.0
226.15234375,-29.78515625,-48.828125,-36.1328125,-30.76171875,-42.96875,0.0
226.15625,-28.80859375,-41.9921875,-31.73828125,-39.0625,-80.078125,0.0
226.16015625,-25.390625,-41.9921875,-31.25,-36.1328125,-58.10546875,0.0
226.1640625,-27.34375,-35.15625,-31.73828125,-28.80859375,-7.8125,0.0
226.16796875,-30.76171875,-31.25,-34.1796875,-36.1328125,-57.6171875,0.0
226.171875,-20.5078125,-33.203125,-35.15625,-41.015625,-75.68359375,0.0
226.17578125,-10.7421875,-32.2265625,-34.1796875,-35.15625,-63.4765625,0.0
226.1796875,-21.484375,-29.296875,-30.76171875,-33.69140625,-79.1015625,0.0
226.18359375,-22.94921875,-35.15625,-32.71484375,-25.390625,-85.9375,0.0
226.1875,-1.953125,-36.1328125,-36.62109375,-2.44140625,-26.85546875,0.0
226.19140625,-7.8125,-28.3203125,-41.9921875,-23.4375,-54.19921875,0.0
226.1953125,-33.203125,-26.3671875,-43.9453125,-55.6640625,-152.83203125,0.0
226.19921875,-43.9453125,-37.59765625,-30.76171875,-42.96875,-104.98046875,0.0
226.203125,-56.640625,-43.9453125,-29.78515625,-33.69140625,-7.32421875,0.0
226.20703125,-57.12890625,-31.73828125,-34.66796875,-49.31640625,76.66015625,0.0
226.2109375,-41.50390625,-29.296875,-29.296875,-59.08203125,76.66015625,0.0
226.21484375,-41.9921875,-25.390625,-31.73828125,-50.78125,28.3203125,0.0
226.21875,-51.7578125,-21.97265625,-32.71484375,-43.9453125,64.453125,0.0
226.22265625,-56.15234375,-25.390625,-27.34375,-41.9921875,87.890625,0.0
226.2265625,-42.96875,-20.01953125,-25.87890625,-41.9921875,32.71484375,0.0
226.23046875,-36.1328125,-19.04296875,-30.2734375,-51.26953125,-14.16015625,0.0
226.234375,-41.50390625,-27.83203125,-27.83203125,-51.26953125,-26.85546875,0.0
226.23828125,-41.50390625,-31.73828125,-29.296875,-33.203125,-29.78515625,0.0
226.2421875,-48.33984375,-34.1796875,-34.66796875,-27.34375,-36.1328125,0.0
226.24609375,-40.0390625,-34.66796875,-27.83203125,-39.0625,25.87890625,0.0
226.25,-13.18359375,-31.25,-31.25,-26.85546875,38.0859375,0.0
226.25390625,-22.94921875,-32.2265625,-31.25,-20.01953125,-28.80859375,0.0
226.2578125,-44.921875,-32.71484375,-20.5078125,-32.71484375,-34.66796875,0.0
226.26171875,-44.921875,-40.52734375,-17.578125,-22.4609375,-37.109375,0.0
226.265625,-36.62109375,-36.1328125,-20.5078125,-26.3671875,-39.55078125,0.0
226.26953125,-32.2265625,-25.390625,-25.87890625,-32.71484375,-16.6015625,0.0
226.2734375,-39.0625,-35.15625,-29.78515625,-37.109375,-21.484375,0.0
226.27734375,-47.8515625,-36.62109375,-34.1796875,-34.66796875,-54.19921875,0.0
226.28125,-43.45703125,-27.34375,-35.64453125,-26.85546875,-13.18359375,0.0
226.28515625,-36.62109375,-26.3671875,-31.73828125,-20.99609375,39.0625,0.0
226.2890625,-30.76171875,-29.78515625,-39.55078125,-24.90234375,71.77734375,0.0
226.29296875,-20.01953125,-30.76171875,-46.38671875,-39.55078125,8.30078125,0.0
226.296875,-36.62109375,-34.66796875,-43.45703125,-36.62109375,-93.75,0.0
226.30078125,-41.50390625,-29.78515625,-40.0390625,-32.2265625,-63.96484375,0.0
226.3046875,-18.06640625,-23.4375,-16.6015625,-28.3203125,-48.33984375,0.0
226.30859375,-23.92578125,-31.73828125,-14.16015625,-37.59765625,-72.265625,0.0
226.3125,-44.921875,-34.66796875,-31.73828125,-46.875,-60.05859375,0.0
226.31640625,-40.52734375,-38.0859375,-33.203125,-35.15625,-88.8671875,0.0
226.3203125,-37.59765625,-54.6875,-36.1328125,-30.76171875,-102.05078125,0.0
226.32421875,-21.484375,-44.921875,-43.9453125,-32.71484375,-51.26953125,0.0
226.328125,-30.76171875,-30.76171875,-40.52734375,-38.0859375,-103.02734375,0.0
226.33203125,-41.015625,-30.76171875,-41.50390625,-41.50390625,-138.18359375,0.0
226.3359375,-35.64453125,-27.34375,-33.69140625,-28.3203125,-5.37109375,0.0
226.33984375,-43.45703125,-28.3203125,-22.94921875,-25.87890625,36.62109375,0.0
226.34375,-36.1328125,-35.64453125,-30.76171875,-27.34375,-36.1328125,0.0
226.34765625,-23.4375,-30.76171875,-32.71484375,-22.94921875,-82.03125,0.0
226.3515625,-16.11328125,-25.390625,-26.3671875,-25.87890625,-168.45703125,0.0
226.35546875,-25.390625,-32.71484375,-32.2265625,-31.73828125,-99.609375,0.0
226.359375,-49.31640625,-36.62109375,-30.2734375,-27.34375,-79.1015625,0.0
226.36328125,-49.31640625,-40.52734375,-25.390625,-27.34375,-119.62890625,0.0
226.3671875,-33.69140625,-33.69140625,-29.78515625,-31.25,-44.921875,0.0
226.37109375,-31.73828125,-30.2734375,-32.2265625,-34.1796875,-57.12890625,0.0
226.375,-20.01953125,-40.0390625,-32.71484375,-34.1796875,-100.5859375,0.0
226.37890625,-16.11328125,-37.109375,-37.109375,-29.78515625,-41.015625,0.0
226.3828125,-36.1328125,-32.71484375,-34.66796875,-38.57421875,4.39453125,0.0
226.38671875,-41.015625,-39.0625,-34.1796875,-47.36328125,-47.8515625,0.0
226.390625,-39.0625,-34.66796875,-37.109375,-42.48046875,20.99609375,0.0
226.39453125,-35.15625,-27.34375,-31.73828125,-44.43359375,93.26171875,0.0
226.3984375,-23.92578125,-31.25,-29.78515625,-41.015625,83.984375,0.0
226.40234375,-39.0625,-48.33984375,-33.69140625,-43.45703125,75.68359375,0.0
226.40625,-48.33984375,-50.29296875,-36.62109375,-43.9453125,-21.97265625,0.0
226.41015625,-39.55078125,-37.59765625,-31.73828125,-23.4375,-57.12890625,0.0
226.4140625,-34.1796875,-32.71484375,-23.4375,-30.76171875,-20.01953125,0.0
226.41796875,-23.4375,-31.73828125,-21.97265625,-41.50390625,-107.421875,0.0
226.421875,-25.87890625,-39.0625,-28.3203125,-32.2265625,-168.45703125,0.0
226.42578125,-20.01953125,-38.57421875,-31.73828125,-27.83203125,-99.12109375,0.0
226.4296875,-16.6015625,-38.0859375,-27.83203125,-23.92578125,-26.3671875,0.0
226.43359375,-24.4140625,-43.45703125,-26.3671875,-21.484375,4.8828125,0.0
226.4375,-18.5546875,-37.109375,-20.01953125,-27.83203125,5.859375,0.0
226.44140625,-30.76171875,-35.64453125,-13.671875,-34.1796875,7.32421875,0.0
226.4453125,-45.8984375,-35.64453125,-24.4140625,-42.96875,33.203125,0.0
226.44921875,-28.3203125,-27.83203125,-36.62109375,-46.38671875,25.87890625,0.0
226.453125,-19.53125,-21.97265625,-40.0390625,-41.015625,-18.06640625,0.0
226.45703125,-30.2734375,-22.94921875,-34.66796875,-38.57421875,-9.27734375,0.0
226.4609375,-41.015625,-28.80859375,-31.73828125,-40.0390625,-14.6484375,0.0
226.46484375,-36.62109375,-30.2734375,-31.73828125,-38.57421875,-98.6328125,0.0
226.46875,-23.92578125,-26.3671875,-24.90234375,-38.57421875,-77.63671875,0.0
226.47265625,-19.53125,-31.73828125,-30.76171875,-39.0625,-127.44140625,0.0
226.4765625,-30.2734375,-37.109375,-33.203125,-37.59765625,-192.87109375,0.0
226.48046875,-45.41015625,-34.66796875,-28.3203125,-33.69140625,-86.42578125,0.0
226.484375,-44.921875,-32.71484375,-26.85546875,-36.62109375,6.8359375,0.0
226.48828125,-29.296875,-40.52734375,-32.2265625,-37.109375,56.640625,0.0
226.4921875,-25.87890625,-37.109375,-42.96875,-32.71484375,46.875,0.0
226.49609375,-35.15625,-25.87890625,-37.109375,-34.66796875,-49.8046875,0.0
226.5,-37.109375,-30.76171875,-25.87890625,-34.66796875,-195.3125,0.0
226.50390625,-37.109375,-36.1328125,-27.34375,-31.25,-214.84375,0.0
226.5078125,-36.1328125,-29.78515625,-29.296875,-40.52734375,-59.08203125,0.0
226.51171875,-24.4140625,-24.90234375,-35.64453125,-41.9921875,-14.6484375,0.0
226.515625,-26.3671875,-25.87890625,-35.15625,-30.76171875,-112.3046875,0.0
226.51953125,-41.50390625,-27.34375,-31.25,-29.78515625,-163.57421875,0.0
226.5234375,-45.8984375,-31.73828125,-36.1328125,-37.109375,-120.1171875,0.0
226.52734375,-31.73828125,-35.64453125,-37.59765625,-38.0859375,-25.87890625,0.0
226.53125,-14.16015625,-30.2734375,-29.78515625,-37.109375,25.390625,0.0
226.53515625,-11.23046875,-23.92578125,-22.94921875,-36.62109375,9.27734375,0.0
226.5390625,-29.296875,-23.4375,-21.97265625,-27.34375,-17.578125,0.0
226.54296875,-42.48046875,-29.296875,-27.34375,-34.1796875,-32.2265625,0.0
226.546875,-38.57421875,-33.203125,-32.2265625,-47.36328125,-37.109375,0.0
226.55078125,-22.94921875,-24.90234375,-28.3203125,-56.15234375,-56.15234375,0.0
226.5546875,-21.484375,-28.3203125,-28.80859375,-54.6875,-100.09765625,0.0
226.55859375,-46.875,-34.66796875,-30.76171875,-44.921875,-83.49609375,0.0
226.5625,-39.0625,-28.3203125,-28.80859375,-40.52734375,-38.57421875,0.0
226.56640625,-25.87890625,-34.1796875,-34.1796875,-39.55078125,-20.99609375,0.0
226.5703125,-37.59765625,-36.1328125,-36.1328125,-34.66796875,-13.671875,0.0
226.57421875,-29.296875,-37.59765625,-34.1796875,-35.64453125,-26.3671875,0.0
226.578125,-40.0390625,-37.109375,-38.0859375,-33.203125,0.0,0.0
226.58203125,-57.6171875,-26.3671875,-32.71484375,-32.2265625,-23.92578125,0.0
226.5859375,-47.36328125,-21.97265625,-31.25,-35.15625,-89.84375,0.0
226.58984375,-38.57421875,-28.80859375,-34.66796875,-43.45703125,-84.47265625,0.0
226.59375,-35.64453125,-34.66796875,-28.3203125,-44.921875,24.90234375,0.0
226.59765625,-23.4375,-31.73828125,-26.85546875,-34.1796875,14.6484375,0.0
226.6015625,-17.578125,-37.59765625,-36.62109375,-32.71484375,-89.84375,0.0
226.60546875,-29.78515625,-42.96875,-42.48046875,-33.203125,-25.390625,0.0
226.609375,-40.52734375,-36.62109375,-34.66796875,-37.109375,57.6171875,0.0
226.61328125,-37.59765625,-35.64453125,-26.3671875,-40.52734375,20.01953125,0.0
226.6171875,-34.1796875,-30.76171875,-24.90234375,-35.64453125,-7.32421875,0.0
226.62109375,-44.921875,-31.25,-26.3671875,-30.76171875,-23.4375,0.0
226.625,-29.78515625,-32.71484375,-27.83203125,-33.203125,-3.41796875,0.0
226.62890625,-14.16015625,-33.69140625,-28.80859375,-37.59765625,25.87890625,0.0
226.6328125,-27.83203125,-31.73828125,-26.85546875,-41.50390625,-20.01953125,0.0
226.63671875,-29.296875,-28.80859375,-16.11328125,-28.3203125,-72.265625,0.0
226.640625,-34.1796875,-26.85546875,-22.94921875,-17.08984375,-29.78515625,0.0
226.64453125,-32.71484375,-30.76171875,-39.0625,-32.2265625,10.25390625,0.0
226.6484375,-20.01953125,-40.52734375,-39.55078125,-37.59765625,-91.30859375,0.0
226.65234375,-24.4140625,-43.45703125,-33.69140625,-28.80859375,-152.83203125,0.0
226.65625,-25.87890625,-35.15625,-31.73828125,-38.0859375,-152.34375,0.0
226.66015625,-31.25,-23.92578125,-31.25,-36.1328125,-198.2421875,0.0
226.6640625,-46.875,-27.83203125,-27.83203125,-26.3671875,-148.92578125,0.0
226.66796875,-46.38671875,-39.0625,-34.1796875,-28.80859375,-125.9765625,0.0
226.671875,-33.69140625,-44.921875,-37.59765625,-32.2265625,-175.29296875,0.0
226.67578125,-14.6484375,-36.1328125,-34.66796875,-31.73828125,-204.58984375,0.0
226.6796875,-22.4609375,-29.78515625,-31.25,-30.2734375,-186.5234375,0.0
226.68359375,-41.50390625,-41.50390625,-21.484375,-23.92578125,-80.078125,0.0
226.6875,-29.296875,-37.59765625,-22.4609375,-29.296875,-40.52734375,0.0
226.69140625,-16.6015625,-27.83203125,-31.73828125,-43.9453125,-48.828125,0.0
226.6953125,-20.5078125,-22.4609375,-36.1328125,-36.1328125,67.87109375,0.0
226.69921875,-39.0625,-23.92578125,-30.2734375,-18.5546875,176.7578125,0.0
226.703125,-32.71484375,-28.80859375,-22.94921875,-22.4609375,85.44921875,0.0
226.70703125,-22.4609375,-29.78515625,-25.390625,-32.2265625,12.20703125,0.0
226.7109375,-31.25,-32.2265625,-29.78515625,-29.78515625,46.875,0.0
226.71484375,-25.87890625,-34.66796875,-28.80859375,-24.90234375,52.24609375,0.0
226.71875,-27.34375,-41.9921875,-27.34375,-23.92578125,59.5703125,0.0
226.72265625,-35.15625,-39.55078125,-28.80859375,-16.6015625,-65.91796875,0.0
226.7265625,-28.80859375,-36.1328125,-20.5078125,-15.13671875,-147.94921875,0.0
226.73046875,-24.90234375,-37.59765625,-26.85546875,-25.87890625,-98.6328125,0.0
226.734375,-22.4609375,-32.71484375,-36.1328125,-35.15625,-106.4453125,0.0
226.73828125,-33.69140625,-29.78515625,-39.55078125,-40.52734375,-182.12890625,0.0
226.7421875,-44.43359375,-22.4609375,-45.8984375,-41.015625,-182.12890625,0.0
226.74609375,-22.4609375,-13.671875,-41.015625,-40.0390625,-49.8046875,0.0
226.75,-20.99609375,-24.4140625,-28.3203125,-41.9921875,54.19921875,0.0
226.75390625,-29.78515625,-28.80859375,-25.390625,-42.96875,49.8046875,0.0
226.7578125,-27.83203125,-24.4140625,-29.296875,-38.0859375,-3.90625,0.0
226.76171875,-32.2265625,-29.296875,-31.73828125,-47.8515625,-41.50390625,0.0
226.765625,-25.87890625,-34.66796875,-34.66796875,-48.828125,-3.90625,0.0
226.76953125,-25.87890625,-31.25,-25.87890625,-34.66796875,62.01171875,0.0
226.7734375,-33.69140625,-31.25,-26.3671875,-36.62109375,67.3828125,0.0
226.77734375,-45.8984375,-39.0625,-27.34375,-34.1796875,24.4140625,0.0
226.78125,-53.22265625,-40.0390625,-20.5078125,-16.6015625,-44.43359375,0.0
226.78515625,-47.8515625,-29.78515625,-26.85546875,-20.99609375,-53.7109375,0.0
226.7890625,-36.62109375,-27.34375,-33.69140625,-38.57421875,-1.953125,0.0
226.79296875,-29.296875,-31.73828125,-39.55078125,-36.1328125,-14.6484375,0.0
226.796875,-36.1328125,-30.76171875,-35.15625,-35.64453125,-97.65625,0.0
226.80078125,-27.83203125,-28.80859375,-24.90234375,-40.0390625,-83.49609375,0.0
226.8046875,-30.76171875,-26.3671875,-27.83203125,-45.8984375,-29.296875,0.0
226.80859375,-40.52734375,-25.390625,-29.296875,-46.38671875,-25.390625,0.0
226.8125,-45.8984375,-28.80859375,-29.296875,-40.0390625,-87.40234375,0.0
226.81640625,-51.7578125,-37.59765625,-27.34375,-36.1328125,-105.95703125,0.0
226.8203125,-55.17578125,-35.64453125,-27.83203125,-16.11328125,-18.5546875,0.0
226.82421875,-44.43359375,-38.0859375,-30.76171875,-5.37109375,-15.625,0.0
226.828125,-14.6484375,-43.9453125,-37.59765625,-26.3671875,-38.57421875,0.0
226.83203125,-16.6015625,-43.45703125,-40.0390625,-24.4140625,-48.33984375,0.0
226.8359375,-35.15625,-36.1328125,-25.87890625,-24.4140625,25.87890625,0.0
226.83984375,-48.828125,-30.2734375,-21.484375,-32.2265625,66.40625,0.0
226.84375,-51.7578125,-32.71484375,-25.390625,-31.25,8.30078125,0.0
226.84765625,-34.66796875,-26.3671875,-23.92578125,-35.15625,-6.34765625,0.0
226.8515625,-26.85546875,-29.78515625,-21.484375,-36.1328125,-30.76171875,0.0
226.85546875,-24.90234375,-40.52734375,-30.76171875,-36.62109375,3.90625,0.0
226.859375,-16.11328125,-38.0859375,-41.015625,-34.1796875,50.78125,0.0
226.86328125,-30.76171875,-28.80859375,-33.69140625,-31.73828125,31.73828125,0.0
226.8671875,-34.66796875,-21.97265625,-32.71484375,-31.73828125,11.71875,0.0
226.87109375,-12.6953125,-24.4140625,-33.69140625,-30.2734375,5.859375,0.0
226.875,-32.2265625,-25.87890625,-35.15625,-39.55078125,24.90234375,0.0
226.87890625,-54.6875,-27.34375,-37.59765625,-34.1796875,81.0546875,0.0
226.8828125,-57.12890625,-44.43359375,-31.73828125,-23.92578125,52.734375,0.0
226.88671875,-47.8515625,-46.875,-33.69140625,-37.59765625,38.57421875,0.0
226.890625,-36.62109375,-27.83203125,-38.0859375,-56.640625,-0.9765625,0.0
226.89453125,-28.3203125,-23.92578125,-37.109375,-53.22265625,-33.69140625,0.0
226.8984375,-21.484375,-25.390625,-34.66796875,-41.9921875,-8.7890625,0.0
226.90234375,-34.66796875,-30.2734375,-36.1328125,-40.0390625,-20.01953125,0.0
226.90625,-43.9453125,-34.66796875,-34.66796875,-41.9921875,-43.9453125,0.0
226.91015625,-38.0859375,-37.59765625,-39.0625,-41.50390625,-56.640625,0.0
226.9140625,-31.73828125,-28.80859375,-43.45703125,-40.52734375,-30.2734375,0.0
226.91796875,-39.55078125,-24.4140625,-31.73828125,-37.59765625,-59.08203125,0.0
226.921875,-45.8984375,-34.1796875,-26.3671875,-41.9921875,-67.87109375,0.0
226.92578125,-41.015625,-35.64453125,-33.69140625,-41.50390625,-21.97265625,0.0
226.9296875,-32.2265625,-30.76171875,-38.0859375,-43.45703125,5.859375,0.0
226.93359375,-27.34375,-39.0625,-33.69140625,-41.015625,-1.953125,0.0
226.9375,-42.96875,-44.43359375,-25.87890625,-28.80859375,-42.48046875,0.0
226.94140625,-51.7578125,-33.69140625,-22.94921875,-30.2734375,-34.66796875,0.0
226.9453125,-39.0625,-30.2734375,-20.99609375,-20.01953125,-79.58984375,0.0
226.94921875,-19.53125,-36.62109375,-25.390625,-27.83203125,-120.60546875,0.0
226.953125,-40.0390625,-32.2265625,-27.34375,-63.96484375,-30.76171875,0.0
226.95703125,-65.4296875,-31.73828125,-35.64453125,-66.89453125,31.25,0.0
226.9609375,-52.24609375,-41.9921875,-40.0390625,-44.43359375,-23.92578125,0.0
226.96484375,-38.57421875,-32.71484375,-44.43359375,-49.31640625,-83.984375,0.0
226.96875,-32.71484375,-23.4375,-49.31640625,-64.453125,-80.56640625,0.0
226.97265625,-24.90234375,-24.4140625,-49.8046875,-52.734375,-42.96875,0.0
226.9765625,-17.08984375,-24.90234375,-45.8984375,-41.9921875,13.18359375,0.0
226.98046875,-19.53125,-32.71484375,-38.57421875,-34.66796875,27.83203125,0.0
226.984375,-21.97265625,-32.71484375,-40.0390625,-25.390625,53.7109375,0.0
226.98828125,-20.01953125,-30.76171875,-42.96875,-28.3203125,3.90625,0.0
226.9921875,-17.08984375,-25.87890625,-42.48046875,-40.0390625,11.71875,0.0
226.99609375,-20.5078125,-25.87890625,-41.50390625,-39.55078125,52.734375,0.0
227.0,-37.59765625,-30.2734375,-42.96875,-33.69140625,20.99609375,0.0
227.00390625,-42.48046875,-37.109375,-40.52734375,-28.80859375,25.390625,0.0
227.0078125,-19.04296875,-32.2265625,-34.1796875,-37.109375,-10.25390625,0.0
227.01171875,-5.859375,-31.73828125,-27.83203125,-28.80859375,-33.69140625,0.0
227.015625,-27.34375,-34.66796875,-33.69140625,-20.99609375,48.33984375,0.0
227.01953125,-40.0390625,-30.2734375,-43.45703125,-30.76171875,-24.90234375,0.0
227.0234375,-31.25,-33.203125,-35.64453125,-23.4375,-39.0625,0.0
227.02734375,-26.85546875,-34.1796875,-26.3671875,-25.390625,-12.6953125,0.0
227.03125,-21.484375,-26.85546875,-36.62109375,-29.296875,-112.79296875,0.0
227.03515625,-25.390625,-23.4375,-44.921875,-21.484375,-106.4453125,0.0
227.0390625,-36.1328125,-24.90234375,-41.50390625,-17.578125,-85.9375,0.0
227.04296875,-30.76171875,-29.78515625,-34.1796875,-20.01953125,-75.1953125,0.0
227.046875,-22.94921875,-36.1328125,-26.85546875,-27.83203125,-96.19140625,0.0
227.05078125,-23.92578125,-26.85546875,-31.25,-32.2265625,-64.94140625,0.0
227.0546875,-15.13671875,-21.484375,-21.97265625,-24.90234375,-79.1015625,0.0
227.05859375,-16.6015625,-22.94921875,-14.16015625,-24.4140625,-147.4609375,0.0
227.0625,-40.52734375,-26.3671875,-28.3203125,-23.92578125,-12.20703125,0.0
227.06640625,-37.59765625,-27.83203125,-30.76171875,-24.4140625,33.69140625,0.0
227.0703125,-29.78515625,-34.1796875,-31.25,-38.0859375,-20.5078125,0.0
227.07421875,-33.203125,-39.0625,-37.109375,-45.8984375,-4.39453125,0.0
227.078125,-31.73828125,-35.15625,-36.62109375,-33.203125,-65.91796875,0.0
227.08203125,-24.90234375,-34.66796875,-31.25,-22.94921875,6.8359375,0.0
227.0859375,-21.97265625,-34.66796875,-31.73828125,-27.83203125,79.58984375,0.0
227.08984375,-20.99609375,-32.2265625,-40.0390625,-30.2734375,-11.23046875,0.0
227.09375,-18.5546875,-30.76171875,-46.875,-37.109375,-4.8828125,0.0
227.09765625,-31.73828125,-31.25,-43.45703125,-32.2265625,19.04296875,0.0
227.1015625,-46.875,-31.73828125,-20.01953125,-20.5078125,-41.9921875,0.0
227.10546875,-45.8984375,-25.87890625,-23.92578125,-25.87890625,-41.50390625,0.0
227.109375,-35.64453125,-21.97265625,-29.78515625,-29.296875,5.859375,0.0
227.11328125,-27.83203125,-20.99609375,-21.97265625,-19.04296875,-20.01953125,0.0
227.1171875,-19.53125,-18.5546875,-31.73828125,-15.625,-76.171875,0.0
227.12109375,-26.3671875,-19.53125,-34.66796875,-25.87890625,-104.98046875,0.0
227.125,-27.34375,-23.92578125,-26.85546875,-33.69140625,-99.609375,0.0
227.12890625,-16.6015625,-28.3203125,-23.92578125,-32.71484375,-154.296875,0.0
227.1328125,-18.5546875,-27.83203125,-28.80859375,-28.80859375,-164.0625,0.0
227.13671875,-20.99609375,-27.83203125,-32.2265625,-32.2265625,-170.41015625,0.0
227.140625,-19.04296875,-25.390625,-31.25,-31.73828125,-180.17578125,0.0
227.14453125,-19.04296875,-27.34375,-27.83203125,-26.3671875,-184.5703125,0.0
227.1484375,-28.3203125,-28.3203125,-31.73828125,-16.6015625,-132.32421875,0.0
227.15234375,-30.2734375,-27.83203125,-40.52734375,-22.4609375,-114.74609375,0.0
227.15625,-36.62109375,-30.2734375,-34.1796875,-33.203125,-146.484375,0.0
227.16015625,-46.875,-35.64453125,-26.3671875,-31.25,-99.609375,0.0
227.1640625,-41.9921875,-30.2734375,-27.83203125,-32.71484375,-80.078125,0.0
227.16796875,-36.1328125,-26.85546875,-31.25,-41.9921875,-74.21875,0.0
227.171875,-33.203125,-29.78515625,-30.2734375,-41.9921875,-91.796875,0.0
227.17578125,-27.83203125,-28.80859375,-26.3671875,-33.69140625,-138.18359375,0.0
227.1796875,-26.85546875,-24.4140625,-23.4375,-26.85546875,-96.19140625,0.0
227.18359375,-29.78515625,-30.2734375,-26.3671875,-18.5546875,-120.1171875,0.0
227.1875,-26.3671875,-37.109375,-28.80859375,-23.92578125,-112.3046875,0.0
227.19140625,-12.6953125,-27.34375,-29.296875,-34.1796875,5.37109375,0.0
227.1953125,-22.94921875,-29.78515625,-37.59765625,-32.71484375,35.64453125,0.0
227.19921875,-40.0390625,-38.0859375,-36.1328125,-30.76171875,55.6640625,0.0
227.203125,-41.50390625,-31.73828125,-29.78515625,-31.25,74.70703125,0.0
227.20703125,-43.45703125,-31.73828125,-31.73828125,-33.203125,72.75390625,0.0
227.2109375,-25.390625,-38.57421875,-33.69140625,-37.59765625,24.4140625,0.0
227.21484375,-26.85546875,-39.0625,-29.296875,-35.64453125,91.30859375,0.0
227.21875,-40.52734375,-37.59765625,-27.83203125,-30.2734375,143.06640625,0.0
227.22265625,-58.10546875,-41.50390625,-25.390625,-35.15625,57.12890625,0.0
227.2265625,-47.36328125,-48.33984375,-26.3671875,-41.9921875,-0.9765625,0.0
227.23046875,-35.15625,-56.640625,-31.25,-50.78125,19.04296875,0.0
227.234375,-50.78125,-34.1796875,-24.4140625,-57.6171875,-15.625,0.0
227.23828125,-55.6640625,-17.08984375,-21.97265625,-49.31640625,-54.19921875,0.0
227.2421875,-56.15234375,-28.80859375,-28.80859375,-40.52734375,-21.97265625,0.0
227.24609375,-59.5703125,-37.109375,-32.71484375,-50.29296875,31.73828125,0.0
227.25,-48.33984375,-41.9921875,-35.64453125,-54.19921875,1.953125,0.0
227.25390625,-29.78515625,-38.0859375,-41.015625,-46.38671875,-43.9453125,0.0
227.2578125,-42.96875,-36.1328125,-39.0625,-38.0859375,-42.96875,0.0
227.26171875,-51.7578125,-39.55078125,-32.2265625,-43.45703125,44.921875,0.0
227.265625,-47.36328125,-50.29296875,-29.78515625,-45.41015625,104.4921875,0.0
227.26953125,-43.45703125,-52.734375,-30.76171875,-44.921875,99.12109375,0.0
227.2734375,-31.73828125,-38.0859375,-33.69140625,-40.0390625,0.48828125,0.0
227.27734375,-41.9921875,-35.64453125,-33.203125,-29.296875,-56.15234375,0.0
227.28125,-54.19921875,-38.57421875,-30.2734375,-33.203125,31.73828125,0.0
227.28515625,-52.24609375,-38.0859375,-31.25,-40.52734375,91.30859375,0.0
227.2890625,-39.55078125,-35.64453125,-30.76171875,-39.0625,45.8984375,0.0
227.29296875,-32.2265625,-33.69140625,-26.3671875,-39.55078125,-1.46484375,0.0
227.296875,-39.55078125,-32.2265625,-28.80859375,-46.875,10.25390625,0.0
227.30078125,-45.8984375,-40.52734375,-29.296875,-42.96875,-62.5,0.0
227.3046875,-43.9453125,-43.9453125,-23.92578125,-37.109375,-83.984375,0.0
227.30859375,-34.1796875,-32.2265625,-28.3203125,-45.8984375,-111.81640625,0.0
227.3125,-26.3671875,-31.73828125,-31.25,-41.9921875,-229.00390625,0.0
227.31640625,-31.73828125,-30.2734375,-30.2734375,-33.69140625,-195.80078125,0.0
227.3203125,-45.41015625,-28.80859375,-31.73828125,-35.64453125,-158.203125,0.0
227.32421875,-48.33984375,-34.66796875,-29.78515625,-33.69140625,-161.62109375,0.0
227.328125,-31.25,-41.50390625,-29.78515625,-31.25,-129.39453125,0.0
227.33203125,-33.69140625,-39.55078125,-26.3671875,-39.55078125,-103.02734375,0.0
227.3359375,-36.62109375,-30.2734375,-23.4375,-43.45703125,-117.1875,0.0
227.33984375,-41.015625,-25.390625,-22.94921875,-32.71484375,-74.70703125,0.0
227.34375,-48.828125,-26.85546875,-23.92578125,-29.78515625,-46.38671875,0.0
227.34765625,-33.69140625,-36.62109375,-29.296875,-28.80859375,-63.4765625,0.0
227.3515625,-21.484375,-37.59765625,-26.3671875,-33.203125,-137.20703125,0.0
227.35546875,-20.99609375,-33.69140625,-21.484375,-19.04296875,-108.88671875,0.0
227.359375,-29.78515625,-28.80859375,-25.87890625,-13.18359375,-102.05078125,0.0
227.36328125,-50.29296875,-25.390625,-30.2734375,-51.7578125,-64.94140625,0.0
227.3671875,-36.62109375,-26.85546875,-35.15625,-52.734375,-41.9921875,0.0
227.37109375,-11.23046875,-21.484375,-35.15625,-37.59765625,-4.39453125,0.0
227.375,-22.94921875,-22.94921875,-35.15625,-45.8984375,108.88671875,0.0
227.37890625,-39.55078125,-24.90234375,-37.109375,-40.0390625,110.83984375,0.0
227.3828125,-42.48046875,-25.390625,-35.15625,-44.921875,67.87109375,0.0
227.38671875,-33.69140625,-33.69140625,-41.015625,-56.640625,10.25390625,0.0
227.390625,-28.3203125,-32.2265625,-48.828125,-41.50390625,-27.34375,0.0
227.39453125,-36.62109375,-39.55078125,-48.828125,-33.203125,-7.32421875,0.0
227.3984375,-42.48046875,-37.109375,-45.8984375,-33.203125,57.6171875,0.0
227.40234375,-35.64453125,-27.83203125,-40.52734375,-29.78515625,105.46875,0.0
227.40625,-33.203125,-29.296875,-36.62109375,-38.0859375,56.15234375,0.0
227.41015625,-24.4140625,-30.2734375,-32.2265625,-41.015625,11.71875,0.0
227.4140625,-3.41796875,-29.296875,-23.4375,-45.41015625,-44.43359375,0.0
227.41796875,-4.8828125,-29.78515625,-20.01953125,-31.25,-34.66796875,0.0
227.421875,-22.94921875,-32.71484375,-28.80859375,-24.90234375,60.546875,0.0
227.42578125,-33.203125,-33.69140625,-33.203125,-31.25,26.85546875,0.0
227.4296875,-32.2265625,-32.71484375,-25.87890625,-27.83203125,-16.6015625,0.0
227.43359375,-34.66796875,-33.69140625,-28.80859375,-27.83203125,-7.32421875,0.0
227.4375,-44.921875,-39.0625,-31.73828125,-25.390625,-2.9296875,0.0
227.44140625,-52.24609375,-41.9921875,-24.90234375,-11.71875,-39.0625,0.0
227.4453125,-43.9453125,-32.71484375,-26.3671875,-6.34765625,-21.484375,0.0
227.44921875,-39.0625,-29.78515625,-28.80859375,-30.76171875,28.3203125,0.0
227.453125,-29.296875,-38.57421875,-26.85546875,-46.875,19.04296875,0.0
227.45703125,-19.53125,-32.71484375,-27.83203125,-36.1328125,7.32421875,0.0
227.4609375,-32.71484375,-32.71484375,-25.87890625,-25.87890625,9.765625,0.0
227.46484375,-40.52734375,-43.45703125,-20.99609375,-26.3671875,-69.82421875,0.0
227.46875,-40.0390625,-35.15625,-24.90234375,-25.87890625,1.46484375,0.0
227.47265625,-23.92578125,-28.80859375,-30.76171875,-14.6484375,134.27734375,0.0
227.4765625,-15.625,-35.64453125,-22.4609375,-21.97265625,100.5859375,0.0
227.48046875,-38.0859375,-36.62109375,-15.13671875,-29.296875,-11.71875,0.0
227.484375,-44.921875,-40.52734375,-19.04296875,-21.97265625,27.83203125,0.0
227.48828125,-30.2734375,-42.96875,-23.92578125,-22.4609375,22.94921875,0.0
227.4921875,-24.90234375,-37.109375,-29.78515625,-30.76171875,-30.2734375,0.0
227.49609375,-32.2265625,-37.59765625,-33.203125,-30.76171875,-23.4375,0.0
227.5,-46.38671875,-40.0390625,-34.1796875,-36.62109375,-47.8515625,0.0
227.50390625,-46.875,-34.1796875,-27.83203125,-41.9921875,-32.71484375,0.0
227.5078125,-30.76171875,-22.4609375,-22.4609375,-37.59765625,10.7421875,0.0
227.51171875,-29.296875,-29.296875,-24.90234375,-40.52734375,-3.41796875,0.0
227.515625,-23.92578125,-28.80859375,-26.3671875,-44.921875,-1.46484375,0.0
227.51953125,-7.32421875,-21.97265625,-12.20703125,-43.9453125,-13.671875,0.0
227.5234375,-21.97265625,-34.1796875,-15.13671875,-41.50390625,-12.20703125,0.0
227.52734375,-31.73828125,-40.0390625,-39.0625,-44.43359375,17.578125,0.0
227.53125,-25.87890625,-35.64453125,-32.71484375,-47.36328125,-15.625,0.0
227.53515625,-26.85546875,-34.66796875,-26.85546875,-42.96875,0.48828125,0.0
227.5390625,-33.69140625,-37.109375,-28.80859375,-32.71484375,-0.9765625,0.0
227.54296875,-41.015625,-36.62109375,-32.71484375,-26.3671875,20.01953125,0.0
227.546875,-54.19921875,-35.64453125,-42.96875,-32.71484375,41.015625,0.0
227.55078125,-43.45703125,-34.1796875,-40.52734375,-33.69140625,11.23046875,0.0
227.5546875,-33.203125,-26.85546875,-39.0625,-41.9921875,13.671875,0.0
227.55859375,-40.52734375,-35.15625,-40.52734375,-45.41015625,-7.32421875,0.0
227.5625,-46.875,-44.921875,-35.15625,-43.9453125,-85.9375,0.0
227.56640625,-44.921875,-39.55078125,-22.94921875,-50.78125,-102.05078125,0.0
227.5703125,-36.62109375,-38.57421875,-28.80859375,-51.7578125,-70.80078125,0.0
227.57421875,-28.3203125,-37.109375,-28.80859375,-40.52734375,-91.796875,0.0
227.578125,-29.296875,-28.80859375,-24.90234375,-36.1328125,-46.38671875,0.0
227.58203125,-43.45703125,-25.87890625,-28.3203125,-38.0859375,-18.5546875,0.0
227.5859375,-40.52734375,-26.85546875,-31.25,-39.55078125,-9.765625,0.0
227.58984375,-21.484375,-31.73828125,-41.50390625,-45.8984375,-41.50390625,0.0
227.59375,-28.3203125,-31.25,-42.48046875,-41.50390625,-118.65234375,0.0
227.59765625,-40.0390625,-26.85546875,-33.69140625,-35.64453125,-80.56640625,0.0
227.6015625,-42.96875,-29.296875,-30.2734375,-37.109375,5.37109375,0.0
227.60546875,-37.109375,-32.2265625,-31.25,-33.69140625,51.26953125,0.0
227.609375,-41.9921875,-35.64453125,-24.90234375,-35.15625,11.23046875,0.0
227.61328125,-48.33984375,-37.59765625,-27.34375,-39.0625,-95.703125,0.0
227.6171875,-47.36328125,-37.109375,-35.64453125,-48.33984375,-65.91796875,0.0
227.62109375,-46.38671875,-38.0859375,-28.80859375,-49.8046875,-33.69140625,0.0
227.625,-45.8984375,-35.64453125,-25.87890625,-37.109375,-10.25390625,0.0
227.62890625,-39.55078125,-23.4375,-26.3671875,-33.69140625,31.25,0.0
227.6328125,-32.2265625,-20.99609375,-28.3203125,-39.55078125,-87.890625,0.0
227.63671875,-31.25,-33.203125,-24.4140625,-32.71484375,-165.0390625,0.0
227.640625,-32.71484375,-38.57421875,-20.99609375,-38.0859375,-86.42578125,0.0
227.64453125,-39.55078125,-36.1328125,-29.78515625,-42.48046875,-19.53125,0.0
227.6484375,-29.296875,-34.66796875,-32.2265625,-43.45703125,-69.82421875,0.0
227.65234375,-28.80859375,-29.296875,-34.1796875,-41.015625,-77.1484375,0.0
227.65625,-46.875,-29.296875,-37.59765625,-33.203125,-25.87890625,0.0
227.66015625,-50.29296875,-26.85546875,-31.25,-34.1796875,-21.97265625,0.0
227.6640625,-53.22265625,-22.94921875,-28.80859375,-45.8984375,23.4375,0.0
227.66796875,-43.45703125,-28.3203125,-25.390625,-50.29296875,8.30078125,0.0
227.671875,-30.76171875,-32.2265625,-24.4140625,-46.875,-36.62109375,0.0
227.67578125,-31.73828125,-30.76171875,-31.73828125,-46.38671875,-28.3203125,0.0
227.6796875,-28.80859375,-29.296875,-30.2734375,-39.0625,-10.25390625,0.0
227.68359375,-42.48046875,-30.76171875,-30.76171875,-42.48046875,12.20703125,0.0
227.6875,-45.41015625,-31.73828125,-35.15625,-48.33984375,33.203125,0.0
227.69140625,-36.1328125,-40.52734375,-30.2734375,-34.66796875,-18.06640625,0.0
227.6953125,-32.71484375,-35.15625,-28.80859375,-35.15625,-85.9375,0.0
227.69921875,-48.33984375,-26.3671875,-27.83203125,-45.41015625,-50.78125,0.0
227.703125,-64.94140625,-31.73828125,-26.85546875,-38.0859375,-43.9453125,0.0
227.70703125,-51.7578125,-35.15625,-41.50390625,-41.9921875,-83.984375,0.0
227.7109375,-37.109375,-34.66796875,-51.26953125,-45.41015625,-75.1953125,0.0
227.71484375,-38.0859375,-39.55078125,-46.875,-43.9453125,-38.57421875,0.0
227.71875,-42.48046875,-39.55078125,-37.109375,-34.1796875,-19.53125,0.0
227.72265625,-31.25,-27.83203125,-29.78515625,-24.90234375,17.578125,0.0
227.7265625,-33.69140625,-29.78515625,-34.1796875,-41.50390625,4.39453125,0.0
227.73046875,-46.38671875,-32.71484375,-37.59765625,-57.12890625,10.25390625,0.0
227.734375,-44.43359375,-35.64453125,-41.015625,-50.29296875,21.97265625,0.0
227.73828125,-46.875,-39.0625,-43.9453125,-39.55078125,-62.98828125,0.0
227.7421875,-44.921875,-28.80859375,-40.52734375,-25.87890625,-136.23046875,0.0
227.74609375,-33.203125,-26.85546875,-42.48046875,-27.83203125,-112.3046875,0.0
227.75,-28.3203125,-30.76171875,-46.875,-46.875,-110.3515625,0.0
227.75390625,-29.78515625,-35.64453125,-37.59765625,-45.41015625,-53.22265625,0.0
227.7578125,-38.57421875,-41.9921875,-35.64453125,-35.64453125,-23.92578125,0.0
227.76171875,-44.43359375,-42.96875,-32.2265625,-27.83203125,-77.63671875,0.0
227.765625,-50.78125,-42.96875,-39.55078125,-35.64453125,22.4609375,0.0
227.76953125,-44.921875,-32.71484375,-47.36328125,-43.9453125,24.4140625,0.0
227.7734375,-30.76171875,-30.76171875,-36.1328125,-32.71484375,-77.63671875,0.0
227.77734375,-39.0625,-31.73828125,-28.3203125,-27.83203125,57.12890625,0.0
227.78125,-43.45703125,-31.25,-25.87890625,-27.34375,28.3203125,0.0
227.78515625,-26.3671875,-33.69140625,-27.83203125,-32.2265625,-84.47265625,0.0
227.7890625,-26.3671875,-31.25,-28.80859375,-28.80859375,-77.1484375,0.0
227.79296875,-34.66796875,-41.015625,-32.2265625,-16.11328125,-35.64453125,0.0
227.796875,-42.48046875,-37.109375,-38.0859375,-17.578125,-16.11328125,0.0
227.80078125,-41.50390625,-26.3671875,-31.73828125,-34.1796875,-26.85546875,0.0
227.8046875,-37.109375,-32.71484375,-23.92578125,-37.59765625,-91.796875,0.0
227.80859375,-39.0625,-38.0859375,-27.83203125,-40.52734375,-44.43359375,0.0
227.8125,-34.66796875,-33.203125,-31.25,-41.9921875,-18.5546875,0.0
227.81640625,-32.2265625,-30.76171875,-28.3203125,-32.71484375,-107.421875,0.0
227.8203125,-29.296875,-28.3203125,-30.2734375,-27.83203125,-70.3125,0.0
227.82421875,-37.109375,-30.76171875,-34.66796875,-25.87890625,-22.94921875,0.0
227.828125,-48.33984375,-33.203125,-39.0625,-36.62109375,-3.41796875,0.0
227.83203125,-40.52734375,-31.25,-35.64453125,-50.29296875,-11.71875,0.0
227.8359375,-38.57421875,-34.66796875,-24.90234375,-47.8515625,-2.9296875,0.0
227.83984375,-39.0625,-40.0390625,-22.4609375,-37.59765625,6.34765625,0.0
227.84375,-43.9453125,-38.57421875,-27.83203125,-25.87890625,12.6953125,0.0
227.84765625,-39.0625,-38.0859375,-37.59765625,-26.3671875,33.69140625,0.0
227.8515625,-21.97265625,-36.1328125,-36.62109375,-37.59765625,48.33984375,0.0
227.85546875,-37.59765625,-33.69140625,-33.69140625,-32.71484375,25.390625,0.0
227.859375,-40.52734375,-34.66796875,-31.73828125,-20.99609375,-45.41015625,0.0
227.86328125,-32.2265625,-32.71484375,-29.296875,-34.66796875,-126.46484375,0.0
227.8671875,-29.78515625,-28.3203125,-32.71484375,-48.33984375,-56.640625,0.0
227.87109375,-19.53125,-23.4375,-34.1796875,-45.41015625,34.1796875,0.0
227.875,-14.16015625,-30.2734375,-32.71484375,-41.015625,-27.83203125,0.0
227.87890625,-30.76171875,-39.0625,-24.4140625,-35.15625,-33.203125,0.0
227.8828125,-43.45703125,-34.1796875,-24.90234375,-32.71484375,-17.578125,0.0
227.88671875,-22.4609375,-29.296875,-30.2734375,-29.78515625,-26.3671875,0.0
227.890625,-7.32421875,-26.85546875,-33.69140625,-23.92578125,17.08984375,0.0
227.89453125,-31.73828125,-27.83203125,-33.203125,-31.25,33.69140625,0.0
227.8984375,-43.45703125,-33.203125,-31.73828125,-39.0625,-31.73828125,0.0
227.90234375,-36.1328125,-32.2265625,-31.73828125,-30.2734375,-86.9140625,0.0
227.90625,-35.64453125,-38.0859375,-30.2734375,-30.2734375,-93.75,0.0
227.91015625,-40.52734375,-43.9453125,-35.64453125,-43.9453125,-56.640625,0.0
227.9140625,-37.109375,-35.64453125,-39.55078125,-41.50390625,-94.7265625,0.0
227.91796875,-35.15625,-24.90234375,-35.64453125,-30.2734375,-156.73828125,0.0
227.921875,-52.734375,-31.25,-36.62109375,-30.76171875,-69.3359375,0.0
227.92578125,-36.62109375,-28.80859375,-34.1796875,-28.80859375,-51.7578125,0.0
227.9296875,-10.25390625,-21.97265625,-33.69140625,-29.78515625,-67.3828125,0.0
227.93359375,-21.97265625,-29.296875,-29.296875,-28.3203125,-64.94140625,0.0
227.9375,-21.97265625,-20.01953125,-24.90234375,-24.4140625,-90.33203125,0.0
227.94140625,-19.53125,-19.04296875,-30.2734375,-23.4375,-33.203125,0.0
227.9453125,-26.85546875,-29.296875,-34.1796875,-25.390625,20.01953125,0.0
227.94921875,-15.625,-37.109375,-29.78515625,-22.4609375,38.0859375,0.0
227.953125,-4.8828125,-37.59765625,-24.4140625,-23.4375,19.04296875,0.0
227.95703125,-22.4609375,-29.296875,-26.85546875,-23.92578125,-27.83203125,0.0
227.9609375,-38.57421875,-25.390625,-27.34375,-26.3671875,-31.25,0.0
227.96484375,-31.25,-18.06640625,-25.87890625,-24.90234375,22.4609375,0.0
227.96875,-16.11328125,-23.4375,-26.3671875,-25.87890625,31.25,0.0
227.97265625,-5.859375,-36.62109375,-28.80859375,-30.2734375,-17.578125,0.0
227.9765625,-9.765625,-22.94921875,-29.78515625,-20.5078125,3.90625,0.0
227.98046875,-25.390625,-20.01953125,-28.3203125,-20.01953125,81.0546875,0.0
227.984375,-43.45703125,-30.76171875,-34.1796875,-29.78515625,18.06640625,0.0
227.98828125,-39.0625,-36.62109375,-34.1796875,-36.62109375,-25.390625,0.0
227.9921875,-20.99609375,-30.2734375,-29.296875,-39.55078125,-2.44140625,0.0
227.99609375,-26.3671875,-28.3203125,-27.83203125,-39.0625,-26.3671875,0.0
228.0,-43.9453125,-40.0390625,-27.83203125,-30.76171875,-98.6328125,0.0
228.00390625,-28.3203125,-37.109375,-27.83203125,-12.20703125,-54.6875,0.0
228.0078125,-29.296875,-25.87890625,-31.73828125,-27.34375,43.9453125,0.0
228.01171875,-47.36328125,-31.25,-38.57421875,-32.71484375,23.4375,0.0
228.015625,-37.59765625,-33.69140625,-35.64453125,-21.484375,-31.25,0.0
228.01953125,-42.48046875,-35.15625,-31.25,-20.99609375,-28.80859375,0.0
228.0234375,-36.1328125,-32.2265625,-33.69140625,-21.97265625,-47.36328125,0.0
228.02734375,-28.3203125,-33.203125,-32.71484375,-20.5078125,-101.5625,0.0
228.03125,-38.57421875,-44.921875,-37.109375,-28.80859375,-137.6953125,0.0
228.03515625,-43.45703125,-44.921875,-33.203125,-39.0625,-66.40625,0.0
228.0390625,-41.015625,-46.38671875,-26.85546875,-36.1328125,23.4375,0.0
228.04296875,-38.0859375,-48.828125,-21.484375,-24.4140625,15.625,0.0
228.046875,-34.66796875,-37.109375,-23.4375,-22.94921875,39.0625,0.0
228.05078125,-27.34375,-27.34375,-40.0390625,-47.8515625,42.48046875,0.0
228.0546875,-19.53125,-19.04296875,-41.50390625,-47.8515625,-120.60546875,0.0
228.05859375,-37.109375,-20.01953125,-34.66796875,-39.0625,-96.6796875,0.0
228.0625,-60.05859375,-31.25,-38.57421875,-38.0859375,-11.71875,0.0
228.06640625,-62.01171875,-36.62109375,-44.921875,-41.50390625,-15.13671875,0.0
228.0703125,-43.9453125,-29.78515625,-40.0390625,-42.48046875,5.37109375,0.0
228.07421875,-23.92578125,-23.4375,-31.25,-32.71484375,-39.55078125,0.0
228.078125,-42.96875,-28.80859375,-30.76171875,-36.1328125,-149.90234375,0.0
228.08203125,-51.26953125,-35.15625,-33.203125,-38.0859375,-146.97265625,0.0
228.0859375,-44.43359375,-33.69140625,-36.1328125,-38.0859375,46.875,0.0
228.08984375,-37.59765625,-29.296875,-33.69140625,-40.0390625,45.8984375,0.0
228.09375,-20.01953125,-25.87890625,-27.34375,-43.45703125,13.671875,0.0
228.09765625,-29.296875,-34.1796875,-30.2734375,-46.38671875,31.73828125,0.0
228.1015625,-36.62109375,-36.1328125,-39.55078125,-42.96875,6.34765625,0.0
228.10546875,-14.16015625,-35.15625,-30.2734375,-25.390625,8.30078125,0.0
228.109375,-25.390625,-31.25,-11.71875,-25.390625,-12.20703125,0.0
228.11328125,-47.8515625,-35.64453125,-4.39453125,-48.828125,9.27734375,0.0
228.1171875,-42.96875,-38.57421875,-3.90625,-52.24609375,18.06640625,0.0
228.12109375,-37.109375,-39.0625,-4.8828125,-34.66796875,-15.13671875,0.0
228.125,-49.31640625,-53.22265625,-5.37109375,-26.3671875,-5.37109375,0.0
228.12890625,-42.96875,-64.94140625,-13.18359375,-29.78515625,-42.48046875,0.0
228.1328125,-46.875,-63.4765625,-6.8359375,-26.3671875,-120.1171875,0.0
228.13671875,-59.5703125,-57.6171875,0.0,-28.80859375,-109.86328125,0.0
228.140625,-40.52734375,-51.26953125,-7.32421875,-20.5078125,18.06640625,0.0
228.14453125,-48.828125,-49.31640625,-1.46484375,-15.13671875,54.6875,0.0
228.1484375,-59.08203125,-56.640625,1.46484375,-30.76171875,-28.80859375,0.0
228.15234375,-36.1328125,-51.26953125,-9.27734375,-32.71484375,42.96875,0.0
228.15625,-19.53125,-42.48046875,-21.484375,-26.85546875,61.5234375,0.0
228.16015625,-39.55078125,-47.8515625,-27.83203125,-30.2734375,24.90234375,0.0
228.1640625,-41.015625,-47.36328125,-20.01953125,-21.97265625,-21.97265625,0.0
228.16796875,-21.484375,-48.33984375,-12.6953125,-20.99609375,-71.77734375,0.0
228.171875,-23.4375,-49.8046875,-9.765625,-20.5078125,-52.24609375,0.0
228.17578125,-24.90234375,-40.0390625,-11.23046875,-15.13671875,-35.15625,0.0
228.1796875,-24.90234375,-41.50390625,-26.3671875,-20.5078125,-87.890625,0.0
228.18359375,-29.78515625,-37.59765625,-29.296875,-16.11328125,-176.7578125,0.0
228.1875,-9.27734375,-28.3203125,-21.484375,-8.7890625,-122.55859375,0.0
228.19140625,-1.46484375,-30.76171875,-18.06640625,-17.08984375,-20.99609375,0.0
228.1953125,-30.76171875,-37.59765625,-23.92578125,-15.13671875,-28.3203125,0.0
228.19921875,-38.57421875,-33.69140625,-19.53125,-15.13671875,-54.19921875,0.0
228.203125,-45.41015625,-32.2265625,-14.16015625,-19.04296875,-27.83203125,0.0
228.20703125,-39.0625,-34.1796875,-20.01953125,-20.99609375,2.44140625,0.0
228.2109375,-20.5078125,-26.3671875,-22.94921875,-23.4375,-26.85546875,0.0
228.21484375,-31.73828125,-31.25,-24.4140625,-23.92578125,-23.92578125,0.0
228.21875,-46.38671875,-40.0390625,-28.3203125,-37.59765625,-49.8046875,0.0
228.22265625,-35.64453125,-42.96875,-32.71484375,-34.1796875,-62.01171875,0.0
228.2265625,-25.87890625,-38.57421875,-21.484375,-19.04296875,-47.36328125,0.0
228.23046875,-18.5546875,-26.85546875,-17.578125,-26.3671875,-86.9140625,0.0
228.234375,-10.25390625,-24.90234375,-27.83203125,-28.3203125,-98.6328125,0.0
228.23828125,-22.4609375,-26.3671875,-31.25,-28.80859375,-164.55078125,0.0
228.2421875,-33.69140625,-29.296875,-31.25,-26.3671875,-200.1953125,0.0
228.24609375,-31.73828125,-31.73828125,-33.69140625,-24.90234375,-105.46875,0.0
228.25,-13.671875,-31.73828125,-38.57421875,-29.78515625,-116.2109375,0.0
228.25390625,-14.16015625,-32.2265625,-33.203125,-29.296875,-90.8203125,0.0
228.2578125,-39.0625,-34.1796875,-35.64453125,-31.25,-64.94140625,0.0
228.26171875,-51.7578125,-36.62109375,-42.48046875,-17.08984375,-121.09375,0.0
228.265625,-38.0859375,-31.25,-29.78515625,-27.83203125,-36.62109375,0.0
228.26953125,-30.2734375,-30.76171875,-26.3671875,-49.31640625,33.203125,0.0
228.2734375,-37.109375,-41.50390625,-30.76171875,-37.59765625,28.3203125,0.0
228.27734375,-32.2265625,-42.48046875,-32.71484375,-24.90234375,107.421875,0.0
228.28125,-27.83203125,-34.66796875,-32.2265625,-22.94921875,26.3671875,0.0
228.28515625,-24.4140625,-34.66796875,-29.78515625,-24.90234375,-95.21484375,0.0
228.2890625,-8.30078125,-37.109375,-31.73828125,-23.92578125,-79.1015625,0.0
228.29296875,-7.8125,-33.69140625,-39.55078125,-28.80859375,-91.796875,0.0
228.296875,-28.3203125,-37.59765625,-37.109375,-38.0859375,-96.6796875,0.0
228.30078125,-38.0859375,-40.52734375,-31.25,-30.2734375,-41.015625,0.0
228.3046875,-45.8984375,-41.50390625,-31.73828125,-25.87890625,-51.26953125,0.0
228.30859375,-47.8515625,-43.9453125,-31.73828125,-30.2734375,-78.125,0.0
228.3125,-48.33984375,-39.0625,-35.64453125,-34.1796875,-73.73046875,0.0
228.31640625,-45.41015625,-37.59765625,-27.34375,-33.69140625,-53.7109375,0.0
228.3203125,-38.0859375,-32.2265625,-21.97265625,-26.85546875,-41.015625,0.0
228.32421875,-48.33984375,-29.78515625,-43.9453125,-27.83203125,-50.29296875,0.0
228.328125,-42.48046875,-41.9921875,-41.50390625,-33.69140625,-88.37890625,0.0
228.33203125,-42.96875,-41.9921875,-25.87890625,-40.0390625,-49.8046875,0.0
228.3359375,-52.734375,-33.203125,-29.296875,-40.0390625,-10.25390625,0.0
228.33984375,-39.0625,-31.25,-30.2734375,-39.55078125,-6.8359375,0.0
228.34375,-41.9921875,-29.78515625,-27.83203125,-33.69140625,15.625,0.0
228.34765625,-60.05859375,-29.296875,-28.3203125,-37.109375,8.7890625,0.0
228.3515625,-46.38671875,-32.71484375,-29.78515625,-41.50390625,-13.18359375,0.0
228.35546875,-30.2734375,-26.3671875,-41.9921875,-38.57421875,-52.24609375,0.0
228.359375,-46.38671875,-26.3671875,-41.50390625,-36.1328125,-1.953125,0.0
228.36328125,-49.8046875,-37.59765625,-25.87890625,-22.4609375,61.03515625,0.0
228.3671875,-40.0390625,-43.9453125,-28.3203125,-31.25,33.203125,0.0
228.37109375,-47.8515625,-40.52734375,-31.73828125,-40.0390625,25.87890625,0.0
228.375,-48.33984375,-37.109375,-32.2265625,-32.71484375,52.734375,0.0
228.37890625,-42.96875,-32.2265625,-31.73828125,-35.64453125,-0.9765625,0.0
228.3828125,-44.921875,-27.34375,-27.34375,-40.0390625,-36.62109375,0.0
228.38671875,-43.45703125,-31.25,-30.2734375,-40.52734375,-95.21484375,0.0
228.390625,-28.80859375,-35.15625,-34.66796875,-37.109375,-82.51953125,0.0
228.39453125,-24.90234375,-36.1328125,-41.015625,-33.69140625,4.8828125,0.0
228.3984375,-54.19921875,-37.59765625,-39.0625,-36.1328125,-4.39453125,0.0
228.40234375,-56.15234375,-37.59765625,-28.3203125,-45.8984375,25.87890625,0.0
228.40625,-35.64453125,-40.0390625,-29.296875,-50.29296875,15.13671875,0.0
228.41015625,-39.0625,-40.0390625,-33.69140625,-45.41015625,-75.68359375,0.0
228.4140625,-46.38671875,-32.2265625,-35.15625,-40.52734375,-73.73046875,0.0
228.41796875,-50.78125,-33.69140625,-34.66796875,-37.109375,-70.3125,0.0
228.421875,-42.48046875,-41.015625,-29.78515625,-35.15625,-76.66015625,0.0
228.42578125,-20.99609375,-33.203125,-30.2734375,-31.73828125,-40.0390625,0.0
228.4296875,-36.1328125,-29.78515625,-36.1328125,-27.83203125,-130.859375,0.0
228.43359375,-56.15234375,-45.8984375,-36.62109375,-26.3671875,-178.7109375,0.0
228.4375,-53.22265625,-46.38671875,-36.62109375,-30.2734375,-61.5234375,0.0
228.44140625,-61.03515625,-45.8984375,-41.50390625,-39.55078125,-20.01953125,0.0
228.4453125,-55.17578125,-41.015625,-37.59765625,-38.0859375,60.05859375,0.0
228.44921875,-32.71484375,-25.390625,-32.2265625,-38.0859375,94.23828125,0.0
228.453125,-27.83203125,-25.390625,-32.2265625,-48.33984375,60.546875,0.0
228.45703125,-30.76171875,-28.3203125,-30.76171875,-40.0390625,124.0234375,0.0
228.4609375,-39.0625,-32.71484375,-38.0859375,-43.9453125,39.55078125,0.0
228.46484375,-46.38671875,-41.9921875,-41.015625,-44.921875,-40.0390625,0.0
228.46875,-40.0390625,-36.62109375,-31.25,-32.2265625,-47.36328125,0.0
228.47265625,-34.1796875,-28.80859375,-28.3203125,-46.38671875,-46.38671875,0.0
228.4765625,-34.1796875,-32.71484375,-31.25,-53.7109375,6.8359375,0.0
228.48046875,-25.87890625,-27.83203125,-24.90234375,-35.15625,-24.90234375,0.0
228.484375,-25.390625,-28.80859375,-27.83203125,-34.1796875,-131.8359375,0.0
228.48828125,-23.4375,-33.203125,-37.109375,-41.50390625,-218.75,0.0
228.4921875,-25.87890625,-25.390625,-30.2734375,-40.0390625,-100.09765625,0.0
228.49609375,-16.11328125,-32.2265625,-20.5078125,-35.64453125,41.015625,0.0
228.5,-8.30078125,-34.66796875,-24.90234375,-27.34375,29.78515625,0.0
228.50390625,-34.66796875,-28.3203125,-33.203125,-24.4140625,19.04296875,0.0
228.5078125,-34.1796875,-25.87890625,-35.64453125,-18.06640625,-26.3671875,0.0
228.51171875,-17.08984375,-21.484375,-29.78515625,-23.92578125,-17.578125,0.0
228.515625,-30.2734375,-26.85546875,-33.203125,-35.15625,-1.46484375,0.0
228.51953125,-38.0859375,-31.25,-30.2734375,-30.2734375,39.55078125,0.0
228.5234375,-44.43359375,-30.2734375,-26.3671875,-39.55078125,13.671875,0.0
228.52734375,-42.48046875,-30.76171875,-30.2734375,-42.48046875,-21.97265625,0.0
228.53125,-35.64453125,-29.78515625,-38.57421875,-33.203125,22.4609375,0.0
228.53515625,-38.57421875,-25.87890625,-35.64453125,-31.73828125,32.71484375,0.0
228.5390625,-39.55078125,-26.3671875,-20.01953125,-31.73828125,-14.6484375,0.0
228.54296875,-43.45703125,-30.2734375,-23.92578125,-40.52734375,-47.36328125,0.0
228.546875,-36.62109375,-34.1796875,-35.15625,-41.015625,6.8359375,0.0
228.55078125,-22.4609375,-33.203125,-39.55078125,-39.0625,-28.3203125,0.0
228.5546875,-18.06640625,-30.76171875,-35.64453125,-32.71484375,-25.390625,0.0
228.55859375,-23.4375,-35.15625,-34.66796875,-20.99609375,31.25,0.0
228.5625,-17.08984375,-35.64453125,-35.15625,-23.4375,20.01953125,0.0
228.56640625,-30.76171875,-28.80859375,-35.15625,-32.71484375,-28.80859375,0.0
228.5703125,-41.50390625,-23.92578125,-35.64453125,-34.1796875,-7.8125,0.0
228.57421875,-24.4140625,-21.97265625,-35.15625,-41.015625,27.83203125,0.0
228.578125,-29.78515625,-20.99609375,-35.15625,-32.2265625,-26.3671875,0.0
228.58203125,-36.1328125,-27.34375,-35.64453125,-20.5078125,0.0,0.0
228.5859375,-14.16015625,-32.71484375,-22.4609375,-32.2265625,46.875,0.0
228.58984375,-13.671875,-29.296875,-25.87890625,-39.55078125,0.0,0.0
228.59375,-27.83203125,-26.3671875,-36.62109375,-33.203125,-13.18359375,0.0
228.59765625,-40.0390625,-33.69140625,-27.34375,-29.78515625,-25.87890625,0.0
228.6015625,-52.734375,-41.50390625,-10.25390625,-38.0859375,-30.76171875,0.0
228.60546875,-53.22265625,-42.48046875,-22.94921875,-43.45703125,8.7890625,0.0
228.609375,-40.0390625,-40.0390625,-37.59765625,-38.0859375,42.96875,0.0
228.61328125,-39.0625,-41.50390625,-37.59765625,-44.921875,17.578125,0.0
228.6171875,-46.38671875,-35.15625,-36.1328125,-36.62109375,-55.17578125,0.0
228.62109375,-58.10546875,-30.2734375,-36.62109375,-32.2265625,-144.04296875,0.0
228.625,-59.08203125,-38.0859375,-37.109375,-34.66796875,-153.80859375,0.0
228.62890625,-43.45703125,-36.1328125,-29.78515625,-38.57421875,-58.10546875,0.0
228.6328125,-37.59765625,-33.203125,-26.85546875,-47.36328125,-81.0546875,0.0
228.63671875,-42.96875,-36.62109375,-31.25,-38.0859375,-104.98046875,0.0
228.640625,-51.7578125,-38.0859375,-35.15625,-31.25,-1.46484375,0.0
228.64453125,-50.78125,-40.0390625,-19.53125,-40.52734375,18.06640625,0.0
228.6484375,-42.96875,-40.0390625,-15.13671875,-52.24609375,1.953125,0.0
228.65234375,-34.66796875,-35.64453125,-27.34375,-40.0390625,27.34375,0.0
228.65625,-44.921875,-34.66796875,-28.80859375,-31.25,-5.859375,0.0
228.66015625,-44.921875,-36.62109375,-31.25,-31.73828125,2.9296875,0.0
228.6640625,-20.5078125,-35.15625,-30.76171875,-20.01953125,24.4140625,0.0
228.66796875,-32.2265625,-40.0390625,-33.69140625,-32.71484375,-25.87890625,0.0
228.671875,-45.8984375,-39.55078125,-35.15625,-44.43359375,-81.54296875,0.0
228.67578125,-42.96875,-36.1328125,-31.73828125,-43.45703125,-69.3359375,0.0
228.6796875,-40.0390625,-38.0859375,-32.2265625,-45.41015625,-30.76171875,0.0
228.68359375,-36.1328125,-44.43359375,-34.66796875,-41.9921875,13.671875,0.0
228.6875,-38.0859375,-46.38671875,-35.64453125,-38.0859375,8.7890625,0.0
228.69140625,-44.43359375,-39.55078125,-27.34375,-41.015625,-50.78125,0.0
228.6953125,-41.015625,-33.203125,-22.4609375,-41.9921875,-69.3359375,0.0
228.69921875,-26.3671875,-30.2734375,-34.66796875,-33.203125,-49.8046875,0.0
228.703125,-32.71484375,-36.1328125,-41.50390625,-33.203125,-50.29296875,0.0
228.70703125,-46.38671875,-34.66796875,-38.57421875,-38.57421875,-18.5546875,0.0
228.7109375,-41.50390625,-31.25,-38.0859375,-35.64453125,2.44140625,0.0
228.71484375,-39.55078125,-35.15625,-35.15625,-35.15625,-9.765625,0.0
228.71875,-40.0390625,-34.66796875,-31.73828125,-29.78515625,46.38671875,0.0
228.72265625,-42.48046875,-31.25,-35.64453125,-27.34375,69.82421875,0.0
228.7265625,-31.73828125,-36.62109375,-38.0859375,-42.96875,-112.3046875,0.0
228.73046875,-17.578125,-46.875,-40.0390625,-41.50390625,-268.06640625,0.0
228.734375,-17.08984375,-41.9921875,-23.4375,-32.2265625,-263.671875,0.0
228.73828125,-32.2265625,-32.2265625,-16.6015625,-26.3671875,-189.453125,0.0
228.7421875,-42.48046875,-32.2265625,-27.83203125,-25.87890625,-99.609375,0.0
228.74609375,-36.1328125,-38.0859375,-26.85546875,-31.25,-74.70703125,0.0
228.75,-27.34375,-36.62109375,-19.04296875,-27.34375,-92.7734375,0.0
228.75390625,-17.08984375,-29.78515625,-20.99609375,-26.85546875,-61.03515625,0.0
228.7578125,-25.390625,-29.78515625,-32.2265625,-24.4140625,1.953125,0.0
228.76171875,-33.203125,-27.83203125,-23.92578125,-15.625,16.6015625,0.0
228.765625,-29.78515625,-25.87890625,-19.04296875,-24.90234375,5.859375,0.0
228.76953125,-21.484375,-27.34375,-25.87890625,-41.9921875,28.3203125,0.0
228.7734375,-19.04296875,-29.296875,-30.2734375,-39.0625,17.578125,0.0
228.77734375,-37.59765625,-31.25,-28.3203125,-24.90234375,-73.2421875,0.0
228.78125,-46.875,-29.78515625,-11.23046875,-20.99609375,-35.64453125,0.0
228.78515625,-44.43359375,-30.2734375,-20.5078125,-29.296875,-7.8125,0.0
228.7890625,-35.15625,-32.2265625,-39.55078125,-26.3671875,-85.9375,0.0
228.79296875,-21.97265625,-32.2265625,-35.64453125,-22.4609375,-99.609375,0.0
228.796875,-25.390625,-31.25,-29.296875,-33.69140625,-43.9453125,0.0
228.80078125,-44.921875,-32.2265625,-36.1328125,-29.78515625,-41.50390625,0.0
228.8046875,-44.43359375,-29.296875,-40.52734375,-28.80859375,-18.06640625,0.0
228.80859375,-37.109375,-30.2734375,-37.59765625,-35.15625,-20.99609375,0.0
228.8125,-36.1328125,-37.59765625,-39.0625,-48.33984375,-5.859375,0.0
228.81640625,-38.57421875,-38.57421875,-41.015625,-48.828125,-28.80859375,0.0
228.8203125,-45.8984375,-35.15625,-40.0390625,-39.0625,-9.27734375,0.0
228.82421875,-49.8046875,-38.57421875,-36.62109375,-38.57421875,58.10546875,0.0
228.828125,-42.96875,-38.0859375,-35.15625,-47.36328125,30.2734375,0.0
228.83203125,-42.96875,-29.78515625,-38.57421875,-46.38671875,24.90234375,0.0
228.8359375,-49.8046875,-31.25,-39.55078125,-37.59765625,64.453125,0.0
228.83984375,-49.8046875,-36.1328125,-35.64453125,-37.59765625,2.9296875,0.0
228.84375,-42.96875,-40.52734375,-34.1796875,-40.52734375,-29.78515625,0.0
228.84765625,-42.48046875,-41.50390625,-36.1328125,-38.57421875,7.8125,0.0
228.8515625,-37.59765625,-32.2265625,-33.203125,-39.0625,-46.875,0.0
228.85546875,-41.50390625,-32.2265625,-36.1328125,-39.55078125,-97.16796875,0.0
228.859375,-53.22265625,-38.0859375,-44.921875,-37.109375,18.06640625,0.0
228.86328125,-41.9921875,-32.2265625,-43.9453125,-33.203125,52.734375,0.0
228.8671875,-38.0859375,-23.92578125,-40.0390625,-38.57421875,-17.08984375,0.0
228.87109375,-31.25,-28.80859375,-32.71484375,-42.48046875,-60.546875,0.0
228.875,-33.203125,-36.1328125,-30.76171875,-46.875,-133.7890625,0.0
228.87890625,-43.9453125,-36.62109375,-39.0625,-41.9921875,-95.703125,0.0
228.8828125,-41.015625,-37.109375,-37.59765625,-28.3203125,8.7890625,0.0
228.88671875,-44.43359375,-35.15625,-36.1328125,-35.15625,-47.36328125,0.0
228.890625,-43.9453125,-29.296875,-38.0859375,-41.50390625,-109.375,0.0
228.89453125,-32.2265625,-27.34375,-34.66796875,-26.3671875,-38.57421875,0.0
228.8984375,-34.1796875,-29.78515625,-32.71484375,-22.94921875,24.90234375,0.0
228.90234375,-45.41015625,-36.62109375,-37.109375,-33.203125,38.0859375,0.0
228.90625,-41.50390625,-43.9453125,-42.48046875,-38.0859375,-45.8984375,0.0
228.91015625,-21.97265625,-38.57421875,-42.96875,-35.64453125,-95.21484375,0.0
228.9140625,-19.53125,-31.73828125,-34.66796875,-30.2734375,-47.8515625,0.0
228.91796875,-28.80859375,-32.71484375,-25.390625,-29.296875,-65.91796875,0.0
228.921875,-43.45703125,-39.55078125,-30.2734375,-25.390625,-28.3203125,0.0
228.92578125,-33.203125,-42.48046875,-33.69140625,-22.4609375,-12.6953125,0.0
228.9296875,-26.3671875,-33.203125,-30.2734375,-28.3203125,-84.47265625,0.0
228.93359375,-30.76171875,-23.92578125,-33.69140625,-33.203125,-38.0859375,0.0
228.9375,-24.4140625,-28.3203125,-33.69140625,-26.3671875,-2.9296875,0.0
228.94140625,-41.015625,-31.25,-33.203125,-24.90234375,-24.90234375,0.0
228.9453125,-52.24609375,-37.59765625,-43.45703125,-24.90234375,-71.77734375,0.0
228.94921875,-39.55078125,-37.109375,-48.33984375,-34.66796875,-61.03515625,0.0
228.953125,-34.66796875,-35.15625,-47.8515625,-41.015625,-59.08203125,0.0
228.95703125,-27.34375,-32.2265625,-39.0625,-23.92578125,-152.34375,0.0
228.9609375,-29.296875,-24.4140625,-32.71484375,-24.4140625,-183.59375,0.0
228.96484375,-41.015625,-25.87890625,-32.71484375,-30.76171875,-23.4375,0.0
228.96875,-21.484375,-27.34375,-28.80859375,-22.4609375,67.3828125,0.0
228.97265625,-12.6953125,-33.203125,-28.3203125,-28.80859375,18.5546875,0.0
228.9765625,-40.52734375,-36.62109375,-7.8125,-26.85546875,-20.01953125,0.0
228.98046875,-45.41015625,-34.1796875,-6.8359375,-20.99609375,6.34765625,0.0
228.984375,-29.78515625,-31.25,-33.69140625,-26.3671875,-26.85546875,0.0
228.98828125,-21.97265625,-29.296875,-41.9921875,-25.390625,-36.1328125,0.0
228.9921875,-25.390625,-25.87890625,-46.875,-30.2734375,14.16015625,0.0
228.99609375,-36.1328125,-25.390625,-45.8984375,-41.50390625,-62.98828125,0.0
229.0,-45.8984375,-30.2734375,-38.57421875,-34.66796875,-91.30859375,0.0
229.00390625,-40.0390625,-29.296875,-34.66796875,-33.203125,-36.1328125,0.0
229.0078125,-30.2734375,-27.34375,-33.69140625,-41.9921875,-87.40234375,0.0
229.01171875,-24.90234375,-29.296875,-35.64453125,-37.109375,-89.84375,0.0
229.015625,-26.3671875,-29.78515625,-35.64453125,-31.25,-58.59375,0.0
229.01953125,-60.05859375,-31.25,-39.0625,-39.0625,-73.2421875,0.0
229.0234375,-59.5703125,-27.83203125,-40.52734375,-38.0859375,-107.91015625,0.0
229.02734375,-43.45703125,-23.4375,-37.59765625,-44.43359375,-81.0546875,0.0
229.03125,-46.875,-25.87890625,-35.64453125,-45.8984375,-1.953125,0.0
229.03515625,-40.0390625,-24.4140625,-24.90234375,-38.0859375,-27.34375,0.0
229.0390625,-41.015625,-25.390625,-29.296875,-37.59765625,-41.015625,0.0
229.04296875,-41.50390625,-28.80859375,-38.57421875,-33.203125,-31.73828125,0.0
229.046875,-29.296875,-31.73828125,-37.109375,-33.69140625,-22.94921875,0.0
229.05078125,-2.9296875,-27.34375,-40.52734375,-29.296875,72.265625,0.0
229.0546875,-0.48828125,-16.11328125,-35.64453125,-22.94921875,48.33984375,0.0
229.05859375,-6.34765625,-22.94921875,-37.109375,-27.83203125,-70.3125,0.0
229.0625,-6.8359375,-28.3203125,-31.25,-29.78515625,-93.26171875,0.0
229.06640625,-19.04296875,-27.83203125,-14.16015625,-24.90234375,-98.6328125,0.0
229.0703125,-21.97265625,-34.1796875,-28.80859375,-27.83203125,-141.11328125,0.0
229.07421875,-21.97265625,-36.1328125,-37.109375,-21.97265625,-129.39453125,0.0
229.078125,-13.18359375,-25.87890625,-25.87890625,-11.71875,-118.1640625,0.0
229.08203125,-21.97265625,-23.92578125,-30.2734375,-11.71875,-113.76953125,0.0
229.0859375,-30.76171875,-29.296875,-31.25,-14.6484375,-73.2421875,0.0
229.08984375,-8.30078125,-36.62109375,-22.94921875,-25.87890625,-69.82421875,0.0
229.09375,-20.99609375,-32.71484375,-17.08984375,-24.4140625,-72.265625,0.0
229.09765625,-43.45703125,-26.3671875,-19.04296875,-13.18359375,-58.10546875,0.0
229.1015625,-41.50390625,-25.390625,-25.87890625,-10.25390625,-86.9140625,0.0
229.10546875,-40.52734375,-15.625,-37.109375,-25.87890625,-2.9296875,0.0
229.109375,-33.203125,-15.13671875,-28.3203125,-33.203125,41.9921875,0.0
229.11328125,-38.57421875,-25.390625,-18.06640625,-33.69140625,-15.625,0.0
229.1171875,-54.19921875,-29.296875,-28.3203125,-30.76171875,18.5546875,0.0
229.12109375,-48.33984375,-36.1328125,-33.69140625,-16.6015625,-2.9296875,0.0
229.125,-32.71484375,-35.64453125,-27.83203125,-20.01953125,-39.0625,0.0
229.12890625,-34.1796875,-29.78515625,-24.4140625,-24.4140625,20.99609375,0.0
229.1328125,-11.71875,-29.296875,-27.83203125,5.859375,5.37109375,0.0
229.13671875,-18.06640625,-25.390625,-31.73828125,-5.859375,-52.24609375,0.0
229.140625,-69.3359375,-26.3671875,-29.78515625,-50.29296875,-114.2578125,0.0
229.14453125,-70.3125,-27.83203125,-31.25,-60.546875,-103.515625,0.0
229.1484375,-62.98828125,-29.296875,-30.2734375,-75.68359375,-70.3125,0.0
229.15234375,-75.68359375,-29.78515625,-34.66796875,-82.51953125,-48.828125,0.0
229.15625,-95.703125,-39.0625,-27.34375,-81.54296875,-90.8203125,0.0
229.16015625,-96.6796875,-41.50390625,-33.203125,-84.9609375,-32.2265625,0.0
229.1640625,-85.44921875,-34.1796875,-55.6640625,-87.890625,21.97265625,0.0
229.16796875,-86.42578125,-36.62109375,-54.6875,-84.47265625,-62.5,0.0
229.171875,-75.1953125,-40.0390625,-36.62109375,-69.82421875,-53.22265625,0.0
229.17578125,-69.3359375,-32.71484375,-30.2734375,-61.03515625,-92.28515625,0.0
229.1796875,-76.66015625,-36.1328125,-30.76171875,-62.98828125,-122.0703125,0.0
229.18359375,-81.0546875,-41.50390625,-33.203125,-65.4296875,-17.08984375,0.0
229.1875,-63.96484375,-37.109375,-37.109375,-60.546875,19.04296875,0.0
229.19140625,-35.64453125,-34.1796875,-38.0859375,-56.15234375,48.828125,0.0
229.1953125,-26.3671875,-33.69140625,-39.0625,-51.7578125,66.89453125,0.0
229.19921875,-36.62109375,-39.0625,-26.85546875,-41.50390625,4.8828125,0.0
229.203125,-51.7578125,-37.109375,-10.7421875,-27.34375,8.7890625,0.0
229.20703125,-41.9921875,-30.76171875,-25.390625,-41.9921875,38.0859375,0.0
229.2109375,-45.41015625,-30.76171875,-39.55078125,-46.875,30.2734375,0.0
229.21484375,-46.875,-20.5078125,-38.57421875,-47.36328125,-12.6953125,0.0
229.21875,-49.8046875,-22.4609375,-33.203125,-56.640625,-20.01953125,0.0
229.22265625,-50.29296875,-28.3203125,-31.25,-46.38671875,10.25390625,0.0
229.2265625,-44.43359375,-27.83203125,-35.64453125,-49.8046875,-57.6171875,0.0
229.23046875,-47.8515625,-33.69140625,-38.0859375,-62.5,-79.58984375,0.0
229.234375,-46.38671875,-32.2265625,-42.48046875,-61.5234375,-19.53125,0.0
229.23828125,-47.36328125,-24.90234375,-39.55078125,-46.875,-13.671875,0.0
229.2421875,-45.8984375,-29.296875,-20.5078125,-28.80859375,26.85546875,0.0
229.24609375,-27.83203125,-31.25,-6.34765625,-36.62109375,27.83203125,0.0
229.25,-17.08984375,-21.484375,-21.484375,-38.0859375,-1.953125,0.0
229.25390625,-22.94921875,-22.94921875,-31.73828125,-31.25,-98.14453125,0.0
229.2578125,-28.80859375,-27.83203125,-25.390625,-43.45703125,-103.515625,0.0
229.26171875,-25.87890625,-29.296875,-13.671875,-37.109375,16.11328125,0.0
229.265625,-29.296875,-34.66796875,-26.85546875,-38.57421875,22.94921875,0.0
229.26953125,-28.80859375,-33.69140625,-31.25,-49.31640625,72.75390625,0.0
229.2734375,-29.78515625,-26.85546875,-29.296875,-41.9921875,79.58984375,0.0
229.27734375,-35.15625,-24.4140625,-38.57421875,-41.9921875,42.48046875,0.0
229.28125,-38.0859375,-26.85546875,-35.15625,-46.875,14.16015625,0.0
229.28515625,-40.52734375,-28.80859375,-24.4140625,-37.109375,-26.85546875,0.0
229.2890625,-43.9453125,-32.71484375,-18.5546875,-37.59765625,-26.3671875,0.0
229.29296875,-49.31640625,-28.3203125,-21.97265625,-43.9453125,-7.8125,0.0
229.296875,-43.45703125,-38.57421875,-24.4140625,-43.9453125,-38.57421875,0.0
229.30078125,-41.015625,-42.48046875,-34.66796875,-47.8515625,-9.765625,0.0
229.3046875,-48.33984375,-32.71484375,-34.1796875,-41.50390625,16.6015625,0.0
229.30859375,-38.0859375,-38.0859375,-17.08984375,-39.0625,-68.359375,0.0
229.3125,-24.4140625,-45.41015625,-22.4609375,-37.59765625,-105.46875,0.0
229.31640625,-28.3203125,-34.1796875,-26.3671875,-33.69140625,-64.453125,0.0
229.3203125,-44.921875,-28.80859375,-22.4609375,-30.2734375,-0.9765625,0.0
229.32421875,-48.33984375,-39.55078125,-30.76171875,-27.34375,13.671875,0.0
229.328125,-31.73828125,-42.48046875,-34.1796875,-27.34375,-44.43359375,0.0
229.33203125,-35.64453125,-29.296875,-37.109375,-41.9921875,-41.9921875,0.0
229.3359375,-40.0390625,-19.04296875,-37.59765625,-49.8046875,-32.71484375,0.0
229.33984375,-38.0859375,-28.80859375,-31.73828125,-41.9921875,-21.97265625,0.0
229.34375,-42.48046875,-33.69140625,-33.69140625,-27.83203125,-22.4609375,0.0
229.34765625,-34.1796875,-27.83203125,-37.109375,-26.3671875,-6.8359375,0.0
229.3515625,-20.5078125,-28.3203125,-10.25390625,-32.2265625,-13.671875,0.0
229.35546875,-12.20703125,-26.3671875,-14.16015625,-31.73828125,-19.04296875,0.0
229.359375,-23.4375,-30.2734375,-34.66796875,-25.87890625,19.53125,0.0
229.36328125,-39.0625,-35.15625,-37.109375,-12.20703125,-59.08203125,0.0
229.3671875,-41.015625,-40.0390625,-43.45703125,-27.34375,-71.2890625,0.0
229.37109375,-31.73828125,-44.921875,-45.8984375,-52.24609375,-15.13671875,0.0
229.375,-38.0859375,-42.96875,-37.109375,-50.78125,-63.4765625,0.0
229.37890625,-50.29296875,-34.66796875,-21.97265625,-34.66796875,-102.5390625,0.0
229.3828125,-48.828125,-30.2734375,-18.5546875,-33.203125,-108.88671875,0.0
229.38671875,-20.99609375,-38.0859375,-24.4140625,-36.1328125,-122.0703125,0.0
229.390625,-4.8828125,-33.69140625,-30.2734375,-31.73828125,-67.87109375,0.0
229.39453125,-36.1328125,-22.4609375,-32.2265625,-38.57421875,-70.80078125,0.0
229.3984375,-42.96875,-17.578125,-45.41015625,-32.71484375,-117.1875,0.0
229.40234375,-45.8984375,-23.92578125,-43.9453125,-21.97265625,-117.67578125,0.0
229.40625,-41.015625,-35.15625,-21.97265625,-35.64453125,-111.328125,0.0
229.41015625,-27.34375,-38.57421875,-14.6484375,-42.96875,-124.51171875,0.0
229.4140625,-31.73828125,-36.1328125,-17.08984375,-39.0625,-142.578125,0.0
229.41796875,-45.41015625,-33.203125,-33.203125,-39.0625,-98.6328125,0.0
229.421875,-52.24609375,-32.2265625,-38.0859375,-40.0390625,-127.44140625,0.0
229.42578125,-41.50390625,-29.296875,-27.34375,-38.57421875,-196.77734375,0.0
229.4296875,-41.9921875,-40.0390625,-28.80859375,-39.0625,-201.66015625,0.0
229.43359375,-32.71484375,-39.55078125,-38.57421875,-42.96875,-150.390625,0.0
229.4375,-28.80859375,-33.69140625,-33.69140625,-29.296875,-15.625,0.0
229.44140625,-38.57421875,-46.38671875,-14.16015625,-20.5078125,17.08984375,0.0
229.4453125,-44.43359375,-47.36328125,-7.8125,-37.59765625,-33.69140625,0.0
229.44921875,-49.8046875,-41.015625,-17.578125,-55.6640625,-4.39453125,0.0
229.453125,-52.24609375,-32.2265625,-30.76171875,-57.6171875,83.0078125,0.0
229.45703125,-48.33984375,-25.87890625,-36.1328125,-56.640625,62.98828125,0.0
229.4609375,-45.41015625,-30.2734375,-35.64453125,-42.48046875,-6.34765625,0.0
229.46484375,-54.6875,-38.0859375,-46.875,-40.0390625,-55.17578125,0.0
229.46875,-49.8046875,-32.71484375,-38.57421875,-38.57421875,-50.29296875,0.0
229.47265625,-42.96875,-37.59765625,-27.34375,-42.96875,-20.01953125,0.0
229.4765625,-28.80859375,-35.64453125,-26.85546875,-47.36328125,3.41796875,0.0
229.48046875,-23.92578125,-39.0625,-26.85546875,-37.59765625,-67.87109375,0.0
229.484375,-51.7578125,-48.828125,-23.92578125,-22.94921875,-40.0390625,0.0
229.48828125,-27.34375,-36.1328125,-20.5078125,-11.23046875,146.97265625,0.0
229.4921875,-24.90234375,-26.85546875,-27.34375,-34.66796875,64.453125,0.0
229.49609375,-70.3125,-32.71484375,-35.15625,-80.078125,-71.2890625,0.0
229.5,-67.3828125,-36.1328125,-47.36328125,-73.73046875,-58.59375,0.0
229.50390625,-48.828125,-33.69140625,-51.7578125,-57.6171875,-71.77734375,0.0
229.5078125,-44.921875,-27.34375,-59.08203125,-72.265625,27.34375,0.0
229.51171875,-47.8515625,-17.578125,-71.2890625,-68.359375,66.40625,0.0
229.515625,-51.26953125,-17.578125,-63.4765625,-74.70703125,0.48828125,0.0
229.51953125,-61.5234375,-28.80859375,-59.08203125,-81.0546875,-43.45703125,0.0
229.5234375,-81.54296875,-32.71484375,-67.87109375,-70.80078125,-84.47265625,0.0
229.52734375,-74.70703125,-27.83203125,-63.4765625,-66.89453125,-56.640625,0.0
229.53125,-59.08203125,-25.390625,-43.9453125,-62.01171875,-10.25390625,0.0
229.53515625,-50.78125,-33.69140625,-35.15625,-51.7578125,8.7890625,0.0
229.5390625,-37.59765625,-35.64453125,-36.1328125,-46.38671875,-2.44140625,0.0
229.54296875,-40.52734375,-43.45703125,-36.62109375,-54.6875,-30.2734375,0.0
229.546875,-45.41015625,-36.62109375,-41.9921875,-54.19921875,19.04296875,0.0
229.55078125,-49.8046875,-15.13671875,-48.33984375,-56.15234375,47.8515625,0.0
229.5546875,-49.31640625,-23.92578125,-44.921875,-62.01171875,29.78515625,0.0
229.55859375,-40.0390625,-26.3671875,-44.43359375,-45.41015625,11.23046875,0.0
229.5625,-33.69140625,-26.3671875,-45.41015625,-35.15625,-32.2265625,0.0
229.56640625,-33.69140625,-32.2265625,-41.9921875,-32.2265625,-9.27734375,0.0
229.5703125,-30.2734375,-22.4609375,-35.15625,-35.64453125,-8.7890625,0.0
229.57421875,-19.04296875,-20.5078125,-28.3203125,-30.76171875,-42.48046875,0.0
229.578125,-30.2734375,-37.59765625,-35.64453125,-24.90234375,-15.13671875,0.0
229.58203125,-46.38671875,-44.43359375,-38.0859375,-35.64453125,31.25,0.0
229.5859375,-36.1328125,-37.109375,-28.3203125,-44.43359375,4.39453125,0.0
229.58984375,-31.73828125,-29.296875,-27.34375,-41.9921875,-26.85546875,0.0
229.59375,-35.64453125,-22.94921875,-42.96875,-34.66796875,63.4765625,0.0
229.59765625,-32.71484375,-27.34375,-43.9453125,-41.50390625,39.0625,0.0
229.6015625,-24.90234375,-40.52734375,-30.2734375,-33.69140625,-116.69921875,0.0
229.60546875,-25.87890625,-34.66796875,-35.15625,-29.78515625,-242.67578125,0.0
229.609375,-39.0625,-27.34375,-37.109375,-34.66796875,-189.94140625,0.0
229.61328125,-37.59765625,-37.59765625,-31.25,-21.97265625,-66.40625,0.0
229.6171875,-21.97265625,-32.2265625,-35.64453125,-17.08984375,-9.765625,0.0
229.62109375,-30.76171875,-22.4609375,-27.34375,-38.57421875,24.90234375,0.0
229.625,-35.64453125,-20.99609375,-22.4609375,-51.26953125,-62.5,0.0
229.62890625,-26.3671875,-20.5078125,-32.2265625,-39.0625,-23.4375,0.0
229.6328125,-16.6015625,-28.3203125,-46.38671875,-27.83203125,69.3359375,0.0
229.63671875,-16.11328125,-26.3671875,-30.2734375,-27.34375,37.109375,0.0
229.640625,-18.5546875,-27.83203125,-21.484375,-29.78515625,-3.90625,0.0
229.64453125,-27.34375,-32.71484375,-27.34375,-26.85546875,5.37109375,0.0
229.6484375,-28.3203125,-28.3203125,-24.90234375,-20.5078125,46.875,0.0
229.65234375,-22.4609375,-30.76171875,-26.3671875,-24.4140625,-8.7890625,0.0
229.65625,-23.92578125,-28.80859375,-23.4375,-37.59765625,-47.8515625,0.0
229.66015625,-38.57421875,-28.80859375,-20.01953125,-40.52734375,-130.859375,0.0
229.6640625,-49.8046875,-38.0859375,-16.6015625,-35.64453125,-118.65234375,0.0
229.66796875,-45.8984375,-28.80859375,-27.34375,-36.1328125,20.5078125,0.0
229.671875,-29.78515625,-21.484375,-52.24609375,-40.0390625,25.390625,0.0
229.67578125,-22.4609375,-23.4375,-46.875,-39.55078125,9.765625,0.0
229.6796875,-28.80859375,-30.2734375,-25.87890625,-31.25,66.40625,0.0
229.68359375,-26.3671875,-25.390625,-19.53125,-28.80859375,22.4609375,0.0
229.6875,-21.484375,-29.296875,-25.87890625,-29.78515625,-19.53125,0.0
229.69140625,-14.6484375,-40.52734375,-29.296875,-33.69140625,-34.1796875,0.0
229.6953125,-18.06640625,-24.90234375,-26.3671875,-31.25,-57.6171875,0.0
229.69921875,-28.80859375,-28.3203125,-32.2265625,-18.5546875,-24.4140625,0.0
229.703125,-26.85546875,-36.1328125,-29.296875,-12.6953125,-2.9296875,0.0
229.70703125,-27.83203125,-21.97265625,-27.34375,-23.92578125,36.1328125,0.0
229.7109375,-18.06640625,-15.625,-24.4140625,-33.69140625,24.90234375,0.0
229.71484375,-7.32421875,-20.01953125,-28.80859375,-33.203125,-36.62109375,0.0
229.71875,-31.25,-36.1328125,-40.0390625,-31.73828125,-19.53125,0.0
229.72265625,-40.0390625,-54.19921875,-30.76171875,-11.71875,-5.37109375,0.0
229.7265625,-32.2265625,-31.73828125,-9.765625,-9.27734375,-10.25390625,0.0
229.73046875,-27.83203125,-9.765625,-17.08984375,-37.59765625,-20.99609375,0.0
229.734375,-11.23046875,-14.16015625,-29.296875,-39.0625,-49.31640625,0.0
229.73828125,-20.99609375,-20.01953125,-19.04296875,-28.3203125,-23.4375,0.0
229.7421875,-22.94921875,-19.53125,-23.4375,-18.5546875,16.11328125,0.0
229.74609375,-18.5546875,-23.92578125,-36.62109375,-16.11328125,5.859375,0.0
229.75,-21.484375,-30.76171875,-28.80859375,-32.71484375,-0.9765625,0.0
229.75390625,-20.01953125,-27.34375,-19.53125,-44.43359375,3.41796875,0.0
229.7578125,-26.3671875,-34.1796875,-22.4609375,-46.38671875,-23.4375,0.0
229.76171875,-39.0625,-44.43359375,-30.76171875,-40.0390625,-61.5234375,0.0
229.765625,-35.64453125,-42.48046875,-40.0390625,-32.2265625,-41.9921875,0.0
229.76953125,-18.5546875,-28.80859375,-33.69140625,-24.90234375,-11.71875,0.0
229.7734375,-6.34765625,-22.4609375,-30.76171875,-26.85546875,-30.2734375,0.0
229.77734375,-29.78515625,-26.3671875,-28.3203125,-33.203125,-7.8125,0.0
229.78125,-38.0859375,-27.83203125,-27.34375,-34.1796875,-5.859375,0.0
229.78515625,-30.76171875,-17.578125,-39.55078125,-33.69140625,-29.78515625,0.0
229.7890625,-36.62109375,-20.99609375,-45.8984375,-36.1328125,-70.80078125,0.0
229.79296875,-24.4140625,-26.3671875,-37.59765625,-43.9453125,-110.83984375,0.0
229.796875,-15.13671875,-25.390625,-29.78515625,-37.59765625,-116.69921875,0.0
229.80078125,-10.7421875,-37.59765625,-32.2265625,-35.15625,-112.79296875,0.0
229.8046875,-9.27734375,-42.48046875,-27.83203125,-28.80859375,-53.22265625,0.0
229.80859375,-16.6015625,-31.25,-39.55078125,-27.34375,51.26953125,0.0
229.8125,-26.3671875,-27.83203125,-54.19921875,-30.76171875,67.87109375,0.0
229.81640625,-21.97265625,-30.76171875,-30.76171875,-23.4375,55.17578125,0.0
229.8203125,-29.296875,-22.94921875,-12.20703125,-21.97265625,-16.6015625,0.0
229.82421875,-38.0859375,-26.3671875,-20.99609375,-25.87890625,-42.96875,0.0
229.828125,-25.87890625,-38.0859375,-29.296875,-26.85546875,5.859375,0.0
229.83203125,-0.9765625,-35.64453125,-25.390625,-22.4609375,32.2265625,0.0
229.8359375,-22.4609375,-31.25,-24.4140625,-18.06640625,-13.671875,0.0
229.83984375,-45.41015625,-26.85546875,-29.78515625,-20.99609375,-84.47265625,0.0
229.84375,-29.78515625,-26.3671875,-24.90234375,-20.01953125,-70.3125,0.0
229.84765625,-33.69140625,-30.2734375,-27.83203125,-30.2734375,-24.90234375,0.0
229.8515625,-43.9453125,-31.25,-36.1328125,-40.52734375,-85.9375,0.0
229.85546875,-44.43359375,-33.69140625,-34.1796875,-36.1328125,-142.08984375,0.0
229.859375,-42.96875,-31.25,-23.4375,-31.73828125,-18.06640625,0.0
229.86328125,-49.31640625,-39.0625,-14.6484375,-38.57421875,38.57421875,0.0
229.8671875,-43.45703125,-44.921875,-15.13671875,-38.0859375,-60.05859375,0.0
229.87109375,-28.80859375,-39.0625,-28.80859375,-25.87890625,-97.16796875,0.0
229.875,-25.87890625,-43.9453125,-29.296875,-39.0625,-13.18359375,0.0
229.87890625,-40.52734375,-46.38671875,-25.390625,-34.66796875,-57.6171875,0.0
229.8828125,-38.0859375,-44.921875,-28.3203125,-19.04296875,-61.5234375,0.0
229.88671875,-31.25,-38.0859375,-29.78515625,-32.71484375,-38.0859375,0.0
229.890625,-29.78515625,-29.78515625,-33.203125,-22.94921875,-47.8515625,0.0
229.89453125,-10.25390625,-29.78515625,-38.57421875,-22.94921875,24.4140625,0.0
229.8984375,-5.37109375,-21.484375,-39.0625,-33.203125,42.96875,0.0
229.90234375,-38.57421875,-31.25,-30.76171875,-26.3671875,77.63671875,0.0
229.90625,-42.48046875,-45.8984375,-13.671875,-31.25,45.8984375,0.0
229.91015625,-24.90234375,-43.9453125,-18.5546875,-36.1328125,-86.9140625,0.0
229.9140625,-31.25,-41.50390625,-33.203125,-33.69140625,-117.67578125,0.0
229.91796875,-39.55078125,-40.0390625,-24.90234375,-29.296875,-22.94921875,0.0
229.921875,-40.52734375,-40.52734375,-17.08984375,-27.34375,-27.34375,0.0
229.92578125,-31.25,-30.76171875,-21.484375,-14.6484375,0.0,0.0
229.9296875,-34.66796875,-22.94921875,-32.71484375,-17.08984375,94.23828125,0.0
229.93359375,-33.203125,-28.3203125,-34.66796875,-36.62109375,24.90234375,0.0
229.9375,-18.06640625,-26.3671875,-23.4375,-31.73828125,8.30078125,0.0
229.94140625,-29.296875,-25.87890625,-19.04296875,-28.80859375,48.828125,0.0
229.9453125,-14.6484375,-28.3203125,-20.01953125,-23.92578125,-4.8828125,0.0
229.94921875,-12.20703125,-36.62109375,-21.484375,-14.6484375,-87.890625,0.0
229.953125,-41.9921875,-31.73828125,-19.53125,-18.06640625,-115.72265625,0.0
229.95703125,-44.43359375,-19.04296875,-19.53125,-28.80859375,-39.0625,0.0
229.9609375,-33.69140625,-22.4609375,-20.99609375,-24.90234375,-11.71875,0.0
229.96484375,-30.2734375,-23.92578125,-24.90234375,-18.5546875,-53.7109375,0.0
229.96875,-25.390625,-30.76171875,-29.78515625,-33.69140625,-69.3359375,0.0
229.97265625,-15.625,-33.203125,-28.80859375,-32.71484375,-41.50390625,0.0
229.9765625,-23.4375,-26.3671875,-27.34375,-28.80859375,-29.296875,0.0
229.98046875,-30.76171875,-26.3671875,-29.78515625,-28.80859375,-74.21875,0.0
229.984375,-31.73828125,-23.4375,-31.73828125,-35.64453125,-48.828125,0.0
229.98828125,-27.83203125,-19.04296875,-32.2265625,-36.62109375,-41.9921875,0.0
229.9921875,-6.8359375,-19.04296875,-24.4140625,-21.97265625,-28.80859375,0.0
229.99609375,2.9296875,-27.34375,-16.6015625,-10.7421875,-20.5078125,0.0
230.0,-38.0859375,-33.203125,-28.3203125,-43.9453125,-81.0546875,0.0
230.00390625,-64.453125,-29.296875,-40.52734375,-64.453125,-55.6640625,0.0
230.0078125,-42.48046875,-24.90234375,-34.1796875,-50.29296875,-77.63671875,0.0
230.01171875,-27.83203125,-30.2734375,-31.25,-49.8046875,-94.7265625,0.0
230.015625,-41.50390625,-25.390625,-37.109375,-54.19921875,-8.30078125,0.0
230.01953125,-43.9453125,-17.578125,-35.64453125,-57.6171875,-6.34765625,0.0
230.0234375,-45.41015625,-24.90234375,-36.62109375,-50.29296875,-6.34765625,0.0
230.02734375,-52.24609375,-36.62109375,-45.8984375,-46.875,-53.7109375,0.0
230.03125,-41.9921875,-26.85546875,-46.38671875,-46.875,-103.02734375,0.0
230.03515625,-24.90234375,-19.53125,-41.50390625,-42.48046875,-67.87109375,0.0
230.0390625,-34.66796875,-24.4140625,-29.78515625,-29.296875,-56.15234375,0.0
230.04296875,-24.90234375,-22.4609375,-35.64453125,-21.484375,-40.0390625,0.0
230.046875,-10.25390625,-31.25,-47.8515625,-27.83203125,1.46484375,0.0
230.05078125,-43.9453125,-32.71484375,-33.203125,-34.66796875,12.20703125,0.0
230.0546875,-42.48046875,-27.83203125,-22.4609375,-33.69140625,11.23046875,0.0
230.05859375,-41.50390625,-23.92578125,-28.80859375,-30.76171875,-18.06640625,0.0
230.0625,-49.8046875,-17.578125,-30.76171875,-33.203125,-33.203125,0.0
230.06640625,-43.9453125,-23.4375,-32.2265625,-26.3671875,-0.48828125,0.0
230.0703125,-34.1796875,-24.90234375,-38.0859375,-25.390625,0.0,0.0
230.07421875,-27.34375,-20.5078125,-41.50390625,-35.64453125,8.7890625,0.0
230.078125,-31.73828125,-23.92578125,-26.3671875,-24.90234375,-83.0078125,0.0
230.08203125,-40.0390625,-24.4140625,-17.08984375,-20.99609375,-95.703125,0.0
230.0859375,-39.0625,-30.2734375,-26.3671875,-29.296875,-57.12890625,0.0
230.08984375,-20.5078125,-36.62109375,-28.3203125,-35.64453125,-75.1953125,0.0
230.09375,-16.6015625,-25.87890625,-24.90234375,-40.52734375,-51.26953125,0.0
230.09765625,-44.43359375,-23.92578125,-24.90234375,-42.96875,-26.85546875,0.0
230.1015625,-42.96875,-25.390625,-11.23046875,-33.203125,-63.96484375,0.0
230.10546875,-45.41015625,-30.76171875,-15.625,-29.78515625,-60.546875,0.0
230.109375,-53.7109375,-34.66796875,-33.69140625,-44.921875,9.765625,0.0
230.11328125,-43.45703125,-32.71484375,-34.66796875,-43.45703125,-71.77734375,0.0
230.1171875,-40.0390625,-33.203125,-35.15625,-32.2265625,-76.171875,0.0
230.12109375,-43.9453125,-27.83203125,-41.50390625,-28.80859375,-50.78125,0.0
230.125,-42.48046875,-24.4140625,-41.50390625,-32.2265625,-35.15625,0.0
230.12890625,-37.59765625,-24.4140625,-27.34375,-30.2734375,-19.04296875,0.0
230.1328125,-20.99609375,-26.85546875,-21.97265625,-25.390625,-85.9375,0.0
230.13671875,-18.5546875,-33.69140625,-29.296875,-30.76171875,-75.68359375,0.0
230.140625,-33.69140625,-37.59765625,-41.015625,-33.69140625,-7.8125,0.0
230.14453125,-21.97265625,-35.15625,-28.80859375,-21.484375,-27.83203125,0.0
230.1484375,-13.18359375,-30.76171875,-13.671875,-17.578125,-49.8046875,0.0
230.15234375,-27.83203125,-40.52734375,-26.85546875,-38.0859375,-13.18359375,0.0
230.15625,-34.66796875,-46.875,-34.1796875,-41.015625,-125.9765625,0.0
230.16015625,-31.73828125,-32.71484375,-31.25,-24.4140625,-219.23828125,0.0
230.1640625,-34.1796875,-23.92578125,-29.296875,-26.3671875,-160.64453125,0.0
230.16796875,-23.92578125,-25.390625,-30.76171875,-35.15625,-127.9296875,0.0
230.171875,-28.80859375,-28.80859375,-40.52734375,-36.62109375,-155.2734375,0.0
230.17578125,-41.50390625,-28.80859375,-42.48046875,-39.0625,-117.67578125,0.0
230.1796875,-42.96875,-26.85546875,-24.4140625,-36.1328125,-82.51953125,0.0
230.18359375,-44.43359375,-29.78515625,-19.04296875,-28.3203125,-88.8671875,0.0
230.1875,-37.109375,-33.203125,-24.4140625,-23.92578125,-17.08984375,0.0
230.19140625,-24.4140625,-48.33984375,-20.99609375,-21.484375,7.8125,0.0
230.1953125,-20.99609375,-49.31640625,-27.34375,-16.11328125,-91.796875,0.0
230.19921875,-26.85546875,-38.0859375,-32.71484375,-20.5078125,-97.65625,0.0
230.203125,-28.80859375,-36.1328125,-30.76171875,-19.53125,41.015625,0.0
230.20703125,-33.203125,-24.4140625,-31.73828125,-15.13671875,76.66015625,0.0
230.2109375,-41.9921875,-30.76171875,-35.15625,-31.25,26.85546875,0.0
230.21484375,-35.15625,-35.64453125,-40.0390625,-43.9453125,-34.66796875,0.0
230.21875,-25.87890625,-30.2734375,-31.25,-34.1796875,-57.6171875,0.0
230.22265625,-20.5078125,-40.0390625,-24.4140625,-26.3671875,46.875,0.0
230.2265625,-29.78515625,-32.2265625,-33.69140625,-35.64453125,58.10546875,0.0
230.23046875,-36.1328125,-22.94921875,-44.921875,-39.0625,16.11328125,0.0
230.234375,-24.90234375,-31.25,-29.296875,-38.57421875,50.78125,0.0
230.23828125,-26.3671875,-32.2265625,-20.5078125,-38.0859375,0.48828125,0.0
230.2421875,-41.9921875,-34.66796875,-32.71484375,-34.66796875,-28.80859375,0.0
230.24609375,-49.8046875,-45.41015625,-35.15625,-36.62109375,-59.5703125,0.0
230.25,-40.0390625,-42.48046875,-23.92578125,-35.64453125,-87.890625,0.0
230.25390625,-28.80859375,-27.34375,-33.69140625,-39.55078125,-38.57421875,0.0
230.2578125,-32.2265625,-29.78515625,-43.45703125,-44.43359375,-20.99609375,0.0
230.26171875,-35.64453125,-28.3203125,-32.2265625,-34.66796875,-13.671875,0.0
230.265625,-46.875,-17.578125,-32.2265625,-34.66796875,68.359375,0.0
230.26953125,-44.921875,-20.5078125,-32.71484375,-38.0859375,69.82421875,0.0
230.2734375,-34.66796875,-31.73828125,-31.73828125,-30.76171875,21.484375,0.0
230.27734375,-28.80859375,-33.69140625,-41.50390625,-33.69140625,-24.4140625,0.0
230.28125,-37.59765625,-36.1328125,-24.4140625,-38.0859375,-30.2734375,0.0
230.28515625,-60.546875,-37.59765625,-16.11328125,-37.109375,-24.4140625,0.0
230.2890625,-43.9453125,-26.3671875,-30.2734375,-40.52734375,-49.8046875,0.0
230.29296875,-20.99609375,-29.296875,-32.2265625,-38.0859375,-79.58984375,0.0
230.296875,-50.29296875,-46.875,-36.62109375,-27.83203125,-48.828125,0.0
230.30078125,-56.640625,-36.62109375,-34.1796875,-19.53125,-41.9921875,0.0
230.3046875,-39.55078125,-24.4140625,-38.57421875,-23.4375,-35.15625,0.0
230.30859375,-38.57421875,-32.2265625,-46.38671875,-37.109375,-7.8125,0.0
230.3125,-28.3203125,-23.4375,-36.1328125,-31.25,-12.20703125,0.0
230.31640625,-17.578125,-28.3203125,-32.2265625,-27.83203125,-53.7109375,0.0
230.3203125,-28.3203125,-36.1328125,-31.25,-20.99609375,-69.82421875,0.0
230.32421875,-37.109375,-36.1328125,-24.4140625,-20.99609375,-67.87109375,0.0
230.328125,-39.0625,-29.78515625,-26.3671875,-31.25,-60.546875,0.0
230.33203125,-28.3203125,-25.87890625,-39.55078125,-32.71484375,-6.8359375,0.0
230.3359375,-24.90234375,-31.25,-35.15625,-26.3671875,-40.0390625,0.0
230.33984375,-36.1328125,-32.2265625,-31.25,-18.5546875,-37.59765625,0.0
230.34375,-29.296875,-33.69140625,-31.25,-19.53125,20.99609375,0.0
230.34765625,-24.90234375,-44.921875,-35.15625,-24.4140625,-9.27734375,0.0
230.3515625,-34.1796875,-39.0625,-28.3203125,-24.4140625,-129.39453125,0.0
230.35546875,-28.80859375,-27.83203125,-23.92578125,-18.5546875,-166.9921875,0.0
230.359375,-36.62109375,-35.15625,-30.76171875,-14.6484375,-96.19140625,0.0
230.36328125,-43.9453125,-36.62109375,-24.90234375,-20.01953125,-44.43359375,0.0
230.3671875,-35.64453125,-30.2734375,-23.4375,-17.08984375,-67.87109375,0.0
230.37109375,-20.01953125,-25.390625,-23.4375,-28.3203125,-33.69140625,0.0
230.375,-18.06640625,-30.2734375,-23.4375,-38.57421875,26.85546875,0.0
230.37890625,-34.66796875,-21.484375,-29.78515625,-28.3203125,-19.04296875,0.0
230.3828125,-36.1328125,-17.08984375,-27.34375,-24.90234375,-30.76171875,0.0
230.38671875,-34.66796875,-23.92578125,-20.01953125,-22.4609375,60.05859375,0.0
230.390625,-34.66796875,-26.3671875,-21.484375,-31.25,81.0546875,0.0
230.39453125,-14.6484375,-30.76171875,-22.94921875,-36.62109375,46.875,0.0
230.3984375,-9.27734375,-29.296875,-29.78515625,-28.80859375,-18.06640625,0.0
230.40234375,-33.69140625,-26.3671875,-31.73828125,-23.92578125,-77.1484375,0.0
230.40625,-33.69140625,-26.85546875,-31.73828125,-35.15625,-40.52734375,0.0
230.41015625,-28.80859375,-30.76171875,-42.48046875,-51.7578125,-81.0546875,0.0
230.4140625,-20.99609375,-28.3203125,-25.390625,-44.43359375,-107.91015625,0.0
230.41796875,-20.99609375,-21.97265625,-20.01953125,-36.1328125,-85.44921875,0.0
230.421875,-37.109375,-20.99609375,-21.97265625,-33.69140625,-50.78125,0.0
230.42578125,-33.69140625,-39.0625,-18.06640625,-26.85546875,-7.8125,0.0
230.4296875,-17.08984375,-50.29296875,-17.08984375,-29.78515625,-51.26953125,0.0
230.43359375,-21.97265625,-34.1796875,-20.99609375,-27.34375,-117.1875,0.0
230.4375,-25.87890625,-25.87890625,-28.80859375,-29.78515625,-100.5859375,0.0
230.44140625,-28.80859375,-20.5078125,-31.73828125,-31.25,-74.70703125,0.0
230.4453125,-36.62109375,-19.04296875,-36.1328125,-43.9453125,-68.84765625,0.0
230.44921875,-21.97265625,-31.25,-36.1328125,-54.19921875,-39.0625,0.0
230.453125,-18.06640625,-28.80859375,-38.57421875,-39.0625,-63.96484375,0.0
230.45703125,-27.34375,-21.484375,-34.1796875,-35.15625,-67.3828125,0.0
230.4609375,-40.52734375,-29.78515625,-33.203125,-32.71484375,-94.23828125,0.0
230.46484375,-45.41015625,-29.296875,-36.1328125,-30.2734375,-104.98046875,0.0
230.46875,-29.78515625,-20.01953125,-34.66796875,-37.109375,-39.0625,0.0
230.47265625,-24.4140625,-22.94921875,-34.66796875,-44.43359375,-28.3203125,0.0
230.4765625,-31.25,-28.80859375,-23.4375,-33.203125,-62.5,0.0
230.48046875,-45.8984375,-32.2265625,-21.484375,-24.90234375,48.33984375,0.0
230.484375,-45.8984375,-36.62109375,-24.90234375,-25.87890625,128.90625,0.0
230.48828125,-30.2734375,-35.64453125,-26.85546875,-24.90234375,-5.37109375,0.0
230.4921875,-13.671875,-30.2734375,-38.0859375,-19.53125,-63.4765625,0.0
230.49609375,-23.4375,-31.73828125,-54.19921875,-8.30078125,14.16015625,0.0
230.5,-36.62109375,-33.69140625,-56.640625,-29.78515625,38.0859375,0.0
230.50390625,-36.62109375,-30.76171875,-35.64453125,-42.48046875,-3.41796875,0.0
230.5078125,-37.109375,-29.296875,-19.53125,-36.1328125,-32.2265625,0.0
230.51171875,-39.55078125,-36.62109375,-20.5078125,-38.0859375,-26.3671875,0.0
230.515625,-45.41015625,-34.66796875,-28.3203125,-32.71484375,-43.45703125,0.0
230.51953125,-45.41015625,-30.2734375,-24.90234375,-27.83203125,-93.75,0.0
230.5234375,-35.64453125,-25.87890625,-18.06640625,-28.3203125,-70.3125,0.0
230.52734375,-34.66796875,-29.296875,-29.296875,-33.69140625,18.06640625,0.0
230.53125,-41.015625,-44.43359375,-45.8984375,-39.0625,25.87890625,0.0
230.53515625,-41.50390625,-48.33984375,-45.41015625,-30.2734375,60.05859375,0.0
230.5390625,-45.8984375,-28.3203125,-41.015625,-20.99609375,98.14453125,0.0
230.54296875,-45.8984375,-15.13671875,-37.109375,-32.71484375,86.9140625,0.0
230.546875,-38.57421875,-22.94921875,-34.66796875,-46.38671875,48.828125,0.0
230.55078125,-19.04296875,-23.4375,-35.64453125,-44.921875,-32.2265625,0.0
230.5546875,9.27734375,-15.625,-37.59765625,-39.0625,-38.57421875,0.0
230.55859375,-7.32421875,-25.390625,-36.62109375,-20.5078125,29.296875,0.0
230.5625,-23.92578125,-38.57421875,-42.48046875,-30.2734375,-33.203125,0.0
230.56640625,-20.5078125,-25.87890625,-39.55078125,-43.9453125,-76.171875,0.0
230.5703125,1.46484375,-19.04296875,-34.1796875,-40.52734375,27.83203125,0.0
230.57421875,27.83203125,-33.203125,-47.8515625,-34.1796875,45.8984375,0.0
230.578125,-10.25390625,-28.3203125,-42.96875,-20.5078125,-9.27734375,0.0
230.58203125,-48.828125,-23.92578125,-26.3671875,-13.671875,-138.671875,0.0
230.5859375,-45.41015625,-25.390625,-29.78515625,-35.64453125,-194.3359375,0.0
230.58984375,-38.0859375,-20.01953125,-26.3671875,-48.33984375,-213.37890625,0.0
230.59375,-33.69140625,-24.4140625,-20.99609375,-47.8515625,-269.04296875,0.0
230.59765625,-35.15625,-45.41015625,-24.90234375,-43.9453125,-244.62890625,0.0
230.6015625,-46.875,-44.921875,-33.203125,-39.0625,-142.578125,0.0
230.60546875,-45.8984375,-25.390625,-34.1796875,-36.1328125,-82.51953125,0.0
230.609375,-34.66796875,-19.53125,-26.3671875,-35.15625,-58.59375,0.0
230.61328125,-32.2265625,-22.4609375,-29.78515625,-38.57421875,-17.08984375,0.0
230.6171875,-23.4375,-31.25,-44.921875,-40.52734375,76.66015625,0.0
230.62109375,-30.2734375,-41.9921875,-49.8046875,-35.64453125,54.6875,0.0
230.625,-51.26953125,-35.64453125,-49.8046875,-30.2734375,-68.359375,0.0
230.62890625,-41.50390625,-26.3671875,-42.96875,-35.15625,-44.43359375,0.0
230.6328125,-18.5546875,-25.390625,-36.1328125,-43.45703125,76.171875,0.0
230.63671875,-23.4375,-26.85546875,-34.66796875,-41.015625,66.40625,0.0
230.640625,-40.0390625,-30.76171875,-37.109375,-35.64453125,46.38671875,0.0
230.64453125,-46.875,-41.50390625,-32.2265625,-27.83203125,30.76171875,0.0
230.6484375,-26.85546875,-34.1796875,-32.2265625,-21.97265625,7.32421875,0.0
230.65234375,-17.578125,-26.85546875,-40.0390625,-34.66796875,93.75,0.0
230.65625,-35.64453125,-36.1328125,-27.34375,-41.015625,84.47265625,0.0
230.66015625,-46.38671875,-27.83203125,-18.5546875,-29.78515625,7.8125,0.0
230.6640625,-53.7109375,-22.94921875,-33.69140625,-25.87890625,-47.8515625,0.0
230.66796875,-47.36328125,-27.34375,-32.71484375,-38.0859375,-108.3984375,0.0
230.671875,-27.34375,-34.1796875,-27.83203125,-43.9453125,-69.3359375,0.0
230.67578125,-33.69140625,-31.73828125,-32.71484375,-45.41015625,82.03125,0.0
230.6796875,-47.8515625,-28.3203125,-30.2734375,-49.31640625,65.91796875,0.0
230.68359375,-47.8515625,-35.15625,-32.71484375,-43.45703125,-50.29296875,0.0
230.6875,-42.96875,-34.66796875,-34.1796875,-35.15625,-6.34765625,0.0
230.69140625,-29.296875,-33.203125,-35.64453125,-30.76171875,27.34375,0.0
230.6953125,-22.4609375,-35.64453125,-38.0859375,-31.25,-14.16015625,0.0
230.69921875,-38.57421875,-32.71484375,-42.96875,-29.296875,-4.39453125,0.0
230.703125,-41.015625,-34.1796875,-35.15625,-26.85546875,-40.52734375,0.0
230.70703125,-37.59765625,-41.015625,-27.83203125,-31.73828125,-64.94140625,0.0
230.7109375,-33.203125,-39.0625,-31.25,-41.50390625,23.4375,0.0
230.71484375,-24.4140625,-40.0390625,-36.1328125,-48.33984375,28.3203125,0.0
230.71875,-20.01953125,-41.015625,-36.62109375,-43.45703125,13.18359375,0.0
230.72265625,-21.484375,-29.78515625,-31.73828125,-31.25,15.625,0.0
230.7265625,-32.71484375,-33.69140625,-33.203125,-28.80859375,-20.99609375,0.0
230.73046875,-31.25,-38.57421875,-31.73828125,-35.64453125,-55.17578125,0.0
230.734375,-26.3671875,-34.1796875,-23.92578125,-37.59765625,-104.4921875,0.0
230.73828125,-50.78125,-25.390625,-24.90234375,-28.80859375,-122.55859375,0.0
230.7421875,-58.59375,-17.08984375,-34.1796875,-24.90234375,-152.83203125,0.0
230.74609375,-52.734375,-20.01953125,-27.34375,-38.0859375,-183.59375,0.0
230.75,-41.9921875,-34.1796875,-23.4375,-41.9921875,-178.22265625,0.0
230.75390625,-33.69140625,-27.34375,-29.296875,-34.1796875,-135.7421875,0.0
230.7578125,-27.83203125,-11.71875,-25.390625,-27.83203125,-23.4375,0.0
230.76171875,-22.4609375,-14.6484375,-26.3671875,-28.80859375,15.625,0.0
230.765625,-22.94921875,-24.4140625,-37.109375,-43.9453125,55.17578125,0.0
230.76953125,-31.73828125,-39.0625,-40.0390625,-37.59765625,90.33203125,0.0
230.7734375,-23.4375,-43.9453125,-42.96875,-29.296875,54.19921875,0.0
230.77734375,-26.3671875,-33.203125,-39.0625,-44.921875,-23.4375,0.0
230.78125,-38.57421875,-28.80859375,-26.3671875,-36.1328125,-23.4375,0.0
230.78515625,-41.9921875,-22.94921875,-29.296875,-25.87890625,85.9375,0.0
230.7890625,-22.94921875,-17.08984375,-25.87890625,-21.97265625,20.01953125,0.0
230.79296875,-18.5546875,-17.08984375,-20.5078125,-24.4140625,-50.78125,0.0
230.796875,-20.99609375,-24.90234375,-26.3671875,-43.9453125,0.9765625,0.0
230.80078125,-28.80859375,-36.1328125,-34.1796875,-44.43359375,-3.90625,0.0
230.8046875,-38.57421875,-39.0625,-37.109375,-36.1328125,-47.8515625,0.0
230.80859375,-31.25,-33.203125,-32.2265625,-35.15625,-60.546875,0.0
230.8125,-21.97265625,-27.34375,-31.73828125,-33.203125,-2.9296875,0.0
230.81640625,-22.94921875,-26.85546875,-41.015625,-33.203125,-20.5078125,0.0
230.8203125,-49.31640625,-23.92578125,-44.921875,-20.5078125,-5.859375,0.0
230.82421875,-51.26953125,-26.85546875,-34.1796875,-13.18359375,33.203125,0.0
230.828125,-28.3203125,-34.1796875,-28.3203125,-24.90234375,20.5078125,0.0
230.83203125,-22.4609375,-38.0859375,-33.69140625,-30.76171875,-13.671875,0.0
230.8359375,-37.59765625,-26.85546875,-28.3203125,-30.2734375,-88.37890625,0.0
230.83984375,-57.12890625,-27.34375,-23.92578125,-22.4609375,-152.83203125,0.0
230.84375,-50.78125,-34.1796875,-31.73828125,-12.6953125,-84.9609375,0.0
230.84765625,-32.71484375,-33.203125,-30.76171875,-19.04296875,-42.96875,0.0
230.8515625,-19.53125,-35.64453125,-15.13671875,-28.80859375,-77.1484375,0.0
230.85546875,-22.4609375,-36.62109375,-23.4375,-26.3671875,-63.4765625,0.0
230.859375,-34.1796875,-37.109375,-33.69140625,-11.23046875,-46.875,0.0
230.86328125,-35.64453125,-30.76171875,-30.2734375,-5.37109375,12.6953125,0.0
230.8671875,-21.484375,-29.78515625,-32.2265625,-20.01953125,88.37890625,0.0
230.87109375,-15.13671875,-29.296875,-33.203125,-33.203125,90.33203125,0.0
230.875,-28.80859375,-32.71484375,-34.66796875,-34.66796875,34.1796875,0.0
230.87890625,-34.1796875,-37.59765625,-36.62109375,-22.94921875,-29.296875,0.0
230.8828125,-38.0859375,-29.296875,-39.0625,-29.78515625,-126.953125,0.0
230.88671875,-42.48046875,-21.484375,-41.50390625,-41.015625,-144.04296875,0.0
230.890625,-22.94921875,-18.5546875,-24.4140625,-37.109375,-162.59765625,0.0
230.89453125,-14.16015625,-23.92578125,-15.13671875,-23.92578125,-82.03125,0.0
230.8984375,-33.69140625,-29.296875,-22.94921875,-26.85546875,-28.80859375,0.0
230.90234375,-51.26953125,-33.203125,-30.2734375,-41.50390625,-60.546875,0.0
230.90625,-43.9453125,-32.2265625,-34.1796875,-39.0625,19.53125,0.0
230.91015625,-21.97265625,-32.71484375,-43.45703125,-42.96875,85.44921875,0.0
230.9140625,-31.73828125,-49.31640625,-48.33984375,-52.734375,26.85546875,0.0
230.91796875,-43.9453125,-50.78125,-37.59765625,-41.9921875,-3.90625,0.0
230.921875,-50.78125,-28.80859375,-32.71484375,-31.25,-10.25390625,0.0
230.92578125,-50.29296875,-17.578125,-30.76171875,-42.96875,5.37109375,0.0
230.9296875,-26.3671875,-25.390625,-28.80859375,-59.08203125,-25.87890625,0.0
230.93359375,-35.15625,-35.64453125,-29.78515625,-59.5703125,-104.00390625,0.0
230.9375,-51.26953125,-38.57421875,-33.69140625,-54.19921875,-11.23046875,0.0
230.94140625,-54.6875,-34.66796875,-31.25,-49.31640625,-33.203125,0.0
230.9453125,-46.875,-31.73828125,-34.66796875,-46.38671875,-3.90625,0.0
230.94921875,-29.78515625,-40.52734375,-45.8984375,-44.921875,-23.4375,0.0
230.953125,-37.109375,-39.0625,-46.875,-51.7578125,-73.73046875,0.0
230.95703125,-45.41015625,-29.78515625,-31.25,-52.24609375,-21.484375,0.0
230.9609375,-46.38671875,-32.2265625,-22.4609375,-42.48046875,-67.3828125,0.0
230.96484375,-38.0859375,-29.78515625,-29.296875,-38.57421875,-78.61328125,0.0
230.96875,-23.4375,-25.87890625,-35.64453125,-38.57421875,-54.6875,0.0
230.97265625,-26.85546875,-30.2734375,-35.64453125,-41.50390625,-47.8515625,0.0
230.9765625,-31.73828125,-31.25,-22.4609375,-25.390625,-56.640625,0.0
230.98046875,-41.015625,-31.25,-19.53125,-26.85546875,11.71875,0.0
230.984375,-52.24609375,-33.69140625,-19.04296875,-35.64453125,52.24609375,0.0
230.98828125,-35.64453125,-30.2734375,-17.08984375,-25.87890625,30.76171875,0.0
230.9921875,-24.4140625,-41.50390625,-29.296875,-39.55078125,13.671875,0.0
230.99609375,-43.45703125,-48.828125,-35.64453125,-46.38671875,-18.06640625,0.0
231.0,-52.734375,-35.15625,-31.25,-31.73828125,-22.4609375,0.0
231.00390625,-49.31640625,-31.25,-26.3671875,-33.69140625,-52.734375,0.0
231.0078125,-37.59765625,-24.90234375,-28.3203125,-40.0390625,-43.45703125,0.0
231.01171875,-23.92578125,-24.4140625,-33.203125,-40.52734375,-43.45703125,0.0
231.015625,-30.2734375,-28.3203125,-30.76171875,-32.2265625,-88.8671875,0.0
231.01953125,-45.41015625,-33.203125,-25.390625,-31.25,-114.2578125,0.0
231.0234375,-51.7578125,-36.62109375,-30.2734375,-41.015625,-144.04296875,0.0
231.02734375,-54.19921875,-35.15625,-31.25,-38.0859375,-182.12890625,0.0
231.03125,-55.17578125,-38.57421875,-16.6015625,-40.52734375,-203.125,0.0
231.03515625,-36.1328125,-29.78515625,-25.87890625,-47.36328125,-190.91796875,0.0
231.0390625,-18.06640625,-21.484375,-48.33984375,-29.78515625,-59.08203125,0.0
231.04296875,-42.96875,-33.69140625,-32.2265625,-32.2265625,-32.71484375,0.0
231.046875,-81.0546875,-39.55078125,-10.7421875,-56.640625,-121.09375,0.0
231.05078125,-78.61328125,-41.9921875,-8.30078125,-66.40625,-0.48828125,0.0
231.0546875,-64.453125,-46.38671875,-2.9296875,-63.4765625,70.80078125,0.0
231.05859375,-71.77734375,-47.8515625,3.90625,-52.734375,-35.64453125,0.0
231.0625,-91.30859375,-56.640625,6.34765625,-57.12890625,-56.640625,0.0
231.06640625,-83.984375,-63.96484375,4.8828125,-51.7578125,-38.57421875,0.0
231.0703125,-69.82421875,-57.12890625,4.39453125,-53.22265625,1.953125,0.0
231.07421875,-65.91796875,-59.08203125,10.25390625,-43.9453125,39.55078125,0.0
231.078125,-59.08203125,-54.6875,19.04296875,-29.78515625,-0.9765625,0.0
231.08203125,-59.5703125,-56.15234375,15.13671875,-33.203125,-10.7421875,0.0
231.0859375,-54.6875,-71.2890625,14.6484375,-28.3203125,-45.8984375,0.0
231.08984375,-37.109375,-74.21875,18.5546875,-21.97265625,-34.66796875,0.0
231.09375,-16.6015625,-68.359375,8.30078125,-4.8828125,-38.0859375,0.0
231.09765625,-15.13671875,-55.17578125,2.44140625,5.859375,-98.14453125,0.0
231.1015625,-22.4609375,-39.55078125,6.34765625,13.671875,-50.78125,0.0
231.10546875,-9.765625,-37.109375,2.9296875,23.92578125,-4.8828125,0.0
231.109375,-5.37109375,-44.921875,-5.859375,9.765625,-31.73828125,0.0
231.11328125,1.953125,-47.8515625,0.0,1.46484375,-85.44921875,0.0
231.1171875,4.39453125,-53.22265625,7.8125,12.6953125,-71.2890625,0.0
231.12109375,-4.39453125,-50.29296875,5.37109375,16.11328125,-57.6171875,0.0
231.125,0.48828125,-41.9921875,4.39453125,23.92578125,-58.10546875,0.0
231.12890625,-1.46484375,-43.9453125,5.37109375,21.484375,18.06640625,0.0
231.1328125,5.859375,-40.0390625,4.39453125,8.30078125,-45.41015625,0.0
231.13671875,12.6953125,-46.875,7.8125,15.625,-249.0234375,0.0
231.140625,-9.27734375,-55.6640625,6.34765625,24.4140625,-274.90234375,0.0
231.14453125,-20.99609375,-48.33984375,3.41796875,15.625,-208.984375,0.0
231.1484375,-8.7890625,-32.2265625,-1.953125,7.8125,-196.2890625,0.0
231.15234375,0.9765625,-29.78515625,-14.16015625,1.46484375,-134.27734375,0.0
231.15625,-4.39453125,-41.015625,-16.11328125,8.30078125,-90.33203125,0.0
231.16015625,-9.27734375,-38.57421875,-10.25390625,14.6484375,-116.2109375,0.0
231.1640625,-11.71875,-33.69140625,-9.27734375,7.32421875,-110.83984375,0.0
231.16796875,-15.13671875,-34.66796875,-13.18359375,4.8828125,-22.4609375,0.0
231.171875,0.0,-37.59765625,-15.13671875,2.44140625,64.94140625,0.0
231.17578125,2.44140625,-35.15625,-21.484375,-0.9765625,77.63671875,0.0
231.1796875,-18.5546875,-31.73828125,-28.80859375,-7.8125,67.3828125,0.0
231.18359375,-25.390625,-35.64453125,-23.4375,-7.32421875,97.16796875,0.0
231.1875,-16.6015625,-32.71484375,-20.5078125,-6.34765625,121.58203125,0.0
231.19140625,-3.90625,-30.76171875,-22.94921875,-8.7890625,32.2265625,0.0
231.1953125,-6.34765625,-34.1796875,-23.4375,-6.34765625,-81.54296875,0.0
