timestam,TP9,AF7,AF8,TP10,AUX,Marker
21.00390625,-31.25,-29.296875,-20.99609375,-36.62109375,20.01953125,0.0
21.0078125,-23.92578125,-36.1328125,-29.78515625,-42.96875,12.6953125,0.0
21.01171875,-20.01953125,-38.57421875,-26.3671875,-26.3671875,-54.6875,0.0
21.015625,-29.296875,-34.1796875,-23.4375,-31.25,-76.66015625,0.0
21.01953125,-32.2265625,-31.25,-26.3671875,-45.41015625,-46.875,0.0
21.0234375,-19.04296875,-23.4375,-29.78515625,-36.62109375,-30.2734375,0.0
21.02734375,-14.6484375,-16.11328125,-30.76171875,-17.578125,4.39453125,0.0
21.03125,-31.73828125,-31.25,-17.578125,-16.11328125,-59.08203125,0.0
21.03515625,-42.48046875,-35.64453125,-18.06640625,-17.08984375,-72.265625,0.0
21.0390625,-27.83203125,-28.3203125,-22.94921875,-18.5546875,-105.95703125,0.0
21.04296875,-22.94921875,-31.25,-19.53125,-34.1796875,-99.12109375,0.0
21.046875,-29.78515625,-39.0625,-26.3671875,-42.96875,-116.69921875,0.0
21.05078125,-25.390625,-45.41015625,-32.2265625,-25.390625,-126.953125,0.0
21.0546875,-29.296875,-37.59765625,-34.1796875,-17.08984375,-69.3359375,0.0
21.05859375,-41.015625,-29.296875,-36.62109375,-28.80859375,-91.30859375,0.0
21.0625,-37.59765625,-34.66796875,-34.66796875,-30.2734375,-154.78515625,0.0
21.06640625,-28.3203125,-42.48046875,-33.69140625,-31.25,-57.6171875,0.0
21.0703125,-30.2734375,-42.48046875,-33.69140625,-32.2265625,17.578125,0.0
21.07421875,-43.45703125,-41.015625,-36.1328125,-33.69140625,4.8828125,0.0
21.078125,-34.66796875,-39.0625,-32.71484375,-32.2265625,-19.53125,0.0
21.08203125,-31.25,-37.109375,-31.25,-34.1796875,1.953125,0.0
21.0859375,-44.43359375,-34.1796875,-30.76171875,-41.50390625,26.85546875,0.0
21.08984375,-37.109375,-31.25,-22.4609375,-39.55078125,53.7109375,0.0
21.09375,-19.04296875,-29.296875,-25.390625,-31.73828125,17.08984375,0.0
21.09765625,-29.78515625,-31.73828125,-38.0859375,-24.90234375,-92.28515625,0.0
21.1015625,-41.50390625,-34.1796875,-37.59765625,-35.15625,-103.515625,0.0
21.10546875,-34.66796875,-33.69140625,-37.109375,-36.1328125,-37.59765625,0.0
21.109375,-34.1796875,-37.109375,-38.57421875,-18.5546875,-35.64453125,0.0
21.11328125,-36.62109375,-37.59765625,-39.55078125,-24.90234375,1.953125,0.0
21.1171875,-42.96875,-30.76171875,-33.203125,-41.50390625,46.38671875,0.0
21.12109375,-45.8984375,-32.71484375,-26.85546875,-41.9921875,-5.37109375,0.0
21.125,-34.66796875,-37.109375,-41.015625,-44.43359375,-38.0859375,0.0
21.12890625,-37.59765625,-36.1328125,-44.921875,-51.7578125,-63.4765625,0.0
21.1328125,-39.55078125,-33.203125,-35.64453125,-39.55078125,-60.05859375,0.0
21.13671875,-34.66796875,-32.71484375,-28.3203125,-36.62109375,58.59375,0.0
21.140625,-32.71484375,-34.1796875,-33.69140625,-37.59765625,67.87109375,0.0
21.14453125,-34.66796875,-37.59765625,-35.15625,-38.0859375,4.8828125,0.0
21.1484375,-39.0625,-31.25,-29.296875,-43.45703125,81.0546875,0.0
21.15234375,-46.875,-27.34375,-34.1796875,-45.41015625,129.39453125,0.0
21.15625,-54.19921875,-32.71484375,-34.66796875,-44.43359375,54.6875,0.0
21.16015625,-48.828125,-32.71484375,-32.2265625,-37.109375,0.48828125,0.0
21.1640625,-47.36328125,-29.296875,-34.1796875,-30.76171875,13.671875,0.0
21.16796875,-44.43359375,-29.78515625,-29.296875,-29.296875,-9.765625,0.0
21.171875,-41.015625,-33.203125,-26.85546875,-33.203125,-85.9375,0.0
21.17578125,-45.8984375,-35.64453125,-33.69140625,-38.0859375,-41.9921875,0.0
21.1796875,-44.921875,-36.62109375,-32.2265625,-35.15625,78.125,0.0
21.18359375,-35.64453125,-34.66796875,-31.25,-47.36328125,93.26171875,0.0
21.1875,-23.92578125,-26.85546875,-32.2265625,-52.24609375,-8.30078125,0.0
21.19140625,-16.6015625,-22.4609375,-27.83203125,-35.15625,-36.1328125,0.0
21.1953125,-19.04296875,-25.390625,-26.85546875,-25.87890625,-38.0859375,0.0
21.19921875,-15.13671875,-26.3671875,-29.78515625,-14.6484375,-50.78125,0.0
21.203125,-4.8828125,-23.92578125,-32.71484375,-9.765625,-35.64453125,0.0
21.20703125,-21.97265625,-21.484375,-28.3203125,-25.87890625,-62.98828125,0.0
21.2109375,-47.36328125,-30.2734375,-26.85546875,-36.1328125,-57.12890625,0.0
21.21484375,-33.203125,-39.55078125,-27.83203125,-12.6953125,-39.55078125,0.0
21.21875,-12.6953125,-39.55078125,-28.80859375,-2.44140625,-29.78515625,0.0
21.22265625,-8.30078125,-40.52734375,-31.73828125,-17.08984375,17.08984375,0.0
21.2265625,8.30078125,-35.64453125,-19.53125,-1.953125,6.34765625,0.0
21.23046875,9.27734375,-25.87890625,-18.5546875,8.7890625,-24.4140625,0.0
21.234375,-8.7890625,-26.85546875,-29.78515625,-5.37109375,50.29296875,0.0
21.23828125,-9.765625,-32.71484375,-27.83203125,1.46484375,19.04296875,0.0
21.2421875,3.41796875,-30.2734375,-25.87890625,4.39453125,-17.578125,0.0
21.24609375,20.01953125,-21.97265625,-25.390625,-8.30078125,28.3203125,0.0
21.25,13.18359375,-20.99609375,-25.390625,-3.90625,25.87890625,0.0
21.25390625,-12.6953125,-29.296875,-25.87890625,16.11328125,-14.6484375,0.0
21.2578125,-4.39453125,-26.85546875,-25.87890625,29.78515625,-62.5,0.0
21.26171875,-2.9296875,-20.01953125,-20.5078125,13.18359375,-76.171875,0.0
21.265625,-9.27734375,-21.484375,-20.5078125,2.44140625,-59.5703125,0.0
21.26953125,3.41796875,-26.85546875,-18.5546875,-1.953125,-70.3125,0.0
21.2734375,-4.8828125,-25.87890625,-21.484375,-14.16015625,-28.80859375,0.0
21.27734375,-17.08984375,-20.01953125,-28.80859375,-0.48828125,6.8359375,0.0
21.28125,-14.16015625,-26.3671875,-33.203125,-0.9765625,-36.62109375,0.0
21.28515625,-5.37109375,-33.69140625,-35.64453125,-17.08984375,-10.7421875,0.0
21.2890625,-0.9765625,-31.73828125,-32.2265625,-18.5546875,13.671875,0.0
21.29296875,-9.27734375,-32.71484375,-30.76171875,-14.16015625,4.8828125,0.0
21.296875,-17.578125,-39.55078125,-31.25,-18.5546875,26.3671875,0.0
21.30078125,-26.3671875,-43.9453125,-31.73828125,-17.578125,28.80859375,0.0
21.3046875,-25.87890625,-36.62109375,-30.2734375,-22.4609375,-8.30078125,0.0
21.30859375,-18.06640625,-28.80859375,-32.2265625,-29.78515625,-93.26171875,0.0
21.3125,-31.25,-32.2265625,-38.57421875,-31.73828125,-88.37890625,0.0
21.31640625,-41.9921875,-32.71484375,-25.87890625,-20.01953125,41.50390625,0.0
21.3203125,-30.2734375,-31.25,-26.85546875,-23.92578125,41.015625,0.0
21.32421875,-29.296875,-35.64453125,-35.64453125,-37.59765625,-64.94140625,0.0
21.328125,-34.66796875,-36.62109375,-28.80859375,-40.0390625,-81.54296875,0.0
21.33203125,-35.15625,-34.1796875,-33.203125,-29.78515625,-58.10546875,0.0
21.3359375,-29.78515625,-31.25,-36.1328125,-21.484375,-84.9609375,0.0
21.33984375,-21.97265625,-29.296875,-31.73828125,-27.83203125,-94.23828125,0.0
21.34375,-19.04296875,-28.3203125,-33.203125,-25.390625,5.37109375,0.0
21.34765625,-28.80859375,-28.3203125,-26.85546875,-27.34375,20.99609375,0.0
21.3515625,-44.43359375,-29.296875,-20.99609375,-29.78515625,-1.46484375,0.0
21.35546875,-38.0859375,-23.4375,-20.01953125,-14.6484375,-50.78125,0.0
21.359375,-41.50390625,-27.83203125,-9.765625,-10.25390625,-172.8515625,0.0
21.36328125,-35.64453125,-32.71484375,-13.671875,-23.4375,-151.85546875,0.0
21.3671875,-25.390625,-31.73828125,-27.34375,-36.1328125,-173.33984375,0.0
21.37109375,-31.73828125,-29.296875,-25.87890625,-33.203125,-221.19140625,0.0
21.375,-29.78515625,-32.2265625,-22.94921875,-23.4375,-175.78125,0.0
21.37890625,-33.69140625,-34.1796875,-30.2734375,-32.2265625,-131.34765625,0.0
21.3828125,-37.109375,-30.76171875,-35.15625,-38.57421875,-66.40625,0.0
21.38671875,-19.53125,-32.2265625,-38.0859375,-35.64453125,-115.234375,0.0
21.390625,-15.625,-32.71484375,-38.0859375,-31.73828125,-166.9921875,0.0
21.39453125,-36.62109375,-28.80859375,-31.25,-20.99609375,-30.76171875,0.0
21.3984375,-28.80859375,-25.87890625,-29.296875,-17.578125,-71.2890625,0.0
21.40234375,-30.76171875,-31.73828125,-30.76171875,-20.5078125,-168.9453125,0.0
21.40625,-42.48046875,-37.59765625,-22.4609375,-29.296875,-98.6328125,0.0
21.41015625,-37.109375,-39.0625,-24.90234375,-46.38671875,-32.71484375,0.0
21.4140625,-40.0390625,-33.203125,-31.73828125,-40.52734375,-54.6875,0.0
21.41796875,-38.0859375,-33.203125,-24.90234375,-33.69140625,-90.33203125,0.0
21.421875,-31.25,-38.57421875,-20.5078125,-37.109375,-104.00390625,0.0
21.42578125,-23.92578125,-33.69140625,-27.34375,-23.92578125,-102.05078125,0.0
21.4296875,-25.87890625,-31.73828125,-29.296875,-20.99609375,-85.44921875,0.0
21.43359375,-34.1796875,-31.25,-32.2265625,-27.34375,-113.76953125,0.0
21.4375,-30.2734375,-26.3671875,-37.109375,-31.25,-124.51171875,0.0
21.44140625,-17.08984375,-27.34375,-32.2265625,-27.34375,-81.0546875,0.0
21.4453125,-30.76171875,-32.2265625,-29.296875,-33.69140625,-105.95703125,0.0
21.44921875,-36.1328125,-38.0859375,-31.73828125,-39.0625,-94.23828125,0.0
21.453125,-19.04296875,-33.203125,-22.4609375,-26.85546875,-4.39453125,0.0
21.45703125,-35.15625,-29.78515625,-20.99609375,-41.50390625,-31.73828125,0.0
21.4609375,-50.29296875,-28.80859375,-28.3203125,-51.26953125,-58.10546875,0.0
21.46484375,-27.34375,-27.83203125,-30.76171875,-51.7578125,-44.921875,0.0
21.46875,-23.4375,-28.80859375,-28.80859375,-47.36328125,-38.57421875,0.0
21.47265625,-41.50390625,-31.73828125,-31.73828125,-35.64453125,-98.14453125,0.0
21.4765625,-36.1328125,-32.71484375,-29.78515625,-31.25,-86.42578125,0.0
21.48046875,-36.62109375,-34.1796875,-27.34375,-41.9921875,-44.43359375,0.0
21.484375,-35.15625,-38.0859375,-32.2265625,-40.0390625,-101.07421875,0.0
21.48828125,-22.94921875,-32.71484375,-29.296875,-30.76171875,-96.19140625,0.0
21.4921875,-30.2734375,-26.3671875,-30.2734375,-40.0390625,-82.51953125,0.0
21.49609375,-50.78125,-34.66796875,-33.69140625,-45.8984375,-115.234375,0.0
21.5,-61.5234375,-38.57421875,-34.1796875,-39.0625,-104.00390625,0.0
21.50390625,-39.55078125,-35.64453125,-36.62109375,-37.109375,-79.1015625,0.0
21.5078125,-37.109375,-31.25,-26.85546875,-41.50390625,-123.53515625,0.0
21.51171875,-54.19921875,-27.83203125,-14.6484375,-35.15625,-119.62890625,0.0
21.515625,-41.015625,-31.73828125,-26.3671875,-28.3203125,83.49609375,0.0
21.51953125,-31.25,-36.1328125,-37.109375,-33.69140625,136.23046875,0.0
21.5234375,-33.203125,-35.15625,-29.296875,-30.2734375,39.0625,0.0
21.52734375,-35.15625,-36.62109375,-23.92578125,-29.296875,56.15234375,0.0
21.53125,-36.1328125,-35.15625,-26.85546875,-19.04296875,95.21484375,0.0
21.53515625,-45.8984375,-31.73828125,-24.90234375,-7.32421875,79.1015625,0.0
21.5390625,-55.6640625,-33.203125,-27.83203125,-20.01953125,118.65234375,0.0
21.54296875,-45.8984375,-35.64453125,-35.15625,-38.57421875,137.6953125,0.0
21.546875,-20.5078125,-33.69140625,-28.3203125,-35.64453125,83.984375,0.0
21.55078125,-31.25,-33.203125,-25.390625,-28.3203125,78.125,0.0
21.5546875,-48.33984375,-32.71484375,-27.83203125,-30.2734375,91.796875,0.0
21.55859375,-49.8046875,-31.73828125,-30.2734375,-29.296875,82.03125,0.0
21.5625,-41.015625,-33.69140625,-29.78515625,-36.1328125,61.5234375,0.0
21.56640625,-32.71484375,-34.66796875,-28.80859375,-33.69140625,9.765625,0.0
21.5703125,-31.25,-37.109375,-27.34375,-21.97265625,-36.1328125,0.0
21.57421875,-33.69140625,-41.9921875,-28.3203125,-20.01953125,9.765625,0.0
21.578125,-32.71484375,-37.59765625,-34.66796875,-23.92578125,54.19921875,0.0
21.58203125,-25.390625,-35.15625,-36.1328125,-35.15625,-27.34375,0.0
21.5859375,-29.296875,-32.71484375,-35.15625,-35.15625,-2.9296875,0.0
21.58984375,-37.109375,-33.69140625,-34.66796875,-34.66796875,21.484375,0.0
21.59375,-42.48046875,-32.2265625,-31.73828125,-32.71484375,-11.71875,0.0
21.59765625,-32.71484375,-31.25,-27.34375,-34.1796875,-95.703125,0.0
21.6015625,-16.6015625,-36.62109375,-14.6484375,-37.109375,-174.31640625,0.0
21.60546875,-17.08984375,-36.1328125,-15.625,-34.66796875,-122.0703125,0.0
21.609375,-12.20703125,-25.390625,-32.71484375,-32.71484375,34.1796875,0.0
21.61328125,-8.30078125,-19.04296875,-34.1796875,-31.25,26.85546875,0.0
21.6171875,-20.99609375,-23.92578125,-27.34375,-27.34375,-41.50390625,0.0
21.62109375,-34.1796875,-24.90234375,-29.296875,-25.390625,-54.6875,0.0
21.625,-28.3203125,-25.87890625,-28.3203125,-34.1796875,-14.6484375,0.0
21.62890625,-35.15625,-32.71484375,-28.80859375,-29.296875,-1.953125,0.0
21.6328125,-47.8515625,-30.2734375,-32.2265625,-17.578125,0.9765625,0.0
21.63671875,-47.8515625,-31.73828125,-29.78515625,-16.6015625,26.85546875,0.0
21.640625,-42.48046875,-35.64453125,-31.25,-31.25,8.7890625,0.0
21.64453125,-28.80859375,-28.80859375,-28.80859375,-36.1328125,29.296875,0.0
21.6484375,-23.4375,-32.71484375,-30.2734375,-32.2265625,32.71484375,0.0
21.65234375,-24.90234375,-36.1328125,-34.66796875,-31.73828125,-48.828125,0.0
21.65625,-13.671875,-28.80859375,-34.1796875,-26.85546875,-94.7265625,0.0
21.66015625,-21.97265625,-26.3671875,-32.71484375,-18.06640625,-145.5078125,0.0
21.6640625,-39.55078125,-32.71484375,-27.83203125,-23.4375,-109.375,0.0
21.66796875,-31.73828125,-35.64453125,-25.390625,-39.55078125,8.30078125,0.0
21.671875,-33.69140625,-30.2734375,-29.296875,-45.8984375,48.828125,0.0
21.67578125,-41.9921875,-25.390625,-27.34375,-25.390625,13.671875,0.0
21.6796875,-42.48046875,-24.90234375,-21.97265625,-22.94921875,-31.25,0.0
21.68359375,-41.50390625,-35.64453125,-37.59765625,-49.8046875,-58.59375,0.0
21.6875,-38.57421875,-36.62109375,-36.1328125,-48.828125,-50.29296875,0.0
21.69140625,-33.69140625,-28.3203125,-16.6015625,-29.78515625,-76.171875,0.0
21.6953125,-38.0859375,-23.92578125,-25.390625,-22.94921875,-18.5546875,0.0
21.69921875,-34.1796875,-26.85546875,-35.15625,-30.76171875,51.7578125,0.0
21.703125,-32.2265625,-33.69140625,-30.76171875,-37.109375,11.71875,0.0
21.70703125,-32.2265625,-38.57421875,-20.5078125,-38.0859375,-37.109375,0.0
21.7109375,-32.71484375,-36.62109375,-26.85546875,-23.4375,-13.18359375,0.0
21.71484375,-37.109375,-32.71484375,-31.73828125,-29.78515625,-34.1796875,0.0
21.71875,-27.34375,-29.296875,-30.76171875,-36.1328125,-80.56640625,0.0
21.72265625,-27.34375,-32.2265625,-32.71484375,-27.83203125,-67.3828125,0.0
21.7265625,-27.34375,-32.2265625,-33.69140625,-26.3671875,-28.3203125,0.0
21.73046875,-24.4140625,-32.71484375,-31.25,-20.5078125,-40.0390625,0.0
21.734375,-41.015625,-37.59765625,-27.83203125,-26.3671875,-66.40625,0.0
21.73828125,-45.8984375,-33.69140625,-32.71484375,-39.55078125,-101.5625,0.0
21.7421875,-26.85546875,-28.80859375,-36.1328125,-37.59765625,-112.79296875,0.0
21.74609375,-15.13671875,-29.78515625,-30.2734375,-29.78515625,-46.875,0.0
21.75,-24.4140625,-34.1796875,-29.296875,-27.34375,-22.94921875,0.0
21.75390625,-31.73828125,-34.1796875,-30.76171875,-25.390625,1.953125,0.0
21.7578125,-34.66796875,-32.2265625,-26.3671875,-18.5546875,59.5703125,0.0
21.76171875,-36.1328125,-32.71484375,-29.78515625,-22.4609375,60.05859375,0.0
21.765625,-27.83203125,-32.71484375,-31.73828125,-25.87890625,40.52734375,0.0
21.76953125,-20.01953125,-34.66796875,-26.3671875,-29.78515625,-20.5078125,0.0
21.7734375,-22.94921875,-35.15625,-25.390625,-26.3671875,-47.8515625,0.0
21.77734375,-35.15625,-32.2265625,-25.390625,-20.99609375,-20.01953125,0.0
21.78125,-40.52734375,-36.1328125,-20.5078125,-36.62109375,-5.859375,0.0
21.78515625,-36.1328125,-37.59765625,-25.87890625,-52.734375,29.78515625,0.0
21.7890625,-35.15625,-33.69140625,-32.2265625,-42.48046875,62.01171875,0.0
21.79296875,-48.828125,-31.25,-26.85546875,-39.55078125,22.4609375,0.0
21.796875,-41.015625,-32.71484375,-20.01953125,-27.34375,-50.29296875,0.0
21.80078125,-19.53125,-32.71484375,-29.296875,-25.390625,-60.05859375,0.0
21.8046875,-29.78515625,-34.1796875,-32.71484375,-40.0390625,-46.875,0.0
21.80859375,-38.0859375,-39.0625,-21.484375,-35.64453125,-136.71875,0.0
21.8125,-29.296875,-37.109375,-20.99609375,-30.76171875,-163.57421875,0.0
21.81640625,-30.2734375,-37.59765625,-22.94921875,-24.4140625,-79.1015625,0.0
21.8203125,-34.66796875,-44.43359375,-22.94921875,-23.4375,-66.89453125,0.0
21.82421875,-25.390625,-39.0625,-13.18359375,-31.73828125,-68.359375,0.0
21.828125,-20.99609375,-34.66796875,-9.27734375,-28.80859375,-93.75,0.0
21.83203125,-29.78515625,-35.15625,-25.390625,-27.83203125,-84.9609375,0.0
21.8359375,-38.57421875,-32.2265625,-30.76171875,-33.203125,-96.6796875,0.0
21.83984375,-30.2734375,-34.66796875,-33.203125,-30.2734375,-115.72265625,0.0
21.84375,-30.2734375,-37.59765625,-39.0625,-38.0859375,-43.45703125,0.0
21.84765625,-45.41015625,-40.0390625,-37.109375,-43.45703125,52.734375,0.0
21.8515625,-51.7578125,-41.50390625,-40.0390625,-37.59765625,-2.44140625,0.0
21.85546875,-58.59375,-37.109375,-43.45703125,-24.4140625,-69.82421875,0.0
21.859375,-51.7578125,-34.66796875,-39.55078125,-28.80859375,-39.55078125,0.0
21.86328125,-38.57421875,-38.0859375,-36.62109375,-45.8984375,-43.9453125,0.0
21.8671875,-29.296875,-32.2265625,-32.71484375,-41.50390625,-22.4609375,0.0
21.87109375,-35.64453125,-29.78515625,-30.2734375,-36.1328125,3.41796875,0.0
21.875,-50.78125,-36.1328125,-29.296875,-38.0859375,22.4609375,0.0
21.87890625,-50.29296875,-32.2265625,-31.25,-36.62109375,-19.53125,0.0
21.8828125,-43.45703125,-29.78515625,-26.3671875,-43.45703125,-60.05859375,0.0
21.88671875,-34.1796875,-34.1796875,-26.3671875,-46.38671875,-76.66015625,0.0
21.890625,-30.2734375,-32.2265625,-34.66796875,-45.41015625,-65.4296875,0.0
21.89453125,-36.62109375,-30.2734375,-33.69140625,-45.8984375,50.78125,0.0
21.8984375,-51.26953125,-32.71484375,-35.15625,-32.71484375,55.6640625,0.0
21.90234375,-46.875,-29.78515625,-38.57421875,-21.97265625,41.9921875,0.0
21.90625,-40.52734375,-34.1796875,-38.57421875,-31.73828125,-1.46484375,0.0
21.91015625,-43.9453125,-43.45703125,-40.0390625,-40.52734375,-107.91015625,0.0
21.9140625,-42.96875,-41.50390625,-41.015625,-28.3203125,-107.91015625,0.0
21.91796875,-43.9453125,-36.62109375,-36.1328125,-15.13671875,-88.37890625,0.0
21.921875,-36.62109375,-33.69140625,-25.87890625,-20.5078125,-23.4375,0.0
21.92578125,-33.69140625,-33.69140625,-20.5078125,-25.390625,-7.8125,0.0
21.9296875,-37.109375,-36.1328125,-19.04296875,-25.87890625,-43.9453125,0.0
21.93359375,-40.52734375,-35.64453125,-25.390625,-29.296875,9.27734375,0.0
21.9375,-34.1796875,-33.69140625,-33.69140625,-22.4609375,71.77734375,0.0
21.94140625,-28.80859375,-30.2734375,-31.73828125,-17.578125,15.625,0.0
21.9453125,-20.99609375,-30.2734375,-22.94921875,-29.78515625,-27.34375,0.0
21.94921875,-21.97265625,-34.1796875,-23.92578125,-30.76171875,4.8828125,0.0
21.953125,-31.73828125,-33.69140625,-25.390625,-37.109375,-67.87109375,0.0
21.95703125,-43.9453125,-36.62109375,-26.85546875,-41.9921875,-142.08984375,0.0
21.9609375,-42.96875,-29.78515625,-30.2734375,-29.78515625,-142.08984375,0.0
21.96484375,-41.9921875,-20.99609375,-30.76171875,-31.25,-77.1484375,0.0
21.96875,-45.41015625,-22.4609375,-36.62109375,-36.1328125,15.13671875,0.0
21.97265625,-47.36328125,-29.296875,-32.2265625,-31.73828125,89.84375,0.0
21.9765625,-52.24609375,-38.0859375,-20.5078125,-21.484375,25.390625,0.0
21.98046875,-39.55078125,-41.9921875,-26.85546875,-20.5078125,-65.4296875,0.0
21.984375,-32.71484375,-41.9921875,-36.1328125,-37.109375,-28.80859375,0.0
21.98828125,-29.296875,-38.0859375,-39.55078125,-39.0625,-72.265625,0.0
21.9921875,-35.64453125,-25.87890625,-37.109375,-29.296875,-54.6875,0.0
21.99609375,-42.96875,-19.04296875,-29.78515625,-28.3203125,109.375,0.0
22.0,-38.57421875,-20.99609375,-23.92578125,-34.1796875,166.015625,0.0
22.00390625,-24.4140625,-28.80859375,-27.34375,-41.9921875,150.390625,0.0
22.0078125,-28.80859375,-30.76171875,-29.296875,-38.57421875,103.515625,0.0
22.01171875,-40.52734375,-29.296875,-31.73828125,-38.0859375,25.87890625,0.0
22.015625,-38.57421875,-31.73828125,-36.62109375,-39.0625,-27.83203125,0.0
22.01953125,-47.8515625,-29.78515625,-35.15625,-34.1796875,-132.32421875,0.0
22.0234375,-44.43359375,-31.25,-32.2265625,-43.9453125,-105.46875,0.0
22.02734375,-32.71484375,-30.2734375,-34.1796875,-40.52734375,-25.87890625,0.0
22.03125,-39.0625,-25.87890625,-38.57421875,-24.90234375,-34.66796875,0.0
22.03515625,-50.29296875,-33.69140625,-45.8984375,-23.4375,-24.4140625,0.0
22.0390625,-52.734375,-44.43359375,-42.96875,-33.203125,36.1328125,0.0
22.04296875,-34.1796875,-35.64453125,-34.1796875,-45.8984375,-18.5546875,0.0
22.046875,-23.92578125,-32.2265625,-38.57421875,-54.6875,-96.19140625,0.0
22.05078125,-37.59765625,-39.0625,-39.55078125,-40.0390625,-9.765625,0.0
22.0546875,-50.78125,-35.15625,-35.15625,-28.80859375,60.546875,0.0
22.05859375,-51.7578125,-37.109375,-37.109375,-35.15625,0.48828125,0.0
22.0625,-41.50390625,-39.55078125,-38.57421875,-31.73828125,-80.56640625,0.0
22.06640625,-24.4140625,-31.73828125,-33.69140625,-35.64453125,-27.83203125,0.0
22.0703125,-15.625,-28.80859375,-32.71484375,-28.3203125,34.66796875,0.0
22.07421875,-12.6953125,-28.80859375,-31.25,-9.765625,-35.15625,0.0
22.078125,-28.3203125,-32.2265625,-17.578125,-14.6484375,-137.6953125,0.0
22.08203125,-57.12890625,-38.57421875,-8.7890625,-55.6640625,-44.921875,0.0
22.0859375,-60.546875,-42.96875,-11.23046875,-73.2421875,8.30078125,0.0
22.08984375,-56.15234375,-50.78125,-10.25390625,-54.6875,-6.34765625,0.0
22.09375,-68.359375,-53.22265625,0.48828125,-49.8046875,18.5546875,0.0
22.09765625,-81.54296875,-49.31640625,7.32421875,-55.17578125,-46.875,0.0
22.1015625,-88.8671875,-55.6640625,6.34765625,-56.640625,-74.70703125,0.0
22.10546875,-87.40234375,-65.91796875,3.90625,-66.89453125,-64.453125,0.0
22.109375,-80.078125,-67.3828125,7.8125,-76.171875,-42.96875,0.0
22.11328125,-77.63671875,-64.453125,7.32421875,-64.453125,62.98828125,0.0
22.1171875,-83.0078125,-57.12890625,-1.953125,-46.875,185.05859375,0.0
22.12109375,-72.75390625,-50.78125,-3.90625,-44.921875,166.50390625,0.0
22.125,-67.87109375,-56.640625,-11.71875,-57.12890625,43.45703125,0.0
22.12890625,-62.98828125,-56.640625,-15.13671875,-54.19921875,-39.0625,0.0
22.1328125,-62.5,-55.6640625,-8.30078125,-46.875,-13.18359375,0.0
22.13671875,-64.94140625,-55.6640625,-7.32421875,-56.640625,10.25390625,0.0
22.140625,-59.5703125,-48.33984375,-9.27734375,-51.7578125,-62.5,0.0
22.14453125,-53.22265625,-45.8984375,-11.23046875,-40.0390625,-57.12890625,0.0
22.1484375,-49.8046875,-44.43359375,-19.53125,-41.9921875,13.671875,0.0
22.15234375,-55.17578125,-42.48046875,-15.625,-36.62109375,12.20703125,0.0
22.15625,-57.12890625,-42.96875,3.41796875,-40.52734375,-30.2734375,0.0
22.16015625,-60.05859375,-48.33984375,-3.41796875,-46.38671875,-52.24609375,0.0
22.1640625,-45.41015625,-51.26953125,-15.13671875,-43.45703125,-23.4375,0.0
22.16796875,-37.59765625,-42.96875,-14.16015625,-43.9453125,-81.54296875,0.0
22.171875,-44.43359375,-37.109375,-17.578125,-41.9921875,-118.1640625,0.0
22.17578125,-41.50390625,-36.62109375,-20.5078125,-26.85546875,-54.19921875,0.0
22.1796875,-45.8984375,-34.1796875,-22.94921875,-30.2734375,3.90625,0.0
22.18359375,-37.109375,-35.15625,-20.99609375,-50.29296875,-46.38671875,0.0
22.1875,-20.5078125,-31.25,-20.99609375,-42.96875,-35.15625,0.0
22.19140625,-32.2265625,-29.78515625,-24.4140625,-32.2265625,28.80859375,0.0
22.1953125,-44.921875,-34.1796875,-24.4140625,-28.3203125,-13.671875,0.0
22.19921875,-46.38671875,-38.0859375,-10.7421875,-31.25,-30.2734375,0.0
22.203125,-37.109375,-39.55078125,-10.7421875,-37.109375,13.671875,0.0
22.20703125,-25.87890625,-42.48046875,-32.2265625,-31.73828125,32.71484375,0.0
22.2109375,-26.3671875,-47.36328125,-30.2734375,-32.71484375,36.1328125,0.0
22.21484375,-35.15625,-36.1328125,-29.296875,-30.76171875,-26.85546875,0.0
22.21875,-41.015625,-23.4375,-32.71484375,-31.25,-1.953125,0.0
22.22265625,-32.71484375,-24.4140625,-25.390625,-34.66796875,1.953125,0.0
22.2265625,-22.4609375,-22.94921875,-23.92578125,-31.73828125,-114.2578125,0.0
22.23046875,-25.87890625,-26.85546875,-21.484375,-37.109375,-127.9296875,0.0
22.234375,-24.4140625,-36.1328125,-22.4609375,-36.62109375,-113.28125,0.0
22.23828125,-26.85546875,-34.66796875,-29.78515625,-35.15625,-123.53515625,0.0
22.2421875,-21.97265625,-34.66796875,-20.5078125,-26.85546875,-125.9765625,0.0
22.24609375,-17.08984375,-35.15625,-12.6953125,-21.484375,-148.4375,0.0
22.25,-27.34375,-32.2265625,-19.53125,-29.296875,-102.5390625,0.0
22.25390625,-36.1328125,-25.390625,-21.97265625,-33.203125,-101.07421875,0.0
22.2578125,-40.0390625,-21.97265625,-23.4375,-22.4609375,-82.03125,0.0
22.26171875,-39.55078125,-30.2734375,-21.97265625,-17.08984375,-19.04296875,0.0
22.265625,-32.2265625,-36.1328125,-27.34375,-39.0625,-12.6953125,0.0
22.26953125,-22.94921875,-34.66796875,-28.3203125,-40.0390625,-34.1796875,0.0
22.2734375,-38.57421875,-30.2734375,-23.92578125,-29.296875,-6.8359375,0.0
22.27734375,-45.41015625,-25.390625,-24.4140625,-20.99609375,18.5546875,0.0
22.28125,-34.1796875,-29.296875,-28.80859375,-27.83203125,4.8828125,0.0
22.28515625,-31.25,-32.71484375,-33.69140625,-33.69140625,36.1328125,0.0
22.2890625,-29.296875,-31.25,-33.203125,-27.83203125,19.04296875,0.0
22.29296875,-33.69140625,-30.2734375,-33.203125,-34.66796875,-21.484375,0.0
22.296875,-38.0859375,-31.73828125,-41.50390625,-24.90234375,-31.73828125,0.0
22.30078125,-21.97265625,-30.76171875,-43.45703125,-16.11328125,-27.34375,0.0
22.3046875,-17.08984375,-30.2734375,-41.50390625,-52.24609375,-47.36328125,0.0
22.30859375,-30.2734375,-35.64453125,-42.96875,-62.5,-31.73828125,0.0
22.3125,-29.296875,-35.15625,-42.96875,-33.203125,-38.0859375,0.0
22.31640625,-28.80859375,-31.73828125,-38.0859375,-20.99609375,-166.015625,0.0
22.3203125,-32.2265625,-39.0625,-32.71484375,-18.06640625,-190.4296875,0.0
22.32421875,-23.92578125,-40.0390625,-35.64453125,-31.73828125,-56.15234375,0.0
22.328125,-24.90234375,-31.73828125,-41.9921875,-40.52734375,-45.41015625,0.0
22.33203125,-32.71484375,-35.64453125,-44.43359375,-25.87890625,-53.7109375,0.0
22.3359375,-31.25,-42.48046875,-38.57421875,-20.01953125,-18.06640625,0.0
22.33984375,-29.78515625,-35.64453125,-37.109375,-21.484375,-10.25390625,0.0
22.34375,-20.5078125,-31.25,-40.0390625,-21.484375,-31.73828125,0.0
22.34765625,-16.11328125,-29.78515625,-29.78515625,-13.18359375,-13.18359375,0.0
22.3515625,-20.99609375,-36.1328125,-20.99609375,-5.859375,39.0625,0.0
22.35546875,-22.94921875,-32.2265625,-30.2734375,-7.32421875,-0.9765625,0.0
22.359375,-22.94921875,-21.97265625,-33.203125,-18.06640625,-35.15625,0.0
22.36328125,-11.71875,-25.390625,-36.1328125,-29.296875,-22.4609375,0.0
22.3671875,9.27734375,-22.4609375,-40.0390625,-27.34375,-30.76171875,0.0
22.37109375,5.37109375,-22.94921875,-36.62109375,-16.11328125,-55.6640625,0.0
22.375,-11.23046875,-29.78515625,-37.109375,-24.90234375,-61.5234375,0.0
22.37890625,-14.6484375,-26.85546875,-37.59765625,-23.4375,-94.7265625,0.0
22.3828125,-12.20703125,-23.4375,-39.0625,-18.5546875,-35.64453125,0.0
22.38671875,-14.6484375,-34.1796875,-42.48046875,-18.5546875,-99.12109375,0.0
22.390625,-13.671875,-40.52734375,-40.0390625,-12.20703125,-211.42578125,0.0
22.39453125,-27.83203125,-39.0625,-32.2265625,-16.11328125,-229.4921875,0.0
22.3984375,-44.43359375,-38.57421875,-28.3203125,-28.80859375,-170.41015625,0.0
22.40234375,-32.2265625,-33.69140625,-30.2734375,-30.2734375,-164.0625,0.0
22.40625,-20.01953125,-27.83203125,-30.76171875,-34.1796875,-182.12890625,0.0
22.41015625,-8.30078125,-30.2734375,-37.109375,-32.71484375,-150.390625,0.0
22.4140625,-21.97265625,-33.203125,-35.15625,-17.08984375,-159.66796875,0.0
22.41796875,-42.96875,-34.66796875,-31.25,-9.765625,-159.1796875,0.0
22.421875,-36.1328125,-36.1328125,-30.76171875,-23.4375,-147.4609375,0.0
22.42578125,-27.83203125,-38.0859375,-27.83203125,-31.73828125,-106.93359375,0.0
22.4296875,-31.73828125,-32.2265625,-29.78515625,-30.76171875,-5.859375,0.0
22.43359375,-39.55078125,-36.1328125,-34.1796875,-24.4140625,7.8125,0.0
22.4375,-46.875,-41.015625,-30.76171875,-12.6953125,-48.33984375,0.0
22.44140625,-40.0390625,-36.62109375,-22.94921875,-26.3671875,-76.171875,0.0
22.4453125,-30.76171875,-33.69140625,-31.73828125,-33.69140625,-67.3828125,0.0
22.44921875,-30.2734375,-33.69140625,-37.109375,-33.203125,21.97265625,0.0
22.453125,-35.64453125,-36.1328125,-25.390625,-34.66796875,51.26953125,0.0
22.45703125,-51.7578125,-43.45703125,-25.390625,-25.390625,81.54296875,0.0
22.4609375,-48.33984375,-38.57421875,-29.296875,-23.92578125,82.03125,0.0
22.46484375,-40.0390625,-32.2265625,-30.2734375,-34.1796875,41.015625,0.0
22.46875,-47.36328125,-38.0859375,-33.69140625,-33.203125,78.125,0.0
22.47265625,-47.8515625,-31.25,-35.64453125,-28.80859375,63.4765625,0.0
22.4765625,-39.55078125,-24.90234375,-35.64453125,-23.92578125,37.109375,0.0
22.48046875,-34.1796875,-28.3203125,-26.85546875,-19.53125,27.83203125,0.0
22.484375,-27.83203125,-30.2734375,-23.4375,-32.71484375,25.390625,0.0
22.48828125,-28.80859375,-41.015625,-26.85546875,-47.8515625,-9.27734375,0.0
22.4921875,-28.80859375,-40.0390625,-29.78515625,-34.66796875,31.73828125,0.0
22.49609375,-34.66796875,-31.25,-25.87890625,-33.203125,36.62109375,0.0
22.5,-42.48046875,-26.85546875,-24.4140625,-40.52734375,39.0625,0.0
22.50390625,-40.52734375,-20.5078125,-26.3671875,-36.62109375,52.734375,0.0
22.5078125,-41.50390625,-21.484375,-25.87890625,-34.1796875,-26.3671875,0.0
22.51171875,-54.19921875,-25.390625,-28.3203125,-39.55078125,-28.80859375,0.0
22.515625,-52.24609375,-29.78515625,-27.83203125,-36.62109375,-0.9765625,0.0
22.51953125,-38.0859375,-30.2734375,-26.3671875,-22.94921875,-36.1328125,0.0
22.5234375,-28.80859375,-26.85546875,-31.25,-38.57421875,-77.63671875,0.0
22.52734375,-29.78515625,-31.25,-29.78515625,-46.38671875,-79.58984375,0.0
22.53125,-38.57421875,-36.62109375,-18.06640625,-35.64453125,-85.9375,0.0
22.53515625,-41.015625,-31.25,-26.85546875,-34.66796875,-44.921875,0.0
22.5390625,-35.15625,-28.80859375,-29.78515625,-35.15625,-69.3359375,0.0
22.54296875,-42.96875,-36.1328125,-20.99609375,-35.15625,-98.6328125,0.0
22.546875,-36.62109375,-41.50390625,-16.6015625,-26.3671875,-3.90625,0.0
22.55078125,-30.2734375,-37.59765625,-32.2265625,-35.64453125,26.85546875,0.0
22.5546875,-41.50390625,-33.203125,-37.59765625,-30.76171875,-22.94921875,0.0
22.55859375,-40.52734375,-33.203125,-32.2265625,-26.85546875,-13.18359375,0.0
22.5625,-28.3203125,-35.15625,-34.1796875,-37.109375,33.69140625,0.0
22.56640625,-21.97265625,-35.64453125,-32.2265625,-42.96875,48.33984375,0.0
22.5703125,-13.671875,-28.80859375,-27.83203125,-28.3203125,57.6171875,0.0
22.57421875,4.39453125,-26.85546875,-18.5546875,12.20703125,63.96484375,0.0
22.578125,-23.4375,-31.25,-13.671875,-10.25390625,55.17578125,0.0
22.58203125,-73.2421875,-35.64453125,-33.69140625,-79.1015625,-25.87890625,0.0
22.5859375,-70.3125,-39.55078125,-40.52734375,-92.7734375,-81.0546875,0.0
22.58984375,-61.5234375,-37.59765625,-32.2265625,-64.453125,-29.78515625,0.0
22.59375,-70.80078125,-34.1796875,-33.69140625,-53.7109375,-53.22265625,0.0
22.59765625,-92.7734375,-29.296875,-36.62109375,-81.54296875,-62.01171875,0.0
22.6015625,-95.21484375,-25.390625,-41.015625,-99.12109375,-9.27734375,0.0
22.60546875,-74.21875,-30.76171875,-37.59765625,-82.51953125,26.85546875,0.0
22.609375,-62.5,-36.1328125,-38.0859375,-62.98828125,32.2265625,0.0
22.61328125,-58.59375,-39.0625,-42.96875,-56.640625,37.59765625,0.0
22.6171875,-50.29296875,-32.2265625,-37.109375,-45.41015625,-24.90234375,0.0
22.62109375,-49.8046875,-30.76171875,-35.15625,-41.015625,-66.40625,0.0
22.625,-52.24609375,-30.2734375,-41.015625,-53.22265625,24.90234375,0.0
22.62890625,-40.0390625,-25.87890625,-41.015625,-55.17578125,94.7265625,0.0
22.6328125,-33.203125,-30.76171875,-25.87890625,-46.38671875,41.015625,0.0
22.63671875,-28.3203125,-33.203125,-9.765625,-32.71484375,-48.828125,0.0
22.640625,-28.80859375,-29.78515625,-24.4140625,-21.484375,-83.0078125,0.0
22.64453125,-40.52734375,-22.4609375,-32.2265625,-41.015625,-94.7265625,0.0
22.6484375,-34.1796875,-25.87890625,-31.73828125,-65.91796875,-113.28125,0.0
22.65234375,-43.9453125,-30.76171875,-43.9453125,-64.94140625,-221.6796875,0.0
22.65625,-57.12890625,-30.2734375,-47.36328125,-57.6171875,-297.36328125,0.0
22.66015625,-51.7578125,-37.59765625,-36.62109375,-49.8046875,-268.5546875,0.0
22.6640625,-42.48046875,-29.78515625,-28.80859375,-48.828125,-206.54296875,0.0
22.66796875,-17.578125,-24.4140625,-30.76171875,-47.36328125,-160.15625,0.0
22.671875,-27.34375,-29.78515625,-41.50390625,-52.734375,-134.27734375,0.0
22.67578125,-55.17578125,-37.59765625,-36.1328125,-36.1328125,-164.0625,0.0
22.6796875,-62.01171875,-41.9921875,-26.85546875,-24.90234375,-144.04296875,0.0
22.68359375,-51.26953125,-30.76171875,-31.25,-32.71484375,7.8125,0.0
22.6875,-52.24609375,-25.390625,-34.66796875,-42.48046875,-11.23046875,0.0
22.69140625,-57.6171875,-27.34375,-32.2265625,-51.7578125,-87.40234375,0.0
22.6953125,-55.6640625,-26.3671875,-30.76171875,-44.43359375,8.7890625,0.0
22.69921875,-46.38671875,-29.296875,-33.203125,-41.9921875,72.265625,0.0
22.703125,-30.76171875,-33.203125,-40.0390625,-41.50390625,138.18359375,0.0
22.70703125,-23.92578125,-31.73828125,-41.9921875,-40.52734375,118.1640625,0.0
22.7109375,-26.3671875,-34.1796875,-27.34375,-36.1328125,28.80859375,0.0
22.71484375,-40.0390625,-32.2265625,-24.90234375,-32.2265625,31.73828125,0.0
22.71875,-47.8515625,-31.73828125,-30.76171875,-40.0390625,47.8515625,0.0
22.72265625,-46.875,-26.85546875,-23.92578125,-49.31640625,39.55078125,0.0
22.7265625,-39.55078125,-22.4609375,-14.16015625,-48.828125,-15.13671875,0.0
22.73046875,-31.73828125,-30.76171875,-21.97265625,-39.0625,-22.4609375,0.0
22.734375,-40.52734375,-32.71484375,-29.296875,-37.59765625,-32.71484375,0.0
22.73828125,-40.52734375,-30.76171875,-24.90234375,-36.62109375,2.44140625,0.0
22.7421875,-26.3671875,-26.85546875,-22.94921875,-38.57421875,-17.08984375,0.0
22.74609375,-30.2734375,-28.3203125,-25.390625,-38.57421875,-23.92578125,0.0
22.75,-39.0625,-27.34375,-32.71484375,-37.59765625,-85.9375,0.0
22.75390625,-30.76171875,-25.390625,-34.1796875,-20.5078125,-201.66015625,0.0
22.7578125,-7.32421875,-27.34375,-25.390625,10.7421875,-97.65625,0.0
22.76171875,-13.671875,-23.4375,-20.99609375,-9.27734375,13.671875,0.0
22.765625,-43.45703125,-27.83203125,-27.34375,-63.4765625,-12.6953125,0.0
22.76953125,-49.31640625,-31.73828125,-25.87890625,-70.3125,-46.38671875,0.0
22.7734375,-57.6171875,-31.73828125,-28.80859375,-64.453125,-2.9296875,0.0
22.77734375,-59.5703125,-30.76171875,-38.0859375,-59.5703125,93.26171875,0.0
22.78125,-60.546875,-28.3203125,-33.203125,-66.40625,81.54296875,0.0
22.78515625,-72.265625,-26.85546875,-37.59765625,-93.75,36.1328125,0.0
22.7890625,-62.01171875,-29.78515625,-42.96875,-84.9609375,23.4375,0.0
22.79296875,-51.26953125,-31.25,-36.1328125,-66.40625,-26.3671875,0.0
22.796875,-53.22265625,-26.85546875,-31.25,-57.12890625,65.4296875,0.0
22.80078125,-46.875,-26.85546875,-38.57421875,-55.6640625,58.59375,0.0
22.8046875,-41.015625,-31.25,-45.8984375,-47.8515625,-63.96484375,0.0
22.80859375,-30.2734375,-32.71484375,-38.57421875,-54.6875,-130.37109375,0.0
22.8125,-27.34375,-31.25,-36.1328125,-67.87109375,-167.96875,0.0
22.81640625,-39.55078125,-32.71484375,-36.1328125,-44.921875,-153.3203125,0.0
22.8203125,-41.015625,-31.73828125,-35.64453125,-32.71484375,-139.6484375,0.0
22.82421875,-37.59765625,-30.76171875,-36.62109375,-52.24609375,-152.83203125,0.0
22.828125,-28.80859375,-31.73828125,-30.76171875,-57.12890625,-174.31640625,0.0
22.83203125,-36.62109375,-32.71484375,-29.296875,-43.9453125,-114.74609375,0.0
22.8359375,-48.33984375,-35.15625,-31.25,-36.62109375,-98.14453125,0.0
22.83984375,-44.921875,-35.15625,-32.71484375,-37.59765625,-104.4921875,0.0
22.84375,-36.62109375,-32.71484375,-39.55078125,-51.26953125,-115.72265625,0.0
22.84765625,-29.78515625,-32.71484375,-43.9453125,-49.31640625,-127.9296875,0.0
22.8515625,-23.4375,-30.76171875,-41.9921875,-45.41015625,-6.8359375,0.0
22.85546875,-34.1796875,-27.83203125,-37.109375,-48.33984375,72.75390625,0.0
22.859375,-35.64453125,-31.25,-34.1796875,-42.96875,105.95703125,0.0
22.86328125,-28.3203125,-33.203125,-40.0390625,-43.9453125,39.55078125,0.0
22.8671875,-34.1796875,-32.2265625,-34.66796875,-44.43359375,23.92578125,0.0
22.87109375,-37.59765625,-33.69140625,-26.3671875,-41.50390625,6.8359375,0.0
22.875,-42.96875,-34.1796875,-25.87890625,-31.25,-71.77734375,0.0
22.87890625,-31.73828125,-35.64453125,-28.3203125,-39.0625,-120.1171875,0.0
22.8828125,-18.06640625,-35.15625,-31.25,-37.109375,-64.94140625,0.0
22.88671875,-24.4140625,-36.1328125,-32.2265625,-15.13671875,2.9296875,0.0
22.890625,-33.69140625,-35.15625,-33.203125,-12.20703125,-45.8984375,0.0
22.89453125,-48.33984375,-35.64453125,-32.71484375,-31.25,-24.90234375,0.0
22.8984375,-48.33984375,-27.34375,-32.71484375,-37.59765625,53.7109375,0.0
22.90234375,-38.0859375,-24.4140625,-30.2734375,-34.1796875,19.04296875,0.0
22.90625,-24.4140625,-36.1328125,-17.578125,-32.71484375,-71.77734375,0.0
22.91015625,-18.06640625,-27.83203125,-27.34375,-30.76171875,17.08984375,0.0
22.9140625,-24.4140625,-24.4140625,-34.1796875,-25.390625,96.6796875,0.0
22.91796875,-30.2734375,-34.66796875,-26.3671875,-27.83203125,55.17578125,0.0
22.921875,-37.109375,-37.59765625,-24.90234375,-31.73828125,41.50390625,0.0
22.92578125,-30.2734375,-41.50390625,-33.203125,-31.25,21.484375,0.0
22.9296875,-20.99609375,-38.0859375,-36.62109375,-19.04296875,-22.94921875,0.0
22.93359375,-24.90234375,-30.2734375,-32.2265625,-22.4609375,-3.90625,0.0
22.9375,-35.64453125,-32.2265625,-26.3671875,-42.96875,-13.18359375,0.0
22.94140625,-38.0859375,-39.55078125,-33.69140625,-42.48046875,-17.578125,0.0
22.9453125,-31.73828125,-37.109375,-44.921875,-38.0859375,-49.31640625,0.0
22.94921875,-28.3203125,-33.69140625,-35.64453125,-41.9921875,-30.76171875,0.0
22.953125,-23.4375,-32.2265625,-24.90234375,-27.83203125,-12.6953125,0.0
22.95703125,-28.3203125,-32.71484375,-34.1796875,-20.01953125,-34.66796875,0.0
22.9609375,-30.76171875,-32.2265625,-34.66796875,-29.78515625,-74.70703125,0.0
22.96484375,-23.92578125,-28.80859375,-28.3203125,-29.296875,-94.7265625,0.0
22.96875,-32.71484375,-25.390625,-28.3203125,-24.4140625,-92.28515625,0.0
22.97265625,-38.0859375,-25.390625,-32.2265625,-29.296875,-21.97265625,0.0
22.9765625,-41.015625,-29.78515625,-31.73828125,-27.83203125,-0.9765625,0.0
22.98046875,-37.109375,-36.62109375,-25.87890625,-19.53125,-30.76171875,0.0
22.984375,-28.3203125,-38.0859375,-28.80859375,-29.78515625,-43.45703125,0.0
22.98828125,-35.15625,-34.66796875,-31.25,-51.26953125,-112.79296875,0.0
22.9921875,-44.43359375,-28.3203125,-28.80859375,-43.45703125,-37.59765625,0.0
22.99609375,-59.5703125,-25.87890625,-29.296875,-36.62109375,115.234375,0.0
23.0,-55.6640625,-28.80859375,-29.78515625,-42.48046875,68.359375,0.0
23.00390625,-39.55078125,-32.2265625,-30.2734375,-48.33984375,-74.70703125,0.0
23.0078125,-33.203125,-35.64453125,-35.15625,-48.828125,-103.02734375,0.0
23.01171875,-42.96875,-37.59765625,-28.80859375,-40.52734375,-43.9453125,0.0
23.015625,-44.921875,-37.109375,-27.83203125,-21.97265625,19.04296875,0.0
23.01953125,-38.0859375,-41.50390625,-33.203125,-35.64453125,30.76171875,0.0
23.0234375,-44.921875,-39.55078125,-32.71484375,-51.26953125,0.9765625,0.0
23.02734375,-42.48046875,-36.1328125,-33.69140625,-50.29296875,10.7421875,0.0
23.03125,-38.57421875,-37.59765625,-33.203125,-41.9921875,-13.18359375,0.0
23.03515625,-46.38671875,-36.62109375,-33.69140625,-22.94921875,-37.59765625,0.0
23.0390625,-39.0625,-31.25,-29.78515625,-36.1328125,-21.97265625,0.0
23.04296875,-22.4609375,-33.69140625,-23.92578125,-46.38671875,-54.19921875,0.0
23.046875,-24.4140625,-39.55078125,-24.90234375,-42.96875,3.90625,0.0
23.05078125,-38.0859375,-32.71484375,-26.3671875,-37.59765625,25.87890625,0.0
23.0546875,-52.24609375,-32.2265625,-28.3203125,-27.34375,-43.45703125,0.0
23.05859375,-59.08203125,-34.66796875,-30.76171875,-33.69140625,-63.4765625,0.0
23.0625,-44.43359375,-33.203125,-29.78515625,-44.921875,-187.98828125,0.0
23.06640625,-19.53125,-25.87890625,-27.83203125,-49.8046875,-265.625,0.0
23.0703125,-22.94921875,-26.85546875,-27.34375,-44.921875,-233.3984375,0.0
23.07421875,-41.9921875,-34.66796875,-25.87890625,-22.94921875,-210.44921875,0.0
23.078125,-47.36328125,-36.62109375,-26.3671875,-33.69140625,-196.2890625,0.0
23.08203125,-45.41015625,-39.55078125,-33.69140625,-60.546875,-139.6484375,0.0
23.0859375,-36.1328125,-40.0390625,-43.9453125,-59.08203125,-42.96875,0.0
23.08984375,-21.484375,-34.66796875,-39.0625,-45.41015625,36.62109375,0.0
23.09375,-34.1796875,-33.69140625,-33.203125,-35.15625,23.4375,0.0
23.09765625,-47.8515625,-38.0859375,-31.73828125,-36.1328125,41.9921875,0.0
23.1015625,-44.921875,-37.59765625,-13.671875,-36.1328125,8.30078125,0.0
23.10546875,-42.48046875,-39.0625,-17.08984375,-40.52734375,-14.6484375,0.0
23.109375,-41.015625,-44.43359375,-31.73828125,-48.828125,40.0390625,0.0
23.11328125,-36.62109375,-37.109375,-29.78515625,-38.57421875,24.4140625,0.0
23.1171875,-24.90234375,-29.296875,-26.3671875,-21.484375,102.05078125,0.0
23.12109375,-27.34375,-31.73828125,-30.2734375,-37.109375,80.078125,0.0
23.125,-24.90234375,-35.64453125,-36.1328125,-44.921875,8.7890625,0.0
23.12890625,-22.4609375,-38.0859375,-39.55078125,-37.59765625,6.8359375,0.0
23.1328125,-21.97265625,-30.2734375,-40.0390625,-40.52734375,-5.37109375,0.0
23.13671875,-26.85546875,-22.4609375,-33.69140625,-33.69140625,-9.765625,0.0
23.140625,-37.109375,-25.390625,-31.73828125,-31.25,9.27734375,0.0
23.14453125,-25.87890625,-28.80859375,-18.06640625,-31.25,-20.01953125,0.0
23.1484375,-20.01953125,-29.78515625,-11.71875,-31.73828125,-85.9375,0.0
23.15234375,-39.0625,-25.87890625,-26.3671875,-27.83203125,-63.96484375,0.0
23.15625,-56.640625,-27.34375,-27.34375,-27.83203125,-34.66796875,0.0
23.16015625,-53.7109375,-36.1328125,-22.94921875,-31.73828125,-29.296875,0.0
23.1640625,-33.203125,-27.34375,-23.4375,-20.5078125,9.27734375,0.0
23.16796875,-21.484375,-25.87890625,-26.3671875,-27.34375,-40.0390625,0.0
23.171875,-30.76171875,-33.69140625,-27.83203125,-47.36328125,-29.296875,0.0
23.17578125,-34.1796875,-28.80859375,-22.4609375,-38.57421875,17.08984375,0.0
23.1796875,-34.1796875,-26.85546875,-29.296875,-37.59765625,6.8359375,0.0
23.18359375,-35.64453125,-31.73828125,-40.52734375,-43.9453125,19.53125,0.0
23.1875,-26.3671875,-37.59765625,-32.71484375,-36.62109375,-42.48046875,0.0
23.19140625,-28.3203125,-38.57421875,-14.6484375,-35.64453125,-80.078125,0.0
23.1953125,-39.0625,-32.2265625,-18.5546875,-24.4140625,-54.19921875,0.0
23.19921875,-41.50390625,-35.15625,-31.25,-21.97265625,-32.2265625,0.0
23.203125,-43.45703125,-39.0625,-28.80859375,-43.9453125,-20.5078125,0.0
23.20703125,-46.38671875,-40.52734375,-27.83203125,-37.59765625,80.56640625,0.0
23.2109375,-38.0859375,-35.15625,-38.57421875,-29.296875,146.97265625,0.0
23.21484375,-33.203125,-31.73828125,-34.1796875,-32.2265625,107.421875,0.0
23.21875,-43.45703125,-32.2265625,-29.78515625,-30.76171875,45.41015625,0.0
23.22265625,-40.52734375,-32.71484375,-36.1328125,-35.15625,64.453125,0.0
23.2265625,-28.3203125,-31.25,-33.69140625,-28.3203125,36.1328125,0.0
23.23046875,-29.296875,-36.1328125,-30.76171875,-26.85546875,-15.13671875,0.0
23.234375,-39.55078125,-45.8984375,-31.73828125,-33.69140625,-19.53125,0.0
23.23828125,-44.921875,-41.50390625,-30.76171875,-29.78515625,-57.6171875,0.0
23.2421875,-37.109375,-37.59765625,-31.25,-20.5078125,-68.84765625,0.0
23.24609375,-37.109375,-38.57421875,-33.203125,-13.18359375,-75.1953125,0.0
23.25,-50.29296875,-35.15625,-34.66796875,-14.16015625,-89.84375,0.0
23.25390625,-38.57421875,-38.0859375,-37.109375,-22.94921875,-83.49609375,0.0
23.2578125,-31.25,-33.69140625,-37.109375,-19.53125,-32.71484375,0.0
23.26171875,-41.50390625,-26.3671875,-34.66796875,-20.5078125,-23.92578125,0.0
23.265625,-38.57421875,-31.73828125,-30.76171875,-41.015625,-77.63671875,0.0
23.26953125,-37.59765625,-33.203125,-28.3203125,-40.0390625,-79.1015625,0.0
23.2734375,-50.29296875,-35.15625,-22.94921875,-37.59765625,-5.37109375,0.0
23.27734375,-46.38671875,-38.0859375,-17.08984375,-35.15625,46.875,0.0
23.28125,-36.62109375,-36.62109375,-15.625,-27.83203125,-46.38671875,0.0
23.28515625,-35.15625,-39.55078125,-28.80859375,-47.36328125,-82.51953125,0.0
23.2890625,-34.1796875,-37.59765625,-36.62109375,-47.8515625,-70.80078125,0.0
23.29296875,-38.0859375,-33.203125,-31.25,-27.34375,-52.24609375,0.0
23.296875,-35.64453125,-32.71484375,-29.296875,-31.25,-25.87890625,0.0
23.30078125,-29.296875,-35.64453125,-36.62109375,-36.62109375,-43.9453125,0.0
23.3046875,-25.390625,-33.203125,-31.73828125,-28.3203125,-26.85546875,0.0
23.30859375,-20.99609375,-30.76171875,-24.4140625,-36.62109375,-22.94921875,0.0
23.3125,-20.99609375,-35.64453125,-27.34375,-36.62109375,5.859375,0.0
23.31640625,-32.71484375,-35.64453125,-28.80859375,-22.94921875,83.984375,0.0
23.3203125,-43.45703125,-30.2734375,-35.64453125,-19.53125,43.9453125,0.0
23.32421875,-38.57421875,-30.76171875,-30.2734375,-33.203125,-73.2421875,0.0
23.328125,-29.296875,-29.78515625,-19.53125,-42.96875,-24.90234375,0.0
23.33203125,-32.71484375,-30.76171875,-23.92578125,-39.0625,25.390625,0.0
23.3359375,-39.55078125,-37.59765625,-32.2265625,-33.203125,-103.02734375,0.0
23.33984375,-41.015625,-33.69140625,-35.15625,-37.59765625,-102.5390625,0.0
23.34375,-29.78515625,-32.71484375,-30.2734375,-33.69140625,-77.63671875,0.0
23.34765625,-11.23046875,-35.15625,-27.83203125,-18.06640625,-59.08203125,0.0
23.3515625,-2.44140625,-35.15625,-29.296875,-12.6953125,-5.859375,0.0
23.35546875,-18.06640625,-38.0859375,-26.85546875,-12.6953125,-69.3359375,0.0
23.359375,-30.76171875,-33.203125,-26.85546875,-17.08984375,-83.984375,0.0
23.36328125,-22.4609375,-32.71484375,-28.80859375,-38.0859375,-15.13671875,0.0
23.3671875,-29.296875,-34.66796875,-25.87890625,-45.41015625,-60.546875,0.0
23.37109375,-35.64453125,-29.296875,-23.4375,-37.59765625,-66.40625,0.0
23.375,-30.76171875,-29.78515625,-35.15625,-29.296875,-30.2734375,0.0
23.37890625,-38.0859375,-36.62109375,-44.43359375,-29.296875,-50.78125,0.0
23.3828125,-37.59765625,-30.2734375,-27.83203125,-30.2734375,-58.59375,0.0
23.38671875,-34.1796875,-30.2734375,-7.32421875,-26.85546875,-56.15234375,0.0
23.390625,-33.69140625,-33.69140625,-22.4609375,-33.69140625,-20.99609375,0.0
23.39453125,-36.62109375,-33.69140625,-41.015625,-30.2734375,-54.19921875,0.0
23.3984375,-36.62109375,-30.2734375,-30.2734375,-18.5546875,-37.59765625,0.0
23.40234375,-28.3203125,-30.76171875,-25.390625,-26.3671875,6.34765625,0.0
23.40625,-22.4609375,-35.15625,-35.15625,-44.921875,6.8359375,0.0
23.41015625,-32.71484375,-35.15625,-37.59765625,-33.69140625,41.50390625,0.0
23.4140625,-44.921875,-32.71484375,-34.66796875,-30.76171875,105.46875,0.0
23.41796875,-45.41015625,-29.78515625,-32.71484375,-34.1796875,35.64453125,0.0
23.421875,-45.41015625,-37.59765625,-35.64453125,-37.109375,-34.1796875,0.0
23.42578125,-32.71484375,-42.48046875,-31.73828125,-38.57421875,-38.57421875,0.0
23.4296875,-28.80859375,-36.62109375,-20.01953125,-32.71484375,-142.578125,0.0
23.43359375,-33.69140625,-33.69140625,-25.390625,-19.04296875,-215.33203125,0.0
23.4375,-30.2734375,-31.73828125,-31.25,-15.13671875,-186.03515625,0.0
23.44140625,-36.1328125,-35.64453125,-30.76171875,-32.71484375,-160.15625,0.0
23.4453125,-18.5546875,-32.2265625,-31.73828125,-26.3671875,-129.39453125,0.0
23.44921875,-6.34765625,-27.34375,-29.78515625,-30.76171875,23.92578125,0.0
23.453125,-40.52734375,-32.2265625,-24.90234375,-40.52734375,-11.23046875,0.0
23.45703125,-55.17578125,-34.66796875,-27.34375,-27.83203125,-99.12109375,0.0
23.4609375,-50.29296875,-32.2265625,-26.85546875,-25.390625,-63.96484375,0.0
23.46484375,-44.43359375,-34.1796875,-21.97265625,-38.57421875,-43.45703125,0.0
23.46875,-20.5078125,-33.69140625,-29.296875,-39.55078125,-13.671875,0.0
23.47265625,-31.73828125,-26.85546875,-29.296875,-33.203125,12.6953125,0.0
23.4765625,-41.015625,-28.3203125,-10.7421875,-36.62109375,-7.32421875,0.0
23.48046875,-35.64453125,-30.2734375,-21.484375,-40.0390625,-44.43359375,0.0
23.484375,-31.25,-26.85546875,-34.66796875,-41.50390625,-40.0390625,0.0
23.48828125,-30.2734375,-25.390625,-25.87890625,-31.25,-19.04296875,0.0
23.4921875,-34.66796875,-27.83203125,-29.78515625,-22.4609375,40.52734375,0.0
23.49609375,-36.1328125,-32.2265625,-33.69140625,-37.109375,49.31640625,0.0
23.5,-26.3671875,-32.2265625,-28.3203125,-33.69140625,35.15625,0.0
23.50390625,-24.90234375,-36.1328125,-27.83203125,-40.0390625,6.34765625,0.0
23.5078125,-28.3203125,-38.57421875,-31.73828125,-45.8984375,-23.4375,0.0
23.51171875,-28.80859375,-35.15625,-34.66796875,-31.25,-28.3203125,0.0
23.515625,-41.015625,-40.0390625,-35.64453125,-29.78515625,-0.48828125,0.0
23.51953125,-50.29296875,-44.921875,-30.76171875,-34.66796875,-6.8359375,0.0
23.5234375,-42.48046875,-37.59765625,-40.52734375,-43.45703125,-10.7421875,0.0
23.52734375,-16.11328125,-32.71484375,-53.7109375,-45.8984375,19.04296875,0.0
23.53125,-29.296875,-31.25,-37.109375,-41.9921875,-47.8515625,0.0
23.53515625,-48.33984375,-26.85546875,-20.99609375,-28.3203125,-66.40625,0.0
23.5390625,-41.015625,-29.78515625,-30.2734375,-28.3203125,41.015625,0.0
23.54296875,-31.73828125,-31.73828125,-39.0625,-36.62109375,28.80859375,0.0
23.546875,-19.53125,-29.78515625,-32.71484375,-29.296875,72.75390625,0.0
23.55078125,-24.90234375,-32.2265625,-26.85546875,-33.203125,79.1015625,0.0
23.5546875,-24.4140625,-31.25,-24.4140625,-37.109375,-75.1953125,0.0
23.55859375,-40.52734375,-27.83203125,-31.73828125,-19.04296875,-53.22265625,0.0
23.5625,-48.828125,-30.76171875,-33.203125,-16.6015625,15.13671875,0.0
23.56640625,-35.64453125,-35.15625,-20.99609375,-41.015625,-27.34375,0.0
23.5703125,-37.59765625,-34.66796875,-27.34375,-41.9921875,-50.29296875,0.0
23.57421875,-51.7578125,-37.59765625,-37.109375,-25.390625,-36.1328125,0.0
23.578125,-45.8984375,-36.1328125,-30.76171875,-25.87890625,-109.86328125,0.0
23.58203125,-41.9921875,-36.1328125,-31.25,-35.15625,-71.77734375,0.0
23.5859375,-28.3203125,-33.69140625,-34.1796875,-32.2265625,-14.16015625,0.0
23.58984375,-21.97265625,-31.73828125,-27.83203125,-31.73828125,-66.40625,0.0
23.59375,-32.2265625,-32.2265625,-23.4375,-39.55078125,-119.140625,0.0
23.59765625,-45.8984375,-31.25,-27.83203125,-37.109375,-104.00390625,0.0
23.6015625,-42.96875,-28.80859375,-30.76171875,-31.73828125,-58.10546875,0.0
23.60546875,-38.57421875,-31.25,-28.80859375,-35.15625,-34.66796875,0.0
23.609375,-38.57421875,-27.83203125,-23.4375,-33.69140625,-63.96484375,0.0
23.61328125,-34.66796875,-29.296875,-23.4375,-23.92578125,-78.61328125,0.0
23.6171875,-38.57421875,-27.83203125,-25.390625,-21.97265625,-17.08984375,0.0
23.62109375,-34.1796875,-25.87890625,-28.80859375,-24.4140625,39.0625,0.0
23.625,-12.6953125,-32.2265625,-32.71484375,-24.90234375,-10.7421875,0.0
23.62890625,-30.76171875,-42.48046875,-28.80859375,-43.45703125,-63.96484375,0.0
23.6328125,-41.015625,-44.921875,-26.85546875,-57.6171875,-38.0859375,0.0
23.63671875,-40.52734375,-33.69140625,-26.3671875,-41.9921875,18.5546875,0.0
23.640625,-48.33984375,-31.73828125,-26.85546875,-41.9921875,6.8359375,0.0
23.64453125,-41.015625,-37.59765625,-27.83203125,-45.41015625,-2.44140625,0.0
23.6484375,-34.66796875,-30.76171875,-28.80859375,-39.55078125,-53.22265625,0.0
23.65234375,-47.36328125,-29.78515625,-23.4375,-27.83203125,-64.453125,0.0
23.65625,-46.875,-35.64453125,-16.6015625,-27.83203125,-38.0859375,0.0
23.66015625,-36.62109375,-36.1328125,-24.4140625,-40.0390625,-46.38671875,0.0
23.6640625,-20.5078125,-27.34375,-30.2734375,-44.921875,-49.8046875,0.0
23.66796875,-21.97265625,-23.92578125,-25.87890625,-34.1796875,-12.20703125,0.0
23.671875,-36.1328125,-25.87890625,-22.4609375,-26.3671875,-31.73828125,0.0
23.67578125,-37.59765625,-36.1328125,-30.76171875,-19.53125,-74.70703125,0.0
23.6796875,-40.0390625,-37.109375,-33.69140625,-23.4375,-83.49609375,0.0
23.68359375,-32.2265625,-28.3203125,-27.83203125,-40.0390625,-45.8984375,0.0
23.6875,-30.76171875,-27.83203125,-30.2734375,-27.34375,61.03515625,0.0
23.69140625,-21.97265625,-29.296875,-35.15625,-16.11328125,13.18359375,0.0
23.6953125,-19.04296875,-29.78515625,-30.76171875,-20.5078125,-23.92578125,0.0
23.69921875,-32.71484375,-30.2734375,-11.23046875,-13.18359375,-49.31640625,0.0
23.703125,-20.5078125,-35.15625,-9.27734375,-10.7421875,-63.96484375,0.0
23.70703125,-7.32421875,-35.15625,-26.85546875,-24.90234375,-27.34375,0.0
23.7109375,-24.4140625,-34.66796875,-29.78515625,-27.34375,6.8359375,0.0
23.71484375,-44.43359375,-30.76171875,-32.71484375,-30.76171875,50.78125,0.0
23.71875,-41.015625,-26.85546875,-36.1328125,-19.53125,60.05859375,0.0
23.72265625,-33.69140625,-29.78515625,-33.69140625,-20.5078125,-26.3671875,0.0
23.7265625,-20.01953125,-35.64453125,-30.76171875,-41.015625,-25.390625,0.0
23.73046875,-22.94921875,-29.78515625,-29.78515625,-41.015625,-20.5078125,0.0
23.734375,-43.9453125,-28.80859375,-28.80859375,-37.109375,-62.5,0.0
23.73828125,-40.0390625,-33.203125,-28.3203125,-27.83203125,-7.8125,0.0
23.7421875,-22.94921875,-31.73828125,-29.78515625,-28.3203125,8.7890625,0.0
23.74609375,-28.3203125,-33.69140625,-32.2265625,-20.99609375,66.89453125,0.0
23.75,-29.296875,-29.296875,-36.1328125,-25.390625,131.34765625,0.0
23.75390625,-24.90234375,-26.3671875,-39.0625,-50.78125,28.3203125,0.0
23.7578125,-27.83203125,-28.80859375,-27.34375,-46.875,34.1796875,0.0
23.76171875,-23.4375,-33.69140625,-16.6015625,-38.57421875,-41.015625,0.0
23.765625,-11.23046875,-31.73828125,-26.3671875,-31.73828125,-127.44140625,0.0
23.76953125,-22.94921875,-24.4140625,-28.3203125,-35.15625,-46.875,0.0
23.7734375,-35.64453125,-26.3671875,-18.5546875,-34.66796875,31.73828125,0.0
23.77734375,-41.50390625,-30.2734375,-19.53125,-40.52734375,-9.765625,0.0
23.78125,-41.50390625,-32.2265625,-27.83203125,-37.59765625,-71.77734375,0.0
23.78515625,-30.76171875,-31.25,-29.78515625,-25.390625,-87.890625,0.0
23.7890625,-30.76171875,-29.296875,-24.4140625,-33.69140625,-129.8828125,0.0
23.79296875,-42.48046875,-31.73828125,-32.71484375,-47.36328125,-143.06640625,0.0
23.796875,-35.15625,-31.73828125,-41.50390625,-37.109375,-61.5234375,0.0
23.80078125,-30.76171875,-31.25,-37.109375,-40.52734375,-24.4140625,0.0
23.8046875,-26.3671875,-28.3203125,-26.85546875,-41.9921875,-52.734375,0.0
23.80859375,-21.484375,-25.390625,-23.4375,-26.3671875,22.4609375,0.0
23.8125,-26.3671875,-28.80859375,-33.69140625,-28.3203125,37.59765625,0.0
23.81640625,-31.73828125,-30.76171875,-34.1796875,-31.73828125,-42.48046875,0.0
23.8203125,-38.0859375,-30.2734375,-23.4375,-20.99609375,-21.484375,0.0
23.82421875,-41.015625,-29.296875,-27.83203125,-35.15625,-3.41796875,0.0
23.828125,-39.0625,-30.76171875,-32.71484375,-45.8984375,-94.7265625,0.0
23.83203125,-37.109375,-30.2734375,-24.90234375,-32.71484375,-116.69921875,0.0
23.8359375,-42.96875,-29.78515625,-26.3671875,-32.71484375,-97.16796875,0.0
23.83984375,-45.41015625,-28.3203125,-30.76171875,-35.64453125,-159.66796875,0.0
23.84375,-36.62109375,-31.25,-33.69140625,-28.80859375,-117.67578125,0.0
23.84765625,-37.59765625,-36.62109375,-32.2265625,-36.62109375,-43.45703125,0.0
23.8515625,-46.38671875,-33.69140625,-18.5546875,-33.69140625,-24.90234375,0.0
23.85546875,-59.08203125,-36.1328125,-31.25,-22.94921875,-4.8828125,0.0
23.859375,-51.26953125,-33.69140625,-42.96875,-29.78515625,-9.765625,0.0
23.86328125,-28.3203125,-26.3671875,-31.73828125,-39.55078125,-24.4140625,0.0
23.8671875,-33.203125,-26.85546875,-26.85546875,-37.109375,-60.546875,0.0
23.87109375,-38.57421875,-24.4140625,-28.3203125,-18.5546875,-90.8203125,0.0
23.875,-40.0390625,-25.87890625,-26.85546875,-23.92578125,-26.3671875,0.0
23.87890625,-46.38671875,-31.73828125,-20.5078125,-22.4609375,-11.71875,0.0
23.8828125,-37.59765625,-32.2265625,-27.34375,-32.71484375,-38.0859375,0.0
23.88671875,-19.04296875,-33.203125,-40.0390625,-51.7578125,-67.3828125,0.0
23.890625,-9.765625,-33.203125,-38.0859375,-50.78125,-37.109375,0.0
23.89453125,-22.4609375,-32.2265625,-20.99609375,-46.875,-68.84765625,0.0
23.8984375,-29.78515625,-31.25,-20.5078125,-39.55078125,-78.61328125,0.0
23.90234375,-25.87890625,-22.94921875,-33.203125,-32.71484375,-51.26953125,0.0
23.90625,-25.390625,-21.484375,-38.57421875,-41.50390625,-37.109375,0.0
23.91015625,-21.97265625,-24.90234375,-33.69140625,-47.36328125,-32.71484375,0.0
23.9140625,-43.9453125,-29.78515625,-28.3203125,-28.80859375,-8.7890625,0.0
23.91796875,-59.08203125,-35.15625,-30.76171875,-14.6484375,42.48046875,0.0
23.921875,-50.78125,-32.71484375,-27.83203125,-27.34375,-35.15625,0.0
23.92578125,-35.15625,-28.3203125,-22.94921875,-46.875,-55.17578125,0.0
23.9296875,-33.69140625,-28.80859375,-26.85546875,-35.15625,-11.23046875,0.0
23.93359375,-38.0859375,-33.69140625,-25.87890625,-34.1796875,21.484375,0.0
23.9375,-43.45703125,-34.1796875,-28.80859375,-34.66796875,-11.23046875,0.0
23.94140625,-42.96875,-30.2734375,-28.3203125,-28.80859375,-106.4453125,0.0
23.9453125,-36.1328125,-28.3203125,-28.3203125,-40.52734375,-72.75390625,0.0
23.94921875,-27.83203125,-29.78515625,-35.64453125,-41.50390625,-16.6015625,0.0
23.953125,-24.90234375,-29.78515625,-31.73828125,-35.64453125,26.3671875,0.0
23.95703125,-30.76171875,-31.25,-22.94921875,-15.625,15.13671875,0.0
23.9609375,-25.390625,-26.3671875,-23.4375,-3.41796875,67.87109375,0.0
23.96484375,-21.484375,-23.92578125,-28.3203125,-30.2734375,-6.34765625,0.0
23.96875,-29.78515625,-36.1328125,-27.83203125,-47.8515625,-107.91015625,0.0
23.97265625,-34.1796875,-32.2265625,-23.4375,-21.97265625,-19.53125,0.0
23.9765625,-25.390625,-29.296875,-21.484375,-3.90625,17.578125,0.0
23.98046875,-25.87890625,-35.15625,-28.3203125,-4.8828125,-91.796875,0.0
23.984375,-31.25,-35.64453125,-25.390625,-12.6953125,-131.8359375,0.0
23.98828125,-10.7421875,-36.62109375,-21.97265625,-17.578125,-169.43359375,0.0
23.9921875,-10.25390625,-27.83203125,-31.25,-2.9296875,-79.1015625,0.0
23.99609375,-21.484375,-25.87890625,-30.76171875,10.7421875,-29.78515625,0.0
24.0,-14.6484375,-35.64453125,-25.390625,2.9296875,-47.8515625,0.0
24.00390625,-9.27734375,-30.76171875,-27.83203125,-7.8125,10.7421875,0.0
24.0078125,-10.7421875,-29.296875,-29.296875,-7.32421875,52.734375,0.0
24.01171875,-9.765625,-30.2734375,-33.203125,-4.8828125,-11.71875,0.0
24.015625,-5.37109375,-27.34375,-35.15625,-0.48828125,-82.51953125,0.0
24.01953125,-13.671875,-26.3671875,-31.73828125,8.7890625,-46.875,0.0
24.0234375,-20.99609375,-26.85546875,-35.15625,1.46484375,-89.84375,0.0
24.02734375,-15.625,-33.69140625,-35.64453125,-15.625,-85.44921875,0.0
24.03125,-14.16015625,-34.66796875,-25.390625,-15.625,-10.25390625,0.0
24.03515625,-17.578125,-28.3203125,-25.390625,-15.625,-82.03125,0.0
24.0390625,-24.90234375,-29.78515625,-32.2265625,-15.13671875,-122.0703125,0.0
24.04296875,-20.01953125,-28.3203125,-32.2265625,-10.7421875,-98.14453125,0.0
24.046875,-9.765625,-26.3671875,-18.06640625,-12.20703125,-37.109375,0.0
24.05078125,-17.08984375,-26.85546875,-19.53125,-28.80859375,15.13671875,0.0
24.0546875,-19.53125,-27.83203125,-28.80859375,-20.5078125,-5.859375,0.0
24.05859375,-17.08984375,-24.4140625,-25.87890625,1.953125,-26.3671875,0.0
24.0625,-23.92578125,-21.97265625,-25.390625,-13.18359375,-3.90625,0.0
24.06640625,-28.3203125,-25.87890625,-33.203125,-25.390625,-3.41796875,0.0
24.0703125,-30.76171875,-31.73828125,-32.71484375,-15.625,-5.859375,0.0
24.07421875,-30.2734375,-34.1796875,-24.4140625,-12.6953125,6.8359375,0.0
24.078125,-32.2265625,-30.2734375,-25.390625,-18.5546875,83.0078125,0.0
24.08203125,-28.80859375,-26.3671875,-33.203125,-24.4140625,144.04296875,0.0
24.0859375,-9.27734375,-32.2265625,-27.83203125,-26.3671875,50.78125,0.0
24.08984375,-16.6015625,-37.109375,-23.92578125,-24.90234375,-65.4296875,0.0
24.09375,-31.25,-37.109375,-32.71484375,-12.20703125,-4.39453125,0.0
24.09765625,-34.1796875,-35.64453125,-36.1328125,-19.53125,70.80078125,0.0
24.1015625,-34.1796875,-34.66796875,-39.55078125,-33.203125,-17.578125,0.0
24.10546875,-21.484375,-33.203125,-37.59765625,-36.62109375,-9.765625,0.0
24.109375,-24.4140625,-25.87890625,-24.4140625,-29.296875,46.38671875,0.0
24.11328125,-39.0625,-31.25,-21.97265625,-29.78515625,-24.4140625,0.0
24.1171875,-46.38671875,-36.62109375,-20.99609375,-30.2734375,-39.0625,0.0
24.12109375,-35.15625,-34.66796875,-17.08984375,-24.90234375,41.9921875,0.0
24.125,-15.13671875,-30.2734375,-21.484375,-25.87890625,-52.24609375,0.0
24.12890625,-17.08984375,-25.390625,-24.4140625,-28.3203125,-178.7109375,0.0
24.1328125,-24.90234375,-26.3671875,-20.5078125,-31.73828125,-211.9140625,0.0
24.13671875,-33.69140625,-27.83203125,-20.01953125,-30.76171875,-217.7734375,0.0
24.140625,-40.0390625,-31.25,-30.2734375,-26.85546875,-101.07421875,0.0
24.14453125,-33.203125,-31.25,-36.62109375,-26.3671875,-14.16015625,0.0
24.1484375,-24.4140625,-31.73828125,-35.64453125,-29.78515625,4.8828125,0.0
24.15234375,-32.71484375,-32.71484375,-29.78515625,-15.13671875,30.2734375,0.0
24.15625,-39.0625,-30.2734375,-31.73828125,-10.7421875,44.43359375,0.0
24.16015625,-25.87890625,-27.34375,-26.3671875,-12.6953125,38.57421875,0.0
24.1640625,-17.578125,-28.3203125,-26.3671875,-15.625,19.53125,0.0
24.16796875,-23.92578125,-31.73828125,-35.64453125,-27.34375,-22.4609375,0.0
24.171875,-25.390625,-29.296875,-30.76171875,-25.390625,-50.78125,0.0
24.17578125,-30.76171875,-29.78515625,-30.76171875,-23.92578125,-43.45703125,0.0
24.1796875,-35.15625,-30.76171875,-21.97265625,-22.4609375,-98.6328125,0.0
24.18359375,-25.87890625,-26.85546875,-23.4375,-25.390625,-34.1796875,0.0
24.1875,-14.16015625,-25.87890625,-34.66796875,-36.62109375,16.6015625,0.0
24.19140625,-30.76171875,-30.2734375,-32.71484375,-25.390625,-64.453125,0.0
24.1953125,-36.1328125,-28.3203125,-31.73828125,-12.6953125,-95.21484375,0.0
24.19921875,-37.109375,-26.3671875,-33.203125,-34.1796875,-104.00390625,0.0
24.203125,-41.50390625,-25.87890625,-34.1796875,-50.29296875,-119.62890625,0.0
24.20703125,-28.80859375,-20.01953125,-28.3203125,-37.109375,-109.375,0.0
24.2109375,-21.97265625,-20.5078125,-22.4609375,-15.13671875,-28.3203125,0.0
24.21484375,-34.1796875,-27.83203125,-23.92578125,-9.765625,60.546875,0.0
24.21875,-40.52734375,-31.73828125,-29.78515625,-36.1328125,56.15234375,0.0
24.22265625,-29.78515625,-36.62109375,-31.73828125,-48.828125,55.17578125,0.0
24.2265625,-30.76171875,-39.0625,-28.3203125,-40.52734375,43.9453125,0.0
24.23046875,-29.296875,-34.66796875,-31.73828125,-39.0625,10.7421875,0.0
24.234375,-26.85546875,-33.203125,-32.2265625,-27.83203125,21.484375,0.0
24.23828125,-28.3203125,-35.15625,-23.92578125,-18.5546875,-52.734375,0.0
24.2421875,-30.76171875,-33.203125,-25.87890625,-34.1796875,-58.10546875,0.0
24.24609375,-31.25,-23.4375,-28.80859375,-36.62109375,64.453125,0.0
24.25,-34.1796875,-29.78515625,-23.4375,-34.1796875,55.6640625,0.0
24.25390625,-42.48046875,-31.25,-20.99609375,-31.25,-37.109375,0.0
24.2578125,-32.71484375,-25.390625,-21.97265625,-33.69140625,-62.5,0.0
24.26171875,-29.296875,-30.76171875,-26.3671875,-35.64453125,-80.078125,0.0
24.265625,-29.78515625,-32.71484375,-29.78515625,-25.87890625,57.12890625,0.0
24.26953125,-25.87890625,-29.296875,-25.390625,-24.4140625,133.7890625,0.0
24.2734375,-26.85546875,-25.87890625,-28.3203125,-33.203125,-21.97265625,0.0
24.27734375,-39.0625,-24.90234375,-27.83203125,-15.625,-95.21484375,0.0
24.28125,-45.41015625,-33.203125,-22.4609375,-15.13671875,-111.81640625,0.0
24.28515625,-30.2734375,-36.1328125,-26.85546875,-44.43359375,-76.171875,0.0
24.2890625,-20.5078125,-32.71484375,-32.71484375,-52.734375,-54.19921875,0.0
24.29296875,-30.2734375,-32.2265625,-33.203125,-44.921875,-60.546875,0.0
24.296875,-41.9921875,-37.109375,-30.2734375,-35.64453125,-7.8125,0.0
24.30078125,-38.57421875,-38.57421875,-29.78515625,-32.71484375,-45.41015625,0.0
24.3046875,-39.55078125,-38.57421875,-32.2265625,-44.921875,-76.171875,0.0
24.30859375,-40.52734375,-40.52734375,-30.76171875,-38.0859375,-37.59765625,0.0
24.3125,-37.59765625,-35.64453125,-28.3203125,-27.34375,-30.76171875,0.0
24.31640625,-36.62109375,-35.64453125,-24.90234375,-42.96875,-41.015625,0.0
24.3203125,-28.80859375,-34.1796875,-32.2265625,-48.33984375,7.8125,0.0
24.32421875,-33.69140625,-31.25,-36.1328125,-43.45703125,18.06640625,0.0
24.328125,-31.25,-31.73828125,-24.4140625,-32.2265625,-54.6875,0.0
24.33203125,-24.90234375,-33.69140625,-20.99609375,-27.34375,-37.109375,0.0
24.3359375,-37.59765625,-33.203125,-34.1796875,-34.1796875,-27.34375,0.0
24.33984375,-33.69140625,-30.76171875,-38.0859375,-32.71484375,-163.57421875,0.0
24.34375,-33.203125,-34.1796875,-40.0390625,-43.45703125,-153.80859375,0.0
24.34765625,-40.0390625,-39.55078125,-43.45703125,-57.12890625,-167.96875,0.0
24.3515625,-41.015625,-39.0625,-39.0625,-45.41015625,-197.75390625,0.0
24.35546875,-50.78125,-34.1796875,-34.1796875,-32.71484375,-52.734375,0.0
24.359375,-52.734375,-35.15625,-22.4609375,-38.57421875,69.3359375,0.0
24.36328125,-43.9453125,-37.59765625,-25.87890625,-41.50390625,74.21875,0.0
24.3671875,-41.9921875,-35.64453125,-35.15625,-34.66796875,3.90625,0.0
24.37109375,-50.78125,-35.64453125,-36.1328125,-52.24609375,-79.1015625,0.0
24.375,-53.22265625,-34.1796875,-28.3203125,-48.33984375,-25.87890625,0.0
24.37890625,-48.828125,-39.0625,-27.34375,-35.15625,54.6875,0.0
24.3828125,-44.43359375,-41.9921875,-33.203125,-48.33984375,30.2734375,0.0
24.38671875,-22.94921875,-33.69140625,-32.71484375,-47.8515625,50.78125,0.0
24.390625,-17.08984375,-29.78515625,-31.73828125,-50.78125,-0.9765625,0.0
24.39453125,-43.45703125,-32.71484375,-29.78515625,-39.55078125,-62.98828125,0.0
24.3984375,-52.734375,-35.15625,-34.1796875,-32.2265625,-60.05859375,0.0
24.40234375,-42.96875,-39.0625,-35.15625,-38.57421875,-12.20703125,0.0
24.40625,-26.85546875,-43.45703125,-26.3671875,-52.734375,-45.8984375,0.0
24.41015625,-28.3203125,-41.9921875,-31.25,-52.734375,-45.8984375,0.0
24.4140625,-39.0625,-33.203125,-40.0390625,-29.296875,66.89453125,0.0
24.41796875,-43.45703125,-35.64453125,-37.59765625,-35.64453125,6.8359375,0.0
24.421875,-38.57421875,-38.0859375,-36.62109375,-44.43359375,-97.65625,0.0
24.42578125,-38.57421875,-37.59765625,-53.7109375,-50.29296875,-66.89453125,0.0
24.4296875,-49.31640625,-37.59765625,-56.15234375,-57.12890625,-46.38671875,0.0
24.43359375,-43.45703125,-36.1328125,-37.109375,-45.8984375,-52.734375,0.0
24.4375,-32.2265625,-35.64453125,-27.34375,-34.1796875,-42.96875,0.0
24.44140625,-52.734375,-41.015625,-31.25,-32.2265625,-52.734375,0.0
24.4453125,-46.38671875,-36.62109375,-28.80859375,-28.80859375,-21.484375,0.0
24.44921875,-30.2734375,-35.15625,-18.5546875,-36.62109375,14.16015625,0.0
24.453125,-38.57421875,-41.015625,-22.4609375,-39.55078125,-62.98828125,0.0
24.45703125,-57.6171875,-38.0859375,-34.1796875,-34.1796875,-72.265625,0.0
24.4609375,-52.734375,-31.25,-27.83203125,-24.90234375,62.5,0.0
24.46484375,-40.0390625,-34.1796875,-29.78515625,-12.20703125,78.61328125,0.0
24.46875,-30.76171875,-40.0390625,-42.48046875,-36.62109375,7.8125,0.0
24.47265625,-29.296875,-32.2265625,-39.55078125,-36.62109375,-26.85546875,0.0
24.4765625,-49.8046875,-30.76171875,-35.15625,-28.80859375,-41.015625,0.0
24.48046875,-56.640625,-41.015625,-34.1796875,-35.64453125,-50.29296875,0.0
24.484375,-41.015625,-38.57421875,-33.203125,-20.5078125,-19.53125,0.0
24.48828125,-30.76171875,-34.66796875,-35.15625,-24.4140625,-18.06640625,0.0
24.4921875,-33.69140625,-30.2734375,-33.69140625,-34.66796875,-2.9296875,0.0
24.49609375,-34.66796875,-26.85546875,-22.94921875,-32.71484375,7.8125,0.0
24.5,-34.66796875,-34.66796875,-32.2265625,-47.8515625,-105.46875,0.0
24.50390625,-21.97265625,-35.64453125,-39.55078125,-45.41015625,-144.53125,0.0
24.5078125,-21.484375,-30.76171875,-37.109375,-27.83203125,-22.4609375,0.0
24.51171875,-32.2265625,-28.80859375,-33.203125,-35.15625,-59.5703125,0.0
24.515625,-32.2265625,-28.80859375,-33.69140625,-36.1328125,-123.046875,0.0
24.51953125,-35.15625,-25.87890625,-35.15625,-30.2734375,-42.48046875,0.0
24.5234375,-24.90234375,-22.4609375,-33.203125,-32.71484375,-180.6640625,0.0
24.52734375,-22.94921875,-28.3203125,-34.66796875,-26.3671875,-310.05859375,0.0
24.53125,-40.0390625,-32.71484375,-39.0625,-22.94921875,-226.07421875,0.0
24.53515625,-50.29296875,-25.87890625,-37.59765625,-31.73828125,-165.0390625,0.0
24.5390625,-44.921875,-27.34375,-25.390625,-33.203125,-157.71484375,0.0
24.54296875,-36.1328125,-35.64453125,-24.4140625,-29.296875,-131.34765625,0.0
24.546875,-31.25,-31.73828125,-28.80859375,-21.97265625,-196.2890625,0.0
24.55078125,-28.80859375,-29.296875,-27.34375,-18.06640625,-262.6953125,0.0
24.5546875,-27.83203125,-32.71484375,-19.53125,-27.83203125,-206.0546875,0.0
24.55859375,-16.11328125,-32.71484375,-20.99609375,-32.2265625,-108.88671875,0.0
24.5625,-20.01953125,-27.83203125,-32.2265625,-41.015625,-87.40234375,0.0
24.56640625,-41.50390625,-32.2265625,-29.78515625,-47.36328125,-137.6953125,0.0
24.5703125,-36.62109375,-36.1328125,-28.80859375,-40.52734375,-105.95703125,0.0
24.57421875,-34.66796875,-29.78515625,-32.2265625,-25.87890625,-52.24609375,0.0
24.578125,-42.48046875,-32.2265625,-30.2734375,-30.76171875,-62.01171875,0.0
24.58203125,-42.96875,-40.52734375,-34.66796875,-44.921875,-39.55078125,0.0
24.5859375,-32.71484375,-32.2265625,-36.62109375,-33.203125,73.73046875,0.0
24.58984375,-20.5078125,-20.5078125,-34.66796875,-32.71484375,57.6171875,0.0
24.59375,-27.34375,-27.34375,-34.66796875,-26.3671875,71.2890625,0.0
24.59765625,-24.4140625,-34.1796875,-27.83203125,-25.87890625,83.984375,0.0
24.6015625,-23.92578125,-32.2265625,-7.32421875,-32.71484375,100.09765625,0.0
24.60546875,-28.80859375,-33.69140625,-12.6953125,-34.66796875,70.3125,0.0
24.609375,-14.6484375,-30.76171875,-36.62109375,-37.109375,29.78515625,0.0
24.61328125,-17.578125,-28.80859375,-38.57421875,-32.71484375,24.4140625,0.0
24.6171875,-49.31640625,-30.2734375,-35.15625,-30.76171875,43.9453125,0.0
24.62109375,-42.96875,-31.25,-35.64453125,-32.71484375,62.98828125,0.0
24.625,-18.06640625,-36.62109375,-37.59765625,-37.59765625,-7.32421875,0.0
24.62890625,-9.27734375,-39.55078125,-41.015625,-51.7578125,17.578125,0.0
24.6328125,-10.7421875,-34.1796875,-43.45703125,-51.7578125,109.86328125,0.0
24.63671875,-25.390625,-28.80859375,-40.0390625,-33.69140625,119.62890625,0.0
24.640625,-23.92578125,-27.34375,-39.0625,-28.3203125,30.76171875,0.0
24.64453125,-8.7890625,-28.80859375,-29.296875,-29.296875,-59.08203125,0.0
24.6484375,-16.6015625,-32.71484375,-25.390625,-22.4609375,-15.625,0.0
24.65234375,-26.85546875,-34.66796875,-36.1328125,-30.76171875,37.59765625,0.0
24.65625,-34.1796875,-33.203125,-33.69140625,-29.78515625,-26.3671875,0.0
24.66015625,-41.9921875,-33.69140625,-25.87890625,-23.4375,-64.453125,0.0
24.6640625,-35.64453125,-40.52734375,-27.34375,-37.109375,-31.73828125,0.0
24.66796875,-22.4609375,-36.62109375,-35.64453125,-35.64453125,-32.2265625,0.0
24.671875,-32.71484375,-39.55078125,-36.62109375,-31.73828125,-38.0859375,0.0
24.67578125,-45.41015625,-44.43359375,-30.2734375,-30.76171875,38.0859375,0.0
24.6796875,-47.36328125,-37.109375,-21.97265625,-28.80859375,31.73828125,0.0
24.68359375,-49.31640625,-33.69140625,-23.92578125,-31.25,-2.9296875,0.0
24.6875,-33.69140625,-35.64453125,-28.80859375,-36.62109375,-53.7109375,0.0
24.69140625,-31.73828125,-38.0859375,-23.92578125,-37.59765625,-123.046875,0.0
24.6953125,-49.31640625,-38.57421875,-28.80859375,-29.296875,-110.83984375,0.0
24.69921875,-45.41015625,-39.0625,-36.1328125,-34.66796875,-44.921875,0.0
24.703125,-45.8984375,-47.8515625,-33.203125,-40.0390625,-96.19140625,0.0
24.70703125,-51.7578125,-48.33984375,-24.90234375,-43.9453125,-66.40625,0.0
24.7109375,-43.9453125,-41.9921875,-31.25,-41.9921875,41.9921875,0.0
24.71484375,-41.50390625,-38.0859375,-37.59765625,-43.9453125,24.90234375,0.0
24.71875,-35.64453125,-38.57421875,-34.1796875,-40.52734375,-12.20703125,0.0
24.72265625,-37.109375,-37.109375,-33.203125,-39.0625,-0.9765625,0.0
24.7265625,-48.828125,-33.203125,-35.64453125,-47.8515625,-90.8203125,0.0
24.73046875,-38.0859375,-30.76171875,-33.69140625,-26.3671875,-106.93359375,0.0
24.734375,-44.43359375,-35.15625,-28.3203125,-18.5546875,-57.12890625,0.0
24.73828125,-46.875,-39.55078125,-26.3671875,-40.0390625,-57.6171875,0.0
24.7421875,-27.34375,-33.203125,-22.4609375,-33.69140625,-21.484375,0.0
24.74609375,-26.3671875,-31.73828125,-28.3203125,-26.85546875,-133.7890625,0.0
24.75,-30.76171875,-37.109375,-35.64453125,-42.48046875,-170.41015625,0.0
24.75390625,-41.50390625,-32.71484375,-28.3203125,-37.59765625,-188.4765625,0.0
24.7578125,-43.45703125,-31.25,-26.85546875,-30.2734375,-224.609375,0.0
24.76171875,-23.92578125,-37.109375,-32.2265625,-30.76171875,-129.39453125,0.0
24.765625,-29.296875,-35.64453125,-35.15625,-34.1796875,-99.609375,0.0
24.76953125,-53.7109375,-34.66796875,-35.15625,-35.64453125,-115.234375,0.0
24.7734375,-53.7109375,-36.1328125,-34.66796875,-32.71484375,-147.4609375,0.0
24.77734375,-49.31640625,-33.69140625,-34.66796875,-37.109375,-164.0625,0.0
24.78125,-48.33984375,-38.0859375,-31.73828125,-27.83203125,-89.84375,0.0
24.78515625,-35.64453125,-41.9921875,-41.015625,-34.1796875,2.44140625,0.0
24.7890625,-11.71875,-29.78515625,-40.52734375,-47.36328125,-15.625,0.0
24.79296875,-21.97265625,-23.92578125,-30.2734375,-38.57421875,-30.76171875,0.0
24.796875,-48.828125,-26.85546875,-27.83203125,-25.87890625,-55.17578125,0.0
24.80078125,-47.36328125,-29.296875,-26.3671875,-28.80859375,-85.9375,0.0
24.8046875,-31.73828125,-20.99609375,-21.484375,-40.52734375,9.765625,0.0
24.80859375,-38.0859375,-25.390625,-26.85546875,-42.96875,-18.5546875,0.0
24.8125,-36.1328125,-24.4140625,-29.78515625,-29.78515625,-26.3671875,0.0
24.81640625,-38.57421875,-21.97265625,-24.90234375,-24.4140625,25.87890625,0.0
24.8203125,-48.33984375,-25.390625,-20.99609375,-34.1796875,-5.859375,0.0
24.82421875,-44.43359375,-22.94921875,-18.5546875,-43.9453125,-25.390625,0.0
24.828125,-25.390625,-26.85546875,-16.11328125,-46.875,-57.12890625,0.0
24.83203125,-31.73828125,-31.73828125,-25.390625,-34.1796875,-41.50390625,0.0
24.8359375,-31.25,-24.4140625,-20.99609375,-21.97265625,-17.578125,0.0
24.83984375,-28.80859375,-18.5546875,-12.6953125,-25.390625,-17.578125,0.0
24.84375,-41.9921875,-28.80859375,-21.97265625,-43.45703125,76.66015625,0.0
24.84765625,-31.25,-30.76171875,-28.3203125,-41.50390625,99.12109375,0.0
24.8515625,-39.0625,-23.4375,-20.99609375,-37.109375,84.9609375,0.0
24.85546875,-55.6640625,-25.390625,-18.5546875,-39.0625,138.18359375,0.0
24.859375,-59.5703125,-29.296875,-21.97265625,-48.828125,113.28125,0.0
24.86328125,-63.96484375,-26.85546875,-26.3671875,-74.70703125,85.9375,0.0
24.8671875,-78.61328125,-25.390625,-22.4609375,-95.703125,96.19140625,0.0
24.87109375,-79.1015625,-14.16015625,0.9765625,-87.890625,25.390625,0.0
24.875,-87.890625,-16.11328125,-1.953125,-93.26171875,48.828125,0.0
24.87890625,-117.67578125,-28.80859375,-13.671875,-105.46875,5.37109375,0.0
24.8828125,-106.4453125,-16.11328125,-4.39453125,-100.09765625,-2.44140625,0.0
24.88671875,-100.09765625,-16.6015625,0.0,-122.0703125,23.92578125,0.0
24.890625,-135.7421875,-18.5546875,-6.8359375,-159.1796875,30.2734375,0.0
24.89453125,-170.41015625,-13.671875,-13.671875,-169.43359375,55.6640625,0.0
24.8984375,-193.359375,-18.5546875,-12.6953125,-165.0390625,13.18359375,0.0
24.90234375,-185.546875,-15.13671875,-3.90625,-170.8984375,6.34765625,0.0
24.90625,-178.7109375,-13.18359375,-10.7421875,-195.3125,35.64453125,0.0
24.91015625,-189.94140625,-14.16015625,-20.99609375,-205.078125,89.35546875,0.0
24.9140625,-192.3828125,-1.953125,-5.37109375,-201.66015625,104.98046875,0.0
24.91796875,-205.56640625,-1.953125,-2.9296875,-205.078125,46.875,0.0
24.921875,-203.125,-8.30078125,-19.04296875,-209.47265625,-8.7890625,0.0
24.92578125,-181.15234375,-9.765625,-27.83203125,-202.1484375,-16.6015625,0.0
24.9296875,-182.12890625,-16.6015625,-26.85546875,-191.40625,-23.4375,0.0
24.93359375,-192.3828125,-9.765625,-20.01953125,-198.73046875,11.71875,0.0
24.9375,-186.03515625,-4.8828125,-18.5546875,-193.84765625,99.609375,0.0
24.94140625,-178.7109375,-10.7421875,-21.484375,-178.22265625,36.1328125,0.0
24.9453125,-177.24609375,-15.13671875,-27.34375,-172.36328125,-123.53515625,0.0
24.94921875,-156.25,-24.90234375,-19.53125,-165.52734375,-73.73046875,0.0
24.953125,-154.296875,-32.2265625,-16.6015625,-161.62109375,-16.6015625,0.0
24.95703125,-159.66796875,-31.25,-22.4609375,-148.4375,-81.54296875,0.0
24.9609375,-134.765625,-26.85546875,-25.87890625,-120.1171875,-80.078125,0.0
24.96484375,-101.07421875,-30.2734375,-27.83203125,-119.140625,-24.4140625,0.0
24.96875,-89.35546875,-32.71484375,-37.109375,-113.28125,62.5,0.0
24.97265625,-76.66015625,-27.83203125,-39.0625,-91.30859375,55.6640625,0.0
24.9765625,-69.3359375,-30.2734375,-30.2734375,-78.61328125,8.7890625,0.0
24.98046875,-79.58984375,-33.69140625,-36.1328125,-68.359375,59.08203125,0.0
24.984375,-72.265625,-34.66796875,-41.9921875,-55.17578125,107.91015625,0.0
24.98828125,-58.10546875,-42.96875,-41.015625,-52.24609375,47.36328125,0.0
24.9921875,-43.45703125,-44.43359375,-46.875,-40.52734375,-43.45703125,0.0
24.99609375,-23.92578125,-39.0625,-45.41015625,-32.71484375,-87.40234375,0.0
25.0,-37.59765625,-36.62109375,-36.1328125,-30.76171875,-119.140625,0.0
25.00390625,-34.1796875,-35.64453125,-41.50390625,-23.4375,-14.6484375,0.0
25.0078125,-5.37109375,-36.1328125,-44.43359375,-9.27734375,38.57421875,0.0
25.01171875,5.859375,-36.1328125,-41.50390625,-6.8359375,-16.6015625,0.0
25.015625,1.953125,-39.0625,-43.9453125,-0.9765625,-45.41015625,0.0
25.01953125,-7.32421875,-39.55078125,-40.52734375,7.32421875,-111.328125,0.0
25.0234375,0.0,-34.66796875,-39.0625,9.27734375,-60.05859375,0.0
25.02734375,-0.9765625,-40.52734375,-49.8046875,5.859375,38.57421875,0.0
25.03125,5.859375,-48.828125,-47.8515625,0.0,-22.94921875,0.0
25.03515625,9.765625,-39.55078125,-39.55078125,19.53125,-138.671875,0.0
25.0390625,-8.7890625,-38.57421875,-42.48046875,21.97265625,-136.71875,0.0
25.04296875,0.0,-41.9921875,-46.875,-3.41796875,-152.34375,0.0
25.046875,11.23046875,-39.0625,-49.8046875,-5.37109375,-221.6796875,0.0
25.05078125,14.6484375,-38.0859375,-43.9453125,16.6015625,-177.734375,0.0
25.0546875,12.20703125,-39.0625,-41.50390625,20.5078125,-199.21875,0.0
25.05859375,20.5078125,-38.57421875,-48.33984375,6.34765625,-184.5703125,0.0
25.0625,25.390625,-38.0859375,-46.875,-2.9296875,-139.16015625,0.0
25.06640625,17.08984375,-43.9453125,-38.0859375,4.8828125,-214.35546875,0.0
25.0703125,23.92578125,-43.9453125,-38.0859375,-0.48828125,-231.4453125,0.0
25.07421875,10.25390625,-41.015625,-45.41015625,-9.27734375,-198.2421875,0.0
25.078125,-2.44140625,-42.48046875,-45.41015625,5.859375,-98.6328125,0.0
25.08203125,9.765625,-39.0625,-39.0625,13.18359375,36.62109375,0.0
25.0859375,25.390625,-32.71484375,-35.15625,14.16015625,74.70703125,0.0
25.08984375,24.4140625,-32.71484375,-36.62109375,15.13671875,6.34765625,0.0
25.09375,14.16015625,-38.0859375,-37.109375,18.5546875,39.0625,0.0
25.09765625,9.765625,-40.52734375,-29.78515625,25.87890625,59.08203125,0.0
25.1015625,13.18359375,-39.0625,-26.85546875,16.6015625,-18.06640625,0.0
25.10546875,21.484375,-41.50390625,-32.2265625,2.9296875,-53.22265625,0.0
25.109375,11.23046875,-42.48046875,-34.66796875,0.0,16.11328125,0.0
25.11328125,-5.37109375,-43.45703125,-34.1796875,2.44140625,106.93359375,0.0
25.1171875,-13.18359375,-47.36328125,-35.64453125,2.9296875,68.359375,0.0
25.12109375,-15.13671875,-47.36328125,-34.1796875,2.9296875,26.3671875,0.0
25.125,-8.7890625,-48.33984375,-35.15625,-0.9765625,-70.80078125,0.0
25.12890625,-2.9296875,-49.31640625,-42.96875,-4.8828125,-86.42578125,0.0
25.1328125,1.46484375,-42.48046875,-41.015625,1.46484375,-98.14453125,0.0
25.13671875,8.7890625,-27.83203125,-34.1796875,3.90625,-161.1328125,0.0
25.140625,8.30078125,-25.87890625,-37.109375,-2.44140625,-75.68359375,0.0
25.14453125,3.90625,-30.76171875,-41.9921875,-5.859375,-50.78125,0.0
25.1484375,6.8359375,-26.3671875,-36.1328125,0.0,-56.15234375,0.0
25.15234375,7.8125,-29.296875,-36.1328125,0.48828125,-72.265625,0.0
25.15625,-3.41796875,-42.48046875,-35.64453125,2.9296875,-51.26953125,0.0
25.16015625,-9.27734375,-41.9921875,-39.55078125,4.8828125,-33.69140625,0.0
25.1640625,0.48828125,-39.55078125,-44.921875,-4.8828125,-10.7421875,0.0
25.16796875,-1.953125,-39.0625,-43.45703125,-15.625,14.16015625,0.0
25.171875,-10.25390625,-32.2265625,-37.109375,-5.37109375,-36.62109375,0.0
25.17578125,-16.6015625,-36.62109375,-40.0390625,-2.44140625,19.04296875,0.0
25.1796875,-15.13671875,-34.66796875,-41.015625,-13.671875,62.5,0.0
25.18359375,2.44140625,-29.296875,-31.25,-8.7890625,44.921875,0.0
25.1875,-9.27734375,-37.59765625,-33.69140625,-3.41796875,86.9140625,0.0
25.19140625,-23.92578125,-39.55078125,-39.55078125,-18.06640625,29.78515625,0.0
25.1953125,-20.99609375,-30.2734375,-35.64453125,-12.6953125,-45.8984375,0.0
25.19921875,-27.34375,-35.15625,-29.78515625,-0.9765625,18.5546875,0.0
25.203125,-25.87890625,-38.57421875,-18.06640625,-21.484375,101.5625,0.0
25.20703125,-18.5546875,-27.34375,-24.90234375,-15.625,31.73828125,0.0
25.2109375,-19.53125,-23.92578125,-30.76171875,-8.7890625,-61.03515625,0.0
25.21484375,-27.34375,-33.69140625,-27.83203125,-17.578125,15.13671875,0.0
25.21875,-23.4375,-31.25,-27.34375,-3.90625,-3.41796875,0.0
25.22265625,-15.625,-25.390625,-30.2734375,-7.8125,-13.18359375,0.0
25.2265625,-9.27734375,-31.25,-31.73828125,-13.671875,-49.31640625,0.0
25.23046875,11.71875,-29.78515625,-26.85546875,-0.9765625,-94.23828125,0.0
25.234375,1.46484375,-24.90234375,-21.484375,-3.41796875,-28.3203125,0.0
25.23828125,-18.5546875,-30.76171875,-28.3203125,-13.18359375,46.875,0.0
25.2421875,-12.6953125,-36.1328125,-30.76171875,-6.34765625,23.4375,0.0
25.24609375,-2.44140625,-35.64453125,-19.04296875,-16.6015625,-16.6015625,0.0
25.25,1.953125,-30.76171875,-29.296875,-17.578125,33.203125,0.0
25.25390625,2.9296875,-28.3203125,-36.62109375,4.39453125,47.8515625,0.0
25.2578125,-7.8125,-28.80859375,-33.203125,-10.7421875,41.9921875,0.0
25.26171875,-11.23046875,-34.1796875,-35.15625,-17.08984375,-2.9296875,0.0
25.265625,20.99609375,-36.1328125,-36.1328125,3.90625,12.20703125,0.0
25.26953125,12.20703125,-31.25,-34.66796875,-11.23046875,-5.37109375,0.0
25.2734375,-36.62109375,-41.50390625,-33.203125,-43.45703125,-125.0,0.0
25.27734375,-39.0625,-48.828125,-31.73828125,-30.76171875,-104.4921875,0.0
25.28125,-4.8828125,-39.0625,-33.69140625,-0.9765625,-20.01953125,0.0
25.28515625,-3.90625,-36.1328125,-34.1796875,0.48828125,-17.578125,0.0
25.2890625,-9.765625,-39.0625,-28.3203125,-2.44140625,-0.48828125,0.0
25.29296875,0.0,-35.15625,-29.296875,1.46484375,-29.296875,0.0
25.296875,-3.90625,-35.15625,-32.2265625,17.578125,-31.73828125,0.0
25.30078125,-3.41796875,-41.50390625,-31.25,8.30078125,-41.9921875,0.0
25.3046875,6.8359375,-43.45703125,-22.4609375,2.44140625,-138.18359375,0.0
25.30859375,4.8828125,-41.50390625,-18.5546875,7.8125,-99.609375,0.0
25.3125,-7.8125,-33.69140625,-23.4375,6.34765625,-21.97265625,0.0
25.31640625,-10.25390625,-30.76171875,-19.04296875,3.90625,0.0,0.0
25.3203125,-8.30078125,-33.203125,-12.20703125,5.37109375,-30.2734375,0.0
25.32421875,-10.7421875,-34.1796875,-14.6484375,4.8828125,-45.8984375,0.0
25.328125,-7.8125,-31.25,-21.484375,0.9765625,-159.1796875,0.0
25.33203125,-12.6953125,-30.2734375,-23.92578125,-4.8828125,-238.76953125,0.0
25.3359375,-15.13671875,-23.4375,-19.53125,4.39453125,-159.1796875,0.0
25.33984375,-4.39453125,-17.578125,-18.5546875,-1.46484375,-63.96484375,0.0
25.34375,-6.34765625,-24.4140625,-25.87890625,-13.18359375,12.20703125,0.0
25.34765625,-2.9296875,-27.34375,-34.66796875,-24.90234375,-21.484375,0.0
25.3515625,17.08984375,-23.4375,-36.1328125,-14.16015625,-45.8984375,0.0
25.35546875,19.53125,-20.99609375,-30.2734375,1.953125,-27.83203125,0.0
25.359375,4.8828125,-29.78515625,-28.80859375,-22.4609375,-48.33984375,0.0
25.36328125,9.27734375,-35.15625,-31.25,-32.2265625,-33.203125,0.0
25.3671875,14.6484375,-29.296875,-32.2265625,-18.06640625,7.8125,0.0
25.37109375,2.44140625,-25.87890625,-39.55078125,-16.11328125,87.890625,0.0
25.375,-19.53125,-30.2734375,-34.66796875,-12.6953125,128.90625,0.0
25.37890625,-27.83203125,-37.59765625,-24.90234375,-10.7421875,14.6484375,0.0
25.3828125,-27.83203125,-35.64453125,-22.4609375,-10.7421875,6.34765625,0.0
25.38671875,-19.53125,-28.80859375,-25.87890625,-9.27734375,73.73046875,0.0
25.390625,-19.53125,-28.3203125,-32.2265625,-9.27734375,104.00390625,0.0
25.39453125,-29.296875,-32.2265625,-22.4609375,-11.71875,33.203125,0.0
25.3984375,-34.66796875,-33.69140625,-18.06640625,-18.06640625,-11.23046875,0.0
25.40234375,-35.64453125,-35.64453125,-27.83203125,-8.7890625,62.98828125,0.0
25.40625,-28.3203125,-40.0390625,-33.203125,-29.296875,74.70703125,0.0
25.41015625,-22.4609375,-44.43359375,-31.73828125,-48.33984375,-14.6484375,0.0
25.4140625,-26.3671875,-40.0390625,-24.4140625,-32.71484375,-7.8125,0.0
25.41796875,-37.59765625,-34.66796875,-22.94921875,-28.3203125,21.484375,0.0
25.421875,-32.2265625,-33.69140625,-27.83203125,-31.73828125,5.37109375,0.0
25.42578125,-26.3671875,-29.78515625,-34.66796875,-36.62109375,27.83203125,0.0
25.4296875,-34.66796875,-30.2734375,-33.69140625,-34.66796875,42.48046875,0.0
25.43359375,-47.36328125,-33.69140625,-36.1328125,-30.2734375,26.85546875,0.0
25.4375,-48.33984375,-38.57421875,-35.64453125,-24.4140625,-26.3671875,0.0
25.44140625,-35.15625,-40.0390625,-20.5078125,-19.53125,-95.21484375,0.0
25.4453125,-13.18359375,-34.1796875,-19.53125,-18.5546875,-166.9921875,0.0
25.44921875,-11.71875,-32.2265625,-29.78515625,-20.99609375,-157.2265625,0.0
25.453125,-35.15625,-32.71484375,-30.2734375,-26.3671875,-170.8984375,0.0
25.45703125,-41.50390625,-31.73828125,-24.90234375,-20.01953125,-163.57421875,0.0
25.4609375,-32.2265625,-29.78515625,-29.296875,-19.04296875,-75.68359375,0.0
25.46484375,-28.80859375,-31.73828125,-35.64453125,-32.2265625,32.71484375,0.0
25.46875,-21.97265625,-28.3203125,-35.64453125,-35.64453125,41.9921875,0.0
25.47265625,-11.71875,-30.2734375,-35.64453125,-26.3671875,-0.48828125,0.0
25.4765625,-28.3203125,-35.15625,-36.62109375,-22.94921875,-37.109375,0.0
25.48046875,-43.9453125,-34.66796875,-33.203125,-29.296875,-39.55078125,0.0
25.484375,-37.109375,-34.66796875,-34.66796875,-37.59765625,7.32421875,0.0
25.48828125,-33.69140625,-33.69140625,-32.2265625,-32.2265625,13.18359375,0.0
25.4921875,-37.59765625,-37.109375,-32.2265625,-27.34375,-35.64453125,0.0
25.49609375,-39.0625,-38.57421875,-35.64453125,-15.13671875,-65.91796875,0.0
25.5,-40.0390625,-36.62109375,-30.76171875,-11.71875,-138.671875,0.0
25.50390625,-39.55078125,-34.1796875,-28.3203125,-41.9921875,-103.02734375,0.0
25.5078125,-23.4375,-29.78515625,-31.25,-41.50390625,-21.484375,0.0
25.51171875,-17.08984375,-34.1796875,-30.2734375,-30.76171875,-77.1484375,0.0
25.515625,-37.109375,-39.55078125,-28.80859375,-29.296875,-150.390625,0.0
25.51953125,-37.59765625,-36.1328125,-35.64453125,-25.390625,-140.625,0.0
25.5234375,-31.73828125,-34.1796875,-36.62109375,-28.80859375,-137.20703125,0.0
25.52734375,-26.3671875,-35.15625,-31.73828125,-24.4140625,-138.671875,0.0
25.53125,-21.97265625,-37.109375,-21.484375,-20.99609375,-154.78515625,0.0
25.53515625,-29.78515625,-42.96875,-31.73828125,-30.76171875,-122.55859375,0.0
25.5390625,-40.0390625,-40.52734375,-44.921875,-32.71484375,-115.72265625,0.0
25.54296875,-39.0625,-40.52734375,-35.15625,-27.34375,-147.94921875,0.0
25.546875,-25.87890625,-46.38671875,-25.390625,-37.59765625,-101.5625,0.0
25.55078125,-21.97265625,-48.828125,-40.0390625,-53.22265625,-21.97265625,0.0
25.5546875,-36.62109375,-43.9453125,-38.57421875,-38.0859375,17.578125,0.0
25.55859375,-46.875,-42.48046875,-29.78515625,-23.92578125,34.1796875,0.0
25.5625,-39.0625,-39.0625,-32.71484375,-27.83203125,46.38671875,0.0
25.56640625,-26.3671875,-35.64453125,-34.1796875,-36.1328125,-6.8359375,0.0
25.5703125,-28.3203125,-38.57421875,-30.2734375,-40.0390625,-90.33203125,0.0
25.57421875,-28.3203125,-34.1796875,-25.390625,-34.1796875,-100.5859375,0.0
25.578125,-20.01953125,-26.3671875,-25.390625,-25.390625,-56.640625,0.0
25.58203125,-14.16015625,-30.2734375,-33.203125,-29.296875,-12.20703125,0.0
25.5859375,-11.23046875,-32.2265625,-39.0625,-28.80859375,31.25,0.0
25.58984375,-7.32421875,-29.78515625,-30.76171875,-25.390625,4.8828125,0.0
25.59375,-15.13671875,-27.83203125,-21.484375,-24.4140625,18.5546875,0.0
25.59765625,-33.69140625,-29.296875,-26.3671875,-9.27734375,51.26953125,0.0
25.6015625,-33.69140625,-28.80859375,-26.3671875,-9.27734375,32.71484375,0.0
25.60546875,-27.83203125,-34.1796875,-22.94921875,-23.92578125,0.9765625,0.0
25.609375,-24.90234375,-37.59765625,-32.2265625,-29.296875,-21.484375,0.0
25.61328125,-19.04296875,-24.4140625,-34.1796875,-22.4609375,-15.625,0.0
25.6171875,-27.34375,-18.5546875,-25.390625,-17.578125,20.01953125,0.0
25.62109375,-32.71484375,-22.4609375,-14.6484375,-15.13671875,49.8046875,0.0
25.625,-33.69140625,-32.71484375,-22.94921875,-22.4609375,47.8515625,0.0
25.62890625,-34.1796875,-34.1796875,-31.25,-30.2734375,62.01171875,0.0
25.6328125,-33.203125,-30.2734375,-23.4375,-36.62109375,50.78125,0.0
25.63671875,-34.1796875,-36.62109375,-21.484375,-37.109375,-26.3671875,0.0
25.640625,-20.01953125,-40.52734375,-28.80859375,-17.578125,-41.015625,0.0
25.64453125,4.39453125,-37.109375,-28.3203125,-3.90625,-81.54296875,0.0
25.6484375,-26.3671875,-29.78515625,-26.85546875,-31.73828125,-59.5703125,0.0
25.65234375,-62.5,-31.25,-32.2265625,-51.7578125,-31.25,0.0
25.65625,-68.359375,-35.64453125,-31.73828125,-64.94140625,-67.3828125,0.0
25.66015625,-81.0546875,-36.1328125,-32.2265625,-82.51953125,-69.3359375,0.0
25.6640625,-86.9140625,-34.1796875,-34.66796875,-92.28515625,-100.5859375,0.0
25.66796875,-80.56640625,-32.2265625,-37.59765625,-96.6796875,-97.65625,0.0
25.671875,-85.9375,-32.71484375,-40.0390625,-89.84375,-13.18359375,0.0
25.67578125,-92.28515625,-34.1796875,-33.69140625,-76.66015625,-13.671875,0.0
25.6796875,-84.9609375,-34.1796875,-23.4375,-76.66015625,-40.0390625,0.0
25.68359375,-69.3359375,-33.69140625,-23.4375,-72.265625,-18.5546875,0.0
25.6875,-50.78125,-42.48046875,-28.80859375,-63.96484375,-30.2734375,0.0
25.69140625,-61.5234375,-46.38671875,-32.71484375,-61.03515625,-144.04296875,0.0
25.6953125,-69.82421875,-37.109375,-33.203125,-51.7578125,-210.44921875,0.0
25.69921875,-57.6171875,-26.3671875,-31.73828125,-49.8046875,-126.953125,0.0
25.703125,-51.26953125,-20.01953125,-35.15625,-52.734375,-40.0390625,0.0
25.70703125,-47.36328125,-26.3671875,-39.0625,-59.5703125,-57.12890625,0.0
25.7109375,-45.41015625,-32.2265625,-32.2265625,-49.8046875,-20.01953125,0.0
25.71484375,-42.96875,-35.64453125,-27.34375,-35.64453125,40.52734375,0.0
25.71875,-36.1328125,-34.66796875,-33.203125,-36.1328125,-6.34765625,0.0
25.72265625,-41.9921875,-35.15625,-44.921875,-46.875,-54.19921875,0.0
25.7265625,-40.52734375,-36.62109375,-32.2265625,-49.8046875,25.390625,0.0
25.73046875,-40.0390625,-35.64453125,-29.296875,-50.78125,71.2890625,0.0
25.734375,-52.24609375,-36.1328125,-36.1328125,-43.9453125,39.55078125,0.0
25.73828125,-52.734375,-33.203125,-33.69140625,-33.69140625,10.7421875,0.0
25.7421875,-41.9921875,-27.34375,-32.71484375,-42.48046875,1.46484375,0.0
25.74609375,-30.2734375,-22.94921875,-36.62109375,-48.33984375,2.44140625,0.0
25.75,-32.71484375,-29.296875,-32.71484375,-53.22265625,14.16015625,0.0
25.75390625,-47.36328125,-32.71484375,-29.296875,-47.36328125,-24.4140625,0.0
25.7578125,-49.8046875,-31.73828125,-34.1796875,-26.3671875,-83.0078125,0.0
25.76171875,-38.0859375,-30.76171875,-34.1796875,-34.1796875,-48.828125,0.0
25.765625,-30.2734375,-29.296875,-35.64453125,-45.8984375,69.3359375,0.0
25.76953125,-32.71484375,-31.25,-29.296875,-34.1796875,36.1328125,0.0
25.7734375,-35.15625,-29.78515625,-20.01953125,-30.76171875,-25.87890625,0.0
25.77734375,-35.64453125,-28.3203125,-29.78515625,-26.3671875,-17.08984375,0.0
25.78125,-33.69140625,-31.73828125,-36.62109375,-19.53125,-31.73828125,0.0
25.78515625,-20.99609375,-33.203125,-35.64453125,-27.83203125,-29.296875,0.0
25.7890625,-31.25,-31.25,-31.73828125,-42.96875,-63.4765625,0.0
25.79296875,-43.9453125,-28.3203125,-33.203125,-49.31640625,-94.7265625,0.0
25.796875,-39.0625,-24.90234375,-41.9921875,-45.8984375,-43.45703125,0.0
25.80078125,-40.52734375,-25.87890625,-38.57421875,-29.78515625,-74.70703125,0.0
25.8046875,-35.15625,-26.85546875,-26.3671875,-28.3203125,-102.05078125,0.0
25.80859375,-24.90234375,-20.01953125,-20.5078125,-23.92578125,-74.70703125,0.0
25.8125,-22.94921875,-15.625,-25.390625,-27.83203125,-71.77734375,0.0
25.81640625,-40.0390625,-21.97265625,-20.5078125,-32.71484375,-89.35546875,0.0
25.8203125,-50.29296875,-28.80859375,-15.625,-29.78515625,-26.85546875,0.0
25.82421875,-45.41015625,-37.109375,-26.3671875,-35.15625,47.8515625,0.0
25.828125,-42.96875,-36.62109375,-27.83203125,-33.203125,23.4375,0.0
25.83203125,-40.0390625,-38.0859375,-28.80859375,-28.3203125,-41.015625,0.0
25.8359375,-46.38671875,-41.9921875,-29.78515625,-35.64453125,-26.85546875,0.0
25.83984375,-40.0390625,-33.69140625,-25.87890625,-34.66796875,-9.27734375,0.0
25.84375,-22.4609375,-22.94921875,-24.4140625,-34.1796875,-50.78125,0.0
25.84765625,-28.3203125,-26.85546875,-24.4140625,-22.94921875,-22.4609375,0.0
25.8515625,-30.2734375,-29.296875,-34.66796875,-26.3671875,7.8125,0.0
25.85546875,-37.109375,-28.3203125,-35.15625,-32.71484375,-6.34765625,0.0
25.859375,-41.015625,-38.57421875,-29.296875,-41.015625,7.32421875,0.0
25.86328125,-22.4609375,-38.0859375,-34.1796875,-36.1328125,16.11328125,0.0
25.8671875,-13.671875,-31.25,-32.71484375,-25.87890625,20.5078125,0.0
25.87109375,-19.04296875,-30.76171875,-29.296875,-43.45703125,-5.37109375,0.0
25.875,-26.3671875,-31.73828125,-29.296875,-36.1328125,-13.18359375,0.0
25.87890625,-39.55078125,-34.1796875,-29.78515625,-25.390625,58.59375,0.0
25.8828125,-35.15625,-35.15625,-22.94921875,-31.25,19.04296875,0.0
25.88671875,-31.25,-34.1796875,-26.85546875,-49.8046875,-91.30859375,0.0
25.890625,-32.71484375,-29.296875,-34.1796875,-43.45703125,2.9296875,0.0
25.89453125,-34.66796875,-34.1796875,-29.78515625,-24.90234375,31.73828125,0.0
25.8984375,-40.0390625,-37.109375,-29.78515625,-24.90234375,-12.20703125,0.0
25.90234375,-31.73828125,-34.1796875,-30.76171875,-27.34375,32.71484375,0.0
25.90625,-22.4609375,-35.15625,-30.76171875,-22.4609375,20.01953125,0.0
25.91015625,-21.484375,-30.76171875,-31.25,-14.6484375,37.59765625,0.0
25.9140625,-15.625,-31.25,-21.97265625,-6.34765625,-4.39453125,0.0
25.91796875,-12.20703125,-32.2265625,-22.4609375,1.953125,-35.64453125,0.0
25.921875,-33.69140625,-25.390625,-35.15625,-29.78515625,-38.57421875,0.0
25.92578125,-59.5703125,-29.296875,-38.57421875,-75.1953125,-128.41796875,0.0
25.9296875,-62.5,-32.2265625,-40.0390625,-64.94140625,-79.1015625,0.0
25.93359375,-65.91796875,-29.78515625,-44.921875,-63.4765625,-4.8828125,0.0
25.9375,-69.82421875,-35.64453125,-45.41015625,-80.078125,-28.80859375,0.0
25.94140625,-66.89453125,-40.52734375,-51.26953125,-86.42578125,-8.30078125,0.0
25.9453125,-69.82421875,-38.0859375,-53.7109375,-89.35546875,50.78125,0.0
25.94921875,-61.03515625,-32.2265625,-44.43359375,-75.1953125,57.6171875,0.0
25.953125,-55.17578125,-23.92578125,-50.78125,-59.5703125,47.8515625,0.0
25.95703125,-69.3359375,-24.4140625,-52.24609375,-60.05859375,-18.5546875,0.0
25.9609375,-56.15234375,-27.83203125,-45.8984375,-55.6640625,-200.68359375,0.0
25.96484375,-16.11328125,-22.94921875,-42.48046875,-37.109375,-299.8046875,0.0
25.96875,-11.71875,-22.4609375,-41.015625,-36.1328125,-219.23828125,0.0
25.97265625,-58.59375,-25.390625,-42.96875,-52.734375,-142.578125,0.0
25.9765625,-80.078125,-22.4609375,-43.45703125,-44.43359375,-103.515625,0.0
25.98046875,-52.734375,-23.92578125,-49.31640625,-37.109375,-108.88671875,0.0
25.984375,-31.25,-24.90234375,-46.875,-29.78515625,-120.1171875,0.0
25.98828125,-35.64453125,-20.99609375,-41.50390625,-29.296875,-10.7421875,0.0
25.9921875,-34.66796875,-18.06640625,-41.015625,-48.33984375,62.5,0.0
25.99609375,-36.1328125,-16.11328125,-36.1328125,-45.41015625,61.03515625,0.0
26.0,-48.33984375,-20.99609375,-36.1328125,-38.57421875,30.2734375,0.0
26.00390625,-42.48046875,-24.90234375,-40.0390625,-42.48046875,-19.04296875,0.0
26.0078125,-16.11328125,-24.4140625,-45.8984375,-40.0390625,6.8359375,0.0
26.01171875,-27.83203125,-31.25,-43.45703125,-40.52734375,15.625,0.0
26.015625,-49.8046875,-32.2265625,-38.57421875,-40.0390625,-27.34375,0.0
26.01953125,-43.9453125,-29.78515625,-34.66796875,-25.390625,-9.27734375,0.0
26.0234375,-39.0625,-31.25,-38.57421875,-35.64453125,43.45703125,0.0
26.02734375,-32.71484375,-29.78515625,-49.31640625,-53.7109375,72.75390625,0.0
26.03125,-43.45703125,-30.76171875,-44.921875,-41.015625,34.66796875,0.0
26.03515625,-33.69140625,-35.64453125,-43.9453125,-46.38671875,-1.46484375,0.0
26.0390625,-34.1796875,-38.0859375,-35.64453125,-37.109375,-8.30078125,0.0
26.04296875,-44.43359375,-34.1796875,-29.78515625,-36.1328125,-108.3984375,0.0
26.046875,-31.25,-35.64453125,-51.26953125,-56.640625,-92.7734375,0.0
26.05078125,-28.3203125,-43.45703125,-52.734375,-50.29296875,-65.4296875,0.0
26.0546875,-38.57421875,-37.109375,-42.96875,-41.015625,-151.3671875,0.0
26.05859375,-45.41015625,-28.80859375,-44.43359375,-39.55078125,-72.265625,0.0
26.0625,-30.76171875,-31.73828125,-40.0390625,-40.0390625,34.66796875,0.0
26.06640625,-20.01953125,-32.71484375,-35.15625,-32.71484375,-48.33984375,0.0
26.0703125,-17.08984375,-28.80859375,-36.62109375,-23.92578125,-118.1640625,0.0
26.07421875,-40.0390625,-30.2734375,-43.9453125,-35.15625,-53.22265625,0.0
26.078125,-44.43359375,-26.85546875,-41.50390625,-33.203125,8.7890625,0.0
26.08203125,0.0,-21.484375,-34.1796875,-34.66796875,16.6015625,0.0
26.0859375,10.25390625,-25.87890625,-33.69140625,-23.92578125,20.01953125,0.0
26.08984375,-0.48828125,-20.01953125,-32.71484375,-22.4609375,51.26953125,0.0
26.09375,-4.8828125,-29.78515625,-35.64453125,-42.96875,-76.171875,0.0
26.09765625,-10.7421875,-38.0859375,-38.0859375,-35.15625,-83.984375,0.0
26.1015625,-31.25,-31.73828125,-27.34375,-33.203125,-18.06640625,0.0
26.10546875,-29.296875,-33.203125,-23.92578125,-43.45703125,-48.828125,0.0
26.109375,-10.25390625,-40.52734375,-36.62109375,-34.1796875,19.53125,0.0
26.11328125,-26.3671875,-44.921875,-33.203125,-32.2265625,11.23046875,0.0
26.1171875,-41.50390625,-43.9453125,-34.1796875,-30.76171875,-0.48828125,0.0
26.12109375,-37.109375,-40.0390625,-42.96875,-29.78515625,21.97265625,0.0
26.125,-31.25,-39.0625,-39.0625,-31.73828125,-10.25390625,0.0
26.12890625,-21.97265625,-38.57421875,-42.96875,-31.25,-7.32421875,0.0
26.1328125,-20.5078125,-35.64453125,-47.8515625,-36.62109375,-22.94921875,0.0
26.13671875,-51.26953125,-36.1328125,-39.0625,-24.4140625,-50.29296875,0.0
26.140625,-50.78125,-34.1796875,-35.64453125,-29.78515625,-51.26953125,0.0
26.14453125,-14.6484375,-33.203125,-23.92578125,-26.85546875,-76.171875,0.0
26.1484375,-20.5078125,-28.3203125,-12.6953125,-7.8125,-15.625,0.0
26.15234375,-41.9921875,-28.80859375,-21.484375,-30.2734375,-22.94921875,0.0
26.15625,-31.73828125,-37.109375,-19.53125,-37.109375,-39.55078125,0.0
26.16015625,-23.92578125,-36.1328125,-21.97265625,-35.15625,-33.203125,0.0
26.1640625,-33.203125,-32.2265625,-35.64453125,-32.71484375,-65.91796875,0.0
26.16796875,-43.9453125,-38.57421875,-32.71484375,-34.66796875,-5.859375,0.0
26.171875,-27.83203125,-37.59765625,-27.34375,-39.0625,0.0,0.0
26.17578125,-21.484375,-36.1328125,-33.69140625,-27.34375,-39.0625,0.0
26.1796875,-41.015625,-36.62109375,-33.69140625,-20.01953125,-27.83203125,0.0
26.18359375,-24.4140625,-36.1328125,-35.64453125,-31.25,-8.30078125,0.0
26.1875,-12.20703125,-39.0625,-34.66796875,-48.828125,-13.18359375,0.0
26.19140625,-24.4140625,-33.69140625,-21.97265625,-32.2265625,-69.3359375,0.0
26.1953125,-31.73828125,-29.78515625,-24.90234375,-32.2265625,-44.921875,0.0
26.19921875,-46.875,-33.203125,-30.76171875,-35.15625,36.1328125,0.0
26.203125,-55.17578125,-36.1328125,-27.83203125,-16.11328125,41.50390625,0.0
26.20703125,-35.15625,-43.45703125,-23.92578125,-19.04296875,-44.43359375,0.0
26.2109375,-28.3203125,-42.48046875,-35.64453125,-16.11328125,-34.1796875,0.0
26.21484375,-30.2734375,-40.52734375,-38.57421875,-24.4140625,13.671875,0.0
26.21875,-24.90234375,-36.1328125,-30.2734375,-17.578125,-74.21875,0.0
26.22265625,-26.85546875,-33.69140625,-31.73828125,-26.85546875,-127.9296875,0.0
26.2265625,-38.0859375,-29.296875,-38.0859375,-45.41015625,-60.05859375,0.0
26.23046875,-37.59765625,-25.87890625,-37.59765625,-36.62109375,9.765625,0.0
26.234375,-25.390625,-35.64453125,-28.3203125,-24.4140625,-29.78515625,0.0
26.23828125,-24.90234375,-33.203125,-25.390625,-27.83203125,-9.765625,0.0
26.2421875,-34.66796875,-34.1796875,-35.64453125,-43.45703125,34.66796875,0.0
26.24609375,-23.92578125,-38.0859375,-38.0859375,-40.0390625,-60.05859375,0.0
26.25,-17.08984375,-40.52734375,-39.0625,-41.50390625,-70.3125,0.0
26.25390625,-23.4375,-44.921875,-35.15625,-46.875,-2.44140625,0.0
26.2578125,-35.64453125,-41.50390625,-34.1796875,-34.1796875,-63.4765625,0.0
26.26171875,-36.62109375,-40.0390625,-37.59765625,-41.9921875,-96.6796875,0.0
26.265625,-32.2265625,-36.62109375,-37.109375,-46.38671875,-50.78125,0.0
26.26953125,-40.0390625,-35.15625,-38.0859375,-41.015625,-99.609375,0.0
26.2734375,-42.48046875,-37.59765625,-31.73828125,-39.55078125,-122.55859375,0.0
26.27734375,-35.64453125,-39.55078125,-26.3671875,-19.53125,-95.21484375,0.0
26.28125,-35.15625,-43.45703125,-17.08984375,-28.80859375,-51.26953125,0.0
26.28515625,-32.71484375,-41.015625,-24.90234375,-49.8046875,-21.97265625,0.0
26.2890625,-23.92578125,-34.1796875,-37.109375,-49.8046875,-78.61328125,0.0
26.29296875,-37.59765625,-39.0625,-36.62109375,-41.9921875,-95.21484375,0.0
26.296875,-51.7578125,-41.015625,-27.83203125,-41.015625,-52.734375,0.0
26.30078125,-39.0625,-31.73828125,-30.76171875,-40.0390625,-22.94921875,0.0
26.3046875,-16.6015625,-28.80859375,-32.2265625,-29.78515625,-40.0390625,0.0
26.30859375,-3.90625,-24.4140625,-20.99609375,-31.25,-6.8359375,0.0
26.3125,-25.87890625,-25.87890625,-20.01953125,-42.96875,47.8515625,0.0
26.31640625,-45.41015625,-37.59765625,-26.85546875,-38.0859375,10.7421875,0.0
26.3203125,-39.55078125,-36.1328125,-35.15625,-34.66796875,-13.671875,0.0
26.32421875,-30.76171875,-26.3671875,-27.34375,-37.59765625,20.99609375,0.0
26.328125,-21.97265625,-36.62109375,-15.625,-37.109375,-62.5,0.0
26.33203125,-28.80859375,-49.31640625,-27.34375,-35.64453125,-50.29296875,0.0
26.3359375,-33.69140625,-41.9921875,-30.2734375,-28.80859375,31.25,0.0
26.33984375,-31.25,-36.62109375,-26.3671875,-28.3203125,5.37109375,0.0
26.34375,-34.66796875,-36.1328125,-33.203125,-34.1796875,43.9453125,0.0
26.34765625,-23.4375,-38.57421875,-40.0390625,-26.3671875,24.90234375,0.0
26.3515625,-23.92578125,-34.1796875,-34.66796875,-34.66796875,-38.0859375,0.0
26.35546875,-37.59765625,-29.296875,-34.1796875,-44.43359375,-20.5078125,0.0
26.359375,-47.8515625,-31.73828125,-41.50390625,-37.109375,20.01953125,0.0
26.36328125,-41.50390625,-31.73828125,-33.69140625,-35.15625,21.484375,0.0
26.3671875,-35.64453125,-38.57421875,-26.85546875,-41.50390625,-11.71875,0.0
26.37109375,-42.48046875,-39.55078125,-19.53125,-41.50390625,-40.0390625,0.0
26.375,-46.38671875,-29.296875,-20.99609375,-25.390625,-28.80859375,0.0
26.37890625,-42.96875,-29.296875,-35.15625,-20.5078125,26.3671875,0.0
26.3828125,-33.69140625,-27.83203125,-33.203125,-21.97265625,15.625,0.0
26.38671875,-32.71484375,-31.25,-18.5546875,-35.15625,-42.48046875,0.0
26.390625,-32.2265625,-37.109375,-23.92578125,-46.875,-55.6640625,0.0
26.39453125,-30.76171875,-39.0625,-30.76171875,-47.36328125,-59.08203125,0.0
26.3984375,-33.203125,-35.64453125,-25.390625,-35.15625,-30.2734375,0.0
26.40234375,-34.66796875,-39.55078125,-30.2734375,-34.1796875,-32.71484375,0.0
26.40625,-43.9453125,-43.45703125,-34.66796875,-60.05859375,-90.8203125,0.0
26.41015625,-38.0859375,-45.41015625,-36.62109375,-61.5234375,-117.67578125,0.0
26.4140625,-34.1796875,-43.45703125,-28.80859375,-48.33984375,-149.90234375,0.0
26.41796875,-45.8984375,-39.55078125,-28.3203125,-32.71484375,-128.90625,0.0
26.421875,-46.38671875,-39.0625,-29.78515625,-35.15625,-39.55078125,0.0
26.42578125,-42.96875,-35.64453125,-30.76171875,-46.38671875,-30.2734375,0.0
26.4296875,-36.1328125,-37.59765625,-32.71484375,-40.0390625,-62.5,0.0
26.43359375,-32.2265625,-47.36328125,-25.87890625,-34.1796875,-87.890625,0.0
26.4375,-39.0625,-46.875,-26.3671875,-32.71484375,-92.28515625,0.0
26.44140625,-44.43359375,-38.57421875,-29.296875,-24.90234375,-70.80078125,0.0
26.4453125,-29.296875,-32.71484375,-28.3203125,-28.3203125,21.97265625,0.0
26.44921875,-29.296875,-35.64453125,-24.90234375,-28.3203125,77.63671875,0.0
26.453125,-51.26953125,-41.50390625,-25.390625,-28.80859375,11.71875,0.0
26.45703125,-54.19921875,-29.78515625,-22.94921875,-31.25,62.01171875,0.0
26.4609375,-48.33984375,-24.4140625,-24.4140625,-31.25,89.84375,0.0
26.46484375,-45.8984375,-30.76171875,-31.25,-41.015625,18.06640625,0.0
26.46875,-29.78515625,-30.76171875,-33.69140625,-37.59765625,16.11328125,0.0
26.47265625,-18.06640625,-27.83203125,-33.69140625,-27.34375,-17.08984375,0.0
26.4765625,-43.45703125,-31.73828125,-27.83203125,-34.1796875,-29.296875,0.0
26.48046875,-51.7578125,-30.76171875,-24.90234375,-32.71484375,9.765625,0.0
26.484375,-40.0390625,-29.78515625,-27.83203125,-29.296875,-6.34765625,0.0
26.48828125,-27.83203125,-34.66796875,-29.78515625,-29.78515625,-69.82421875,0.0
26.4921875,-21.484375,-36.1328125,-31.73828125,-28.80859375,-108.3984375,0.0
26.49609375,-34.1796875,-25.87890625,-30.2734375,-33.203125,-82.51953125,0.0
26.5,-34.1796875,-20.99609375,-26.3671875,-28.3203125,-139.6484375,0.0
26.50390625,-28.80859375,-23.92578125,-27.83203125,-20.5078125,-186.03515625,0.0
26.5078125,-22.4609375,-24.90234375,-32.2265625,-23.92578125,-181.15234375,0.0
26.51171875,-16.11328125,-24.90234375,-34.1796875,-46.38671875,-141.11328125,0.0
26.515625,-36.1328125,-26.85546875,-32.71484375,-42.96875,-48.828125,0.0
26.51953125,-42.48046875,-30.2734375,-22.4609375,-29.78515625,4.39453125,0.0
26.5234375,-39.55078125,-31.25,-23.4375,-35.15625,-16.11328125,0.0
26.52734375,-45.8984375,-31.73828125,-27.83203125,-39.0625,52.734375,0.0
26.53125,-48.33984375,-34.66796875,-23.92578125,-38.57421875,28.3203125,0.0
26.53515625,-51.7578125,-33.203125,-27.34375,-31.25,-119.62890625,0.0
26.5390625,-48.33984375,-31.25,-29.296875,-27.83203125,5.37109375,0.0
26.54296875,-37.59765625,-31.25,-31.73828125,-41.015625,117.67578125,0.0
26.546875,-31.73828125,-32.2265625,-32.2265625,-36.1328125,40.0390625,0.0
26.55078125,-29.296875,-35.15625,-31.25,-25.390625,19.04296875,0.0
26.5546875,-39.55078125,-36.62109375,-38.0859375,-27.83203125,-39.55078125,0.0
26.55859375,-41.50390625,-36.62109375,-38.57421875,-14.6484375,-18.06640625,0.0
26.5625,-34.66796875,-32.71484375,-37.59765625,-33.203125,-7.32421875,0.0
26.56640625,-27.34375,-30.76171875,-31.25,-45.8984375,8.7890625,0.0
26.5703125,-29.296875,-28.3203125,-28.3203125,-22.4609375,15.13671875,0.0
26.57421875,-36.1328125,-24.4140625,-32.71484375,-26.3671875,22.94921875,0.0
26.578125,-39.55078125,-28.3203125,-33.69140625,-29.78515625,36.62109375,0.0
26.58203125,-36.1328125,-37.59765625,-29.296875,-25.87890625,11.23046875,0.0
26.5859375,-18.5546875,-40.52734375,-29.296875,-38.0859375,-51.26953125,0.0
26.58984375,-18.5546875,-40.52734375,-31.25,-44.921875,-68.359375,0.0
26.59375,-32.71484375,-40.0390625,-26.85546875,-35.64453125,-8.7890625,0.0
26.59765625,-39.55078125,-35.64453125,-31.73828125,-30.76171875,34.66796875,0.0
26.6015625,-35.15625,-35.64453125,-33.69140625,-32.71484375,69.82421875,0.0
26.60546875,-34.66796875,-37.59765625,-24.4140625,-46.875,-7.8125,0.0
26.609375,-36.1328125,-34.66796875,-16.11328125,-45.41015625,-130.37109375,0.0
26.61328125,-40.0390625,-39.0625,-17.578125,-35.64453125,-165.0390625,0.0
26.6171875,-47.36328125,-40.0390625,-25.87890625,-34.1796875,-60.05859375,0.0
26.62109375,-52.734375,-41.015625,-32.71484375,-27.83203125,-58.59375,0.0
26.625,-39.55078125,-41.50390625,-42.96875,-19.04296875,-55.17578125,0.0
26.62890625,-21.97265625,-38.57421875,-45.8984375,-29.296875,31.73828125,0.0
26.6328125,-31.25,-39.0625,-41.9921875,-38.0859375,49.31640625,0.0
26.63671875,-55.17578125,-37.59765625,-35.64453125,-35.15625,31.25,0.0
26.640625,-55.6640625,-35.15625,-35.64453125,-34.66796875,33.69140625,0.0
26.64453125,-41.9921875,-32.71484375,-37.59765625,-39.0625,46.38671875,0.0
26.6484375,-39.0625,-32.2265625,-32.2265625,-47.8515625,5.859375,0.0
26.65234375,-39.0625,-30.76171875,-26.3671875,-39.0625,-59.08203125,0.0
26.65625,-48.33984375,-35.64453125,-18.5546875,-24.4140625,-56.15234375,0.0
26.66015625,-54.6875,-38.57421875,-21.97265625,-22.4609375,-70.80078125,0.0
26.6640625,-44.43359375,-35.64453125,-26.3671875,-41.9921875,-92.28515625,0.0
26.66796875,-40.0390625,-40.0390625,-21.97265625,-49.31640625,-44.921875,0.0
26.671875,-41.50390625,-33.69140625,-8.7890625,-39.55078125,-20.5078125,0.0
26.67578125,-34.66796875,-28.3203125,-15.625,-37.109375,-27.34375,0.0
26.6796875,-36.62109375,-35.64453125,-32.2265625,-17.578125,-5.859375,0.0
26.68359375,-47.36328125,-35.15625,-33.69140625,-17.578125,15.13671875,0.0
26.6875,-41.50390625,-37.109375,-33.203125,-40.52734375,-3.90625,0.0
26.69140625,-37.109375,-37.59765625,-40.52734375,-34.66796875,-25.390625,0.0
26.6953125,-41.9921875,-33.69140625,-44.43359375,-25.87890625,-33.203125,0.0
26.69921875,-46.38671875,-37.109375,-31.25,-22.4609375,-42.96875,0.0
26.703125,-33.69140625,-39.55078125,-22.94921875,-27.83203125,-30.2734375,0.0
26.70703125,-28.3203125,-34.1796875,-35.15625,-41.015625,35.64453125,0.0
26.7109375,-31.73828125,-36.1328125,-35.64453125,-39.0625,20.01953125,0.0
26.71484375,-40.0390625,-37.109375,-25.87890625,-32.2265625,-63.96484375,0.0
26.71875,-46.875,-39.0625,-32.71484375,-37.59765625,-44.921875,0.0
26.72265625,-39.55078125,-40.0390625,-39.0625,-54.19921875,-53.22265625,0.0
26.7265625,-29.296875,-40.0390625,-35.15625,-59.5703125,-58.59375,0.0
26.73046875,-26.3671875,-39.0625,-33.69140625,-40.52734375,20.5078125,0.0
26.734375,-40.0390625,-35.15625,-34.66796875,-26.3671875,42.48046875,0.0
26.73828125,-47.36328125,-38.0859375,-37.59765625,-29.78515625,24.90234375,0.0
26.7421875,-40.52734375,-35.64453125,-36.62109375,-23.92578125,3.41796875,0.0
26.74609375,-34.66796875,-34.1796875,-28.3203125,-30.2734375,-62.98828125,0.0
26.75,-23.92578125,-36.1328125,-25.390625,-28.80859375,-55.6640625,0.0
26.75390625,-34.66796875,-43.9453125,-35.15625,-20.01953125,-78.61328125,0.0
26.7578125,-57.12890625,-44.43359375,-29.78515625,-29.296875,-78.125,0.0
26.76171875,-50.29296875,-33.69140625,-7.32421875,-37.109375,-91.30859375,0.0
26.765625,-31.25,-38.57421875,-17.578125,-33.203125,-73.2421875,0.0
26.76953125,-27.34375,-36.1328125,-28.80859375,-34.1796875,-59.08203125,0.0
26.7734375,-39.0625,-25.87890625,-28.3203125,-34.1796875,-122.55859375,0.0
26.77734375,-49.8046875,-27.34375,-32.71484375,-32.2265625,-72.265625,0.0
26.78125,-48.33984375,-32.71484375,-30.76171875,-30.2734375,3.41796875,0.0
26.78515625,-43.45703125,-31.25,-24.90234375,-34.1796875,-14.16015625,0.0
26.7890625,-39.0625,-33.69140625,-24.4140625,-45.41015625,-68.359375,0.0
26.79296875,-31.73828125,-29.78515625,-32.71484375,-33.203125,-71.2890625,0.0
26.796875,-38.0859375,-28.80859375,-39.55078125,-20.5078125,-44.43359375,0.0
26.80078125,-48.828125,-31.25,-36.1328125,-34.66796875,-80.078125,0.0
26.8046875,-36.1328125,-26.85546875,-27.34375,-37.59765625,-110.3515625,0.0
26.80859375,-22.94921875,-24.4140625,-34.66796875,-37.59765625,-71.2890625,0.0
26.8125,-33.69140625,-24.90234375,-42.96875,-35.64453125,-0.48828125,0.0
26.81640625,-37.59765625,-20.5078125,-31.25,-28.3203125,9.765625,0.0
26.8203125,-24.90234375,-20.5078125,-24.4140625,-41.50390625,-34.66796875,0.0
26.82421875,-10.7421875,-24.4140625,-34.1796875,-42.48046875,6.8359375,0.0
26.828125,-2.44140625,-24.4140625,-35.64453125,-33.69140625,76.66015625,0.0
26.83203125,-13.18359375,-24.90234375,-28.80859375,-45.41015625,37.109375,0.0
26.8359375,-21.484375,-29.296875,-24.90234375,-41.50390625,3.41796875,0.0
26.83984375,-14.16015625,-33.203125,-27.83203125,-30.76171875,3.90625,0.0
26.84375,-22.4609375,-29.296875,-39.0625,-17.08984375,-43.45703125,0.0
26.84765625,-35.15625,-30.76171875,-41.9921875,-27.83203125,-75.1953125,0.0
26.8515625,-33.69140625,-34.1796875,-28.3203125,-37.59765625,0.48828125,0.0
26.85546875,-46.38671875,-39.55078125,-21.97265625,-23.92578125,21.97265625,0.0
26.859375,-58.59375,-39.55078125,-26.85546875,-26.85546875,-12.20703125,0.0
26.86328125,-44.921875,-36.62109375,-30.2734375,-29.296875,-42.96875,0.0
26.8671875,-39.0625,-41.50390625,-31.73828125,-32.71484375,-52.734375,0.0
26.87109375,-38.0859375,-42.48046875,-30.2734375,-40.0390625,-17.08984375,0.0
26.875,-39.0625,-41.50390625,-31.25,-23.4375,-8.7890625,0.0
26.87890625,-44.921875,-42.48046875,-27.83203125,-25.87890625,-33.69140625,0.0
26.8828125,-38.0859375,-34.66796875,-20.99609375,-34.1796875,-88.37890625,0.0
26.88671875,-36.1328125,-35.64453125,-22.4609375,-19.04296875,-129.8828125,0.0
26.890625,-38.0859375,-41.015625,-27.83203125,-27.34375,-67.3828125,0.0
26.89453125,-34.1796875,-33.203125,-27.34375,-42.96875,19.04296875,0.0
26.8984375,-45.8984375,-29.296875,-28.3203125,-38.57421875,-2.9296875,0.0
26.90234375,-40.0390625,-31.25,-40.52734375,-39.55078125,-3.41796875,0.0
26.90625,-25.87890625,-33.69140625,-36.1328125,-38.0859375,-22.4609375,0.0
26.91015625,-32.71484375,-36.1328125,-24.4140625,-38.57421875,-101.07421875,0.0
26.9140625,-36.1328125,-36.1328125,-17.578125,-35.64453125,-28.80859375,0.0
26.91796875,-29.296875,-34.1796875,-20.5078125,-26.85546875,75.1953125,0.0
26.921875,-34.1796875,-30.2734375,-26.85546875,-31.25,-1.46484375,0.0
26.92578125,-30.2734375,-21.97265625,-22.94921875,-35.64453125,-19.04296875,0.0
26.9296875,-26.3671875,-23.92578125,-22.4609375,-29.296875,-8.7890625,0.0
26.93359375,-35.64453125,-40.52734375,-27.34375,-22.94921875,-186.03515625,0.0
26.9375,-42.96875,-41.015625,-23.4375,-20.01953125,-215.33203125,0.0
26.94140625,-34.66796875,-28.3203125,-1.953125,-22.4609375,-117.67578125,0.0
26.9453125,-26.3671875,-28.80859375,-3.41796875,-23.92578125,-100.5859375,0.0
26.94921875,-39.55078125,-35.15625,-25.87890625,-32.2265625,-135.25390625,0.0
26.953125,-47.36328125,-39.0625,-27.34375,-45.8984375,-123.046875,0.0
26.95703125,-52.24609375,-37.59765625,-23.4375,-38.57421875,-12.20703125,0.0
26.9609375,-48.33984375,-37.59765625,-27.34375,-31.25,-31.73828125,0.0
26.96484375,-29.78515625,-34.1796875,-34.1796875,-28.3203125,-61.5234375,0.0
26.96875,-21.484375,-33.203125,-30.2734375,-23.92578125,0.48828125,0.0
26.97265625,-37.109375,-38.0859375,-30.2734375,-28.80859375,20.01953125,0.0
26.9765625,-45.8984375,-39.55078125,-28.3203125,-31.73828125,-3.41796875,0.0
26.98046875,-41.015625,-39.55078125,-26.85546875,-40.0390625,-62.01171875,0.0
26.984375,-36.1328125,-32.2265625,-15.13671875,-40.52734375,-57.6171875,0.0
26.98828125,-28.3203125,-26.85546875,-2.9296875,-33.69140625,-0.48828125,0.0
26.9921875,-26.3671875,-29.296875,-20.01953125,-31.73828125,-8.30078125,0.0
26.99609375,-32.71484375,-28.3203125,-29.296875,-37.59765625,-19.53125,0.0
27.0,-38.0859375,-25.390625,-30.2734375,-40.52734375,-33.203125,0.0
27.00390625,-30.76171875,-21.97265625,-31.25,-37.59765625,-29.78515625,0.0
27.0078125,-25.87890625,-21.97265625,-34.1796875,-46.38671875,-26.3671875,0.0
27.01171875,-25.390625,-33.69140625,-37.109375,-39.55078125,-67.87109375,0.0
27.015625,-33.203125,-41.015625,-30.2734375,-28.80859375,-44.43359375,0.0
27.01953125,-47.8515625,-35.15625,-29.78515625,-39.0625,6.34765625,0.0
27.0234375,-41.50390625,-31.73828125,-39.0625,-45.8984375,-7.32421875,0.0
27.02734375,-27.83203125,-33.203125,-40.0390625,-40.52734375,-14.16015625,0.0
27.03125,-30.76171875,-27.83203125,-20.5078125,-32.71484375,-42.48046875,0.0
27.03515625,-32.2265625,-24.90234375,-19.04296875,-33.203125,-74.21875,0.0
27.0390625,-31.73828125,-30.76171875,-33.203125,-31.73828125,-45.8984375,0.0
27.04296875,-23.92578125,-33.69140625,-34.1796875,-33.69140625,-42.96875,0.0
27.046875,-12.20703125,-32.71484375,-18.5546875,-42.96875,-14.16015625,0.0
27.05078125,-15.13671875,-32.71484375,-31.73828125,-48.828125,57.12890625,0.0
27.0546875,-27.83203125,-31.73828125,-43.45703125,-37.109375,26.3671875,0.0
27.05859375,-31.25,-32.2265625,-34.1796875,-27.83203125,-31.73828125,0.0
27.0625,-27.34375,-31.25,-29.78515625,-35.64453125,-21.484375,0.0
27.06640625,-24.4140625,-26.85546875,-33.203125,-46.875,-22.4609375,0.0
27.0703125,-28.3203125,-22.94921875,-38.0859375,-46.875,-22.4609375,0.0
27.07421875,-36.1328125,-25.390625,-31.73828125,-36.62109375,-15.13671875,0.0
27.078125,-46.875,-36.1328125,-24.4140625,-28.80859375,-44.43359375,0.0
27.08203125,-42.96875,-34.66796875,-28.3203125,-36.62109375,-26.85546875,0.0
27.0859375,-30.2734375,-28.3203125,-28.3203125,-38.0859375,4.8828125,0.0
27.08984375,-24.4140625,-27.83203125,-30.76171875,-30.76171875,-21.484375,0.0
27.09375,-32.71484375,-26.85546875,-34.1796875,-47.36328125,-90.8203125,0.0
27.09765625,-48.828125,-29.296875,-27.83203125,-47.8515625,-121.09375,0.0
27.1015625,-44.921875,-31.25,-20.5078125,-32.71484375,-74.70703125,0.0
27.10546875,-35.15625,-35.15625,-19.53125,-31.25,-80.078125,0.0
27.109375,-28.80859375,-31.73828125,-28.80859375,-29.296875,-45.41015625,0.0
27.11328125,-20.01953125,-26.3671875,-31.25,-23.92578125,-40.52734375,0.0
27.1171875,-25.87890625,-35.15625,-28.3203125,-24.90234375,-155.2734375,0.0
27.12109375,-33.203125,-39.55078125,-25.87890625,-20.5078125,-149.90234375,0.0
27.125,-27.83203125,-33.69140625,-26.85546875,-33.69140625,-71.77734375,0.0
27.12890625,-36.62109375,-30.76171875,-28.3203125,-48.828125,-31.25,0.0
27.1328125,-45.8984375,-30.2734375,-25.390625,-39.55078125,-16.11328125,0.0
27.13671875,-46.38671875,-29.296875,-21.97265625,-36.62109375,-39.0625,0.0
27.140625,-43.45703125,-24.90234375,-23.92578125,-39.0625,-52.734375,0.0
27.14453125,-34.66796875,-23.92578125,-29.296875,-49.8046875,-68.84765625,0.0
27.1484375,-29.296875,-22.94921875,-29.296875,-52.734375,-47.36328125,0.0
27.15234375,-40.52734375,-27.83203125,-24.4140625,-49.31640625,40.0390625,0.0
27.15625,-55.17578125,-35.64453125,-28.3203125,-44.921875,38.57421875,0.0
27.16015625,-42.96875,-32.71484375,-26.85546875,-33.203125,-17.578125,0.0
27.1640625,-28.3203125,-30.2734375,-24.90234375,-35.64453125,-10.25390625,0.0
27.16796875,-23.4375,-30.2734375,-32.71484375,-40.52734375,7.8125,0.0
27.171875,-29.78515625,-30.2734375,-34.1796875,-37.59765625,-29.296875,0.0
27.17578125,-40.0390625,-32.2265625,-32.2265625,-41.015625,-76.171875,0.0
27.1796875,-39.55078125,-30.76171875,-28.3203125,-41.015625,-24.90234375,0.0
27.18359375,-35.64453125,-25.87890625,-21.484375,-37.59765625,6.34765625,0.0
27.1875,-25.87890625,-22.94921875,-21.97265625,-34.1796875,22.94921875,0.0
27.19140625,-20.01953125,-24.4140625,-29.296875,-31.25,41.015625,0.0
27.1953125,-26.85546875,-23.4375,-30.2734375,-33.69140625,20.99609375,0.0
27.19921875,-39.55078125,-29.296875,-28.80859375,-28.80859375,46.875,0.0
27.203125,-43.45703125,-31.25,-37.109375,-41.9921875,11.71875,0.0
27.20703125,-34.66796875,-29.78515625,-38.57421875,-60.05859375,0.48828125,0.0
27.2109375,-27.83203125,-25.390625,-24.90234375,-50.78125,-23.4375,0.0
27.21484375,-43.45703125,-26.3671875,-28.3203125,-44.43359375,-16.6015625,0.0
27.21875,-49.8046875,-31.25,-34.1796875,-46.38671875,12.20703125,0.0
27.22265625,-41.50390625,-28.3203125,-26.3671875,-39.55078125,-43.45703125,0.0
27.2265625,-32.2265625,-27.83203125,-12.6953125,-36.62109375,-60.05859375,0.0
27.23046875,-24.4140625,-34.66796875,-28.80859375,-37.109375,-21.484375,0.0
27.234375,-38.57421875,-34.66796875,-44.921875,-29.296875,20.5078125,0.0
27.23828125,-50.78125,-29.296875,-34.66796875,-35.15625,-78.61328125,0.0
27.2421875,-50.29296875,-32.2265625,-26.3671875,-41.50390625,-60.546875,0.0
27.24609375,-43.9453125,-30.2734375,-26.85546875,-40.52734375,92.7734375,0.0
27.25,-36.1328125,-28.3203125,-25.390625,-39.55078125,37.59765625,0.0
27.25390625,-43.45703125,-32.2265625,-21.97265625,-37.59765625,-73.73046875,0.0
27.2578125,-45.8984375,-32.2265625,-20.5078125,-25.87890625,-91.30859375,0.0
27.26171875,-40.52734375,-35.15625,-23.4375,-29.296875,-97.65625,0.0
27.265625,-32.71484375,-36.62109375,-34.1796875,-51.26953125,-46.38671875,0.0
27.26953125,-26.85546875,-33.69140625,-21.484375,-41.015625,-48.828125,0.0
27.2734375,-34.66796875,-29.296875,-5.37109375,-20.5078125,-3.41796875,0.0
27.27734375,-44.43359375,-34.1796875,-28.80859375,-22.4609375,-5.37109375,0.0
27.28125,-38.0859375,-35.64453125,-41.9921875,-25.390625,-132.8125,0.0
27.28515625,-28.3203125,-32.71484375,-40.0390625,-35.15625,-90.33203125,0.0
27.2890625,-22.94921875,-32.2265625,-35.64453125,-43.9453125,2.44140625,0.0
