timestam,TP9,AF7,AF8,TP10,AUX,Marker
7.00390625,-42.96875,-44.921875,-35.64453125,-26.85546875,8.30078125,0.0
7.0078125,-27.83203125,-31.73828125,-33.203125,-27.83203125,80.078125,0.0
7.01171875,-20.01953125,-28.80859375,-31.25,-35.15625,-57.12890625,0.0
7.015625,-26.85546875,-34.1796875,-32.71484375,-35.64453125,-60.05859375,0.0
7.01953125,-33.69140625,-36.62109375,-32.2265625,-27.34375,5.37109375,0.0
7.0234375,-38.57421875,-39.55078125,-35.64453125,-33.203125,-81.0546875,0.0
7.02734375,-35.15625,-37.109375,-38.57421875,-41.015625,-146.484375,0.0
7.03125,-30.76171875,-33.69140625,-37.59765625,-43.9453125,-81.54296875,0.0
7.03515625,-34.1796875,-33.69140625,-35.64453125,-41.015625,-56.15234375,0.0
7.0390625,-41.9921875,-36.62109375,-31.25,-33.203125,-29.78515625,0.0
7.04296875,-45.8984375,-41.50390625,-34.1796875,-36.1328125,-9.27734375,0.0
7.046875,-48.828125,-44.43359375,-34.66796875,-45.8984375,-113.28125,0.0
7.05078125,-29.78515625,-41.50390625,-22.4609375,-31.25,-163.0859375,0.0
7.0546875,-21.97265625,-31.25,-14.6484375,-25.390625,-96.19140625,0.0
7.05859375,-48.33984375,-25.390625,-16.6015625,-42.48046875,-68.359375,0.0
7.0625,-53.7109375,-35.64453125,-28.3203125,-44.43359375,-92.7734375,0.0
7.06640625,-38.57421875,-36.1328125,-34.1796875,-40.52734375,-56.15234375,0.0
7.0703125,-41.9921875,-29.296875,-29.78515625,-50.29296875,-78.61328125,0.0
7.07421875,-44.43359375,-32.2265625,-28.80859375,-49.8046875,-152.34375,0.0
7.078125,-50.29296875,-36.62109375,-34.1796875,-42.96875,-135.25390625,0.0
7.08203125,-51.7578125,-35.64453125,-38.0859375,-40.52734375,-130.859375,0.0
7.0859375,-39.0625,-35.15625,-35.15625,-44.43359375,-63.4765625,0.0
7.08984375,-32.71484375,-29.78515625,-33.203125,-44.921875,-13.671875,0.0
7.09375,-32.71484375,-29.296875,-34.1796875,-41.015625,61.5234375,0.0
7.09765625,-39.0625,-35.15625,-35.64453125,-43.9453125,58.10546875,0.0
7.1015625,-46.875,-39.55078125,-39.55078125,-45.41015625,-31.73828125,0.0
7.10546875,-41.9921875,-34.66796875,-41.50390625,-47.36328125,-56.640625,0.0
7.109375,-29.296875,-34.1796875,-39.55078125,-50.29296875,-67.3828125,0.0
7.11328125,-27.34375,-34.1796875,-32.71484375,-43.9453125,-13.671875,0.0
7.1171875,-39.0625,-33.69140625,-29.296875,-33.203125,-33.203125,0.0
7.12109375,-49.8046875,-38.57421875,-34.1796875,-33.203125,-87.40234375,0.0
7.125,-47.8515625,-41.50390625,-41.015625,-41.015625,-25.390625,0.0
7.12890625,-38.57421875,-36.62109375,-41.015625,-39.0625,-59.5703125,0.0
7.1328125,-32.71484375,-32.2265625,-35.64453125,-34.66796875,-133.7890625,0.0
7.13671875,-34.66796875,-32.71484375,-32.2265625,-31.25,-54.19921875,0.0
7.140625,-37.59765625,-33.203125,-35.15625,-28.3203125,-52.734375,0.0
7.14453125,-27.34375,-28.80859375,-29.296875,-28.3203125,-150.87890625,0.0
7.1484375,-13.671875,-22.94921875,-27.34375,-30.76171875,-219.23828125,0.0
7.15234375,-9.765625,-24.4140625,-27.83203125,-27.83203125,-196.77734375,0.0
7.15625,-22.94921875,-33.203125,-29.296875,-28.3203125,-77.1484375,0.0
7.16015625,-32.71484375,-35.15625,-31.73828125,-28.3203125,-126.953125,0.0
7.1640625,-31.25,-32.71484375,-30.76171875,-32.71484375,-168.45703125,0.0
7.16796875,-23.92578125,-36.62109375,-28.80859375,-39.55078125,-160.64453125,0.0
7.171875,-20.5078125,-39.0625,-28.3203125,-40.0390625,-141.6015625,0.0
7.17578125,-27.83203125,-40.52734375,-30.76171875,-35.64453125,-80.56640625,0.0
7.1796875,-36.62109375,-40.52734375,-23.92578125,-31.73828125,-104.4921875,0.0
7.18359375,-38.57421875,-35.64453125,-23.92578125,-34.66796875,-122.55859375,0.0
7.1875,-30.76171875,-32.2265625,-29.78515625,-37.109375,-116.69921875,0.0
7.19140625,-27.83203125,-28.3203125,-26.3671875,-35.64453125,-78.61328125,0.0
7.1953125,-39.0625,-33.69140625,-26.3671875,-45.8984375,-123.53515625,0.0
7.19921875,-56.15234375,-40.0390625,-35.15625,-50.78125,-129.8828125,0.0
7.203125,-62.5,-43.9453125,-42.96875,-54.19921875,-23.4375,0.0
7.20703125,-45.41015625,-43.45703125,-38.0859375,-61.5234375,7.32421875,0.0
7.2109375,-27.83203125,-35.64453125,-31.73828125,-52.734375,-24.4140625,0.0
7.21484375,-29.78515625,-31.25,-31.73828125,-42.96875,-0.48828125,0.0
7.21875,-41.9921875,-33.69140625,-38.0859375,-47.36328125,46.875,0.0
7.22265625,-46.38671875,-33.203125,-41.015625,-46.38671875,80.56640625,0.0
7.2265625,-41.015625,-31.25,-38.0859375,-44.43359375,55.17578125,0.0
7.23046875,-32.71484375,-25.390625,-36.62109375,-45.41015625,24.4140625,0.0
7.234375,-32.2265625,-23.4375,-33.69140625,-44.43359375,41.50390625,0.0
7.23828125,-47.36328125,-33.69140625,-37.109375,-42.48046875,66.40625,0.0
7.2421875,-50.78125,-36.1328125,-37.109375,-39.55078125,5.37109375,0.0
7.24609375,-46.38671875,-36.1328125,-39.55078125,-47.36328125,-67.87109375,0.0
7.25,-43.45703125,-44.43359375,-38.0859375,-50.78125,5.859375,0.0
7.25390625,-41.9921875,-42.48046875,-26.85546875,-42.96875,67.3828125,0.0
7.2578125,-47.8515625,-38.57421875,-31.25,-39.0625,83.984375,0.0
7.26171875,-55.6640625,-45.41015625,-34.66796875,-37.109375,77.1484375,0.0
7.265625,-52.24609375,-46.38671875,-36.1328125,-37.59765625,21.484375,0.0
7.26953125,-42.96875,-43.45703125,-35.64453125,-40.0390625,-33.203125,0.0
7.2734375,-41.9921875,-40.52734375,-33.69140625,-39.0625,-44.43359375,0.0
7.27734375,-49.31640625,-37.109375,-30.2734375,-33.203125,-62.5,0.0
7.28125,-56.640625,-48.828125,-30.76171875,-27.34375,-69.82421875,0.0
7.28515625,-50.29296875,-50.78125,-38.57421875,-30.2734375,6.34765625,0.0
7.2890625,-34.1796875,-36.1328125,-36.1328125,-30.76171875,44.43359375,0.0
7.29296875,-28.80859375,-32.71484375,-29.78515625,-28.80859375,54.19921875,0.0
7.296875,-37.59765625,-41.015625,-27.34375,-23.4375,43.9453125,0.0
7.30078125,-46.38671875,-44.921875,-28.3203125,-24.90234375,19.04296875,0.0
7.3046875,-39.0625,-44.43359375,-26.3671875,-26.85546875,-51.7578125,0.0
7.30859375,-27.83203125,-42.48046875,-23.4375,-25.87890625,-113.28125,0.0
7.3125,-25.390625,-31.25,-21.484375,-25.87890625,-92.28515625,0.0
7.31640625,-33.69140625,-34.1796875,-24.4140625,-29.296875,-61.03515625,0.0
7.3203125,-49.8046875,-49.31640625,-29.296875,-30.76171875,-24.4140625,0.0
7.32421875,-50.29296875,-48.828125,-29.78515625,-32.2265625,-15.625,0.0
7.328125,-32.71484375,-45.8984375,-28.80859375,-36.1328125,11.71875,0.0
7.33203125,-23.4375,-37.59765625,-28.80859375,-34.66796875,49.31640625,0.0
7.3359375,-26.85546875,-29.296875,-28.3203125,-27.34375,72.75390625,0.0
7.33984375,-35.64453125,-31.73828125,-30.2734375,-29.78515625,43.45703125,0.0
7.34375,-33.69140625,-42.96875,-27.34375,-31.73828125,-36.1328125,0.0
7.34765625,-24.4140625,-43.9453125,-33.203125,-34.66796875,-4.8828125,0.0
7.3515625,-17.08984375,-35.64453125,-36.1328125,-30.76171875,28.80859375,0.0
7.35546875,-19.53125,-37.109375,-30.2734375,-22.94921875,-75.1953125,0.0
7.359375,-29.296875,-41.015625,-27.34375,-22.4609375,-97.16796875,0.0
7.36328125,-25.87890625,-35.15625,-25.390625,-20.5078125,-37.59765625,0.0
7.3671875,-20.5078125,-35.64453125,-27.34375,-30.76171875,-30.76171875,0.0
7.37109375,-19.53125,-34.1796875,-27.83203125,-32.2265625,20.99609375,0.0
7.375,-25.390625,-28.80859375,-27.34375,-29.296875,-23.92578125,0.0
7.37890625,-33.69140625,-31.73828125,-25.87890625,-29.296875,-95.21484375,0.0
7.3828125,-37.109375,-31.73828125,-28.80859375,-33.203125,-83.984375,0.0
7.38671875,-30.2734375,-28.3203125,-25.87890625,-30.2734375,-39.55078125,0.0
7.390625,-18.06640625,-22.4609375,-29.296875,-27.83203125,7.8125,0.0
7.39453125,-18.5546875,-24.90234375,-32.2265625,-33.69140625,47.36328125,0.0
7.3984375,-28.80859375,-35.64453125,-28.80859375,-38.57421875,-17.08984375,0.0
7.40234375,-35.64453125,-37.109375,-30.76171875,-41.015625,-86.9140625,0.0
7.40625,-31.25,-35.15625,-32.2265625,-40.0390625,-35.15625,0.0
7.41015625,-25.87890625,-32.71484375,-35.15625,-41.015625,-17.578125,0.0
7.4140625,-34.1796875,-34.1796875,-43.45703125,-45.8984375,-88.37890625,0.0
7.41796875,-47.36328125,-41.9921875,-39.0625,-45.41015625,-119.62890625,0.0
7.421875,-50.29296875,-41.50390625,-31.73828125,-42.48046875,-151.3671875,0.0
7.42578125,-45.41015625,-30.2734375,-30.2734375,-42.96875,-134.27734375,0.0
7.4296875,-39.55078125,-28.80859375,-27.83203125,-42.48046875,-23.92578125,0.0
7.43359375,-34.66796875,-31.73828125,-21.97265625,-32.71484375,47.36328125,0.0
7.4375,-43.45703125,-38.57421875,-28.80859375,-33.69140625,-39.55078125,0.0
7.44140625,-53.22265625,-42.96875,-42.48046875,-41.9921875,-77.1484375,0.0
7.4453125,-47.36328125,-40.0390625,-48.828125,-43.45703125,-84.47265625,0.0
7.44921875,-38.57421875,-39.0625,-43.45703125,-47.8515625,-111.328125,0.0
7.453125,-35.15625,-36.1328125,-38.57421875,-49.31640625,-98.6328125,0.0
7.45703125,-42.48046875,-36.1328125,-36.1328125,-44.921875,-138.671875,0.0
7.4609375,-47.36328125,-38.0859375,-32.2265625,-37.109375,-109.86328125,0.0
7.46484375,-44.43359375,-41.015625,-36.1328125,-36.62109375,-102.05078125,0.0
7.46875,-30.76171875,-38.0859375,-33.203125,-38.0859375,-99.12109375,0.0
7.47265625,-25.390625,-32.2265625,-31.73828125,-37.59765625,-4.39453125,0.0
7.4765625,-34.66796875,-31.25,-36.62109375,-34.1796875,-14.6484375,0.0
7.48046875,-40.0390625,-37.59765625,-36.1328125,-32.71484375,-99.12109375,0.0
7.484375,-41.50390625,-44.921875,-35.64453125,-34.66796875,-138.671875,0.0
7.48828125,-34.1796875,-40.52734375,-31.25,-36.1328125,-143.5546875,0.0
7.4921875,-21.97265625,-34.1796875,-25.390625,-36.62109375,-101.5625,0.0
7.49609375,-25.87890625,-33.69140625,-33.203125,-30.76171875,-45.41015625,0.0
7.5,-36.62109375,-36.1328125,-39.0625,-30.76171875,-107.421875,0.0
7.50390625,-39.0625,-36.62109375,-35.15625,-35.64453125,-174.31640625,0.0
7.5078125,-31.25,-30.2734375,-30.76171875,-35.15625,-62.5,0.0
7.51171875,-27.83203125,-30.76171875,-31.73828125,-37.59765625,21.97265625,0.0
7.515625,-29.296875,-28.3203125,-34.66796875,-31.25,43.45703125,0.0
7.51953125,-42.96875,-29.296875,-37.59765625,-33.203125,33.69140625,0.0
7.5234375,-52.734375,-32.71484375,-38.57421875,-40.0390625,36.62109375,0.0
7.52734375,-43.9453125,-32.71484375,-39.55078125,-39.55078125,52.24609375,0.0
7.53125,-31.73828125,-31.73828125,-32.2265625,-38.57421875,0.48828125,0.0
7.53515625,-41.50390625,-31.25,-29.78515625,-37.109375,30.2734375,0.0
7.5390625,-60.546875,-37.109375,-40.52734375,-42.48046875,21.97265625,0.0
7.54296875,-57.12890625,-35.64453125,-37.109375,-38.0859375,-42.48046875,0.0
7.546875,-46.875,-35.64453125,-39.0625,-37.109375,-90.33203125,0.0
7.55078125,-38.0859375,-35.64453125,-38.0859375,-40.52734375,-114.74609375,0.0
7.5546875,-36.1328125,-35.15625,-33.69140625,-39.0625,-73.2421875,0.0
7.55859375,-41.9921875,-39.55078125,-35.64453125,-35.64453125,-11.23046875,0.0
7.5625,-44.921875,-42.96875,-41.015625,-39.0625,2.9296875,0.0
7.56640625,-39.0625,-41.50390625,-46.875,-47.8515625,43.9453125,0.0
7.5703125,-28.3203125,-33.203125,-38.0859375,-44.43359375,41.015625,0.0
7.57421875,-30.76171875,-30.2734375,-38.0859375,-42.48046875,-4.8828125,0.0
7.578125,-45.41015625,-41.015625,-40.0390625,-42.96875,-25.390625,0.0
7.58203125,-45.8984375,-46.38671875,-35.15625,-38.0859375,-150.390625,0.0
7.5859375,-36.1328125,-39.55078125,-42.48046875,-35.15625,-144.53125,0.0
7.58984375,-28.80859375,-32.2265625,-38.0859375,-30.76171875,-89.84375,0.0
7.59375,-36.1328125,-30.76171875,-32.71484375,-29.296875,-92.7734375,0.0
7.59765625,-49.31640625,-38.57421875,-36.62109375,-24.90234375,-46.38671875,0.0
7.6015625,-54.19921875,-42.96875,-34.66796875,-17.08984375,-90.33203125,0.0
7.60546875,-50.29296875,-47.36328125,-37.59765625,-22.4609375,-140.13671875,0.0
7.609375,-38.0859375,-38.57421875,-33.203125,-23.92578125,-40.52734375,0.0
7.61328125,-27.83203125,-33.69140625,-24.90234375,-16.6015625,-58.10546875,0.0
7.6171875,-41.015625,-49.8046875,-29.296875,-23.92578125,-145.01953125,0.0
7.62109375,-56.15234375,-52.734375,-37.109375,-36.62109375,-138.18359375,0.0
7.625,-49.8046875,-53.22265625,-33.69140625,-33.69140625,-69.3359375,0.0
7.62890625,-41.015625,-54.6875,-24.90234375,-34.66796875,-45.8984375,0.0
7.6328125,-32.2265625,-42.48046875,-26.3671875,-33.69140625,-121.09375,0.0
7.63671875,-37.109375,-41.50390625,-32.71484375,-29.296875,-43.45703125,0.0
7.640625,-47.36328125,-48.33984375,-35.15625,-30.76171875,78.125,0.0
7.64453125,-44.921875,-47.8515625,-42.48046875,-35.64453125,40.52734375,0.0
7.6484375,-39.0625,-46.875,-38.0859375,-36.1328125,-52.24609375,0.0
7.65234375,-32.2265625,-40.52734375,-26.85546875,-28.80859375,-11.23046875,0.0
7.65625,-39.0625,-37.109375,-33.203125,-30.2734375,105.95703125,0.0
7.66015625,-55.6640625,-47.36328125,-41.50390625,-38.57421875,50.29296875,0.0
7.6640625,-54.6875,-49.8046875,-39.55078125,-40.0390625,-4.39453125,0.0
7.66796875,-40.52734375,-41.50390625,-34.1796875,-44.921875,54.6875,0.0
7.671875,-37.109375,-44.43359375,-25.87890625,-41.9921875,86.9140625,0.0
7.67578125,-43.9453125,-53.7109375,-27.34375,-29.296875,50.29296875,0.0
7.6796875,-53.7109375,-54.19921875,-33.203125,-29.78515625,-20.5078125,0.0
7.68359375,-53.7109375,-53.7109375,-35.64453125,-36.1328125,10.25390625,0.0
7.6875,-44.43359375,-48.33984375,-40.0390625,-37.59765625,78.125,0.0
7.69140625,-39.0625,-41.9921875,-40.52734375,-33.69140625,30.76171875,0.0
7.6953125,-38.57421875,-37.59765625,-36.62109375,-30.76171875,32.71484375,0.0
7.69921875,-44.921875,-41.015625,-37.59765625,-34.1796875,31.73828125,0.0
7.703125,-46.875,-43.45703125,-39.0625,-37.109375,31.73828125,0.0
7.70703125,-42.96875,-36.62109375,-34.1796875,-33.203125,48.33984375,0.0
7.7109375,-29.78515625,-35.64453125,-30.2734375,-35.15625,41.015625,0.0
7.71484375,-32.2265625,-41.9921875,-30.2734375,-38.0859375,26.85546875,0.0
7.71875,-48.33984375,-47.36328125,-24.90234375,-38.0859375,20.99609375,0.0
7.72265625,-51.7578125,-46.38671875,-32.71484375,-40.52734375,14.6484375,0.0
7.7265625,-46.38671875,-41.015625,-38.57421875,-43.45703125,1.953125,0.0
7.73046875,-39.55078125,-40.0390625,-35.15625,-45.8984375,-15.625,0.0
7.734375,-38.57421875,-44.43359375,-37.109375,-42.48046875,-28.3203125,0.0
7.73828125,-43.9453125,-44.921875,-39.0625,-39.0625,-88.37890625,0.0
7.7421875,-50.78125,-45.8984375,-35.64453125,-41.50390625,-152.83203125,0.0
7.74609375,-46.875,-43.9453125,-40.52734375,-42.48046875,-128.90625,0.0
7.75,-33.203125,-39.55078125,-39.0625,-41.9921875,-80.078125,0.0
7.75390625,-30.76171875,-42.96875,-35.15625,-36.1328125,-65.4296875,0.0
7.7578125,-40.52734375,-40.52734375,-33.69140625,-32.71484375,-47.36328125,0.0
7.76171875,-46.875,-41.9921875,-30.76171875,-31.73828125,-41.50390625,0.0
7.765625,-40.0390625,-41.9921875,-43.9453125,-29.78515625,-12.20703125,0.0
7.76953125,-30.2734375,-34.1796875,-41.50390625,-38.0859375,-30.2734375,0.0
7.7734375,-30.2734375,-36.1328125,-34.66796875,-38.0859375,-83.0078125,0.0
7.77734375,-42.48046875,-44.43359375,-37.59765625,-33.69140625,-9.27734375,0.0
7.78125,-49.8046875,-47.8515625,-39.0625,-34.66796875,-9.27734375,0.0
7.78515625,-39.55078125,-42.96875,-36.1328125,-36.62109375,-69.3359375,0.0
7.7890625,-26.85546875,-40.52734375,-41.015625,-42.96875,-39.55078125,0.0
7.79296875,-27.34375,-40.52734375,-41.9921875,-39.55078125,-35.15625,0.0
7.796875,-38.0859375,-41.50390625,-32.2265625,-31.73828125,-20.5078125,0.0
7.80078125,-53.22265625,-43.45703125,-33.69140625,-27.83203125,-75.1953125,0.0
7.8046875,-48.33984375,-44.43359375,-38.57421875,-34.1796875,-92.28515625,0.0
7.80859375,-28.80859375,-41.015625,-26.85546875,-35.15625,9.27734375,0.0
7.8125,-25.87890625,-40.0390625,-32.2265625,-29.296875,34.1796875,0.0
7.81640625,-35.64453125,-44.43359375,-39.0625,-34.66796875,-109.375,0.0
7.8203125,-48.33984375,-47.36328125,-37.59765625,-42.48046875,-70.3125,0.0
7.82421875,-46.875,-44.43359375,-41.015625,-44.43359375,19.53125,0.0
7.828125,-35.64453125,-41.9921875,-41.015625,-42.48046875,-40.52734375,0.0
7.83203125,-28.80859375,-32.2265625,-41.9921875,-37.109375,-49.8046875,0.0
7.8359375,-35.15625,-35.15625,-35.64453125,-37.59765625,-41.015625,0.0
7.83984375,-46.875,-41.9921875,-30.76171875,-39.0625,-44.921875,0.0
7.84375,-44.921875,-42.96875,-29.296875,-33.69140625,-107.421875,0.0
7.84765625,-33.203125,-35.15625,-25.390625,-35.15625,-152.83203125,0.0
7.8515625,-26.85546875,-23.4375,-26.3671875,-36.1328125,-119.62890625,0.0
7.85546875,-30.76171875,-24.4140625,-26.3671875,-28.80859375,-68.359375,0.0
7.859375,-45.8984375,-36.62109375,-28.3203125,-29.296875,-23.4375,0.0
7.86328125,-49.8046875,-46.38671875,-27.34375,-32.2265625,-31.73828125,0.0
7.8671875,-41.015625,-42.96875,-19.04296875,-34.1796875,43.9453125,0.0
7.87109375,-34.1796875,-37.109375,-23.92578125,-37.59765625,120.1171875,0.0
7.875,-31.25,-37.59765625,-25.87890625,-30.2734375,80.56640625,0.0
7.87890625,-40.52734375,-41.9921875,-24.4140625,-24.90234375,-12.20703125,0.0
7.8828125,-44.43359375,-45.8984375,-25.87890625,-30.2734375,-52.734375,0.0
7.88671875,-35.64453125,-43.45703125,-34.1796875,-35.64453125,-60.546875,0.0
7.890625,-27.34375,-34.66796875,-39.55078125,-34.66796875,-15.625,0.0
7.89453125,-27.83203125,-31.25,-32.2265625,-29.296875,-61.03515625,0.0
7.8984375,-38.57421875,-38.0859375,-27.83203125,-31.25,-86.9140625,0.0
7.90234375,-42.96875,-41.9921875,-34.66796875,-38.57421875,-53.7109375,0.0
7.90625,-38.0859375,-48.828125,-42.96875,-42.96875,-8.30078125,0.0
7.91015625,-36.1328125,-47.8515625,-36.1328125,-47.36328125,-20.01953125,0.0
7.9140625,-31.73828125,-41.50390625,-31.25,-40.0390625,-65.91796875,0.0
7.91796875,-37.109375,-44.43359375,-38.0859375,-35.15625,-15.13671875,0.0
7.921875,-48.828125,-51.26953125,-41.015625,-42.96875,27.83203125,0.0
7.92578125,-44.43359375,-47.36328125,-37.59765625,-42.48046875,-14.16015625,0.0
7.9296875,-22.4609375,-35.15625,-32.2265625,-35.15625,-15.625,0.0
7.93359375,-15.625,-32.2265625,-33.203125,-38.0859375,49.8046875,0.0
7.9375,-29.296875,-37.109375,-36.1328125,-34.1796875,37.59765625,0.0
7.94140625,-41.50390625,-38.0859375,-32.71484375,-25.87890625,-26.3671875,0.0
7.9453125,-37.109375,-32.2265625,-34.1796875,-29.78515625,-96.19140625,0.0
7.94921875,-25.390625,-24.90234375,-38.0859375,-29.296875,-106.4453125,0.0
7.953125,-22.94921875,-29.78515625,-33.203125,-25.87890625,-63.96484375,0.0
7.95703125,-30.76171875,-40.0390625,-28.3203125,-30.76171875,-5.859375,0.0
7.9609375,-36.62109375,-41.015625,-33.203125,-37.109375,29.296875,0.0
7.96484375,-30.76171875,-37.59765625,-33.203125,-33.69140625,-19.53125,0.0
7.96875,-16.6015625,-32.2265625,-29.78515625,-24.90234375,-55.17578125,0.0
7.97265625,-12.20703125,-25.390625,-29.296875,-23.4375,-42.48046875,0.0
7.9765625,-20.01953125,-25.87890625,-33.69140625,-27.83203125,0.9765625,0.0
7.98046875,-29.78515625,-36.1328125,-37.109375,-28.80859375,-21.484375,0.0
7.984375,-30.2734375,-40.52734375,-35.64453125,-28.3203125,-105.46875,0.0
7.98828125,-19.53125,-37.109375,-42.48046875,-33.69140625,-160.64453125,0.0
7.9921875,-15.625,-37.109375,-40.0390625,-34.1796875,-246.09375,0.0
7.99609375,-22.4609375,-35.15625,-35.64453125,-29.296875,-227.05078125,0.0
8.0,-28.80859375,-34.66796875,-26.3671875,-23.4375,-115.234375,0.0
8.00390625,-28.3203125,-43.45703125,-20.5078125,-21.484375,-150.87890625,0.0
8.0078125,-16.6015625,-38.57421875,-25.390625,-22.4609375,-123.53515625,0.0
8.01171875,-14.16015625,-27.34375,-27.83203125,-25.87890625,-5.859375,0.0
8.015625,-24.90234375,-29.296875,-30.2734375,-27.34375,11.23046875,0.0
8.01953125,-40.0390625,-33.69140625,-29.296875,-31.25,23.4375,0.0
8.0234375,-38.57421875,-28.80859375,-28.3203125,-24.90234375,8.30078125,0.0
8.02734375,-29.296875,-30.76171875,-28.3203125,-28.80859375,-16.11328125,0.0
8.03125,-22.4609375,-36.1328125,-31.73828125,-41.015625,26.3671875,0.0
8.03515625,-17.08984375,-34.1796875,-32.71484375,-29.78515625,-76.171875,0.0
8.0390625,-33.203125,-31.73828125,-30.2734375,-23.4375,-133.30078125,0.0
8.04296875,-47.36328125,-33.203125,-32.2265625,-28.80859375,-108.3984375,0.0
8.046875,-40.52734375,-37.109375,-27.83203125,-30.2734375,-95.703125,0.0
8.05078125,-31.73828125,-34.1796875,-24.90234375,-29.296875,-43.9453125,0.0
8.0546875,-33.69140625,-36.1328125,-23.92578125,-30.2734375,-101.07421875,0.0
8.05859375,-39.0625,-41.9921875,-23.4375,-27.83203125,-113.76953125,0.0
8.0625,-48.828125,-47.8515625,-27.83203125,-29.78515625,-103.515625,0.0
8.06640625,-40.52734375,-41.015625,-31.25,-32.2265625,-175.29296875,0.0
8.0703125,-25.87890625,-35.15625,-24.90234375,-32.71484375,-227.5390625,0.0
8.07421875,-30.2734375,-36.1328125,-24.4140625,-33.69140625,-156.25,0.0
8.078125,-40.0390625,-33.203125,-29.78515625,-30.2734375,-71.77734375,0.0
8.08203125,-41.9921875,-32.2265625,-27.34375,-29.78515625,-173.33984375,0.0
8.0859375,-34.66796875,-31.25,-28.3203125,-37.109375,-201.66015625,0.0
8.08984375,-32.2265625,-32.71484375,-34.1796875,-41.50390625,-152.34375,0.0
8.09375,-36.62109375,-43.9453125,-33.203125,-38.0859375,-158.203125,0.0
8.09765625,-39.55078125,-45.41015625,-29.78515625,-36.62109375,-51.7578125,0.0
8.1015625,-43.45703125,-38.0859375,-30.76171875,-41.50390625,33.69140625,0.0
8.10546875,-43.45703125,-35.15625,-31.25,-41.50390625,82.03125,0.0
8.109375,-37.109375,-34.66796875,-32.71484375,-38.0859375,68.84765625,0.0
8.11328125,-30.2734375,-35.15625,-32.2265625,-35.64453125,39.55078125,0.0
8.1171875,-38.0859375,-37.109375,-34.66796875,-32.71484375,64.94140625,0.0
8.12109375,-51.26953125,-45.41015625,-36.62109375,-37.109375,87.890625,0.0
8.125,-50.29296875,-48.33984375,-35.64453125,-41.50390625,62.01171875,0.0
8.12890625,-41.015625,-38.0859375,-31.25,-40.52734375,44.43359375,0.0
8.1328125,-42.48046875,-29.296875,-23.92578125,-39.55078125,35.64453125,0.0
8.13671875,-51.26953125,-40.52734375,-25.87890625,-41.50390625,-13.18359375,0.0
8.140625,-56.640625,-55.6640625,-29.296875,-41.50390625,-26.85546875,0.0
8.14453125,-52.734375,-53.22265625,-31.25,-35.64453125,-83.0078125,0.0
8.1484375,-40.52734375,-44.921875,-31.25,-34.1796875,-61.03515625,0.0
8.15234375,-26.3671875,-37.59765625,-36.62109375,-35.15625,13.18359375,0.0
8.15625,-31.25,-34.66796875,-36.62109375,-37.59765625,76.66015625,0.0
8.16015625,-47.36328125,-39.0625,-28.80859375,-34.1796875,144.53125,0.0
8.1640625,-42.48046875,-37.59765625,-27.83203125,-34.66796875,80.078125,0.0
8.16796875,-31.25,-36.62109375,-31.25,-41.015625,-25.390625,0.0
8.171875,-26.3671875,-38.0859375,-32.2265625,-33.69140625,-150.390625,0.0
8.17578125,-25.87890625,-36.1328125,-32.2265625,-28.80859375,-226.5625,0.0
8.1796875,-40.52734375,-40.52734375,-36.1328125,-36.1328125,-260.25390625,0.0
8.18359375,-45.8984375,-43.45703125,-32.2265625,-31.73828125,-273.4375,0.0
8.1875,-28.3203125,-34.1796875,-30.2734375,-27.34375,-125.0,0.0
8.19140625,-17.578125,-30.76171875,-33.69140625,-27.83203125,-94.7265625,0.0
8.1953125,-20.01953125,-39.0625,-36.1328125,-27.83203125,-169.43359375,0.0
8.19921875,-25.390625,-40.0390625,-33.69140625,-24.90234375,-157.2265625,0.0
8.203125,-28.80859375,-37.109375,-30.76171875,-19.53125,-64.453125,0.0
8.20703125,-25.87890625,-32.2265625,-30.76171875,-24.90234375,5.859375,0.0
8.2109375,-13.671875,-25.390625,-28.80859375,-26.3671875,100.5859375,0.0
8.21484375,-17.08984375,-30.2734375,-30.2734375,-21.484375,104.00390625,0.0
8.21875,-28.80859375,-38.57421875,-32.71484375,-18.5546875,-4.39453125,0.0
8.22265625,-29.78515625,-33.203125,-30.76171875,-26.3671875,-91.30859375,0.0
8.2265625,-12.6953125,-25.87890625,-20.01953125,-26.3671875,-89.35546875,0.0
8.23046875,-0.48828125,-21.484375,-22.94921875,-20.5078125,-6.34765625,0.0
8.234375,-7.8125,-24.4140625,-29.296875,-19.53125,-25.87890625,0.0
8.23828125,-16.11328125,-30.2734375,-24.4140625,-17.08984375,-29.296875,0.0
8.2421875,-24.4140625,-38.57421875,-23.4375,-19.04296875,-81.0546875,0.0
8.24609375,-18.06640625,-37.59765625,-26.85546875,-21.97265625,-43.45703125,0.0
8.25,-11.23046875,-27.34375,-27.83203125,-26.3671875,7.32421875,0.0
8.25390625,-12.6953125,-25.390625,-27.34375,-20.5078125,-77.1484375,0.0
8.2578125,-22.4609375,-30.76171875,-25.87890625,-13.671875,-99.609375,0.0
8.26171875,-33.69140625,-34.66796875,-31.25,-22.4609375,-84.9609375,0.0
8.265625,-30.2734375,-33.203125,-31.25,-28.3203125,-65.91796875,0.0
8.26953125,-17.08984375,-24.90234375,-20.01953125,-23.92578125,-74.21875,0.0
8.2734375,-20.01953125,-24.90234375,-18.5546875,-21.484375,-91.796875,0.0
8.27734375,-34.1796875,-28.80859375,-20.99609375,-20.01953125,-59.08203125,0.0
8.28125,-42.96875,-39.0625,-31.25,-27.83203125,-108.88671875,0.0
8.28515625,-41.9921875,-47.36328125,-30.2734375,-39.55078125,-161.1328125,0.0
8.2890625,-33.203125,-40.0390625,-22.4609375,-39.55078125,-132.32421875,0.0
8.29296875,-29.296875,-28.80859375,-26.85546875,-34.66796875,-94.23828125,0.0
8.296875,-38.0859375,-30.76171875,-30.2734375,-32.71484375,-121.09375,0.0
8.30078125,-46.38671875,-35.64453125,-29.296875,-35.15625,-142.578125,0.0
8.3046875,-43.45703125,-35.64453125,-31.25,-41.9921875,-155.76171875,0.0
8.30859375,-27.34375,-30.76171875,-33.203125,-47.36328125,-143.06640625,0.0
8.3125,-17.578125,-26.3671875,-30.76171875,-40.0390625,-141.6015625,0.0
8.31640625,-27.34375,-27.83203125,-27.34375,-36.62109375,-96.19140625,0.0
8.3203125,-43.45703125,-27.34375,-25.390625,-35.64453125,-43.45703125,0.0
8.32421875,-49.31640625,-30.76171875,-28.80859375,-39.55078125,-92.7734375,0.0
8.328125,-38.0859375,-33.203125,-30.2734375,-45.41015625,-153.3203125,0.0
8.33203125,-25.87890625,-27.34375,-19.53125,-39.55078125,-153.80859375,0.0
8.3359375,-37.59765625,-26.3671875,-20.01953125,-41.015625,-101.5625,0.0
8.33984375,-53.22265625,-33.203125,-34.66796875,-47.8515625,-77.1484375,0.0
8.34375,-50.78125,-35.15625,-32.2265625,-41.9921875,11.71875,0.0
8.34765625,-38.0859375,-24.90234375,-24.4140625,-38.0859375,161.1328125,0.0
8.3515625,-29.296875,-18.5546875,-32.2265625,-42.96875,183.59375,0.0
8.35546875,-25.390625,-17.578125,-29.78515625,-37.59765625,187.5,0.0
8.359375,-33.69140625,-14.6484375,-26.3671875,-36.62109375,162.109375,0.0
8.36328125,-45.8984375,-20.99609375,-25.390625,-42.48046875,90.33203125,0.0
8.3671875,-41.015625,-26.85546875,-23.92578125,-43.45703125,-8.30078125,0.0
8.37109375,-35.15625,-22.4609375,-26.85546875,-44.921875,-71.77734375,0.0
8.375,-39.0625,-24.4140625,-25.87890625,-41.9921875,-108.88671875,0.0
8.37890625,-44.43359375,-33.203125,-22.94921875,-33.69140625,-107.91015625,0.0
8.3828125,-41.9921875,-31.73828125,-28.3203125,-29.296875,-59.5703125,0.0
8.38671875,-31.25,-26.3671875,-31.25,-35.64453125,24.90234375,0.0
8.390625,-20.5078125,-27.83203125,-30.76171875,-38.0859375,82.03125,0.0
8.39453125,-23.4375,-26.85546875,-32.2265625,-38.0859375,63.4765625,0.0
8.3984375,-36.62109375,-33.203125,-33.69140625,-37.59765625,57.6171875,0.0
8.40234375,-45.41015625,-40.0390625,-36.1328125,-40.0390625,0.9765625,0.0
8.40625,-41.9921875,-37.109375,-35.64453125,-43.45703125,-93.26171875,0.0
8.41015625,-33.69140625,-25.390625,-35.15625,-45.8984375,-3.90625,0.0
8.4140625,-35.15625,-25.87890625,-34.66796875,-41.50390625,14.16015625,0.0
8.41796875,-45.8984375,-36.1328125,-33.203125,-41.015625,-45.41015625,0.0
8.421875,-53.7109375,-43.9453125,-29.296875,-39.0625,-38.57421875,0.0
8.42578125,-40.0390625,-40.0390625,-25.390625,-31.73828125,-42.48046875,0.0
8.4296875,-25.390625,-33.203125,-26.85546875,-36.62109375,-50.78125,0.0
8.43359375,-22.94921875,-32.71484375,-28.3203125,-40.0390625,10.7421875,0.0
8.4375,-29.78515625,-32.2265625,-26.3671875,-35.15625,111.328125,0.0
8.44140625,-42.96875,-37.59765625,-30.76171875,-35.64453125,116.69921875,0.0
8.4453125,-42.48046875,-37.109375,-33.203125,-40.0390625,59.5703125,0.0
8.44921875,-32.2265625,-35.15625,-38.57421875,-39.0625,75.1953125,0.0
8.453125,-35.64453125,-33.69140625,-42.96875,-41.9921875,83.0078125,0.0
8.45703125,-42.96875,-32.71484375,-36.1328125,-39.0625,-9.765625,0.0
8.4609375,-48.33984375,-35.15625,-33.203125,-38.0859375,-7.32421875,0.0
8.46484375,-49.8046875,-37.59765625,-32.2265625,-45.41015625,-5.859375,0.0
8.46875,-41.50390625,-43.9453125,-29.78515625,-49.31640625,39.0625,0.0
8.47265625,-34.1796875,-34.66796875,-30.76171875,-46.875,150.390625,0.0
8.4765625,-35.15625,-25.87890625,-35.15625,-38.0859375,146.97265625,0.0
8.48046875,-48.33984375,-35.64453125,-41.9921875,-37.109375,85.44921875,0.0
8.484375,-56.15234375,-47.36328125,-42.48046875,-48.828125,8.7890625,0.0
8.48828125,-41.9921875,-40.52734375,-39.55078125,-51.7578125,-20.5078125,0.0
8.4921875,-34.66796875,-34.66796875,-36.1328125,-51.26953125,-15.625,0.0
8.49609375,-45.8984375,-38.0859375,-33.203125,-50.78125,13.671875,0.0
8.5,-59.08203125,-46.875,-33.69140625,-48.33984375,-35.64453125,0.0
8.50390625,-57.6171875,-43.9453125,-38.57421875,-45.41015625,-93.75,0.0
8.5078125,-42.96875,-29.78515625,-35.64453125,-46.38671875,-17.08984375,0.0
8.51171875,-31.25,-31.25,-20.5078125,-40.52734375,28.80859375,0.0
8.515625,-36.62109375,-37.59765625,-24.90234375,-33.203125,67.3828125,0.0
8.51953125,-45.41015625,-39.0625,-35.15625,-34.66796875,137.20703125,0.0
8.5234375,-40.52734375,-38.0859375,-37.109375,-41.9921875,135.7421875,0.0
8.52734375,-31.73828125,-35.64453125,-36.1328125,-48.33984375,23.4375,0.0
8.53125,-24.4140625,-39.0625,-40.52734375,-48.33984375,-47.36328125,0.0
8.53515625,-24.90234375,-37.59765625,-42.48046875,-43.45703125,-56.640625,0.0
8.5390625,-36.1328125,-36.1328125,-38.0859375,-35.64453125,-53.7109375,0.0
8.54296875,-48.828125,-43.45703125,-40.0390625,-35.15625,-112.79296875,0.0
8.546875,-40.0390625,-39.0625,-39.55078125,-37.109375,-61.03515625,0.0
8.55078125,-24.4140625,-29.296875,-41.015625,-37.59765625,18.5546875,0.0
8.5546875,-30.2734375,-32.2265625,-34.1796875,-35.15625,-12.20703125,0.0
8.55859375,-41.50390625,-41.50390625,-26.85546875,-29.78515625,22.4609375,0.0
8.5625,-49.31640625,-43.45703125,-38.0859375,-33.69140625,31.25,0.0
8.56640625,-45.41015625,-39.0625,-36.1328125,-35.64453125,-41.015625,0.0
8.5703125,-31.73828125,-32.71484375,-22.94921875,-27.83203125,-100.5859375,0.0
8.57421875,-28.3203125,-32.71484375,-28.80859375,-31.73828125,-105.95703125,0.0
8.578125,-39.0625,-36.62109375,-32.71484375,-33.69140625,-20.01953125,0.0
8.58203125,-44.43359375,-32.71484375,-32.71484375,-24.4140625,-43.9453125,0.0
8.5859375,-36.62109375,-27.83203125,-35.64453125,-25.87890625,-65.91796875,0.0
8.58984375,-27.34375,-31.25,-35.64453125,-30.2734375,-38.57421875,0.0
8.59375,-22.94921875,-33.203125,-36.1328125,-26.85546875,-125.9765625,0.0
8.59765625,-31.25,-29.78515625,-29.296875,-24.90234375,-147.94921875,0.0
8.6015625,-40.52734375,-30.76171875,-25.390625,-22.4609375,-13.18359375,0.0
8.60546875,-41.50390625,-34.1796875,-33.203125,-29.78515625,-18.06640625,0.0
8.609375,-30.2734375,-24.4140625,-30.2734375,-29.78515625,-16.11328125,0.0
8.61328125,-24.4140625,-24.4140625,-24.90234375,-25.390625,32.2265625,0.0
8.6171875,-31.25,-32.71484375,-21.484375,-27.34375,-6.34765625,0.0
8.62109375,-37.109375,-30.76171875,-27.34375,-22.94921875,-80.56640625,0.0
8.625,-32.2265625,-29.296875,-32.71484375,-18.06640625,-135.25390625,0.0
8.62890625,-22.4609375,-24.90234375,-29.296875,-22.4609375,-62.98828125,0.0
8.6328125,-25.87890625,-28.3203125,-36.62109375,-29.78515625,-60.546875,0.0
8.63671875,-37.59765625,-33.203125,-33.69140625,-22.94921875,-63.4765625,0.0
8.640625,-48.33984375,-33.69140625,-32.71484375,-22.4609375,-25.390625,0.0
8.64453125,-55.17578125,-35.15625,-36.62109375,-31.73828125,-61.03515625,0.0
8.6484375,-41.50390625,-34.1796875,-34.1796875,-29.78515625,-116.2109375,0.0
8.65234375,-24.4140625,-25.87890625,-33.203125,-30.2734375,-188.4765625,0.0
8.65625,-34.1796875,-34.1796875,-33.203125,-30.2734375,-159.1796875,0.0
8.66015625,-47.36328125,-46.875,-32.71484375,-30.76171875,-30.2734375,0.0
8.6640625,-40.0390625,-43.45703125,-37.109375,-38.57421875,-67.3828125,0.0
8.66796875,-31.25,-38.57421875,-43.9453125,-44.43359375,-153.80859375,0.0
8.671875,-31.73828125,-36.1328125,-38.0859375,-41.015625,-160.15625,0.0
8.67578125,-41.50390625,-35.15625,-30.2734375,-37.59765625,-96.6796875,0.0
8.6796875,-52.24609375,-35.64453125,-33.203125,-40.52734375,-28.3203125,0.0
8.68359375,-47.36328125,-38.0859375,-35.64453125,-40.0390625,-59.08203125,0.0
8.6875,-38.57421875,-38.57421875,-34.1796875,-38.57421875,-88.37890625,0.0
8.69140625,-30.76171875,-33.203125,-30.2734375,-34.66796875,-43.9453125,0.0
8.6953125,-23.92578125,-26.3671875,-26.3671875,-26.3671875,53.22265625,0.0
8.69921875,-33.203125,-34.1796875,-35.15625,-32.2265625,56.640625,0.0
8.703125,-40.0390625,-42.96875,-37.109375,-35.64453125,-27.34375,0.0
8.70703125,-30.2734375,-41.9921875,-26.85546875,-28.80859375,-48.828125,0.0
8.7109375,-18.06640625,-36.62109375,-29.78515625,-29.78515625,12.20703125,0.0
8.71484375,-20.99609375,-33.203125,-37.109375,-29.78515625,24.4140625,0.0
8.71875,-35.64453125,-39.55078125,-38.0859375,-31.25,-34.1796875,0.0
8.72265625,-37.59765625,-39.55078125,-35.64453125,-28.80859375,-81.0546875,0.0
8.7265625,-31.73828125,-33.69140625,-34.66796875,-32.2265625,-54.6875,0.0
8.73046875,-23.4375,-35.64453125,-35.15625,-36.1328125,-64.94140625,0.0
8.734375,-26.85546875,-38.57421875,-31.73828125,-36.62109375,-179.19921875,0.0
8.73828125,-38.0859375,-38.0859375,-33.203125,-36.1328125,-233.3984375,0.0
8.7421875,-48.828125,-41.015625,-39.55078125,-36.62109375,-174.31640625,0.0
8.74609375,-42.96875,-44.43359375,-39.55078125,-42.96875,-128.90625,0.0
8.75,-27.34375,-41.015625,-36.1328125,-43.9453125,-178.22265625,0.0
8.75390625,-30.2734375,-41.50390625,-32.2265625,-36.62109375,-124.0234375,0.0
8.7578125,-47.36328125,-42.96875,-42.96875,-38.0859375,6.8359375,0.0
8.76171875,-44.921875,-36.1328125,-41.9921875,-40.0390625,-13.18359375,0.0
8.765625,-37.59765625,-35.15625,-35.15625,-32.2265625,-101.07421875,0.0
8.76953125,-35.15625,-37.59765625,-37.59765625,-34.1796875,-168.9453125,0.0
8.7734375,-30.76171875,-31.73828125,-33.203125,-38.57421875,-106.4453125,0.0
8.77734375,-35.64453125,-28.3203125,-36.1328125,-34.1796875,-77.63671875,0.0
8.78125,-42.96875,-39.0625,-40.52734375,-30.76171875,-107.421875,0.0
8.78515625,-43.45703125,-39.55078125,-35.15625,-33.203125,-91.30859375,0.0
8.7890625,-29.78515625,-24.90234375,-30.2734375,-32.71484375,-73.2421875,0.0
8.79296875,-21.97265625,-23.4375,-32.71484375,-34.66796875,-87.40234375,0.0
8.796875,-30.2734375,-31.73828125,-36.1328125,-37.109375,-116.69921875,0.0
8.80078125,-32.2265625,-26.3671875,-40.0390625,-28.3203125,-38.0859375,0.0
8.8046875,-25.87890625,-25.390625,-38.0859375,-29.78515625,-25.87890625,0.0
8.80859375,-20.99609375,-25.390625,-30.2734375,-32.71484375,-100.5859375,0.0
8.8125,-20.5078125,-26.85546875,-26.85546875,-30.76171875,-45.8984375,0.0
8.81640625,-30.76171875,-25.87890625,-27.34375,-26.85546875,47.8515625,0.0
8.8203125,-41.50390625,-26.85546875,-32.71484375,-27.34375,91.796875,0.0
8.82421875,-42.96875,-37.109375,-36.1328125,-35.15625,91.796875,0.0
8.828125,-26.3671875,-39.0625,-31.73828125,-34.66796875,55.6640625,0.0
8.83203125,-11.71875,-28.80859375,-30.2734375,-29.78515625,95.703125,0.0
8.8359375,-23.4375,-27.34375,-32.71484375,-25.87890625,170.41015625,0.0
8.83984375,-43.45703125,-38.0859375,-35.64453125,-27.83203125,104.00390625,0.0
8.84375,-53.7109375,-47.36328125,-32.71484375,-33.203125,10.7421875,0.0
8.84765625,-45.41015625,-44.43359375,-32.71484375,-38.0859375,-6.34765625,0.0
8.8515625,-27.83203125,-35.64453125,-33.69140625,-39.0625,3.90625,0.0
8.85546875,-30.2734375,-35.15625,-35.15625,-41.015625,0.0,0.0
8.859375,-42.48046875,-36.62109375,-38.0859375,-41.015625,68.84765625,0.0
8.86328125,-40.52734375,-34.66796875,-33.69140625,-41.015625,112.3046875,0.0
8.8671875,-38.0859375,-34.1796875,-30.2734375,-47.36328125,123.046875,0.0
8.87109375,-37.109375,-34.1796875,-30.2734375,-47.8515625,132.8125,0.0
8.875,-38.57421875,-40.0390625,-34.66796875,-49.31640625,60.05859375,0.0
8.87890625,-43.9453125,-41.50390625,-34.1796875,-46.875,30.76171875,0.0
8.8828125,-48.33984375,-40.0390625,-36.62109375,-46.38671875,-0.48828125,0.0
8.88671875,-46.38671875,-41.015625,-41.015625,-54.19921875,-23.4375,0.0
8.890625,-34.1796875,-37.59765625,-39.0625,-48.33984375,9.27734375,0.0
8.89453125,-33.203125,-40.0390625,-39.55078125,-38.57421875,46.38671875,0.0
8.8984375,-46.875,-44.43359375,-36.1328125,-41.50390625,-13.671875,0.0
8.90234375,-55.17578125,-45.8984375,-35.64453125,-46.38671875,-97.16796875,0.0
8.90625,-48.33984375,-43.9453125,-33.69140625,-40.52734375,-45.8984375,0.0
8.91015625,-38.0859375,-39.55078125,-31.25,-40.0390625,30.2734375,0.0
8.9140625,-41.9921875,-39.0625,-31.73828125,-38.57421875,-23.92578125,0.0
8.91796875,-55.6640625,-45.41015625,-33.69140625,-34.1796875,-28.80859375,0.0
8.921875,-62.01171875,-47.36328125,-35.15625,-35.64453125,-40.0390625,0.0
8.92578125,-54.19921875,-41.9921875,-35.64453125,-41.9921875,-59.08203125,0.0
8.9296875,-39.55078125,-35.64453125,-34.66796875,-43.45703125,-69.82421875,0.0
8.93359375,-30.2734375,-34.66796875,-31.73828125,-36.62109375,-114.2578125,0.0
8.9375,-34.1796875,-41.9921875,-37.109375,-30.76171875,-106.93359375,0.0
8.94140625,-41.9921875,-43.9453125,-41.9921875,-36.1328125,-95.21484375,0.0
8.9453125,-37.109375,-41.50390625,-39.0625,-42.96875,-96.6796875,0.0
8.94921875,-25.390625,-41.9921875,-42.96875,-46.875,-79.1015625,0.0
8.953125,-16.11328125,-34.66796875,-43.45703125,-46.875,-49.31640625,0.0
8.95703125,-20.01953125,-29.296875,-37.59765625,-39.0625,-57.6171875,0.0
8.9609375,-30.2734375,-36.1328125,-43.9453125,-38.0859375,-69.3359375,0.0
8.96484375,-32.71484375,-40.52734375,-48.33984375,-41.015625,-41.50390625,0.0
8.96875,-31.73828125,-36.1328125,-43.45703125,-45.8984375,-94.23828125,0.0
8.97265625,-32.71484375,-33.203125,-38.0859375,-48.33984375,-92.28515625,0.0
8.9765625,-41.015625,-33.69140625,-34.66796875,-41.9921875,-41.9921875,0.0
8.98046875,-53.22265625,-44.921875,-36.1328125,-37.109375,-33.69140625,0.0
8.984375,-52.24609375,-53.7109375,-39.55078125,-39.0625,-43.45703125,0.0
8.98828125,-41.50390625,-47.36328125,-36.62109375,-45.41015625,-32.2265625,0.0
8.9921875,-38.57421875,-43.45703125,-30.2734375,-43.9453125,33.69140625,0.0
8.99609375,-44.921875,-45.41015625,-34.66796875,-42.48046875,42.96875,0.0
9.0,-53.22265625,-46.875,-36.1328125,-35.64453125,18.5546875,0.0
9.00390625,-55.17578125,-47.8515625,-36.1328125,-34.1796875,12.6953125,0.0
9.0078125,-41.50390625,-42.48046875,-32.2265625,-38.0859375,-19.53125,0.0
9.01171875,-24.4140625,-32.2265625,-25.390625,-30.76171875,71.2890625,0.0
9.015625,-31.25,-32.71484375,-29.296875,-30.76171875,99.12109375,0.0
9.01953125,-47.36328125,-41.015625,-33.203125,-30.76171875,18.06640625,0.0
9.0234375,-53.22265625,-47.36328125,-38.0859375,-35.64453125,-20.01953125,0.0
9.02734375,-42.96875,-42.48046875,-41.50390625,-42.96875,-20.01953125,0.0
9.03125,-31.73828125,-39.0625,-38.0859375,-42.48046875,-60.05859375,0.0
9.03515625,-26.3671875,-44.921875,-28.80859375,-31.73828125,-160.64453125,0.0
9.0390625,-41.015625,-52.24609375,-28.3203125,-23.4375,-150.390625,0.0
9.04296875,-51.7578125,-51.7578125,-35.15625,-32.2265625,-1.46484375,0.0
9.046875,-34.66796875,-42.48046875,-33.203125,-35.15625,51.26953125,0.0
9.05078125,-32.71484375,-34.66796875,-33.203125,-34.1796875,47.36328125,0.0
9.0546875,-29.296875,-35.15625,-34.1796875,-29.296875,56.15234375,0.0
9.05859375,-35.15625,-39.0625,-35.15625,-26.3671875,57.12890625,0.0
9.0625,-53.22265625,-49.31640625,-43.45703125,-35.64453125,13.18359375,0.0
9.06640625,-43.9453125,-52.24609375,-42.48046875,-37.109375,-26.85546875,0.0
9.0703125,-32.71484375,-40.52734375,-37.109375,-37.109375,-9.765625,0.0
9.07421875,-28.3203125,-42.48046875,-33.69140625,-34.1796875,-44.43359375,0.0
9.078125,-33.69140625,-51.7578125,-28.80859375,-27.83203125,-48.828125,0.0
9.08203125,-46.875,-52.24609375,-29.296875,-29.296875,-92.7734375,0.0
9.0859375,-43.45703125,-47.8515625,-38.57421875,-40.52734375,-75.1953125,0.0
9.08984375,-24.90234375,-43.9453125,-43.9453125,-45.41015625,-52.734375,0.0
9.09375,-25.390625,-38.0859375,-44.43359375,-42.48046875,-21.97265625,0.0
9.09765625,-41.9921875,-41.015625,-45.41015625,-42.48046875,15.13671875,0.0
9.1015625,-56.640625,-45.8984375,-41.9921875,-37.59765625,-61.5234375,0.0
9.10546875,-60.05859375,-45.8984375,-39.0625,-38.0859375,-37.109375,0.0
9.109375,-50.78125,-46.38671875,-39.55078125,-45.41015625,15.13671875,0.0
9.11328125,-39.55078125,-41.50390625,-36.62109375,-39.55078125,-36.62109375,0.0
9.1171875,-48.828125,-40.52734375,-35.64453125,-35.64453125,-90.8203125,0.0
9.12109375,-58.10546875,-45.41015625,-40.0390625,-31.25,-64.94140625,0.0
9.125,-58.10546875,-60.546875,-38.57421875,-32.2265625,-141.6015625,0.0
9.12890625,-46.38671875,-58.10546875,-29.78515625,-36.62109375,-101.5625,0.0
9.1328125,-36.1328125,-44.43359375,-32.2265625,-35.64453125,-6.8359375,0.0
9.13671875,-42.48046875,-46.38671875,-35.64453125,-34.1796875,-67.3828125,0.0
9.140625,-54.19921875,-48.828125,-33.69140625,-31.73828125,-100.5859375,0.0
9.14453125,-54.19921875,-39.0625,-34.66796875,-34.1796875,-121.09375,0.0
9.1484375,-41.9921875,-39.0625,-33.203125,-38.57421875,-96.19140625,0.0
9.15234375,-27.34375,-36.62109375,-28.80859375,-32.2265625,-122.0703125,0.0
9.15625,-26.3671875,-30.2734375,-27.34375,-27.83203125,-40.0390625,0.0
9.16015625,-40.52734375,-36.1328125,-28.3203125,-35.64453125,47.36328125,0.0
9.1640625,-40.0390625,-37.109375,-32.71484375,-34.1796875,-37.59765625,0.0
9.16796875,-26.3671875,-35.15625,-30.2734375,-27.34375,-100.5859375,0.0
9.171875,-25.390625,-40.0390625,-26.3671875,-34.1796875,-75.68359375,0.0
9.17578125,-30.2734375,-36.62109375,-30.76171875,-37.59765625,-74.70703125,0.0
9.1796875,-34.1796875,-27.34375,-33.69140625,-26.3671875,-61.03515625,0.0
9.18359375,-27.34375,-26.3671875,-37.109375,-20.99609375,-55.17578125,0.0
9.1875,-10.25390625,-27.34375,-31.73828125,-22.4609375,-125.48828125,0.0
9.19140625,3.90625,-16.6015625,-27.34375,-16.6015625,-59.08203125,0.0
9.1953125,4.8828125,-7.32421875,-30.76171875,-13.18359375,-48.33984375,0.0
9.19921875,-11.23046875,-12.6953125,-32.2265625,-12.6953125,-47.8515625,0.0
9.203125,-20.99609375,-21.484375,-34.66796875,-17.08984375,41.50390625,0.0
9.20703125,-12.20703125,-19.53125,-44.921875,-24.4140625,-17.578125,0.0
9.2109375,-4.39453125,-15.625,-43.45703125,-22.4609375,-76.66015625,0.0
9.21484375,-9.765625,-19.04296875,-32.71484375,-18.06640625,-47.36328125,0.0
9.21875,-25.390625,-29.78515625,-27.83203125,-24.90234375,-23.4375,0.0
9.22265625,-33.203125,-29.78515625,-37.109375,-27.34375,-96.19140625,0.0
9.2265625,-23.4375,-26.3671875,-46.38671875,-30.2734375,-115.72265625,0.0
9.23046875,-11.23046875,-27.34375,-38.0859375,-29.78515625,-17.08984375,0.0
9.234375,-3.41796875,-27.83203125,-30.76171875,-19.53125,24.4140625,0.0
9.23828125,-10.25390625,-27.34375,-38.57421875,-20.99609375,-4.39453125,0.0
9.2421875,-20.5078125,-25.390625,-42.48046875,-20.99609375,16.6015625,0.0
9.24609375,-20.5078125,-24.4140625,-37.109375,-18.06640625,-71.2890625,0.0
9.25,-14.16015625,-23.4375,-38.57421875,-24.90234375,-100.09765625,0.0
9.25390625,-11.23046875,-22.4609375,-37.59765625,-24.4140625,-41.9921875,0.0
9.2578125,-20.5078125,-21.484375,-30.76171875,-20.5078125,-32.2265625,0.0
9.26171875,-30.2734375,-25.87890625,-27.34375,-24.4140625,-32.2265625,0.0
9.265625,-20.01953125,-22.94921875,-31.73828125,-16.6015625,39.55078125,0.0
9.26953125,-5.37109375,-19.53125,-27.34375,-15.625,46.875,0.0
9.2734375,-15.13671875,-28.80859375,-34.66796875,-24.90234375,-30.2734375,0.0
9.27734375,-20.01953125,-30.76171875,-36.62109375,-21.484375,-42.48046875,0.0
9.28125,-29.78515625,-30.2734375,-30.2734375,-19.53125,-16.11328125,0.0
9.28515625,-37.59765625,-34.66796875,-37.59765625,-26.3671875,-5.859375,0.0
9.2890625,-26.85546875,-29.78515625,-39.0625,-29.296875,-36.62109375,0.0
9.29296875,-24.90234375,-28.80859375,-40.0390625,-30.76171875,-16.11328125,0.0
9.296875,-33.69140625,-39.55078125,-36.62109375,-32.2265625,-60.05859375,0.0
9.30078125,-41.50390625,-36.1328125,-36.62109375,-29.78515625,-27.34375,0.0
9.3046875,-41.9921875,-32.71484375,-39.0625,-30.2734375,50.78125,0.0
9.30859375,-29.78515625,-37.59765625,-33.69140625,-26.85546875,38.0859375,0.0
9.3125,-20.99609375,-33.69140625,-35.15625,-25.390625,9.27734375,0.0
9.31640625,-25.87890625,-32.2265625,-38.0859375,-24.90234375,-29.296875,0.0
9.3203125,-37.59765625,-39.0625,-37.59765625,-27.34375,-44.921875,0.0
9.32421875,-37.109375,-39.0625,-37.59765625,-27.34375,5.859375,0.0
9.328125,-27.83203125,-37.109375,-41.9921875,-28.3203125,15.625,0.0
9.33203125,-15.13671875,-29.78515625,-38.0859375,-26.85546875,-10.25390625,0.0
9.3359375,-9.765625,-25.390625,-35.15625,-22.94921875,14.16015625,0.0
9.33984375,-23.4375,-31.73828125,-35.64453125,-22.94921875,41.50390625,0.0
9.34375,-35.64453125,-39.55078125,-32.71484375,-21.97265625,-73.2421875,0.0
9.34765625,-29.296875,-39.0625,-28.3203125,-27.34375,-202.63671875,0.0
9.3515625,-21.484375,-26.85546875,-29.296875,-34.1796875,-170.8984375,0.0
9.35546875,-26.85546875,-29.296875,-30.76171875,-33.69140625,-104.4921875,0.0
9.359375,-36.62109375,-38.0859375,-25.87890625,-26.3671875,-125.0,0.0
9.36328125,-41.9921875,-40.0390625,-24.4140625,-27.34375,-174.8046875,0.0
9.3671875,-37.59765625,-40.0390625,-23.4375,-32.2265625,-168.9453125,0.0
9.37109375,-31.25,-40.0390625,-25.390625,-33.69140625,-128.41796875,0.0
9.375,-32.2265625,-36.1328125,-29.296875,-29.296875,-138.18359375,0.0
9.37890625,-43.45703125,-34.66796875,-33.69140625,-26.3671875,-167.48046875,0.0
9.3828125,-55.6640625,-45.8984375,-35.15625,-31.25,-107.91015625,0.0
9.38671875,-47.8515625,-40.0390625,-33.203125,-36.62109375,-73.73046875,0.0
9.390625,-34.66796875,-36.62109375,-38.0859375,-43.45703125,-125.9765625,0.0
9.39453125,-39.0625,-42.48046875,-34.66796875,-41.50390625,-99.609375,0.0
9.3984375,-51.7578125,-41.9921875,-25.87890625,-38.57421875,-96.19140625,0.0
9.40234375,-56.15234375,-45.41015625,-33.69140625,-40.0390625,-112.79296875,0.0
9.40625,-45.8984375,-44.43359375,-38.57421875,-38.57421875,-143.5546875,0.0
9.41015625,-34.1796875,-33.69140625,-38.0859375,-33.203125,-131.34765625,0.0
9.4140625,-33.203125,-28.80859375,-32.2265625,-28.80859375,32.2265625,0.0
9.41796875,-43.9453125,-34.66796875,-34.66796875,-32.2265625,60.546875,0.0
9.421875,-51.7578125,-42.48046875,-39.55078125,-39.0625,-46.875,0.0
9.42578125,-47.8515625,-38.57421875,-40.0390625,-39.55078125,-107.91015625,0.0
9.4296875,-36.1328125,-29.296875,-35.64453125,-47.36328125,-6.8359375,0.0
9.43359375,-32.2265625,-30.76171875,-33.203125,-45.41015625,-153.3203125,0.0
9.4375,-42.96875,-38.0859375,-36.62109375,-42.48046875,-352.05078125,0.0
9.44140625,-46.38671875,-37.59765625,-35.64453125,-43.45703125,-157.2265625,0.0
9.4453125,-38.0859375,-34.66796875,-33.69140625,-40.52734375,31.25,0.0
9.44921875,-26.85546875,-32.71484375,-38.57421875,-44.43359375,-11.23046875,0.0
9.453125,-25.390625,-31.73828125,-39.55078125,-42.96875,-51.26953125,0.0
9.45703125,-39.0625,-36.62109375,-26.85546875,-36.1328125,-24.4140625,0.0
9.4609375,-54.6875,-43.9453125,-25.87890625,-33.203125,21.484375,0.0
9.46484375,-54.6875,-41.015625,-31.73828125,-36.1328125,57.6171875,0.0
9.46875,-39.0625,-36.1328125,-35.15625,-43.9453125,24.90234375,0.0
9.47265625,-26.3671875,-33.203125,-38.0859375,-42.48046875,29.78515625,0.0
9.4765625,-29.296875,-32.2265625,-38.0859375,-39.0625,63.96484375,0.0
9.48046875,-41.50390625,-38.0859375,-37.59765625,-40.52734375,28.80859375,0.0
9.484375,-45.41015625,-47.36328125,-38.57421875,-42.48046875,-24.90234375,0.0
9.48828125,-38.0859375,-40.0390625,-38.57421875,-46.38671875,48.33984375,0.0
9.4921875,-31.73828125,-34.1796875,-36.62109375,-43.9453125,14.6484375,0.0
9.49609375,-35.15625,-36.1328125,-34.66796875,-36.1328125,-22.94921875,0.0
9.5,-40.52734375,-34.66796875,-26.85546875,-27.34375,1.46484375,0.0
9.50390625,-36.1328125,-36.62109375,-18.5546875,-22.94921875,-72.75390625,0.0
9.5078125,-34.1796875,-38.57421875,-29.296875,-32.71484375,-20.99609375,0.0
9.51171875,-29.296875,-38.0859375,-35.15625,-36.62109375,22.94921875,0.0
9.515625,-30.76171875,-38.57421875,-36.62109375,-31.73828125,-23.4375,0.0
9.51953125,-46.875,-41.9921875,-41.9921875,-31.25,25.390625,0.0
9.5234375,-49.31640625,-42.96875,-39.55078125,-31.25,93.26171875,0.0
9.52734375,-34.66796875,-37.109375,-33.69140625,-32.2265625,101.07421875,0.0
9.53125,-24.90234375,-36.1328125,-38.0859375,-40.52734375,87.40234375,0.0
9.53515625,-25.87890625,-36.1328125,-41.9921875,-44.43359375,81.0546875,0.0
9.5390625,-42.48046875,-37.109375,-38.0859375,-40.52734375,61.03515625,0.0
9.54296875,-54.19921875,-44.43359375,-37.109375,-44.921875,7.8125,0.0
9.546875,-43.45703125,-50.29296875,-43.45703125,-47.8515625,37.59765625,0.0
9.55078125,-24.90234375,-37.59765625,-40.52734375,-38.0859375,118.65234375,0.0
9.5546875,-18.5546875,-25.87890625,-27.34375,-30.2734375,131.34765625,0.0
9.55859375,-29.78515625,-33.69140625,-27.83203125,-34.1796875,-0.9765625,0.0
9.5625,-38.0859375,-41.50390625,-35.64453125,-38.0859375,16.6015625,0.0
9.56640625,-33.203125,-36.62109375,-34.1796875,-39.55078125,57.6171875,0.0
9.5703125,-27.83203125,-34.1796875,-33.69140625,-42.96875,18.06640625,0.0
9.57421875,-29.296875,-38.0859375,-34.66796875,-41.9921875,-34.1796875,0.0
9.578125,-38.0859375,-40.52734375,-34.66796875,-33.203125,-33.69140625,0.0
9.58203125,-48.33984375,-39.55078125,-35.15625,-35.15625,-67.3828125,0.0
9.5859375,-43.9453125,-35.15625,-35.64453125,-38.0859375,-166.015625,0.0
9.58984375,-29.296875,-33.69140625,-33.69140625,-32.2265625,-163.0859375,0.0
9.59375,-28.80859375,-37.59765625,-33.69140625,-35.64453125,-123.046875,0.0
9.59765625,-41.9921875,-37.109375,-40.0390625,-41.9921875,-39.0625,0.0
9.6015625,-48.33984375,-38.57421875,-37.59765625,-39.0625,-50.78125,0.0
9.60546875,-45.41015625,-43.9453125,-39.55078125,-37.59765625,-75.68359375,0.0
9.609375,-38.57421875,-40.0390625,-42.48046875,-37.109375,65.4296875,0.0
9.61328125,-32.2265625,-40.52734375,-39.55078125,-35.64453125,42.96875,0.0
9.6171875,-40.52734375,-45.8984375,-39.0625,-35.64453125,-55.17578125,0.0
9.62109375,-48.828125,-45.41015625,-36.1328125,-32.71484375,-24.90234375,0.0
9.625,-41.50390625,-41.9921875,-33.203125,-28.3203125,-48.33984375,0.0
9.62890625,-28.3203125,-35.64453125,-30.2734375,-34.1796875,-46.875,0.0
9.6328125,-23.4375,-27.83203125,-31.73828125,-37.59765625,-21.484375,0.0
9.63671875,-29.78515625,-27.83203125,-26.3671875,-25.390625,-26.3671875,0.0
9.640625,-42.48046875,-40.0390625,-28.3203125,-19.04296875,26.85546875,0.0
9.64453125,-43.45703125,-44.43359375,-29.296875,-22.4609375,23.4375,0.0
9.6484375,-33.203125,-37.59765625,-27.34375,-29.78515625,-51.26953125,0.0
9.65234375,-28.80859375,-32.71484375,-29.78515625,-27.83203125,-66.40625,0.0
9.65625,-31.25,-33.69140625,-26.85546875,-18.06640625,-22.4609375,0.0
9.66015625,-40.52734375,-37.59765625,-29.296875,-16.11328125,67.87109375,0.0
9.6640625,-46.38671875,-35.64453125,-34.66796875,-23.4375,44.921875,0.0
9.66796875,-37.109375,-36.1328125,-37.59765625,-38.57421875,-48.828125,0.0
9.671875,-30.2734375,-38.0859375,-36.1328125,-40.52734375,-36.1328125,0.0
9.67578125,-29.296875,-31.73828125,-34.1796875,-28.80859375,-59.5703125,0.0
9.6796875,-37.59765625,-31.73828125,-30.2734375,-26.3671875,-50.29296875,0.0
9.68359375,-49.31640625,-38.0859375,-25.87890625,-32.71484375,26.3671875,0.0
9.6875,-32.2265625,-37.59765625,-30.2734375,-36.1328125,21.97265625,0.0
9.69140625,-10.7421875,-35.15625,-30.76171875,-28.80859375,-5.859375,0.0
9.6953125,-14.16015625,-26.85546875,-28.3203125,-20.99609375,13.671875,0.0
9.69921875,-37.59765625,-26.3671875,-35.64453125,-33.203125,3.90625,0.0
9.703125,-42.48046875,-32.71484375,-39.55078125,-41.9921875,-11.23046875,0.0
9.70703125,-23.4375,-32.71484375,-38.57421875,-40.52734375,-25.87890625,0.0
9.7109375,-20.01953125,-28.80859375,-39.55078125,-43.45703125,-60.05859375,0.0
9.71484375,-20.5078125,-21.97265625,-37.59765625,-41.015625,-6.8359375,0.0
9.71875,-23.4375,-26.85546875,-32.2265625,-38.57421875,0.0,0.0
9.72265625,-32.2265625,-30.2734375,-29.78515625,-39.0625,-48.828125,0.0
9.7265625,-31.25,-25.87890625,-27.34375,-38.57421875,-20.5078125,0.0
9.73046875,-18.06640625,-24.4140625,-28.3203125,-41.50390625,-69.3359375,0.0
9.734375,-13.671875,-26.85546875,-28.80859375,-35.64453125,-55.6640625,0.0
9.73828125,-26.85546875,-34.66796875,-30.2734375,-32.2265625,-104.98046875,0.0
9.7421875,-36.1328125,-40.52734375,-33.69140625,-37.59765625,-121.09375,0.0
9.74609375,-35.15625,-41.015625,-40.52734375,-45.41015625,-1.953125,0.0
9.75,-28.80859375,-32.2265625,-39.0625,-44.43359375,-15.625,0.0
9.75390625,-20.99609375,-28.80859375,-31.25,-34.1796875,-99.609375,0.0
9.7578125,-25.87890625,-33.69140625,-26.3671875,-31.25,-53.22265625,0.0
9.76171875,-41.015625,-39.0625,-30.76171875,-32.71484375,64.453125,0.0
9.765625,-34.1796875,-41.9921875,-32.71484375,-30.76171875,8.30078125,0.0
9.76953125,-19.53125,-29.78515625,-32.2265625,-35.64453125,-23.92578125,0.0
9.7734375,-23.4375,-27.83203125,-32.71484375,-33.203125,15.625,0.0
9.77734375,-29.296875,-34.1796875,-27.34375,-25.87890625,-52.734375,0.0
9.78125,-34.66796875,-39.55078125,-31.25,-30.76171875,-101.07421875,0.0
9.78515625,-32.2265625,-40.52734375,-34.1796875,-30.76171875,-84.47265625,0.0
9.7890625,-26.3671875,-33.69140625,-25.87890625,-33.69140625,-68.359375,0.0
9.79296875,-28.3203125,-32.71484375,-25.87890625,-40.52734375,-63.96484375,0.0
9.796875,-38.57421875,-38.0859375,-28.80859375,-36.62109375,-116.69921875,0.0
9.80078125,-56.640625,-38.57421875,-28.3203125,-38.57421875,-141.6015625,0.0
9.8046875,-58.59375,-34.66796875,-31.25,-39.55078125,-76.66015625,0.0
9.80859375,-40.0390625,-35.64453125,-28.3203125,-35.15625,-48.33984375,0.0
9.8125,-28.3203125,-34.66796875,-25.87890625,-26.3671875,-184.08203125,0.0
9.81640625,-36.1328125,-35.64453125,-28.80859375,-27.83203125,-223.14453125,0.0
9.8203125,-45.8984375,-31.25,-24.90234375,-29.78515625,-75.1953125,0.0
9.82421875,-49.31640625,-30.2734375,-24.4140625,-30.2734375,-62.5,0.0
9.828125,-41.015625,-35.15625,-25.87890625,-30.76171875,-70.3125,0.0
9.83203125,-31.25,-32.71484375,-28.80859375,-32.71484375,-32.2265625,0.0
9.8359375,-34.66796875,-28.80859375,-30.76171875,-28.80859375,-128.90625,0.0
9.83984375,-47.36328125,-36.1328125,-35.64453125,-30.76171875,-205.078125,0.0
9.84375,-49.8046875,-43.45703125,-41.015625,-37.59765625,-204.58984375,0.0
9.84765625,-39.0625,-40.52734375,-34.1796875,-41.50390625,-247.55859375,0.0
9.8515625,-37.59765625,-37.109375,-34.1796875,-41.9921875,-274.90234375,0.0
9.85546875,-35.15625,-32.71484375,-31.25,-35.15625,-168.45703125,0.0
9.859375,-41.9921875,-35.15625,-30.76171875,-41.50390625,-107.421875,0.0
9.86328125,-51.7578125,-35.64453125,-40.0390625,-48.828125,-132.8125,0.0
9.8671875,-44.43359375,-36.1328125,-43.45703125,-53.22265625,-30.2734375,0.0
9.87109375,-35.15625,-32.71484375,-37.59765625,-48.33984375,25.390625,0.0
9.875,-42.96875,-36.1328125,-36.1328125,-40.52734375,45.8984375,0.0
9.87890625,-52.734375,-45.41015625,-35.64453125,-39.0625,21.97265625,0.0
9.8828125,-52.734375,-47.36328125,-33.69140625,-38.0859375,10.25390625,0.0
9.88671875,-43.9453125,-47.36328125,-38.57421875,-42.96875,-2.9296875,0.0
9.890625,-28.80859375,-43.9453125,-40.0390625,-47.36328125,20.01953125,0.0
9.89453125,-28.3203125,-43.9453125,-41.015625,-46.875,-3.41796875,0.0
9.8984375,-37.109375,-40.52734375,-41.50390625,-45.41015625,7.8125,0.0
9.90234375,-42.48046875,-41.50390625,-41.50390625,-40.52734375,13.671875,0.0
9.90625,-41.9921875,-43.9453125,-45.8984375,-42.48046875,15.625,0.0
9.91015625,-29.78515625,-35.64453125,-42.96875,-42.48046875,29.78515625,0.0
9.9140625,-24.4140625,-30.2734375,-38.0859375,-40.52734375,2.44140625,0.0
9.91796875,-27.83203125,-32.71484375,-34.66796875,-31.73828125,-15.13671875,0.0
9.921875,-41.015625,-43.45703125,-27.83203125,-27.83203125,4.39453125,0.0
9.92578125,-41.9921875,-45.41015625,-29.78515625,-30.2734375,-17.08984375,0.0
9.9296875,-35.15625,-36.62109375,-31.73828125,-31.25,-31.25,0.0
9.93359375,-25.87890625,-29.296875,-27.83203125,-28.80859375,73.73046875,0.0
9.9375,-24.4140625,-28.80859375,-28.80859375,-27.83203125,75.68359375,0.0
9.94140625,-40.52734375,-31.25,-30.76171875,-31.25,-19.04296875,0.0
9.9453125,-41.9921875,-31.25,-30.76171875,-37.59765625,-76.171875,0.0
9.94921875,-26.3671875,-27.83203125,-30.2734375,-37.59765625,-31.73828125,0.0
9.953125,-19.53125,-22.94921875,-26.3671875,-30.2734375,-6.8359375,0.0
9.95703125,-20.01953125,-19.53125,-22.94921875,-18.5546875,4.39453125,0.0
9.9609375,-26.3671875,-18.5546875,-22.94921875,-13.18359375,42.96875,0.0
9.96484375,-26.85546875,-25.87890625,-24.90234375,-20.99609375,32.2265625,0.0
9.96875,-12.6953125,-29.296875,-25.87890625,-25.390625,-10.25390625,0.0
9.97265625,-4.39453125,-18.06640625,-21.97265625,-21.97265625,18.5546875,0.0
9.9765625,-16.6015625,-21.97265625,-23.4375,-23.4375,23.4375,0.0
9.98046875,-27.83203125,-26.85546875,-23.92578125,-23.92578125,-59.5703125,0.0
9.984375,-35.15625,-28.80859375,-25.87890625,-26.3671875,-40.0390625,0.0
9.98828125,-32.2265625,-25.390625,-23.92578125,-30.2734375,69.3359375,0.0
9.9921875,-16.6015625,-20.99609375,-23.92578125,-33.203125,-21.484375,0.0
9.99609375,-20.5078125,-25.87890625,-28.80859375,-37.109375,-90.8203125,0.0
10.0,-41.015625,-33.203125,-24.90234375,-33.69140625,-37.109375,0.0
10.00390625,-47.8515625,-35.64453125,-22.4609375,-30.2734375,-83.984375,0.0
10.0078125,-37.109375,-28.80859375,-24.90234375,-37.59765625,-153.3203125,0.0
10.01171875,-24.90234375,-26.85546875,-20.99609375,-42.48046875,-93.26171875,0.0
10.015625,-29.78515625,-31.73828125,-20.5078125,-37.109375,-11.71875,0.0
10.01953125,-45.41015625,-33.203125,-20.99609375,-29.78515625,-21.484375,0.0
10.0234375,-54.6875,-40.0390625,-27.34375,-33.69140625,-66.89453125,0.0
10.02734375,-48.33984375,-39.55078125,-29.78515625,-37.59765625,-47.36328125,0.0
10.03125,-36.1328125,-31.73828125,-25.390625,-34.66796875,-1.953125,0.0
10.03515625,-36.1328125,-34.1796875,-28.3203125,-34.66796875,-43.9453125,0.0
10.0390625,-47.36328125,-38.57421875,-35.15625,-40.0390625,-80.078125,0.0
10.04296875,-48.33984375,-34.66796875,-37.109375,-39.0625,-82.03125,0.0
10.046875,-32.2265625,-29.78515625,-29.296875,-38.57421875,-114.74609375,0.0
10.05078125,-23.92578125,-20.5078125,-27.83203125,-40.0390625,-91.30859375,0.0
10.0546875,-29.78515625,-21.484375,-26.3671875,-29.78515625,-62.98828125,0.0
10.05859375,-41.015625,-28.3203125,-17.578125,-29.78515625,-58.59375,0.0
10.0625,-53.22265625,-40.0390625,-31.73828125,-41.50390625,-43.45703125,0.0
10.06640625,-47.36328125,-44.43359375,-42.48046875,-44.43359375,38.0859375,0.0
10.0703125,-36.62109375,-38.0859375,-37.109375,-41.015625,67.3828125,0.0
10.07421875,-37.59765625,-43.9453125,-39.0625,-44.43359375,-17.578125,0.0
10.078125,-41.50390625,-46.38671875,-39.0625,-42.96875,27.83203125,0.0
10.08203125,-47.36328125,-44.921875,-38.0859375,-44.43359375,93.26171875,0.0
10.0859375,-49.31640625,-45.8984375,-38.57421875,-47.36328125,39.0625,0.0
10.08984375,-43.9453125,-44.43359375,-41.015625,-49.31640625,-62.98828125,0.0
10.09375,-37.59765625,-44.43359375,-42.96875,-45.8984375,-97.16796875,0.0
10.09765625,-45.8984375,-41.50390625,-41.50390625,-46.875,-41.9921875,0.0
10.1015625,-58.59375,-42.96875,-45.8984375,-51.7578125,-109.375,0.0
10.10546875,-53.7109375,-46.875,-46.38671875,-53.22265625,-147.94921875,0.0
10.109375,-43.45703125,-45.8984375,-42.48046875,-56.15234375,-7.8125,0.0
10.11328125,-34.1796875,-37.109375,-35.15625,-47.8515625,4.39453125,0.0
10.1171875,-34.1796875,-39.55078125,-25.390625,-40.52734375,-15.13671875,0.0
10.12109375,-51.7578125,-52.734375,-36.1328125,-43.45703125,55.6640625,0.0
10.125,-54.6875,-55.6640625,-46.875,-45.41015625,26.85546875,0.0
10.12890625,-36.62109375,-48.33984375,-39.0625,-45.41015625,-25.390625,0.0
10.1328125,-28.80859375,-41.9921875,-30.76171875,-40.0390625,-39.0625,0.0
10.13671875,-37.109375,-40.0390625,-34.66796875,-38.57421875,-5.859375,0.0
10.140625,-46.38671875,-42.96875,-37.109375,-43.45703125,-20.99609375,0.0
10.14453125,-47.8515625,-40.0390625,-34.1796875,-41.015625,-58.59375,0.0
10.1484375,-38.0859375,-33.203125,-35.15625,-40.0390625,-82.03125,0.0
10.15234375,-29.78515625,-34.1796875,-33.69140625,-41.9921875,-79.1015625,0.0
10.15625,-35.15625,-39.55078125,-32.2265625,-40.52734375,-76.66015625,0.0
10.16015625,-58.59375,-51.7578125,-37.109375,-44.921875,-93.75,0.0
10.1640625,-61.03515625,-50.78125,-41.9921875,-48.33984375,-115.72265625,0.0
10.16796875,-38.0859375,-38.0859375,-41.015625,-47.36328125,-90.33203125,0.0
10.171875,-26.85546875,-39.0625,-36.1328125,-44.921875,-5.859375,0.0
10.17578125,-29.296875,-37.109375,-24.90234375,-40.0390625,-73.2421875,0.0
10.1796875,-41.015625,-38.0859375,-24.90234375,-38.0859375,-35.64453125,0.0
10.18359375,-46.875,-44.43359375,-35.15625,-39.55078125,20.01953125,0.0
10.1875,-30.76171875,-47.8515625,-37.59765625,-36.62109375,31.25,0.0
10.19140625,-22.4609375,-42.96875,-37.59765625,-37.59765625,39.55078125,0.0
10.1953125,-32.2265625,-32.71484375,-39.55078125,-34.66796875,17.578125,0.0
10.19921875,-35.15625,-31.73828125,-36.62109375,-25.390625,4.8828125,0.0
10.203125,-46.875,-46.875,-41.50390625,-34.1796875,11.71875,0.0
10.20703125,-46.38671875,-51.7578125,-45.41015625,-42.96875,-7.8125,0.0
10.2109375,-31.25,-41.015625,-39.0625,-36.1328125,-24.4140625,0.0
10.21484375,-31.25,-35.64453125,-35.15625,-27.34375,-54.19921875,0.0
10.21875,-42.96875,-40.0390625,-37.109375,-30.2734375,-87.40234375,0.0
10.22265625,-44.921875,-39.55078125,-37.59765625,-32.2265625,-75.68359375,0.0
10.2265625,-32.71484375,-35.15625,-35.64453125,-29.296875,-73.73046875,0.0
10.23046875,-19.04296875,-32.71484375,-31.73828125,-29.296875,-29.296875,0.0
10.234375,-14.6484375,-28.80859375,-23.4375,-19.53125,8.7890625,0.0
10.23828125,-30.76171875,-25.87890625,-24.90234375,-18.5546875,-79.1015625,0.0
10.2421875,-40.0390625,-28.3203125,-26.3671875,-24.90234375,-155.2734375,0.0
10.24609375,-33.69140625,-35.15625,-29.78515625,-30.2734375,-95.703125,0.0
10.25,-23.4375,-39.0625,-30.76171875,-34.1796875,-8.30078125,0.0
10.25390625,-20.99609375,-32.2265625,-22.4609375,-30.76171875,11.23046875,0.0
10.2578125,-32.71484375,-27.83203125,-26.3671875,-30.2734375,19.53125,0.0
10.26171875,-44.43359375,-29.296875,-32.2265625,-31.25,27.34375,0.0
10.265625,-41.015625,-26.85546875,-35.15625,-31.73828125,-24.4140625,0.0
10.26953125,-28.3203125,-25.87890625,-35.15625,-36.62109375,-56.640625,0.0
10.2734375,-22.94921875,-26.3671875,-29.296875,-33.69140625,-78.125,0.0
10.27734375,-33.203125,-32.71484375,-30.76171875,-28.80859375,-101.07421875,0.0
10.28125,-43.9453125,-34.1796875,-30.76171875,-26.85546875,-33.69140625,0.0
10.28515625,-45.41015625,-32.2265625,-31.25,-28.3203125,-21.484375,0.0
10.2890625,-35.64453125,-29.78515625,-29.78515625,-29.78515625,-89.84375,0.0
10.29296875,-23.4375,-23.92578125,-24.90234375,-27.34375,-149.4140625,0.0
10.296875,-30.76171875,-32.2265625,-26.85546875,-26.85546875,-186.5234375,0.0
10.30078125,-43.9453125,-29.296875,-28.80859375,-32.71484375,-116.69921875,0.0
10.3046875,-41.50390625,-26.85546875,-30.2734375,-39.0625,-39.0625,0.0
10.30859375,-34.66796875,-30.2734375,-31.73828125,-42.48046875,-43.45703125,0.0
10.3125,-35.15625,-32.71484375,-22.94921875,-44.43359375,-71.77734375,0.0
10.31640625,-37.59765625,-34.66796875,-27.83203125,-39.0625,-62.5,0.0
10.3203125,-39.55078125,-36.1328125,-31.73828125,-31.73828125,-118.1640625,0.0
10.32421875,-40.0390625,-38.57421875,-31.73828125,-28.80859375,-115.72265625,0.0
10.328125,-26.3671875,-27.34375,-31.25,-30.76171875,18.06640625,0.0
10.33203125,-17.08984375,-22.94921875,-26.3671875,-31.25,40.52734375,0.0
10.3359375,-20.01953125,-25.390625,-28.3203125,-24.90234375,5.37109375,0.0
10.33984375,-32.2265625,-30.76171875,-28.80859375,-22.94921875,-72.265625,0.0
10.34375,-41.015625,-41.50390625,-25.390625,-31.73828125,-13.18359375,0.0
10.34765625,-42.48046875,-41.50390625,-29.296875,-42.96875,36.1328125,0.0
10.3515625,-36.62109375,-38.0859375,-36.1328125,-43.9453125,-45.8984375,0.0
10.35546875,-28.3203125,-38.57421875,-34.1796875,-33.69140625,-59.5703125,0.0
10.359375,-31.25,-35.64453125,-26.3671875,-26.3671875,1.953125,0.0
10.36328125,-36.1328125,-33.203125,-28.3203125,-23.92578125,-34.66796875,0.0
10.3671875,-36.62109375,-37.59765625,-35.64453125,-30.2734375,-59.5703125,0.0
10.37109375,-29.78515625,-32.71484375,-35.15625,-37.59765625,-32.2265625,0.0
10.375,-23.92578125,-27.83203125,-27.83203125,-36.62109375,-23.92578125,0.0
10.37890625,-38.57421875,-32.71484375,-29.78515625,-32.71484375,-29.296875,0.0
10.3828125,-41.50390625,-30.76171875,-35.15625,-32.71484375,-71.77734375,0.0
10.38671875,-29.78515625,-35.15625,-29.296875,-29.296875,42.48046875,0.0
10.390625,-34.66796875,-43.45703125,-26.3671875,-31.25,41.015625,0.0
10.39453125,-45.41015625,-42.96875,-28.3203125,-36.1328125,-60.546875,0.0
10.3984375,-55.6640625,-45.8984375,-30.76171875,-40.52734375,-116.69921875,0.0
10.40234375,-64.94140625,-52.734375,-34.1796875,-43.45703125,-111.81640625,0.0
10.40625,-57.6171875,-52.734375,-35.64453125,-41.9921875,-40.52734375,0.0
10.41015625,-45.8984375,-43.9453125,-33.203125,-40.52734375,16.6015625,0.0
10.4140625,-44.43359375,-41.015625,-31.73828125,-41.015625,-27.34375,0.0
10.41796875,-46.875,-42.48046875,-32.2265625,-36.1328125,-41.50390625,0.0
10.421875,-48.33984375,-41.50390625,-30.76171875,-29.78515625,-41.015625,0.0
10.42578125,-45.8984375,-36.1328125,-31.73828125,-32.2265625,-71.2890625,0.0
10.4296875,-41.015625,-29.78515625,-32.2265625,-40.52734375,-52.24609375,0.0
10.43359375,-38.0859375,-29.296875,-32.71484375,-38.57421875,3.90625,0.0
10.4375,-45.8984375,-40.52734375,-33.69140625,-34.66796875,-19.04296875,0.0
10.44140625,-43.45703125,-38.57421875,-30.76171875,-36.1328125,-28.3203125,0.0
10.4453125,-34.66796875,-32.71484375,-30.2734375,-35.15625,7.32421875,0.0
10.44921875,-28.3203125,-31.25,-31.25,-32.2265625,-27.34375,0.0
10.453125,-18.5546875,-26.85546875,-27.83203125,-29.296875,-8.30078125,0.0
10.45703125,-26.85546875,-33.69140625,-29.78515625,-32.71484375,21.97265625,0.0
10.4609375,-41.50390625,-39.0625,-33.69140625,-36.62109375,22.4609375,0.0
10.46484375,-41.9921875,-36.62109375,-35.15625,-40.52734375,-43.45703125,0.0
10.46875,-31.73828125,-32.71484375,-35.64453125,-41.9921875,-92.7734375,0.0
10.47265625,-16.6015625,-28.3203125,-29.78515625,-34.66796875,-54.6875,0.0
10.4765625,-20.01953125,-27.83203125,-30.76171875,-38.57421875,-70.80078125,0.0
10.48046875,-43.45703125,-37.59765625,-38.0859375,-45.41015625,-63.96484375,0.0
10.484375,-48.828125,-41.9921875,-40.0390625,-43.9453125,-42.48046875,0.0
10.48828125,-37.109375,-39.55078125,-37.59765625,-49.8046875,-63.4765625,0.0
10.4921875,-30.2734375,-37.59765625,-33.69140625,-51.26953125,-104.00390625,0.0
10.49609375,-33.69140625,-37.59765625,-38.57421875,-44.921875,-112.79296875,0.0
10.5,-46.875,-47.36328125,-41.50390625,-43.45703125,-110.3515625,0.0
10.50390625,-53.7109375,-55.17578125,-41.50390625,-45.41015625,-134.27734375,0.0
10.5078125,-44.921875,-47.8515625,-37.59765625,-45.8984375,-194.82421875,0.0
10.51171875,-31.25,-37.109375,-36.62109375,-45.41015625,-187.5,0.0
10.515625,-30.2734375,-36.1328125,-39.0625,-44.43359375,-96.19140625,0.0
10.51953125,-42.96875,-39.0625,-41.50390625,-42.48046875,-115.72265625,0.0
10.5234375,-50.29296875,-38.57421875,-37.109375,-40.52734375,-31.73828125,0.0
10.52734375,-45.41015625,-42.96875,-43.45703125,-41.015625,57.6171875,0.0
10.53125,-36.62109375,-51.26953125,-49.31640625,-41.50390625,-29.78515625,0.0
10.53515625,-34.1796875,-49.8046875,-43.9453125,-42.48046875,-16.11328125,0.0
10.5390625,-43.9453125,-54.6875,-40.0390625,-44.921875,-42.48046875,0.0
10.54296875,-49.8046875,-54.6875,-41.9921875,-45.41015625,-53.22265625,0.0
10.546875,-44.921875,-49.31640625,-44.43359375,-50.29296875,-2.44140625,0.0
10.55078125,-33.203125,-45.8984375,-47.8515625,-48.828125,-29.78515625,0.0
10.5546875,-26.3671875,-40.52734375,-49.31640625,-41.9921875,-112.79296875,0.0
10.55859375,-36.62109375,-38.57421875,-46.38671875,-37.109375,-103.02734375,0.0
10.5625,-39.0625,-43.9453125,-44.43359375,-35.64453125,-81.54296875,0.0
10.56640625,-32.71484375,-44.43359375,-42.48046875,-39.55078125,-37.59765625,0.0
10.5703125,-25.87890625,-35.15625,-38.0859375,-37.59765625,27.34375,0.0
10.57421875,-25.390625,-31.73828125,-37.59765625,-35.15625,33.69140625,0.0
10.578125,-39.0625,-44.43359375,-44.921875,-37.109375,25.390625,0.0
10.58203125,-49.8046875,-59.08203125,-41.015625,-38.57421875,-8.30078125,0.0
10.5859375,-44.43359375,-48.33984375,-40.0390625,-37.109375,8.7890625,0.0
10.58984375,-29.78515625,-35.15625,-41.9921875,-41.015625,78.61328125,0.0
10.59375,-22.4609375,-32.2265625,-37.109375,-37.59765625,15.625,0.0
10.59765625,-23.4375,-33.203125,-29.78515625,-27.83203125,-3.41796875,0.0
10.6015625,-33.69140625,-41.015625,-29.296875,-26.85546875,27.34375,0.0
10.60546875,-40.0390625,-42.96875,-32.2265625,-32.71484375,-10.25390625,0.0
10.609375,-26.3671875,-38.0859375,-34.1796875,-38.0859375,-21.97265625,0.0
10.61328125,-23.4375,-30.2734375,-29.296875,-32.71484375,13.18359375,0.0
10.6171875,-35.64453125,-29.296875,-29.78515625,-34.66796875,-14.16015625,0.0
10.62109375,-45.8984375,-39.0625,-42.96875,-46.38671875,-104.00390625,0.0
10.625,-46.38671875,-52.24609375,-43.45703125,-42.96875,-120.1171875,0.0
10.62890625,-39.55078125,-54.6875,-40.52734375,-44.43359375,-77.1484375,0.0
10.6328125,-35.64453125,-46.875,-43.9453125,-49.31640625,-47.8515625,0.0
10.63671875,-40.52734375,-42.48046875,-45.41015625,-45.41015625,-52.734375,0.0
10.640625,-50.78125,-46.38671875,-45.8984375,-45.8984375,-127.44140625,0.0
10.64453125,-56.15234375,-47.36328125,-45.41015625,-46.38671875,-37.59765625,0.0
10.6484375,-42.96875,-38.0859375,-42.96875,-43.45703125,92.7734375,0.0
10.65234375,-31.73828125,-35.15625,-39.0625,-40.52734375,60.05859375,0.0
10.65625,-38.0859375,-46.38671875,-39.0625,-41.9921875,19.53125,0.0
10.66015625,-42.96875,-48.828125,-37.109375,-36.62109375,40.52734375,0.0
10.6640625,-43.45703125,-40.52734375,-32.71484375,-31.25,22.94921875,0.0
10.66796875,-39.55078125,-34.66796875,-35.15625,-36.62109375,22.4609375,0.0
10.671875,-32.2265625,-38.0859375,-35.64453125,-38.57421875,-40.52734375,0.0
10.67578125,-31.73828125,-43.45703125,-30.76171875,-40.52734375,-0.48828125,0.0
10.6796875,-42.96875,-44.43359375,-32.71484375,-39.0625,42.96875,0.0
10.68359375,-49.8046875,-43.45703125,-35.64453125,-34.66796875,-30.76171875,0.0
10.6875,-40.0390625,-40.52734375,-38.0859375,-41.9921875,-1.46484375,0.0
10.69140625,-28.80859375,-39.55078125,-39.0625,-41.9921875,24.4140625,0.0
10.6953125,-32.2265625,-36.62109375,-34.66796875,-38.0859375,-0.9765625,0.0
10.69921875,-39.55078125,-38.57421875,-32.71484375,-37.59765625,-40.0390625,0.0
10.703125,-48.33984375,-45.41015625,-36.1328125,-37.59765625,-28.80859375,0.0
10.70703125,-47.36328125,-42.48046875,-34.66796875,-41.50390625,-21.97265625,0.0
10.7109375,-36.62109375,-34.66796875,-30.76171875,-44.43359375,-92.28515625,0.0
10.71484375,-30.76171875,-28.80859375,-28.3203125,-37.109375,-59.5703125,0.0
10.71875,-38.57421875,-40.0390625,-27.83203125,-32.2265625,-74.21875,0.0
10.72265625,-57.6171875,-49.8046875,-32.2265625,-38.57421875,-97.65625,0.0
10.7265625,-54.6875,-44.43359375,-33.203125,-40.0390625,-50.29296875,0.0
10.73046875,-38.57421875,-44.921875,-32.2265625,-43.45703125,-107.421875,0.0
10.734375,-36.62109375,-40.0390625,-37.59765625,-44.921875,-125.9765625,0.0
10.73828125,-48.828125,-38.57421875,-35.64453125,-47.36328125,-52.734375,0.0
10.7421875,-61.5234375,-45.8984375,-38.57421875,-50.78125,-93.26171875,0.0
10.74609375,-57.12890625,-41.015625,-41.9921875,-52.734375,-109.86328125,0.0
10.75,-40.0390625,-36.62109375,-38.57421875,-52.734375,-27.34375,0.0
10.75390625,-27.83203125,-29.78515625,-36.1328125,-49.8046875,15.13671875,0.0
10.7578125,-34.1796875,-29.296875,-35.64453125,-46.38671875,5.37109375,0.0
10.76171875,-44.921875,-39.0625,-35.64453125,-46.875,-9.27734375,0.0
10.765625,-42.48046875,-42.96875,-37.59765625,-45.41015625,-53.22265625,0.0
10.76953125,-35.64453125,-36.62109375,-35.64453125,-47.8515625,-36.1328125,0.0
10.7734375,-30.76171875,-32.2265625,-29.78515625,-47.8515625,11.71875,0.0
10.77734375,-37.59765625,-33.69140625,-32.2265625,-42.48046875,-76.66015625,0.0
10.78125,-49.31640625,-38.57421875,-37.109375,-37.59765625,-136.71875,0.0
10.78515625,-51.26953125,-39.55078125,-41.50390625,-40.52734375,-21.97265625,0.0
10.7890625,-39.0625,-35.15625,-39.55078125,-47.36328125,39.0625,0.0
10.79296875,-26.3671875,-36.1328125,-36.1328125,-47.8515625,-51.26953125,0.0
10.796875,-31.73828125,-33.203125,-35.64453125,-46.38671875,-58.10546875,0.0
10.80078125,-51.7578125,-37.109375,-41.015625,-52.734375,-59.5703125,0.0
10.8046875,-47.8515625,-37.109375,-35.64453125,-48.33984375,-147.4609375,0.0
10.80859375,-36.1328125,-39.55078125,-27.83203125,-41.015625,-96.19140625,0.0
10.8125,-35.15625,-42.96875,-38.57421875,-43.9453125,-49.31640625,0.0
10.81640625,-36.1328125,-40.52734375,-41.015625,-39.0625,-28.3203125,0.0
10.8203125,-51.7578125,-45.8984375,-41.50390625,-41.015625,-69.82421875,0.0
10.82421875,-57.12890625,-47.36328125,-37.59765625,-41.50390625,-103.02734375,0.0
10.828125,-40.52734375,-44.43359375,-35.15625,-36.62109375,-67.87109375,0.0
10.83203125,-30.76171875,-34.1796875,-29.296875,-33.203125,-38.0859375,0.0
10.8359375,-35.64453125,-30.76171875,-27.34375,-24.90234375,6.8359375,0.0
10.83984375,-43.45703125,-41.50390625,-29.78515625,-22.94921875,45.41015625,0.0
10.84375,-43.45703125,-45.41015625,-27.83203125,-30.76171875,-59.08203125,0.0
10.84765625,-38.57421875,-33.69140625,-30.2734375,-35.15625,-146.484375,0.0
10.8515625,-19.04296875,-18.5546875,-28.80859375,-30.2734375,-138.671875,0.0
10.85546875,-15.13671875,-20.5078125,-34.1796875,-27.83203125,0.0,0.0
10.859375,-31.25,-33.69140625,-40.52734375,-29.78515625,78.125,0.0
10.86328125,-37.59765625,-40.0390625,-41.50390625,-30.2734375,-31.25,0.0
10.8671875,-21.97265625,-36.1328125,-39.0625,-26.85546875,-51.26953125,0.0
10.87109375,-10.25390625,-25.87890625,-25.87890625,-26.3671875,-20.01953125,0.0
10.875,-12.6953125,-27.83203125,-25.390625,-21.97265625,-18.5546875,0.0
10.87890625,-17.08984375,-34.1796875,-28.3203125,-17.08984375,-98.6328125,0.0
10.8828125,-24.4140625,-30.76171875,-23.4375,-19.53125,-151.85546875,0.0
10.88671875,-23.92578125,-24.4140625,-26.3671875,-18.06640625,-62.5,0.0
10.890625,-11.71875,-20.5078125,-28.3203125,-21.484375,-44.43359375,0.0
10.89453125,-11.71875,-23.92578125,-31.25,-29.78515625,-20.01953125,0.0
10.8984375,-21.484375,-26.3671875,-31.73828125,-21.97265625,85.44921875,0.0
10.90234375,-35.15625,-35.64453125,-41.50390625,-26.3671875,35.15625,0.0
10.90625,-34.1796875,-41.015625,-43.45703125,-33.69140625,-91.796875,0.0
10.91015625,-22.4609375,-33.203125,-35.64453125,-27.83203125,-62.98828125,0.0
10.9140625,-27.34375,-34.1796875,-41.015625,-37.109375,-41.50390625,0.0
10.91796875,-37.59765625,-35.15625,-41.015625,-37.109375,-44.43359375,0.0
10.921875,-46.875,-32.71484375,-33.203125,-31.25,-51.26953125,0.0
10.92578125,-39.55078125,-32.71484375,-35.64453125,-31.73828125,-25.87890625,0.0
10.9296875,-25.87890625,-31.25,-42.96875,-38.57421875,-19.04296875,0.0
10.93359375,-17.578125,-20.5078125,-32.71484375,-42.48046875,-136.71875,0.0
10.9375,-19.53125,-21.97265625,-24.90234375,-32.2265625,-87.890625,0.0
10.94140625,-34.1796875,-31.73828125,-25.87890625,-28.3203125,-54.19921875,0.0
10.9453125,-38.0859375,-31.73828125,-25.390625,-36.62109375,-106.93359375,0.0
10.94921875,-25.390625,-23.92578125,-28.3203125,-45.41015625,-103.02734375,0.0
10.953125,-11.71875,-22.4609375,-28.80859375,-43.9453125,-95.21484375,0.0
10.95703125,-23.92578125,-29.78515625,-25.390625,-38.57421875,-145.01953125,0.0
10.9609375,-41.9921875,-33.69140625,-28.80859375,-39.55078125,-76.66015625,0.0
10.96484375,-37.59765625,-33.69140625,-36.62109375,-46.38671875,8.7890625,0.0
10.96875,-27.34375,-26.85546875,-36.62109375,-47.36328125,-24.4140625,0.0
10.97265625,-25.390625,-22.4609375,-38.0859375,-46.875,-57.6171875,0.0
10.9765625,-27.83203125,-20.5078125,-42.48046875,-41.9921875,-67.3828125,0.0
10.98046875,-36.62109375,-26.3671875,-37.59765625,-36.62109375,-4.8828125,0.0
10.984375,-44.921875,-32.71484375,-32.71484375,-37.59765625,2.9296875,0.0
10.98828125,-38.0859375,-20.5078125,-37.109375,-36.1328125,6.34765625,0.0
10.9921875,-25.87890625,-22.94921875,-36.62109375,-28.3203125,-2.9296875,0.0
10.99609375,-22.94921875,-32.2265625,-33.69140625,-21.484375,-67.3828125,0.0
11.0,-36.1328125,-33.203125,-32.71484375,-27.83203125,-5.37109375,0.0
11.00390625,-45.41015625,-39.0625,-30.2734375,-36.62109375,-5.37109375,0.0
11.0078125,-36.62109375,-38.57421875,-30.76171875,-34.1796875,-117.1875,0.0
11.01171875,-28.3203125,-29.296875,-27.83203125,-28.80859375,-3.90625,0.0
11.015625,-34.66796875,-28.3203125,-24.4140625,-26.85546875,-10.25390625,0.0
11.01953125,-47.8515625,-32.2265625,-30.2734375,-32.2265625,-36.62109375,0.0
11.0234375,-52.734375,-37.59765625,-32.2265625,-34.66796875,-31.73828125,0.0
11.02734375,-46.875,-39.0625,-31.25,-36.1328125,-15.625,0.0
11.03125,-28.80859375,-30.76171875,-26.3671875,-36.62109375,10.25390625,0.0
11.03515625,-25.87890625,-32.71484375,-24.4140625,-37.109375,-59.08203125,0.0
11.0390625,-43.45703125,-32.71484375,-26.85546875,-36.62109375,-100.5859375,0.0
11.04296875,-48.33984375,-29.78515625,-31.25,-36.62109375,-105.95703125,0.0
11.046875,-38.0859375,-34.1796875,-32.2265625,-39.55078125,-39.55078125,0.0
11.05078125,-24.4140625,-29.296875,-26.3671875,-41.015625,78.125,0.0
11.0546875,-21.97265625,-29.78515625,-27.83203125,-38.0859375,61.5234375,0.0
11.05859375,-35.64453125,-37.109375,-30.2734375,-35.64453125,-27.83203125,0.0
11.0625,-48.33984375,-44.43359375,-33.203125,-33.203125,-20.5078125,0.0
11.06640625,-44.43359375,-43.9453125,-39.0625,-34.66796875,45.8984375,0.0
11.0703125,-33.203125,-39.0625,-39.0625,-33.69140625,15.13671875,0.0
11.07421875,-31.73828125,-41.9921875,-43.45703125,-32.2265625,-51.7578125,0.0
11.078125,-39.55078125,-41.015625,-47.8515625,-30.76171875,-25.390625,0.0
11.08203125,-45.41015625,-35.15625,-41.015625,-27.34375,15.13671875,0.0
11.0859375,-42.48046875,-36.62109375,-36.1328125,-30.76171875,-42.48046875,0.0
11.08984375,-34.66796875,-37.109375,-31.73828125,-33.69140625,-47.36328125,0.0
11.09375,-31.73828125,-38.0859375,-26.3671875,-28.3203125,17.578125,0.0
11.09765625,-39.0625,-40.52734375,-28.80859375,-26.3671875,52.24609375,0.0
11.1015625,-46.875,-41.50390625,-32.2265625,-27.34375,-6.8359375,0.0
11.10546875,-44.921875,-42.96875,-35.15625,-34.1796875,-46.875,0.0
11.109375,-30.76171875,-38.57421875,-33.203125,-41.015625,-34.66796875,0.0
11.11328125,-20.01953125,-27.34375,-33.69140625,-44.43359375,-68.359375,0.0
11.1171875,-27.83203125,-31.73828125,-35.15625,-40.0390625,-37.59765625,0.0
11.12109375,-53.7109375,-46.38671875,-35.64453125,-38.0859375,-55.6640625,0.0
11.125,-58.10546875,-50.78125,-37.109375,-36.62109375,-71.77734375,0.0
11.12890625,-37.59765625,-41.015625,-38.57421875,-37.59765625,-80.078125,0.0
11.1328125,-29.296875,-28.80859375,-36.1328125,-40.0390625,-91.30859375,0.0
11.13671875,-39.55078125,-31.25,-31.73828125,-36.62109375,-74.70703125,0.0
11.140625,-48.828125,-42.96875,-36.1328125,-38.0859375,7.8125,0.0
11.14453125,-39.0625,-39.0625,-37.59765625,-37.59765625,24.90234375,0.0
11.1484375,-29.296875,-31.73828125,-35.15625,-40.52734375,-45.8984375,0.0
11.15234375,-23.4375,-33.203125,-35.64453125,-39.0625,-15.13671875,0.0
11.15625,-21.484375,-35.15625,-38.57421875,-33.69140625,-25.390625,0.0
11.16015625,-38.0859375,-35.64453125,-38.57421875,-32.2265625,-6.8359375,0.0
11.1640625,-45.41015625,-35.15625,-38.57421875,-29.296875,-4.39453125,0.0
11.16796875,-33.203125,-32.71484375,-31.25,-29.78515625,-88.8671875,0.0
11.171875,-23.4375,-32.2265625,-23.92578125,-26.85546875,-127.9296875,0.0
11.17578125,-30.2734375,-31.73828125,-29.296875,-28.3203125,-78.125,0.0
11.1796875,-40.0390625,-34.1796875,-31.73828125,-32.2265625,-51.7578125,0.0
11.18359375,-41.9921875,-39.55078125,-23.4375,-27.83203125,-111.81640625,0.0
11.1875,-39.55078125,-44.921875,-23.4375,-28.3203125,-113.28125,0.0
11.19140625,-29.78515625,-38.57421875,-22.94921875,-30.76171875,-132.32421875,0.0
11.1953125,-18.06640625,-25.390625,-19.53125,-20.5078125,-135.25390625,0.0
11.19921875,-26.85546875,-32.2265625,-27.34375,-20.5078125,-24.4140625,0.0
11.203125,-33.203125,-35.15625,-25.87890625,-21.484375,25.390625,0.0
11.20703125,-34.1796875,-31.25,-26.85546875,-21.484375,-43.45703125,0.0
11.2109375,-24.90234375,-27.83203125,-29.296875,-21.484375,-17.578125,0.0
11.21484375,-18.06640625,-23.92578125,-23.4375,-16.11328125,8.7890625,0.0
11.21875,-26.3671875,-25.390625,-20.5078125,-15.625,-86.42578125,0.0
11.22265625,-29.296875,-25.87890625,-23.92578125,-18.06640625,-68.359375,0.0
11.2265625,-29.78515625,-26.85546875,-18.5546875,-24.4140625,-14.16015625,0.0
11.23046875,-23.92578125,-24.4140625,-10.25390625,-25.87890625,-53.22265625,0.0
11.234375,-18.06640625,-21.484375,-6.34765625,-21.484375,-2.44140625,0.0
11.23828125,-34.1796875,-29.296875,-12.20703125,-26.85546875,6.8359375,0.0
11.2421875,-49.8046875,-41.50390625,-17.08984375,-33.203125,20.01953125,0.0
11.24609375,-52.24609375,-45.8984375,-15.625,-37.109375,6.34765625,0.0
11.25,-44.921875,-47.36328125,-21.484375,-45.41015625,-44.43359375,0.0
11.25390625,-34.66796875,-43.45703125,-29.296875,-46.875,-7.32421875,0.0
11.2578125,-39.0625,-45.8984375,-28.3203125,-39.0625,-48.828125,0.0
11.26171875,-53.7109375,-55.6640625,-30.2734375,-40.0390625,-41.015625,0.0
11.265625,-51.26953125,-53.22265625,-32.2265625,-38.0859375,7.32421875,0.0
11.26953125,-30.2734375,-37.59765625,-24.4140625,-30.2734375,-59.5703125,0.0
11.2734375,-21.97265625,-28.80859375,-17.08984375,-27.34375,-53.22265625,0.0
11.27734375,-30.2734375,-34.1796875,-19.53125,-25.390625,-38.57421875,0.0
11.28125,-39.0625,-40.0390625,-20.01953125,-19.53125,-81.54296875,0.0
11.28515625,-45.41015625,-43.9453125,-20.99609375,-31.25,-18.5546875,0.0
11.2890625,-41.9921875,-44.921875,-27.34375,-46.875,-137.20703125,0.0
11.29296875,-35.64453125,-33.203125,-31.73828125,-45.41015625,-221.6796875,0.0
11.296875,-37.59765625,-31.73828125,-29.296875,-36.62109375,-38.0859375,0.0
11.30078125,-46.38671875,-45.41015625,-28.3203125,-34.1796875,-22.94921875,0.0
11.3046875,-49.31640625,-49.31640625,-32.71484375,-42.96875,-56.15234375,0.0
11.30859375,-43.45703125,-44.921875,-32.2265625,-47.8515625,-10.7421875,0.0
11.3125,-29.78515625,-35.15625,-25.87890625,-36.62109375,-52.24609375,0.0
11.31640625,-33.69140625,-31.73828125,-27.34375,-33.203125,7.32421875,0.0
11.3203125,-44.921875,-35.64453125,-30.2734375,-32.2265625,38.57421875,0.0
11.32421875,-45.41015625,-33.203125,-29.78515625,-30.2734375,-68.359375,0.0
11.328125,-41.50390625,-34.1796875,-26.3671875,-30.76171875,-12.6953125,0.0
11.33203125,-35.15625,-35.15625,-23.4375,-31.73828125,41.50390625,0.0
11.3359375,-36.62109375,-35.64453125,-24.90234375,-36.1328125,86.9140625,0.0
11.33984375,-42.48046875,-37.59765625,-28.80859375,-33.69140625,93.26171875,0.0
11.34375,-52.24609375,-41.50390625,-36.1328125,-40.52734375,-24.4140625,0.0
11.34765625,-46.875,-42.48046875,-36.62109375,-44.921875,-45.41015625,0.0
11.3515625,-31.25,-36.62109375,-30.2734375,-39.0625,-114.74609375,0.0
11.35546875,-26.3671875,-30.76171875,-32.2265625,-36.62109375,-122.55859375,0.0
11.359375,-43.45703125,-32.71484375,-34.66796875,-36.1328125,-14.16015625,0.0
11.36328125,-57.6171875,-34.66796875,-32.71484375,-33.69140625,-23.92578125,0.0
11.3671875,-50.29296875,-33.203125,-27.34375,-37.59765625,18.5546875,0.0
11.37109375,-35.15625,-26.3671875,-25.390625,-36.62109375,58.59375,0.0
11.375,-31.25,-31.25,-20.5078125,-32.2265625,13.18359375,0.0
11.37890625,-42.48046875,-47.8515625,-17.08984375,-35.64453125,-20.5078125,0.0
11.3828125,-48.33984375,-44.921875,-18.5546875,-39.0625,-20.5078125,0.0
11.38671875,-44.921875,-37.109375,-25.390625,-43.9453125,4.8828125,0.0
11.390625,-37.109375,-35.15625,-27.83203125,-45.8984375,-30.2734375,0.0
11.39453125,-38.0859375,-36.62109375,-29.78515625,-46.38671875,-82.51953125,0.0
11.3984375,-40.52734375,-37.59765625,-33.69140625,-37.59765625,7.8125,0.0
11.40234375,-41.9921875,-36.62109375,-28.80859375,-28.3203125,44.43359375,0.0
11.40625,-37.109375,-38.0859375,-26.3671875,-37.59765625,-62.01171875,0.0
11.41015625,-27.34375,-34.66796875,-27.34375,-47.36328125,-107.91015625,0.0
11.4140625,-20.5078125,-28.3203125,-24.4140625,-40.52734375,-103.02734375,0.0
11.41796875,-31.25,-26.3671875,-19.53125,-33.203125,-132.32421875,0.0
11.421875,-47.8515625,-38.57421875,-24.90234375,-31.73828125,-101.07421875,0.0
11.42578125,-45.8984375,-44.43359375,-33.69140625,-37.109375,71.2890625,0.0
11.4296875,-36.1328125,-34.66796875,-33.203125,-39.0625,31.25,0.0
11.43359375,-21.97265625,-26.3671875,-24.90234375,-31.73828125,-114.2578125,0.0
11.4375,-23.92578125,-27.83203125,-26.3671875,-24.90234375,-37.109375,0.0
11.44140625,-41.50390625,-36.62109375,-32.71484375,-25.87890625,-33.69140625,0.0
11.4453125,-41.9921875,-30.2734375,-29.78515625,-26.85546875,-58.59375,0.0
11.44921875,-28.80859375,-28.80859375,-26.3671875,-33.203125,-52.24609375,0.0
11.453125,-20.99609375,-30.76171875,-19.53125,-30.76171875,-46.38671875,0.0
11.45703125,-28.3203125,-28.80859375,-17.08984375,-27.83203125,-47.8515625,0.0
11.4609375,-39.0625,-30.2734375,-17.578125,-27.83203125,-80.56640625,0.0
11.46484375,-39.55078125,-35.15625,-17.08984375,-27.83203125,-113.28125,0.0
11.46875,-36.1328125,-43.45703125,-21.97265625,-34.1796875,-139.16015625,0.0
11.47265625,-30.76171875,-39.0625,-26.85546875,-41.9921875,-53.7109375,0.0
11.4765625,-32.71484375,-34.1796875,-24.90234375,-41.015625,-78.61328125,0.0
11.48046875,-40.0390625,-37.109375,-29.78515625,-36.62109375,-130.37109375,0.0
11.484375,-47.8515625,-44.43359375,-37.59765625,-43.45703125,-66.89453125,0.0
11.48828125,-42.96875,-50.78125,-37.59765625,-50.29296875,-56.15234375,0.0
11.4921875,-37.59765625,-43.9453125,-34.66796875,-48.33984375,33.69140625,0.0
11.49609375,-46.38671875,-36.1328125,-33.203125,-45.41015625,37.59765625,0.0
11.5,-55.17578125,-44.921875,-31.73828125,-42.96875,-41.50390625,0.0
11.50390625,-53.22265625,-45.41015625,-29.296875,-39.55078125,14.16015625,0.0
11.5078125,-42.48046875,-40.52734375,-30.2734375,-46.38671875,33.203125,0.0
11.51171875,-34.1796875,-40.52734375,-27.34375,-42.96875,-46.38671875,0.0
11.515625,-33.203125,-42.48046875,-28.80859375,-33.203125,-59.5703125,0.0
11.51953125,-39.0625,-43.45703125,-26.85546875,-32.2265625,-18.5546875,0.0
11.5234375,-45.8984375,-45.8984375,-27.34375,-34.66796875,-58.59375,0.0
11.52734375,-40.0390625,-48.828125,-28.80859375,-36.62109375,-76.66015625,0.0
11.53125,-26.85546875,-47.36328125,-28.3203125,-33.69140625,-51.7578125,0.0
11.53515625,-22.94921875,-38.0859375,-33.203125,-32.2265625,9.27734375,0.0
11.5390625,-33.69140625,-38.0859375,-36.1328125,-32.2265625,-23.4375,0.0
11.54296875,-44.43359375,-45.8984375,-32.2265625,-37.109375,-114.74609375,0.0
11.546875,-39.0625,-41.9921875,-36.62109375,-42.96875,-120.60546875,0.0
11.55078125,-27.83203125,-34.1796875,-38.0859375,-39.55078125,-68.359375,0.0
11.5546875,-26.3671875,-35.64453125,-29.296875,-35.15625,-69.82421875,0.0
11.55859375,-35.15625,-37.59765625,-27.83203125,-31.73828125,-62.01171875,0.0
11.5625,-47.8515625,-44.43359375,-24.4140625,-27.34375,-45.8984375,0.0
11.56640625,-45.8984375,-47.36328125,-23.4375,-33.69140625,-98.6328125,0.0
11.5703125,-37.109375,-41.9921875,-24.4140625,-43.45703125,-73.73046875,0.0
11.57421875,-36.62109375,-40.52734375,-27.34375,-42.96875,-17.08984375,0.0
11.578125,-36.62109375,-34.66796875,-27.34375,-36.62109375,-32.2265625,0.0
11.58203125,-46.38671875,-34.1796875,-20.99609375,-37.109375,-50.29296875,0.0
11.5859375,-51.7578125,-37.59765625,-26.85546875,-42.96875,-17.578125,0.0
11.58984375,-37.59765625,-37.59765625,-30.76171875,-40.52734375,-54.19921875,0.0
11.59375,-34.66796875,-38.0859375,-29.78515625,-38.0859375,-104.98046875,0.0
11.59765625,-43.9453125,-34.1796875,-27.34375,-34.66796875,-20.5078125,0.0
11.6015625,-55.6640625,-36.62109375,-22.94921875,-32.2265625,-1.46484375,0.0
11.60546875,-50.29296875,-41.9921875,-23.92578125,-30.76171875,-78.125,0.0
11.609375,-31.25,-34.66796875,-27.83203125,-27.83203125,-48.33984375,0.0
11.61328125,-25.390625,-27.83203125,-33.69140625,-29.78515625,33.69140625,0.0
11.6171875,-21.484375,-33.69140625,-22.94921875,-28.3203125,-69.82421875,0.0
11.62109375,-29.296875,-42.48046875,-22.4609375,-29.78515625,-98.14453125,0.0
11.625,-41.015625,-45.41015625,-41.50390625,-34.66796875,-74.21875,0.0
11.62890625,-30.76171875,-37.109375,-36.62109375,-34.1796875,-94.23828125,0.0
11.6328125,-16.11328125,-29.78515625,-31.25,-32.2265625,-66.40625,0.0
11.63671875,-17.08984375,-24.90234375,-30.2734375,-27.83203125,-51.7578125,0.0
11.640625,-23.4375,-24.4140625,-28.80859375,-26.85546875,-43.45703125,0.0
11.64453125,-27.34375,-26.3671875,-30.2734375,-24.4140625,-91.796875,0.0
11.6484375,-26.3671875,-22.94921875,-30.76171875,-22.4609375,-70.3125,0.0
11.65234375,-19.04296875,-22.94921875,-28.80859375,-20.5078125,12.6953125,0.0
11.65625,-23.4375,-30.2734375,-30.76171875,-20.5078125,-3.41796875,0.0
11.66015625,-35.64453125,-35.15625,-32.71484375,-22.4609375,-77.63671875,0.0
11.6640625,-41.9921875,-35.15625,-34.66796875,-28.80859375,-78.61328125,0.0
11.66796875,-30.2734375,-27.83203125,-32.2265625,-27.83203125,-88.8671875,0.0
11.671875,-17.08984375,-27.83203125,-31.73828125,-25.390625,-88.37890625,0.0
11.67578125,-20.99609375,-34.1796875,-30.76171875,-28.80859375,-122.0703125,0.0
11.6796875,-33.69140625,-34.66796875,-35.15625,-31.73828125,-91.30859375,0.0
11.68359375,-45.41015625,-37.59765625,-40.52734375,-34.1796875,-0.9765625,0.0
11.6875,-38.0859375,-38.0859375,-37.109375,-31.73828125,-10.25390625,0.0
11.69140625,-27.83203125,-29.78515625,-39.0625,-33.69140625,-27.34375,0.0
11.6953125,-26.3671875,-22.4609375,-39.0625,-23.92578125,-9.27734375,0.0
11.69921875,-31.73828125,-25.390625,-33.69140625,-17.578125,34.1796875,0.0
11.703125,-43.9453125,-37.59765625,-33.203125,-21.484375,-13.671875,0.0
11.70703125,-41.50390625,-44.921875,-29.296875,-25.390625,-7.8125,0.0
11.7109375,-30.76171875,-39.55078125,-31.25,-27.34375,75.1953125,0.0
11.71484375,-28.80859375,-31.73828125,-29.296875,-21.97265625,88.8671875,0.0
11.71875,-37.109375,-38.0859375,-31.25,-22.94921875,91.30859375,0.0
11.72265625,-39.55078125,-41.9921875,-33.69140625,-24.90234375,33.203125,0.0
11.7265625,-30.2734375,-42.48046875,-30.76171875,-24.4140625,-43.9453125,0.0
11.73046875,-18.06640625,-34.66796875,-29.296875,-20.5078125,7.32421875,0.0
11.734375,-15.625,-31.73828125,-27.34375,-21.97265625,73.2421875,0.0
11.73828125,-24.4140625,-35.64453125,-37.109375,-29.78515625,23.92578125,0.0
11.7421875,-36.1328125,-34.1796875,-36.1328125,-33.203125,13.671875,0.0
11.74609375,-42.96875,-36.62109375,-36.1328125,-41.9921875,10.25390625,0.0
11.75,-35.64453125,-41.9921875,-36.1328125,-47.8515625,-61.5234375,0.0
11.75390625,-22.4609375,-33.69140625,-25.390625,-41.50390625,-121.09375,0.0
11.7578125,-31.25,-34.66796875,-28.80859375,-36.62109375,-67.87109375,0.0
11.76171875,-48.33984375,-44.921875,-36.1328125,-36.1328125,-43.9453125,0.0
11.765625,-40.52734375,-43.45703125,-35.15625,-35.64453125,-64.94140625,0.0
11.76953125,-20.5078125,-33.69140625,-26.85546875,-31.73828125,-96.19140625,0.0
11.7734375,-15.13671875,-26.3671875,-25.87890625,-27.83203125,-61.03515625,0.0
11.77734375,-27.83203125,-30.76171875,-28.3203125,-27.34375,-74.70703125,0.0
11.78125,-42.96875,-37.109375,-30.2734375,-31.25,-17.578125,0.0
11.78515625,-43.9453125,-42.96875,-32.2265625,-30.76171875,4.8828125,0.0
11.7890625,-36.1328125,-34.66796875,-27.83203125,-28.3203125,-67.3828125,0.0
11.79296875,-30.2734375,-22.94921875,-24.90234375,-30.2734375,-32.71484375,0.0
11.796875,-34.1796875,-28.3203125,-22.94921875,-31.73828125,-99.12109375,0.0
11.80078125,-40.0390625,-38.0859375,-26.3671875,-28.3203125,-159.66796875,0.0
11.8046875,-46.38671875,-41.015625,-37.59765625,-36.62109375,-126.953125,0.0
11.80859375,-41.9921875,-42.48046875,-45.41015625,-47.36328125,-79.1015625,0.0
11.8125,-19.53125,-35.64453125,-37.59765625,-39.55078125,-55.17578125,0.0
11.81640625,-17.08984375,-29.296875,-32.71484375,-33.69140625,-51.7578125,0.0
11.8203125,-35.15625,-34.66796875,-37.109375,-34.1796875,-110.83984375,0.0
11.82421875,-42.48046875,-36.62109375,-39.0625,-41.9921875,-56.640625,0.0
11.828125,-32.2265625,-34.66796875,-41.50390625,-47.8515625,-61.03515625,0.0
11.83203125,-23.4375,-29.296875,-36.62109375,-41.015625,-151.3671875,0.0
11.8359375,-34.1796875,-30.2734375,-37.109375,-39.55078125,-55.6640625,0.0
11.83984375,-51.26953125,-40.0390625,-40.52734375,-50.78125,29.296875,0.0
11.84375,-51.7578125,-41.50390625,-38.57421875,-51.26953125,13.18359375,0.0
11.84765625,-43.45703125,-34.1796875,-38.57421875,-47.36328125,53.22265625,0.0
11.8515625,-37.109375,-31.25,-32.2265625,-48.33984375,45.41015625,0.0
11.85546875,-37.59765625,-29.296875,-31.73828125,-45.41015625,-9.27734375,0.0
11.859375,-47.8515625,-35.64453125,-37.109375,-48.828125,9.27734375,0.0
11.86328125,-56.15234375,-41.9921875,-38.57421875,-50.78125,49.8046875,0.0
11.8671875,-48.33984375,-41.50390625,-40.52734375,-50.78125,60.05859375,0.0
11.87109375,-37.109375,-34.1796875,-39.0625,-50.29296875,78.125,0.0
11.875,-36.62109375,-32.2265625,-38.0859375,-49.8046875,63.4765625,0.0
11.87890625,-41.50390625,-33.203125,-38.57421875,-42.96875,-47.36328125,0.0
11.8828125,-50.78125,-33.69140625,-42.96875,-41.9921875,-92.7734375,0.0
11.88671875,-47.8515625,-39.0625,-44.43359375,-48.33984375,-100.5859375,0.0
11.890625,-35.64453125,-36.1328125,-43.45703125,-45.8984375,-115.72265625,0.0
11.89453125,-24.4140625,-29.78515625,-39.55078125,-35.15625,-148.4375,0.0
11.8984375,-32.71484375,-40.0390625,-35.64453125,-31.73828125,-104.98046875,0.0
11.90234375,-46.875,-46.38671875,-33.203125,-35.15625,12.20703125,0.0
11.90625,-47.8515625,-44.43359375,-35.64453125,-35.15625,21.484375,0.0
11.91015625,-35.64453125,-34.1796875,-31.73828125,-35.15625,-78.61328125,0.0
11.9140625,-32.2265625,-28.80859375,-33.203125,-36.1328125,-143.5546875,0.0
11.91796875,-36.1328125,-35.15625,-30.76171875,-28.80859375,-67.87109375,0.0
11.921875,-43.9453125,-37.59765625,-31.25,-33.69140625,-2.44140625,0.0
11.92578125,-53.22265625,-37.109375,-39.55078125,-49.31640625,-0.48828125,0.0
11.9296875,-41.015625,-29.296875,-36.62109375,-42.96875,31.73828125,0.0
11.93359375,-35.15625,-29.296875,-37.109375,-47.36328125,39.55078125,0.0
11.9375,-40.52734375,-36.62109375,-33.69140625,-48.33984375,28.3203125,0.0
11.94140625,-42.96875,-36.62109375,-32.2265625,-35.15625,7.32421875,0.0
11.9453125,-44.921875,-33.203125,-33.69140625,-38.0859375,-88.8671875,0.0
11.94921875,-39.55078125,-34.66796875,-33.203125,-43.9453125,-82.03125,0.0
11.953125,-18.5546875,-31.25,-31.73828125,-34.66796875,-30.2734375,0.0
11.95703125,-19.04296875,-20.99609375,-28.3203125,-30.2734375,-48.828125,0.0
11.9609375,-35.64453125,-32.2265625,-29.296875,-36.1328125,-79.1015625,0.0
11.96484375,-48.33984375,-47.36328125,-40.0390625,-41.015625,-92.7734375,0.0
11.96875,-33.203125,-40.0390625,-36.62109375,-30.76171875,-76.171875,0.0
11.97265625,-15.625,-31.73828125,-27.34375,-23.92578125,5.37109375,0.0
11.9765625,-17.578125,-28.3203125,-26.3671875,-22.94921875,5.37109375,0.0
11.98046875,-24.90234375,-32.2265625,-28.80859375,-23.92578125,-0.9765625,0.0
11.984375,-30.76171875,-40.52734375,-31.25,-29.78515625,0.0,0.0
11.98828125,-30.2734375,-35.64453125,-31.25,-37.59765625,-0.9765625,0.0
11.9921875,-24.4140625,-34.1796875,-28.80859375,-40.0390625,-27.34375,0.0
11.99609375,-24.4140625,-37.59765625,-27.83203125,-35.64453125,-4.8828125,0.0
12.0,-33.69140625,-38.0859375,-31.25,-29.296875,-29.78515625,0.0
12.00390625,-41.015625,-41.015625,-30.76171875,-29.296875,-74.70703125,0.0
12.0078125,-40.0390625,-40.52734375,-25.390625,-33.69140625,-59.08203125,0.0
12.01171875,-34.66796875,-35.64453125,-23.4375,-31.25,-36.1328125,0.0
12.015625,-37.109375,-32.71484375,-28.80859375,-32.2265625,-75.68359375,0.0
12.01953125,-43.45703125,-33.69140625,-30.76171875,-34.1796875,-68.84765625,0.0
12.0234375,-44.43359375,-37.59765625,-27.34375,-31.73828125,-76.66015625,0.0
12.02734375,-37.109375,-36.62109375,-30.76171875,-36.1328125,-202.63671875,0.0
12.03125,-22.4609375,-34.66796875,-29.296875,-38.0859375,-173.33984375,0.0
12.03515625,-22.4609375,-37.59765625,-31.25,-35.64453125,-145.01953125,0.0
12.0390625,-38.0859375,-43.45703125,-37.59765625,-37.109375,-113.76953125,0.0
12.04296875,-45.41015625,-41.50390625,-34.66796875,-38.0859375,-64.453125,0.0
12.046875,-33.69140625,-36.62109375,-33.203125,-39.55078125,-75.1953125,0.0
12.05078125,-23.92578125,-33.203125,-29.296875,-39.0625,-99.12109375,0.0
12.0546875,-22.4609375,-30.76171875,-25.390625,-36.1328125,-82.51953125,0.0
12.05859375,-26.3671875,-28.3203125,-31.73828125,-30.2734375,50.29296875,0.0
12.0625,-35.15625,-31.25,-37.109375,-26.3671875,64.94140625,0.0
12.06640625,-33.69140625,-33.203125,-30.2734375,-22.94921875,-1.953125,0.0
12.0703125,-22.94921875,-28.80859375,-29.78515625,-30.2734375,-35.15625,0.0
12.07421875,-22.4609375,-29.78515625,-31.25,-37.109375,-66.89453125,0.0
12.078125,-30.76171875,-39.0625,-30.76171875,-35.64453125,10.25390625,0.0
12.08203125,-39.0625,-41.9921875,-29.296875,-38.57421875,28.80859375,0.0
12.0859375,-42.96875,-39.0625,-26.85546875,-36.62109375,-52.24609375,0.0
12.08984375,-30.2734375,-35.64453125,-29.78515625,-34.66796875,-74.21875,0.0
12.09375,-16.6015625,-31.73828125,-30.2734375,-33.69140625,-71.2890625,0.0
12.09765625,-16.11328125,-31.73828125,-28.3203125,-23.92578125,-35.64453125,0.0
12.1015625,-35.15625,-26.3671875,-36.62109375,-37.59765625,-32.71484375,0.0
12.10546875,-51.26953125,-27.34375,-36.1328125,-64.453125,-58.10546875,0.0
12.109375,-45.8984375,-32.2265625,-31.73828125,-65.91796875,-127.44140625,0.0
12.11328125,-50.29296875,-26.85546875,-37.109375,-76.171875,-59.08203125,0.0
12.1171875,-66.89453125,-35.15625,-48.828125,-86.42578125,-15.625,0.0
12.12109375,-81.0546875,-38.57421875,-52.734375,-83.0078125,-35.15625,0.0
12.125,-89.35546875,-41.015625,-47.36328125,-91.796875,-59.5703125,0.0
12.12890625,-84.9609375,-42.48046875,-41.9921875,-101.5625,-145.01953125,0.0
12.1328125,-82.51953125,-40.52734375,-43.9453125,-104.98046875,-131.8359375,0.0
12.13671875,-78.61328125,-38.57421875,-42.48046875,-94.23828125,-142.08984375,0.0
12.140625,-83.0078125,-43.45703125,-35.64453125,-88.37890625,-153.80859375,0.0
12.14453125,-86.9140625,-50.29296875,-37.59765625,-87.890625,-94.23828125,0.0
12.1484375,-73.2421875,-40.0390625,-35.64453125,-79.58984375,1.953125,0.0
12.15234375,-58.10546875,-31.25,-32.71484375,-79.1015625,57.12890625,0.0
12.15625,-57.6171875,-36.1328125,-34.1796875,-76.171875,6.34765625,0.0
12.16015625,-69.82421875,-43.9453125,-36.1328125,-62.01171875,-8.7890625,0.0
12.1640625,-71.77734375,-40.52734375,-41.50390625,-64.94140625,11.23046875,0.0
12.16796875,-60.546875,-32.2265625,-38.0859375,-68.84765625,40.0390625,0.0
12.171875,-51.7578125,-34.66796875,-27.34375,-63.96484375,5.859375,0.0
12.17578125,-43.9453125,-35.64453125,-26.85546875,-55.6640625,13.671875,0.0
12.1796875,-41.015625,-31.25,-30.2734375,-49.8046875,27.34375,0.0
12.18359375,-46.875,-37.59765625,-32.71484375,-53.22265625,-5.859375,0.0
12.1875,-48.828125,-41.50390625,-25.87890625,-52.24609375,-75.1953125,0.0
12.19140625,-41.9921875,-35.15625,-27.34375,-52.24609375,-87.40234375,0.0
12.1953125,-34.1796875,-28.80859375,-31.73828125,-51.26953125,-33.203125,0.0
12.19921875,-33.69140625,-32.71484375,-28.3203125,-42.96875,-61.03515625,0.0
12.203125,-44.921875,-39.55078125,-32.71484375,-43.45703125,-50.29296875,0.0
12.20703125,-43.45703125,-35.64453125,-35.15625,-43.45703125,-44.921875,0.0
12.2109375,-33.203125,-28.3203125,-33.69140625,-37.59765625,55.6640625,0.0
12.21484375,-36.62109375,-27.34375,-31.73828125,-38.0859375,111.328125,0.0
12.21875,-42.96875,-34.66796875,-28.3203125,-42.96875,51.26953125,0.0
12.22265625,-45.8984375,-37.59765625,-27.83203125,-40.0390625,10.7421875,0.0
12.2265625,-43.45703125,-31.25,-30.76171875,-34.66796875,-10.25390625,0.0
12.23046875,-33.203125,-36.62109375,-29.296875,-38.0859375,-67.3828125,0.0
12.234375,-23.4375,-37.59765625,-24.4140625,-35.15625,-134.27734375,0.0
12.23828125,-23.4375,-29.78515625,-21.484375,-25.390625,-99.609375,0.0
12.2421875,-38.0859375,-36.1328125,-24.4140625,-27.34375,-101.07421875,0.0
12.24609375,-43.9453125,-41.50390625,-29.78515625,-34.66796875,-110.83984375,0.0
12.25,-35.64453125,-36.1328125,-31.73828125,-32.71484375,-118.65234375,0.0
12.25390625,-30.76171875,-30.76171875,-31.73828125,-31.25,-117.67578125,0.0
12.2578125,-35.15625,-28.3203125,-26.85546875,-31.73828125,-76.66015625,0.0
12.26171875,-38.0859375,-33.203125,-28.80859375,-27.34375,-37.109375,0.0
12.265625,-42.48046875,-39.0625,-39.55078125,-32.71484375,-27.34375,0.0
12.26953125,-37.59765625,-33.203125,-36.1328125,-39.55078125,-18.06640625,0.0
12.2734375,-25.390625,-26.85546875,-28.80859375,-36.62109375,-57.6171875,0.0
12.27734375,-28.80859375,-30.2734375,-30.2734375,-29.78515625,-123.53515625,0.0
12.28125,-50.29296875,-42.48046875,-36.62109375,-33.203125,-120.1171875,0.0
12.28515625,-43.45703125,-39.55078125,-35.15625,-30.76171875,-37.109375,0.0
12.2890625,-23.92578125,-28.3203125,-27.34375,-23.4375,-68.84765625,0.0
12.29296875,-27.83203125,-31.25,-23.92578125,-29.78515625,-29.78515625,0.0
12.296875,-33.203125,-34.66796875,-28.80859375,-29.78515625,38.0859375,0.0
12.30078125,-40.52734375,-33.69140625,-32.2265625,-26.85546875,28.80859375,0.0
12.3046875,-44.43359375,-37.109375,-27.83203125,-35.64453125,64.94140625,0.0
12.30859375,-37.59765625,-36.62109375,-30.2734375,-41.9921875,16.11328125,0.0
12.3125,-25.87890625,-36.1328125,-34.66796875,-35.64453125,-66.89453125,0.0
12.31640625,-20.01953125,-30.2734375,-26.85546875,-20.99609375,16.6015625,0.0
12.3203125,-29.296875,-29.78515625,-26.85546875,-24.90234375,53.7109375,0.0
12.32421875,-39.55078125,-39.55078125,-39.0625,-38.0859375,14.6484375,0.0
12.328125,-32.2265625,-36.1328125,-38.0859375,-37.109375,37.59765625,0.0
12.33203125,-26.85546875,-33.203125,-34.66796875,-38.0859375,103.02734375,0.0
12.3359375,-28.3203125,-34.1796875,-34.66796875,-37.59765625,86.9140625,0.0
12.33984375,-44.921875,-41.50390625,-36.62109375,-37.109375,34.66796875,0.0
12.34375,-50.29296875,-47.36328125,-40.52734375,-38.0859375,-52.734375,0.0
12.34765625,-39.0625,-45.8984375,-43.45703125,-41.50390625,-179.6875,0.0
12.3515625,-26.85546875,-33.203125,-36.62109375,-41.9921875,-96.19140625,0.0
12.35546875,-21.484375,-24.90234375,-34.1796875,-37.109375,-41.50390625,0.0
12.359375,-27.83203125,-31.73828125,-32.71484375,-31.73828125,-134.765625,0.0
12.36328125,-32.71484375,-38.57421875,-30.76171875,-34.1796875,-75.68359375,0.0
12.3671875,-35.64453125,-37.109375,-33.69140625,-34.66796875,-37.109375,0.0
12.37109375,-24.4140625,-32.2265625,-33.69140625,-34.1796875,-78.125,0.0
12.375,-18.06640625,-34.66796875,-33.203125,-38.57421875,-53.22265625,0.0
12.37890625,-33.69140625,-37.59765625,-32.2265625,-37.109375,-56.640625,0.0
12.3828125,-44.921875,-37.59765625,-31.73828125,-32.71484375,-99.12109375,0.0
12.38671875,-40.52734375,-41.9921875,-34.66796875,-34.66796875,-99.609375,0.0
12.390625,-25.390625,-35.64453125,-37.109375,-35.64453125,-105.95703125,0.0
12.39453125,-13.671875,-24.90234375,-33.203125,-32.71484375,-116.69921875,0.0
12.3984375,-18.5546875,-28.80859375,-17.08984375,-31.25,-103.02734375,0.0
12.40234375,-28.3203125,-35.15625,-20.5078125,-32.71484375,-74.21875,0.0
12.40625,-31.25,-40.0390625,-33.203125,-37.109375,-39.55078125,0.0
12.41015625,-24.90234375,-40.0390625,-26.85546875,-35.64453125,-57.6171875,0.0
12.4140625,-20.01953125,-33.69140625,-20.01953125,-22.4609375,-34.66796875,0.0
12.41796875,-23.4375,-29.296875,-20.99609375,-16.11328125,-4.8828125,0.0
12.421875,-30.2734375,-33.203125,-24.4140625,-17.08984375,-62.01171875,0.0
12.42578125,-34.66796875,-40.0390625,-25.87890625,-16.11328125,-104.98046875,0.0
12.4296875,-30.76171875,-35.64453125,-23.92578125,-22.4609375,-41.015625,0.0
12.43359375,-23.92578125,-33.203125,-26.85546875,-27.83203125,-20.5078125,0.0
12.4375,-27.83203125,-35.15625,-26.3671875,-22.4609375,-24.4140625,0.0
12.44140625,-42.96875,-32.71484375,-25.87890625,-24.4140625,94.7265625,0.0
12.4453125,-49.8046875,-35.64453125,-31.25,-31.73828125,134.765625,0.0
12.44921875,-41.50390625,-37.109375,-32.2265625,-32.71484375,88.8671875,0.0
12.453125,-33.69140625,-35.15625,-32.71484375,-29.296875,43.45703125,0.0
12.45703125,-34.1796875,-39.0625,-23.4375,-29.78515625,17.578125,0.0
12.4609375,-37.109375,-41.015625,-20.99609375,-28.80859375,25.390625,0.0
12.46484375,-36.62109375,-42.96875,-29.78515625,-31.25,14.16015625,0.0
12.46875,-28.3203125,-39.0625,-32.71484375,-36.1328125,45.8984375,0.0
12.47265625,-22.4609375,-35.64453125,-36.1328125,-39.0625,2.9296875,0.0
12.4765625,-25.390625,-32.71484375,-37.109375,-37.59765625,-9.765625,0.0
12.48046875,-31.73828125,-34.66796875,-35.64453125,-32.2265625,-33.69140625,0.0
12.484375,-40.52734375,-38.0859375,-40.0390625,-29.296875,-117.1875,0.0
12.48828125,-39.55078125,-36.62109375,-38.57421875,-35.64453125,-138.18359375,0.0
12.4921875,-36.62109375,-32.2265625,-32.71484375,-38.57421875,-34.66796875,0.0
12.49609375,-36.1328125,-30.2734375,-29.296875,-34.66796875,90.33203125,0.0
12.5,-47.36328125,-38.0859375,-33.203125,-33.69140625,80.56640625,0.0
12.50390625,-51.7578125,-41.015625,-26.85546875,-28.80859375,79.58984375,0.0
12.5078125,-45.8984375,-40.0390625,-29.78515625,-35.64453125,72.265625,0.0
12.51171875,-34.66796875,-34.1796875,-39.0625,-38.57421875,0.0,0.0
12.515625,-31.73828125,-35.15625,-36.62109375,-36.62109375,-100.5859375,0.0
12.51953125,-47.36328125,-40.52734375,-39.0625,-39.0625,-98.14453125,0.0
12.5234375,-62.5,-50.29296875,-42.48046875,-41.015625,-106.93359375,0.0
12.52734375,-57.12890625,-53.7109375,-43.45703125,-43.9453125,-238.28125,0.0
12.53125,-34.66796875,-39.55078125,-37.109375,-41.015625,-290.0390625,0.0
12.53515625,-32.71484375,-33.203125,-38.0859375,-45.8984375,-200.68359375,0.0
12.5390625,-48.828125,-36.1328125,-42.48046875,-49.31640625,-171.875,0.0
12.54296875,-53.22265625,-39.55078125,-44.43359375,-46.875,-136.23046875,0.0
12.546875,-47.36328125,-45.8984375,-41.50390625,-44.43359375,-157.2265625,0.0
12.55078125,-41.015625,-45.41015625,-39.55078125,-46.38671875,-170.41015625,0.0
12.5546875,-38.0859375,-37.109375,-44.43359375,-43.45703125,-41.015625,0.0
12.55859375,-35.64453125,-30.2734375,-40.0390625,-34.1796875,-51.7578125,0.0
12.5625,-42.48046875,-38.57421875,-36.1328125,-39.0625,-18.06640625,0.0
12.56640625,-41.9921875,-41.9921875,-37.109375,-42.48046875,88.8671875,0.0
12.5703125,-22.4609375,-33.203125,-33.203125,-38.57421875,62.98828125,0.0
12.57421875,-14.16015625,-33.203125,-30.76171875,-38.0859375,-42.48046875,0.0
12.578125,-24.90234375,-37.59765625,-27.83203125,-30.2734375,-57.6171875,0.0
12.58203125,-33.203125,-36.1328125,-27.34375,-23.92578125,-15.13671875,0.0
12.5859375,-33.203125,-33.203125,-29.296875,-28.3203125,-59.08203125,0.0
12.58984375,-29.296875,-29.78515625,-22.4609375,-33.69140625,-38.0859375,0.0
12.59375,-21.484375,-30.2734375,-14.16015625,-31.25,10.25390625,0.0
12.59765625,-20.01953125,-27.83203125,-22.94921875,-25.390625,-3.90625,0.0
12.6015625,-31.73828125,-32.71484375,-32.71484375,-26.85546875,-74.70703125,0.0
12.60546875,-34.1796875,-43.45703125,-36.62109375,-30.2734375,-71.77734375,0.0
12.609375,-26.3671875,-38.57421875,-33.69140625,-30.76171875,-28.3203125,0.0
12.61328125,-26.3671875,-34.1796875,-34.1796875,-32.71484375,-51.7578125,0.0
12.6171875,-30.76171875,-35.64453125,-35.15625,-28.80859375,-75.1953125,0.0
12.62109375,-35.64453125,-32.71484375,-26.3671875,-26.3671875,-19.53125,0.0
12.625,-43.45703125,-37.59765625,-31.73828125,-33.203125,40.0390625,0.0
12.62890625,-39.0625,-39.0625,-35.15625,-36.62109375,-2.9296875,0.0
12.6328125,-25.390625,-23.4375,-35.64453125,-27.83203125,13.18359375,0.0
12.63671875,-28.80859375,-21.97265625,-33.203125,-23.92578125,-53.7109375,0.0
12.640625,-41.015625,-35.15625,-31.73828125,-31.25,-67.3828125,0.0
12.64453125,-36.1328125,-33.203125,-32.71484375,-37.59765625,-33.203125,0.0
12.6484375,-31.73828125,-40.0390625,-34.66796875,-41.50390625,-85.44921875,0.0
12.65234375,-26.85546875,-41.9921875,-33.203125,-39.55078125,-107.91015625,0.0
12.65625,-29.296875,-39.55078125,-29.296875,-39.55078125,-169.921875,0.0
12.66015625,-43.9453125,-47.8515625,-30.2734375,-37.59765625,-194.82421875,0.0
12.6640625,-45.8984375,-46.38671875,-33.203125,-29.296875,-190.4296875,0.0
12.66796875,-37.109375,-40.0390625,-33.69140625,-34.66796875,-211.42578125,0.0
12.671875,-28.80859375,-38.0859375,-33.69140625,-44.43359375,-114.2578125,0.0
12.67578125,-27.83203125,-36.1328125,-33.69140625,-45.8984375,-40.0390625,0.0
12.6796875,-34.1796875,-35.15625,-30.2734375,-41.015625,-77.1484375,0.0
12.68359375,-43.9453125,-41.015625,-26.85546875,-39.0625,-54.6875,0.0
12.6875,-41.9921875,-48.828125,-26.85546875,-41.015625,11.71875,0.0
12.69140625,-23.92578125,-33.69140625,-22.94921875,-35.64453125,53.22265625,0.0
12.6953125,-21.484375,-25.87890625,-23.92578125,-30.2734375,46.875,0.0
12.69921875,-36.1328125,-36.1328125,-32.71484375,-32.2265625,27.34375,0.0
12.703125,-45.41015625,-45.8984375,-35.64453125,-34.66796875,-11.23046875,0.0
12.70703125,-41.015625,-43.45703125,-35.64453125,-34.1796875,-48.828125,0.0
12.7109375,-29.78515625,-27.83203125,-28.80859375,-36.1328125,-29.296875,0.0
12.71484375,-19.53125,-20.01953125,-21.97265625,-30.76171875,59.08203125,0.0
12.71875,-20.99609375,-25.87890625,-22.94921875,-25.87890625,93.75,0.0
12.72265625,-30.2734375,-37.59765625,-29.296875,-30.2734375,55.6640625,0.0
12.7265625,-32.2265625,-36.1328125,-29.78515625,-33.203125,32.71484375,0.0
12.73046875,-24.4140625,-31.73828125,-26.85546875,-28.3203125,-21.484375,0.0
12.734375,-24.4140625,-33.69140625,-34.66796875,-28.80859375,23.4375,0.0
12.73828125,-41.50390625,-37.59765625,-31.25,-37.59765625,-18.06640625,0.0
12.7421875,-58.59375,-50.78125,-25.87890625,-46.875,-36.1328125,0.0
12.74609375,-52.734375,-49.8046875,-27.34375,-51.26953125,-86.42578125,0.0
12.75,-38.57421875,-44.921875,-25.87890625,-46.38671875,-169.43359375,0.0
12.75390625,-29.296875,-37.109375,-29.78515625,-38.57421875,-91.30859375,0.0
12.7578125,-37.109375,-31.73828125,-31.25,-37.59765625,51.26953125,0.0
12.76171875,-46.875,-41.015625,-27.83203125,-32.71484375,-11.71875,0.0
12.765625,-42.48046875,-40.0390625,-32.2265625,-33.69140625,-107.421875,0.0
12.76953125,-42.96875,-29.296875,-34.66796875,-42.96875,-101.5625,0.0
12.7734375,-49.8046875,-31.73828125,-26.85546875,-44.921875,-95.703125,0.0
12.77734375,-63.96484375,-51.7578125,-30.2734375,-58.59375,-69.82421875,0.0
12.78125,-80.078125,-60.05859375,-36.1328125,-73.2421875,34.66796875,0.0
12.78515625,-85.9375,-53.7109375,-30.76171875,-76.66015625,80.078125,0.0
12.7890625,-78.125,-56.15234375,-27.83203125,-79.58984375,35.15625,0.0
12.79296875,-72.265625,-53.7109375,-32.71484375,-80.56640625,83.984375,0.0
12.796875,-69.82421875,-48.33984375,-35.64453125,-76.66015625,14.16015625,0.0
12.80078125,-75.1953125,-46.875,-35.15625,-67.87109375,-113.76953125,0.0
12.8046875,-68.359375,-44.921875,-33.203125,-60.546875,-6.34765625,0.0
12.80859375,-58.59375,-51.26953125,-36.1328125,-62.01171875,78.125,0.0
12.8125,-56.640625,-46.875,-35.64453125,-56.640625,56.15234375,0.0
12.81640625,-46.875,-36.62109375,-30.2734375,-46.38671875,-13.18359375,0.0
12.8203125,-51.26953125,-40.0390625,-34.66796875,-47.36328125,-35.15625,0.0
12.82421875,-56.15234375,-40.52734375,-34.66796875,-41.015625,12.6953125,0.0
12.828125,-42.96875,-39.55078125,-36.1328125,-43.45703125,-13.671875,0.0
12.83203125,-35.64453125,-39.0625,-37.109375,-47.36328125,-63.4765625,0.0
12.8359375,-37.109375,-34.66796875,-29.78515625,-42.48046875,-24.90234375,0.0
12.83984375,-41.9921875,-36.1328125,-29.78515625,-38.57421875,10.7421875,0.0
12.84375,-47.36328125,-45.41015625,-37.59765625,-35.64453125,-49.31640625,0.0
12.84765625,-42.96875,-46.38671875,-38.0859375,-37.109375,-29.78515625,0.0
12.8515625,-29.78515625,-36.62109375,-36.1328125,-39.0625,-32.71484375,0.0
12.85546875,-21.97265625,-27.83203125,-33.69140625,-33.69140625,-7.32421875,0.0
12.859375,-36.1328125,-35.15625,-34.66796875,-35.64453125,81.0546875,0.0
12.86328125,-45.8984375,-39.0625,-37.109375,-41.015625,38.0859375,0.0
12.8671875,-39.0625,-33.69140625,-33.69140625,-34.1796875,9.765625,0.0
12.87109375,-22.94921875,-29.78515625,-27.34375,-27.34375,23.92578125,0.0
12.875,-16.6015625,-32.2265625,-27.34375,-26.3671875,-38.57421875,0.0
12.87890625,-26.85546875,-40.0390625,-24.4140625,-24.90234375,-59.5703125,0.0
12.8828125,-40.0390625,-35.15625,-21.97265625,-20.01953125,36.1328125,0.0
12.88671875,-43.45703125,-34.1796875,-28.80859375,-28.80859375,26.85546875,0.0
12.890625,-32.2265625,-36.62109375,-33.69140625,-40.0390625,-86.9140625,0.0
12.89453125,-26.85546875,-34.66796875,-31.25,-41.015625,-76.171875,0.0
12.8984375,-28.80859375,-34.66796875,-29.296875,-37.109375,35.64453125,0.0
12.90234375,-35.64453125,-42.96875,-30.76171875,-30.2734375,32.71484375,0.0
12.90625,-42.96875,-51.26953125,-30.2734375,-35.15625,-31.73828125,0.0
12.91015625,-33.203125,-42.96875,-24.4140625,-34.66796875,-42.48046875,0.0
12.9140625,-31.73828125,-36.62109375,-26.3671875,-36.1328125,-98.14453125,0.0
12.91796875,-42.96875,-37.59765625,-25.87890625,-32.71484375,-216.796875,0.0
12.921875,-52.734375,-46.875,-19.53125,-25.390625,-138.671875,0.0
12.92578125,-51.7578125,-46.875,-20.5078125,-30.2734375,-13.671875,0.0
12.9296875,-41.015625,-39.55078125,-26.3671875,-39.55078125,-11.71875,0.0
12.93359375,-32.71484375,-37.109375,-26.85546875,-40.52734375,10.25390625,0.0
12.9375,-41.015625,-43.9453125,-29.296875,-41.50390625,13.671875,0.0
12.94140625,-54.6875,-47.8515625,-34.66796875,-40.0390625,-23.92578125,0.0
12.9453125,-52.734375,-48.33984375,-40.52734375,-38.0859375,-56.640625,0.0
12.94921875,-38.0859375,-45.8984375,-35.64453125,-39.0625,-69.3359375,0.0
12.953125,-27.34375,-39.0625,-24.90234375,-39.0625,-65.4296875,0.0
12.95703125,-31.73828125,-34.66796875,-22.4609375,-37.109375,-9.765625,0.0
12.9609375,-51.7578125,-39.0625,-25.87890625,-36.62109375,-8.30078125,0.0
12.96484375,-59.08203125,-50.78125,-31.25,-40.52734375,-104.98046875,0.0
12.96875,-48.33984375,-50.78125,-30.2734375,-39.0625,-153.3203125,0.0
12.97265625,-35.15625,-41.9921875,-30.2734375,-34.66796875,-89.84375,0.0
12.9765625,-39.0625,-46.38671875,-37.109375,-38.0859375,-0.9765625,0.0
12.98046875,-51.7578125,-52.24609375,-39.0625,-41.50390625,23.4375,0.0
12.984375,-54.6875,-52.24609375,-36.62109375,-41.015625,20.5078125,0.0
12.98828125,-42.96875,-44.921875,-34.66796875,-45.41015625,34.66796875,0.0
12.9921875,-31.25,-41.50390625,-32.2265625,-48.33984375,-55.6640625,0.0
12.99609375,-30.2734375,-41.015625,-30.2734375,-42.96875,-85.44921875,0.0
13.0,-40.52734375,-44.43359375,-32.71484375,-40.52734375,-7.8125,0.0
13.00390625,-49.8046875,-48.828125,-32.2265625,-43.9453125,-44.921875,0.0
13.0078125,-41.015625,-42.48046875,-30.76171875,-51.26953125,-62.5,0.0
13.01171875,-32.2265625,-39.55078125,-29.296875,-46.875,-42.96875,0.0
13.015625,-29.296875,-41.50390625,-24.90234375,-37.109375,-42.48046875,0.0
13.01953125,-41.50390625,-43.45703125,-30.2734375,-35.64453125,-35.64453125,0.0
13.0234375,-55.17578125,-48.33984375,-38.57421875,-38.57421875,-122.55859375,0.0
13.02734375,-44.43359375,-44.43359375,-41.015625,-43.45703125,-73.2421875,0.0
13.03125,-30.76171875,-39.0625,-38.0859375,-43.45703125,58.10546875,0.0
13.03515625,-29.296875,-37.109375,-33.69140625,-39.55078125,68.359375,0.0
13.0390625,-40.0390625,-40.0390625,-37.59765625,-44.43359375,-1.46484375,0.0
13.04296875,-51.26953125,-44.921875,-42.48046875,-47.36328125,-76.171875,0.0
13.046875,-48.828125,-42.48046875,-38.57421875,-43.45703125,-22.4609375,0.0
13.05078125,-34.1796875,-35.15625,-36.62109375,-45.8984375,-15.13671875,0.0
13.0546875,-27.34375,-31.25,-36.1328125,-48.33984375,-103.515625,0.0
13.05859375,-30.2734375,-35.15625,-32.2265625,-42.48046875,-154.78515625,0.0
13.0625,-37.109375,-38.0859375,-34.66796875,-35.64453125,-85.44921875,0.0
13.06640625,-44.921875,-39.55078125,-41.9921875,-49.8046875,-4.8828125,0.0
13.0703125,-31.73828125,-37.59765625,-40.0390625,-54.6875,-14.6484375,0.0
13.07421875,-12.20703125,-33.203125,-38.57421875,-37.109375,-13.671875,0.0
13.078125,-19.53125,-34.66796875,-37.109375,-32.2265625,-1.46484375,0.0
13.08203125,-28.80859375,-36.62109375,-34.1796875,-25.390625,-54.6875,0.0
13.0859375,-19.53125,-28.80859375,-28.80859375,-20.5078125,-127.9296875,0.0
13.08984375,-12.6953125,-30.2734375,-29.296875,-28.80859375,-44.921875,0.0
13.09375,-14.16015625,-34.66796875,-33.69140625,-32.2265625,41.50390625,0.0
13.09765625,-23.92578125,-34.66796875,-29.78515625,-30.76171875,16.6015625,0.0
13.1015625,-35.64453125,-32.71484375,-30.2734375,-26.85546875,-6.34765625,0.0
13.10546875,-35.15625,-30.2734375,-33.203125,-20.99609375,-62.5,0.0
13.109375,-27.34375,-34.66796875,-35.64453125,-28.80859375,-78.61328125,0.0
13.11328125,-20.01953125,-30.2734375,-37.59765625,-37.109375,-17.578125,0.0
13.1171875,-20.01953125,-28.3203125,-33.203125,-34.1796875,-51.7578125,0.0
13.12109375,-31.25,-33.203125,-30.76171875,-24.4140625,-77.63671875,0.0
13.125,-37.109375,-34.1796875,-36.1328125,-24.4140625,52.734375,0.0
13.12890625,-31.73828125,-35.64453125,-34.66796875,-33.203125,72.265625,0.0
13.1328125,-23.92578125,-28.3203125,-25.390625,-28.80859375,12.6953125,0.0
13.13671875,-19.53125,-24.4140625,-20.01953125,-20.5078125,50.78125,0.0
13.140625,-24.4140625,-26.3671875,-18.06640625,-14.16015625,56.15234375,0.0
13.14453125,-32.2265625,-26.85546875,-23.92578125,-20.5078125,-31.73828125,0.0
13.1484375,-33.203125,-28.80859375,-25.390625,-30.2734375,-24.90234375,0.0
13.15234375,-23.4375,-29.296875,-25.390625,-21.484375,3.90625,0.0
13.15625,-17.578125,-28.3203125,-23.4375,-19.04296875,11.23046875,0.0
13.16015625,-26.3671875,-32.71484375,-19.04296875,-23.4375,13.18359375,0.0
13.1640625,-33.203125,-41.50390625,-24.90234375,-23.4375,-69.82421875,0.0
13.16796875,-23.92578125,-35.15625,-29.78515625,-27.83203125,-77.63671875,0.0
13.171875,-20.5078125,-22.4609375,-24.90234375,-27.83203125,-12.6953125,0.0
13.17578125,-19.04296875,-22.4609375,-20.5078125,-25.390625,-26.3671875,0.0
13.1796875,-25.390625,-35.64453125,-26.85546875,-27.83203125,-54.19921875,0.0
13.18359375,-40.52734375,-41.015625,-33.203125,-29.296875,-21.97265625,0.0
13.1875,-37.59765625,-33.203125,-35.64453125,-33.203125,24.4140625,0.0
13.19140625,-23.92578125,-33.203125,-33.69140625,-37.109375,55.6640625,0.0
13.1953125,-22.94921875,-35.15625,-34.1796875,-39.55078125,50.29296875,0.0
13.19921875,-33.203125,-39.0625,-33.69140625,-35.15625,15.13671875,0.0
13.203125,-40.52734375,-47.36328125,-35.15625,-35.15625,23.92578125,0.0
13.20703125,-35.15625,-42.48046875,-35.64453125,-37.109375,-6.34765625,0.0
13.2109375,-20.99609375,-35.15625,-34.1796875,-37.59765625,-42.48046875,0.0
13.21484375,-14.6484375,-32.2265625,-37.109375,-35.15625,-39.0625,0.0
13.21875,-27.34375,-37.109375,-33.203125,-32.2265625,-67.87109375,0.0
13.22265625,-41.015625,-42.48046875,-23.4375,-34.1796875,-49.31640625,0.0
13.2265625,-34.66796875,-36.1328125,-25.87890625,-37.109375,4.39453125,0.0
13.23046875,-20.01953125,-31.73828125,-25.87890625,-29.78515625,-23.4375,0.0
13.234375,-19.53125,-32.2265625,-30.76171875,-31.73828125,-62.01171875,0.0
13.23828125,-22.4609375,-27.83203125,-24.4140625,-31.25,-103.515625,0.0
13.2421875,-39.0625,-33.69140625,-28.3203125,-30.2734375,-120.1171875,0.0
13.24609375,-46.38671875,-38.0859375,-42.96875,-34.1796875,-125.9765625,0.0
13.25,-26.85546875,-33.203125,-36.62109375,-37.59765625,-75.68359375,0.0
13.25390625,-20.01953125,-30.76171875,-27.34375,-37.59765625,20.5078125,0.0
13.2578125,-29.78515625,-28.3203125,-25.390625,-30.2734375,29.296875,0.0
13.26171875,-40.52734375,-34.66796875,-24.4140625,-28.3203125,-27.34375,0.0
13.265625,-46.38671875,-41.50390625,-30.2734375,-32.71484375,-19.53125,0.0
13.26953125,-35.15625,-29.78515625,-32.71484375,-34.1796875,-9.765625,0.0
13.2734375,-16.11328125,-17.578125,-27.34375,-26.3671875,-18.5546875,0.0
13.27734375,-23.92578125,-24.90234375,-30.2734375,-22.4609375,-57.6171875,0.0
13.28125,-38.0859375,-32.2265625,-32.2265625,-23.92578125,-105.95703125,0.0
13.28515625,-37.109375,-28.3203125,-30.76171875,-20.01953125,-54.6875,0.0
13.2890625,-27.83203125,-26.3671875,-32.2265625,-25.87890625,-39.0625,0.0
13.29296875,-17.578125,-26.85546875,-28.80859375,-30.76171875,-75.1953125,0.0
13.296875,-20.99609375,-31.25,-20.99609375,-32.71484375,-81.0546875,0.0
13.30078125,-27.34375,-28.3203125,-18.5546875,-29.78515625,8.30078125,0.0
13.3046875,-28.80859375,-32.2265625,-22.4609375,-28.3203125,-7.8125,0.0
