timestam,TP9,AF7,AF8,TP10,AUX,Marker
97.00390625,-33.69140625,-40.0390625,-19.53125,-32.2265625,4.39453125,0.0
97.0078125,-35.15625,-33.69140625,-20.5078125,-37.109375,75.1953125,0.0
97.01171875,-42.48046875,-37.59765625,-33.203125,-43.9453125,-26.85546875,0.0
97.015625,-28.80859375,-33.203125,-20.5078125,-20.99609375,-107.421875,0.0
97.01953125,-2.44140625,-18.06640625,-1.953125,-0.9765625,-110.3515625,0.0
97.0234375,-18.06640625,-38.0859375,-24.4140625,-33.203125,-106.93359375,0.0
97.02734375,-37.109375,-52.734375,-49.31640625,-51.7578125,-141.11328125,0.0
97.03125,-47.36328125,-45.8984375,-46.875,-45.41015625,-87.890625,0.0
97.03515625,-57.12890625,-46.38671875,-36.1328125,-47.36328125,14.6484375,0.0
97.0390625,-49.31640625,-44.43359375,-38.57421875,-50.29296875,61.5234375,0.0
97.04296875,-47.8515625,-45.8984375,-46.38671875,-54.19921875,75.1953125,0.0
97.046875,-51.7578125,-47.36328125,-46.875,-54.19921875,81.54296875,0.0
97.05078125,-42.96875,-36.1328125,-34.66796875,-41.9921875,154.296875,0.0
97.0546875,-38.0859375,-31.73828125,-26.85546875,-36.1328125,120.60546875,0.0
97.05859375,-43.45703125,-33.69140625,-31.25,-45.8984375,33.203125,0.0
97.0625,-38.57421875,-32.2265625,-30.76171875,-41.9921875,91.796875,0.0
97.06640625,-25.87890625,-34.66796875,-33.69140625,-33.69140625,131.8359375,0.0
97.0703125,-30.2734375,-36.62109375,-38.0859375,-34.1796875,113.28125,0.0
97.07421875,-51.26953125,-44.43359375,-47.8515625,-39.55078125,85.44921875,0.0
97.078125,-57.6171875,-54.6875,-48.33984375,-47.36328125,28.3203125,0.0
97.08203125,-40.0390625,-47.8515625,-35.15625,-42.96875,-42.48046875,0.0
97.0859375,-24.90234375,-33.69140625,-36.62109375,-37.109375,-22.94921875,0.0
97.08984375,-37.59765625,-32.71484375,-34.1796875,-37.59765625,21.97265625,0.0
97.09375,-39.0625,-32.2265625,-30.76171875,-26.85546875,33.203125,0.0
97.09765625,-29.78515625,-25.390625,-27.83203125,-19.53125,113.76953125,0.0
97.1015625,-37.59765625,-31.25,-37.109375,-33.69140625,80.56640625,0.0
97.10546875,-16.6015625,-22.94921875,-32.71484375,-23.92578125,-51.7578125,0.0
97.109375,-18.5546875,-33.203125,-24.90234375,-23.92578125,-42.48046875,0.0
97.11328125,-45.8984375,-45.41015625,-32.71484375,-36.1328125,-13.671875,0.0
97.1171875,-43.45703125,-33.69140625,-24.90234375,-35.15625,29.296875,0.0
97.12109375,-43.45703125,-41.9921875,-28.3203125,-48.33984375,63.96484375,0.0
97.125,-41.015625,-43.45703125,-38.57421875,-53.22265625,-34.66796875,0.0
97.12890625,-30.2734375,-29.78515625,-27.83203125,-37.59765625,-47.8515625,0.0
97.1328125,-32.2265625,-31.25,-23.4375,-31.25,-69.82421875,0.0
97.13671875,-38.57421875,-34.1796875,-29.78515625,-39.55078125,-160.15625,0.0
97.140625,-35.64453125,-32.2265625,-30.76171875,-40.0390625,-92.7734375,0.0
97.14453125,-34.1796875,-30.2734375,-33.69140625,-40.0390625,18.06640625,0.0
97.1484375,-18.06640625,-12.20703125,-24.4140625,-25.390625,44.921875,0.0
97.15234375,-10.7421875,-8.30078125,-16.6015625,-12.6953125,-9.27734375,0.0
97.15625,-36.62109375,-36.1328125,-25.87890625,-26.85546875,-82.51953125,0.0
97.16015625,-47.8515625,-54.6875,-31.25,-38.0859375,-55.6640625,0.0
97.1640625,-32.71484375,-36.62109375,-30.76171875,-33.203125,3.90625,0.0
97.16796875,-24.90234375,-25.87890625,-38.0859375,-36.62109375,-37.59765625,0.0
97.171875,-42.96875,-39.55078125,-34.66796875,-44.921875,-40.0390625,0.0
97.17578125,-54.19921875,-40.52734375,-22.94921875,-39.55078125,68.84765625,0.0
97.1796875,-43.45703125,-36.62109375,-26.3671875,-37.109375,84.9609375,0.0
97.18359375,-27.34375,-29.296875,-29.78515625,-36.1328125,10.25390625,0.0
97.1875,-17.08984375,-20.01953125,-23.4375,-24.90234375,-78.125,0.0
97.19140625,-33.69140625,-39.55078125,-28.80859375,-38.0859375,-183.10546875,0.0
97.1953125,-47.36328125,-41.50390625,-26.85546875,-37.109375,-250.9765625,0.0
97.19921875,-43.45703125,-38.57421875,-27.34375,-32.2265625,-207.03125,0.0
97.203125,-43.45703125,-45.41015625,-27.83203125,-46.875,-119.140625,0.0
97.20703125,-41.9921875,-43.9453125,-36.1328125,-52.24609375,-104.00390625,0.0
97.2109375,-43.45703125,-44.43359375,-47.8515625,-46.875,-87.40234375,0.0
97.21484375,-46.38671875,-39.0625,-43.9453125,-32.71484375,-125.48828125,0.0
97.21875,-42.48046875,-31.25,-33.203125,-29.78515625,-20.99609375,0.0
97.22265625,-30.2734375,-28.80859375,-23.4375,-30.2734375,123.53515625,0.0
97.2265625,-23.4375,-27.83203125,-23.92578125,-26.85546875,105.46875,0.0
97.23046875,-22.94921875,-19.04296875,-24.90234375,-17.08984375,96.6796875,0.0
97.234375,-44.921875,-34.66796875,-37.109375,-36.1328125,53.7109375,0.0
97.23828125,-51.26953125,-42.96875,-39.0625,-47.8515625,-18.5546875,0.0
97.2421875,-38.0859375,-33.69140625,-38.0859375,-40.52734375,-37.59765625,0.0
97.24609375,-33.69140625,-34.1796875,-41.50390625,-40.52734375,-27.34375,0.0
97.25,-38.57421875,-45.8984375,-36.62109375,-39.0625,8.30078125,0.0
97.25390625,-44.921875,-42.96875,-29.296875,-30.76171875,49.8046875,0.0
97.2578125,-51.7578125,-37.59765625,-32.71484375,-34.66796875,63.4765625,0.0
97.26171875,-36.62109375,-28.3203125,-28.80859375,-30.2734375,47.8515625,0.0
97.265625,-21.484375,-19.53125,-20.5078125,-24.90234375,76.171875,0.0
97.26953125,-31.73828125,-27.34375,-29.78515625,-40.0390625,140.13671875,0.0
97.2734375,-45.41015625,-30.2734375,-35.15625,-37.59765625,86.42578125,0.0
97.27734375,-58.10546875,-34.66796875,-38.0859375,-41.015625,-30.76171875,0.0
97.28125,-49.31640625,-43.9453125,-37.109375,-44.43359375,-82.51953125,0.0
97.28515625,-29.296875,-27.83203125,-31.25,-34.1796875,-41.50390625,0.0
97.2890625,-43.45703125,-22.4609375,-35.15625,-50.29296875,-18.5546875,0.0
97.29296875,-47.36328125,-22.94921875,-31.73828125,-49.8046875,-28.80859375,0.0
97.296875,-34.1796875,-18.5546875,-22.94921875,-33.203125,-74.70703125,0.0
97.30078125,-40.0390625,-24.4140625,-33.69140625,-42.48046875,-75.1953125,0.0
97.3046875,-49.31640625,-36.1328125,-57.12890625,-65.91796875,-36.1328125,0.0
97.30859375,-52.734375,-34.66796875,-50.78125,-66.89453125,-20.01953125,0.0
97.3125,-44.43359375,-25.390625,-31.25,-44.921875,-60.05859375,0.0
97.31640625,-50.29296875,-30.2734375,-34.1796875,-46.875,-16.6015625,0.0
97.3203125,-61.03515625,-43.45703125,-45.41015625,-64.453125,-39.55078125,0.0
97.32421875,-44.921875,-38.0859375,-40.0390625,-59.08203125,-97.16796875,0.0
97.328125,-29.78515625,-26.3671875,-24.90234375,-46.875,-34.1796875,0.0
97.33203125,-41.50390625,-29.296875,-31.25,-50.29296875,-40.52734375,0.0
97.3359375,-49.31640625,-32.71484375,-43.9453125,-54.6875,-56.15234375,0.0
97.33984375,-32.71484375,-28.80859375,-40.52734375,-40.52734375,37.59765625,0.0
97.34375,-26.3671875,-31.73828125,-45.41015625,-37.59765625,44.921875,0.0
97.34765625,-18.06640625,-24.4140625,-34.66796875,-29.296875,4.8828125,0.0
97.3515625,-10.7421875,-15.13671875,-20.99609375,-14.6484375,38.0859375,0.0
97.35546875,-42.96875,-43.9453125,-43.45703125,-36.62109375,9.765625,0.0
97.359375,-58.10546875,-61.03515625,-49.31640625,-56.640625,-84.47265625,0.0
97.36328125,-37.59765625,-45.8984375,-37.59765625,-48.33984375,-97.16796875,0.0
97.3671875,-21.484375,-24.90234375,-35.15625,-36.62109375,-90.33203125,0.0
97.37109375,-20.99609375,-21.97265625,-39.0625,-30.2734375,-53.7109375,0.0
97.375,-33.69140625,-34.1796875,-40.52734375,-32.2265625,-3.90625,0.0
97.37890625,-35.64453125,-30.76171875,-34.1796875,-37.59765625,-70.3125,0.0
97.3828125,-14.6484375,-12.6953125,-16.11328125,-28.80859375,-133.7890625,0.0
97.38671875,0.9765625,-5.859375,-4.8828125,-22.94921875,-83.0078125,0.0
97.390625,-5.37109375,-17.578125,-6.8359375,-26.3671875,-26.3671875,0.0
97.39453125,-28.3203125,-31.73828125,-18.5546875,-33.203125,-67.3828125,0.0
97.3984375,-22.94921875,-24.4140625,-25.87890625,-27.83203125,-109.86328125,0.0
97.40234375,-15.625,-33.203125,-34.1796875,-37.109375,-67.87109375,0.0
97.40625,-24.4140625,-44.43359375,-44.921875,-46.38671875,-9.27734375,0.0
97.41015625,-29.78515625,-41.50390625,-36.62109375,-44.921875,-12.20703125,0.0
97.4140625,-42.96875,-46.38671875,-38.0859375,-51.26953125,-37.109375,0.0
97.41796875,-30.76171875,-34.66796875,-33.203125,-40.52734375,-41.50390625,0.0
97.421875,-14.16015625,-21.484375,-26.3671875,-30.2734375,-19.04296875,0.0
97.42578125,-29.78515625,-28.3203125,-32.71484375,-45.41015625,-38.57421875,0.0
97.4296875,-36.62109375,-33.203125,-33.203125,-50.29296875,-19.53125,0.0
97.43359375,-37.59765625,-37.59765625,-33.69140625,-40.52734375,-39.55078125,0.0
97.4375,-32.2265625,-31.25,-25.87890625,-28.80859375,-56.640625,0.0
97.44140625,-32.2265625,-33.69140625,-28.3203125,-33.69140625,-64.453125,0.0
97.4453125,-31.73828125,-30.76171875,-22.94921875,-35.64453125,-56.640625,0.0
97.44921875,-19.04296875,-19.04296875,-12.20703125,-23.4375,-29.296875,0.0
97.453125,-25.87890625,-23.92578125,-26.85546875,-21.97265625,4.39453125,0.0
97.45703125,-37.59765625,-33.203125,-36.1328125,-31.25,1.953125,0.0
97.4609375,-41.015625,-41.50390625,-39.55078125,-42.96875,-56.640625,0.0
97.46484375,-26.85546875,-29.78515625,-26.3671875,-34.1796875,-29.78515625,0.0
97.46875,-20.99609375,-25.87890625,-14.16015625,-28.80859375,4.8828125,0.0
97.47265625,-38.57421875,-31.25,-19.53125,-37.59765625,-26.3671875,0.0
97.4765625,-41.015625,-20.99609375,-20.01953125,-27.83203125,-32.71484375,0.0
97.48046875,-26.3671875,-21.484375,-27.34375,-24.90234375,-81.54296875,0.0
97.484375,-19.04296875,-20.01953125,-25.390625,-26.85546875,-100.09765625,0.0
97.48828125,-16.11328125,-19.04296875,-19.04296875,-19.53125,-50.78125,0.0
97.4921875,-30.76171875,-32.71484375,-26.3671875,-27.34375,13.671875,0.0
97.49609375,-40.0390625,-37.109375,-31.25,-30.76171875,37.109375,0.0
97.5,-37.59765625,-35.64453125,-39.0625,-36.62109375,25.87890625,0.0
97.50390625,-33.69140625,-31.73828125,-39.0625,-39.55078125,112.79296875,0.0
97.5078125,-37.59765625,-34.66796875,-39.0625,-39.0625,105.46875,0.0
97.51171875,-46.875,-43.9453125,-37.59765625,-41.015625,65.4296875,0.0
97.515625,-43.9453125,-39.0625,-30.76171875,-36.1328125,-7.32421875,0.0
97.51953125,-44.43359375,-27.34375,-35.15625,-37.109375,-52.734375,0.0
97.5234375,-34.66796875,-21.484375,-33.203125,-33.69140625,-43.45703125,0.0
97.52734375,-18.5546875,-16.11328125,-20.99609375,-20.01953125,-43.9453125,0.0
97.53125,-21.97265625,-19.04296875,-17.08984375,-16.6015625,23.92578125,0.0
97.53515625,-33.203125,-20.5078125,-19.04296875,-21.484375,30.2734375,0.0
97.5390625,-34.1796875,-23.92578125,-27.83203125,-26.85546875,-4.8828125,0.0
97.54296875,-42.48046875,-39.0625,-43.9453125,-48.828125,6.8359375,0.0
97.546875,-54.19921875,-53.22265625,-41.9921875,-64.94140625,-37.59765625,0.0
97.55078125,-52.24609375,-49.8046875,-31.25,-51.7578125,-59.08203125,0.0
97.5546875,-54.19921875,-44.43359375,-33.69140625,-39.55078125,-46.38671875,0.0
97.55859375,-55.6640625,-42.96875,-35.15625,-36.1328125,-28.80859375,0.0
97.5625,-52.24609375,-43.45703125,-31.73828125,-38.57421875,-35.64453125,0.0
97.56640625,-35.15625,-36.1328125,-24.90234375,-34.1796875,-118.1640625,0.0
97.5703125,-25.390625,-25.390625,-6.34765625,-26.3671875,-115.72265625,0.0
97.57421875,-28.80859375,-28.3203125,-3.90625,-17.08984375,-139.6484375,0.0
97.578125,-37.109375,-39.55078125,-25.390625,-22.94921875,-141.11328125,0.0
97.58203125,-32.71484375,-32.71484375,-38.57421875,-27.34375,-17.08984375,0.0
97.5859375,-15.625,-20.99609375,-28.80859375,-16.11328125,34.66796875,0.0
97.58984375,-8.7890625,-19.04296875,-13.671875,-7.32421875,-20.99609375,0.0
97.59375,-35.64453125,-32.2265625,-20.99609375,-24.4140625,1.953125,0.0
97.59765625,-58.59375,-55.17578125,-43.45703125,-51.7578125,9.27734375,0.0
97.6015625,-45.41015625,-53.22265625,-44.43359375,-51.7578125,-18.5546875,0.0
97.60546875,-33.69140625,-44.43359375,-42.48046875,-46.38671875,-42.48046875,0.0
97.609375,-28.80859375,-35.15625,-42.96875,-39.55078125,-98.14453125,0.0
97.61328125,-29.296875,-30.2734375,-44.43359375,-29.78515625,-151.3671875,0.0
97.6171875,-16.6015625,-20.99609375,-22.94921875,-13.18359375,-165.52734375,0.0
97.62109375,-9.27734375,-15.625,-6.8359375,-10.25390625,-140.13671875,0.0
97.625,-15.13671875,-27.34375,-22.4609375,-23.4375,-50.29296875,0.0
97.62890625,-9.27734375,-16.11328125,-18.5546875,-13.671875,59.08203125,0.0
97.6328125,-38.0859375,-37.59765625,-39.0625,-31.25,87.890625,0.0
97.63671875,-55.17578125,-53.7109375,-44.43359375,-44.43359375,-22.4609375,0.0
97.640625,-47.8515625,-38.0859375,-35.64453125,-34.66796875,-94.23828125,0.0
97.64453125,-44.43359375,-35.64453125,-37.109375,-36.1328125,-82.51953125,0.0
97.6484375,-23.4375,-22.4609375,-21.484375,-19.04296875,-73.2421875,0.0
97.65234375,-28.3203125,-23.92578125,-24.4140625,-18.5546875,-15.625,0.0
97.65625,-36.1328125,-33.203125,-32.71484375,-17.08984375,20.99609375,0.0
97.66015625,-35.64453125,-38.0859375,-35.15625,-21.484375,17.08984375,0.0
97.6640625,-43.45703125,-45.41015625,-37.109375,-44.43359375,-44.921875,0.0
97.66796875,-43.45703125,-32.71484375,-28.3203125,-37.59765625,-97.65625,0.0
97.671875,-47.8515625,-30.76171875,-32.71484375,-32.2265625,-62.5,0.0
97.67578125,-61.5234375,-43.9453125,-46.38671875,-45.8984375,-26.85546875,0.0
97.6796875,-55.6640625,-44.921875,-44.43359375,-44.921875,-10.25390625,0.0
97.68359375,-38.0859375,-37.59765625,-34.1796875,-39.0625,-1.953125,0.0
97.6875,-22.94921875,-26.3671875,-17.08984375,-31.25,-52.24609375,0.0
97.69140625,-36.62109375,-30.2734375,-30.2734375,-35.64453125,-56.640625,0.0
97.6953125,-57.6171875,-39.0625,-46.875,-43.9453125,-22.94921875,0.0
97.69921875,-42.48046875,-25.87890625,-22.94921875,-24.4140625,-6.34765625,0.0
97.703125,-34.66796875,-23.4375,-14.16015625,-23.4375,-16.11328125,0.0
97.70703125,-38.57421875,-28.3203125,-28.3203125,-29.78515625,-126.953125,0.0
97.7109375,-39.55078125,-26.85546875,-39.0625,-24.4140625,-200.1953125,0.0
97.71484375,-67.3828125,-55.17578125,-59.5703125,-55.17578125,-167.96875,0.0
97.71875,-79.1015625,-65.4296875,-71.2890625,-70.3125,-118.1640625,0.0
97.72265625,-52.734375,-43.45703125,-56.640625,-57.6171875,-124.0234375,0.0
97.7265625,-35.64453125,-33.203125,-36.62109375,-48.828125,-23.92578125,0.0
97.73046875,-41.015625,-29.296875,-26.85546875,-39.0625,89.84375,0.0
97.734375,-42.96875,-31.25,-22.94921875,-40.52734375,30.2734375,0.0
97.73828125,-31.25,-28.80859375,-24.90234375,-42.96875,-37.59765625,0.0
97.7421875,-26.3671875,-24.90234375,-26.85546875,-44.921875,-56.640625,0.0
97.74609375,-26.3671875,-24.90234375,-27.34375,-45.8984375,-42.96875,0.0
97.75,-30.76171875,-26.3671875,-39.0625,-41.50390625,-70.3125,0.0
97.75390625,-20.5078125,-9.765625,-17.578125,-18.5546875,-177.734375,0.0
97.7578125,-29.296875,-18.06640625,-20.01953125,-26.85546875,-140.13671875,0.0
97.76171875,-48.828125,-41.015625,-42.96875,-56.15234375,12.6953125,0.0
97.765625,-53.22265625,-49.8046875,-53.7109375,-68.84765625,94.23828125,0.0
97.76953125,-37.109375,-41.9921875,-47.8515625,-51.7578125,74.21875,0.0
97.7734375,-18.5546875,-33.203125,-25.390625,-23.92578125,-17.578125,0.0
97.77734375,-39.55078125,-46.38671875,-30.2734375,-38.57421875,-86.9140625,0.0
97.78125,-38.0859375,-44.921875,-32.71484375,-38.57421875,-85.44921875,0.0
97.78515625,-0.48828125,-12.6953125,-4.39453125,-5.859375,-82.03125,0.0
97.7890625,-8.30078125,-13.671875,-5.859375,-11.23046875,-40.52734375,0.0
97.79296875,-39.55078125,-38.57421875,-28.3203125,-29.78515625,19.53125,0.0
97.796875,-23.4375,-29.296875,-27.34375,-12.20703125,-23.92578125,0.0
97.80078125,-14.6484375,-20.5078125,-23.4375,-11.71875,-36.62109375,0.0
97.8046875,-30.2734375,-36.62109375,-31.25,-33.69140625,-73.73046875,0.0
97.80859375,-36.62109375,-41.9921875,-41.9921875,-37.59765625,-49.31640625,0.0
97.8125,-39.0625,-43.9453125,-44.921875,-36.1328125,33.69140625,0.0
97.81640625,-36.1328125,-44.43359375,-45.41015625,-29.296875,-14.16015625,0.0
97.8203125,-26.85546875,-43.45703125,-30.2734375,-25.390625,-41.50390625,0.0
97.82421875,-12.20703125,-29.296875,-13.18359375,-21.484375,-6.8359375,0.0
97.828125,-11.71875,-22.4609375,-14.6484375,-19.53125,-23.92578125,0.0
97.83203125,-27.83203125,-42.48046875,-29.78515625,-27.34375,-66.89453125,0.0
97.8359375,-35.64453125,-45.8984375,-34.1796875,-33.203125,3.41796875,0.0
97.83984375,-31.73828125,-39.55078125,-26.85546875,-31.25,15.625,0.0
97.84375,-16.6015625,-31.73828125,-19.04296875,-20.01953125,-44.921875,0.0
97.84765625,-21.484375,-33.203125,-25.390625,-23.92578125,-57.6171875,0.0
97.8515625,-31.73828125,-35.15625,-28.3203125,-30.76171875,-77.63671875,0.0
97.85546875,-30.2734375,-24.90234375,-25.390625,-26.85546875,-7.8125,0.0
97.859375,-33.203125,-34.66796875,-35.15625,-31.73828125,45.8984375,0.0
97.86328125,-23.4375,-34.1796875,-35.15625,-33.203125,19.53125,0.0
97.8671875,-11.23046875,-20.01953125,-20.5078125,-32.71484375,52.24609375,0.0
97.87109375,-21.97265625,-25.87890625,-27.34375,-38.57421875,35.64453125,0.0
97.875,-37.59765625,-35.15625,-35.64453125,-45.41015625,-42.96875,0.0
97.87890625,-42.48046875,-33.69140625,-25.390625,-44.43359375,-63.96484375,0.0
97.8828125,-41.9921875,-37.59765625,-21.484375,-45.8984375,-54.19921875,0.0
97.88671875,-34.66796875,-39.0625,-22.4609375,-48.33984375,4.39453125,0.0
97.890625,-36.1328125,-36.62109375,-26.3671875,-43.9453125,13.671875,0.0
97.89453125,-39.0625,-27.83203125,-16.6015625,-31.25,-52.24609375,0.0
97.8984375,-50.78125,-29.78515625,-28.3203125,-39.55078125,-59.5703125,0.0
97.90234375,-48.828125,-31.73828125,-40.0390625,-51.26953125,-93.26171875,0.0
97.90625,-35.64453125,-34.1796875,-28.80859375,-45.8984375,-141.11328125,0.0
97.91015625,-30.76171875,-34.66796875,-19.04296875,-38.0859375,-88.37890625,0.0
97.9140625,-30.2734375,-27.34375,-13.671875,-27.34375,10.25390625,0.0
97.91796875,-44.921875,-37.109375,-23.92578125,-30.76171875,-22.4609375,0.0
97.921875,-49.8046875,-49.8046875,-33.203125,-44.921875,-27.34375,0.0
97.92578125,-36.1328125,-39.55078125,-26.85546875,-41.015625,-10.7421875,0.0
97.9296875,-38.0859375,-42.96875,-35.15625,-38.0859375,-57.12890625,0.0
97.93359375,-49.8046875,-49.31640625,-40.0390625,-41.015625,-119.140625,0.0
97.9375,-60.546875,-49.8046875,-41.015625,-43.9453125,-90.33203125,0.0
97.94140625,-49.31640625,-41.9921875,-35.15625,-43.45703125,-62.98828125,0.0
97.9453125,-25.87890625,-28.3203125,-26.3671875,-36.1328125,-23.92578125,0.0
97.94921875,-36.1328125,-32.71484375,-32.71484375,-35.15625,-18.5546875,0.0
97.953125,-51.26953125,-47.36328125,-26.3671875,-40.0390625,-118.65234375,0.0
97.95703125,-51.26953125,-55.6640625,-27.34375,-39.55078125,-30.76171875,0.0
97.9609375,-39.55078125,-44.921875,-31.73828125,-33.69140625,45.8984375,0.0
97.96484375,-14.6484375,-22.94921875,-21.484375,-23.4375,36.62109375,0.0
97.96875,-10.7421875,-15.13671875,-23.92578125,-21.484375,0.0,0.0
97.97265625,-34.1796875,-29.296875,-37.109375,-30.2734375,41.015625,0.0
97.9765625,-43.45703125,-41.015625,-32.2265625,-35.15625,42.48046875,0.0
97.98046875,-44.43359375,-41.015625,-27.34375,-44.921875,-41.9921875,0.0
97.984375,-50.78125,-44.43359375,-36.1328125,-50.78125,-89.35546875,0.0
97.98828125,-41.9921875,-37.109375,-28.80859375,-36.1328125,-55.6640625,0.0
97.9921875,-39.55078125,-27.34375,-25.87890625,-30.2734375,-24.90234375,0.0
97.99609375,-39.55078125,-25.87890625,-35.64453125,-32.2265625,-64.94140625,0.0
98.0,-39.55078125,-36.1328125,-41.015625,-38.0859375,-58.59375,0.0
98.00390625,-41.015625,-44.43359375,-38.57421875,-44.921875,-19.53125,0.0
98.0078125,-47.36328125,-51.26953125,-38.0859375,-57.6171875,-98.14453125,0.0
98.01171875,-41.9921875,-46.875,-24.4140625,-46.875,-210.9375,0.0
98.015625,-32.71484375,-35.15625,-23.92578125,-28.80859375,-118.65234375,0.0
98.01953125,-43.45703125,-46.38671875,-39.55078125,-43.9453125,-81.54296875,0.0
98.0234375,-40.0390625,-50.29296875,-37.59765625,-53.7109375,-55.6640625,0.0
98.02734375,-20.99609375,-34.66796875,-24.90234375,-41.015625,15.13671875,0.0
98.03125,-10.7421875,-20.01953125,-7.8125,-15.13671875,84.9609375,0.0
98.03515625,-27.34375,-25.87890625,-22.4609375,-27.34375,0.9765625,0.0
98.0390625,-53.7109375,-40.0390625,-45.41015625,-60.546875,-89.35546875,0.0
98.04296875,-49.8046875,-40.52734375,-46.875,-59.5703125,-71.77734375,0.0
98.046875,-37.109375,-41.50390625,-48.828125,-58.59375,-15.625,0.0
98.05078125,-27.34375,-30.2734375,-34.66796875,-37.109375,40.52734375,0.0
98.0546875,-36.62109375,-32.71484375,-30.2734375,-34.1796875,35.15625,0.0
98.05859375,-44.43359375,-39.55078125,-39.0625,-42.96875,18.06640625,0.0
98.0625,-14.6484375,-11.71875,-17.578125,-10.7421875,21.484375,0.0
98.06640625,-12.20703125,-12.6953125,-14.6484375,-13.671875,32.2265625,0.0
98.0703125,-36.62109375,-35.64453125,-28.80859375,-38.57421875,35.15625,0.0
98.07421875,-42.48046875,-40.52734375,-29.296875,-39.0625,62.98828125,0.0
98.078125,-43.45703125,-40.52734375,-34.66796875,-40.0390625,26.3671875,0.0
98.08203125,-40.52734375,-37.109375,-35.64453125,-42.96875,12.20703125,0.0
98.0859375,-36.1328125,-43.45703125,-38.57421875,-49.8046875,56.15234375,0.0
98.08984375,-22.94921875,-34.66796875,-34.66796875,-33.203125,32.71484375,0.0
98.09375,-31.73828125,-38.0859375,-38.57421875,-25.390625,4.8828125,0.0
98.09765625,-47.8515625,-52.734375,-47.36328125,-35.15625,-13.18359375,0.0
98.1015625,-27.34375,-37.109375,-22.4609375,-26.85546875,-91.796875,0.0
98.10546875,-13.671875,-26.3671875,-11.71875,-20.01953125,-191.40625,0.0
98.109375,-21.97265625,-33.203125,-21.97265625,-24.4140625,-195.80078125,0.0
98.11328125,-37.109375,-35.64453125,-28.80859375,-31.73828125,-47.36328125,0.0
98.1171875,-49.31640625,-40.0390625,-37.59765625,-35.64453125,8.7890625,0.0
98.12109375,-34.1796875,-29.296875,-19.53125,-28.3203125,-57.12890625,0.0
98.125,-20.99609375,-22.94921875,-18.5546875,-23.4375,-126.953125,0.0
98.12890625,-35.64453125,-35.64453125,-47.8515625,-34.1796875,-90.8203125,0.0
98.1328125,-40.0390625,-33.203125,-36.1328125,-30.76171875,11.23046875,0.0
98.13671875,-42.48046875,-39.0625,-13.18359375,-34.1796875,9.27734375,0.0
98.140625,-39.0625,-45.41015625,-11.71875,-35.64453125,-24.90234375,0.0
98.14453125,-37.59765625,-48.828125,-25.390625,-47.36328125,-18.06640625,0.0
98.1484375,-32.71484375,-43.45703125,-28.3203125,-51.7578125,-19.53125,0.0
98.15234375,-28.80859375,-30.76171875,-21.97265625,-32.2265625,-38.57421875,0.0
98.15625,-37.109375,-31.73828125,-27.34375,-29.78515625,-62.98828125,0.0
98.16015625,-39.55078125,-41.50390625,-37.109375,-36.1328125,-31.73828125,0.0
98.1640625,-27.34375,-34.66796875,-38.57421875,-26.85546875,-34.66796875,0.0
98.16796875,-16.11328125,-19.04296875,-33.203125,-20.01953125,-58.10546875,0.0
98.171875,-35.15625,-34.66796875,-34.66796875,-36.1328125,-79.1015625,0.0
98.17578125,-57.6171875,-50.78125,-46.38671875,-48.33984375,-6.8359375,0.0
98.1796875,-58.10546875,-50.29296875,-51.26953125,-52.24609375,-19.04296875,0.0
98.18359375,-41.9921875,-37.59765625,-36.1328125,-47.36328125,-31.25,0.0
98.1875,-33.203125,-35.15625,-32.2265625,-41.015625,-10.25390625,0.0
98.19140625,-40.52734375,-40.0390625,-37.109375,-38.57421875,-64.453125,0.0
98.1953125,-50.78125,-39.55078125,-39.0625,-37.59765625,-51.7578125,0.0
98.19921875,-48.33984375,-35.64453125,-36.1328125,-35.15625,0.9765625,0.0
98.203125,-37.109375,-39.0625,-35.15625,-40.52734375,-23.4375,0.0
98.20703125,-41.50390625,-41.9921875,-43.9453125,-47.36328125,28.80859375,0.0
98.2109375,-41.50390625,-36.1328125,-39.0625,-41.50390625,120.1171875,0.0
98.21484375,-46.38671875,-40.0390625,-38.0859375,-45.8984375,26.3671875,0.0
98.21875,-44.921875,-37.109375,-35.64453125,-41.015625,-74.21875,0.0
98.22265625,-29.296875,-23.92578125,-28.3203125,-31.25,-51.26953125,0.0
98.2265625,-20.01953125,-20.5078125,-26.3671875,-29.296875,-79.1015625,0.0
98.23046875,-22.94921875,-22.4609375,-24.4140625,-22.4609375,-72.75390625,0.0
98.234375,-39.55078125,-35.15625,-41.9921875,-31.25,-64.453125,0.0
98.23828125,-50.29296875,-48.33984375,-47.36328125,-45.8984375,-132.8125,0.0
98.2421875,-46.38671875,-43.45703125,-45.8984375,-48.828125,-62.98828125,0.0
98.24609375,-33.203125,-32.2265625,-44.43359375,-41.9921875,-16.11328125,0.0
98.25,-21.97265625,-26.85546875,-32.2265625,-29.296875,28.80859375,0.0
98.25390625,-41.50390625,-41.9921875,-40.0390625,-40.52734375,13.18359375,0.0
98.2578125,-50.78125,-46.875,-33.69140625,-46.875,-24.4140625,0.0
98.26171875,-30.2734375,-33.203125,-21.484375,-36.1328125,-4.39453125,0.0
98.265625,-17.578125,-30.2734375,-23.4375,-36.1328125,-20.99609375,0.0
98.26953125,-28.3203125,-37.109375,-21.97265625,-42.96875,-29.78515625,0.0
98.2734375,-41.015625,-35.15625,-27.83203125,-39.55078125,-56.640625,0.0
98.27734375,-47.8515625,-38.57421875,-36.1328125,-44.43359375,-20.99609375,0.0
98.28125,-44.43359375,-44.921875,-42.48046875,-45.41015625,-13.18359375,0.0
98.28515625,-34.66796875,-40.52734375,-46.38671875,-40.0390625,-7.8125,0.0
98.2890625,-29.78515625,-33.69140625,-48.828125,-39.0625,94.7265625,0.0
98.29296875,-28.80859375,-27.83203125,-37.59765625,-26.85546875,49.31640625,0.0
98.296875,-28.3203125,-18.5546875,-11.71875,-15.625,-100.5859375,0.0
98.30078125,-49.8046875,-33.203125,-18.5546875,-46.38671875,-53.22265625,0.0
98.3046875,-42.96875,-36.62109375,-19.04296875,-48.33984375,-48.33984375,0.0
98.30859375,-7.8125,-18.06640625,-3.41796875,-21.97265625,-106.4453125,0.0
98.3125,-26.85546875,-29.296875,-19.53125,-32.2265625,-207.51953125,0.0
98.31640625,-42.96875,-39.0625,-31.73828125,-40.52734375,-288.57421875,0.0
98.3203125,-43.9453125,-35.64453125,-35.15625,-44.921875,-241.2109375,0.0
98.32421875,-42.48046875,-35.15625,-39.55078125,-53.7109375,-182.12890625,0.0
98.328125,-34.1796875,-31.25,-35.64453125,-47.36328125,-193.359375,0.0
98.33203125,-43.45703125,-28.3203125,-38.0859375,-42.48046875,-203.125,0.0
98.3359375,-57.12890625,-31.25,-38.57421875,-42.48046875,-48.33984375,0.0
98.33984375,-45.8984375,-30.2734375,-34.1796875,-38.57421875,8.30078125,0.0
98.34375,-22.4609375,-28.3203125,-25.87890625,-41.9921875,-79.1015625,0.0
98.34765625,-19.53125,-29.296875,-18.06640625,-42.48046875,15.13671875,0.0
98.3515625,-26.85546875,-27.34375,-16.11328125,-36.62109375,29.296875,0.0
98.35546875,-36.62109375,-31.25,-27.34375,-41.015625,-67.3828125,0.0
98.359375,-41.015625,-41.9921875,-44.43359375,-51.26953125,-44.921875,0.0
98.36328125,-23.92578125,-29.78515625,-39.55078125,-43.45703125,-48.828125,0.0
98.3671875,-7.32421875,-9.27734375,-21.97265625,-23.4375,6.8359375,0.0
98.37109375,-20.5078125,-18.06640625,-19.04296875,-26.85546875,1.46484375,0.0
98.375,-46.38671875,-44.43359375,-40.0390625,-42.96875,-78.125,0.0
98.37890625,-47.36328125,-43.45703125,-39.55078125,-38.57421875,-94.7265625,0.0
98.3828125,-31.73828125,-28.3203125,-23.92578125,-33.203125,-126.953125,0.0
98.38671875,-21.97265625,-28.3203125,-20.5078125,-31.73828125,-104.98046875,0.0
98.390625,-22.94921875,-34.66796875,-26.85546875,-24.90234375,-111.81640625,0.0
98.39453125,-33.69140625,-30.76171875,-31.73828125,-24.4140625,-143.06640625,0.0
98.3984375,-43.9453125,-32.2265625,-34.66796875,-33.203125,-73.73046875,0.0
98.40234375,-34.1796875,-27.34375,-28.80859375,-34.66796875,-49.31640625,0.0
98.40625,-21.97265625,-24.4140625,-28.3203125,-32.71484375,-217.28515625,0.0
98.41015625,-12.6953125,-26.3671875,-22.94921875,-30.76171875,-204.1015625,0.0
98.4140625,-27.83203125,-31.25,-23.4375,-32.71484375,-31.73828125,0.0
98.41796875,-45.8984375,-37.59765625,-35.64453125,-40.52734375,-9.765625,0.0
98.421875,-39.55078125,-41.015625,-46.38671875,-45.8984375,15.625,0.0
98.42578125,-31.73828125,-37.59765625,-47.8515625,-47.8515625,2.9296875,0.0
98.4296875,-33.203125,-34.1796875,-31.73828125,-34.66796875,29.296875,0.0
98.43359375,-32.71484375,-36.62109375,-24.90234375,-15.625,23.4375,0.0
98.4375,-55.6640625,-54.6875,-54.19921875,-40.0390625,60.546875,0.0
98.44140625,-64.94140625,-56.640625,-51.26953125,-62.01171875,27.34375,0.0
98.4453125,-22.4609375,-28.3203125,-37.59765625,-38.57421875,-62.5,0.0
98.44921875,-6.8359375,-24.90234375,-53.22265625,-28.80859375,32.71484375,0.0
98.453125,-27.34375,-30.76171875,-38.57421875,-31.25,17.578125,0.0
98.45703125,-24.4140625,-20.99609375,-21.484375,-19.53125,-66.89453125,0.0
98.4609375,-16.11328125,-20.5078125,-20.5078125,-18.5546875,-108.3984375,0.0
98.46484375,-1.46484375,-12.6953125,-11.71875,-14.16015625,-41.50390625,0.0
98.46875,-8.7890625,-17.08984375,-31.25,-24.4140625,34.1796875,0.0
98.47265625,-23.92578125,-30.76171875,-41.015625,-32.71484375,-18.5546875,0.0
98.4765625,-5.37109375,-23.92578125,-26.85546875,-18.5546875,-59.5703125,0.0
98.48046875,-7.8125,-26.85546875,-33.203125,-31.25,-36.62109375,0.0
98.484375,-27.34375,-37.109375,-46.38671875,-49.31640625,-21.484375,0.0
98.48828125,-28.80859375,-39.55078125,-47.36328125,-49.8046875,-31.73828125,0.0
98.4921875,-13.18359375,-31.73828125,-45.41015625,-35.15625,7.8125,0.0
98.49609375,1.46484375,-18.06640625,-37.59765625,-14.16015625,77.63671875,0.0
98.5,-4.39453125,-21.484375,-31.73828125,-15.13671875,10.25390625,0.0
98.50390625,-0.48828125,-20.99609375,-31.25,-15.625,-64.94140625,0.0
98.5078125,-0.48828125,-14.6484375,-23.4375,-9.27734375,12.6953125,0.0
98.51171875,-37.109375,-38.57421875,-32.2265625,-27.83203125,-10.25390625,0.0
98.515625,-46.38671875,-49.8046875,-38.0859375,-35.64453125,-12.6953125,0.0
98.51953125,-45.8984375,-50.29296875,-33.203125,-36.1328125,28.3203125,0.0
98.5234375,-38.57421875,-42.48046875,-27.83203125,-34.1796875,-8.7890625,0.0
98.52734375,-15.13671875,-24.4140625,-16.6015625,-17.08984375,20.01953125,0.0
98.53125,-24.4140625,-32.71484375,-28.80859375,-18.06640625,7.32421875,0.0
98.53515625,-35.64453125,-35.64453125,-34.1796875,-25.390625,-42.96875,0.0
98.5390625,-18.06640625,-20.99609375,-22.4609375,-13.18359375,30.76171875,0.0
98.54296875,8.7890625,-2.44140625,-9.27734375,5.859375,41.50390625,0.0
98.546875,-7.8125,-17.578125,-13.18359375,-12.20703125,-1.46484375,0.0
98.55078125,-49.8046875,-47.8515625,-43.45703125,-47.36328125,-45.8984375,0.0
98.5546875,-61.03515625,-51.7578125,-48.33984375,-41.9921875,-58.10546875,0.0
98.55859375,-45.8984375,-39.55078125,-31.73828125,-24.4140625,-20.01953125,0.0
98.5625,-38.57421875,-46.38671875,-28.80859375,-35.15625,-53.22265625,0.0
98.56640625,-39.0625,-45.8984375,-18.06640625,-41.015625,-117.67578125,0.0
98.5703125,-42.48046875,-33.69140625,-20.5078125,-37.109375,-40.0390625,0.0
98.57421875,-45.8984375,-32.71484375,-29.296875,-29.296875,19.04296875,0.0
98.578125,-41.9921875,-32.2265625,-27.34375,-24.4140625,-54.6875,0.0
98.58203125,-29.78515625,-18.06640625,-20.99609375,-23.4375,-70.80078125,0.0
98.5859375,-22.4609375,-19.53125,-18.5546875,-26.85546875,-36.1328125,0.0
98.58984375,-47.8515625,-43.9453125,-30.2734375,-42.48046875,-60.05859375,0.0
98.59375,-70.80078125,-57.12890625,-47.8515625,-48.828125,-71.77734375,0.0
98.59765625,-70.80078125,-57.6171875,-64.94140625,-45.8984375,-72.265625,0.0
98.6015625,-52.734375,-41.015625,-41.9921875,-39.0625,-81.0546875,0.0
98.60546875,-38.0859375,-36.62109375,-15.13671875,-36.62109375,-151.85546875,0.0
98.609375,-41.50390625,-45.8984375,-23.92578125,-43.45703125,-126.46484375,0.0
98.61328125,-48.33984375,-46.38671875,-29.296875,-48.828125,-78.125,0.0
98.6171875,-56.15234375,-56.640625,-27.83203125,-48.33984375,-95.703125,0.0
98.62109375,-35.64453125,-40.0390625,-12.6953125,-26.3671875,-25.390625,0.0
98.625,-26.3671875,-27.34375,-20.5078125,-25.87890625,-3.90625,0.0
98.62890625,-36.1328125,-31.73828125,-34.66796875,-39.55078125,-8.7890625,0.0
98.6328125,-43.9453125,-37.109375,-34.66796875,-40.52734375,-50.78125,0.0
98.63671875,-47.36328125,-42.48046875,-44.43359375,-44.921875,-60.05859375,0.0
98.640625,-45.41015625,-32.71484375,-49.31640625,-46.875,9.765625,0.0
98.64453125,-31.73828125,-26.85546875,-46.38671875,-43.9453125,58.10546875,0.0
98.6484375,-28.3203125,-31.25,-40.52734375,-40.52734375,23.92578125,0.0
98.65234375,-34.1796875,-26.3671875,-22.4609375,-33.69140625,22.94921875,0.0
98.65625,-20.01953125,-14.6484375,-7.32421875,-14.16015625,-14.16015625,0.0
98.66015625,-23.4375,-31.25,-25.390625,-22.4609375,-68.84765625,0.0
98.6640625,-19.53125,-35.64453125,-35.64453125,-31.25,-27.34375,0.0
98.66796875,-18.5546875,-35.15625,-25.390625,-29.296875,13.18359375,0.0
98.671875,-42.48046875,-56.15234375,-38.57421875,-46.875,8.7890625,0.0
98.67578125,-43.45703125,-46.38671875,-41.50390625,-42.96875,-53.22265625,0.0
98.6796875,-29.78515625,-27.34375,-31.25,-35.64453125,-0.48828125,0.0
98.68359375,-26.85546875,-35.64453125,-39.55078125,-41.015625,-37.109375,0.0
98.6875,-24.4140625,-35.64453125,-39.55078125,-38.57421875,-22.94921875,0.0
98.69140625,-19.04296875,-20.99609375,-21.97265625,-23.92578125,67.87109375,0.0
98.6953125,-27.83203125,-25.390625,-18.06640625,-21.97265625,10.7421875,0.0
98.69921875,-35.15625,-36.1328125,-19.53125,-29.296875,-66.89453125,0.0
98.703125,-27.34375,-29.296875,-23.92578125,-37.109375,-10.25390625,0.0
98.70703125,-38.57421875,-35.15625,-42.48046875,-61.5234375,68.84765625,0.0
98.7109375,-57.6171875,-49.8046875,-49.8046875,-69.3359375,-8.7890625,0.0
98.71484375,-51.7578125,-40.0390625,-42.96875,-50.29296875,-48.828125,0.0
98.71875,-49.31640625,-39.55078125,-34.66796875,-48.828125,0.48828125,0.0
98.72265625,-43.9453125,-44.43359375,-26.85546875,-52.24609375,0.0,0.0
98.7265625,-11.23046875,-21.97265625,-17.08984375,-32.2265625,-41.50390625,0.0
98.73046875,-11.71875,-16.6015625,-21.484375,-31.25,-23.92578125,0.0
98.734375,-33.69140625,-34.1796875,-21.484375,-42.48046875,-26.3671875,0.0
98.73828125,-34.66796875,-37.109375,-21.97265625,-37.59765625,-89.84375,0.0
98.7421875,-26.85546875,-26.85546875,-22.4609375,-32.71484375,-149.4140625,0.0
98.74609375,-12.6953125,-14.6484375,-11.71875,-16.6015625,-239.74609375,0.0
98.75,-15.13671875,-25.390625,-19.53125,-17.08984375,-326.171875,0.0
98.75390625,-41.9921875,-40.52734375,-30.2734375,-34.66796875,-287.109375,0.0
98.7578125,-52.734375,-39.0625,-28.3203125,-46.38671875,-194.82421875,0.0
98.76171875,-37.109375,-24.4140625,-26.3671875,-37.59765625,-98.6328125,0.0
98.765625,-33.203125,-29.78515625,-40.0390625,-40.52734375,-23.92578125,0.0
98.76953125,-32.2265625,-31.73828125,-39.0625,-40.52734375,-4.8828125,0.0
98.7734375,-23.4375,-23.92578125,-39.55078125,-26.85546875,-10.25390625,0.0
98.77734375,-34.1796875,-33.69140625,-39.55078125,-30.76171875,14.16015625,0.0
98.78125,-42.48046875,-42.96875,-33.203125,-36.62109375,-9.765625,0.0
98.78515625,-18.06640625,-29.296875,-21.97265625,-22.4609375,5.859375,0.0
98.7890625,-25.390625,-26.3671875,-34.1796875,-33.69140625,114.74609375,0.0
98.79296875,-49.31640625,-35.15625,-40.0390625,-38.0859375,98.14453125,0.0
98.796875,-58.59375,-50.78125,-40.52734375,-35.15625,45.41015625,0.0
98.80078125,-53.22265625,-52.24609375,-44.43359375,-36.62109375,-17.08984375,0.0
98.8046875,-33.203125,-32.2265625,-30.76171875,-28.80859375,-74.21875,0.0
98.80859375,-32.2265625,-32.2265625,-32.71484375,-33.69140625,16.11328125,0.0
98.8125,-34.1796875,-34.66796875,-39.55078125,-34.66796875,-15.625,0.0
98.81640625,-30.76171875,-29.296875,-28.3203125,-25.87890625,-80.078125,0.0
98.8203125,-40.0390625,-35.15625,-31.73828125,-33.69140625,-26.85546875,0.0
98.82421875,-29.78515625,-28.80859375,-33.69140625,-27.83203125,-4.39453125,0.0
98.828125,-25.87890625,-24.4140625,-37.59765625,-27.34375,13.18359375,0.0
98.83203125,-36.62109375,-24.90234375,-37.59765625,-29.296875,20.5078125,0.0
98.8359375,-53.7109375,-40.0390625,-41.9921875,-34.1796875,-63.4765625,0.0
98.83984375,-63.96484375,-55.17578125,-51.7578125,-50.29296875,-137.20703125,0.0
98.84375,-55.17578125,-51.7578125,-46.875,-48.828125,-72.75390625,0.0
98.84765625,-42.96875,-41.9921875,-41.50390625,-32.2265625,17.578125,0.0
98.8515625,-42.48046875,-38.0859375,-32.2265625,-24.90234375,-15.625,0.0
98.85546875,-38.57421875,-34.1796875,-31.73828125,-17.08984375,-68.84765625,0.0
98.859375,-35.64453125,-27.83203125,-40.0390625,-16.6015625,-15.13671875,0.0
98.86328125,-37.59765625,-30.76171875,-32.2265625,-29.78515625,10.25390625,0.0
98.8671875,-33.69140625,-36.1328125,-18.06640625,-30.76171875,0.48828125,0.0
98.87109375,-46.38671875,-44.43359375,-26.85546875,-42.48046875,-27.83203125,0.0
98.875,-57.12890625,-51.26953125,-35.64453125,-43.9453125,11.71875,0.0
98.87890625,-44.43359375,-44.921875,-32.2265625,-35.15625,-26.3671875,0.0
98.8828125,-40.52734375,-45.41015625,-39.0625,-50.29296875,-138.671875,0.0
98.88671875,-32.71484375,-42.96875,-37.59765625,-51.26953125,-44.43359375,0.0
98.890625,-22.4609375,-28.3203125,-27.34375,-29.78515625,32.71484375,0.0
98.89453125,-32.71484375,-24.90234375,-28.3203125,-24.4140625,-84.47265625,0.0
98.8984375,-51.7578125,-40.0390625,-35.15625,-38.0859375,5.37109375,0.0
98.90234375,-41.50390625,-38.0859375,-34.1796875,-38.0859375,152.83203125,0.0
98.90625,-13.671875,-18.06640625,-19.53125,-18.06640625,113.28125,0.0
98.91015625,-29.296875,-36.62109375,-32.71484375,-31.73828125,19.53125,0.0
98.9140625,-36.62109375,-42.96875,-33.203125,-35.15625,9.765625,0.0
98.91796875,-31.25,-36.62109375,-17.08984375,-26.3671875,5.37109375,0.0
98.921875,-38.0859375,-44.921875,-24.4140625,-32.71484375,-48.33984375,0.0
98.92578125,-34.1796875,-41.015625,-32.71484375,-41.50390625,65.4296875,0.0
98.9296875,-27.34375,-30.76171875,-40.0390625,-37.109375,96.19140625,0.0
98.93359375,-25.87890625,-32.2265625,-42.48046875,-28.3203125,-79.58984375,0.0
98.9375,-27.83203125,-35.64453125,-30.2734375,-20.99609375,-117.1875,0.0
98.94140625,-27.83203125,-34.66796875,-16.6015625,-24.4140625,-61.5234375,0.0
98.9453125,-26.3671875,-28.80859375,-13.18359375,-37.59765625,23.4375,0.0
98.94921875,-16.11328125,-19.04296875,-13.671875,-30.76171875,89.84375,0.0
98.953125,-28.3203125,-33.203125,-20.5078125,-35.64453125,22.94921875,0.0
98.95703125,-54.6875,-54.19921875,-32.71484375,-49.8046875,-37.59765625,0.0
98.9609375,-53.22265625,-45.41015625,-44.921875,-48.33984375,-16.11328125,0.0
98.96484375,-35.64453125,-27.83203125,-46.38671875,-41.015625,4.8828125,0.0
98.96875,-32.71484375,-32.71484375,-31.73828125,-34.1796875,-12.20703125,0.0
98.97265625,-30.76171875,-31.25,-18.5546875,-28.3203125,-20.99609375,0.0
98.9765625,-26.3671875,-20.5078125,-15.625,-18.5546875,-76.171875,0.0
98.98046875,-25.390625,-24.4140625,-23.92578125,-26.85546875,-163.0859375,0.0
98.984375,-9.765625,-21.484375,-16.11328125,-30.2734375,-114.2578125,0.0
98.98828125,-23.4375,-35.15625,-26.85546875,-42.96875,-65.91796875,0.0
98.9921875,-49.8046875,-50.78125,-44.921875,-56.15234375,-77.63671875,0.0
98.99609375,-54.19921875,-46.875,-42.96875,-46.38671875,-114.74609375,0.0
99.0,-46.38671875,-43.9453125,-42.48046875,-42.96875,-162.109375,0.0
99.00390625,-32.71484375,-31.73828125,-39.55078125,-40.0390625,-120.1171875,0.0
99.0078125,-29.296875,-21.97265625,-21.97265625,-31.73828125,-1.46484375,0.0
99.01171875,-28.80859375,-24.4140625,-12.20703125,-22.4609375,-43.9453125,0.0
99.015625,-39.55078125,-30.76171875,-29.296875,-25.390625,-49.8046875,0.0
99.01953125,-56.15234375,-41.015625,-33.203125,-42.48046875,-5.859375,0.0
99.0234375,-52.24609375,-43.45703125,-30.2734375,-49.8046875,-28.3203125,0.0
99.02734375,-38.57421875,-41.50390625,-30.2734375,-39.0625,15.625,0.0
99.03125,-43.45703125,-50.78125,-29.78515625,-37.109375,14.6484375,0.0
99.03515625,-46.875,-49.31640625,-28.80859375,-37.59765625,-20.5078125,0.0
99.0390625,-40.0390625,-37.109375,-28.80859375,-27.34375,-118.1640625,0.0
99.04296875,-38.0859375,-40.0390625,-31.73828125,-27.83203125,-207.51953125,0.0
99.046875,-27.83203125,-36.62109375,-24.4140625,-28.80859375,-244.140625,0.0
99.05078125,-19.04296875,-26.85546875,-13.671875,-20.99609375,-233.3984375,0.0
99.0546875,-32.2265625,-30.76171875,-19.53125,-25.390625,-200.68359375,0.0
99.05859375,-36.1328125,-28.3203125,-22.4609375,-22.4609375,-149.4140625,0.0
99.0625,-21.484375,-24.4140625,-26.85546875,-20.01953125,-88.37890625,0.0
99.06640625,-8.7890625,-20.5078125,-22.94921875,-20.99609375,-104.00390625,0.0
99.0703125,-19.53125,-18.5546875,-20.5078125,-20.99609375,-148.92578125,0.0
99.07421875,-40.0390625,-34.66796875,-37.109375,-28.80859375,-76.171875,0.0
99.078125,-40.52734375,-43.45703125,-33.203125,-32.71484375,-63.96484375,0.0
99.08203125,-42.48046875,-48.33984375,-35.64453125,-48.33984375,-36.62109375,0.0
99.0859375,-34.1796875,-43.9453125,-41.50390625,-48.33984375,-53.7109375,0.0
99.08984375,-31.73828125,-35.15625,-37.59765625,-42.48046875,-125.48828125,0.0
99.09375,-44.43359375,-36.62109375,-32.2265625,-39.0625,-107.91015625,0.0
99.09765625,-45.8984375,-37.109375,-27.83203125,-30.2734375,-57.12890625,0.0
99.1015625,-37.59765625,-29.296875,-28.3203125,-28.3203125,-23.92578125,0.0
99.10546875,-26.85546875,-25.87890625,-26.85546875,-27.34375,-132.8125,0.0
99.109375,-16.11328125,-22.4609375,-21.97265625,-22.4609375,-134.765625,0.0
99.11328125,-21.484375,-24.90234375,-24.4140625,-20.5078125,-126.953125,0.0
99.1171875,-28.3203125,-29.296875,-26.85546875,-16.11328125,-156.25,0.0
99.12109375,-35.15625,-30.76171875,-32.71484375,-23.92578125,-150.87890625,0.0
99.125,-40.0390625,-39.55078125,-44.921875,-33.69140625,-107.421875,0.0
99.12890625,-27.83203125,-29.78515625,-37.109375,-27.34375,-8.30078125,0.0
99.1328125,-25.390625,-20.01953125,-34.1796875,-25.390625,-1.953125,0.0
99.13671875,-41.50390625,-28.80859375,-39.0625,-35.64453125,-56.15234375,0.0
99.140625,-35.64453125,-28.80859375,-33.69140625,-37.109375,22.94921875,0.0
99.14453125,-19.04296875,-23.92578125,-33.203125,-32.2265625,121.58203125,0.0
99.1484375,-26.85546875,-29.296875,-33.203125,-35.64453125,62.01171875,0.0
99.15234375,-30.76171875,-28.3203125,-35.64453125,-28.80859375,69.82421875,0.0
99.15625,-34.66796875,-24.90234375,-38.57421875,-23.4375,140.13671875,0.0
99.16015625,-35.64453125,-23.4375,-33.69140625,-23.4375,123.046875,0.0
99.1640625,-21.484375,-15.625,-27.34375,-19.53125,96.6796875,0.0
99.16796875,-8.7890625,-6.8359375,-21.97265625,-15.625,-3.41796875,0.0
99.171875,-3.90625,-4.8828125,-15.625,-5.859375,-25.390625,0.0
99.17578125,-12.20703125,-10.25390625,-20.99609375,-5.859375,21.484375,0.0
99.1796875,-32.71484375,-33.69140625,-45.41015625,-29.78515625,-0.9765625,0.0
99.18359375,-31.25,-41.50390625,-44.43359375,-31.73828125,-77.63671875,0.0
99.1875,-29.296875,-37.109375,-38.0859375,-27.83203125,-10.7421875,0.0
99.19140625,-34.66796875,-35.64453125,-39.55078125,-35.64453125,71.2890625,0.0
99.1953125,-33.69140625,-33.203125,-42.48046875,-30.76171875,65.91796875,0.0
99.19921875,-35.15625,-38.0859375,-51.26953125,-31.25,180.6640625,0.0
99.203125,-23.4375,-32.2265625,-36.62109375,-28.80859375,106.93359375,0.0
99.20703125,-13.18359375,-24.4140625,-24.4140625,-22.4609375,42.96875,0.0
99.2109375,-14.16015625,-21.97265625,-20.01953125,-18.5546875,68.84765625,0.0
99.21484375,-14.6484375,-19.53125,-12.20703125,-10.7421875,73.2421875,0.0
99.21875,-31.73828125,-35.15625,-30.76171875,-23.92578125,61.5234375,0.0
99.22265625,-38.0859375,-33.69140625,-39.55078125,-37.59765625,-16.11328125,0.0
99.2265625,-28.80859375,-28.80859375,-31.73828125,-30.76171875,-43.45703125,0.0
99.23046875,-20.5078125,-27.83203125,-22.94921875,-20.5078125,-37.109375,0.0
99.234375,-32.2265625,-33.203125,-30.2734375,-28.80859375,-8.30078125,0.0
99.23828125,-46.875,-41.50390625,-42.48046875,-34.66796875,-32.2265625,0.0
99.2421875,-41.9921875,-38.57421875,-39.55078125,-35.15625,-124.0234375,0.0
99.24609375,-21.484375,-23.4375,-23.4375,-21.97265625,-119.62890625,0.0
99.25,-11.71875,-12.6953125,-16.6015625,-6.8359375,-119.62890625,0.0
99.25390625,-23.4375,-13.18359375,-21.484375,-3.41796875,-159.66796875,0.0
99.2578125,-33.203125,-19.04296875,-20.5078125,-10.7421875,-142.08984375,0.0
99.26171875,-41.015625,-32.2265625,-32.71484375,-36.62109375,-155.2734375,0.0
99.265625,-32.71484375,-37.109375,-37.59765625,-43.9453125,-204.58984375,0.0
99.26953125,-10.7421875,-23.92578125,-25.390625,-18.06640625,-107.421875,0.0
99.2734375,-13.18359375,-20.5078125,-31.73828125,-3.41796875,-76.66015625,0.0
99.27734375,-43.9453125,-36.62109375,-47.36328125,-22.4609375,-77.63671875,0.0
99.28125,-41.9921875,-38.57421875,-32.2265625,-30.76171875,-68.84765625,0.0
99.28515625,-39.55078125,-40.0390625,-28.80859375,-38.57421875,-139.6484375,0.0
99.2890625,-39.55078125,-37.59765625,-31.25,-40.0390625,-98.14453125,0.0
99.29296875,-31.73828125,-30.2734375,-22.4609375,-31.73828125,0.0,0.0
99.296875,-47.36328125,-37.59765625,-34.66796875,-43.45703125,14.6484375,0.0
99.30078125,-53.7109375,-39.0625,-36.62109375,-53.7109375,40.0390625,0.0
99.3046875,-37.59765625,-26.85546875,-27.83203125,-44.921875,61.03515625,0.0
99.30859375,-32.71484375,-27.83203125,-38.0859375,-40.0390625,50.29296875,0.0
99.3125,-39.0625,-37.59765625,-44.921875,-39.55078125,131.8359375,0.0
99.31640625,-43.45703125,-41.50390625,-35.64453125,-29.296875,137.6953125,0.0
99.3203125,-35.64453125,-37.59765625,-35.64453125,-20.99609375,62.01171875,0.0
99.32421875,-33.69140625,-33.203125,-50.78125,-32.71484375,32.2265625,0.0
99.328125,-46.38671875,-40.52734375,-53.22265625,-43.9453125,-26.3671875,0.0
99.33203125,-46.875,-38.0859375,-30.2734375,-36.1328125,8.30078125,0.0
99.3359375,-46.875,-31.25,-14.6484375,-27.83203125,60.05859375,0.0
99.33984375,-55.6640625,-37.59765625,-21.484375,-36.62109375,67.87109375,0.0
99.34375,-60.05859375,-47.8515625,-42.96875,-57.6171875,94.23828125,0.0
99.34765625,-45.41015625,-41.015625,-40.0390625,-51.7578125,6.8359375,0.0
99.3515625,-37.109375,-29.78515625,-26.85546875,-33.69140625,-164.0625,0.0
99.35546875,-48.33984375,-29.296875,-30.76171875,-32.71484375,-162.109375,0.0
99.359375,-43.45703125,-30.2734375,-31.73828125,-31.73828125,-145.5078125,0.0
99.36328125,-14.6484375,-20.99609375,-20.01953125,-20.01953125,-132.8125,0.0
99.3671875,-7.8125,-17.578125,-23.4375,-22.4609375,-59.5703125,0.0
99.37109375,-32.71484375,-29.296875,-38.57421875,-39.55078125,-53.7109375,0.0
99.375,-47.8515625,-37.59765625,-37.109375,-40.0390625,-115.234375,0.0
99.37890625,-47.8515625,-39.0625,-28.3203125,-45.8984375,-127.44140625,0.0
99.3828125,-33.203125,-34.66796875,-28.80859375,-44.921875,-108.88671875,0.0
99.38671875,-18.5546875,-22.94921875,-26.85546875,-33.203125,-25.87890625,0.0
99.390625,-23.92578125,-22.94921875,-23.4375,-31.25,13.671875,0.0
99.39453125,-35.64453125,-33.69140625,-30.2734375,-32.2265625,-40.0390625,0.0
99.3984375,-42.96875,-35.64453125,-34.66796875,-35.15625,-38.0859375,0.0
99.40234375,-45.41015625,-38.0859375,-28.3203125,-36.1328125,-14.16015625,0.0
99.40625,-28.3203125,-34.66796875,-23.92578125,-22.4609375,-20.99609375,0.0
99.41015625,-15.13671875,-26.3671875,-21.97265625,-13.18359375,4.39453125,0.0
99.4140625,-35.15625,-33.203125,-20.99609375,-25.87890625,49.31640625,0.0
99.41796875,-64.453125,-47.8515625,-35.15625,-46.875,-13.18359375,0.0
99.421875,-67.87109375,-52.734375,-45.8984375,-56.15234375,-19.04296875,0.0
99.42578125,-49.31640625,-38.0859375,-47.8515625,-49.8046875,22.4609375,0.0
99.4296875,-34.66796875,-20.99609375,-38.0859375,-38.57421875,81.54296875,0.0
99.43359375,-39.0625,-30.76171875,-23.4375,-42.48046875,80.078125,0.0
99.4375,-43.45703125,-43.45703125,-30.2734375,-47.8515625,-28.3203125,0.0
99.44140625,-30.2734375,-37.59765625,-30.2734375,-36.1328125,-58.10546875,0.0
99.4453125,-29.78515625,-32.71484375,-15.13671875,-35.15625,-45.8984375,0.0
99.44921875,-33.203125,-27.83203125,-14.16015625,-35.15625,-17.578125,0.0
99.453125,-38.57421875,-33.69140625,-20.01953125,-26.3671875,21.484375,0.0
99.45703125,-51.26953125,-41.9921875,-25.390625,-32.2265625,-25.87890625,0.0
99.4609375,-43.9453125,-37.109375,-16.11328125,-27.83203125,-61.5234375,0.0
99.46484375,-40.0390625,-40.52734375,-21.97265625,-28.3203125,-31.73828125,0.0
99.46875,-43.45703125,-44.921875,-36.62109375,-37.59765625,-9.765625,0.0
99.47265625,-33.203125,-31.73828125,-23.92578125,-26.85546875,-57.12890625,0.0
99.4765625,-41.015625,-42.48046875,-22.94921875,-28.80859375,-109.375,0.0
99.48046875,-53.7109375,-54.19921875,-26.3671875,-36.62109375,-165.0390625,0.0
99.484375,-45.8984375,-47.8515625,-21.97265625,-39.55078125,-121.09375,0.0
99.48828125,-34.66796875,-45.41015625,-25.87890625,-37.109375,-48.828125,0.0
99.4921875,-40.52734375,-49.8046875,-38.0859375,-37.109375,-23.4375,0.0
99.49609375,-54.6875,-65.91796875,-41.50390625,-45.8984375,-78.61328125,0.0
99.5,-52.734375,-71.2890625,-38.0859375,-47.8515625,-58.59375,0.0
99.50390625,-35.15625,-52.24609375,-32.71484375,-39.0625,29.78515625,0.0
99.5078125,-13.671875,-26.85546875,-20.5078125,-21.97265625,94.23828125,0.0
99.51171875,-8.30078125,-16.11328125,-14.16015625,-7.8125,104.98046875,0.0
99.515625,-17.08984375,-23.92578125,-19.04296875,-9.765625,73.73046875,0.0
99.51953125,-35.15625,-47.36328125,-41.015625,-34.1796875,-69.82421875,0.0
99.5234375,-35.64453125,-54.6875,-43.9453125,-43.9453125,-78.125,0.0
99.52734375,-14.6484375,-40.52734375,-31.25,-29.78515625,65.91796875,0.0
99.53125,-13.18359375,-35.64453125,-37.59765625,-20.5078125,100.5859375,0.0
99.53515625,-25.390625,-33.69140625,-35.64453125,-16.6015625,9.27734375,0.0
99.5390625,-27.34375,-34.66796875,-26.85546875,-13.18359375,-78.125,0.0
99.54296875,-36.1328125,-50.29296875,-32.71484375,-31.25,38.0859375,0.0
99.546875,-41.015625,-53.22265625,-29.78515625,-40.0390625,73.2421875,0.0
99.55078125,-45.8984375,-48.33984375,-23.92578125,-39.0625,-47.36328125,0.0
99.5546875,-49.8046875,-48.828125,-24.90234375,-36.62109375,-57.12890625,0.0
99.55859375,-49.31640625,-47.8515625,-32.71484375,-37.109375,-66.89453125,0.0
99.5625,-42.48046875,-47.36328125,-41.015625,-40.0390625,-112.3046875,0.0
99.56640625,-18.06640625,-33.69140625,-33.203125,-27.34375,-0.48828125,0.0
99.5703125,-15.13671875,-31.73828125,-22.4609375,-21.97265625,41.50390625,0.0
99.57421875,-39.0625,-47.36328125,-31.73828125,-33.203125,-12.20703125,0.0
99.578125,-30.2734375,-39.55078125,-29.78515625,-23.92578125,-45.8984375,0.0
99.58203125,-18.06640625,-29.78515625,-23.92578125,-22.4609375,-12.20703125,0.0
99.5859375,-27.83203125,-30.2734375,-36.1328125,-36.1328125,-29.296875,0.0
99.58984375,-33.203125,-36.1328125,-41.015625,-40.52734375,-44.43359375,0.0
99.59375,-44.921875,-46.875,-46.875,-41.9921875,-24.90234375,0.0
99.59765625,-51.26953125,-51.26953125,-39.55078125,-39.55078125,-47.36328125,0.0
99.6015625,-34.1796875,-41.50390625,-29.296875,-35.64453125,-81.54296875,0.0
99.60546875,-28.80859375,-41.015625,-35.15625,-43.9453125,-81.0546875,0.0
99.609375,-29.296875,-37.109375,-33.69140625,-37.109375,-53.7109375,0.0
99.61328125,-34.1796875,-37.59765625,-42.96875,-31.73828125,-111.81640625,0.0
99.6171875,-48.828125,-46.38671875,-41.015625,-43.45703125,-162.59765625,0.0
99.62109375,-40.52734375,-41.50390625,-30.76171875,-41.9921875,-50.29296875,0.0
99.625,-28.3203125,-34.66796875,-35.15625,-35.15625,44.43359375,0.0
99.62890625,-33.69140625,-40.52734375,-40.0390625,-39.55078125,-4.39453125,0.0
99.6328125,-36.1328125,-41.50390625,-33.69140625,-35.15625,-40.52734375,0.0
99.63671875,-57.6171875,-48.828125,-44.43359375,-41.50390625,-92.28515625,0.0
99.640625,-55.6640625,-48.33984375,-43.9453125,-40.0390625,-62.98828125,0.0
99.64453125,-19.04296875,-24.90234375,-19.04296875,-16.6015625,-37.109375,0.0
99.6484375,-17.578125,-23.4375,-24.90234375,-17.578125,-71.2890625,0.0
99.65234375,-27.83203125,-30.76171875,-37.109375,-25.87890625,-123.046875,0.0
99.65625,-41.50390625,-38.57421875,-34.1796875,-29.78515625,-185.05859375,0.0
99.66015625,-52.24609375,-49.31640625,-32.2265625,-35.64453125,-116.69921875,0.0
99.6640625,-34.66796875,-40.52734375,-23.4375,-25.87890625,43.9453125,0.0
99.66796875,-13.671875,-21.97265625,-10.7421875,-13.18359375,88.8671875,0.0
99.671875,-26.85546875,-30.76171875,-17.08984375,-28.3203125,72.75390625,0.0
99.67578125,-49.8046875,-44.921875,-32.2265625,-39.55078125,-50.78125,0.0
99.6796875,-48.33984375,-41.9921875,-36.62109375,-40.52734375,-60.546875,0.0
99.68359375,-33.203125,-36.62109375,-33.69140625,-33.69140625,63.4765625,0.0
99.6875,-24.4140625,-35.15625,-32.2265625,-23.92578125,28.80859375,0.0
99.69140625,-32.2265625,-35.15625,-31.73828125,-23.4375,10.25390625,0.0
99.6953125,-52.734375,-42.96875,-38.0859375,-31.73828125,-3.41796875,0.0
99.69921875,-60.546875,-44.921875,-43.45703125,-40.52734375,-77.63671875,0.0
99.703125,-43.45703125,-33.69140625,-38.0859375,-37.59765625,-28.3203125,0.0
99.70703125,-36.1328125,-35.15625,-32.71484375,-36.62109375,-15.13671875,0.0
99.7109375,-35.64453125,-36.1328125,-23.92578125,-32.2265625,-99.12109375,0.0
99.71484375,-35.64453125,-32.2265625,-16.11328125,-24.90234375,-56.640625,0.0
99.71875,-41.015625,-29.78515625,-14.16015625,-21.97265625,-32.71484375,0.0
99.72265625,-44.921875,-33.203125,-24.4140625,-32.2265625,-52.24609375,0.0
99.7265625,-35.64453125,-31.25,-37.109375,-40.0390625,-104.98046875,0.0
99.73046875,-28.80859375,-21.97265625,-27.34375,-29.78515625,-74.21875,0.0
99.734375,-49.8046875,-34.66796875,-32.71484375,-39.55078125,-48.33984375,0.0
99.73828125,-62.01171875,-43.45703125,-39.0625,-48.828125,-149.4140625,0.0
99.7421875,-53.22265625,-43.45703125,-43.9453125,-52.734375,-153.3203125,0.0
99.74609375,-32.2265625,-28.3203125,-38.0859375,-43.45703125,-73.2421875,0.0
99.75,-27.34375,-21.97265625,-27.34375,-28.80859375,-41.50390625,0.0
99.75390625,-35.64453125,-23.4375,-32.2265625,-25.390625,37.109375,0.0
99.7578125,-45.8984375,-27.34375,-39.0625,-34.1796875,21.484375,0.0
99.76171875,-39.55078125,-30.76171875,-38.57421875,-35.15625,-86.42578125,0.0
99.765625,-24.4140625,-22.4609375,-26.85546875,-23.92578125,-62.98828125,0.0
99.76953125,-28.3203125,-24.90234375,-25.390625,-23.4375,-80.078125,0.0
99.7734375,-30.76171875,-24.4140625,-15.13671875,-24.90234375,-221.6796875,0.0
99.77734375,-38.0859375,-21.97265625,-14.6484375,-33.203125,-224.609375,0.0
99.78125,-47.8515625,-40.52734375,-34.66796875,-44.921875,-122.55859375,0.0
99.78515625,-42.96875,-44.921875,-49.8046875,-55.17578125,29.296875,0.0
99.7890625,-33.203125,-32.71484375,-45.8984375,-50.78125,11.23046875,0.0
99.79296875,-37.59765625,-37.59765625,-49.31640625,-48.828125,-27.34375,0.0
99.796875,-46.38671875,-38.57421875,-51.26953125,-49.31640625,-54.6875,0.0
99.80078125,-44.43359375,-37.59765625,-44.921875,-40.0390625,-87.40234375,0.0
99.8046875,-18.06640625,-24.90234375,-36.62109375,-28.80859375,-54.6875,0.0
99.80859375,-6.34765625,-11.23046875,-25.87890625,-28.3203125,-27.34375,0.0
99.8125,-38.57421875,-34.66796875,-32.71484375,-42.96875,-41.9921875,0.0
99.81640625,-50.29296875,-43.45703125,-35.15625,-39.0625,-98.6328125,0.0
99.8203125,-49.31640625,-39.55078125,-33.203125,-42.48046875,-47.36328125,0.0
99.82421875,-44.43359375,-43.9453125,-37.59765625,-52.734375,-33.69140625,0.0
99.828125,-36.1328125,-50.78125,-40.52734375,-51.7578125,-56.15234375,0.0
99.83203125,-33.203125,-47.36328125,-40.52734375,-43.45703125,13.671875,0.0
99.8359375,-45.8984375,-45.41015625,-41.9921875,-35.15625,-15.13671875,0.0
99.83984375,-46.875,-41.015625,-37.109375,-36.62109375,-46.38671875,0.0
99.84375,-32.71484375,-31.25,-33.203125,-38.57421875,-39.0625,0.0
99.84765625,-31.73828125,-30.2734375,-33.69140625,-39.55078125,-45.8984375,0.0
99.8515625,-40.0390625,-30.2734375,-32.71484375,-38.0859375,-96.6796875,0.0
99.85546875,-35.64453125,-27.83203125,-20.01953125,-27.83203125,-134.27734375,0.0
99.859375,-40.52734375,-39.55078125,-27.34375,-28.80859375,-92.28515625,0.0
99.86328125,-50.78125,-48.828125,-46.875,-46.875,-115.234375,0.0
99.8671875,-54.6875,-49.8046875,-52.24609375,-61.03515625,-130.37109375,0.0
99.87109375,-43.9453125,-41.015625,-38.57421875,-48.33984375,-43.45703125,0.0
99.875,-48.828125,-46.875,-34.1796875,-39.55078125,12.6953125,0.0
99.87890625,-64.453125,-61.5234375,-45.8984375,-53.7109375,58.10546875,0.0
99.8828125,-59.08203125,-62.01171875,-49.31640625,-62.01171875,15.625,0.0
99.88671875,-37.109375,-45.41015625,-39.0625,-50.78125,-56.15234375,0.0
99.890625,-29.78515625,-31.73828125,-31.73828125,-36.62109375,-42.96875,0.0
99.89453125,-41.50390625,-35.64453125,-30.76171875,-35.15625,-4.8828125,0.0
99.8984375,-43.45703125,-38.0859375,-37.109375,-38.0859375,18.06640625,0.0
99.90234375,-25.390625,-19.04296875,-24.4140625,-24.4140625,25.390625,0.0
99.90625,-12.6953125,-6.8359375,-20.5078125,-10.7421875,32.71484375,0.0
99.91015625,-28.80859375,-25.87890625,-42.48046875,-23.4375,5.859375,0.0
99.9140625,-50.78125,-44.43359375,-38.0859375,-42.48046875,4.39453125,0.0
99.91796875,-53.22265625,-44.921875,-28.3203125,-41.9921875,10.7421875,0.0
99.921875,-51.26953125,-42.48046875,-30.2734375,-39.0625,39.55078125,0.0
99.92578125,-53.7109375,-47.36328125,-37.109375,-48.33984375,2.44140625,0.0
99.9296875,-54.6875,-47.8515625,-45.41015625,-54.6875,-11.71875,0.0
99.93359375,-55.17578125,-46.38671875,-47.8515625,-53.22265625,-4.39453125,0.0
99.9375,-54.6875,-49.8046875,-44.921875,-49.8046875,55.6640625,0.0
99.94140625,-43.9453125,-49.8046875,-41.015625,-47.8515625,37.109375,0.0
99.9453125,-20.5078125,-33.203125,-27.34375,-28.3203125,32.71484375,0.0
99.94921875,-4.8828125,-18.06640625,-21.97265625,-8.7890625,112.3046875,0.0
99.953125,-19.53125,-28.3203125,-35.64453125,-16.6015625,-20.99609375,0.0
99.95703125,-41.015625,-34.66796875,-36.1328125,-22.4609375,-26.3671875,0.0
99.9609375,-35.15625,-31.73828125,-27.83203125,-22.4609375,7.8125,0.0
99.96484375,-20.99609375,-32.2265625,-23.4375,-25.87890625,-93.26171875,0.0
99.96875,-20.5078125,-35.15625,-36.62109375,-34.66796875,-24.90234375,0.0
99.97265625,-21.484375,-31.73828125,-27.83203125,-29.78515625,62.98828125,0.0
99.9765625,-24.4140625,-33.203125,-14.6484375,-25.87890625,25.390625,0.0
99.98046875,-33.203125,-43.9453125,-23.92578125,-38.57421875,-34.1796875,0.0
99.984375,-24.90234375,-33.203125,-16.11328125,-34.66796875,-13.18359375,0.0
99.98828125,-6.8359375,-13.18359375,-5.37109375,-17.578125,-22.4609375,0.0
99.9921875,-20.99609375,-26.85546875,-23.92578125,-26.3671875,-56.640625,0.0
99.99609375,-37.109375,-41.015625,-34.1796875,-30.76171875,-65.91796875,0.0
100.0,-35.64453125,-40.0390625,-39.55078125,-30.76171875,-66.40625,0.0
100.00390625,-21.97265625,-28.3203125,-34.1796875,-28.80859375,-39.55078125,0.0
100.0078125,-18.5546875,-20.99609375,-21.97265625,-27.83203125,-60.05859375,0.0
100.01171875,-31.73828125,-27.83203125,-26.85546875,-33.203125,-112.79296875,0.0
100.015625,-47.36328125,-39.0625,-37.59765625,-39.55078125,-80.56640625,0.0
100.01953125,-54.6875,-43.45703125,-39.55078125,-43.45703125,-49.31640625,0.0
100.0234375,-35.15625,-32.2265625,-34.66796875,-34.1796875,-72.75390625,0.0
100.02734375,-10.25390625,-18.06640625,-24.90234375,-20.5078125,-83.984375,0.0
100.03125,-24.4140625,-33.203125,-23.92578125,-26.3671875,-10.25390625,0.0
100.03515625,-46.875,-43.9453125,-24.4140625,-35.64453125,-64.94140625,0.0
100.0390625,-56.15234375,-41.50390625,-36.1328125,-45.41015625,-118.65234375,0.0
100.04296875,-41.9921875,-36.62109375,-37.109375,-37.59765625,-93.75,0.0
100.046875,-26.3671875,-29.78515625,-34.66796875,-33.203125,-109.86328125,0.0
100.05078125,-38.0859375,-40.0390625,-48.33984375,-52.24609375,-93.75,0.0
100.0546875,-45.8984375,-40.52734375,-44.921875,-56.15234375,-40.52734375,0.0
100.05859375,-36.62109375,-25.390625,-28.80859375,-38.57421875,-39.0625,0.0
100.0625,-29.296875,-27.83203125,-33.203125,-33.69140625,-52.734375,0.0
100.06640625,-34.1796875,-39.55078125,-36.1328125,-45.41015625,-36.1328125,0.0
100.0703125,-31.25,-36.62109375,-26.85546875,-42.96875,-0.48828125,0.0
100.07421875,-36.1328125,-35.15625,-32.2265625,-36.1328125,-20.5078125,0.0
100.078125,-50.29296875,-46.38671875,-52.24609375,-44.43359375,-10.25390625,0.0
100.08203125,-37.109375,-43.9453125,-47.36328125,-47.36328125,22.4609375,0.0
100.0859375,-19.04296875,-33.203125,-31.25,-37.59765625,-45.41015625,0.0
100.08984375,-21.97265625,-28.80859375,-25.390625,-34.1796875,-82.03125,0.0
100.09375,-41.9921875,-36.62109375,-37.59765625,-40.52734375,-93.75,0.0
100.09765625,-52.734375,-46.38671875,-56.15234375,-43.9453125,-109.375,0.0
100.1015625,-42.48046875,-38.57421875,-45.8984375,-45.41015625,-102.05078125,0.0
100.10546875,-31.73828125,-30.2734375,-37.59765625,-42.48046875,-87.890625,0.0
100.109375,-28.80859375,-30.76171875,-33.69140625,-38.57421875,-100.5859375,0.0
100.11328125,-32.2265625,-32.2265625,-29.296875,-40.0390625,-117.67578125,0.0
100.1171875,-37.109375,-30.76171875,-28.80859375,-38.0859375,-41.015625,0.0
100.12109375,-39.55078125,-32.71484375,-33.203125,-40.52734375,18.06640625,0.0
100.125,-33.69140625,-34.66796875,-33.203125,-41.015625,-40.0390625,0.0
100.12890625,-22.94921875,-28.80859375,-32.2265625,-31.25,5.37109375,0.0
100.1328125,-32.2265625,-30.76171875,-41.9921875,-26.3671875,56.640625,0.0
100.13671875,-51.26953125,-43.45703125,-35.64453125,-33.69140625,-44.43359375,0.0
100.140625,-54.19921875,-47.8515625,-28.80859375,-41.9921875,-76.66015625,0.0
100.14453125,-36.1328125,-29.78515625,-30.2734375,-37.109375,-10.25390625,0.0
100.1484375,-23.4375,-23.4375,-27.34375,-29.296875,-34.1796875,0.0
100.15234375,-21.484375,-27.34375,-21.484375,-21.97265625,-23.92578125,0.0
100.15625,-16.11328125,-18.06640625,-14.16015625,1.46484375,31.73828125,0.0
100.16015625,0.0,-4.8828125,-3.41796875,16.11328125,10.7421875,0.0
100.1640625,-14.16015625,-17.08984375,-17.578125,-14.6484375,-23.92578125,0.0
100.16796875,-44.43359375,-51.7578125,-42.96875,-51.26953125,28.80859375,0.0
100.171875,-55.17578125,-60.05859375,-46.38671875,-56.15234375,96.19140625,0.0
100.17578125,-56.640625,-42.96875,-36.62109375,-38.0859375,42.48046875,0.0
100.1796875,-48.33984375,-44.43359375,-33.203125,-31.25,-44.921875,0.0
100.18359375,-40.0390625,-46.875,-31.73828125,-34.66796875,-51.7578125,0.0
100.1875,-35.15625,-37.59765625,-33.69140625,-31.25,-43.45703125,0.0
100.19140625,-23.92578125,-27.34375,-31.25,-20.99609375,-10.25390625,0.0
100.1953125,-24.4140625,-22.94921875,-26.3671875,-16.11328125,-9.27734375,0.0
100.19921875,-25.390625,-20.01953125,-26.85546875,-14.6484375,-42.96875,0.0
100.203125,-21.97265625,-24.90234375,-28.80859375,-18.06640625,-101.5625,0.0
100.20703125,-28.3203125,-30.2734375,-28.80859375,-27.34375,-90.33203125,0.0
100.2109375,-18.06640625,-20.99609375,-23.4375,-16.6015625,-41.50390625,0.0
100.21484375,-20.99609375,-18.06640625,-20.01953125,-13.18359375,-95.703125,0.0
100.21875,-35.64453125,-33.69140625,-28.80859375,-26.85546875,-52.734375,0.0
100.22265625,-36.1328125,-38.57421875,-32.71484375,-35.15625,-45.8984375,0.0
100.2265625,-25.390625,-29.78515625,-23.4375,-30.76171875,-79.58984375,0.0
100.23046875,-20.01953125,-25.87890625,-21.484375,-19.53125,-50.78125,0.0
100.234375,-31.25,-32.71484375,-21.97265625,-19.04296875,-39.55078125,0.0
100.23828125,-37.59765625,-38.0859375,-18.06640625,-28.3203125,-132.8125,0.0
100.2421875,-34.1796875,-34.1796875,-22.4609375,-37.59765625,-136.71875,0.0
100.24609375,-14.6484375,-21.97265625,-13.671875,-27.83203125,-43.45703125,0.0
100.25,-24.90234375,-35.64453125,-16.6015625,-34.1796875,-51.7578125,0.0
100.25390625,-51.7578125,-50.78125,-37.59765625,-52.24609375,23.4375,0.0
100.2578125,-57.12890625,-51.7578125,-47.8515625,-53.7109375,-36.62109375,0.0
100.26171875,-48.33984375,-44.921875,-41.50390625,-47.8515625,-44.43359375,0.0
100.265625,-21.484375,-30.2734375,-28.80859375,-37.59765625,38.0859375,0.0
100.26953125,-15.625,-30.2734375,-26.85546875,-35.15625,-13.18359375,0.0
100.2734375,-38.57421875,-40.52734375,-29.78515625,-39.0625,-36.62109375,0.0
100.27734375,-51.26953125,-43.9453125,-30.76171875,-46.875,-56.640625,0.0
100.28125,-47.36328125,-35.15625,-41.015625,-46.38671875,-81.54296875,0.0
100.28515625,-37.59765625,-28.3203125,-34.1796875,-37.109375,-65.91796875,0.0
100.2890625,-30.2734375,-28.3203125,-21.97265625,-31.25,-182.12890625,0.0
100.29296875,-49.31640625,-46.875,-44.921875,-46.38671875,-265.625,0.0
100.296875,-62.98828125,-54.19921875,-49.8046875,-46.38671875,-157.71484375,0.0
100.30078125,-63.4765625,-55.6640625,-41.50390625,-53.7109375,-161.1328125,0.0
100.3046875,-55.17578125,-52.734375,-36.1328125,-57.12890625,-180.17578125,0.0
100.30859375,-37.109375,-38.57421875,-27.34375,-41.9921875,21.97265625,0.0
100.3125,-27.34375,-29.296875,-24.90234375,-28.80859375,137.20703125,0.0
100.31640625,-34.1796875,-31.73828125,-25.87890625,-28.3203125,59.08203125,0.0
100.3203125,-48.33984375,-41.9921875,-37.109375,-39.0625,-22.94921875,0.0
100.32421875,-40.0390625,-41.015625,-41.9921875,-41.9921875,13.18359375,0.0
100.328125,-17.08984375,-24.90234375,-28.80859375,-28.80859375,59.08203125,0.0
100.33203125,-26.85546875,-32.71484375,-33.69140625,-29.296875,18.06640625,0.0
100.3359375,-62.5,-62.01171875,-57.6171875,-53.7109375,-5.859375,0.0
100.33984375,-61.03515625,-64.453125,-45.8984375,-62.01171875,20.01953125,0.0
100.34375,-40.52734375,-45.8984375,-29.296875,-49.31640625,77.1484375,0.0
100.34765625,-27.34375,-33.203125,-26.85546875,-34.66796875,51.26953125,0.0
100.3515625,-20.01953125,-28.80859375,-21.97265625,-23.92578125,0.9765625,0.0
100.35546875,-31.73828125,-32.71484375,-21.484375,-17.578125,-41.9921875,0.0
100.359375,-32.71484375,-35.15625,-20.01953125,-12.6953125,-69.3359375,0.0
100.36328125,-23.4375,-32.71484375,-21.97265625,-14.16015625,16.11328125,0.0
100.3671875,-13.18359375,-29.78515625,-23.4375,-9.27734375,-11.71875,0.0
100.37109375,-18.06640625,-31.73828125,-29.78515625,-12.6953125,-75.68359375,0.0
100.375,-33.69140625,-34.1796875,-29.78515625,-22.94921875,-16.6015625,0.0
100.37890625,-50.29296875,-44.43359375,-32.71484375,-36.1328125,-22.4609375,0.0
100.3828125,-58.10546875,-47.36328125,-33.203125,-47.36328125,-80.56640625,0.0
100.38671875,-49.31640625,-42.48046875,-36.1328125,-48.33984375,-32.71484375,0.0
100.390625,-43.45703125,-43.9453125,-38.0859375,-45.8984375,6.8359375,0.0
100.39453125,-57.12890625,-51.26953125,-33.69140625,-42.96875,-22.94921875,0.0
100.3984375,-54.6875,-49.31640625,-22.4609375,-39.55078125,-41.015625,0.0
100.40234375,-42.96875,-38.57421875,-21.97265625,-41.50390625,-31.25,0.0
100.40625,-34.66796875,-34.66796875,-25.87890625,-41.015625,17.08984375,0.0
100.41015625,-13.671875,-18.5546875,-13.18359375,-22.94921875,18.06640625,0.0
100.4140625,-10.7421875,-12.20703125,-10.7421875,-14.6484375,-4.8828125,0.0
100.41796875,-25.390625,-26.85546875,-21.97265625,-21.484375,-17.08984375,0.0
100.421875,-29.296875,-34.1796875,-25.390625,-26.3671875,-22.94921875,0.0
100.42578125,-31.73828125,-37.59765625,-23.92578125,-42.48046875,-25.390625,0.0
100.4296875,-37.109375,-44.43359375,-31.73828125,-48.33984375,-40.52734375,0.0
100.43359375,-44.921875,-45.8984375,-36.1328125,-45.8984375,0.9765625,0.0
100.4375,-56.640625,-45.41015625,-41.9921875,-48.33984375,25.87890625,0.0
100.44140625,-49.31640625,-46.38671875,-43.45703125,-45.41015625,-30.76171875,0.0
100.4453125,-32.2265625,-41.50390625,-31.73828125,-43.9453125,-24.90234375,0.0
100.44921875,-30.76171875,-30.76171875,-27.83203125,-42.96875,-27.34375,0.0
100.453125,-34.66796875,-26.3671875,-24.90234375,-35.64453125,-87.890625,0.0
100.45703125,-21.97265625,-15.13671875,-15.625,-18.06640625,-59.5703125,0.0
100.4609375,-13.18359375,-9.765625,-23.92578125,-12.20703125,-31.73828125,0.0
100.46484375,-20.99609375,-22.4609375,-34.1796875,-32.71484375,-134.765625,0.0
100.46875,-28.80859375,-26.85546875,-30.76171875,-45.41015625,-125.9765625,0.0
100.47265625,-26.85546875,-26.3671875,-29.296875,-33.69140625,-36.62109375,0.0
100.4765625,-35.15625,-28.80859375,-32.2265625,-29.296875,-46.38671875,0.0
100.48046875,-45.41015625,-30.2734375,-40.0390625,-41.50390625,-83.49609375,0.0
100.484375,-35.15625,-31.73828125,-33.69140625,-48.33984375,-81.54296875,0.0
100.48828125,-17.578125,-25.87890625,-23.92578125,-35.15625,-20.01953125,0.0
100.4921875,-20.01953125,-24.90234375,-36.62109375,-29.296875,75.68359375,0.0
100.49609375,-25.87890625,-29.296875,-33.69140625,-26.85546875,92.7734375,0.0
100.5,-23.92578125,-30.2734375,-20.01953125,-28.3203125,-12.20703125,0.0
100.50390625,-30.2734375,-38.0859375,-35.64453125,-45.41015625,24.90234375,0.0
100.5078125,-30.76171875,-43.45703125,-41.015625,-49.8046875,-7.8125,0.0
100.51171875,-21.484375,-35.15625,-27.83203125,-29.78515625,-79.1015625,0.0
100.515625,-23.92578125,-28.80859375,-24.90234375,-23.92578125,-61.03515625,0.0
100.51953125,-37.109375,-33.69140625,-27.83203125,-36.62109375,-71.2890625,0.0
100.5234375,-37.59765625,-37.59765625,-36.1328125,-45.41015625,-138.18359375,0.0
100.52734375,-24.4140625,-28.80859375,-27.83203125,-43.45703125,-117.1875,0.0
100.53125,-21.484375,-28.3203125,-19.04296875,-33.69140625,-32.2265625,0.0
100.53515625,-26.85546875,-29.296875,-19.53125,-22.4609375,-19.53125,0.0
100.5390625,-33.69140625,-28.3203125,-22.94921875,-20.99609375,16.11328125,0.0
100.54296875,-30.76171875,-29.78515625,-29.78515625,-26.3671875,52.734375,0.0
100.546875,-26.85546875,-33.203125,-24.90234375,-28.80859375,-0.9765625,0.0
100.55078125,-27.83203125,-29.78515625,-20.99609375,-24.90234375,37.59765625,0.0
100.5546875,-44.921875,-32.71484375,-28.80859375,-30.76171875,8.7890625,0.0
100.55859375,-53.7109375,-38.0859375,-29.78515625,-29.296875,15.13671875,0.0
100.5625,-40.0390625,-29.296875,-26.85546875,-24.4140625,83.0078125,0.0
100.56640625,-33.69140625,-28.3203125,-20.5078125,-29.78515625,-5.37109375,0.0
100.5703125,-41.9921875,-30.76171875,-24.90234375,-34.66796875,-124.51171875,0.0
100.57421875,-37.109375,-19.04296875,-22.94921875,-19.04296875,-87.40234375,0.0
100.578125,-39.55078125,-26.85546875,-20.01953125,-15.625,-56.15234375,0.0
100.58203125,-37.59765625,-34.66796875,-25.87890625,-28.3203125,-59.5703125,0.0
100.5859375,-24.4140625,-28.3203125,-28.3203125,-30.76171875,-38.0859375,0.0
100.58984375,-26.85546875,-29.78515625,-31.73828125,-27.34375,-61.5234375,0.0
100.59375,-31.73828125,-35.15625,-24.90234375,-16.6015625,-89.35546875,0.0
100.59765625,-40.0390625,-34.1796875,-15.13671875,-20.01953125,-105.95703125,0.0
100.6015625,-43.45703125,-31.73828125,-13.671875,-26.3671875,-116.2109375,0.0
100.60546875,-41.50390625,-35.64453125,-19.04296875,-37.109375,-146.97265625,0.0
100.609375,-41.015625,-39.55078125,-27.83203125,-41.015625,-85.9375,0.0
100.61328125,-32.71484375,-27.83203125,-23.92578125,-26.85546875,-45.8984375,0.0
100.6171875,-34.1796875,-28.80859375,-25.87890625,-24.90234375,-79.1015625,0.0
100.62109375,-42.96875,-38.57421875,-41.9921875,-34.66796875,-41.9921875,0.0
100.625,-36.62109375,-36.62109375,-34.66796875,-34.1796875,-54.6875,0.0
100.62890625,-24.4140625,-32.2265625,-16.11328125,-31.73828125,-38.0859375,0.0
100.6328125,-22.4609375,-30.2734375,-13.671875,-34.66796875,40.52734375,0.0
100.63671875,-32.2265625,-30.76171875,-22.94921875,-22.4609375,-15.13671875,0.0
100.640625,-38.0859375,-28.3203125,-24.90234375,-16.6015625,-50.29296875,0.0
100.64453125,-52.734375,-39.0625,-31.73828125,-43.9453125,39.55078125,0.0
100.6484375,-54.6875,-41.9921875,-33.69140625,-49.31640625,56.640625,0.0
100.65234375,-49.8046875,-33.69140625,-25.390625,-31.73828125,18.06640625,0.0
100.65625,-54.19921875,-34.1796875,-24.90234375,-27.34375,-26.85546875,0.0
100.66015625,-47.36328125,-32.2265625,-32.2265625,-27.34375,-8.7890625,0.0
100.6640625,-34.1796875,-29.296875,-35.15625,-25.87890625,-46.38671875,0.0
100.66796875,-31.25,-31.25,-27.34375,-26.3671875,-211.9140625,0.0
100.671875,-41.015625,-43.45703125,-32.2265625,-31.25,-204.1015625,0.0
100.67578125,-44.43359375,-49.8046875,-36.62109375,-27.83203125,-155.76171875,0.0
100.6796875,-38.57421875,-40.0390625,-20.5078125,-14.6484375,-173.828125,0.0
100.68359375,-22.94921875,-26.3671875,-10.7421875,-8.7890625,-160.15625,0.0
100.6875,-13.18359375,-20.99609375,-18.06640625,-12.6953125,-98.6328125,0.0
100.69140625,-33.203125,-38.0859375,-35.64453125,-35.64453125,-95.21484375,0.0
100.6953125,-57.6171875,-55.6640625,-46.38671875,-47.36328125,-138.671875,0.0
100.69921875,-64.94140625,-54.6875,-41.015625,-42.96875,-122.0703125,0.0
100.703125,-46.875,-38.57421875,-35.15625,-41.50390625,-70.80078125,0.0
100.70703125,-24.90234375,-20.5078125,-28.80859375,-33.203125,-95.21484375,0.0
100.7109375,-23.92578125,-20.5078125,-22.4609375,-24.4140625,-87.40234375,0.0
100.71484375,-38.0859375,-32.71484375,-41.9921875,-36.1328125,30.2734375,0.0
100.71875,-48.33984375,-41.015625,-49.31640625,-49.8046875,66.40625,0.0
100.72265625,-43.45703125,-43.9453125,-36.1328125,-50.29296875,39.55078125,0.0
100.7265625,-33.69140625,-39.55078125,-33.203125,-44.921875,5.37109375,0.0
100.73046875,-24.4140625,-24.4140625,-26.85546875,-34.66796875,31.73828125,0.0
100.734375,-37.109375,-31.73828125,-30.76171875,-41.50390625,37.109375,0.0
100.73828125,-35.64453125,-30.76171875,-37.109375,-40.0390625,-30.76171875,0.0
100.7421875,-25.390625,-24.90234375,-34.1796875,-35.15625,1.46484375,0.0
100.74609375,-23.4375,-26.3671875,-35.64453125,-39.55078125,99.12109375,0.0
100.75,-24.90234375,-34.1796875,-44.921875,-41.015625,111.328125,0.0
100.75390625,-33.69140625,-40.0390625,-38.57421875,-36.62109375,58.59375,0.0
100.7578125,-33.69140625,-35.64453125,-27.34375,-34.66796875,-34.66796875,0.0
100.76171875,-25.87890625,-29.78515625,-23.4375,-36.1328125,-97.16796875,0.0
100.765625,-32.71484375,-34.66796875,-31.73828125,-43.45703125,-8.30078125,0.0
100.76953125,-35.15625,-42.48046875,-38.57421875,-46.875,42.48046875,0.0
100.7734375,-28.80859375,-37.59765625,-41.9921875,-35.15625,7.8125,0.0
100.77734375,-38.57421875,-35.64453125,-38.57421875,-34.66796875,31.25,0.0
100.78125,-43.9453125,-38.0859375,-33.203125,-45.41015625,41.015625,0.0
100.78515625,-38.57421875,-39.0625,-35.64453125,-53.7109375,18.06640625,0.0
100.7890625,-29.78515625,-38.57421875,-31.73828125,-41.9921875,47.8515625,0.0
100.79296875,-30.2734375,-33.203125,-24.4140625,-26.3671875,-37.109375,0.0
100.796875,-29.296875,-26.3671875,-23.92578125,-12.20703125,-108.3984375,0.0
100.80078125,-34.1796875,-31.73828125,-23.92578125,-14.16015625,-64.453125,0.0
100.8046875,-33.203125,-34.1796875,-27.83203125,-32.2265625,-52.24609375,0.0
100.80859375,-25.390625,-27.34375,-27.34375,-33.203125,-29.296875,0.0
100.8125,-37.59765625,-39.55078125,-27.83203125,-39.0625,-86.42578125,0.0
100.81640625,-60.05859375,-54.19921875,-31.25,-48.828125,-83.984375,0.0
100.8203125,-65.91796875,-58.59375,-37.59765625,-48.33984375,13.671875,0.0
100.82421875,-40.52734375,-43.9453125,-30.76171875,-33.203125,-23.92578125,0.0
100.828125,-25.390625,-31.25,-22.94921875,-25.87890625,-59.08203125,0.0
100.83203125,-39.0625,-42.48046875,-35.64453125,-38.57421875,-12.6953125,0.0
100.8359375,-53.7109375,-49.8046875,-37.109375,-45.8984375,-46.875,0.0
100.83984375,-51.26953125,-45.8984375,-36.62109375,-40.52734375,-79.1015625,0.0
100.84375,-39.0625,-41.50390625,-32.71484375,-37.109375,-58.10546875,0.0
100.84765625,-8.30078125,-20.99609375,-13.18359375,-15.625,0.9765625,0.0
100.8515625,-10.7421875,-19.04296875,-15.13671875,-13.18359375,-10.7421875,0.0
100.85546875,-37.59765625,-35.64453125,-34.1796875,-28.80859375,9.27734375,0.0
100.859375,-28.3203125,-34.1796875,-28.3203125,-25.390625,-18.5546875,0.0
100.86328125,-28.80859375,-39.0625,-32.71484375,-32.71484375,-127.44140625,0.0
100.8671875,-35.15625,-41.50390625,-45.41015625,-36.62109375,-105.46875,0.0
100.87109375,-25.87890625,-31.25,-33.69140625,-24.4140625,-100.5859375,0.0
100.875,-34.1796875,-42.96875,-32.71484375,-25.390625,-174.31640625,0.0
100.87890625,-40.52734375,-45.41015625,-32.2265625,-22.94921875,-154.78515625,0.0
100.8828125,-22.94921875,-31.25,-22.94921875,-12.20703125,-113.76953125,0.0
100.88671875,-16.6015625,-30.2734375,-32.71484375,-20.5078125,-75.68359375,0.0
100.890625,-21.484375,-31.73828125,-36.1328125,-28.3203125,-147.4609375,0.0
100.89453125,-20.99609375,-26.85546875,-30.2734375,-20.5078125,-201.171875,0.0
100.8984375,-27.34375,-35.15625,-32.71484375,-18.06640625,-218.75,0.0
100.90234375,-34.1796875,-44.921875,-39.0625,-25.87890625,-208.49609375,0.0
100.90625,-22.94921875,-37.59765625,-40.52734375,-24.90234375,-112.3046875,0.0
100.91015625,-20.99609375,-39.55078125,-37.59765625,-24.4140625,-111.81640625,0.0
100.9140625,-25.87890625,-32.2265625,-30.2734375,-15.13671875,-58.10546875,0.0
100.91796875,-34.1796875,-33.203125,-33.69140625,-20.01953125,-45.41015625,0.0
100.921875,-44.921875,-52.24609375,-49.8046875,-41.9921875,-93.26171875,0.0
100.92578125,-32.2265625,-43.9453125,-48.828125,-39.55078125,-88.37890625,0.0
100.9296875,-27.34375,-38.57421875,-48.828125,-36.62109375,-114.2578125,0.0
100.93359375,-47.8515625,-55.6640625,-56.15234375,-53.22265625,-141.11328125,0.0
100.9375,-56.15234375,-58.10546875,-52.24609375,-56.640625,-187.01171875,0.0
100.94140625,-48.828125,-47.36328125,-49.31640625,-46.875,-130.37109375,0.0
100.9453125,-41.9921875,-42.48046875,-49.31640625,-42.96875,-150.87890625,0.0
100.94921875,-26.3671875,-29.78515625,-28.3203125,-24.4140625,-149.90234375,0.0
100.953125,-20.01953125,-24.90234375,-18.5546875,-19.53125,-38.57421875,0.0
100.95703125,-37.59765625,-36.1328125,-28.80859375,-35.64453125,7.32421875,0.0
100.9609375,-51.26953125,-45.8984375,-39.0625,-42.96875,-7.8125,0.0
100.96484375,-44.43359375,-48.828125,-43.9453125,-43.9453125,38.57421875,0.0
100.96875,-33.203125,-42.48046875,-39.55078125,-40.0390625,41.9921875,0.0
100.97265625,-39.55078125,-41.50390625,-34.66796875,-36.62109375,-107.91015625,0.0
100.9765625,-51.26953125,-48.33984375,-36.62109375,-35.64453125,-137.6953125,0.0
100.98046875,-47.8515625,-49.8046875,-38.57421875,-42.48046875,-20.5078125,0.0
100.984375,-49.8046875,-48.828125,-38.57421875,-54.19921875,-18.5546875,0.0
100.98828125,-45.41015625,-38.57421875,-34.66796875,-46.38671875,-58.59375,0.0
100.9921875,-44.43359375,-37.109375,-29.296875,-36.1328125,-74.70703125,0.0
100.99609375,-54.6875,-42.48046875,-31.25,-31.73828125,-132.32421875,0.0
101.0,-52.24609375,-38.57421875,-32.71484375,-29.296875,-104.98046875,0.0
101.00390625,-49.31640625,-37.109375,-35.15625,-34.66796875,-65.4296875,0.0
101.0078125,-45.41015625,-41.9921875,-39.55078125,-41.50390625,-62.98828125,0.0
101.01171875,-45.41015625,-38.0859375,-32.71484375,-39.0625,4.8828125,0.0
101.015625,-45.41015625,-30.2734375,-29.296875,-26.3671875,62.98828125,0.0
101.01953125,-41.9921875,-31.25,-31.73828125,-21.484375,20.99609375,0.0
101.0234375,-43.9453125,-36.62109375,-37.109375,-34.1796875,-27.34375,0.0
101.02734375,-31.25,-28.3203125,-30.76171875,-32.2265625,71.77734375,0.0
101.03125,-30.76171875,-29.296875,-25.390625,-29.296875,136.23046875,0.0
101.03515625,-47.8515625,-43.45703125,-37.109375,-39.0625,97.16796875,0.0
101.0390625,-44.43359375,-42.96875,-36.62109375,-35.64453125,81.0546875,0.0
101.04296875,-38.57421875,-31.73828125,-29.78515625,-30.76171875,109.375,0.0
101.046875,-40.0390625,-33.69140625,-39.55078125,-37.109375,90.8203125,0.0
101.05078125,-39.0625,-44.921875,-37.59765625,-44.921875,90.8203125,0.0
101.0546875,-33.203125,-34.66796875,-22.94921875,-28.3203125,58.59375,0.0
101.05859375,-42.96875,-33.69140625,-30.2734375,-26.3671875,29.296875,0.0
101.0625,-43.9453125,-37.59765625,-36.62109375,-35.15625,-11.23046875,0.0
101.06640625,-22.94921875,-23.92578125,-19.53125,-24.90234375,-68.359375,0.0
101.0703125,-34.1796875,-31.25,-32.2265625,-35.64453125,-117.67578125,0.0
101.07421875,-41.50390625,-37.109375,-43.45703125,-38.57421875,-169.43359375,0.0
101.078125,-39.0625,-30.2734375,-23.92578125,-24.90234375,-242.67578125,0.0
101.08203125,-44.43359375,-32.71484375,-13.18359375,-25.390625,-226.5625,0.0
101.0859375,-31.25,-30.2734375,-16.11328125,-31.73828125,-129.8828125,0.0
101.08984375,-33.203125,-34.66796875,-28.3203125,-44.921875,-94.23828125,0.0
101.09375,-38.57421875,-38.0859375,-29.78515625,-40.0390625,-123.53515625,0.0
101.09765625,-40.0390625,-34.1796875,-27.34375,-27.83203125,-104.98046875,0.0
101.1015625,-36.1328125,-30.76171875,-20.99609375,-22.94921875,37.109375,0.0
101.10546875,-32.71484375,-30.76171875,-25.390625,-29.78515625,160.15625,0.0
101.109375,-29.78515625,-34.66796875,-43.9453125,-46.875,171.38671875,0.0
101.11328125,-23.92578125,-35.15625,-50.29296875,-43.45703125,127.44140625,0.0
101.1171875,-24.4140625,-34.1796875,-38.0859375,-36.62109375,121.09375,0.0
101.12109375,-20.5078125,-26.85546875,-22.4609375,-27.34375,85.9375,0.0
101.125,-8.7890625,-18.5546875,-13.671875,-14.6484375,47.8515625,0.0
101.12890625,-12.20703125,-21.97265625,-17.08984375,-12.6953125,4.8828125,0.0
101.1328125,-26.85546875,-25.390625,-25.390625,-15.13671875,-1.46484375,0.0
101.13671875,-28.80859375,-27.34375,-27.83203125,-16.11328125,14.6484375,0.0
101.140625,-29.296875,-33.203125,-32.2265625,-21.484375,-38.0859375,0.0
101.14453125,-36.1328125,-45.8984375,-49.8046875,-37.109375,-27.34375,0.0
101.1484375,-34.1796875,-55.6640625,-51.7578125,-47.8515625,63.4765625,0.0
101.15234375,-39.0625,-51.7578125,-41.50390625,-46.875,39.55078125,0.0
101.15625,-54.19921875,-54.19921875,-39.55078125,-42.48046875,-20.5078125,0.0
101.16015625,-54.19921875,-53.22265625,-30.2734375,-40.52734375,-47.8515625,0.0
101.1640625,-43.45703125,-46.875,-31.73828125,-42.48046875,30.76171875,0.0
101.16796875,-25.87890625,-34.1796875,-27.83203125,-33.69140625,87.40234375,0.0
101.171875,-5.37109375,-11.71875,-1.46484375,-7.32421875,42.48046875,0.0
101.17578125,-27.83203125,-27.34375,-13.671875,-24.4140625,-10.25390625,0.0
101.1796875,-38.0859375,-41.50390625,-28.80859375,-34.1796875,-15.13671875,0.0
101.18359375,-14.6484375,-26.3671875,-25.390625,-13.671875,-14.16015625,0.0
101.1875,-16.11328125,-27.83203125,-32.71484375,-26.3671875,-20.99609375,0.0
101.19140625,-27.34375,-42.96875,-38.0859375,-41.9921875,-18.5546875,0.0
101.1953125,-27.83203125,-37.59765625,-33.69140625,-29.78515625,-20.5078125,0.0
101.19921875,-24.4140625,-25.390625,-35.64453125,-20.01953125,14.16015625,0.0
101.203125,-30.76171875,-35.64453125,-41.9921875,-26.85546875,-2.9296875,0.0
101.20703125,-30.2734375,-36.62109375,-43.9453125,-32.2265625,15.13671875,0.0
101.2109375,-23.4375,-32.2265625,-48.828125,-31.73828125,27.83203125,0.0
101.21484375,-18.5546875,-26.3671875,-26.3671875,-15.625,30.76171875,0.0
101.21875,-35.15625,-32.2265625,-23.4375,-21.484375,18.06640625,0.0
101.22265625,-43.9453125,-41.50390625,-32.2265625,-43.9453125,-60.546875,0.0
101.2265625,-29.78515625,-26.3671875,-18.5546875,-38.57421875,-116.69921875,0.0
101.23046875,-29.78515625,-23.4375,-25.87890625,-33.203125,-47.36328125,0.0
101.234375,-47.36328125,-38.57421875,-43.45703125,-41.50390625,98.14453125,0.0
101.23828125,-57.6171875,-43.45703125,-42.48046875,-45.8984375,40.0390625,0.0
101.2421875,-53.7109375,-39.55078125,-37.109375,-44.921875,-83.49609375,0.0
101.24609375,-38.57421875,-29.296875,-32.2265625,-40.52734375,-17.08984375,0.0
101.25,-24.90234375,-20.5078125,-29.78515625,-33.203125,22.4609375,0.0
101.25390625,-35.15625,-37.109375,-41.50390625,-42.48046875,-11.23046875,0.0
101.2578125,-46.875,-50.29296875,-45.41015625,-44.43359375,-29.78515625,0.0
101.26171875,-45.41015625,-41.015625,-36.1328125,-40.0390625,-13.671875,0.0
101.265625,-40.0390625,-35.64453125,-35.64453125,-41.50390625,-42.96875,0.0
101.26953125,-38.0859375,-36.1328125,-43.45703125,-44.43359375,-54.19921875,0.0
101.2734375,-42.96875,-39.0625,-51.26953125,-40.0390625,-20.5078125,0.0
101.27734375,-45.41015625,-40.52734375,-44.921875,-32.2265625,-53.7109375,0.0
101.28125,-43.45703125,-42.48046875,-37.59765625,-34.1796875,-98.6328125,0.0
101.28515625,-36.1328125,-40.0390625,-31.25,-41.015625,-124.0234375,0.0
101.2890625,-31.73828125,-36.62109375,-30.2734375,-42.96875,-63.96484375,0.0
101.29296875,-40.0390625,-36.1328125,-33.203125,-40.52734375,-17.08984375,0.0
101.296875,-49.31640625,-35.64453125,-34.1796875,-41.9921875,-32.2265625,0.0
101.30078125,-48.828125,-34.66796875,-30.2734375,-41.50390625,-54.6875,0.0
101.3046875,-40.52734375,-34.1796875,-31.25,-40.52734375,-110.3515625,0.0
101.30859375,-29.78515625,-26.85546875,-26.3671875,-35.64453125,-109.375,0.0
101.3125,-36.1328125,-30.2734375,-35.15625,-38.57421875,3.41796875,0.0
101.31640625,-51.7578125,-44.43359375,-46.38671875,-45.41015625,66.40625,0.0
101.3203125,-49.8046875,-42.48046875,-42.48046875,-40.0390625,-10.7421875,0.0
101.32421875,-49.31640625,-45.41015625,-48.828125,-46.38671875,-124.0234375,0.0
101.328125,-40.0390625,-48.828125,-41.015625,-45.41015625,-173.828125,0.0
101.33203125,-27.83203125,-38.57421875,-35.64453125,-39.0625,-59.08203125,0.0
101.3359375,-38.57421875,-35.64453125,-35.15625,-38.0859375,5.37109375,0.0
101.33984375,-50.78125,-41.015625,-41.50390625,-37.109375,-63.4765625,0.0
101.34375,-34.66796875,-38.57421875,-44.43359375,-38.0859375,-67.3828125,0.0
101.34765625,-10.7421875,-25.87890625,-22.4609375,-20.5078125,-88.37890625,0.0
101.3515625,-11.23046875,-27.83203125,-20.99609375,-12.20703125,-90.8203125,0.0
101.35546875,-20.01953125,-32.2265625,-28.80859375,-16.11328125,-55.17578125,0.0
101.359375,-44.921875,-45.8984375,-33.69140625,-28.80859375,-56.15234375,0.0
101.36328125,-46.875,-45.41015625,-41.50390625,-35.15625,-32.71484375,0.0
101.3671875,-32.71484375,-33.69140625,-38.57421875,-37.109375,-81.54296875,0.0
101.37109375,-41.015625,-48.33984375,-34.1796875,-43.9453125,-156.25,0.0
101.375,-37.109375,-48.828125,-32.2265625,-40.0390625,-73.2421875,0.0
101.37890625,-29.78515625,-32.71484375,-32.71484375,-32.71484375,-2.44140625,0.0
101.3828125,-26.85546875,-36.1328125,-37.109375,-28.3203125,-1.953125,0.0
101.38671875,-21.97265625,-36.62109375,-36.62109375,-31.73828125,46.875,0.0
101.390625,-21.97265625,-31.73828125,-35.15625,-28.80859375,30.76171875,0.0
101.39453125,-21.97265625,-23.4375,-28.80859375,-14.16015625,-41.50390625,0.0
101.3984375,-25.390625,-14.6484375,-19.53125,-10.25390625,-61.5234375,0.0
101.40234375,-32.71484375,-28.3203125,-22.4609375,-26.3671875,-23.4375,0.0
101.40625,-37.109375,-45.8984375,-36.1328125,-49.8046875,-26.85546875,0.0
101.41015625,-33.69140625,-45.8984375,-39.55078125,-52.24609375,-23.92578125,0.0
101.4140625,-37.109375,-39.0625,-37.109375,-41.9921875,29.296875,0.0
101.41796875,-52.734375,-43.9453125,-43.9453125,-49.8046875,-35.64453125,0.0
101.421875,-58.10546875,-54.6875,-44.921875,-58.10546875,-20.99609375,0.0
101.42578125,-52.734375,-53.22265625,-47.8515625,-57.12890625,63.96484375,0.0
101.4296875,-37.59765625,-38.57421875,-37.59765625,-44.43359375,19.53125,0.0
101.43359375,-39.0625,-39.55078125,-35.64453125,-33.69140625,-119.140625,0.0
101.4375,-38.57421875,-29.78515625,-35.15625,-26.85546875,-54.6875,0.0
101.44140625,-34.66796875,-22.4609375,-20.99609375,-28.3203125,31.73828125,0.0
101.4453125,-38.57421875,-33.69140625,-21.97265625,-37.59765625,-64.94140625,0.0
101.44921875,-37.59765625,-35.15625,-34.1796875,-36.1328125,0.48828125,0.0
101.453125,-25.87890625,-21.97265625,-18.5546875,-21.484375,31.25,0.0
101.45703125,-51.26953125,-38.57421875,-32.2265625,-41.50390625,-124.51171875,0.0
101.4609375,-66.89453125,-53.7109375,-47.8515625,-55.6640625,-157.71484375,0.0
101.46484375,-37.109375,-33.203125,-26.3671875,-36.1328125,-107.421875,0.0
101.46875,-29.296875,-35.64453125,-33.203125,-36.62109375,-33.203125,0.0
101.47265625,-39.55078125,-40.0390625,-31.73828125,-35.64453125,-24.4140625,0.0
101.4765625,-49.8046875,-37.59765625,-21.97265625,-36.1328125,39.55078125,0.0
101.48046875,-49.8046875,-33.203125,-19.53125,-32.2265625,15.625,0.0
101.484375,-30.76171875,-20.01953125,-7.8125,-13.18359375,-58.10546875,0.0
101.48828125,-27.83203125,-26.3671875,-29.296875,-20.01953125,63.4765625,0.0
101.4921875,-35.64453125,-34.66796875,-41.9921875,-29.296875,59.5703125,0.0
101.49609375,-37.59765625,-34.1796875,-18.06640625,-21.97265625,50.29296875,0.0
101.5,-41.9921875,-37.59765625,-20.99609375,-23.4375,47.36328125,0.0
101.50390625,-47.8515625,-46.38671875,-43.45703125,-46.38671875,-83.49609375,0.0
101.5078125,-40.0390625,-41.015625,-36.1328125,-48.828125,-62.98828125,0.0
101.51171875,-32.71484375,-33.203125,-26.85546875,-38.57421875,11.71875,0.0
101.515625,-48.828125,-42.96875,-34.1796875,-38.0859375,-7.8125,0.0
101.51953125,-52.24609375,-39.55078125,-34.66796875,-30.2734375,-64.453125,0.0
101.5234375,-35.15625,-32.2265625,-24.90234375,-30.76171875,-102.5390625,0.0
101.52734375,-21.484375,-29.78515625,-26.85546875,-35.15625,-80.078125,0.0
101.53125,-26.85546875,-34.1796875,-36.1328125,-36.1328125,-29.296875,0.0
101.53515625,-40.52734375,-36.1328125,-40.0390625,-32.71484375,-2.44140625,0.0
101.5390625,-52.24609375,-37.109375,-45.8984375,-38.0859375,-45.8984375,0.0
101.54296875,-24.90234375,-14.16015625,-35.64453125,-30.2734375,-114.2578125,0.0
101.546875,-5.37109375,-5.859375,-34.66796875,-25.87890625,-109.375,0.0
101.55078125,-24.4140625,-26.3671875,-38.0859375,-40.0390625,-20.01953125,0.0
101.5546875,-42.96875,-40.0390625,-42.96875,-51.7578125,-28.3203125,0.0
101.55859375,-51.7578125,-43.45703125,-42.96875,-49.31640625,-50.78125,0.0
101.5625,-45.8984375,-42.48046875,-30.2734375,-41.50390625,-44.921875,0.0
101.56640625,-31.25,-38.57421875,-27.83203125,-37.109375,-58.59375,0.0
101.5703125,-30.2734375,-34.66796875,-32.2265625,-35.15625,-58.59375,0.0
101.57421875,-37.59765625,-33.69140625,-36.62109375,-38.57421875,46.875,0.0
101.578125,-26.85546875,-27.83203125,-33.203125,-27.34375,98.6328125,0.0
101.58203125,-20.99609375,-22.4609375,-26.85546875,-17.08984375,37.109375,0.0
101.5859375,-30.2734375,-30.76171875,-36.1328125,-32.71484375,36.62109375,0.0
101.58984375,-23.4375,-24.90234375,-31.73828125,-26.3671875,64.453125,0.0
101.59375,-24.90234375,-24.4140625,-27.83203125,-18.5546875,-12.20703125,0.0
101.59765625,-46.875,-40.0390625,-46.38671875,-43.9453125,-43.9453125,0.0
101.6015625,-50.78125,-41.9921875,-55.17578125,-54.19921875,-10.25390625,0.0
101.60546875,-44.921875,-46.38671875,-57.6171875,-52.734375,-76.66015625,0.0
101.609375,-26.3671875,-38.57421875,-32.71484375,-31.25,-184.5703125,0.0
101.61328125,-16.11328125,-27.34375,-11.71875,-15.13671875,-162.59765625,0.0
101.6171875,-39.55078125,-35.15625,-36.1328125,-34.1796875,-57.12890625,0.0
101.62109375,-50.29296875,-34.1796875,-42.48046875,-36.62109375,-83.984375,0.0
101.625,-34.66796875,-27.34375,-24.4140625,-28.80859375,-174.31640625,0.0
101.62890625,-21.484375,-24.90234375,-18.06640625,-27.83203125,-125.0,0.0
101.6328125,-25.390625,-29.296875,-23.4375,-30.2734375,-34.1796875,0.0
101.63671875,-26.3671875,-28.80859375,-27.83203125,-24.90234375,48.828125,0.0
101.640625,-28.3203125,-27.83203125,-21.97265625,-15.625,8.30078125,0.0
101.64453125,-39.55078125,-35.15625,-32.71484375,-31.73828125,3.41796875,0.0
101.6484375,-41.015625,-37.59765625,-44.43359375,-48.33984375,50.78125,0.0
101.65234375,-41.50390625,-38.57421875,-39.55078125,-48.33984375,-21.484375,0.0
101.65625,-52.734375,-50.78125,-37.59765625,-48.828125,-114.2578125,0.0
101.66015625,-51.26953125,-50.78125,-28.80859375,-41.015625,-67.3828125,0.0
101.6640625,-35.64453125,-34.1796875,-27.83203125,-42.48046875,32.71484375,0.0
101.66796875,-28.80859375,-25.87890625,-27.34375,-46.38671875,59.5703125,0.0
101.671875,-31.73828125,-28.3203125,-23.4375,-36.1328125,25.390625,0.0
101.67578125,-38.0859375,-37.59765625,-36.62109375,-35.15625,36.1328125,0.0
101.6796875,-40.52734375,-41.9921875,-48.33984375,-43.45703125,48.828125,0.0
101.68359375,-36.1328125,-26.85546875,-36.1328125,-42.48046875,50.29296875,0.0
101.6875,-28.80859375,-24.90234375,-22.94921875,-37.59765625,46.38671875,0.0
101.69140625,-30.2734375,-30.76171875,-26.3671875,-36.62109375,27.83203125,0.0
101.6953125,-28.3203125,-18.5546875,-24.4140625,-30.76171875,47.36328125,0.0
101.69921875,-32.71484375,-25.390625,-22.94921875,-29.78515625,-19.04296875,0.0
101.703125,-32.2265625,-33.69140625,-20.5078125,-28.80859375,-72.265625,0.0
101.70703125,-31.73828125,-31.73828125,-41.9921875,-39.0625,-6.34765625,0.0
101.7109375,-38.0859375,-38.0859375,-54.6875,-46.38671875,21.97265625,0.0
101.71484375,-41.015625,-40.0390625,-35.64453125,-37.109375,-15.625,0.0
101.71875,-52.734375,-40.0390625,-41.015625,-41.9921875,-85.9375,0.0
101.72265625,-45.8984375,-37.59765625,-34.66796875,-40.52734375,-87.890625,0.0
101.7265625,-25.87890625,-28.80859375,-22.94921875,-29.78515625,-71.2890625,0.0
101.73046875,-19.53125,-25.390625,-22.4609375,-28.3203125,-72.75390625,0.0
101.734375,-15.625,-19.53125,-14.6484375,-18.5546875,19.04296875,0.0
101.73828125,-20.99609375,-18.06640625,-12.6953125,-13.671875,83.984375,0.0
101.7421875,-20.99609375,-17.08984375,-14.6484375,-19.53125,2.9296875,0.0
101.74609375,-11.71875,-14.6484375,-28.3203125,-24.4140625,-96.19140625,0.0
101.75,-12.20703125,-29.78515625,-37.109375,-31.25,-125.48828125,0.0
101.75390625,-27.34375,-34.66796875,-34.66796875,-36.1328125,-1.953125,0.0
101.7578125,-40.0390625,-29.78515625,-32.71484375,-31.25,25.390625,0.0
101.76171875,-41.9921875,-35.15625,-37.59765625,-32.2265625,-115.72265625,0.0
101.765625,-42.96875,-44.921875,-50.29296875,-37.59765625,-63.96484375,0.0
101.76953125,-26.85546875,-34.1796875,-40.52734375,-26.85546875,-16.11328125,0.0
101.7734375,-22.94921875,-27.83203125,-27.83203125,-16.6015625,-157.2265625,0.0
101.77734375,-35.64453125,-29.78515625,-25.87890625,-22.94921875,-126.46484375,0.0
101.78125,-21.484375,-22.4609375,-16.6015625,-22.94921875,-16.11328125,0.0
101.78515625,-21.484375,-31.73828125,-26.85546875,-24.4140625,-3.90625,0.0
101.7890625,-29.296875,-32.2265625,-31.73828125,-30.2734375,-18.5546875,0.0
101.79296875,-19.53125,-27.34375,-16.6015625,-20.5078125,-55.17578125,0.0
101.796875,-23.92578125,-34.1796875,-21.484375,-19.04296875,-37.109375,0.0
101.80078125,-30.76171875,-37.109375,-33.203125,-28.3203125,-21.484375,0.0
101.8046875,-16.6015625,-27.83203125,-32.2265625,-25.390625,-30.76171875,0.0
101.80859375,-12.20703125,-27.34375,-30.2734375,-30.2734375,-48.33984375,0.0
101.8125,-27.34375,-41.015625,-36.62109375,-38.57421875,-35.64453125,0.0
101.81640625,-43.9453125,-43.45703125,-34.66796875,-42.96875,16.6015625,0.0
101.8203125,-43.45703125,-35.64453125,-32.2265625,-46.38671875,-83.984375,0.0
101.82421875,-36.62109375,-36.62109375,-41.50390625,-52.734375,-100.5859375,0.0
101.828125,-38.0859375,-36.62109375,-44.43359375,-61.5234375,-52.24609375,0.0
101.83203125,-43.45703125,-32.71484375,-35.15625,-63.96484375,-113.76953125,0.0
101.8359375,-48.33984375,-33.69140625,-39.55078125,-58.59375,-83.984375,0.0
101.83984375,-40.0390625,-34.1796875,-37.59765625,-43.9453125,-69.3359375,0.0
101.84375,-18.06640625,-25.390625,-30.76171875,-29.78515625,-92.28515625,0.0
101.84765625,-8.7890625,-14.6484375,-24.90234375,-26.3671875,-14.16015625,0.0
101.8515625,-22.4609375,-18.5546875,-17.08984375,-33.203125,18.06640625,0.0
101.85546875,-48.33984375,-36.1328125,-27.34375,-47.36328125,-72.75390625,0.0
101.859375,-62.5,-47.36328125,-37.59765625,-53.22265625,-150.87890625,0.0
101.86328125,-65.91796875,-52.734375,-42.96875,-62.98828125,-119.62890625,0.0
101.8671875,-54.19921875,-45.41015625,-42.48046875,-64.94140625,-125.48828125,0.0
101.87109375,-41.50390625,-30.2734375,-36.62109375,-52.734375,-60.05859375,0.0
101.875,-44.43359375,-29.78515625,-33.203125,-48.828125,22.4609375,0.0
101.87890625,-45.8984375,-32.71484375,-34.1796875,-43.9453125,-53.7109375,0.0
101.8828125,-49.31640625,-34.1796875,-42.48046875,-47.36328125,-75.1953125,0.0
101.88671875,-38.57421875,-28.3203125,-44.43359375,-48.33984375,-28.3203125,0.0
101.890625,-17.578125,-29.78515625,-29.78515625,-40.0390625,-0.48828125,0.0
101.89453125,-21.97265625,-31.73828125,-13.671875,-26.85546875,-53.22265625,0.0
101.8984375,-46.38671875,-36.62109375,-14.16015625,-27.34375,-100.5859375,0.0
101.90234375,-42.96875,-36.62109375,-21.97265625,-37.59765625,-77.63671875,0.0
101.90625,-32.71484375,-36.62109375,-33.69140625,-43.9453125,-50.29296875,0.0
101.91015625,-28.80859375,-38.0859375,-33.69140625,-40.0390625,-45.8984375,0.0
101.9140625,-29.296875,-35.64453125,-27.34375,-31.73828125,-18.06640625,0.0
101.91796875,-42.48046875,-42.48046875,-41.50390625,-37.109375,-65.4296875,0.0
101.921875,-43.45703125,-45.8984375,-49.31640625,-44.43359375,-152.83203125,0.0
101.92578125,-30.76171875,-33.203125,-36.62109375,-37.59765625,-111.81640625,0.0
101.9296875,-34.66796875,-34.1796875,-31.73828125,-38.0859375,-47.36328125,0.0
101.93359375,-38.57421875,-33.69140625,-25.87890625,-32.71484375,12.6953125,0.0
101.9375,-23.4375,-16.6015625,-14.6484375,-17.578125,-15.13671875,0.0
101.94140625,-23.92578125,-19.53125,-20.01953125,-23.4375,-82.51953125,0.0
101.9453125,-25.390625,-38.0859375,-28.80859375,-39.55078125,-88.37890625,0.0
101.94921875,-31.73828125,-48.33984375,-38.57421875,-60.05859375,-58.59375,0.0
101.953125,-33.203125,-42.48046875,-41.50390625,-55.17578125,-25.87890625,0.0
101.95703125,-32.71484375,-31.73828125,-32.2265625,-40.52734375,-16.11328125,0.0
101.9609375,-27.83203125,-32.71484375,-32.71484375,-41.50390625,-39.0625,0.0
101.96484375,-12.20703125,-27.34375,-36.1328125,-36.62109375,-44.921875,0.0
101.96875,-11.71875,-20.5078125,-32.2265625,-36.62109375,-5.859375,0.0
101.97265625,-20.01953125,-30.2734375,-33.203125,-41.9921875,-42.48046875,0.0
101.9765625,-28.3203125,-40.0390625,-36.62109375,-44.43359375,-84.47265625,0.0
101.98046875,-28.3203125,-33.69140625,-34.66796875,-41.50390625,-66.40625,0.0
101.984375,-11.71875,-17.08984375,-22.4609375,-29.78515625,-18.06640625,0.0
101.98828125,-17.08984375,-28.3203125,-28.3203125,-41.015625,-2.9296875,0.0
101.9921875,-9.765625,-24.4140625,-29.78515625,-30.2734375,-32.2265625,0.0
101.99609375,-8.30078125,-17.578125,-23.92578125,-18.5546875,-14.16015625,0.0
102.0,-32.2265625,-31.73828125,-28.3203125,-36.62109375,-1.953125,0.0
102.00390625,-32.2265625,-30.76171875,-28.80859375,-41.9921875,48.33984375,0.0
102.0078125,-18.5546875,-23.4375,-23.4375,-37.59765625,5.859375,0.0
102.01171875,-20.01953125,-23.92578125,-28.80859375,-36.1328125,-117.67578125,0.0
102.015625,-41.015625,-39.55078125,-48.33984375,-41.50390625,-95.703125,0.0
102.01953125,-56.15234375,-49.8046875,-57.12890625,-49.31640625,-38.57421875,0.0
102.0234375,-53.22265625,-52.24609375,-51.26953125,-50.29296875,-49.8046875,0.0
102.02734375,-34.1796875,-44.43359375,-33.69140625,-34.1796875,-76.66015625,0.0
102.03125,-6.8359375,-20.5078125,-18.5546875,-7.32421875,-147.94921875,0.0
102.03515625,-26.3671875,-30.2734375,-33.203125,-23.92578125,-178.7109375,0.0
102.0390625,-41.9921875,-36.1328125,-33.69140625,-37.109375,-173.828125,0.0
102.04296875,-26.3671875,-25.87890625,-25.390625,-33.203125,-203.61328125,0.0
102.046875,-26.3671875,-32.71484375,-34.66796875,-42.48046875,-230.95703125,0.0
102.05078125,-38.0859375,-40.0390625,-41.9921875,-46.875,-86.9140625,0.0
102.0546875,-41.015625,-32.2265625,-33.203125,-38.0859375,43.45703125,0.0
102.05859375,-47.8515625,-30.2734375,-29.296875,-36.62109375,29.296875,0.0
102.0625,-51.26953125,-35.64453125,-40.52734375,-43.45703125,13.671875,0.0
102.06640625,-41.50390625,-33.203125,-35.64453125,-48.33984375,52.24609375,0.0
102.0703125,-25.390625,-20.01953125,-18.06640625,-34.1796875,87.40234375,0.0
102.07421875,-29.78515625,-23.92578125,-24.90234375,-24.4140625,12.6953125,0.0
102.078125,-53.22265625,-50.29296875,-37.109375,-39.55078125,-18.06640625,0.0
102.08203125,-53.22265625,-47.8515625,-31.73828125,-40.0390625,77.1484375,0.0
102.0859375,-41.015625,-36.1328125,-34.1796875,-30.76171875,47.8515625,0.0
102.08984375,-37.109375,-36.1328125,-28.80859375,-26.85546875,4.8828125,0.0
102.09375,-26.3671875,-27.34375,-12.20703125,-16.11328125,19.53125,0.0
102.09765625,-23.92578125,-23.92578125,-13.18359375,-15.13671875,3.90625,0.0
102.1015625,-41.9921875,-37.59765625,-36.62109375,-33.69140625,-10.25390625,0.0
102.10546875,-41.50390625,-46.38671875,-39.55078125,-37.109375,-9.27734375,0.0
102.109375,-24.4140625,-39.0625,-33.203125,-27.83203125,-21.484375,0.0
102.11328125,-34.1796875,-35.64453125,-42.96875,-31.25,-7.8125,0.0
102.1171875,-46.875,-34.66796875,-33.203125,-26.85546875,15.13671875,0.0
102.12109375,-35.64453125,-26.85546875,-19.04296875,-12.20703125,4.39453125,0.0
102.125,-29.78515625,-33.203125,-26.85546875,-17.578125,-40.52734375,0.0
102.12890625,-26.3671875,-32.2265625,-29.78515625,-28.80859375,-20.01953125,0.0
102.1328125,-34.1796875,-35.15625,-36.62109375,-35.64453125,-16.11328125,0.0
102.13671875,-45.8984375,-42.96875,-32.2265625,-35.15625,-54.6875,0.0
102.140625,-38.0859375,-36.1328125,-20.01953125,-30.76171875,9.27734375,0.0
102.14453125,-36.1328125,-32.71484375,-27.34375,-40.0390625,86.42578125,0.0
102.1484375,-39.0625,-27.34375,-30.2734375,-50.78125,-20.99609375,0.0
102.15234375,-28.80859375,-20.99609375,-20.99609375,-37.109375,-57.6171875,0.0
102.15625,-32.71484375,-27.83203125,-18.5546875,-28.80859375,-21.484375,0.0
102.16015625,-50.29296875,-33.203125,-28.3203125,-42.48046875,-40.0390625,0.0
102.1640625,-49.31640625,-33.203125,-38.57421875,-54.19921875,-37.59765625,0.0
102.16796875,-33.69140625,-33.69140625,-28.80859375,-44.43359375,-74.21875,0.0
102.171875,-26.3671875,-34.66796875,-15.13671875,-26.85546875,-59.08203125,0.0
102.17578125,-41.50390625,-41.50390625,-23.4375,-28.80859375,-49.8046875,0.0
102.1796875,-54.19921875,-53.22265625,-36.1328125,-37.59765625,-86.9140625,0.0
102.18359375,-47.36328125,-50.29296875,-33.203125,-45.41015625,-29.296875,0.0
102.1875,-31.73828125,-35.64453125,-32.2265625,-51.26953125,-3.90625,0.0
102.19140625,-28.80859375,-30.2734375,-36.62109375,-37.59765625,-38.57421875,0.0
102.1953125,-45.8984375,-37.59765625,-31.73828125,-35.64453125,-59.08203125,0.0
102.19921875,-41.015625,-33.203125,-18.5546875,-29.78515625,-21.484375,0.0
102.203125,-27.83203125,-33.69140625,-14.16015625,-26.85546875,23.4375,0.0
102.20703125,-29.78515625,-40.52734375,-21.484375,-43.45703125,-34.1796875,0.0
102.2109375,-34.66796875,-41.015625,-25.390625,-51.7578125,-41.9921875,0.0
102.21484375,-33.203125,-36.1328125,-25.87890625,-40.0390625,-22.94921875,0.0
102.21875,-36.1328125,-36.62109375,-32.2265625,-33.69140625,-84.47265625,0.0
102.22265625,-39.0625,-38.0859375,-39.55078125,-40.52734375,-46.38671875,0.0
102.2265625,-17.578125,-21.484375,-34.1796875,-31.73828125,-23.92578125,0.0
102.23046875,-22.94921875,-28.80859375,-37.59765625,-38.57421875,-19.53125,0.0
102.234375,-42.96875,-43.45703125,-39.0625,-54.19921875,52.24609375,0.0
102.23828125,-36.1328125,-32.2265625,-26.85546875,-45.8984375,40.52734375,0.0
102.2421875,-28.80859375,-28.80859375,-29.296875,-45.8984375,28.80859375,0.0
102.24609375,-20.99609375,-31.73828125,-37.109375,-46.38671875,43.9453125,0.0
102.25,-7.32421875,-18.06640625,-21.97265625,-29.296875,-68.84765625,0.0
102.25390625,-20.5078125,-21.97265625,-29.78515625,-30.2734375,-104.00390625,0.0
102.2578125,-42.48046875,-35.64453125,-41.9921875,-42.96875,-9.765625,0.0
102.26171875,-48.33984375,-38.57421875,-36.1328125,-46.38671875,-6.8359375,0.0
102.265625,-34.66796875,-34.66796875,-34.66796875,-43.45703125,-36.62109375,0.0
102.26953125,-22.94921875,-31.73828125,-36.1328125,-37.109375,-100.09765625,0.0
102.2734375,-33.203125,-33.69140625,-41.015625,-34.66796875,-102.5390625,0.0
102.27734375,-42.48046875,-35.15625,-39.55078125,-35.64453125,-79.58984375,0.0
102.28125,-41.9921875,-33.69140625,-34.66796875,-32.71484375,-107.421875,0.0
102.28515625,-43.9453125,-31.25,-37.59765625,-39.55078125,-124.0234375,0.0
102.2890625,-44.43359375,-35.15625,-41.015625,-47.36328125,-79.58984375,0.0
102.29296875,-38.57421875,-36.1328125,-36.1328125,-46.875,-121.58203125,0.0
102.296875,-33.203125,-34.1796875,-22.94921875,-39.55078125,-179.6875,0.0
102.30078125,-30.2734375,-27.34375,-13.18359375,-28.80859375,-127.44140625,0.0
102.3046875,-39.0625,-31.25,-31.25,-43.45703125,-79.1015625,0.0
102.30859375,-49.31640625,-43.9453125,-48.828125,-60.546875,-96.19140625,0.0
102.3125,-51.7578125,-48.828125,-45.41015625,-50.78125,-101.07421875,0.0
102.31640625,-58.59375,-49.31640625,-39.55078125,-42.96875,-71.2890625,0.0
102.3203125,-61.03515625,-42.48046875,-32.71484375,-39.55078125,-94.23828125,0.0
102.32421875,-53.7109375,-35.15625,-31.25,-41.50390625,-72.75390625,0.0
102.328125,-41.015625,-35.64453125,-32.71484375,-43.9453125,-4.8828125,0.0
102.33203125,-32.2265625,-31.25,-25.87890625,-32.71484375,65.4296875,0.0
102.3359375,-39.0625,-32.71484375,-36.62109375,-29.78515625,151.85546875,0.0
102.33984375,-47.36328125,-41.50390625,-49.31640625,-29.78515625,93.26171875,0.0
102.34375,-34.1796875,-33.203125,-32.2265625,-26.3671875,-41.50390625,0.0
102.34765625,-18.5546875,-20.01953125,-14.16015625,-24.4140625,-51.7578125,0.0
102.3515625,-15.625,-20.5078125,-9.765625,-16.6015625,-32.71484375,0.0
102.35546875,-45.41015625,-38.0859375,-35.64453125,-34.1796875,-34.1796875,0.0
102.359375,-71.77734375,-52.24609375,-59.5703125,-56.640625,7.8125,0.0
102.36328125,-61.03515625,-49.31640625,-48.828125,-58.10546875,14.6484375,0.0
102.3671875,-41.015625,-36.62109375,-40.52734375,-58.59375,42.96875,0.0
102.37109375,-31.25,-28.3203125,-37.109375,-46.875,108.88671875,0.0
102.375,-26.3671875,-21.97265625,-25.390625,-26.85546875,31.73828125,0.0
102.37890625,-41.9921875,-34.66796875,-36.62109375,-35.15625,-14.6484375,0.0
102.3828125,-53.7109375,-46.38671875,-39.55078125,-42.96875,16.6015625,0.0
102.38671875,-24.90234375,-27.83203125,-16.11328125,-19.04296875,-60.546875,0.0
102.390625,-20.5078125,-21.97265625,-22.4609375,-21.484375,-156.73828125,0.0
102.39453125,-41.50390625,-35.64453125,-41.015625,-40.52734375,-85.9375,0.0
102.3984375,-43.45703125,-38.0859375,-40.52734375,-35.15625,-64.453125,0.0
102.40234375,-37.59765625,-36.62109375,-43.9453125,-34.1796875,-170.41015625,0.0
102.40625,-20.5078125,-29.296875,-31.25,-26.3671875,-234.86328125,0.0
102.41015625,-9.27734375,-23.4375,-10.25390625,-19.04296875,-187.5,0.0
102.4140625,-23.92578125,-36.62109375,-24.90234375,-29.296875,-95.21484375,0.0
102.41796875,-38.0859375,-38.0859375,-32.71484375,-27.34375,-67.3828125,0.0
102.421875,-28.80859375,-26.85546875,-23.4375,-22.94921875,-127.44140625,0.0
102.42578125,-29.296875,-38.0859375,-34.1796875,-46.38671875,-212.890625,0.0
102.4296875,-30.2734375,-40.0390625,-46.38671875,-54.19921875,-134.27734375,0.0
102.43359375,-37.109375,-39.55078125,-44.43359375,-51.26953125,-59.08203125,0.0
102.4375,-46.875,-47.8515625,-41.50390625,-45.41015625,-129.8828125,0.0
102.44140625,-39.55078125,-40.52734375,-39.55078125,-35.15625,-157.2265625,0.0
102.4453125,-33.203125,-39.0625,-46.875,-46.38671875,-150.390625,0.0
102.44921875,-23.92578125,-31.25,-41.015625,-38.0859375,-116.69921875,0.0
102.453125,-19.53125,-24.90234375,-29.78515625,-20.99609375,-76.66015625,0.0
102.45703125,-23.4375,-24.4140625,-24.4140625,-21.484375,-58.10546875,0.0
102.4609375,-32.2265625,-30.2734375,-22.4609375,-36.1328125,8.7890625,0.0
102.46484375,-36.1328125,-36.62109375,-30.76171875,-46.38671875,-12.20703125,0.0
102.46875,-27.34375,-32.71484375,-33.203125,-44.43359375,15.13671875,0.0
102.47265625,-35.15625,-30.2734375,-34.66796875,-45.8984375,-4.8828125,0.0
102.4765625,-49.8046875,-40.52734375,-41.015625,-45.8984375,-72.75390625,0.0
102.48046875,-56.15234375,-44.43359375,-44.921875,-47.36328125,-13.18359375,0.0
102.484375,-49.31640625,-37.59765625,-38.0859375,-41.015625,2.44140625,0.0
102.48828125,-21.97265625,-30.76171875,-16.6015625,-19.53125,0.48828125,0.0
102.4921875,-18.06640625,-34.1796875,-20.5078125,-25.390625,97.16796875,0.0
102.49609375,-40.0390625,-34.1796875,-35.64453125,-47.8515625,64.453125,0.0
102.5,-55.17578125,-38.57421875,-37.109375,-50.78125,-74.21875,0.0
102.50390625,-51.7578125,-39.0625,-26.85546875,-46.38671875,-63.96484375,0.0
102.5078125,-32.2265625,-20.5078125,-6.8359375,-41.50390625,-19.04296875,0.0
102.51171875,-14.6484375,-6.8359375,-0.48828125,-26.3671875,18.06640625,0.0
102.515625,-38.57421875,-18.5546875,-19.53125,-34.66796875,141.6015625,0.0
102.51953125,-76.66015625,-45.41015625,-42.48046875,-73.2421875,121.58203125,0.0
102.5234375,-71.77734375,-41.015625,-40.52734375,-77.63671875,17.578125,0.0
102.52734375,-55.6640625,-31.25,-34.1796875,-69.3359375,-3.90625,0.0
102.53125,-58.59375,-44.921875,-40.0390625,-80.56640625,-2.9296875,0.0
102.53515625,-58.10546875,-44.43359375,-34.66796875,-77.63671875,-14.16015625,0.0
102.5390625,-53.7109375,-35.64453125,-28.3203125,-65.91796875,-53.22265625,0.0
102.54296875,-40.0390625,-21.484375,-21.97265625,-50.29296875,-71.77734375,0.0
102.546875,-23.4375,-20.5078125,-21.97265625,-41.9921875,-17.578125,0.0
102.55078125,-15.13671875,-14.6484375,-8.30078125,-26.3671875,30.2734375,0.0
102.5546875,-6.34765625,-1.46484375,16.11328125,-2.44140625,-17.578125,0.0
102.55859375,-30.76171875,-23.4375,-3.90625,-20.5078125,-80.56640625,0.0
102.5625,-62.98828125,-46.875,-33.203125,-49.8046875,-53.22265625,0.0
102.56640625,-54.6875,-46.38671875,-29.78515625,-48.33984375,3.90625,0.0
102.5703125,-43.45703125,-42.96875,-31.73828125,-41.015625,-45.8984375,0.0
102.57421875,-46.38671875,-43.45703125,-38.57421875,-48.33984375,-50.29296875,0.0
102.578125,-46.875,-44.43359375,-34.66796875,-43.45703125,-63.4765625,0.0
102.58203125,-43.9453125,-45.8984375,-31.25,-35.64453125,-59.5703125,0.0
102.5859375,-32.71484375,-35.64453125,-28.3203125,-30.76171875,-108.88671875,0.0
102.58984375,-23.4375,-31.73828125,-19.04296875,-26.3671875,-158.203125,0.0
102.59375,-26.85546875,-32.71484375,-19.53125,-23.92578125,-61.5234375,0.0
102.59765625,-23.92578125,-23.92578125,-13.671875,-2.44140625,-47.8515625,0.0
102.6015625,7.32421875,5.37109375,6.34765625,23.92578125,-24.90234375,0.0
102.60546875,2.9296875,-2.44140625,-12.6953125,-1.46484375,-16.11328125,0.0
102.609375,-18.06640625,-21.97265625,-23.92578125,-21.484375,-42.48046875,0.0
102.61328125,-19.04296875,-20.99609375,-21.97265625,-15.625,-16.6015625,0.0
102.6171875,-31.25,-35.15625,-36.62109375,-27.83203125,-33.69140625,0.0
102.62109375,-39.0625,-43.9453125,-34.66796875,-35.15625,-18.5546875,0.0
102.625,-23.4375,-31.73828125,-23.92578125,-25.87890625,24.90234375,0.0
102.62890625,-15.13671875,-27.34375,-22.94921875,-24.4140625,-22.4609375,0.0
102.6328125,-21.484375,-29.296875,-22.4609375,-26.3671875,59.08203125,0.0
102.63671875,-25.87890625,-24.4140625,-16.11328125,-17.578125,91.30859375,0.0
102.640625,-35.15625,-30.76171875,-24.90234375,-23.4375,62.01171875,0.0
102.64453125,-30.76171875,-22.4609375,-24.90234375,-22.4609375,68.359375,0.0
102.6484375,-23.92578125,-16.11328125,-21.97265625,-20.99609375,17.578125,0.0
102.65234375,-31.73828125,-29.296875,-26.85546875,-32.2265625,-7.8125,0.0
102.65625,-24.90234375,-23.92578125,-18.5546875,-20.01953125,-30.76171875,0.0
102.66015625,-25.87890625,-19.53125,-24.4140625,-14.6484375,-55.17578125,0.0
102.6640625,-34.66796875,-36.62109375,-33.203125,-27.83203125,-30.2734375,0.0
102.66796875,-33.203125,-42.96875,-35.64453125,-38.57421875,-4.39453125,0.0
102.671875,-36.1328125,-34.1796875,-31.25,-38.57421875,-2.44140625,0.0
102.67578125,-45.8984375,-34.1796875,-24.90234375,-35.64453125,-8.7890625,0.0
102.6796875,-46.875,-32.2265625,-26.3671875,-33.69140625,28.80859375,0.0
102.68359375,-33.203125,-30.2734375,-24.4140625,-33.203125,-21.97265625,0.0
102.6875,-27.34375,-37.59765625,-27.34375,-35.64453125,-190.4296875,0.0
102.69140625,-27.34375,-34.66796875,-31.73828125,-36.1328125,-116.2109375,0.0
102.6953125,-32.71484375,-32.2265625,-30.2734375,-31.73828125,-3.41796875,0.0
102.69921875,-39.0625,-39.0625,-35.15625,-32.71484375,20.99609375,0.0
102.703125,-42.96875,-47.8515625,-47.8515625,-46.38671875,-61.03515625,0.0
102.70703125,-32.2265625,-37.59765625,-35.15625,-44.43359375,0.9765625,0.0
102.7109375,-24.90234375,-25.87890625,-21.97265625,-37.59765625,63.96484375,0.0
102.71484375,-36.1328125,-27.34375,-25.87890625,-37.59765625,-1.953125,0.0
102.71875,-41.9921875,-30.76171875,-25.87890625,-20.01953125,-15.13671875,0.0
102.72265625,-46.875,-32.2265625,-28.80859375,-20.5078125,26.3671875,0.0
102.7265625,-55.17578125,-38.57421875,-30.2734375,-43.9453125,-19.04296875,0.0
102.73046875,-49.31640625,-33.203125,-23.4375,-44.43359375,-71.2890625,0.0
102.734375,-49.31640625,-35.15625,-26.85546875,-39.0625,-24.4140625,0.0
102.73828125,-45.8984375,-40.52734375,-19.04296875,-30.76171875,-26.3671875,0.0
102.7421875,-30.76171875,-23.4375,-6.8359375,-14.16015625,-5.859375,0.0
102.74609375,-24.90234375,-16.11328125,-17.578125,-18.06640625,5.859375,0.0
102.75,-36.1328125,-31.73828125,-29.78515625,-37.59765625,-96.19140625,0.0
102.75390625,-55.6640625,-44.921875,-41.50390625,-47.8515625,-67.3828125,0.0
102.7578125,-64.94140625,-51.7578125,-43.45703125,-46.38671875,-26.85546875,0.0
102.76171875,-54.19921875,-51.7578125,-32.2265625,-41.9921875,-155.76171875,0.0
102.765625,-33.203125,-33.69140625,-29.296875,-35.64453125,-196.77734375,0.0
102.76953125,-26.85546875,-21.97265625,-30.76171875,-35.15625,-105.95703125,0.0
102.7734375,-33.69140625,-27.83203125,-34.1796875,-40.52734375,-85.44921875,0.0
102.77734375,-43.9453125,-36.1328125,-38.0859375,-40.52734375,-84.47265625,0.0
102.78125,-46.38671875,-44.921875,-34.1796875,-42.48046875,-61.5234375,0.0
102.78515625,-34.66796875,-41.015625,-24.4140625,-46.38671875,-50.78125,0.0
102.7890625,-24.90234375,-32.71484375,-25.390625,-43.45703125,-22.4609375,0.0
102.79296875,-16.11328125,-21.484375,-19.53125,-30.2734375,11.23046875,0.0
102.796875,-28.3203125,-26.85546875,-18.5546875,-28.80859375,-15.625,0.0
102.80078125,-52.24609375,-45.8984375,-36.1328125,-41.50390625,-14.6484375,0.0
102.8046875,-40.52734375,-40.52734375,-34.66796875,-41.50390625,-20.5078125,0.0
102.80859375,-19.53125,-31.25,-20.5078125,-32.71484375,-62.5,0.0
102.8125,-20.01953125,-35.15625,-27.83203125,-29.296875,-70.3125,0.0
102.81640625,-34.1796875,-36.62109375,-35.64453125,-25.87890625,-102.5390625,0.0
102.8203125,-39.55078125,-33.203125,-32.71484375,-23.92578125,-82.03125,0.0
102.82421875,-33.203125,-35.15625,-37.59765625,-29.296875,-49.31640625,0.0
102.828125,-33.203125,-44.43359375,-41.50390625,-38.0859375,-29.296875,0.0
102.83203125,-33.203125,-39.0625,-41.50390625,-40.0390625,22.94921875,0.0
102.8359375,-15.625,-19.04296875,-18.5546875,-18.5546875,-34.1796875,0.0
102.83984375,-7.32421875,-12.6953125,1.46484375,-8.7890625,-31.73828125,0.0
102.84375,-28.80859375,-37.109375,-25.87890625,-42.96875,4.39453125,0.0
102.84765625,-36.1328125,-48.828125,-39.0625,-55.6640625,0.48828125,0.0
102.8515625,-30.2734375,-39.0625,-28.80859375,-41.9921875,1.46484375,0.0
102.85546875,-26.3671875,-32.71484375,-22.4609375,-31.73828125,-117.1875,0.0
102.859375,-31.25,-36.1328125,-20.99609375,-30.2734375,-98.14453125,0.0
102.86328125,-45.41015625,-47.36328125,-32.71484375,-43.9453125,-50.29296875,0.0
102.8671875,-39.55078125,-40.52734375,-34.1796875,-49.8046875,-54.6875,0.0
102.87109375,-14.6484375,-21.484375,-15.625,-29.296875,-45.8984375,0.0
102.875,-23.4375,-29.296875,-18.06640625,-20.5078125,-49.8046875,0.0
102.87890625,-43.45703125,-37.59765625,-27.83203125,-29.296875,-124.51171875,0.0
102.8828125,-41.50390625,-37.59765625,-30.76171875,-30.76171875,-174.8046875,0.0
102.88671875,-41.50390625,-46.38671875,-39.0625,-38.0859375,-157.71484375,0.0
102.890625,-35.64453125,-45.41015625,-34.66796875,-33.69140625,-114.74609375,0.0
102.89453125,-41.015625,-49.31640625,-41.015625,-32.2265625,-83.984375,0.0
102.8984375,-42.48046875,-47.36328125,-44.43359375,-31.25,-71.77734375,0.0
102.90234375,-31.73828125,-34.1796875,-35.15625,-23.4375,39.55078125,0.0
102.90625,-35.64453125,-41.015625,-44.43359375,-30.76171875,87.890625,0.0
102.91015625,-31.25,-35.64453125,-41.015625,-35.15625,36.62109375,0.0
102.9140625,-29.78515625,-22.4609375,-26.3671875,-35.64453125,-42.96875,0.0
102.91796875,-35.64453125,-26.85546875,-23.92578125,-31.25,-52.734375,0.0
102.921875,-34.1796875,-30.2734375,-21.97265625,-27.83203125,6.34765625,0.0
102.92578125,-28.80859375,-28.80859375,-20.5078125,-28.3203125,15.625,0.0
102.9296875,-26.85546875,-23.4375,-29.78515625,-34.1796875,-19.04296875,0.0
102.93359375,-39.0625,-30.76171875,-36.62109375,-48.33984375,-21.484375,0.0
102.9375,-45.41015625,-30.2734375,-28.80859375,-40.52734375,44.921875,0.0
102.94140625,-45.8984375,-31.25,-31.25,-40.0390625,15.13671875,0.0
102.9453125,-39.55078125,-36.1328125,-35.15625,-46.875,-51.7578125,0.0
102.94921875,-19.53125,-23.92578125,-20.5078125,-32.2265625,16.6015625,0.0
102.953125,-40.52734375,-36.1328125,-17.578125,-45.8984375,-34.1796875,0.0
102.95703125,-81.54296875,-58.10546875,-37.109375,-68.84765625,-128.41796875,0.0
102.9609375,-74.70703125,-48.33984375,-39.55078125,-53.22265625,-62.98828125,0.0
102.96484375,-52.24609375,-37.109375,-26.3671875,-39.55078125,-46.875,0.0
102.96875,-45.8984375,-40.52734375,-21.97265625,-44.921875,-26.85546875,0.0
102.97265625,-58.59375,-49.31640625,-29.296875,-50.29296875,-3.90625,0.0
102.9765625,-61.03515625,-42.96875,-29.296875,-35.15625,-70.80078125,0.0
102.98046875,-60.546875,-42.48046875,-29.296875,-30.2734375,-36.1328125,0.0
102.984375,-63.4765625,-50.29296875,-36.62109375,-47.36328125,26.3671875,0.0
102.98828125,-40.0390625,-31.73828125,-19.04296875,-34.66796875,48.33984375,0.0
102.9921875,-35.64453125,-30.2734375,-20.99609375,-36.62109375,46.38671875,0.0
102.99609375,-57.6171875,-51.26953125,-34.1796875,-54.6875,21.484375,0.0
103.0,-61.03515625,-53.7109375,-27.83203125,-51.7578125,3.90625,0.0
103.00390625,-53.7109375,-50.29296875,-33.203125,-52.24609375,32.71484375,0.0
103.0078125,-41.015625,-44.921875,-31.25,-47.36328125,81.0546875,0.0
103.01171875,-33.203125,-38.0859375,-25.87890625,-33.203125,95.21484375,0.0
103.015625,-40.0390625,-41.015625,-33.69140625,-27.34375,32.2265625,0.0
103.01953125,-45.41015625,-48.33984375,-35.64453125,-29.296875,-51.7578125,0.0
103.0234375,-36.62109375,-46.38671875,-30.76171875,-33.203125,-103.515625,0.0
103.02734375,-10.7421875,-25.87890625,-19.53125,-19.04296875,-76.171875,0.0
103.03125,-8.7890625,-18.5546875,-28.80859375,-11.23046875,-94.23828125,0.0
103.03515625,-18.5546875,-14.16015625,-31.73828125,-10.7421875,-48.33984375,0.0
103.0390625,-41.9921875,-34.66796875,-38.57421875,-27.83203125,3.90625,0.0
103.04296875,-57.6171875,-55.6640625,-40.52734375,-48.33984375,-53.22265625,0.0
103.046875,-46.38671875,-43.45703125,-29.296875,-43.9453125,-40.52734375,0.0
103.05078125,-36.1328125,-30.2734375,-25.390625,-34.66796875,9.27734375,0.0
103.0546875,-39.55078125,-32.2265625,-25.87890625,-38.57421875,-9.27734375,0.0
103.05859375,-45.41015625,-40.0390625,-37.59765625,-38.57421875,-104.4921875,0.0
103.0625,-31.73828125,-34.1796875,-33.69140625,-23.4375,-124.0234375,0.0
103.06640625,-22.94921875,-23.92578125,-16.6015625,-20.99609375,-51.7578125,0.0
103.0703125,-28.80859375,-26.85546875,-22.94921875,-29.78515625,0.0,0.0
103.07421875,-33.69140625,-32.71484375,-29.78515625,-31.73828125,-66.40625,0.0
103.078125,-31.25,-36.62109375,-27.83203125,-27.34375,-19.04296875,0.0
103.08203125,-20.99609375,-37.59765625,-23.92578125,-16.6015625,-7.8125,0.0
103.0859375,-27.34375,-43.9453125,-33.203125,-35.64453125,-106.93359375,0.0
103.08984375,-34.66796875,-47.36328125,-48.33984375,-59.5703125,-38.57421875,0.0
103.09375,-40.0390625,-44.43359375,-45.41015625,-58.59375,-27.83203125,0.0
103.09765625,-40.52734375,-41.50390625,-34.66796875,-50.29296875,-113.28125,0.0
103.1015625,-40.52734375,-35.64453125,-31.73828125,-42.48046875,-142.08984375,0.0
103.10546875,-38.57421875,-33.69140625,-30.2734375,-42.96875,-136.23046875,0.0
103.109375,-26.3671875,-37.109375,-26.85546875,-42.96875,-92.28515625,0.0
103.11328125,-13.671875,-30.2734375,-17.08984375,-27.83203125,-117.1875,0.0
103.1171875,-21.97265625,-30.76171875,-20.99609375,-27.34375,-97.16796875,0.0
103.12109375,-39.55078125,-41.50390625,-32.71484375,-39.0625,-92.7734375,0.0
103.125,-35.15625,-35.15625,-35.15625,-37.109375,-95.21484375,0.0
103.12890625,-32.2265625,-37.59765625,-39.0625,-41.9921875,-31.25,0.0
103.1328125,-39.55078125,-41.50390625,-39.55078125,-48.828125,-1.46484375,0.0
103.13671875,-38.57421875,-29.296875,-33.203125,-38.57421875,-27.83203125,0.0
103.140625,-36.1328125,-31.25,-33.203125,-31.73828125,-75.1953125,0.0
103.14453125,-29.78515625,-36.62109375,-33.203125,-26.3671875,-76.171875,0.0
103.1484375,-22.94921875,-35.15625,-31.25,-26.85546875,-18.5546875,0.0
103.15234375,-12.20703125,-21.484375,-18.5546875,-15.13671875,35.64453125,0.0
103.15625,-8.30078125,-13.18359375,-2.44140625,1.46484375,20.01953125,0.0
103.16015625,-40.52734375,-41.50390625,-23.92578125,-23.92578125,-30.2734375,0.0
103.1640625,-39.0625,-39.0625,-28.80859375,-30.2734375,-3.90625,0.0
103.16796875,-22.4609375,-26.3671875,-19.04296875,-26.3671875,113.76953125,0.0
103.171875,-28.80859375,-37.59765625,-25.390625,-33.203125,82.51953125,0.0
103.17578125,-33.69140625,-40.52734375,-19.53125,-28.80859375,2.9296875,0.0
103.1796875,-38.0859375,-34.1796875,-14.6484375,-27.83203125,-35.15625,0.0
103.18359375,-44.921875,-37.109375,-28.3203125,-40.52734375,-38.57421875,0.0
103.1875,-45.8984375,-42.96875,-36.62109375,-45.8984375,2.44140625,0.0
103.19140625,-32.2265625,-34.1796875,-27.83203125,-30.76171875,-3.90625,0.0
103.1953125,-21.484375,-24.4140625,-18.5546875,-15.625,-20.99609375,0.0
103.19921875,-43.9453125,-38.0859375,-35.64453125,-27.83203125,1.953125,0.0
103.203125,-50.29296875,-45.8984375,-41.015625,-31.73828125,-15.13671875,0.0
103.20703125,-37.59765625,-36.1328125,-32.71484375,-34.66796875,-2.9296875,0.0
