timestam,TP9,AF7,AF8,TP10,AUX,Marker
39.00390625,-21.97265625,-25.390625,-27.34375,-62.01171875,-66.89453125,0.0
39.0078125,-31.25,-29.296875,-24.90234375,-35.64453125,-108.3984375,0.0
39.01171875,-21.97265625,-20.01953125,-20.99609375,-20.01953125,-94.7265625,0.0
39.015625,-23.92578125,-19.04296875,-26.3671875,-16.6015625,-13.18359375,0.0
39.01953125,-30.76171875,-24.90234375,-28.3203125,-8.30078125,24.4140625,0.0
39.0234375,-22.4609375,-24.4140625,-27.34375,-51.7578125,10.7421875,0.0
39.02734375,-14.6484375,-26.85546875,-37.109375,-53.7109375,-33.69140625,0.0
39.03125,-12.20703125,-33.203125,-41.9921875,-33.69140625,14.6484375,0.0
39.03515625,-20.01953125,-33.69140625,-27.83203125,-2.44140625,21.484375,0.0
39.0390625,-20.01953125,-27.83203125,-24.90234375,-2.9296875,-0.48828125,0.0
39.04296875,-26.85546875,-30.76171875,-32.2265625,-43.45703125,-59.5703125,0.0
39.046875,-31.73828125,-36.1328125,-29.296875,-53.22265625,-106.93359375,0.0
39.05078125,-23.92578125,-31.25,-22.94921875,-28.3203125,-60.05859375,0.0
39.0546875,-20.5078125,-24.90234375,-20.5078125,-5.37109375,-3.90625,0.0
39.05859375,-21.97265625,-24.4140625,-19.53125,-23.92578125,13.18359375,0.0
39.0625,-21.484375,-32.71484375,-21.484375,-29.78515625,-56.640625,0.0
39.06640625,-21.484375,-35.15625,-24.4140625,-26.3671875,-60.05859375,0.0
39.0703125,-21.484375,-24.4140625,-18.5546875,-14.16015625,31.25,0.0
39.07421875,-18.5546875,-25.390625,-8.7890625,15.13671875,80.078125,0.0
39.078125,-19.04296875,-33.203125,-15.13671875,-2.44140625,68.84765625,0.0
39.08203125,-22.4609375,-31.73828125,-25.390625,-43.45703125,1.46484375,0.0
39.0859375,-28.3203125,-27.83203125,-26.85546875,-41.50390625,-52.24609375,0.0
39.08984375,-22.94921875,-20.01953125,-20.99609375,-15.625,30.2734375,0.0
39.09375,-14.16015625,-23.92578125,-21.97265625,-20.5078125,30.76171875,0.0
39.09765625,-25.390625,-31.73828125,-22.4609375,-30.76171875,-128.90625,0.0
39.1015625,-40.0390625,-31.73828125,-27.83203125,-39.0625,-145.99609375,0.0
39.10546875,-30.2734375,-31.25,-35.15625,-29.78515625,-13.18359375,0.0
39.109375,-28.80859375,-37.109375,-38.0859375,-24.90234375,-24.90234375,0.0
39.11328125,-41.50390625,-33.203125,-29.78515625,-15.13671875,-57.12890625,0.0
39.1171875,-32.71484375,-18.5546875,-19.04296875,-8.30078125,-75.1953125,0.0
39.12109375,-35.15625,-22.4609375,-25.87890625,-38.57421875,-112.3046875,0.0
39.125,-38.57421875,-33.69140625,-32.2265625,-51.7578125,38.0859375,0.0
39.12890625,-31.25,-35.64453125,-31.73828125,-17.08984375,81.0546875,0.0
39.1328125,-29.78515625,-36.1328125,-29.296875,-14.16015625,-10.7421875,0.0
39.13671875,-32.71484375,-37.109375,-26.3671875,-36.1328125,-3.41796875,0.0
39.140625,-34.66796875,-34.66796875,-29.78515625,-22.94921875,26.85546875,0.0
39.14453125,-40.52734375,-33.69140625,-30.2734375,-29.78515625,-18.06640625,0.0
39.1484375,-33.203125,-36.1328125,-25.390625,-47.36328125,-60.05859375,0.0
39.15234375,-28.3203125,-36.62109375,-18.5546875,-22.4609375,-21.484375,0.0
39.15625,-33.69140625,-29.78515625,-20.99609375,-14.16015625,-34.66796875,0.0
39.16015625,-40.0390625,-26.85546875,-27.83203125,-26.85546875,-60.546875,0.0
39.1640625,-36.1328125,-25.390625,-27.83203125,-31.25,-95.703125,0.0
39.16796875,-34.1796875,-30.76171875,-31.73828125,-40.52734375,-64.453125,0.0
39.171875,-44.921875,-33.203125,-31.73828125,-36.1328125,-29.296875,0.0
39.17578125,-30.76171875,-30.2734375,-22.94921875,-30.2734375,-60.546875,0.0
39.1796875,-25.390625,-27.34375,-17.08984375,-12.6953125,-41.9921875,0.0
39.18359375,-33.203125,-28.80859375,-24.4140625,-17.578125,-75.1953125,0.0
39.1875,-21.484375,-30.2734375,-35.64453125,-72.265625,-118.1640625,0.0
39.19140625,-23.92578125,-27.34375,-29.78515625,-53.22265625,-132.32421875,0.0
39.1953125,-27.34375,-24.4140625,-20.5078125,0.48828125,-118.65234375,0.0
39.19921875,-26.3671875,-31.25,-24.90234375,-2.44140625,-19.04296875,0.0
39.203125,-44.921875,-35.15625,-25.87890625,-37.109375,2.9296875,0.0
39.20703125,-37.59765625,-27.34375,-25.390625,-21.97265625,-27.34375,0.0
39.2109375,-31.25,-26.85546875,-19.53125,-10.7421875,-41.9921875,0.0
39.21484375,-41.50390625,-28.80859375,-13.671875,-18.06640625,-56.640625,0.0
39.21875,-41.50390625,-21.484375,-20.01953125,-12.20703125,-65.4296875,0.0
39.22265625,-34.66796875,-17.578125,-20.5078125,-38.0859375,-0.48828125,0.0
39.2265625,-38.0859375,-26.85546875,-20.99609375,-41.015625,56.640625,0.0
39.23046875,-36.62109375,-29.78515625,-25.87890625,-42.48046875,0.0,0.0
39.234375,-38.57421875,-27.34375,-21.97265625,-32.71484375,-11.71875,0.0
39.23828125,-41.50390625,-32.2265625,-31.73828125,-16.11328125,-105.95703125,0.0
39.2421875,-40.52734375,-32.71484375,-33.203125,-38.0859375,-152.83203125,0.0
39.24609375,-37.109375,-27.83203125,-29.78515625,-53.22265625,-76.171875,0.0
39.25,-40.52734375,-29.296875,-32.2265625,-26.85546875,-24.90234375,0.0
39.25390625,-39.0625,-30.76171875,-25.87890625,-11.23046875,-38.57421875,0.0
39.2578125,-36.1328125,-29.296875,-24.4140625,-20.99609375,-24.4140625,0.0
39.26171875,-45.41015625,-38.57421875,-32.71484375,-36.1328125,-57.6171875,0.0
39.265625,-49.8046875,-47.8515625,-33.69140625,-57.12890625,-108.88671875,0.0
39.26953125,-45.41015625,-43.45703125,-28.80859375,-45.8984375,-73.73046875,0.0
39.2734375,-44.43359375,-37.109375,-27.34375,-23.4375,-39.0625,0.0
39.27734375,-47.36328125,-32.2265625,-20.99609375,-14.16015625,-3.41796875,0.0
39.28125,-50.29296875,-30.76171875,-22.4609375,-35.15625,58.10546875,0.0
39.28515625,-46.38671875,-31.73828125,-33.69140625,-48.828125,29.78515625,0.0
39.2890625,-39.55078125,-26.3671875,-31.25,-50.78125,-11.71875,0.0
39.29296875,-31.25,-23.92578125,-21.97265625,-22.94921875,-14.6484375,0.0
39.296875,-30.76171875,-33.69140625,-25.390625,0.9765625,-98.14453125,0.0
39.30078125,-33.69140625,-32.71484375,-39.0625,-28.3203125,-100.5859375,0.0
39.3046875,-28.80859375,-27.34375,-40.0390625,-40.0390625,-18.5546875,0.0
39.30859375,-23.92578125,-29.78515625,-31.25,-36.1328125,-8.30078125,0.0
39.3125,-20.5078125,-25.390625,-30.2734375,-16.6015625,-11.71875,0.0
39.31640625,-30.2734375,-22.4609375,-31.25,-9.27734375,4.8828125,0.0
39.3203125,-45.41015625,-24.4140625,-30.2734375,3.90625,-19.53125,0.0
39.32421875,-38.0859375,-29.78515625,-28.80859375,9.27734375,34.1796875,0.0
39.328125,-34.1796875,-25.87890625,-29.78515625,-44.43359375,96.19140625,0.0
39.33203125,-33.69140625,-19.53125,-28.80859375,-44.43359375,87.890625,0.0
39.3359375,-35.15625,-20.99609375,-27.34375,-27.83203125,70.80078125,0.0
39.33984375,-30.2734375,-22.4609375,-31.73828125,-36.62109375,-39.0625,0.0
39.34375,-20.5078125,-24.4140625,-33.69140625,-31.73828125,-177.734375,0.0
39.34765625,-23.92578125,-31.73828125,-30.76171875,-39.55078125,-220.21484375,0.0
39.3515625,-29.78515625,-32.71484375,-35.15625,-49.31640625,-97.65625,0.0
39.35546875,-33.203125,-20.5078125,-33.69140625,-19.04296875,54.6875,0.0
39.359375,-28.3203125,-20.99609375,-34.1796875,-3.41796875,58.59375,0.0
39.36328125,-12.6953125,-34.1796875,-35.64453125,-34.66796875,0.9765625,0.0
39.3671875,-7.8125,-28.80859375,-23.4375,-38.57421875,-38.57421875,0.0
39.37109375,-20.99609375,-22.4609375,-20.01953125,-19.53125,-35.15625,0.0
39.375,-32.71484375,-21.484375,-20.5078125,0.0,-12.6953125,0.0
39.37890625,-30.2734375,-24.90234375,-19.53125,-26.85546875,32.71484375,0.0
39.3828125,-23.92578125,-33.69140625,-24.90234375,-52.24609375,-9.765625,0.0
39.38671875,-33.203125,-34.66796875,-25.87890625,-55.17578125,-93.26171875,0.0
39.390625,-42.96875,-34.1796875,-21.97265625,-19.53125,-112.3046875,0.0
39.39453125,-40.0390625,-38.0859375,-19.04296875,10.25390625,-138.671875,0.0
39.3984375,-39.0625,-29.78515625,-19.04296875,-24.4140625,-57.12890625,0.0
39.40234375,-43.45703125,-28.3203125,-26.85546875,-42.96875,2.9296875,0.0
39.40625,-35.64453125,-33.69140625,-37.109375,-45.8984375,21.484375,0.0
39.41015625,-31.25,-35.15625,-29.78515625,-51.26953125,101.5625,0.0
39.4140625,-32.71484375,-36.62109375,-30.76171875,-20.5078125,40.0390625,0.0
39.41796875,-29.296875,-29.296875,-37.109375,-1.953125,31.73828125,0.0
39.421875,-28.80859375,-24.4140625,-35.64453125,-43.9453125,-29.296875,0.0
39.42578125,-20.01953125,-25.390625,-30.2734375,-60.546875,-199.70703125,0.0
39.4296875,-20.01953125,-24.90234375,-24.4140625,-22.4609375,-117.1875,0.0
39.43359375,-28.80859375,-28.80859375,-25.390625,-13.671875,-1.953125,0.0
39.4375,-23.4375,-31.73828125,-29.296875,-19.04296875,-19.53125,0.0
39.44140625,-24.90234375,-30.2734375,-27.83203125,-31.73828125,32.2265625,0.0
39.4453125,-32.71484375,-34.1796875,-32.71484375,-53.7109375,-18.06640625,0.0
39.44921875,-45.8984375,-42.48046875,-47.36328125,-46.38671875,-136.71875,0.0
39.453125,-38.0859375,-34.1796875,-31.73828125,-21.484375,-115.234375,0.0
39.45703125,-17.578125,-25.87890625,-11.71875,-12.6953125,-52.734375,0.0
39.4609375,-19.53125,-27.34375,-17.08984375,-24.4140625,-90.8203125,0.0
39.46484375,-35.64453125,-31.25,-29.296875,-43.45703125,-159.1796875,0.0
39.46875,-40.52734375,-27.34375,-28.3203125,-49.8046875,-89.84375,0.0
39.47265625,-45.41015625,-20.01953125,-20.01953125,-30.76171875,-39.0625,0.0
39.4765625,-50.78125,-26.3671875,-19.53125,-19.04296875,-88.37890625,0.0
39.48046875,-45.8984375,-38.57421875,-25.87890625,-42.96875,-139.6484375,0.0
39.484375,-39.0625,-39.0625,-30.2734375,-49.31640625,-143.06640625,0.0
39.48828125,-18.06640625,-36.1328125,-33.203125,-14.6484375,-57.12890625,0.0
39.4921875,-16.6015625,-37.59765625,-37.59765625,-12.20703125,29.296875,0.0
39.49609375,-31.73828125,-33.203125,-31.73828125,-35.15625,18.06640625,0.0
39.5,-42.48046875,-36.1328125,-22.4609375,-28.3203125,14.6484375,0.0
39.50390625,-45.41015625,-32.71484375,-30.2734375,-30.2734375,67.3828125,0.0
39.5078125,-45.41015625,-35.64453125,-39.0625,-43.9453125,59.08203125,0.0
39.51171875,-45.8984375,-35.64453125,-29.78515625,-27.83203125,-15.13671875,0.0
39.515625,-17.08984375,-25.87890625,-28.80859375,-13.18359375,11.23046875,0.0
39.51953125,-16.6015625,-33.69140625,-35.64453125,-24.90234375,38.0859375,0.0
39.5234375,-41.015625,-46.875,-37.59765625,-58.10546875,-35.15625,0.0
39.52734375,-24.90234375,-37.109375,-31.25,-47.8515625,2.9296875,0.0
39.53125,-8.7890625,-31.73828125,-26.3671875,-30.2734375,42.96875,0.0
39.53515625,-30.76171875,-36.62109375,-17.08984375,-41.015625,21.484375,0.0
39.5390625,-41.50390625,-38.57421875,-16.11328125,-19.53125,30.76171875,0.0
39.54296875,-39.55078125,-44.43359375,-30.76171875,-30.2734375,-1.46484375,0.0
39.546875,-32.71484375,-34.66796875,-29.296875,-63.4765625,-22.4609375,0.0
39.55078125,-34.1796875,-23.92578125,-23.92578125,-48.33984375,-46.875,0.0
39.5546875,-46.38671875,-25.87890625,-18.5546875,-16.11328125,12.20703125,0.0
39.55859375,-38.57421875,-30.76171875,-22.94921875,-15.625,45.41015625,0.0
39.5625,-25.87890625,-37.59765625,-37.59765625,-43.45703125,-16.11328125,0.0
39.56640625,-26.3671875,-41.9921875,-37.59765625,-51.26953125,-51.26953125,0.0
39.5703125,-20.01953125,-35.64453125,-28.80859375,-15.625,23.92578125,0.0
39.57421875,-3.90625,-31.73828125,-24.4140625,14.16015625,42.96875,0.0
39.578125,4.39453125,-27.34375,-20.01953125,-5.37109375,30.76171875,0.0
39.58203125,-29.78515625,-31.25,-24.4140625,-43.9453125,20.99609375,0.0
39.5859375,-39.55078125,-37.59765625,-28.3203125,-44.921875,20.5078125,0.0
39.58984375,-26.85546875,-33.203125,-23.4375,-4.8828125,7.8125,0.0
39.59375,-22.94921875,-28.80859375,-13.671875,7.8125,65.91796875,0.0
39.59765625,-7.8125,-28.3203125,-15.13671875,-23.92578125,24.4140625,0.0
39.6015625,-1.46484375,-34.66796875,-24.4140625,-34.66796875,-6.34765625,0.0
39.60546875,-0.48828125,-39.0625,-26.85546875,-28.80859375,39.0625,0.0
39.609375,12.20703125,-30.2734375,-29.296875,2.9296875,61.03515625,0.0
39.61328125,5.37109375,-18.5546875,-32.2265625,18.06640625,67.3828125,0.0
39.6171875,-27.83203125,-12.6953125,-37.109375,-41.015625,58.10546875,0.0
39.62109375,-45.41015625,-16.6015625,-40.52734375,-65.91796875,38.57421875,0.0
39.625,-55.6640625,-15.625,-42.48046875,-59.08203125,-25.87890625,0.0
39.62890625,-57.12890625,-9.765625,-49.8046875,-57.6171875,-41.50390625,0.0
39.6328125,-55.17578125,-9.765625,-51.7578125,-37.59765625,-3.41796875,0.0
39.63671875,-62.01171875,-4.39453125,-52.734375,-37.59765625,-19.04296875,0.0
39.640625,-66.89453125,-6.34765625,-56.640625,-45.41015625,-49.8046875,0.0
39.64453125,-56.15234375,-10.25390625,-58.10546875,-64.94140625,-104.00390625,0.0
39.6484375,-47.8515625,-9.27734375,-59.08203125,-75.1953125,-113.28125,0.0
39.65234375,-53.7109375,-11.71875,-62.98828125,-54.6875,-21.484375,0.0
39.65625,-43.9453125,-21.484375,-59.5703125,-41.50390625,-38.0859375,0.0
39.66015625,-40.52734375,-28.3203125,-61.5234375,-61.03515625,-19.53125,0.0
39.6640625,-47.8515625,-23.4375,-60.546875,-77.1484375,31.73828125,0.0
39.66796875,-26.85546875,-26.3671875,-53.22265625,-71.2890625,-49.31640625,0.0
39.671875,-28.80859375,-30.2734375,-47.36328125,-48.33984375,-75.1953125,0.0
39.67578125,-37.109375,-25.390625,-40.52734375,-26.3671875,-43.9453125,0.0
39.6796875,-39.55078125,-25.87890625,-39.55078125,-30.76171875,-168.9453125,0.0
39.68359375,-60.05859375,-21.97265625,-45.8984375,-64.453125,-180.17578125,0.0
39.6875,-59.5703125,-17.578125,-51.26953125,-59.08203125,-118.65234375,0.0
39.69140625,-41.9921875,-31.25,-42.48046875,-29.78515625,-89.84375,0.0
39.6953125,-36.62109375,-26.3671875,-32.71484375,-27.83203125,-16.11328125,0.0
39.69921875,-51.26953125,-18.06640625,-39.55078125,-34.66796875,-53.7109375,0.0
39.703125,-45.8984375,-20.99609375,-45.8984375,-35.15625,-108.88671875,0.0
39.70703125,-28.80859375,-20.99609375,-43.45703125,-72.265625,-77.1484375,0.0
39.7109375,-20.99609375,-23.92578125,-37.59765625,-59.08203125,-69.82421875,0.0
39.71484375,-17.578125,-27.83203125,-28.3203125,-20.01953125,-74.21875,0.0
39.71875,-12.20703125,-20.99609375,-24.90234375,-29.78515625,33.203125,0.0
39.72265625,-31.25,-20.5078125,-32.71484375,-57.6171875,36.62109375,0.0
39.7265625,-36.62109375,-22.94921875,-34.1796875,-37.59765625,-61.5234375,0.0
39.73046875,-35.15625,-17.08984375,-29.296875,-26.3671875,-83.984375,0.0
39.734375,-35.64453125,-23.4375,-33.69140625,-33.69140625,-34.1796875,0.0
39.73828125,-37.59765625,-27.34375,-36.1328125,-24.4140625,4.8828125,0.0
39.7421875,-33.69140625,-23.92578125,-31.25,-32.2265625,-43.9453125,0.0
39.74609375,-19.04296875,-30.76171875,-28.80859375,-51.7578125,-70.3125,0.0
39.75,-22.94921875,-27.34375,-15.625,-41.015625,-24.4140625,0.0
39.75390625,-23.92578125,-23.92578125,-14.6484375,-13.671875,25.390625,0.0
39.7578125,-26.85546875,-23.4375,-27.34375,-7.8125,46.38671875,0.0
39.76171875,-27.34375,-32.71484375,-34.1796875,-25.390625,25.87890625,0.0
39.765625,-28.80859375,-34.1796875,-32.2265625,-51.26953125,44.921875,0.0
39.76953125,-26.3671875,-26.3671875,-24.90234375,-29.296875,84.47265625,0.0
39.7734375,-24.90234375,-18.5546875,-24.4140625,-1.46484375,49.31640625,0.0
39.77734375,-23.92578125,-11.23046875,-29.296875,-6.34765625,-48.828125,0.0
39.78125,-25.87890625,-20.99609375,-32.71484375,-57.12890625,-52.734375,0.0
39.78515625,-40.52734375,-30.2734375,-43.9453125,-85.9375,-5.859375,0.0
39.7890625,-26.85546875,-32.71484375,-35.64453125,-47.8515625,-9.27734375,0.0
39.79296875,-19.04296875,-23.92578125,-10.7421875,-23.92578125,-65.4296875,0.0
39.796875,-36.62109375,-18.06640625,-16.11328125,-26.3671875,-95.21484375,0.0
39.80078125,-21.484375,-24.4140625,-30.76171875,-25.390625,-33.69140625,0.0
39.8046875,-12.20703125,-26.3671875,-33.203125,-47.36328125,23.4375,0.0
39.80859375,-29.78515625,-24.4140625,-37.109375,-70.80078125,2.9296875,0.0
39.8125,-16.11328125,-20.01953125,-31.73828125,-42.96875,-8.7890625,0.0
39.81640625,-20.01953125,-17.08984375,-28.3203125,-36.1328125,-10.25390625,0.0
39.8203125,-41.50390625,-16.6015625,-32.2265625,-31.25,-55.6640625,0.0
39.82421875,-42.48046875,-22.4609375,-39.0625,-26.3671875,-104.00390625,0.0
39.828125,-38.0859375,-33.69140625,-43.45703125,-46.38671875,-76.171875,0.0
39.83203125,-39.55078125,-39.55078125,-41.9921875,-43.45703125,10.7421875,0.0
39.8359375,-32.71484375,-38.0859375,-27.34375,-13.671875,-31.73828125,0.0
39.83984375,35.15625,14.16015625,25.390625,18.06640625,-151.85546875,0.0
39.84375,15.625,8.30078125,3.41796875,-25.390625,-143.06640625,0.0
39.84765625,-36.1328125,-31.73828125,-43.9453125,-62.5,-23.92578125,0.0
39.8515625,-32.2265625,-29.78515625,-30.2734375,-19.53125,1.46484375,0.0
39.85546875,-42.48046875,-28.80859375,-24.90234375,-14.6484375,-43.9453125,0.0
39.859375,-42.48046875,-28.80859375,-36.1328125,-55.17578125,41.50390625,0.0
39.86328125,-42.96875,-36.1328125,-39.0625,-54.19921875,35.64453125,0.0
39.8671875,-29.296875,-29.296875,-23.4375,-39.0625,-79.58984375,0.0
39.87109375,-27.83203125,-26.3671875,-23.92578125,-13.671875,0.9765625,0.0
39.875,-48.828125,-35.64453125,-37.59765625,-22.4609375,9.27734375,0.0
39.87890625,-41.50390625,-38.0859375,-36.1328125,-44.921875,12.20703125,0.0
39.8828125,-26.3671875,-36.62109375,-33.203125,-49.31640625,98.6328125,0.0
39.88671875,-25.390625,-35.15625,-34.1796875,-59.5703125,35.15625,0.0
39.890625,-33.69140625,-34.1796875,-34.1796875,-37.109375,-40.0390625,0.0
39.89453125,-36.62109375,-33.69140625,-26.3671875,-10.25390625,-75.68359375,0.0
39.8984375,-26.85546875,-24.4140625,-23.92578125,-23.92578125,-161.1328125,0.0
39.90234375,-37.59765625,-23.92578125,-31.73828125,-49.8046875,-87.40234375,0.0
39.90625,-41.015625,-29.78515625,-35.15625,-58.59375,-12.20703125,0.0
39.91015625,-27.34375,-29.296875,-26.85546875,-25.87890625,-104.98046875,0.0
39.9140625,-21.484375,-29.78515625,-18.5546875,-17.08984375,-160.64453125,0.0
39.91796875,-28.80859375,-27.83203125,-26.3671875,-19.04296875,-180.6640625,0.0
39.921875,-33.203125,-33.69140625,-37.109375,-21.97265625,-175.78125,0.0
39.92578125,-24.4140625,-44.921875,-34.66796875,-46.38671875,-149.90234375,0.0
39.9296875,-8.30078125,-43.9453125,-22.94921875,-23.92578125,-88.8671875,0.0
39.93359375,-23.4375,-38.0859375,-23.92578125,-1.46484375,-37.109375,0.0
39.9375,-33.69140625,-32.71484375,-33.203125,-2.44140625,1.46484375,0.0
39.94140625,-35.15625,-27.83203125,-39.0625,-23.92578125,49.31640625,0.0
39.9453125,-39.55078125,-31.73828125,-37.59765625,-57.6171875,13.18359375,0.0
39.94921875,-13.671875,-36.1328125,-35.15625,-46.38671875,-7.32421875,0.0
39.953125,-7.32421875,-39.55078125,-30.2734375,-13.671875,-32.2265625,0.0
39.95703125,-18.06640625,-25.87890625,-23.92578125,-1.46484375,-34.1796875,0.0
39.9609375,-27.34375,-21.97265625,-29.296875,-45.41015625,0.9765625,0.0
39.96484375,-30.2734375,-39.0625,-40.0390625,-55.6640625,14.16015625,0.0
39.96875,-26.85546875,-42.96875,-41.015625,-4.39453125,-55.6640625,0.0
39.97265625,-43.45703125,-44.43359375,-31.25,-23.92578125,-94.7265625,0.0
39.9765625,-44.921875,-41.9921875,-28.3203125,-45.41015625,-101.07421875,0.0
39.98046875,-46.38671875,-36.62109375,-44.921875,-41.015625,-61.5234375,0.0
39.984375,-47.36328125,-37.109375,-45.41015625,-51.7578125,-53.22265625,0.0
39.98828125,-33.69140625,-39.0625,-35.64453125,-54.6875,-70.80078125,0.0
39.9921875,-37.59765625,-32.71484375,-34.66796875,-41.50390625,-41.50390625,0.0
39.99609375,-32.71484375,-28.3203125,-33.69140625,-24.90234375,3.41796875,0.0
40.0,-32.2265625,-30.76171875,-34.1796875,-31.73828125,18.5546875,0.0
40.00390625,-44.43359375,-37.109375,-36.62109375,-55.6640625,-62.01171875,0.0
40.0078125,-38.57421875,-38.0859375,-37.109375,-54.19921875,-69.3359375,0.0
40.01171875,-30.76171875,-32.2265625,-32.2265625,-30.2734375,40.52734375,0.0
40.015625,-42.96875,-34.66796875,-29.296875,-27.34375,70.80078125,0.0
40.01953125,-48.33984375,-38.57421875,-36.62109375,-32.71484375,55.6640625,0.0
40.0234375,-51.7578125,-38.0859375,-45.8984375,-54.6875,47.8515625,0.0
40.02734375,-53.22265625,-37.59765625,-41.015625,-47.8515625,-28.3203125,0.0
40.03125,-43.45703125,-35.64453125,-31.25,-20.99609375,-45.41015625,0.0
40.03515625,-47.8515625,-41.9921875,-23.4375,-6.8359375,-10.25390625,0.0
40.0390625,-47.36328125,-41.50390625,-24.90234375,6.34765625,-1.46484375,0.0
40.04296875,-32.2265625,-36.1328125,-33.69140625,-38.0859375,-16.6015625,0.0
40.046875,-39.55078125,-37.59765625,-31.73828125,-64.453125,23.4375,0.0
40.05078125,-52.24609375,-42.48046875,-28.3203125,-52.734375,-38.0859375,0.0
40.0546875,-48.828125,-34.1796875,-35.64453125,1.46484375,-165.0390625,0.0
40.05859375,-35.64453125,-26.85546875,-37.109375,-8.7890625,-83.984375,0.0
40.0625,-21.97265625,-36.1328125,-40.0390625,-74.21875,-67.3828125,0.0
40.06640625,-29.78515625,-41.9921875,-44.43359375,-72.265625,-43.9453125,0.0
40.0703125,-11.23046875,-33.69140625,-41.50390625,-28.80859375,64.453125,0.0
40.07421875,-13.671875,-27.34375,-29.78515625,7.8125,23.92578125,0.0
40.078125,-38.57421875,-31.73828125,-27.34375,-33.69140625,-33.203125,0.0
40.08203125,-41.9921875,-39.55078125,-33.69140625,-60.05859375,-30.76171875,0.0
40.0859375,-55.6640625,-41.50390625,-34.66796875,-43.45703125,-17.578125,0.0
40.08984375,-52.734375,-35.64453125,-28.80859375,-8.7890625,-20.01953125,0.0
40.09375,-41.9921875,-31.73828125,-23.4375,-20.99609375,33.69140625,0.0
40.09765625,-45.8984375,-33.203125,-26.3671875,-33.69140625,10.25390625,0.0
40.1015625,-51.7578125,-31.25,-33.203125,-20.01953125,-21.97265625,0.0
40.10546875,-48.33984375,-32.71484375,-37.59765625,-37.59765625,-5.859375,0.0
40.109375,-40.52734375,-32.71484375,-32.71484375,-35.64453125,-69.3359375,0.0
40.11328125,-41.50390625,-31.73828125,-26.3671875,-4.39453125,-55.6640625,0.0
40.1171875,-51.26953125,-35.64453125,-27.34375,-15.625,-28.3203125,0.0
40.12109375,-41.50390625,-36.62109375,-36.1328125,-44.43359375,-109.86328125,0.0
40.125,-32.2265625,-32.2265625,-35.64453125,-57.6171875,-166.9921875,0.0
40.12890625,-47.36328125,-32.71484375,-36.1328125,-60.05859375,-130.37109375,0.0
40.1328125,-59.08203125,-27.34375,-30.76171875,-21.484375,4.39453125,0.0
40.13671875,-58.10546875,-16.11328125,-28.3203125,5.37109375,57.12890625,0.0
40.140625,-49.31640625,-21.97265625,-34.1796875,-19.04296875,36.1328125,0.0
40.14453125,-44.43359375,-26.85546875,-37.59765625,-24.4140625,-46.38671875,0.0
40.1484375,-47.36328125,-25.87890625,-26.3671875,-37.59765625,-122.0703125,0.0
40.15234375,-50.29296875,-33.69140625,-32.2265625,-43.9453125,-119.62890625,0.0
40.15625,-62.5,-50.78125,-52.734375,-23.92578125,-137.20703125,0.0
40.16015625,-56.15234375,-36.62109375,-35.64453125,-30.2734375,-138.671875,0.0
40.1640625,-32.71484375,-27.83203125,-32.71484375,-41.50390625,-84.9609375,0.0
40.16796875,-32.71484375,-29.78515625,-37.109375,-20.5078125,-55.17578125,0.0
40.171875,-46.875,-23.4375,-26.85546875,-14.16015625,-49.31640625,0.0
40.17578125,-67.87109375,-27.34375,-22.4609375,-24.90234375,-54.6875,0.0
40.1796875,-75.1953125,-28.80859375,-29.296875,-33.203125,-33.203125,0.0
40.18359375,-72.75390625,-37.109375,-48.828125,-51.7578125,-61.03515625,0.0
40.1875,-63.96484375,-36.62109375,-43.9453125,-68.84765625,-44.43359375,0.0
40.19140625,-54.19921875,-28.80859375,-36.1328125,-39.0625,4.39453125,0.0
40.1953125,-61.03515625,-25.87890625,-38.0859375,-26.3671875,2.9296875,0.0
40.19921875,-66.40625,-30.2734375,-40.0390625,-50.78125,-6.8359375,0.0
40.203125,-49.8046875,-40.0390625,-39.0625,-47.36328125,19.04296875,0.0
40.20703125,-52.734375,-43.9453125,-34.1796875,-40.52734375,5.859375,0.0
40.2109375,-54.19921875,-32.2265625,-21.484375,-28.80859375,8.30078125,0.0
40.21484375,-49.31640625,-23.4375,-12.20703125,-4.8828125,14.16015625,0.0
40.21875,-50.29296875,-24.90234375,-20.5078125,-14.6484375,-0.9765625,0.0
40.22265625,-57.12890625,-30.2734375,-26.85546875,-35.15625,-45.8984375,0.0
40.2265625,-57.12890625,-34.66796875,-27.83203125,-59.08203125,-0.48828125,0.0
40.23046875,-51.26953125,-33.203125,-24.90234375,-37.109375,156.25,0.0
40.234375,-52.24609375,-30.76171875,-20.01953125,-9.27734375,145.01953125,0.0
40.23828125,-43.9453125,-27.83203125,-18.5546875,-11.71875,54.6875,0.0
40.2421875,-46.875,-32.71484375,-24.90234375,-44.921875,61.5234375,0.0
40.24609375,-51.26953125,-40.0390625,-29.296875,-44.921875,-3.41796875,0.0
40.25,-46.38671875,-38.0859375,-27.83203125,-27.83203125,-46.875,0.0
40.25390625,-52.24609375,-36.1328125,-32.2265625,-22.94921875,4.8828125,0.0
40.2578125,-44.43359375,-29.78515625,-23.92578125,-30.76171875,11.23046875,0.0
40.26171875,-39.55078125,-24.4140625,-17.08984375,-36.1328125,19.53125,0.0
40.265625,-54.19921875,-34.66796875,-38.0859375,-54.19921875,57.6171875,0.0
40.26953125,-57.6171875,-34.1796875,-39.0625,-44.43359375,-17.08984375,0.0
40.2734375,-37.59765625,-30.76171875,-26.85546875,12.20703125,-60.546875,0.0
40.27734375,-37.59765625,-38.57421875,-25.87890625,-8.30078125,10.7421875,0.0
40.28125,-52.24609375,-35.64453125,-30.76171875,-59.5703125,49.31640625,0.0
40.28515625,-47.8515625,-26.3671875,-33.69140625,-53.22265625,23.92578125,0.0
40.2890625,-31.25,-23.92578125,-27.34375,-9.765625,38.0859375,0.0
40.29296875,-45.41015625,-25.87890625,-24.4140625,11.71875,-2.9296875,0.0
40.296875,-57.12890625,-30.2734375,-28.80859375,-24.4140625,-108.88671875,0.0
40.30078125,-41.50390625,-29.78515625,-36.1328125,-41.50390625,-33.69140625,0.0
40.3046875,-40.0390625,-28.80859375,-2.44140625,-45.41015625,-17.578125,0.0
40.30859375,-37.109375,-31.73828125,14.6484375,-26.85546875,-87.890625,0.0
40.3125,-40.0390625,-32.71484375,-28.80859375,-14.6484375,-32.71484375,0.0
40.31640625,-48.33984375,-33.69140625,-37.59765625,-14.16015625,-30.2734375,0.0
40.3203125,-49.8046875,-35.15625,-24.90234375,6.8359375,-85.44921875,0.0
40.32421875,-55.17578125,-33.203125,-31.73828125,-68.359375,-22.94921875,0.0
40.328125,-65.4296875,-35.15625,-33.69140625,-77.63671875,-42.96875,0.0
40.33203125,-57.6171875,-33.69140625,-25.87890625,-9.27734375,-171.875,0.0
40.3359375,-40.0390625,-20.01953125,-22.94921875,-29.78515625,-221.19140625,0.0
40.33984375,-49.31640625,-20.5078125,-23.4375,-26.3671875,-228.515625,0.0
40.34375,-55.17578125,-27.34375,-28.3203125,-20.5078125,-229.4921875,0.0
40.34765625,-45.41015625,-21.484375,-17.08984375,-34.1796875,-295.41015625,0.0
40.3515625,-45.41015625,-17.08984375,-5.37109375,-15.13671875,-208.0078125,0.0
40.35546875,-43.9453125,-20.99609375,-21.97265625,-15.625,0.48828125,0.0
40.359375,-45.41015625,-25.390625,-29.296875,-29.78515625,84.9609375,0.0
40.36328125,-48.828125,-30.76171875,-38.57421875,-58.10546875,24.90234375,0.0
40.3671875,-40.0390625,-30.2734375,-40.52734375,-50.29296875,-67.87109375,0.0
40.37109375,-44.921875,-29.78515625,-30.2734375,-4.8828125,-62.01171875,0.0
40.375,-40.0390625,-30.2734375,-20.5078125,8.30078125,-20.01953125,0.0
40.37890625,-45.41015625,-32.2265625,-20.5078125,-37.59765625,57.12890625,0.0
40.3828125,-43.9453125,-37.109375,-29.78515625,-59.5703125,45.41015625,0.0
40.38671875,-16.6015625,-36.1328125,-37.59765625,-45.8984375,24.4140625,0.0
40.390625,-26.85546875,-31.73828125,-36.62109375,-26.85546875,35.64453125,0.0
40.39453125,-51.7578125,-27.83203125,-28.3203125,4.39453125,39.0625,0.0
40.3984375,-51.26953125,-28.3203125,-28.3203125,-8.7890625,37.109375,0.0
40.40234375,-61.5234375,-31.25,-32.71484375,-53.7109375,64.94140625,0.0
40.40625,-60.05859375,-25.87890625,-35.64453125,-30.76171875,75.1953125,0.0
40.41015625,-45.41015625,-19.04296875,-34.66796875,-16.11328125,-12.6953125,0.0
40.4140625,-46.875,-21.97265625,-30.2734375,-55.6640625,-52.734375,0.0
40.41796875,-42.96875,-24.90234375,-30.76171875,-46.38671875,-31.25,0.0
40.421875,-40.0390625,-30.76171875,-43.45703125,-53.7109375,41.50390625,0.0
40.42578125,-33.69140625,-37.59765625,-50.78125,-66.89453125,58.59375,0.0
40.4296875,-29.296875,-34.66796875,-41.50390625,-32.2265625,37.109375,0.0
40.43359375,-42.96875,-29.296875,-37.109375,-28.3203125,44.43359375,0.0
40.4375,-51.26953125,-30.2734375,-32.2265625,-36.62109375,28.3203125,0.0
40.44140625,-50.29296875,-35.64453125,-36.62109375,-24.4140625,25.87890625,0.0
40.4453125,-48.828125,-39.55078125,-49.31640625,-40.0390625,-0.48828125,0.0
40.44921875,-52.734375,-41.50390625,-44.43359375,-48.828125,-18.06640625,0.0
40.453125,-55.17578125,-33.69140625,-36.62109375,-23.4375,-6.34765625,0.0
40.45703125,-41.9921875,-29.296875,-35.15625,-17.578125,-55.17578125,0.0
40.4609375,-40.52734375,-31.73828125,-30.76171875,-48.33984375,-32.71484375,0.0
40.46484375,-60.05859375,-36.1328125,-35.15625,-58.59375,0.9765625,0.0
40.46875,-59.08203125,-38.0859375,-32.71484375,-22.4609375,-48.33984375,0.0
40.47265625,-57.6171875,-38.0859375,-28.80859375,-10.25390625,-36.1328125,0.0
40.4765625,-68.359375,-31.25,-31.25,-19.04296875,-20.01953125,0.0
40.48046875,-49.8046875,-29.78515625,-31.73828125,-37.109375,-55.6640625,0.0
40.484375,-44.43359375,-48.33984375,-37.109375,-58.59375,-91.30859375,0.0
40.48828125,-60.05859375,-46.875,-41.50390625,-54.19921875,-77.1484375,0.0
40.4921875,-51.26953125,-30.76171875,-35.64453125,-30.76171875,-114.74609375,0.0
40.49609375,-46.875,-26.85546875,-37.109375,-30.76171875,-70.3125,0.0
40.5,-65.4296875,-29.296875,-41.9921875,-53.22265625,16.11328125,0.0
40.50390625,-62.5,-34.66796875,-40.52734375,-45.8984375,17.08984375,0.0
40.5078125,-41.50390625,-37.59765625,-32.2265625,-42.48046875,3.41796875,0.0
40.51171875,-42.48046875,-31.73828125,-24.4140625,-32.71484375,-28.80859375,0.0
40.515625,-38.57421875,-25.87890625,-20.5078125,-16.11328125,-65.91796875,0.0
40.51953125,-34.1796875,-30.2734375,-22.94921875,-17.08984375,-55.17578125,0.0
40.5234375,-44.43359375,-31.73828125,-28.80859375,-21.97265625,-95.703125,0.0
40.52734375,-43.45703125,-26.3671875,-25.390625,-27.34375,-124.0234375,0.0
40.53125,-44.43359375,-32.2265625,-26.85546875,-30.76171875,-163.57421875,0.0
40.53515625,-49.8046875,-37.109375,-30.2734375,-8.7890625,-131.8359375,0.0
40.5390625,-49.8046875,-30.76171875,-30.76171875,-12.20703125,-32.2265625,0.0
40.54296875,-49.8046875,-31.25,-42.96875,-57.6171875,22.94921875,0.0
40.546875,-37.59765625,-32.71484375,-43.45703125,-62.98828125,12.20703125,0.0
40.55078125,-43.9453125,-35.64453125,-31.73828125,-40.0390625,-59.08203125,0.0
40.5546875,-52.24609375,-33.69140625,-25.390625,-5.859375,-71.2890625,0.0
40.55859375,-44.43359375,-28.80859375,-24.4140625,-14.6484375,26.85546875,0.0
40.5625,-45.41015625,-36.1328125,-26.3671875,-49.31640625,60.546875,0.0
40.56640625,-40.52734375,-38.57421875,-32.2265625,-36.62109375,5.37109375,0.0
40.5703125,-36.62109375,-28.3203125,-27.34375,-36.62109375,-16.11328125,0.0
40.57421875,-45.41015625,-20.01953125,-18.06640625,-13.18359375,-0.48828125,0.0
40.578125,-48.33984375,-29.296875,-21.484375,-3.90625,-26.85546875,0.0
40.58203125,-53.7109375,-41.015625,-39.55078125,-70.3125,-111.328125,0.0
40.5859375,-47.36328125,-33.69140625,-42.96875,-71.77734375,-222.65625,0.0
40.58984375,-43.9453125,-28.80859375,-28.80859375,-56.15234375,-230.95703125,0.0
40.59375,-49.31640625,-34.1796875,-19.53125,-44.921875,-109.86328125,0.0
40.59765625,-41.9921875,-32.2265625,-23.4375,-33.203125,-28.80859375,0.0
40.6015625,-35.15625,-21.97265625,-27.83203125,-21.97265625,-41.9921875,0.0
40.60546875,-47.8515625,-22.94921875,-25.87890625,-27.34375,-102.05078125,0.0
40.609375,-52.24609375,-34.1796875,-24.90234375,-44.43359375,-22.94921875,0.0
40.61328125,-30.2734375,-36.1328125,-26.85546875,-26.85546875,-20.99609375,0.0
40.6171875,-31.73828125,-33.69140625,-26.85546875,-35.15625,-88.37890625,0.0
40.62109375,-36.62109375,-34.1796875,-29.296875,-42.96875,-20.5078125,0.0
40.625,-25.87890625,-35.15625,-34.66796875,-45.41015625,38.0859375,0.0
40.62890625,-24.90234375,-36.1328125,-35.15625,-28.80859375,92.7734375,0.0
40.6328125,-8.30078125,-19.04296875,-16.6015625,6.8359375,135.25390625,0.0
40.63671875,-9.765625,-17.08984375,-9.27734375,-2.44140625,94.23828125,0.0
40.640625,-32.71484375,-30.76171875,-22.4609375,-4.8828125,74.70703125,0.0
40.64453125,-41.9921875,-34.1796875,-28.80859375,-34.66796875,26.85546875,0.0
40.6484375,-36.62109375,-34.66796875,-23.4375,-45.8984375,-67.3828125,0.0
40.65234375,-39.0625,-27.83203125,-19.04296875,-20.01953125,-79.1015625,0.0
40.65625,-36.62109375,-24.90234375,-26.3671875,-23.92578125,-50.78125,0.0
40.66015625,-44.921875,-34.1796875,-26.3671875,-17.578125,-67.3828125,0.0
40.6640625,-48.33984375,-34.66796875,-24.4140625,-14.16015625,-40.52734375,0.0
40.66796875,-40.0390625,-26.85546875,-30.2734375,-13.18359375,-69.82421875,0.0
40.671875,-40.52734375,-31.25,-26.85546875,-19.04296875,-70.3125,0.0
40.67578125,-41.50390625,-33.69140625,-23.92578125,-17.08984375,-15.625,0.0
40.6796875,-33.69140625,-30.2734375,-13.18359375,-5.37109375,-17.08984375,0.0
40.68359375,-37.59765625,-32.2265625,-7.8125,-40.0390625,-5.37109375,0.0
40.6875,-43.9453125,-34.1796875,-28.80859375,-47.8515625,-24.90234375,0.0
40.69140625,-43.9453125,-40.0390625,-35.64453125,-10.7421875,-42.48046875,0.0
40.6953125,-57.6171875,-37.109375,-30.76171875,-1.46484375,26.85546875,0.0
40.69921875,-41.9921875,-24.90234375,-25.87890625,2.9296875,39.55078125,0.0
40.703125,-36.1328125,-32.2265625,-35.64453125,-39.55078125,22.94921875,0.0
40.70703125,-62.5,-41.015625,-41.015625,-44.43359375,24.4140625,0.0
40.7109375,-43.9453125,-29.296875,-32.2265625,-3.41796875,-20.01953125,0.0
40.71484375,-40.0390625,-20.99609375,-30.76171875,-19.53125,-10.7421875,0.0
40.71875,-57.12890625,-28.80859375,-30.76171875,-36.62109375,20.01953125,0.0
40.72265625,-54.19921875,-29.78515625,-13.18359375,-31.25,-62.01171875,0.0
40.7265625,-39.55078125,-25.390625,-7.32421875,-52.24609375,-70.80078125,0.0
40.73046875,-29.296875,-31.25,-33.203125,-31.25,18.06640625,0.0
40.734375,-41.015625,-33.69140625,-34.66796875,-13.18359375,26.3671875,0.0
40.73828125,-39.0625,-24.90234375,-19.53125,-26.3671875,-42.96875,0.0
40.7421875,-34.1796875,-25.87890625,-33.69140625,-28.3203125,-86.9140625,0.0
40.74609375,-32.2265625,-31.25,-38.57421875,-44.921875,-39.55078125,0.0
40.75,-36.1328125,-26.85546875,-23.92578125,-48.33984375,-55.17578125,0.0
40.75390625,-49.31640625,-23.92578125,-26.85546875,-32.71484375,-16.6015625,0.0
40.7578125,-33.69140625,-25.390625,-33.203125,-31.25,10.25390625,0.0
40.76171875,-32.2265625,-31.25,-36.62109375,-46.38671875,27.83203125,0.0
40.765625,-36.62109375,-35.15625,-37.59765625,-35.15625,109.375,0.0
40.76953125,-35.15625,-33.203125,-12.20703125,-23.92578125,54.6875,0.0
40.7734375,-51.26953125,-31.25,-18.06640625,-30.76171875,-20.01953125,0.0
40.77734375,-50.78125,-27.34375,-38.0859375,-18.06640625,23.92578125,0.0
40.78125,-46.875,-25.87890625,-30.2734375,-31.25,77.63671875,0.0
40.78515625,-43.9453125,-33.203125,-33.69140625,-53.22265625,101.5625,0.0
40.7890625,-36.1328125,-28.80859375,-41.015625,-31.73828125,53.7109375,0.0
40.79296875,-51.7578125,-27.34375,-36.1328125,-23.4375,-80.56640625,0.0
40.796875,-52.734375,-32.2265625,-27.83203125,-18.06640625,-211.42578125,0.0
40.80078125,-55.6640625,-35.15625,-25.390625,-23.92578125,-209.9609375,0.0
40.8046875,-59.5703125,-38.0859375,-33.203125,-55.17578125,-209.9609375,0.0
40.80859375,-49.8046875,-36.62109375,-38.0859375,-34.1796875,-214.35546875,0.0
40.8125,-44.43359375,-31.73828125,-30.76171875,-17.578125,-157.71484375,0.0
40.81640625,-46.38671875,-29.78515625,-23.4375,-16.11328125,-30.2734375,0.0
40.8203125,-47.36328125,-33.203125,-36.1328125,-29.296875,91.796875,0.0
40.82421875,-36.1328125,-31.25,-41.015625,-47.36328125,66.40625,0.0
40.828125,-30.2734375,-29.78515625,-33.69140625,-29.296875,57.12890625,0.0
40.83203125,-26.85546875,-26.3671875,-26.85546875,-15.13671875,65.4296875,0.0
40.8359375,-37.59765625,-33.69140625,-26.85546875,19.53125,-129.8828125,0.0
40.83984375,-46.875,-43.9453125,-29.78515625,-25.87890625,-227.05078125,0.0
40.84375,-42.48046875,-36.1328125,-26.3671875,-58.10546875,-113.76953125,0.0
40.84765625,-37.109375,-33.69140625,-29.78515625,-31.73828125,-113.28125,0.0
40.8515625,-28.80859375,-33.69140625,-37.109375,-17.578125,-220.703125,0.0
40.85546875,-33.69140625,-34.1796875,-24.90234375,-13.671875,-139.6484375,0.0
40.859375,-55.17578125,-49.31640625,-20.99609375,-24.4140625,-113.28125,0.0
40.86328125,-60.546875,-51.26953125,-29.78515625,-54.6875,-133.7890625,0.0
40.8671875,-38.0859375,-36.62109375,-28.3203125,-41.50390625,-88.8671875,0.0
40.87109375,-39.55078125,-37.109375,-22.94921875,-14.16015625,-99.12109375,0.0
40.875,-51.26953125,-41.015625,-28.80859375,-16.6015625,-118.1640625,0.0
40.87890625,-47.36328125,-39.55078125,-35.64453125,-17.578125,-83.49609375,0.0
40.8828125,-49.8046875,-33.69140625,-33.69140625,-42.48046875,-52.734375,0.0
40.88671875,-59.08203125,-28.3203125,-25.390625,-59.08203125,-32.71484375,0.0
40.890625,-54.6875,-25.390625,-22.4609375,-51.26953125,19.53125,0.0
40.89453125,-47.8515625,-25.390625,-26.3671875,-28.3203125,55.6640625,0.0
40.8984375,-51.7578125,-27.83203125,-21.97265625,-35.64453125,47.8515625,0.0
40.90234375,-41.015625,-35.15625,-27.83203125,-50.29296875,-32.2265625,0.0
40.90625,-37.109375,-41.015625,-32.71484375,-56.640625,-63.96484375,0.0
40.91015625,-14.16015625,-36.1328125,-24.4140625,-39.0625,33.69140625,0.0
40.9140625,-26.3671875,-35.64453125,-20.99609375,-20.01953125,109.375,0.0
40.91796875,-58.59375,-42.48046875,-21.484375,-23.92578125,58.59375,0.0
40.921875,-54.6875,-44.43359375,-20.99609375,-28.80859375,-47.8515625,0.0
40.92578125,-40.52734375,-39.55078125,-19.53125,-28.80859375,-49.8046875,0.0
40.9296875,-37.59765625,-36.1328125,-19.04296875,-8.7890625,-30.2734375,0.0
40.93359375,-39.55078125,-31.73828125,-15.625,6.8359375,-49.8046875,0.0
40.9375,-43.45703125,-29.296875,-15.13671875,-4.8828125,16.11328125,0.0
40.94140625,-48.33984375,-29.78515625,-27.34375,-30.2734375,-16.6015625,0.0
40.9453125,-47.8515625,-35.64453125,-31.25,-54.19921875,-87.40234375,0.0
40.94921875,-20.01953125,-29.78515625,-17.08984375,-41.50390625,-36.1328125,0.0
40.953125,-20.01953125,-23.4375,-14.6484375,-31.25,-2.44140625,0.0
40.95703125,-46.875,-27.83203125,-24.4140625,-37.59765625,-15.625,0.0
40.9609375,-46.38671875,-26.85546875,-28.80859375,-34.66796875,-7.8125,0.0
40.96484375,-51.26953125,-36.62109375,-35.64453125,-42.96875,-39.55078125,0.0
40.96875,-57.6171875,-41.50390625,-39.55078125,-33.203125,-65.4296875,0.0
40.97265625,-54.6875,-34.1796875,-34.66796875,-33.203125,-19.04296875,0.0
40.9765625,-47.8515625,-29.296875,-27.34375,-33.69140625,51.26953125,0.0
40.98046875,-47.8515625,-31.25,-28.3203125,-17.08984375,68.84765625,0.0
40.984375,-40.52734375,-34.66796875,-29.296875,-46.875,16.11328125,0.0
40.98828125,-36.1328125,-39.55078125,-31.25,-44.921875,-26.3671875,0.0
40.9921875,-36.62109375,-40.0390625,-23.4375,-32.71484375,-60.05859375,0.0
40.99609375,-49.31640625,-33.203125,-17.578125,-24.90234375,-21.97265625,0.0
41.0,-47.8515625,-35.64453125,-23.92578125,-37.109375,44.43359375,0.0
41.00390625,-30.76171875,-33.69140625,-30.76171875,-50.78125,-34.1796875,0.0
41.0078125,-44.43359375,-29.78515625,-42.48046875,-25.390625,-79.58984375,0.0
41.01171875,-60.546875,-33.203125,-37.109375,-3.41796875,-50.29296875,0.0
41.015625,-41.9921875,-32.2265625,-25.87890625,-17.08984375,-69.3359375,0.0
41.01953125,-27.83203125,-30.2734375,-24.90234375,-45.41015625,-98.14453125,0.0
41.0234375,-28.80859375,-20.5078125,-19.04296875,-58.10546875,-57.6171875,0.0
41.02734375,-27.83203125,-12.6953125,-24.90234375,-32.71484375,14.6484375,0.0
41.03125,-17.578125,-13.18359375,-22.94921875,-5.859375,59.08203125,0.0
41.03515625,-22.4609375,-16.6015625,-11.23046875,6.8359375,44.921875,0.0
41.0390625,-34.66796875,-21.97265625,-14.6484375,-16.11328125,-39.55078125,0.0
41.04296875,-27.83203125,-29.78515625,-28.80859375,-43.9453125,-119.140625,0.0
41.046875,-20.99609375,-27.83203125,-32.2265625,-41.015625,-97.16796875,0.0
41.05078125,-32.71484375,-21.97265625,-26.85546875,-20.5078125,-100.5859375,0.0
41.0546875,-52.24609375,-28.80859375,-20.01953125,-15.13671875,-91.30859375,0.0
41.05859375,-47.8515625,-32.2265625,-25.390625,-25.87890625,-25.390625,0.0
41.0625,-37.59765625,-28.3203125,-40.52734375,-29.78515625,-26.85546875,0.0
41.06640625,-28.3203125,-28.3203125,-38.0859375,-20.99609375,-79.58984375,0.0
41.0703125,-24.4140625,-26.85546875,-32.2265625,-19.53125,-44.921875,0.0
41.07421875,-35.64453125,-27.34375,-29.78515625,-24.90234375,23.92578125,0.0
41.078125,-41.9921875,-27.83203125,-27.34375,-18.06640625,19.04296875,0.0
41.08203125,-45.8984375,-30.76171875,-30.2734375,-31.25,-93.75,0.0
41.0859375,-50.78125,-29.296875,-32.2265625,-33.203125,-80.56640625,0.0
41.08984375,-38.0859375,-26.3671875,-31.73828125,2.9296875,-77.63671875,0.0
41.09375,-24.90234375,-28.3203125,-33.69140625,5.37109375,-90.33203125,0.0
41.09765625,-22.94921875,-33.69140625,-31.25,-50.78125,-25.390625,0.0
41.1015625,-21.484375,-33.203125,-26.85546875,-45.41015625,-44.43359375,0.0
41.10546875,-16.11328125,-35.15625,-38.57421875,3.90625,-89.84375,0.0
41.109375,-1.953125,-31.73828125,-41.015625,-40.52734375,-41.015625,0.0
41.11328125,-29.296875,-24.90234375,-35.64453125,-43.9453125,-73.2421875,0.0
41.1171875,-38.57421875,-23.92578125,-35.64453125,-17.578125,-71.2890625,0.0
41.12109375,-8.7890625,-25.87890625,-36.62109375,-19.53125,-34.1796875,0.0
41.125,-21.97265625,-38.57421875,-32.71484375,-41.50390625,-41.9921875,0.0
41.12890625,-51.26953125,-45.41015625,-28.3203125,-37.59765625,-137.20703125,0.0
41.1328125,-48.828125,-37.59765625,-22.4609375,-6.8359375,-74.21875,0.0
41.13671875,-25.390625,-41.015625,-14.6484375,-6.8359375,22.4609375,0.0
41.140625,-26.3671875,-51.26953125,-15.625,-30.2734375,-26.3671875,0.0
41.14453125,-45.8984375,-70.80078125,-28.3203125,-49.8046875,-83.49609375,0.0
41.1484375,-41.50390625,-65.91796875,-26.3671875,-38.57421875,-65.91796875,0.0
41.15234375,-44.43359375,-50.29296875,-22.94921875,-14.6484375,69.82421875,0.0
41.15625,-41.9921875,-46.38671875,-16.6015625,23.4375,77.1484375,0.0
41.16015625,-28.3203125,-46.38671875,-7.32421875,-12.20703125,-26.3671875,0.0
41.1640625,-47.36328125,-49.8046875,-19.04296875,-60.05859375,-77.63671875,0.0
41.16796875,-53.22265625,-52.24609375,-24.90234375,-54.19921875,71.2890625,0.0
41.171875,-39.0625,-56.15234375,-20.5078125,-27.83203125,183.10546875,0.0
41.17578125,-44.921875,-48.828125,-20.01953125,-14.6484375,80.078125,0.0
41.1796875,-49.8046875,-46.38671875,-23.4375,-20.01953125,36.62109375,0.0
41.18359375,-53.7109375,-52.24609375,-26.85546875,-12.6953125,42.48046875,0.0
41.1875,-51.7578125,-46.875,-16.6015625,-48.828125,86.42578125,0.0
41.19140625,-40.0390625,-44.921875,-5.859375,-31.25,40.52734375,0.0
41.1953125,-36.1328125,-42.48046875,-18.5546875,2.44140625,-35.15625,0.0
41.19921875,-41.9921875,-37.109375,-24.4140625,-4.8828125,-60.546875,0.0
41.203125,-31.73828125,-41.50390625,-19.53125,-19.53125,-117.67578125,0.0
41.20703125,-28.80859375,-41.50390625,-20.5078125,-39.0625,-76.66015625,0.0
41.2109375,-41.015625,-35.64453125,-22.4609375,-23.4375,-36.1328125,0.0
41.21484375,-41.015625,-27.83203125,-12.6953125,14.16015625,-98.14453125,0.0
41.21875,-37.59765625,-23.4375,-5.859375,2.44140625,-76.66015625,0.0
41.22265625,-29.78515625,-27.34375,-12.20703125,-41.50390625,-27.83203125,0.0
41.2265625,-33.203125,-29.296875,-21.97265625,-54.19921875,-39.55078125,0.0
41.23046875,-35.64453125,-28.80859375,-24.90234375,-27.83203125,-34.66796875,0.0
41.234375,-29.78515625,-29.296875,-19.53125,3.41796875,-41.9921875,0.0
41.23828125,-26.3671875,-31.73828125,-24.4140625,3.41796875,-51.7578125,0.0
41.2421875,-10.7421875,-32.71484375,-21.97265625,-40.52734375,-12.6953125,0.0
41.24609375,-7.32421875,-36.1328125,-24.4140625,-54.19921875,-26.85546875,0.0
41.25,-9.765625,-33.69140625,-59.5703125,-23.4375,-118.65234375,0.0
41.25390625,-15.13671875,-29.296875,-57.12890625,-14.16015625,-120.1171875,0.0
41.2578125,-20.5078125,-24.4140625,-23.92578125,-1.953125,-3.90625,0.0
41.26171875,-27.34375,-23.92578125,-23.4375,-8.30078125,136.71875,0.0
41.265625,-34.66796875,-25.390625,-28.3203125,-49.31640625,117.1875,0.0
41.26953125,-34.66796875,-27.83203125,-26.85546875,-51.26953125,11.23046875,0.0
41.2734375,-44.43359375,-28.3203125,-32.2265625,-14.16015625,17.578125,0.0
41.27734375,-49.8046875,-31.25,-19.53125,4.39453125,-14.6484375,0.0
41.28125,-49.31640625,-37.109375,-8.30078125,-21.97265625,-47.8515625,0.0
41.28515625,-47.8515625,-34.1796875,-22.4609375,-46.875,-58.10546875,0.0
41.2890625,-43.9453125,-29.78515625,-25.390625,-23.4375,-49.31640625,0.0
41.29296875,-38.57421875,-27.34375,-17.08984375,0.9765625,47.36328125,0.0
41.296875,-35.15625,-27.34375,-19.53125,-4.39453125,40.52734375,0.0
41.30078125,-45.8984375,-30.2734375,-31.25,-36.62109375,-33.203125,0.0
41.3046875,-45.8984375,-27.34375,-31.25,-41.50390625,-50.29296875,0.0
41.30859375,-47.36328125,-28.3203125,-28.80859375,-34.1796875,-73.73046875,0.0
41.3125,-45.8984375,-32.71484375,-20.99609375,-21.484375,-13.671875,0.0
41.31640625,-39.0625,-27.83203125,-18.5546875,4.8828125,25.87890625,0.0
41.3203125,-40.0390625,-28.80859375,-32.71484375,-16.11328125,-58.10546875,0.0
41.32421875,-37.59765625,-29.78515625,-25.390625,-30.2734375,-131.8359375,0.0
41.328125,-36.1328125,-30.76171875,-17.578125,-33.203125,-99.609375,0.0
41.33203125,-38.57421875,-33.203125,-21.97265625,-18.06640625,-55.17578125,0.0
41.3359375,-45.8984375,-29.78515625,-18.5546875,7.32421875,-21.484375,0.0
41.33984375,-39.0625,-28.3203125,-10.7421875,-13.18359375,-4.8828125,0.0
41.34375,-33.69140625,-34.1796875,-27.34375,-60.546875,-34.1796875,0.0
41.34765625,-35.64453125,-34.1796875,-37.59765625,-45.41015625,-126.46484375,0.0
41.3515625,-38.0859375,-34.1796875,-26.85546875,-23.92578125,-105.46875,0.0
41.35546875,-43.9453125,-42.96875,-29.78515625,-23.92578125,-18.5546875,0.0
41.359375,-41.9921875,-43.45703125,-31.25,-31.73828125,-24.90234375,0.0
41.36328125,-38.0859375,-37.109375,-28.80859375,-44.43359375,-39.0625,0.0
41.3671875,-38.57421875,-34.1796875,-20.01953125,-27.34375,3.90625,0.0
41.37109375,-37.59765625,-32.2265625,-11.71875,-15.13671875,83.49609375,0.0
41.375,-36.1328125,-31.73828125,-19.53125,-2.9296875,44.43359375,0.0
41.37890625,-44.921875,-34.1796875,-29.78515625,-14.6484375,-18.5546875,0.0
41.3828125,-45.8984375,-31.25,-22.94921875,-88.37890625,-8.30078125,0.0
41.38671875,-49.8046875,-30.76171875,-20.5078125,-80.56640625,-48.33984375,0.0
41.390625,-47.36328125,-32.71484375,-30.2734375,-30.2734375,-75.1953125,0.0
41.39453125,-40.0390625,-34.66796875,-27.83203125,-28.3203125,-86.42578125,0.0
41.3984375,-38.57421875,-32.71484375,-29.78515625,-36.62109375,-83.984375,0.0
41.40234375,-32.71484375,-28.80859375,-33.203125,-47.36328125,-15.13671875,0.0
41.40625,-31.25,-34.66796875,-35.15625,-48.828125,-15.625,0.0
41.41015625,-32.2265625,-36.62109375,-29.78515625,-22.94921875,-58.59375,0.0
41.4140625,-24.90234375,-24.90234375,-12.6953125,10.25390625,-89.35546875,0.0
41.41796875,-31.73828125,-31.25,-20.99609375,-7.8125,-164.55078125,0.0
41.421875,-31.73828125,-34.1796875,-32.71484375,-67.3828125,-191.89453125,0.0
41.42578125,-33.203125,-29.78515625,-26.85546875,-74.21875,-133.30078125,0.0
41.4296875,-37.109375,-34.66796875,-25.390625,-47.36328125,-38.57421875,0.0
41.43359375,-35.64453125,-41.50390625,-32.71484375,-8.7890625,60.546875,0.0
41.4375,-38.0859375,-38.0859375,-33.69140625,-22.94921875,-48.33984375,0.0
41.44140625,-43.9453125,-34.1796875,-31.25,-39.0625,-134.765625,0.0
41.4453125,-41.015625,-28.80859375,-37.109375,-44.921875,-42.48046875,0.0
41.44921875,-42.48046875,-27.34375,-35.64453125,-65.91796875,-28.80859375,0.0
41.453125,-39.55078125,-34.1796875,-32.2265625,-33.69140625,-32.2265625,0.0
41.45703125,-28.3203125,-35.64453125,-36.1328125,-30.76171875,-34.66796875,0.0
41.4609375,-26.85546875,-32.2265625,-34.1796875,-44.921875,9.765625,0.0
41.46484375,-32.71484375,-37.59765625,-35.15625,-49.31640625,39.0625,0.0
41.46875,-28.3203125,-38.57421875,-33.69140625,-47.8515625,32.2265625,0.0
41.47265625,-34.66796875,-33.69140625,-26.3671875,-22.94921875,3.41796875,0.0
41.4765625,-41.50390625,-32.71484375,-17.578125,-4.39453125,-3.41796875,0.0
41.48046875,-35.15625,-26.85546875,-26.3671875,-20.5078125,-17.578125,0.0
41.484375,-19.53125,-21.97265625,-30.2734375,-56.640625,16.11328125,0.0
41.48828125,-26.3671875,-28.80859375,-25.390625,-24.4140625,85.44921875,0.0
41.4921875,-35.64453125,-35.15625,-25.87890625,5.37109375,133.7890625,0.0
41.49609375,-35.64453125,-28.80859375,-22.4609375,-4.39453125,81.54296875,0.0
41.5,-41.015625,-28.80859375,-26.3671875,-38.57421875,64.453125,0.0
41.50390625,-32.71484375,-39.55078125,-34.1796875,-62.01171875,45.41015625,0.0
41.5078125,-30.76171875,-36.1328125,-32.71484375,-51.26953125,32.71484375,0.0
41.51171875,-45.8984375,-27.34375,-32.2265625,-20.01953125,75.68359375,0.0
41.515625,-28.3203125,-27.83203125,-31.25,2.9296875,43.45703125,0.0
41.51953125,-19.04296875,-29.296875,-19.04296875,-18.06640625,-3.41796875,0.0
41.5234375,-40.52734375,-29.78515625,-21.484375,-67.3828125,-86.42578125,0.0
41.52734375,-41.015625,-33.69140625,-33.203125,-52.24609375,-110.3515625,0.0
41.53125,-23.92578125,-30.2734375,-24.90234375,-11.71875,-55.17578125,0.0
41.53515625,-5.859375,-25.87890625,-12.20703125,-12.6953125,-34.1796875,0.0
41.5390625,-32.2265625,-30.76171875,-18.5546875,-8.30078125,-22.4609375,0.0
41.54296875,-65.4296875,-32.71484375,-27.83203125,-18.5546875,-49.31640625,0.0
41.546875,-49.8046875,-33.69140625,-31.25,-55.17578125,-81.0546875,0.0
41.55078125,-36.62109375,-37.59765625,-33.203125,-27.83203125,-22.4609375,0.0
41.5546875,-49.31640625,-34.1796875,-29.296875,-23.4375,-19.04296875,0.0
41.55859375,-45.8984375,-31.73828125,-28.3203125,-57.12890625,-69.82421875,0.0
41.5625,-37.59765625,-32.2265625,-26.85546875,-69.3359375,-81.0546875,0.0
41.56640625,-43.9453125,-34.1796875,-30.2734375,-52.24609375,-119.62890625,0.0
41.5703125,-44.921875,-37.109375,-36.62109375,-41.50390625,-108.88671875,0.0
41.57421875,-19.53125,-36.62109375,-33.203125,-25.390625,-0.9765625,0.0
41.578125,-25.390625,-31.25,-23.4375,-29.78515625,-37.109375,0.0
41.58203125,-54.19921875,-26.85546875,-28.3203125,-50.29296875,14.6484375,0.0
41.5859375,-52.734375,-26.3671875,-34.1796875,-24.4140625,125.0,0.0
41.58984375,-39.55078125,-26.85546875,-25.87890625,-0.48828125,23.92578125,0.0
41.59375,-38.0859375,-26.3671875,-23.4375,-47.36328125,-4.39453125,0.0
41.59765625,-44.43359375,-26.85546875,-28.80859375,-65.4296875,54.6875,0.0
41.6015625,-48.828125,-28.3203125,-41.015625,-46.38671875,6.8359375,0.0
41.60546875,-44.921875,-30.2734375,-45.8984375,-62.98828125,-56.15234375,0.0
41.609375,-42.48046875,-38.57421875,-36.1328125,-52.24609375,-44.921875,0.0
41.61328125,-44.43359375,-40.0390625,-27.34375,-8.30078125,-34.1796875,0.0
41.6171875,-50.29296875,-33.69140625,-25.87890625,-0.9765625,-135.25390625,0.0
41.62109375,-46.875,-35.15625,-31.25,-53.22265625,-234.86328125,0.0
41.625,-32.71484375,-42.48046875,-27.34375,-59.5703125,-216.30859375,0.0
41.62890625,-23.4375,-38.57421875,-29.296875,-15.625,-227.05078125,0.0
41.6328125,-41.015625,-32.2265625,-29.78515625,-12.20703125,-180.17578125,0.0
41.63671875,-55.17578125,-33.203125,-33.203125,-42.48046875,-57.12890625,0.0
41.640625,-44.921875,-38.0859375,-43.9453125,-61.5234375,46.875,0.0
41.64453125,-36.1328125,-43.9453125,-41.50390625,-51.7578125,-8.30078125,0.0
41.6484375,-41.50390625,-41.015625,-32.71484375,-38.0859375,-57.12890625,0.0
41.65234375,-47.8515625,-33.203125,-26.85546875,-35.64453125,-16.11328125,0.0
41.65625,-45.41015625,-31.25,-26.3671875,1.46484375,72.265625,0.0
41.66015625,-36.62109375,-29.296875,-30.76171875,-43.9453125,60.546875,0.0
41.6640625,-41.50390625,-31.25,-36.1328125,-74.21875,-7.32421875,0.0
41.66796875,-43.45703125,-29.296875,-36.1328125,-25.87890625,39.55078125,0.0
41.671875,-25.87890625,-31.25,-29.296875,-6.34765625,-4.8828125,0.0
41.67578125,-26.85546875,-31.73828125,-32.2265625,-36.62109375,-40.52734375,0.0
41.6796875,-37.109375,-27.34375,-37.109375,-61.03515625,-63.96484375,0.0
41.68359375,-30.76171875,-28.80859375,-32.71484375,-19.53125,-122.0703125,0.0
41.6875,-30.2734375,-36.62109375,-36.62109375,-8.30078125,-126.46484375,0.0
41.69140625,-36.1328125,-33.69140625,-33.69140625,-38.57421875,-67.3828125,0.0
41.6953125,-29.78515625,-26.3671875,-21.97265625,-1.953125,-52.24609375,0.0
41.69921875,-24.4140625,-31.73828125,-20.01953125,-8.7890625,-47.8515625,0.0
41.703125,-27.34375,-38.0859375,-26.85546875,-56.640625,-65.91796875,0.0
41.70703125,-34.1796875,-41.9921875,-35.64453125,-45.41015625,-46.875,0.0
41.7109375,-31.73828125,-40.0390625,-29.78515625,-27.34375,-30.76171875,0.0
41.71484375,-29.296875,-39.0625,-18.06640625,-19.53125,-6.8359375,0.0
41.71875,-27.83203125,-44.43359375,-25.390625,7.8125,10.25390625,0.0
41.72265625,-29.296875,-43.45703125,-34.1796875,-45.8984375,-3.41796875,0.0
41.7265625,-35.64453125,-37.109375,-36.62109375,-83.0078125,19.04296875,0.0
41.73046875,-41.015625,-36.1328125,-38.57421875,-37.59765625,11.23046875,0.0
41.734375,-42.48046875,-36.1328125,-32.2265625,3.90625,-15.625,0.0
41.73828125,-44.921875,-37.59765625,-32.2265625,-5.37109375,-54.19921875,0.0
41.7421875,-45.8984375,-36.1328125,-34.66796875,-36.62109375,-105.95703125,0.0
41.74609375,-20.99609375,-31.73828125,-23.92578125,-51.26953125,-61.5234375,0.0
41.75,-30.76171875,-36.62109375,-22.94921875,-29.78515625,1.46484375,0.0
41.75390625,-50.29296875,-44.921875,-28.3203125,-4.39453125,0.48828125,0.0
41.7578125,-54.19921875,-41.50390625,-30.2734375,-10.7421875,77.63671875,0.0
41.76171875,-41.9921875,-32.2265625,-31.73828125,-45.41015625,145.5078125,0.0
41.765625,-45.8984375,-32.2265625,-34.66796875,-52.24609375,117.67578125,0.0
41.76953125,-57.6171875,-35.15625,-40.52734375,-31.25,77.1484375,0.0
41.7734375,-37.59765625,-32.2265625,-37.109375,-4.8828125,-4.39453125,0.0
41.77734375,-35.15625,-29.78515625,-28.80859375,-21.484375,-14.6484375,0.0
41.78125,-41.9921875,-36.1328125,-34.66796875,-50.78125,-42.96875,0.0
41.78515625,-44.43359375,-37.59765625,-38.57421875,-41.50390625,-21.97265625,0.0
41.7890625,-35.64453125,-32.71484375,-31.73828125,-44.921875,-3.90625,0.0
41.79296875,-36.1328125,-30.2734375,-25.390625,-25.390625,-143.06640625,0.0
41.796875,-52.24609375,-33.203125,-24.4140625,-15.13671875,-235.3515625,0.0
41.80078125,-52.734375,-34.66796875,-29.78515625,-29.296875,-146.97265625,0.0
41.8046875,-45.8984375,-34.1796875,-23.92578125,-51.7578125,-181.15234375,0.0
41.80859375,-31.73828125,-29.296875,-15.13671875,-69.82421875,-159.1796875,0.0
41.8125,-19.04296875,-29.78515625,-23.92578125,-41.50390625,40.52734375,0.0
41.81640625,-27.34375,-36.1328125,-29.78515625,-9.27734375,78.61328125,0.0
41.8203125,-54.6875,-38.57421875,-28.80859375,-28.3203125,54.19921875,0.0
41.82421875,-51.7578125,-38.57421875,-36.1328125,-50.29296875,8.30078125,0.0
41.828125,-44.921875,-39.0625,-41.50390625,-65.91796875,29.296875,0.0
41.83203125,-38.0859375,-41.50390625,-38.0859375,-37.109375,67.3828125,0.0
41.8359375,-36.62109375,-36.1328125,-31.25,-19.04296875,-5.37109375,0.0
41.83984375,-50.78125,-36.1328125,-26.85546875,-37.109375,-33.69140625,0.0
41.84375,-47.36328125,-37.109375,-33.203125,-43.9453125,7.32421875,0.0
41.84765625,-42.48046875,-30.2734375,-26.85546875,-3.90625,-50.29296875,0.0
41.8515625,-37.109375,-28.80859375,-18.06640625,-3.41796875,-47.36328125,0.0
41.85546875,-38.0859375,-32.71484375,-25.87890625,-49.31640625,-78.61328125,0.0
41.859375,-48.828125,-35.15625,-34.1796875,-45.41015625,-120.1171875,0.0
41.86328125,-60.546875,-32.71484375,-40.0390625,-56.640625,-79.58984375,0.0
41.8671875,-55.17578125,-30.2734375,-44.921875,-58.59375,-30.2734375,0.0
41.87109375,-46.38671875,-30.76171875,-35.64453125,-29.296875,-36.1328125,0.0
41.875,-58.10546875,-28.80859375,-25.87890625,-12.20703125,-50.78125,0.0
41.87890625,-50.78125,-28.3203125,-22.94921875,-21.97265625,-12.6953125,0.0
41.8828125,-57.6171875,-33.203125,-29.78515625,-51.26953125,-3.41796875,0.0
41.88671875,-46.38671875,-32.2265625,-36.1328125,-42.96875,-24.4140625,0.0
41.890625,-24.4140625,-28.80859375,-28.3203125,-35.15625,-37.109375,0.0
41.89453125,-38.57421875,-24.4140625,-19.04296875,-31.73828125,-67.3828125,0.0
41.8984375,-39.55078125,-25.390625,-22.94921875,-17.578125,-81.54296875,0.0
41.90234375,-33.69140625,-27.83203125,-25.390625,-39.55078125,-48.828125,0.0
41.90625,-46.38671875,-27.83203125,-29.78515625,-49.31640625,-38.57421875,0.0
41.91015625,-53.22265625,-40.0390625,-37.109375,-43.45703125,-63.4765625,0.0
41.9140625,-37.109375,-36.62109375,-28.80859375,-28.80859375,-6.34765625,0.0
41.91796875,-42.96875,-26.3671875,-23.92578125,-9.27734375,3.41796875,0.0
41.921875,-45.41015625,-35.15625,-34.1796875,-34.1796875,-45.8984375,0.0
41.92578125,-42.48046875,-38.0859375,-37.59765625,-48.828125,-83.0078125,0.0
41.9296875,-41.015625,-38.0859375,-31.25,-33.203125,-168.9453125,0.0
41.93359375,-34.66796875,-32.2265625,-29.296875,20.01953125,-191.40625,0.0
41.9375,-35.15625,-21.484375,-21.97265625,-8.7890625,-170.8984375,0.0
41.94140625,-34.66796875,-25.390625,-17.578125,-53.7109375,-185.05859375,0.0
41.9453125,-35.64453125,-33.203125,-26.85546875,-45.41015625,-203.125,0.0
41.94921875,-31.25,-30.76171875,-27.34375,-38.57421875,-183.10546875,0.0
41.953125,-31.25,-25.87890625,-23.92578125,0.48828125,-96.19140625,0.0
41.95703125,-26.85546875,-24.90234375,-24.4140625,9.765625,-92.7734375,0.0
41.9609375,-23.4375,-24.90234375,-30.76171875,-39.55078125,-8.7890625,0.0
41.96484375,-24.4140625,-29.296875,-35.64453125,-41.50390625,85.9375,0.0
41.96875,-17.578125,-33.69140625,-32.2265625,-23.92578125,99.12109375,0.0
41.97265625,-31.73828125,-29.78515625,-28.3203125,-41.9921875,59.08203125,0.0
41.9765625,-42.48046875,-24.4140625,-30.2734375,-21.484375,3.41796875,0.0
41.98046875,-37.109375,-29.78515625,-32.71484375,-11.71875,68.359375,0.0
41.984375,-54.19921875,-47.36328125,-32.71484375,-60.546875,77.63671875,0.0
41.98828125,-49.8046875,-43.9453125,-31.73828125,-35.64453125,27.34375,0.0
41.9921875,-49.31640625,-35.64453125,-31.25,-7.8125,99.12109375,0.0
41.99609375,-55.6640625,-40.0390625,-30.2734375,-36.1328125,67.87109375,0.0
42.0,-42.48046875,-39.55078125,-20.5078125,-33.69140625,35.64453125,0.0
42.00390625,-24.4140625,-34.1796875,-32.2265625,-37.109375,60.546875,0.0
42.0078125,-16.6015625,-34.66796875,-36.1328125,-27.34375,13.671875,0.0
42.01171875,-26.3671875,-36.62109375,-22.4609375,-0.9765625,42.96875,0.0
42.015625,-70.3125,-37.59765625,-15.13671875,-31.25,83.49609375,0.0
42.01953125,-89.35546875,-43.45703125,-20.5078125,-90.8203125,99.609375,0.0
42.0234375,-94.23828125,-53.22265625,-27.34375,-104.4921875,67.87109375,0.0
42.02734375,-89.84375,-47.36328125,-16.11328125,-94.23828125,-8.7890625,0.0
42.03125,-76.66015625,-40.0390625,11.23046875,-62.01171875,-81.54296875,0.0
42.03515625,-95.21484375,-54.19921875,-6.8359375,-39.55078125,-46.38671875,0.0
42.0390625,-89.35546875,-56.15234375,-28.3203125,-73.2421875,-35.64453125,0.0
42.04296875,-53.7109375,-53.7109375,-29.296875,-105.95703125,-96.19140625,0.0
42.046875,-44.43359375,-52.734375,-32.2265625,-87.40234375,-76.66015625,0.0
42.05078125,-36.1328125,-47.36328125,-33.69140625,-54.19921875,-39.55078125,0.0
42.0546875,-40.0390625,-41.9921875,-31.73828125,-61.03515625,22.94921875,0.0
42.05859375,-60.05859375,-37.109375,-26.85546875,-71.2890625,6.34765625,0.0
42.0625,-62.01171875,-43.9453125,-29.296875,-63.4765625,-45.41015625,0.0
42.06640625,-59.5703125,-48.828125,-27.83203125,-52.24609375,-17.578125,0.0
42.0703125,-67.3828125,-41.015625,-26.3671875,-26.3671875,-61.5234375,0.0
42.07421875,-53.7109375,-38.0859375,-22.94921875,-16.11328125,-63.96484375,0.0
42.078125,-49.31640625,-45.8984375,-18.5546875,-52.24609375,-51.26953125,0.0
42.08203125,-57.6171875,-47.8515625,-30.76171875,-79.58984375,-62.5,0.0
42.0859375,-42.48046875,-38.0859375,-23.4375,-68.84765625,-13.18359375,0.0
42.08984375,-49.31640625,-34.66796875,-4.39453125,-47.8515625,-11.23046875,0.0
42.09375,-56.15234375,-34.66796875,-18.06640625,-14.6484375,-39.55078125,0.0
42.09765625,-56.640625,-31.25,-32.2265625,-32.2265625,12.20703125,0.0
42.1015625,-57.12890625,-28.80859375,-33.203125,-76.66015625,-66.40625,0.0
42.10546875,-44.43359375,-29.296875,-38.57421875,-78.125,-124.0234375,0.0
42.109375,-33.203125,-29.78515625,-38.57421875,-51.7578125,-1.46484375,0.0
42.11328125,-34.66796875,-26.3671875,-32.2265625,-18.06640625,11.23046875,0.0
42.1171875,-36.62109375,-28.3203125,-21.484375,-32.2265625,-77.63671875,0.0
42.12109375,-41.50390625,-35.15625,-16.11328125,-45.8984375,-81.0546875,0.0
42.125,-43.9453125,-35.64453125,-20.99609375,-36.1328125,19.04296875,0.0
42.12890625,-47.8515625,-35.64453125,-20.99609375,-23.4375,53.7109375,0.0
42.1328125,-32.71484375,-28.80859375,-14.16015625,-27.34375,-14.16015625,0.0
42.13671875,-16.11328125,-20.01953125,-13.18359375,-23.4375,-33.203125,0.0
42.140625,-29.296875,-28.3203125,-29.78515625,-42.48046875,-9.765625,0.0
42.14453125,-28.3203125,-39.55078125,-39.0625,-54.19921875,23.92578125,0.0
42.1484375,-20.5078125,-43.9453125,-30.76171875,-18.5546875,75.1953125,0.0
42.15234375,-23.4375,-37.59765625,-20.99609375,-20.99609375,54.19921875,0.0
42.15625,-32.2265625,-31.25,-21.97265625,-26.85546875,-75.1953125,0.0
42.16015625,-40.52734375,-37.109375,-24.4140625,-23.4375,-71.77734375,0.0
42.1640625,-36.1328125,-32.71484375,-26.3671875,-47.36328125,-21.97265625,0.0
42.16796875,-29.296875,-28.80859375,-28.3203125,-47.8515625,-18.5546875,0.0
42.171875,-33.203125,-31.73828125,-23.92578125,-35.15625,14.6484375,0.0
42.17578125,-31.25,-29.78515625,-21.484375,-28.3203125,-2.9296875,0.0
42.1796875,-15.625,-22.4609375,-10.25390625,-15.13671875,-84.47265625,0.0
42.18359375,-17.08984375,-22.94921875,-13.671875,-38.57421875,-193.359375,0.0
42.1875,-33.69140625,-31.25,-30.76171875,-52.24609375,-132.32421875,0.0
42.19140625,-18.06640625,-32.71484375,-31.25,-25.87890625,-70.3125,0.0
42.1953125,-26.85546875,-34.1796875,-27.83203125,-18.06640625,-63.96484375,0.0
42.19921875,-36.1328125,-27.34375,-22.94921875,-35.64453125,-27.83203125,0.0
42.203125,-21.97265625,-30.2734375,-25.390625,-51.26953125,-54.6875,0.0
42.20703125,-18.5546875,-36.1328125,-28.80859375,-33.203125,-54.19921875,0.0
42.2109375,-19.53125,-26.85546875,-20.99609375,-22.94921875,15.625,0.0
42.21484375,-21.484375,-28.3203125,-15.625,-43.45703125,48.33984375,0.0
42.21875,-31.73828125,-40.52734375,-19.53125,-28.3203125,0.9765625,0.0
42.22265625,-37.59765625,-44.43359375,-23.4375,-41.015625,-52.734375,0.0
42.2265625,-28.3203125,-41.50390625,-24.90234375,-62.5,-28.80859375,0.0
42.23046875,-11.71875,-32.2265625,-23.92578125,-35.15625,20.99609375,0.0
42.234375,-22.94921875,-23.92578125,-18.5546875,-8.7890625,-1.953125,0.0
42.23828125,-35.64453125,-25.390625,-12.6953125,-33.203125,-102.05078125,0.0
42.2421875,-33.203125,-36.62109375,-22.4609375,-55.17578125,-119.62890625,0.0
42.24609375,-38.57421875,-36.1328125,-30.2734375,-40.52734375,-63.4765625,0.0
42.25,-35.15625,-26.85546875,-25.87890625,-19.53125,-47.36328125,0.0
42.25390625,-30.76171875,-28.3203125,-22.94921875,-35.15625,-47.8515625,0.0
42.2578125,-28.3203125,-27.83203125,-23.4375,-33.203125,-46.38671875,0.0
42.26171875,-16.6015625,-27.83203125,-38.0859375,-40.52734375,-18.06640625,0.0
42.265625,-14.16015625,-31.25,-43.9453125,-46.38671875,54.6875,0.0
42.26953125,-16.11328125,-26.85546875,-21.97265625,-26.3671875,40.52734375,0.0
42.2734375,-26.85546875,-24.4140625,-17.578125,-20.01953125,20.5078125,0.0
42.27734375,-27.34375,-25.87890625,-31.25,-3.41796875,58.59375,0.0
42.28125,-37.59765625,-27.34375,-29.78515625,-29.78515625,-54.19921875,0.0
42.28515625,-34.1796875,-30.76171875,-26.3671875,-55.6640625,-127.44140625,0.0
42.2890625,-18.5546875,-35.64453125,-35.64453125,-43.9453125,-59.08203125,0.0
42.29296875,-31.73828125,-33.69140625,-26.85546875,-26.3671875,-35.15625,0.0
42.296875,-41.50390625,-31.25,-16.6015625,-8.7890625,-89.35546875,0.0
42.30078125,-38.57421875,-35.15625,-25.87890625,-39.0625,-132.32421875,0.0
42.3046875,-33.203125,-35.64453125,-38.0859375,-61.03515625,-111.81640625,0.0
42.30859375,-41.50390625,-32.71484375,-47.8515625,-46.875,-83.49609375,0.0
42.3125,-41.9921875,-30.76171875,-31.25,-43.45703125,-114.2578125,0.0
42.31640625,-38.0859375,-31.73828125,-5.37109375,-23.4375,-7.32421875,0.0
42.3203125,-38.0859375,-30.2734375,-26.85546875,-18.5546875,59.08203125,0.0
42.32421875,-24.90234375,-29.78515625,-43.9453125,-52.734375,-20.01953125,0.0
42.328125,-41.9921875,-34.66796875,-34.66796875,-21.484375,-3.41796875,0.0
42.33203125,-48.33984375,-32.71484375,-26.85546875,26.3671875,30.2734375,0.0
42.3359375,-42.48046875,-31.73828125,-32.71484375,-54.6875,56.15234375,0.0
42.33984375,-49.31640625,-34.66796875,-39.0625,-82.51953125,4.39453125,0.0
42.34375,-36.62109375,-31.73828125,-40.0390625,-68.84765625,-36.62109375,0.0
42.34765625,-36.1328125,-27.83203125,-34.1796875,-48.33984375,-62.01171875,0.0
42.3515625,-47.8515625,-23.4375,-28.3203125,-24.90234375,-116.2109375,0.0
42.35546875,-53.22265625,-22.94921875,-27.83203125,-19.53125,-59.08203125,0.0
42.359375,-57.6171875,-28.3203125,-12.6953125,-15.625,-16.11328125,0.0
42.36328125,-58.59375,-41.50390625,-20.5078125,-43.9453125,-142.578125,0.0
42.3671875,-54.19921875,-41.9921875,-41.50390625,-43.9453125,-175.78125,0.0
42.37109375,-40.52734375,-37.59765625,-35.64453125,18.06640625,-67.3828125,0.0
42.375,-47.36328125,-41.015625,-10.7421875,-11.71875,-5.859375,0.0
42.37890625,-57.6171875,-40.0390625,-23.92578125,-42.48046875,-39.55078125,0.0
42.3828125,-49.8046875,-41.015625,-46.875,-55.17578125,-80.078125,0.0
42.38671875,-31.25,-37.109375,-44.43359375,-52.24609375,-14.16015625,0.0
42.390625,-34.66796875,-28.80859375,-35.15625,-37.59765625,33.203125,0.0
42.39453125,-56.640625,-26.3671875,-30.2734375,-24.4140625,5.859375,0.0
42.3984375,-43.9453125,-26.3671875,-35.15625,-29.296875,-21.97265625,0.0
42.40234375,-43.45703125,-34.66796875,-32.2265625,-48.828125,-37.59765625,0.0
42.40625,-43.9453125,-42.96875,-20.99609375,-48.33984375,-44.921875,0.0
42.41015625,-36.62109375,-41.9921875,-29.78515625,-26.3671875,7.8125,0.0
42.4140625,-59.08203125,-37.59765625,-32.71484375,0.48828125,24.90234375,0.0
42.41796875,-45.41015625,-35.15625,-30.2734375,-37.59765625,60.546875,0.0
42.421875,-34.66796875,-37.59765625,-36.1328125,-71.77734375,31.73828125,0.0
42.42578125,-43.45703125,-37.59765625,-37.59765625,-55.6640625,38.57421875,0.0
42.4296875,-44.43359375,-32.71484375,-33.203125,-37.59765625,88.8671875,0.0
42.43359375,-32.2265625,-33.203125,-31.25,-13.18359375,2.44140625,0.0
42.4375,-34.1796875,-31.25,-36.1328125,-17.578125,15.13671875,0.0
42.44140625,-40.52734375,-30.76171875,-36.1328125,-32.2265625,93.26171875,0.0
42.4453125,-28.3203125,-33.69140625,-35.64453125,-30.2734375,-86.9140625,0.0
42.44921875,-50.78125,-49.31640625,-37.59765625,-59.5703125,-136.23046875,0.0
42.453125,-58.10546875,-48.33984375,-34.1796875,-37.59765625,46.38671875,0.0
42.45703125,-27.83203125,-29.78515625,-32.71484375,-13.671875,-10.7421875,0.0
42.4609375,-36.62109375,-27.83203125,-40.0390625,-46.875,-46.38671875,0.0
42.46484375,-52.734375,-41.015625,-44.921875,-62.98828125,-20.01953125,0.0
42.46875,-46.38671875,-37.59765625,-35.15625,-42.96875,-32.2265625,0.0
42.47265625,-35.15625,-33.203125,-29.78515625,-26.85546875,-13.18359375,0.0
42.4765625,-28.3203125,-39.0625,-32.2265625,-11.23046875,-2.44140625,0.0
42.48046875,-35.64453125,-40.0390625,-35.15625,-12.6953125,-45.8984375,0.0
42.484375,-45.41015625,-39.0625,-37.109375,-34.66796875,-61.5234375,0.0
42.48828125,-48.828125,-38.0859375,-38.0859375,-35.15625,-20.01953125,0.0
42.4921875,-30.2734375,-27.34375,-29.78515625,-14.6484375,-48.828125,0.0
42.49609375,-19.53125,-24.4140625,-25.390625,-10.7421875,-83.984375,0.0
42.5,-57.12890625,-32.2265625,-32.2265625,-42.48046875,-29.78515625,0.0
42.50390625,-64.94140625,-37.109375,-36.62109375,-53.22265625,-34.1796875,0.0
42.5078125,-34.66796875,-41.015625,-29.78515625,-26.3671875,-19.53125,0.0
42.51171875,-34.1796875,-42.48046875,-23.4375,-14.6484375,35.64453125,0.0
42.515625,-48.828125,-37.59765625,-27.83203125,-11.23046875,6.8359375,0.0
42.51953125,-45.8984375,-32.71484375,-25.87890625,-24.90234375,-20.01953125,0.0
42.5234375,-29.296875,-30.2734375,-14.6484375,2.44140625,-12.6953125,0.0
42.52734375,-13.18359375,-35.64453125,-20.99609375,0.9765625,9.27734375,0.0
42.53125,-23.92578125,-40.52734375,-31.25,-33.203125,0.0,0.0
42.53515625,-38.57421875,-34.66796875,-25.87890625,-29.78515625,-56.640625,0.0
42.5390625,-41.9921875,-28.3203125,-25.87890625,-39.55078125,-76.66015625,0.0
42.54296875,-43.45703125,-30.2734375,-29.296875,-59.5703125,-55.6640625,0.0
42.546875,-40.52734375,-34.66796875,-33.69140625,-61.03515625,-125.9765625,0.0
42.55078125,-35.15625,-33.69140625,-32.2265625,-26.3671875,-201.171875,0.0
42.5546875,-39.0625,-30.2734375,-7.8125,-8.30078125,-64.94140625,0.0
42.55859375,-44.43359375,-39.0625,-11.71875,-29.296875,7.8125,0.0
42.5625,-34.66796875,-37.59765625,-39.55078125,-37.59765625,-38.0859375,0.0
42.56640625,-28.80859375,-30.76171875,-42.48046875,-24.90234375,19.53125,0.0
42.5703125,-21.97265625,-29.78515625,-30.76171875,-10.7421875,-20.5078125,0.0
42.57421875,-16.11328125,-23.92578125,-22.94921875,-32.2265625,-150.87890625,0.0
42.578125,-27.83203125,-24.4140625,-27.34375,-30.2734375,-91.30859375,0.0
42.58203125,-28.80859375,-25.390625,-30.2734375,-20.5078125,-57.12890625,0.0
42.5859375,-24.4140625,-21.97265625,-29.78515625,-37.109375,-73.73046875,0.0
42.58984375,-34.66796875,-18.5546875,-31.73828125,-40.52734375,-61.5234375,0.0
42.59375,-28.80859375,-19.53125,-30.2734375,-18.06640625,-11.23046875,0.0
42.59765625,-28.3203125,-29.78515625,-33.69140625,-28.3203125,44.43359375,0.0
42.6015625,-40.0390625,-28.80859375,-43.9453125,-52.24609375,24.4140625,0.0
42.60546875,-41.015625,-27.83203125,-46.38671875,-57.6171875,-37.59765625,0.0
42.609375,-38.57421875,-25.87890625,-32.2265625,-35.64453125,-17.08984375,0.0
42.61328125,-44.43359375,-29.78515625,-16.6015625,-26.3671875,16.11328125,0.0
42.6171875,-59.08203125,-31.73828125,-21.484375,-19.04296875,52.734375,0.0
42.62109375,-30.76171875,-27.34375,-31.73828125,6.8359375,-14.16015625,0.0
42.625,-21.484375,-31.25,-33.69140625,-56.15234375,-46.38671875,0.0
42.62890625,-47.36328125,-40.52734375,-42.48046875,-63.4765625,40.0390625,0.0
42.6328125,-46.38671875,-33.203125,-39.55078125,-16.11328125,64.94140625,0.0
42.63671875,-46.875,-27.34375,-35.15625,-32.2265625,38.0859375,0.0
42.640625,-50.78125,-31.73828125,-37.109375,-39.55078125,-63.4765625,0.0
42.64453125,-45.8984375,-34.66796875,-46.38671875,-52.24609375,-88.37890625,0.0
42.6484375,-48.33984375,-35.15625,-44.921875,-52.24609375,-114.2578125,0.0
42.65234375,-52.24609375,-33.203125,-34.66796875,-22.4609375,-102.5390625,0.0
42.65625,-41.50390625,-30.76171875,-30.2734375,-14.6484375,-7.32421875,0.0
42.66015625,-32.71484375,-27.83203125,-30.76171875,-17.08984375,-1.953125,0.0
42.6640625,-32.2265625,-31.25,-33.203125,-29.296875,-54.6875,0.0
42.66796875,-32.71484375,-30.2734375,-30.2734375,-15.625,-42.48046875,0.0
42.671875,-26.85546875,-24.4140625,-26.3671875,0.48828125,59.5703125,0.0
42.67578125,-23.4375,-21.97265625,-24.90234375,-26.3671875,66.40625,0.0
42.6796875,-32.2265625,-19.04296875,-23.92578125,-25.87890625,-53.22265625,0.0
42.68359375,-41.015625,-25.87890625,-30.76171875,-40.0390625,-37.109375,0.0
42.6875,-41.015625,-28.3203125,-38.57421875,-36.1328125,20.5078125,0.0
42.69140625,-20.01953125,-23.4375,-37.59765625,-11.23046875,3.41796875,0.0
42.6953125,-24.90234375,-27.83203125,-28.80859375,-17.08984375,-8.7890625,0.0
42.69921875,-46.875,-27.34375,-26.85546875,-38.0859375,-49.8046875,0.0
42.703125,-34.1796875,-29.296875,-37.59765625,-77.63671875,-77.63671875,0.0
42.70703125,-16.6015625,-33.203125,-37.109375,-52.734375,-56.640625,0.0
42.7109375,-19.53125,-32.2265625,-25.390625,1.953125,-41.015625,0.0
42.71484375,-31.73828125,-41.015625,-25.87890625,-34.66796875,-62.01171875,0.0
42.71875,-44.43359375,-41.9921875,-31.25,-54.19921875,-8.30078125,0.0
42.72265625,-37.109375,-33.69140625,-35.64453125,-19.53125,-8.7890625,0.0
42.7265625,-27.83203125,-33.203125,-37.109375,-36.1328125,-80.078125,0.0
42.73046875,-50.29296875,-29.78515625,-38.0859375,-55.17578125,-0.48828125,0.0
42.734375,-43.9453125,-28.80859375,-27.34375,-35.64453125,39.55078125,0.0
42.73828125,-29.78515625,-35.64453125,-25.390625,-43.9453125,52.24609375,0.0
42.7421875,-45.8984375,-35.15625,-36.1328125,-39.0625,10.25390625,0.0
42.74609375,-45.41015625,-28.80859375,-35.15625,-32.2265625,-64.94140625,0.0
42.75,-35.15625,-28.3203125,-25.390625,-30.2734375,-18.5546875,0.0
42.75390625,-23.4375,-32.71484375,-27.83203125,-18.06640625,24.4140625,0.0
42.7578125,-25.87890625,-35.64453125,-36.1328125,-55.17578125,2.9296875,0.0
42.76171875,-46.38671875,-33.203125,-37.59765625,-79.58984375,8.30078125,0.0
42.765625,-48.828125,-32.71484375,-40.52734375,-61.5234375,12.20703125,0.0
42.76953125,-47.8515625,-37.59765625,-43.9453125,-46.875,-30.76171875,0.0
42.7734375,-41.50390625,-37.109375,-34.66796875,-11.23046875,-34.1796875,0.0
42.77734375,-24.90234375,-35.15625,-32.2265625,-11.23046875,-44.43359375,0.0
42.78125,-33.203125,-41.9921875,-44.921875,-79.1015625,-73.2421875,0.0
42.78515625,-27.34375,-39.0625,-41.50390625,-67.87109375,-93.75,0.0
42.7890625,-29.78515625,-30.76171875,-33.69140625,-29.296875,-16.11328125,0.0
42.79296875,-40.0390625,-28.3203125,-31.73828125,-30.2734375,20.01953125,0.0
42.796875,-42.48046875,-32.71484375,-33.203125,-32.2265625,-58.10546875,0.0
42.80078125,-43.9453125,-30.76171875,-38.57421875,-47.36328125,-3.90625,0.0
42.8046875,-6.8359375,-20.01953125,-37.59765625,-41.50390625,-21.97265625,0.0
42.80859375,-5.37109375,-20.5078125,-22.94921875,-45.41015625,-96.6796875,0.0
42.8125,-56.640625,-31.73828125,-14.16015625,-54.19921875,-107.91015625,0.0
42.81640625,-77.63671875,-41.015625,-17.08984375,-37.109375,-130.859375,0.0
42.8203125,-51.26953125,-34.1796875,-10.7421875,-30.76171875,-98.6328125,0.0
42.82421875,-29.78515625,-34.66796875,-5.859375,-52.24609375,-18.06640625,0.0
42.828125,-40.0390625,-49.8046875,-7.8125,-47.36328125,-77.1484375,0.0
42.83203125,-22.4609375,-46.38671875,-0.48828125,-30.76171875,-85.9375,0.0
42.8359375,-7.32421875,-38.0859375,-0.9765625,-16.11328125,40.52734375,0.0
42.83984375,-18.5546875,-44.921875,-15.625,-12.20703125,0.48828125,0.0
42.84375,6.34765625,-44.921875,-22.94921875,-67.3828125,-50.78125,0.0
42.84765625,2.44140625,-37.59765625,-16.11328125,-56.640625,6.34765625,0.0
42.8515625,-38.57421875,-41.015625,-9.765625,-1.953125,18.06640625,0.0
42.85546875,-47.36328125,-42.96875,-12.6953125,-24.4140625,8.7890625,0.0
42.859375,-48.828125,-42.48046875,-20.99609375,-31.25,-26.3671875,0.0
42.86328125,-41.015625,-44.921875,-20.5078125,-28.80859375,-62.5,0.0
42.8671875,-37.59765625,-42.96875,-20.5078125,-45.41015625,-18.5546875,0.0
42.87109375,-48.33984375,-44.43359375,-27.34375,-30.76171875,45.41015625,0.0
42.875,-37.59765625,-47.36328125,-18.5546875,4.8828125,-1.46484375,0.0
42.87890625,-26.85546875,-41.50390625,-17.08984375,-13.671875,-105.46875,0.0
42.8828125,-30.2734375,-34.1796875,-27.34375,-32.71484375,-120.60546875,0.0
42.88671875,-40.0390625,-36.1328125,-26.85546875,-24.90234375,-31.73828125,0.0
42.890625,-8.7890625,-33.203125,-20.01953125,-16.11328125,-16.11328125,0.0
42.89453125,-6.8359375,-28.80859375,-15.625,-15.625,-46.38671875,0.0
42.8984375,-23.4375,-24.90234375,-15.625,-7.32421875,-40.52734375,0.0
42.90234375,-29.78515625,-26.85546875,-20.5078125,-32.2265625,-76.66015625,0.0
42.90625,-17.578125,-31.73828125,-19.04296875,-43.9453125,-34.66796875,0.0
42.91015625,0.9765625,-30.2734375,-22.94921875,-35.64453125,30.2734375,0.0
42.9140625,-29.78515625,-30.2734375,-17.08984375,-30.2734375,4.8828125,0.0
42.91796875,-17.08984375,-31.25,-7.32421875,-10.25390625,29.78515625,0.0
42.921875,-5.37109375,-35.15625,-16.6015625,-32.71484375,-57.12890625,0.0
42.92578125,-10.25390625,-35.64453125,-22.94921875,-29.296875,-142.578125,0.0
42.9296875,-6.34765625,-38.0859375,-10.25390625,-11.71875,-100.09765625,0.0
42.93359375,-11.71875,-30.76171875,-13.18359375,-18.06640625,-14.6484375,0.0
42.9375,-9.27734375,-22.4609375,-25.87890625,-36.1328125,-29.78515625,0.0
42.94140625,-6.34765625,-28.3203125,-28.80859375,-38.0859375,-82.03125,0.0
42.9453125,-10.7421875,-34.1796875,-31.73828125,-9.765625,-90.33203125,0.0
42.94921875,-13.671875,-33.203125,-32.2265625,-20.99609375,6.34765625,0.0
42.953125,-19.04296875,-32.2265625,-28.80859375,-30.2734375,-16.11328125,0.0
42.95703125,-20.99609375,-32.71484375,-28.80859375,-7.8125,-59.5703125,0.0
42.9609375,-12.20703125,-30.76171875,-26.85546875,-38.0859375,-0.48828125,0.0
42.96484375,-10.7421875,-27.83203125,-31.73828125,-61.5234375,-31.73828125,0.0
42.96875,-4.39453125,-26.85546875,-28.3203125,-22.4609375,18.06640625,0.0
42.97265625,-0.48828125,-24.4140625,-17.08984375,21.97265625,12.6953125,0.0
42.9765625,-2.9296875,-17.578125,-21.97265625,-9.765625,-19.04296875,0.0
42.98046875,-2.9296875,-22.4609375,-31.73828125,-47.36328125,-44.921875,0.0
42.984375,-16.11328125,-36.62109375,-33.69140625,-43.45703125,-94.7265625,0.0
42.98828125,-16.11328125,-35.64453125,-32.2265625,-18.06640625,-1.46484375,0.0
42.9921875,-5.859375,-30.76171875,-25.87890625,16.11328125,67.3828125,0.0
42.99609375,-13.671875,-36.62109375,-26.3671875,-11.23046875,4.39453125,0.0
43.0,-14.16015625,-37.59765625,-33.203125,-29.78515625,37.59765625,0.0
43.00390625,-2.44140625,-40.0390625,-39.0625,-36.62109375,11.71875,0.0
43.0078125,-6.34765625,-37.109375,-35.64453125,-42.48046875,-96.19140625,0.0
43.01171875,-27.34375,-33.203125,-30.2734375,-2.9296875,-69.3359375,0.0
43.015625,-25.390625,-38.0859375,-25.87890625,-0.48828125,-90.8203125,0.0
43.01953125,-5.859375,-35.64453125,-23.4375,-33.203125,-94.7265625,0.0
43.0234375,-11.71875,-34.66796875,-24.90234375,-27.83203125,-87.40234375,0.0
43.02734375,-6.34765625,-35.64453125,-28.3203125,-9.27734375,-79.58984375,0.0
43.03125,-5.859375,-34.1796875,-25.390625,-11.23046875,-54.6875,0.0
43.03515625,-14.16015625,-33.69140625,-22.4609375,-20.5078125,-80.078125,0.0
43.0390625,-14.16015625,-31.25,-22.94921875,-22.4609375,-32.2265625,0.0
43.04296875,-25.390625,-30.2734375,-34.66796875,-34.1796875,26.3671875,0.0
43.046875,-25.390625,-33.203125,-34.66796875,-41.015625,27.83203125,0.0
43.05078125,-22.4609375,-37.109375,-23.4375,-10.7421875,8.30078125,0.0
43.0546875,-15.625,-34.1796875,-18.06640625,20.99609375,-22.94921875,0.0
43.05859375,-10.7421875,-31.25,-20.01953125,3.90625,-72.265625,0.0
43.0625,-24.90234375,-36.62109375,-29.296875,-24.4140625,-69.82421875,0.0
43.06640625,-20.99609375,-40.0390625,-36.1328125,-15.13671875,-53.7109375,0.0
43.0703125,-12.20703125,-39.0625,-34.1796875,-9.27734375,-24.4140625,0.0
43.07421875,-16.6015625,-36.1328125,-30.2734375,-14.6484375,3.41796875,0.0
43.078125,-1.953125,-32.2265625,-19.53125,-16.6015625,-66.89453125,0.0
43.08203125,4.39453125,-30.2734375,-29.296875,-20.99609375,-67.87109375,0.0
43.0859375,-24.90234375,-31.25,-36.1328125,-29.78515625,-12.6953125,0.0
43.08984375,-25.87890625,-33.203125,-30.2734375,-20.5078125,13.671875,0.0
43.09375,-10.7421875,-28.3203125,-30.2734375,2.44140625,48.33984375,0.0
43.09765625,-24.90234375,-25.390625,-28.80859375,-26.85546875,-0.48828125,0.0
43.1015625,-27.83203125,-28.3203125,-30.2734375,-32.71484375,-65.4296875,0.0
43.10546875,-7.8125,-29.296875,-29.296875,-7.32421875,-108.3984375,0.0
43.109375,-7.8125,-30.76171875,-17.578125,-26.3671875,-119.62890625,0.0
43.11328125,-14.16015625,-32.2265625,-21.484375,-21.484375,-72.265625,0.0
43.1171875,-29.296875,-30.2734375,-33.69140625,1.46484375,-8.30078125,0.0
43.12109375,-37.59765625,-32.71484375,-41.50390625,-28.3203125,-10.7421875,0.0
43.125,-28.80859375,-36.1328125,-36.1328125,-32.71484375,-122.55859375,0.0
43.12890625,-35.64453125,-38.57421875,-28.3203125,-8.30078125,-40.0390625,0.0
43.1328125,-32.71484375,-33.203125,-27.83203125,-4.8828125,97.16796875,0.0
43.13671875,-26.3671875,-32.71484375,-28.80859375,-27.34375,51.26953125,0.0
43.140625,-22.94921875,-39.0625,-30.76171875,-29.296875,30.76171875,0.0
43.14453125,-27.83203125,-38.57421875,-38.0859375,-38.57421875,-32.71484375,0.0
43.1484375,-24.4140625,-30.76171875,-32.71484375,-24.4140625,-97.16796875,0.0
43.15234375,-28.80859375,-33.69140625,-22.94921875,15.625,-41.50390625,0.0
43.15625,-60.05859375,-54.6875,-34.66796875,-27.34375,-18.5546875,0.0
43.16015625,-43.9453125,-43.45703125,-30.76171875,-69.82421875,9.765625,0.0
43.1640625,-24.4140625,-30.2734375,-25.390625,-59.08203125,-16.11328125,0.0
43.16796875,-15.13671875,-29.78515625,-22.4609375,-31.73828125,-40.52734375,0.0
43.171875,-5.859375,-29.78515625,-15.625,-6.8359375,21.484375,0.0
43.17578125,-38.0859375,-31.73828125,-19.53125,-9.27734375,41.9921875,0.0
43.1796875,-54.6875,-24.4140625,-24.4140625,-20.5078125,-47.8515625,0.0
43.18359375,-33.69140625,-22.94921875,-24.90234375,-45.8984375,-109.375,0.0
43.1875,-36.1328125,-29.78515625,-29.296875,-56.640625,-69.82421875,0.0
43.19140625,-37.59765625,-27.83203125,-29.296875,-31.73828125,-57.6171875,0.0
43.1953125,-24.90234375,-20.5078125,-23.4375,-23.4375,-7.8125,0.0
43.19921875,-25.87890625,-11.71875,-13.18359375,-13.18359375,29.78515625,0.0
43.203125,-25.390625,-21.97265625,-20.01953125,-23.92578125,-11.23046875,0.0
43.20703125,-26.85546875,-26.85546875,-32.71484375,-42.48046875,-7.32421875,0.0
43.2109375,-22.94921875,-20.01953125,-26.3671875,-2.9296875,-9.765625,0.0
43.21484375,-34.1796875,-27.83203125,-20.99609375,-9.765625,-62.5,0.0
43.21875,-50.29296875,-32.71484375,-30.76171875,-38.0859375,-99.12109375,0.0
43.22265625,-40.52734375,-33.69140625,-39.0625,-46.875,-173.828125,0.0
43.2265625,-52.24609375,-37.59765625,-38.57421875,-44.921875,-248.53515625,0.0
43.23046875,-49.31640625,-37.59765625,-35.15625,-18.06640625,-106.4453125,0.0
43.234375,-32.71484375,-29.296875,-26.85546875,0.0,20.5078125,0.0
43.23828125,-39.0625,-24.90234375,-28.80859375,-25.390625,-63.4765625,0.0
43.2421875,-38.0859375,-27.34375,-32.71484375,-35.64453125,-47.36328125,0.0
43.24609375,-7.32421875,-23.4375,-19.04296875,-24.90234375,22.94921875,0.0
43.25,-8.7890625,-29.78515625,-17.08984375,-47.36328125,62.98828125,0.0
43.25390625,-40.0390625,-32.2265625,-20.01953125,-39.0625,62.01171875,0.0
43.2578125,-47.8515625,-25.390625,-27.34375,-23.92578125,119.140625,0.0
43.26171875,-38.0859375,-31.25,-34.66796875,-21.484375,144.04296875,0.0
43.265625,-25.390625,-35.64453125,-30.76171875,-41.9921875,35.15625,0.0
43.26953125,-24.90234375,-25.87890625,-19.53125,-32.2265625,-4.8828125,0.0
43.2734375,-24.90234375,-25.87890625,-16.11328125,-21.484375,-22.94921875,0.0
43.27734375,-18.06640625,-28.3203125,-19.53125,-24.90234375,18.5546875,0.0
43.28125,-6.34765625,-24.90234375,-22.94921875,-11.23046875,41.9921875,0.0
43.28515625,-17.578125,-27.83203125,-26.3671875,-19.04296875,-39.0625,0.0
43.2890625,-15.625,-25.87890625,-18.5546875,-32.2265625,-54.6875,0.0
43.29296875,-36.62109375,-26.3671875,-14.6484375,-6.8359375,-52.734375,0.0
43.296875,-49.8046875,-30.2734375,-21.97265625,-29.78515625,-35.64453125,0.0
43.30078125,-36.62109375,-35.15625,-24.90234375,-35.15625,-82.03125,0.0
43.3046875,-40.0390625,-35.64453125,-16.11328125,-46.38671875,-72.75390625,0.0
43.30859375,-40.0390625,-34.1796875,-15.13671875,-41.015625,29.296875,0.0
43.3125,-39.0625,-29.78515625,-22.94921875,-3.41796875,142.08984375,0.0
43.31640625,-43.45703125,-28.80859375,-24.90234375,1.46484375,62.98828125,0.0
43.3203125,-31.73828125,-38.57421875,-29.296875,-26.85546875,-83.0078125,0.0
43.32421875,-27.83203125,-34.66796875,-31.25,-37.109375,-77.1484375,0.0
43.328125,-33.69140625,-30.2734375,-32.2265625,-29.78515625,21.484375,0.0
43.33203125,-19.04296875,-27.83203125,-37.59765625,-36.1328125,18.5546875,0.0
43.3359375,-20.01953125,-23.92578125,-34.66796875,-40.0390625,-85.44921875,0.0
43.33984375,-24.90234375,-32.2265625,-32.71484375,-48.33984375,-77.1484375,0.0
43.34375,-29.296875,-38.0859375,-37.59765625,-30.76171875,-81.54296875,0.0
43.34765625,-44.921875,-38.57421875,-35.64453125,-17.578125,-24.4140625,0.0
43.3515625,-60.546875,-47.8515625,-29.296875,-42.48046875,18.5546875,0.0
43.35546875,-42.48046875,-42.96875,-29.78515625,-47.36328125,-30.2734375,0.0
43.359375,-24.90234375,-37.59765625,-34.1796875,-41.015625,-58.59375,0.0
43.36328125,-24.90234375,-34.66796875,-36.62109375,-51.7578125,-31.73828125,0.0
43.3671875,-32.71484375,-29.296875,-33.203125,-37.59765625,-13.18359375,0.0
43.37109375,-33.203125,-26.85546875,-27.34375,-39.55078125,7.32421875,0.0
43.375,-30.76171875,-30.2734375,-28.3203125,-41.015625,-51.7578125,0.0
43.37890625,-35.15625,-32.2265625,-29.78515625,-50.78125,-63.4765625,0.0
43.3828125,-11.23046875,-24.4140625,-29.296875,-57.6171875,-90.33203125,0.0
43.38671875,-14.16015625,-22.94921875,-29.296875,-46.875,-108.3984375,0.0
43.390625,-39.55078125,-31.73828125,-29.78515625,-33.69140625,-9.27734375,0.0
43.39453125,-41.9921875,-37.109375,-27.34375,0.0,-11.23046875,0.0
43.3984375,-32.2265625,-29.296875,-28.3203125,-39.0625,52.24609375,0.0
43.40234375,-40.0390625,-28.80859375,-33.203125,-77.1484375,70.3125,0.0
43.40625,-42.48046875,-30.2734375,-35.15625,-39.0625,8.30078125,0.0
43.41015625,-18.5546875,-20.01953125,-23.92578125,-8.30078125,-7.32421875,0.0
43.4140625,-20.99609375,-23.92578125,-20.01953125,-6.8359375,-34.1796875,0.0
43.41796875,-29.78515625,-36.62109375,-30.2734375,-19.53125,-62.5,0.0
43.421875,-30.2734375,-37.59765625,-36.1328125,-41.9921875,0.48828125,0.0
43.42578125,-39.55078125,-37.59765625,-40.52734375,-54.19921875,-4.8828125,0.0
43.4296875,-41.9921875,-34.1796875,-36.1328125,-39.0625,-78.61328125,0.0
43.43359375,-28.80859375,-33.69140625,-30.2734375,-22.94921875,-35.64453125,0.0
43.4375,-27.34375,-37.109375,-29.296875,-2.9296875,-34.1796875,0.0
43.44140625,-48.33984375,-35.64453125,-32.71484375,-48.828125,-71.2890625,0.0
43.4453125,-42.48046875,-38.57421875,-36.1328125,-62.98828125,-59.5703125,0.0
43.44921875,-38.0859375,-38.0859375,-35.64453125,-14.6484375,-9.27734375,0.0
43.453125,-31.73828125,-28.3203125,-27.83203125,2.44140625,17.578125,0.0
43.45703125,-30.2734375,-29.296875,-26.85546875,-17.08984375,-38.57421875,0.0
43.4609375,-36.1328125,-29.296875,-37.109375,-48.828125,-80.078125,0.0
43.46484375,-25.390625,-22.94921875,-36.1328125,-46.38671875,-30.76171875,0.0
43.46875,-29.78515625,-24.90234375,-20.99609375,-28.80859375,-36.1328125,0.0
43.47265625,-22.4609375,-26.85546875,-16.6015625,-8.30078125,15.625,0.0
43.4765625,-27.83203125,-22.4609375,-19.04296875,-3.41796875,50.29296875,0.0
43.48046875,-36.62109375,-24.90234375,-23.92578125,-24.90234375,-83.984375,0.0
43.484375,-21.97265625,-27.34375,-4.8828125,-47.36328125,-155.2734375,0.0
43.48828125,-3.41796875,-27.83203125,-12.20703125,-44.921875,-90.33203125,0.0
43.4921875,-12.20703125,-27.34375,-45.8984375,1.46484375,24.90234375,0.0
43.49609375,-23.4375,-27.34375,-36.1328125,5.37109375,30.76171875,0.0
43.5,-13.671875,-30.2734375,-17.08984375,-31.73828125,-61.03515625,0.0
43.50390625,-27.83203125,-33.203125,-34.66796875,-48.33984375,-21.97265625,0.0
43.5078125,-35.64453125,-33.203125,-40.0390625,-34.66796875,4.8828125,0.0
43.51171875,-37.59765625,-32.71484375,-31.73828125,-21.484375,-47.36328125,0.0
43.515625,-50.29296875,-32.71484375,-36.62109375,-49.31640625,-36.62109375,0.0
43.51953125,-36.1328125,-32.2265625,-38.0859375,-42.96875,-29.296875,0.0
43.5234375,-33.69140625,-32.2265625,-41.50390625,-46.38671875,-52.734375,0.0
43.52734375,-34.1796875,-29.296875,-37.59765625,-50.29296875,-41.50390625,0.0
43.53125,-14.16015625,-23.92578125,-18.06640625,-19.53125,-40.52734375,0.0
43.53515625,-17.578125,-27.83203125,-23.92578125,-25.390625,-5.859375,0.0
43.5390625,-38.57421875,-29.296875,-35.64453125,-32.71484375,37.59765625,0.0
43.54296875,-41.015625,-35.15625,-38.57421875,-24.4140625,-23.92578125,0.0
43.546875,-34.66796875,-37.109375,-40.52734375,-24.4140625,-86.9140625,0.0
43.55078125,-50.78125,-36.1328125,-40.0390625,-29.78515625,-97.65625,0.0
43.5546875,-55.17578125,-35.15625,-37.109375,-39.55078125,-93.75,0.0
43.55859375,-44.921875,-33.203125,-34.66796875,-42.48046875,-48.33984375,0.0
43.5625,-47.8515625,-35.64453125,-38.57421875,-53.7109375,-12.20703125,0.0
43.56640625,-42.48046875,-28.80859375,-39.55078125,-46.875,-67.3828125,0.0
43.5703125,-37.59765625,-25.87890625,-31.73828125,-30.76171875,-51.7578125,0.0
43.57421875,-27.83203125,-20.5078125,-18.5546875,-12.6953125,45.8984375,0.0
43.578125,-32.71484375,-21.484375,-18.5546875,-22.4609375,46.38671875,0.0
43.58203125,-42.48046875,-31.73828125,-31.25,-51.7578125,26.3671875,0.0
43.5859375,-39.0625,-30.76171875,-35.64453125,-41.50390625,-56.15234375,0.0
43.58984375,-48.33984375,-25.87890625,-23.92578125,-3.90625,-99.609375,0.0
43.59375,-40.52734375,-26.85546875,-19.53125,-8.30078125,-40.52734375,0.0
43.59765625,-18.5546875,-23.4375,-28.3203125,-23.4375,-30.2734375,0.0
43.6015625,-21.97265625,-20.99609375,-32.71484375,-27.34375,15.13671875,0.0
43.60546875,-27.83203125,-24.4140625,-35.15625,-42.48046875,27.34375,0.0
43.609375,-34.66796875,-28.3203125,-35.15625,-50.29296875,35.64453125,0.0
43.61328125,-37.109375,-27.34375,-26.85546875,-9.27734375,56.640625,0.0
43.6171875,-41.015625,-27.83203125,-21.97265625,-4.39453125,-25.87890625,0.0
43.62109375,-38.0859375,-28.3203125,-32.2265625,-43.9453125,-34.1796875,0.0
43.625,-38.0859375,-28.3203125,-39.0625,-54.6875,-50.29296875,0.0
43.62890625,-32.2265625,-30.2734375,-39.0625,-37.109375,-47.36328125,0.0
43.6328125,-25.87890625,-31.25,-27.34375,-24.90234375,84.47265625,0.0
43.63671875,-11.23046875,-24.90234375,-22.4609375,-31.25,154.78515625,0.0
43.640625,-9.27734375,-25.390625,-41.50390625,-52.734375,87.890625,0.0
43.64453125,-27.83203125,-32.71484375,-51.7578125,-67.87109375,21.97265625,0.0
43.6484375,-29.78515625,-32.71484375,-41.9921875,-47.8515625,-39.0625,0.0
43.65234375,-30.76171875,-37.59765625,-26.3671875,-18.5546875,-47.36328125,0.0
43.65625,-39.0625,-38.57421875,-25.390625,-9.765625,-10.25390625,0.0
43.66015625,-54.19921875,-41.50390625,-35.15625,-40.52734375,-41.9921875,0.0
43.6640625,-49.31640625,-43.45703125,-36.62109375,-69.82421875,-85.9375,0.0
43.66796875,-22.94921875,-40.0390625,-34.66796875,-35.64453125,-113.28125,0.0
43.671875,-19.04296875,-39.0625,-34.1796875,-11.23046875,-119.140625,0.0
43.67578125,-40.0390625,-38.0859375,-32.2265625,-19.53125,-43.45703125,0.0
43.6796875,-45.8984375,-45.41015625,-20.01953125,-34.1796875,9.27734375,0.0
43.68359375,-39.55078125,-46.875,-23.4375,-48.828125,-25.390625,0.0
43.6875,-44.43359375,-44.43359375,-39.0625,-43.9453125,-46.875,0.0
43.69140625,-38.0859375,-37.109375,-37.109375,-15.13671875,-19.04296875,0.0
43.6953125,-33.69140625,-32.2265625,-31.73828125,-16.11328125,58.10546875,0.0
43.69921875,-27.34375,-32.2265625,-36.1328125,-42.96875,61.5234375,0.0
43.703125,-20.99609375,-32.71484375,-45.8984375,-37.109375,3.90625,0.0
43.70703125,-30.76171875,-36.62109375,-42.96875,-33.69140625,24.90234375,0.0
43.7109375,-49.31640625,-31.25,-31.25,-33.69140625,11.71875,0.0
43.71484375,-34.1796875,-29.78515625,-34.1796875,-14.6484375,-57.12890625,0.0
43.71875,-29.296875,-36.62109375,-37.59765625,-34.66796875,-44.43359375,0.0
43.72265625,-41.50390625,-41.015625,-38.57421875,-50.78125,-5.859375,0.0
43.7265625,-35.64453125,-38.0859375,-37.59765625,-34.66796875,-6.8359375,0.0
43.73046875,-31.25,-28.3203125,-33.69140625,-30.2734375,-9.27734375,0.0
43.734375,-26.85546875,-29.296875,-29.296875,-26.3671875,-71.2890625,0.0
43.73828125,-32.71484375,-32.2265625,-34.66796875,-19.04296875,-104.4921875,0.0
43.7421875,-10.25390625,-33.203125,-41.50390625,-34.1796875,-42.48046875,0.0
43.74609375,-1.953125,-31.25,-36.1328125,-33.203125,-18.5546875,0.0
43.75,-8.30078125,-27.34375,-29.296875,-25.87890625,-9.765625,0.0
43.75390625,-6.34765625,-25.87890625,-28.3203125,-25.390625,-20.5078125,0.0
43.7578125,0.0,-21.97265625,-28.80859375,-21.484375,-0.9765625,0.0
43.76171875,-0.48828125,-28.3203125,-30.76171875,-42.96875,0.9765625,0.0
43.765625,-22.94921875,-35.15625,-34.1796875,-31.73828125,28.80859375,0.0
43.76953125,-13.18359375,-25.87890625,-15.625,-1.953125,-11.23046875,0.0
43.7734375,-19.53125,-22.94921875,-12.6953125,-20.5078125,18.06640625,0.0
43.77734375,-31.73828125,-27.83203125,-31.25,-33.203125,95.21484375,0.0
43.78125,-8.7890625,-29.78515625,-34.66796875,-46.38671875,9.765625,0.0
43.78515625,-15.13671875,-29.296875,-25.87890625,-38.57421875,-56.640625,0.0
43.7890625,-29.78515625,-32.71484375,-31.73828125,-32.71484375,-45.41015625,0.0
43.79296875,-23.92578125,-36.1328125,-40.52734375,-29.296875,-37.109375,0.0
43.796875,-26.3671875,-33.69140625,-39.55078125,-34.66796875,-22.4609375,0.0
43.80078125,-29.296875,-36.62109375,-30.2734375,-39.55078125,-36.1328125,0.0
43.8046875,-11.71875,-40.0390625,-30.2734375,-39.55078125,-94.7265625,0.0
43.80859375,-0.48828125,-32.71484375,-30.76171875,-33.69140625,-8.7890625,0.0
43.8125,-5.37109375,-32.2265625,-20.5078125,-3.90625,36.1328125,0.0
43.81640625,-16.11328125,-37.59765625,-20.01953125,-10.7421875,6.8359375,0.0
43.8203125,-24.4140625,-38.57421875,-30.2734375,-54.19921875,3.41796875,0.0
43.82421875,-18.5546875,-45.41015625,-32.71484375,-55.6640625,-82.51953125,0.0
43.828125,-8.30078125,-44.43359375,-27.83203125,-40.0390625,-135.7421875,0.0
43.83203125,-18.5546875,-38.57421875,-24.4140625,-35.64453125,-94.7265625,0.0
43.8359375,-31.73828125,-36.1328125,-24.90234375,-33.203125,-118.65234375,0.0
43.83984375,-18.06640625,-33.69140625,-27.34375,-40.52734375,-78.61328125,0.0
43.84375,-27.34375,-35.64453125,-33.69140625,-41.9921875,-88.37890625,0.0
43.84765625,-11.23046875,-37.109375,-35.64453125,-48.33984375,-126.953125,0.0
43.8515625,4.8828125,-31.73828125,-26.85546875,-36.1328125,-114.74609375,0.0
43.85546875,-18.06640625,-34.66796875,-30.76171875,-9.765625,-100.5859375,0.0
43.859375,-17.08984375,-41.015625,-39.55078125,-23.92578125,-42.48046875,0.0
43.86328125,-0.9765625,-32.71484375,-37.59765625,-44.43359375,-59.08203125,0.0
43.8671875,-14.16015625,-25.390625,-35.64453125,-31.25,-100.5859375,0.0
43.87109375,-18.5546875,-24.4140625,-35.64453125,-7.32421875,-15.625,0.0
43.875,-20.01953125,-33.203125,-33.69140625,-7.32421875,-20.5078125,0.0
43.87890625,-14.6484375,-42.48046875,-36.1328125,-26.85546875,-41.9921875,0.0
43.8828125,-15.13671875,-42.48046875,-42.48046875,-45.8984375,-18.06640625,0.0
43.88671875,-29.296875,-35.15625,-39.55078125,-39.0625,-6.8359375,0.0
43.890625,-25.87890625,-32.2265625,-35.64453125,-20.5078125,7.8125,0.0
43.89453125,-14.6484375,-28.3203125,-37.59765625,2.44140625,14.16015625,0.0
43.8984375,10.25390625,-27.34375,-42.48046875,19.53125,-3.90625,0.0
43.90234375,-8.30078125,-41.50390625,-32.2265625,-19.53125,-62.5,0.0
43.90625,-58.10546875,-51.26953125,-19.04296875,-93.75,-57.12890625,0.0
43.91015625,-66.89453125,-47.36328125,-20.5078125,-58.59375,-8.30078125,0.0
43.9140625,-66.40625,-42.96875,-16.11328125,-49.31640625,-6.34765625,0.0
43.91796875,-77.1484375,-44.921875,-8.30078125,-87.890625,-35.64453125,0.0
43.921875,-84.47265625,-51.7578125,-15.13671875,-99.12109375,58.10546875,0.0
43.92578125,-90.8203125,-53.7109375,-23.4375,-113.28125,71.77734375,0.0
43.9296875,-106.93359375,-49.8046875,-21.97265625,-102.05078125,-18.06640625,0.0
43.93359375,-113.76953125,-46.38671875,-20.01953125,-80.56640625,-12.20703125,0.0
43.9375,-102.05078125,-48.33984375,-27.34375,-102.5390625,17.578125,0.0
43.94140625,-91.796875,-53.22265625,-37.109375,-122.55859375,-58.59375,0.0
43.9453125,-73.2421875,-51.26953125,-38.57421875,-106.93359375,-177.734375,0.0
43.94921875,-58.10546875,-41.50390625,-24.90234375,-81.0546875,-102.5390625,0.0
43.953125,-70.80078125,-45.8984375,-19.53125,-44.921875,33.69140625,0.0
43.95703125,-75.68359375,-50.78125,-24.90234375,-47.8515625,-5.859375,0.0
43.9609375,-68.359375,-46.38671875,-26.85546875,-75.1953125,-58.10546875,0.0
43.96484375,-71.2890625,-56.640625,-14.6484375,-99.609375,-51.7578125,0.0
43.96875,-80.56640625,-56.15234375,-10.25390625,-81.0546875,19.53125,0.0
43.97265625,-55.17578125,-41.9921875,-24.4140625,-51.26953125,67.87109375,0.0
43.9765625,-32.71484375,-41.50390625,-22.94921875,-44.921875,43.45703125,0.0
43.98046875,-42.48046875,-35.64453125,-27.34375,-33.69140625,19.53125,0.0
43.984375,-48.828125,-34.1796875,-32.71484375,-44.43359375,45.41015625,0.0
43.98828125,-48.33984375,-36.62109375,-32.2265625,-52.734375,33.69140625,0.0
43.9921875,-38.0859375,-26.85546875,-20.01953125,-37.109375,13.671875,0.0
43.99609375,-39.0625,-26.3671875,-21.484375,-27.34375,-6.8359375,0.0
44.0,-42.48046875,-35.15625,-45.8984375,-15.625,19.04296875,0.0
44.00390625,-33.203125,-41.015625,-52.24609375,-39.55078125,54.19921875,0.0
44.0078125,-32.71484375,-37.59765625,-34.66796875,-56.15234375,36.62109375,0.0
44.01171875,-40.0390625,-33.69140625,-20.99609375,-24.90234375,92.28515625,0.0
44.015625,-35.15625,-33.69140625,-30.76171875,-24.90234375,86.42578125,0.0
44.01953125,-41.015625,-37.109375,-33.203125,-47.36328125,50.78125,0.0
44.0234375,-33.69140625,-34.1796875,-34.66796875,-56.15234375,-12.6953125,0.0
44.02734375,-1.953125,-35.15625,-32.71484375,-28.80859375,-113.76953125,0.0
44.03125,-22.4609375,-42.96875,-30.76171875,-17.08984375,-92.28515625,0.0
44.03515625,-60.05859375,-39.0625,-32.71484375,-25.390625,-83.984375,0.0
44.0390625,-48.828125,-34.66796875,-34.66796875,-7.32421875,-142.08984375,0.0
44.04296875,-32.2265625,-32.2265625,-39.55078125,-29.296875,-137.6953125,0.0
44.046875,-35.64453125,-34.66796875,-41.9921875,-52.734375,-138.671875,0.0
44.05078125,-21.484375,-34.66796875,-33.203125,-25.390625,-138.671875,0.0
44.0546875,-23.4375,-27.34375,-12.20703125,-31.25,-36.1328125,0.0
44.05859375,-34.66796875,-32.71484375,-19.53125,-46.38671875,4.39453125,0.0
44.0625,-26.3671875,-42.96875,-35.64453125,-27.83203125,0.9765625,0.0
44.06640625,-20.01953125,-42.96875,-27.83203125,-11.23046875,-28.80859375,0.0
44.0703125,-12.6953125,-38.57421875,-18.5546875,-30.2734375,-52.24609375,0.0
44.07421875,-14.6484375,-37.109375,-15.625,-29.296875,-35.15625,0.0
44.078125,-28.80859375,-34.1796875,-20.99609375,-41.015625,-6.34765625,0.0
44.08203125,-43.9453125,-35.64453125,-26.85546875,-52.24609375,-44.921875,0.0
44.0859375,-52.734375,-38.0859375,-31.25,-28.3203125,-82.03125,0.0
44.08984375,-42.48046875,-37.59765625,-39.55078125,-21.97265625,-20.99609375,0.0
44.09375,-22.4609375,-37.109375,-41.015625,-15.13671875,-3.41796875,0.0
44.09765625,1.46484375,-25.390625,-20.01953125,6.8359375,10.25390625,0.0
44.1015625,-16.11328125,-20.5078125,-11.23046875,-26.3671875,27.34375,0.0
44.10546875,-13.18359375,-27.83203125,-33.69140625,-45.41015625,29.78515625,0.0
44.109375,9.765625,-28.3203125,-43.9453125,5.859375,-49.8046875,0.0
44.11328125,9.765625,-19.53125,-35.15625,22.94921875,-77.63671875,0.0
44.1171875,8.7890625,-15.625,-36.62109375,-21.97265625,-88.8671875,0.0
44.12109375,28.3203125,-19.04296875,-44.921875,-14.16015625,-75.68359375,0.0
44.125,26.85546875,-24.4140625,-46.875,-1.46484375,-61.03515625,0.0
44.12890625,14.6484375,-25.87890625,-41.50390625,4.8828125,-58.10546875,0.0
44.1328125,18.06640625,-23.4375,-39.0625,25.390625,19.04296875,0.0
44.13671875,23.92578125,-23.4375,-37.59765625,27.83203125,24.90234375,0.0
44.140625,20.99609375,-23.92578125,-38.57421875,0.9765625,-5.37109375,0.0
44.14453125,13.18359375,-21.484375,-19.53125,-12.20703125,-115.72265625,0.0
44.1484375,24.90234375,-17.08984375,-17.578125,6.34765625,-116.2109375,0.0
44.15234375,22.4609375,-21.97265625,-36.1328125,20.01953125,-31.73828125,0.0
44.15625,18.06640625,-25.390625,-39.55078125,-1.46484375,-41.9921875,0.0
44.16015625,7.32421875,-25.87890625,-33.203125,-14.6484375,-59.5703125,0.0
44.1640625,2.9296875,-23.92578125,-37.109375,-23.4375,-32.71484375,0.0
44.16796875,1.953125,-18.5546875,-40.52734375,-18.06640625,25.390625,0.0
44.171875,-3.41796875,-21.97265625,-31.73828125,15.13671875,-77.1484375,0.0
44.17578125,-0.9765625,-23.4375,-28.3203125,15.625,-105.46875,0.0
44.1796875,-2.44140625,-20.5078125,-32.2265625,-25.87890625,-124.51171875,0.0
44.18359375,-6.34765625,-23.92578125,-40.52734375,-31.73828125,-153.80859375,0.0
44.1875,-9.765625,-24.90234375,-41.9921875,-11.23046875,-95.21484375,0.0
44.19140625,-6.8359375,-20.01953125,-28.3203125,-11.23046875,-73.2421875,0.0
44.1953125,9.27734375,-14.6484375,-30.76171875,-6.34765625,-2.9296875,0.0
44.19921875,-3.41796875,-15.625,-38.57421875,-5.859375,51.7578125,0.0
44.203125,-34.1796875,-31.25,-46.38671875,-22.94921875,2.44140625,0.0
44.20703125,-13.671875,-34.1796875,-43.45703125,-30.2734375,9.765625,0.0
44.2109375,5.859375,-26.85546875,-34.1796875,-2.44140625,89.35546875,0.0
44.21484375,0.48828125,-25.87890625,-24.90234375,17.578125,87.40234375,0.0
44.21875,-20.5078125,-28.80859375,-21.97265625,-27.34375,-41.9921875,0.0
44.22265625,-29.296875,-32.71484375,-29.78515625,-41.50390625,-59.08203125,0.0
44.2265625,-21.97265625,-30.76171875,-28.3203125,-32.2265625,-57.6171875,0.0
44.23046875,-20.01953125,-29.78515625,-28.80859375,-22.4609375,-47.36328125,0.0
44.234375,-23.4375,-28.3203125,-44.43359375,-8.30078125,-19.53125,0.0
44.23828125,-22.4609375,-29.296875,-45.8984375,-27.34375,-80.078125,0.0
44.2421875,-17.578125,-27.34375,-32.2265625,-33.203125,-84.47265625,0.0
44.24609375,-12.20703125,-27.34375,-30.2734375,-31.73828125,-76.66015625,0.0
44.25,-20.01953125,-29.78515625,-30.2734375,-28.3203125,-148.4375,0.0
44.25390625,-25.87890625,-28.80859375,-27.34375,-14.6484375,-243.1640625,0.0
44.2578125,-23.4375,-31.25,-26.3671875,-25.87890625,-99.12109375,0.0
44.26171875,-12.20703125,-45.41015625,-25.87890625,-23.4375,48.828125,0.0
44.265625,-8.7890625,-44.43359375,-25.390625,-21.484375,-23.4375,0.0
44.26953125,-14.16015625,-30.76171875,-19.53125,-32.71484375,-12.6953125,0.0
44.2734375,-30.2734375,-23.4375,-24.90234375,-30.2734375,66.40625,0.0
44.27734375,-44.43359375,-27.83203125,-22.94921875,-21.484375,38.57421875,0.0
44.28125,-34.1796875,-39.55078125,-15.13671875,-24.90234375,-17.08984375,0.0
44.28515625,-27.34375,-40.52734375,-26.85546875,-31.73828125,72.265625,0.0
44.2890625,-24.4140625,-35.64453125,-33.203125,-30.76171875,79.58984375,0.0
44.29296875,-17.578125,-29.78515625,-30.2734375,-20.5078125,14.6484375,0.0
44.296875,-20.01953125,-40.52734375,-27.83203125,-4.8828125,-50.29296875,0.0
44.30078125,-30.76171875,-52.734375,-37.109375,-24.90234375,-74.21875,0.0
44.3046875,-12.6953125,-41.50390625,-53.22265625,-50.29296875,-41.015625,0.0
44.30859375,-9.765625,-23.4375,-58.10546875,-32.2265625,-13.671875,0.0
44.3125,-28.80859375,-18.06640625,-43.9453125,-3.41796875,-4.39453125,0.0
44.31640625,-23.4375,-28.3203125,-24.90234375,-15.13671875,-27.83203125,0.0
44.3203125,-24.90234375,-30.2734375,-28.3203125,-50.78125,-61.5234375,0.0
44.32421875,-18.5546875,-29.78515625,-36.1328125,-52.24609375,-106.93359375,0.0
44.328125,-34.66796875,-37.59765625,-24.4140625,-45.8984375,-195.80078125,0.0
44.33203125,-43.9453125,-44.921875,-19.04296875,-24.90234375,-249.51171875,0.0
44.3359375,-23.92578125,-43.45703125,-26.3671875,-24.90234375,-87.890625,0.0
44.33984375,-23.92578125,-41.50390625,-18.5546875,-27.34375,-25.390625,0.0
44.34375,-24.90234375,-50.78125,-19.53125,-34.66796875,-66.89453125,0.0
44.34765625,-24.4140625,-46.38671875,-29.78515625,-51.26953125,-29.296875,0.0
44.3515625,-40.0390625,-27.34375,-33.69140625,-37.109375,-3.90625,0.0
44.35546875,-39.55078125,-23.4375,-29.296875,-25.390625,-41.015625,0.0
44.359375,-31.25,-27.34375,-24.90234375,-31.25,-106.4453125,0.0
44.36328125,-29.296875,-34.1796875,-31.25,-49.8046875,-95.21484375,0.0
44.3671875,-25.390625,-33.69140625,-27.34375,-39.0625,-96.19140625,0.0
44.37109375,-18.5546875,-32.2265625,-20.5078125,7.8125,-27.34375,0.0
44.375,-26.85546875,-38.57421875,-22.94921875,7.32421875,110.83984375,0.0
44.37890625,-36.62109375,-36.62109375,-29.78515625,-45.41015625,71.2890625,0.0
44.3828125,-29.78515625,-41.015625,-33.203125,-71.2890625,17.08984375,0.0
44.38671875,-38.0859375,-44.921875,-34.1796875,-50.78125,-23.4375,0.0
44.390625,-31.25,-34.1796875,-42.48046875,-35.64453125,-31.73828125,0.0
44.39453125,-27.83203125,-30.76171875,-41.015625,-34.66796875,-17.578125,0.0
44.3984375,-38.57421875,-32.71484375,-34.66796875,-40.0390625,-28.80859375,0.0
44.40234375,-37.59765625,-35.64453125,-35.64453125,-43.9453125,-51.26953125,0.0
44.40625,-29.296875,-40.0390625,-31.25,-42.48046875,-93.75,0.0
44.41015625,-24.90234375,-40.52734375,-23.4375,-19.04296875,-38.57421875,0.0
44.4140625,-34.66796875,-35.15625,-18.5546875,-12.20703125,31.25,0.0
44.41796875,-29.296875,-35.64453125,-20.99609375,-30.2734375,29.78515625,0.0
44.421875,-28.80859375,-38.0859375,-31.73828125,-45.41015625,4.39453125,0.0
44.42578125,-26.85546875,-42.96875,-42.96875,-66.40625,-68.84765625,0.0
44.4296875,-27.83203125,-45.41015625,-43.45703125,-62.98828125,-17.578125,0.0
44.43359375,-35.64453125,-34.1796875,-30.76171875,-38.0859375,53.22265625,0.0
44.4375,-36.62109375,-34.66796875,-32.2265625,-33.69140625,2.44140625,0.0
44.44140625,-46.875,-46.38671875,-35.64453125,-35.64453125,-23.4375,0.0
44.4453125,-58.10546875,-44.43359375,-34.1796875,-43.45703125,-13.18359375,0.0
44.44921875,-71.77734375,-41.50390625,-29.296875,-34.1796875,3.41796875,0.0
44.453125,-55.6640625,-34.66796875,-24.90234375,-12.20703125,16.6015625,0.0
44.45703125,-56.15234375,-31.25,-27.83203125,-45.8984375,-3.41796875,0.0
44.4609375,-64.453125,-33.69140625,-35.15625,-35.15625,-12.20703125,0.0
44.46484375,-43.45703125,-35.15625,-41.015625,-8.7890625,-31.73828125,0.0
44.46875,-40.52734375,-32.2265625,-31.73828125,-38.0859375,-2.44140625,0.0
44.47265625,-62.98828125,-37.109375,-18.06640625,-30.76171875,-1.46484375,0.0
44.4765625,-59.08203125,-41.9921875,-6.8359375,-18.5546875,-44.43359375,0.0
44.48046875,-54.19921875,-38.57421875,-33.69140625,-31.25,-43.45703125,0.0
44.484375,-64.94140625,-39.55078125,-64.94140625,-39.0625,-10.7421875,0.0
44.48828125,-55.17578125,-30.76171875,-49.8046875,-32.71484375,-23.4375,0.0
44.4921875,-50.78125,-22.94921875,-18.5546875,-22.4609375,-12.6953125,0.0
44.49609375,-57.12890625,-32.2265625,-6.34765625,-23.4375,-51.26953125,0.0
44.5,-60.05859375,-36.62109375,-13.18359375,-35.15625,-74.21875,0.0
44.50390625,-63.4765625,-33.203125,-25.87890625,-37.109375,-13.671875,0.0
44.5078125,-56.15234375,-30.76171875,-32.71484375,-37.109375,-7.8125,0.0
44.51171875,-40.0390625,-31.73828125,-24.4140625,1.46484375,-19.53125,0.0
44.515625,-56.15234375,-35.15625,-17.08984375,-32.71484375,-50.29296875,0.0
44.51953125,-55.6640625,-36.1328125,-20.01953125,-53.22265625,-103.515625,0.0
44.5234375,-50.29296875,-27.83203125,-26.85546875,-43.45703125,-106.4453125,0.0
44.52734375,-43.9453125,-28.3203125,-25.87890625,-38.0859375,-89.35546875,0.0
44.53125,-47.36328125,-31.25,-19.53125,0.48828125,-44.43359375,0.0
44.53515625,-66.40625,-32.71484375,-10.25390625,-13.671875,-7.8125,0.0
44.5390625,-60.05859375,-34.66796875,-20.5078125,-53.22265625,-31.25,0.0
44.54296875,-59.5703125,-35.64453125,-46.875,-50.29296875,-67.3828125,0.0
44.546875,-56.640625,-36.1328125,-54.6875,-14.16015625,-70.3125,0.0
44.55078125,-48.33984375,-35.15625,-42.48046875,-12.20703125,13.671875,0.0
44.5546875,-51.26953125,-28.80859375,-31.25,-20.01953125,48.828125,0.0
44.55859375,-48.33984375,-22.94921875,-35.15625,-36.1328125,-28.80859375,0.0
44.5625,-51.7578125,-31.73828125,-38.57421875,-58.59375,-77.1484375,0.0
44.56640625,-28.80859375,-48.33984375,-43.45703125,-7.32421875,-128.41796875,0.0
44.5703125,-12.6953125,-41.50390625,-42.96875,27.83203125,-101.5625,0.0
44.57421875,-67.87109375,-26.3671875,-17.578125,-26.85546875,23.92578125,0.0
44.578125,-100.09765625,-28.80859375,-0.48828125,-77.1484375,24.90234375,0.0
44.58203125,-96.6796875,-31.73828125,-16.11328125,-83.0078125,-27.83203125,0.0
44.5859375,-116.2109375,-39.55078125,-31.25,-81.54296875,-25.87890625,0.0
44.58984375,-117.1875,-35.64453125,-37.109375,-31.25,42.48046875,0.0
44.59375,-125.0,-40.0390625,-41.9921875,-64.453125,13.18359375,0.0
44.59765625,-146.97265625,-49.8046875,-30.76171875,-129.8828125,-14.16015625,0.0
44.6015625,-161.1328125,-53.22265625,-28.80859375,-123.53515625,3.41796875,0.0
44.60546875,-152.34375,-54.19921875,-42.48046875,-122.0703125,-113.76953125,0.0
44.609375,-137.20703125,-46.38671875,-32.2265625,-104.00390625,-137.6953125,0.0
44.61328125,-144.04296875,-42.96875,-32.71484375,-97.65625,-25.87890625,0.0
44.6171875,-124.51171875,-48.33984375,-51.26953125,-104.00390625,-1.953125,0.0
44.62109375,-103.515625,-54.19921875,-60.05859375,-107.421875,-45.8984375,0.0
44.625,-123.046875,-57.6171875,-41.50390625,-130.859375,-78.125,0.0
44.62890625,-114.2578125,-54.19921875,-32.71484375,-85.9375,-31.73828125,0.0
44.6328125,-84.47265625,-48.828125,-27.34375,-32.2265625,-34.66796875,0.0
44.63671875,-99.609375,-45.8984375,-16.11328125,-68.84765625,-65.91796875,0.0
44.640625,-108.88671875,-45.8984375,-17.08984375,-90.8203125,29.296875,0.0
44.64453125,-92.7734375,-45.41015625,-30.76171875,-73.2421875,8.30078125,0.0
44.6484375,-88.8671875,-44.921875,-34.1796875,-56.640625,-57.6171875,0.0
44.65234375,-88.37890625,-39.0625,-27.83203125,-30.2734375,12.6953125,0.0
44.65625,-83.984375,-39.0625,-33.69140625,-50.29296875,22.4609375,0.0
44.66015625,-82.03125,-36.1328125,-29.296875,-57.6171875,-5.859375,0.0
44.6640625,-83.0078125,-35.15625,-36.1328125,-67.3828125,-59.08203125,0.0
44.66796875,-83.49609375,-38.0859375,-35.15625,-56.640625,-76.66015625,0.0
44.671875,-75.1953125,-31.73828125,-18.5546875,-40.52734375,-5.859375,0.0
44.67578125,-69.3359375,-34.1796875,-22.94921875,-27.34375,106.4453125,0.0
44.6796875,-60.546875,-41.015625,-27.83203125,-30.2734375,157.71484375,0.0
44.68359375,-41.9921875,-27.83203125,-42.96875,-38.57421875,27.83203125,0.0
44.6875,-49.31640625,-28.80859375,-47.36328125,-13.18359375,9.27734375,0.0
44.69140625,-53.22265625,-45.8984375,-26.3671875,-20.5078125,63.96484375,0.0
44.6953125,-46.875,-44.921875,-16.11328125,-47.36328125,84.9609375,0.0
44.69921875,-48.828125,-40.0390625,-23.4375,-55.6640625,34.66796875,0.0
44.703125,-45.41015625,-39.0625,-28.80859375,-50.29296875,-69.82421875,0.0
44.70703125,-29.296875,-27.83203125,-26.85546875,-40.0390625,-53.7109375,0.0
44.7109375,-20.99609375,-20.01953125,-21.97265625,-31.73828125,-14.16015625,0.0
44.71484375,-19.53125,-20.5078125,-8.30078125,-4.39453125,-47.8515625,0.0
44.71875,-28.80859375,-21.97265625,-27.83203125,-20.01953125,22.94921875,0.0
44.72265625,-30.2734375,-28.3203125,-53.7109375,-76.66015625,38.57421875,0.0
44.7265625,-20.01953125,-33.69140625,-36.62109375,-34.1796875,-96.19140625,0.0
44.73046875,-16.6015625,-31.25,-16.6015625,-4.39453125,-139.6484375,0.0
44.734375,-32.2265625,-28.80859375,-16.11328125,-20.99609375,-77.63671875,0.0
44.73828125,-40.0390625,-28.3203125,-19.04296875,-36.62109375,-96.6796875,0.0
44.7421875,-32.2265625,-26.85546875,-14.6484375,-36.62109375,-95.21484375,0.0
44.74609375,-15.625,-21.484375,1.953125,-31.73828125,-82.03125,0.0
44.75,-5.37109375,-24.90234375,-9.765625,-22.94921875,-88.8671875,0.0
44.75390625,-25.87890625,-30.76171875,-19.04296875,-25.390625,-36.1328125,0.0
44.7578125,-36.62109375,-30.2734375,-13.18359375,-46.38671875,-96.6796875,0.0
44.76171875,-20.5078125,-32.2265625,-21.484375,-43.45703125,-270.5078125,0.0
44.765625,-18.06640625,-35.64453125,-33.69140625,-47.36328125,-364.74609375,0.0
44.76953125,-32.2265625,-33.69140625,-27.83203125,-31.73828125,-293.9453125,0.0
44.7734375,-25.87890625,-25.390625,-15.13671875,9.765625,-156.25,0.0
44.77734375,-31.73828125,-19.53125,-19.04296875,-2.44140625,-23.4375,0.0
44.78125,-43.9453125,-20.99609375,-33.69140625,-61.03515625,27.83203125,0.0
44.78515625,-19.04296875,-24.90234375,-52.734375,-83.984375,34.66796875,0.0
44.7890625,4.39453125,-22.4609375,-43.45703125,-46.38671875,65.91796875,0.0
44.79296875,-14.16015625,-20.01953125,-16.6015625,-19.53125,59.08203125,0.0
44.796875,-31.73828125,-22.94921875,-31.25,-24.90234375,47.8515625,0.0
44.80078125,-20.5078125,-28.3203125,-32.71484375,-25.390625,-71.2890625,0.0
44.8046875,-16.11328125,-38.0859375,11.23046875,-50.29296875,-161.1328125,0.0
44.80859375,-15.625,-42.96875,20.01953125,-34.1796875,-145.01953125,0.0
44.8125,-20.5078125,-34.1796875,1.46484375,14.16015625,-135.25390625,0.0
44.81640625,-20.01953125,-25.390625,-9.27734375,-17.08984375,-115.234375,0.0
44.8203125,-31.25,-32.71484375,-25.390625,-72.265625,-185.05859375,0.0
44.82421875,-34.66796875,-32.2265625,-41.015625,-61.5234375,-136.71875,0.0
44.828125,-26.85546875,-24.90234375,-40.0390625,-35.15625,-4.39453125,0.0
44.83203125,-30.76171875,-29.296875,-35.64453125,-19.04296875,-50.29296875,0.0
44.8359375,-30.2734375,-29.78515625,-23.4375,-36.1328125,-52.24609375,0.0
44.83984375,-41.9921875,-23.4375,-19.53125,-50.29296875,33.203125,0.0
44.84375,-45.8984375,-22.94921875,-39.0625,-30.76171875,-2.44140625,0.0
44.84765625,-28.3203125,-29.78515625,-29.78515625,-45.8984375,-57.6171875,0.0
44.8515625,-34.1796875,-33.69140625,3.41796875,-30.2734375,-51.26953125,0.0
44.85546875,-41.50390625,-36.1328125,-3.90625,3.90625,-84.9609375,0.0
44.859375,-20.99609375,-31.73828125,-24.4140625,-17.08984375,-50.78125,0.0
44.86328125,-4.39453125,-18.5546875,-38.57421875,-36.1328125,-56.15234375,0.0
44.8671875,-32.2265625,-15.13671875,-45.41015625,-54.6875,-66.89453125,0.0
44.87109375,-52.24609375,-17.08984375,-50.29296875,-81.54296875,-42.48046875,0.0
44.875,-48.828125,-15.13671875,-55.6640625,-85.9375,-61.5234375,0.0
44.87890625,-62.5,-9.765625,-64.94140625,-96.6796875,-55.17578125,0.0
44.8828125,-63.4765625,-1.46484375,-81.54296875,-100.09765625,-27.83203125,0.0
44.88671875,-83.49609375,-0.48828125,-93.26171875,-116.69921875,-65.91796875,0.0
44.890625,-87.40234375,-0.9765625,-90.33203125,-74.21875,-83.49609375,0.0
44.89453125,-79.58984375,-0.9765625,-83.0078125,-72.265625,-50.29296875,0.0
44.8984375,-67.87109375,0.48828125,-102.5390625,-165.52734375,19.04296875,0.0
44.90234375,-75.1953125,-5.37109375,-123.53515625,-158.203125,12.6953125,0.0
44.90625,-87.890625,-11.71875,-113.28125,-139.16015625,8.30078125,0.0
44.91015625,-78.125,-25.390625,-92.28515625,-125.0,4.39453125,0.0
44.9140625,-49.8046875,-24.4140625,-84.47265625,-94.7265625,27.34375,0.0
44.91796875,-50.29296875,-11.23046875,-97.16796875,-95.703125,27.83203125,0.0
44.921875,-61.03515625,-14.6484375,-90.33203125,-108.88671875,-29.78515625,0.0
44.92578125,-55.6640625,-12.6953125,-56.640625,-101.5625,-3.90625,0.0
44.9296875,-53.7109375,-4.39453125,-40.52734375,-72.265625,-36.62109375,0.0
44.93359375,-46.875,-5.37109375,-42.48046875,-67.3828125,-76.171875,0.0
44.9375,-37.109375,-9.27734375,-45.8984375,-57.6171875,-33.69140625,0.0
44.94140625,-38.57421875,-16.11328125,-58.59375,-65.91796875,14.6484375,0.0
44.9453125,-34.1796875,-16.11328125,-70.3125,-80.078125,20.99609375,0.0
44.94921875,-35.64453125,-19.04296875,-63.96484375,-64.94140625,-65.4296875,0.0
44.953125,-39.0625,-19.04296875,-59.5703125,-44.921875,-23.92578125,0.0
44.95703125,-34.1796875,-15.625,-54.6875,-49.31640625,82.03125,0.0
44.9609375,-27.34375,-19.04296875,-53.22265625,-65.4296875,37.59765625,0.0
44.96484375,-19.04296875,-20.01953125,-48.33984375,-53.22265625,2.44140625,0.0
44.96875,-16.6015625,-15.625,-40.52734375,-26.85546875,6.34765625,0.0
44.97265625,-17.08984375,-16.11328125,-49.31640625,-5.37109375,-21.484375,0.0
44.9765625,-18.5546875,-16.6015625,-57.12890625,-9.765625,30.76171875,0.0
44.98046875,-26.3671875,-30.2734375,-53.7109375,-37.59765625,-3.41796875,0.0
44.984375,-39.55078125,-56.15234375,-52.24609375,-58.10546875,-114.74609375,0.0
44.98828125,-30.76171875,-41.50390625,-57.12890625,-47.36328125,-91.796875,0.0
44.9921875,-12.6953125,-10.25390625,-51.26953125,-24.90234375,-104.00390625,0.0
44.99609375,-20.01953125,-16.11328125,-46.38671875,-33.203125,-72.265625,0.0
45.0,-16.6015625,-34.1796875,-38.0859375,-22.4609375,-94.23828125,0.0
45.00390625,-7.8125,-26.3671875,-38.0859375,-22.94921875,-99.609375,0.0
45.0078125,-21.97265625,-22.94921875,-34.66796875,-46.875,7.32421875,0.0
45.01171875,-38.57421875,-29.78515625,-31.73828125,-19.53125,34.1796875,0.0
45.015625,-48.33984375,-23.4375,-47.36328125,-22.4609375,19.04296875,0.0
45.01953125,-28.80859375,-22.4609375,-47.8515625,-57.12890625,-44.43359375,0.0
45.0234375,-23.92578125,-26.3671875,-47.36328125,-61.03515625,-144.04296875,0.0
45.02734375,-29.78515625,-34.66796875,-68.84765625,-43.9453125,-98.6328125,0.0
45.03125,-27.34375,-45.41015625,-54.19921875,-33.203125,-1.953125,0.0
45.03515625,-31.73828125,-41.50390625,-28.80859375,-10.25390625,17.08984375,0.0
45.0390625,0.48828125,-36.62109375,-23.92578125,14.6484375,-28.80859375,0.0
45.04296875,-6.8359375,-29.78515625,-30.2734375,-25.87890625,-98.6328125,0.0
45.046875,-55.17578125,-18.5546875,-38.0859375,-94.23828125,-61.03515625,0.0
45.05078125,-54.19921875,-18.5546875,-44.43359375,-79.1015625,-25.87890625,0.0
45.0546875,-28.80859375,-15.625,-48.828125,-37.59765625,-18.06640625,0.0
45.05859375,-30.2734375,-14.6484375,-49.8046875,-61.5234375,-2.9296875,0.0
45.0625,-47.36328125,-26.85546875,-53.7109375,-82.03125,-25.390625,0.0
45.06640625,-41.015625,-28.80859375,-58.59375,-62.5,-132.32421875,0.0
45.0703125,-35.64453125,-26.3671875,-53.7109375,-46.38671875,-136.71875,0.0
45.07421875,-42.96875,-34.66796875,-39.0625,-36.1328125,-74.70703125,0.0
45.078125,-35.64453125,-34.66796875,-51.26953125,-50.78125,-7.32421875,0.0
45.08203125,-30.76171875,-30.76171875,-58.59375,-69.3359375,-7.32421875,0.0
45.0859375,-30.2734375,-29.78515625,-45.8984375,-64.453125,30.76171875,0.0
45.08984375,-17.578125,-30.2734375,-30.2734375,-56.15234375,36.1328125,0.0
45.09375,-15.13671875,-43.9453125,-28.80859375,-45.8984375,-12.20703125,0.0
45.09765625,-30.76171875,-45.41015625,-47.36328125,-48.828125,3.90625,0.0
45.1015625,-23.92578125,-37.109375,-57.12890625,-43.9453125,-19.04296875,0.0
45.10546875,-13.671875,-23.92578125,-53.22265625,-48.828125,21.97265625,0.0
45.109375,-26.85546875,-20.5078125,-46.875,-48.828125,41.9921875,0.0
45.11328125,-34.66796875,-25.87890625,-43.45703125,-28.3203125,-42.96875,0.0
45.1171875,-29.296875,-26.3671875,-41.015625,-17.578125,41.015625,0.0
45.12109375,-30.76171875,-31.25,-48.828125,-50.78125,35.15625,0.0
45.125,-28.3203125,-35.64453125,-53.22265625,-45.8984375,-4.39453125,0.0
45.12890625,-21.484375,-41.50390625,-50.29296875,-23.92578125,36.1328125,0.0
45.1328125,-27.34375,-40.0390625,-48.33984375,-12.6953125,43.45703125,0.0
45.13671875,-39.55078125,-34.1796875,-39.0625,-13.18359375,45.8984375,0.0
45.140625,-27.34375,-27.34375,-35.15625,-39.55078125,-2.9296875,0.0
45.14453125,-0.48828125,-23.4375,-33.69140625,-46.875,-135.25390625,0.0
45.1484375,-9.27734375,-29.296875,-34.1796875,-41.9921875,-234.86328125,0.0
45.15234375,-23.92578125,-32.2265625,-28.80859375,-29.78515625,-219.7265625,0.0
45.15625,-25.87890625,-45.8984375,-28.80859375,-17.08984375,-134.27734375,0.0
45.16015625,-28.80859375,-45.8984375,-42.96875,-19.04296875,-164.0625,0.0
45.1640625,-19.04296875,-27.83203125,-42.96875,-36.1328125,-187.98828125,0.0
45.16796875,-18.5546875,-27.34375,-34.1796875,-39.55078125,-170.41015625,0.0
45.171875,-20.5078125,-22.94921875,-28.3203125,-2.9296875,-79.58984375,0.0
45.17578125,-16.6015625,-18.5546875,-25.87890625,11.71875,-28.3203125,0.0
45.1796875,-15.13671875,-24.4140625,-26.3671875,-26.3671875,-84.47265625,0.0
45.18359375,-13.671875,-27.34375,-24.4140625,-59.5703125,-83.49609375,0.0
45.1875,-19.04296875,-28.80859375,-21.484375,-46.875,-136.71875,0.0
45.19140625,-26.85546875,-29.78515625,-20.5078125,-19.53125,-109.375,0.0
45.1953125,-30.2734375,-30.76171875,-28.80859375,-22.94921875,-10.25390625,0.0
45.19921875,-18.5546875,-28.3203125,-39.0625,-35.64453125,54.19921875,0.0
45.203125,5.37109375,-26.85546875,-40.52734375,-22.4609375,-15.13671875,0.0
45.20703125,1.46484375,-37.109375,-40.0390625,-36.1328125,-83.0078125,0.0
45.2109375,-11.23046875,-38.0859375,-39.0625,-33.69140625,-45.8984375,0.0
45.21484375,-3.41796875,-20.99609375,-39.55078125,-21.484375,-78.125,0.0
45.21875,-7.8125,-14.6484375,-41.9921875,-29.296875,-3.90625,0.0
45.22265625,-21.484375,-22.4609375,-32.2265625,-51.7578125,37.109375,0.0
45.2265625,-40.0390625,-36.62109375,-39.0625,-27.83203125,37.109375,0.0
45.23046875,-49.31640625,-32.71484375,-44.43359375,-7.8125,91.30859375,0.0
45.234375,-48.33984375,-39.55078125,-28.3203125,-23.4375,104.98046875,0.0
45.23828125,-41.50390625,-44.921875,-20.01953125,-28.80859375,105.95703125,0.0
45.2421875,-38.57421875,-31.25,-31.73828125,-68.84765625,24.4140625,0.0
45.24609375,-39.55078125,-23.92578125,-29.78515625,-55.17578125,-28.3203125,0.0
45.25,-37.59765625,-20.99609375,-25.390625,-19.53125,7.32421875,0.0
45.25390625,-49.8046875,-30.76171875,-49.31640625,-29.78515625,40.52734375,0.0
45.2578125,-51.7578125,-33.69140625,-42.96875,-11.71875,71.2890625,0.0
45.26171875,-38.0859375,-36.62109375,-28.80859375,-37.109375,74.70703125,0.0
45.265625,-41.015625,-34.1796875,-33.69140625,-64.94140625,15.625,0.0
45.26953125,-54.19921875,-35.64453125,-36.62109375,-22.94921875,-29.78515625,0.0
