timestam,TP9,AF7,AF8,TP10,AUX,Marker
141.00390625,-50.78125,-43.45703125,-38.57421875,-41.015625,-42.96875,0.0
141.0078125,-37.109375,-31.25,-30.76171875,-30.76171875,-48.828125,0.0
141.01171875,-27.83203125,-23.4375,-20.99609375,-27.83203125,-3.41796875,0.0
141.015625,-23.4375,-26.85546875,-20.01953125,-28.80859375,39.55078125,0.0
141.01953125,-28.80859375,-31.25,-26.3671875,-28.80859375,15.625,0.0
141.0234375,-38.0859375,-33.69140625,-44.921875,-34.1796875,54.19921875,0.0
141.02734375,-31.25,-34.1796875,-44.921875,-35.15625,41.9921875,0.0
141.03125,-31.25,-41.015625,-40.0390625,-40.0390625,-41.9921875,0.0
141.03515625,-27.83203125,-37.59765625,-33.203125,-36.62109375,-20.99609375,0.0
141.0390625,-27.83203125,-37.59765625,-33.203125,-31.73828125,-46.38671875,0.0
141.04296875,-41.9921875,-41.50390625,-34.1796875,-35.15625,-75.68359375,0.0
141.046875,-40.52734375,-31.73828125,-28.3203125,-29.78515625,-83.49609375,0.0
141.05078125,-28.3203125,-27.83203125,-27.83203125,-26.3671875,-116.69921875,0.0
141.0546875,-25.87890625,-28.80859375,-27.34375,-29.296875,-32.2265625,0.0
141.05859375,-31.73828125,-29.78515625,-30.76171875,-31.25,-27.34375,0.0
141.0625,-35.15625,-32.2265625,-27.83203125,-31.73828125,-95.703125,0.0
141.06640625,-38.57421875,-34.1796875,-22.4609375,-28.80859375,-110.83984375,0.0
141.0703125,-28.80859375,-27.83203125,-24.4140625,-19.04296875,-59.08203125,0.0
141.07421875,-18.06640625,-25.87890625,-25.390625,-16.11328125,-132.32421875,0.0
141.078125,-23.92578125,-27.83203125,-24.90234375,-18.5546875,-117.1875,0.0
141.08203125,-34.66796875,-37.109375,-30.2734375,-24.90234375,-36.62109375,0.0
141.0859375,-28.3203125,-37.59765625,-20.01953125,-19.53125,-33.203125,0.0
141.08984375,-19.04296875,-27.34375,-15.13671875,-18.5546875,54.6875,0.0
141.09375,-22.4609375,-12.6953125,-19.04296875,-25.87890625,88.8671875,0.0
141.09765625,-30.76171875,-7.32421875,-22.4609375,-33.203125,62.98828125,0.0
141.1015625,-41.9921875,-18.5546875,-36.62109375,-40.52734375,-34.1796875,0.0
141.10546875,-51.7578125,-30.76171875,-49.31640625,-50.29296875,-97.16796875,0.0
141.109375,-51.26953125,-34.1796875,-57.6171875,-64.453125,-55.17578125,0.0
141.11328125,-44.921875,-26.85546875,-50.78125,-67.87109375,52.24609375,0.0
141.1171875,-33.69140625,-12.20703125,-24.90234375,-57.6171875,58.59375,0.0
141.12109375,-42.96875,-10.25390625,-26.85546875,-55.6640625,-50.78125,0.0
141.125,-49.8046875,-21.484375,-34.1796875,-53.7109375,-36.62109375,0.0
141.12890625,-44.921875,-35.15625,-33.203125,-55.6640625,-32.2265625,0.0
141.1328125,-34.66796875,-32.71484375,-40.0390625,-62.98828125,-96.19140625,0.0
141.13671875,-24.90234375,-21.97265625,-35.15625,-58.10546875,-7.32421875,0.0
141.140625,-31.73828125,-27.34375,-36.62109375,-52.24609375,-9.765625,0.0
141.14453125,-35.15625,-24.90234375,-27.83203125,-45.8984375,-103.515625,0.0
141.1484375,-36.1328125,-22.94921875,-19.04296875,-47.8515625,-63.96484375,0.0
141.15234375,-29.78515625,-25.87890625,-28.80859375,-51.26953125,-77.63671875,0.0
141.15625,-22.4609375,-23.4375,-33.69140625,-47.36328125,-93.75,0.0
141.16015625,-33.69140625,-26.3671875,-39.55078125,-43.45703125,-37.109375,0.0
141.1640625,-36.62109375,-22.4609375,-28.80859375,-28.80859375,-40.52734375,0.0
141.16796875,-32.2265625,-26.3671875,-19.04296875,-20.99609375,-1.953125,0.0
141.171875,-30.2734375,-38.0859375,-19.04296875,-29.78515625,46.38671875,0.0
141.17578125,-28.80859375,-34.1796875,-23.4375,-33.69140625,49.8046875,0.0
141.1796875,-31.73828125,-32.2265625,-33.69140625,-39.55078125,-25.390625,0.0
141.18359375,-38.57421875,-34.1796875,-36.1328125,-48.33984375,-84.47265625,0.0
141.1875,-35.64453125,-35.64453125,-31.25,-48.33984375,-87.40234375,0.0
141.19140625,-21.97265625,-26.3671875,-28.3203125,-35.15625,-65.4296875,0.0
141.1953125,-11.23046875,-12.20703125,-21.484375,-23.92578125,-46.38671875,0.0
141.19921875,-25.87890625,-18.5546875,-21.484375,-23.4375,-1.46484375,0.0
141.203125,-34.66796875,-22.94921875,-27.34375,-21.484375,28.80859375,0.0
141.20703125,-35.15625,-26.3671875,-23.92578125,-31.73828125,5.859375,0.0
141.2109375,-30.2734375,-26.3671875,-20.01953125,-34.66796875,19.53125,0.0
141.21484375,-21.484375,-26.3671875,-25.390625,-27.34375,20.5078125,0.0
141.21875,-27.83203125,-33.69140625,-34.66796875,-35.15625,-20.01953125,0.0
141.22265625,-31.25,-31.25,-31.73828125,-33.203125,-71.2890625,0.0
141.2265625,-31.25,-30.2734375,-30.2734375,-30.2734375,-36.62109375,0.0
141.23046875,-29.78515625,-27.83203125,-26.3671875,-30.76171875,18.5546875,0.0
141.234375,-27.83203125,-31.73828125,-29.78515625,-30.2734375,-42.48046875,0.0
141.23828125,-33.203125,-38.0859375,-41.50390625,-36.1328125,-42.48046875,0.0
141.2421875,-39.55078125,-40.52734375,-38.57421875,-37.59765625,-10.25390625,0.0
141.24609375,-40.52734375,-45.41015625,-41.9921875,-37.59765625,-69.82421875,0.0
141.25,-37.59765625,-40.0390625,-45.8984375,-38.0859375,-112.79296875,0.0
141.25390625,-18.5546875,-21.484375,-22.4609375,-25.390625,-124.51171875,0.0
141.2578125,-10.25390625,-8.7890625,-17.578125,-15.625,-112.79296875,0.0
141.26171875,-34.66796875,-30.2734375,-37.59765625,-36.1328125,-95.703125,0.0
141.265625,-52.24609375,-52.24609375,-48.828125,-54.6875,-83.984375,0.0
141.26953125,-42.96875,-44.921875,-42.48046875,-48.33984375,-16.6015625,0.0
141.2734375,-31.73828125,-36.62109375,-24.4140625,-36.62109375,27.83203125,0.0
141.27734375,-32.2265625,-37.109375,-17.578125,-29.78515625,-29.78515625,0.0
141.28125,-41.9921875,-33.203125,-25.390625,-39.0625,-21.484375,0.0
141.28515625,-56.640625,-40.52734375,-35.64453125,-47.8515625,-29.78515625,0.0
141.2890625,-51.7578125,-37.59765625,-35.64453125,-41.9921875,-16.6015625,0.0
141.29296875,-42.48046875,-29.78515625,-34.66796875,-44.43359375,36.62109375,0.0
141.296875,-37.109375,-29.296875,-29.78515625,-33.69140625,-20.99609375,0.0
141.30078125,-44.43359375,-34.66796875,-26.85546875,-29.296875,-60.546875,0.0
141.3046875,-57.12890625,-35.64453125,-32.71484375,-41.015625,-101.07421875,0.0
141.30859375,-53.7109375,-42.48046875,-37.109375,-43.45703125,-125.0,0.0
141.3125,-42.48046875,-40.52734375,-35.64453125,-37.109375,-24.90234375,0.0
141.31640625,-34.66796875,-31.25,-34.1796875,-33.203125,-1.46484375,0.0
141.3203125,-26.3671875,-28.80859375,-22.94921875,-26.3671875,-11.23046875,0.0
141.32421875,-47.36328125,-37.109375,-22.94921875,-33.203125,-41.9921875,0.0
141.328125,-62.01171875,-35.15625,-37.59765625,-46.38671875,-66.40625,0.0
141.33203125,-37.109375,-26.3671875,-33.203125,-36.62109375,-0.48828125,0.0
141.3359375,-28.3203125,-29.78515625,-17.578125,-33.69140625,11.23046875,0.0
141.33984375,-35.64453125,-28.80859375,-20.5078125,-34.1796875,30.76171875,0.0
141.34375,-26.3671875,-23.4375,-23.4375,-25.390625,25.87890625,0.0
141.34765625,-25.87890625,-22.94921875,-22.94921875,-21.97265625,-42.96875,0.0
141.3515625,-22.94921875,-22.94921875,-33.203125,-27.34375,2.44140625,0.0
141.35546875,-17.08984375,-22.4609375,-40.0390625,-28.3203125,48.828125,0.0
141.359375,-22.94921875,-20.5078125,-32.71484375,-19.53125,-89.84375,0.0
141.36328125,-17.08984375,-20.5078125,-21.484375,-14.16015625,-118.65234375,0.0
141.3671875,-21.484375,-32.71484375,-29.78515625,-29.78515625,-62.01171875,0.0
141.37109375,-22.4609375,-31.73828125,-28.80859375,-39.55078125,-50.29296875,0.0
141.375,-10.25390625,-16.11328125,-20.5078125,-26.3671875,2.44140625,0.0
141.37890625,-17.578125,-22.94921875,-34.1796875,-25.87890625,46.38671875,0.0
141.3828125,-21.97265625,-30.2734375,-39.55078125,-24.90234375,28.3203125,0.0
141.38671875,-5.859375,-16.6015625,-20.99609375,-8.7890625,-42.96875,0.0
141.390625,-10.7421875,-21.97265625,-29.78515625,-16.11328125,-5.859375,0.0
141.39453125,-15.625,-33.69140625,-45.8984375,-37.59765625,-12.6953125,0.0
141.3984375,-18.06640625,-29.296875,-34.1796875,-36.1328125,-25.87890625,0.0
141.40234375,-26.3671875,-24.90234375,-17.578125,-21.97265625,-2.44140625,0.0
141.40625,-23.92578125,-31.25,-16.11328125,-18.5546875,-6.34765625,0.0
141.41015625,-21.484375,-35.15625,-15.625,-16.6015625,-62.98828125,0.0
141.4140625,-15.625,-24.90234375,-17.578125,-12.20703125,-64.94140625,0.0
141.41796875,-24.4140625,-28.3203125,-31.73828125,-24.4140625,0.48828125,0.0
141.421875,-31.25,-30.2734375,-26.3671875,-25.87890625,-21.484375,0.0
141.42578125,-31.25,-27.34375,-12.20703125,-20.5078125,-6.8359375,0.0
141.4296875,-37.59765625,-35.64453125,-17.08984375,-30.2734375,0.0,0.0
141.43359375,-31.25,-37.109375,-21.97265625,-32.71484375,-30.2734375,0.0
141.4375,-30.2734375,-41.015625,-27.34375,-31.73828125,-46.38671875,0.0
141.44140625,-32.2265625,-39.55078125,-21.484375,-27.83203125,-67.3828125,0.0
141.4453125,-33.203125,-32.2265625,-29.78515625,-26.85546875,-84.47265625,0.0
141.44921875,-37.59765625,-28.80859375,-51.7578125,-32.2265625,-52.734375,0.0
141.453125,-38.0859375,-30.2734375,-42.48046875,-40.52734375,-22.94921875,0.0
141.45703125,-34.66796875,-28.80859375,-22.94921875,-42.96875,-5.37109375,0.0
141.4609375,-34.1796875,-25.87890625,-19.53125,-33.69140625,21.484375,0.0
141.46484375,-31.73828125,-26.85546875,-17.08984375,-22.4609375,16.11328125,0.0
141.46875,-31.25,-26.85546875,-23.4375,-29.296875,-51.26953125,0.0
141.47265625,-42.48046875,-29.296875,-34.1796875,-44.921875,-81.0546875,0.0
141.4765625,-45.41015625,-23.4375,-34.66796875,-43.45703125,1.953125,0.0
141.48046875,-52.24609375,-26.3671875,-33.69140625,-45.8984375,-30.2734375,0.0
141.484375,-65.91796875,-38.57421875,-28.3203125,-52.24609375,-100.5859375,0.0
141.48828125,-61.5234375,-26.85546875,-24.90234375,-52.24609375,-0.48828125,0.0
141.4921875,-62.5,-17.08984375,-32.2265625,-62.5,-48.828125,0.0
141.49609375,-83.0078125,-32.2265625,-38.57421875,-80.078125,-175.29296875,0.0
141.5,-93.75,-37.109375,-34.1796875,-84.9609375,-121.58203125,0.0
141.50390625,-98.14453125,-32.71484375,-33.69140625,-86.9140625,-61.5234375,0.0
141.5078125,-104.00390625,-39.0625,-49.8046875,-93.26171875,-80.56640625,0.0
141.51171875,-110.83984375,-44.43359375,-48.828125,-104.4921875,-83.984375,0.0
141.515625,-113.28125,-34.66796875,-43.9453125,-106.4453125,-44.43359375,0.0
141.51953125,-105.95703125,-29.296875,-42.48046875,-100.09765625,-18.06640625,0.0
141.5234375,-111.81640625,-39.0625,-39.0625,-107.91015625,2.9296875,0.0
141.52734375,-114.2578125,-44.921875,-46.875,-120.1171875,20.99609375,0.0
141.53125,-106.4453125,-36.62109375,-46.38671875,-119.62890625,-52.24609375,0.0
141.53515625,-108.3984375,-34.66796875,-35.15625,-117.1875,-82.51953125,0.0
141.5390625,-116.69921875,-35.15625,-42.96875,-126.46484375,-28.3203125,0.0
141.54296875,-123.046875,-43.9453125,-47.8515625,-128.90625,10.7421875,0.0
141.546875,-137.6953125,-59.08203125,-45.41015625,-133.30078125,-19.04296875,0.0
141.55078125,-126.46484375,-53.22265625,-42.48046875,-120.1171875,-53.22265625,0.0
141.5546875,-107.421875,-41.015625,-36.1328125,-103.515625,-11.23046875,0.0
141.55859375,-108.3984375,-40.52734375,-36.62109375,-101.5625,-49.8046875,0.0
141.5625,-103.515625,-44.921875,-35.15625,-92.28515625,-92.7734375,0.0
141.56640625,-85.44921875,-42.48046875,-31.73828125,-77.1484375,-65.4296875,0.0
141.5703125,-74.70703125,-45.8984375,-47.8515625,-75.1953125,-153.80859375,0.0
141.57421875,-64.453125,-45.8984375,-50.78125,-67.3828125,-147.4609375,0.0
141.578125,-52.734375,-41.9921875,-43.9453125,-48.828125,27.83203125,0.0
141.58203125,-55.17578125,-49.8046875,-50.78125,-42.48046875,77.63671875,0.0
141.5859375,-49.31640625,-49.8046875,-45.41015625,-41.015625,54.6875,0.0
141.58984375,-29.296875,-41.9921875,-35.64453125,-32.2265625,16.6015625,0.0
141.59375,-8.7890625,-33.203125,-32.2265625,-16.6015625,49.8046875,0.0
141.59765625,0.48828125,-30.76171875,-32.2265625,-6.8359375,-9.765625,0.0
141.6015625,-8.7890625,-41.50390625,-35.64453125,-12.20703125,-73.2421875,0.0
141.60546875,-7.32421875,-38.57421875,-36.62109375,-9.27734375,-26.3671875,0.0
141.609375,3.90625,-34.66796875,-36.1328125,-5.859375,55.17578125,0.0
141.61328125,17.578125,-26.85546875,-25.390625,0.0,62.5,0.0
141.6171875,20.5078125,-24.90234375,-24.4140625,4.39453125,20.01953125,0.0
141.62109375,9.27734375,-34.66796875,-37.109375,3.41796875,-9.27734375,0.0
141.625,8.7890625,-30.2734375,-29.78515625,4.8828125,-66.89453125,0.0
141.62890625,16.11328125,-27.34375,-22.94921875,6.34765625,-87.40234375,0.0
141.6328125,12.6953125,-33.203125,-37.59765625,4.39453125,-64.94140625,0.0
141.63671875,10.7421875,-33.69140625,-37.59765625,5.859375,-88.37890625,0.0
141.640625,5.37109375,-29.78515625,-22.94921875,11.23046875,-132.32421875,0.0
141.64453125,0.0,-31.25,-24.4140625,9.27734375,-86.9140625,0.0
141.6484375,13.18359375,-28.3203125,-20.01953125,14.16015625,-59.5703125,0.0
141.65234375,27.83203125,-10.7421875,-17.08984375,21.97265625,-32.2265625,0.0
141.65625,29.296875,-6.34765625,-31.25,12.6953125,-47.36328125,0.0
141.66015625,15.13671875,-19.04296875,-34.66796875,7.32421875,-73.73046875,0.0
141.6640625,-3.41796875,-34.1796875,-31.73828125,-3.41796875,-175.29296875,0.0
141.66796875,0.0,-32.71484375,-23.92578125,-5.859375,-248.046875,0.0
141.671875,13.671875,-19.53125,-8.7890625,5.859375,-97.65625,0.0
141.67578125,1.953125,-33.203125,-18.5546875,-4.39453125,-11.71875,0.0
141.6796875,-12.20703125,-41.9921875,-31.73828125,-14.16015625,-97.65625,0.0
141.68359375,-19.53125,-41.9921875,-38.0859375,-17.578125,-49.31640625,0.0
141.6875,-20.5078125,-43.9453125,-39.0625,-16.6015625,-23.4375,0.0
141.69140625,-12.6953125,-37.59765625,-30.76171875,-18.06640625,-54.6875,0.0
141.6953125,2.9296875,-23.4375,-29.296875,-13.671875,-4.8828125,0.0
141.69921875,5.859375,-16.11328125,-26.3671875,-6.8359375,41.9921875,0.0
141.703125,-9.765625,-32.71484375,-31.73828125,-15.625,43.45703125,0.0
141.70703125,-17.578125,-46.38671875,-41.9921875,-25.390625,-35.64453125,0.0
141.7109375,-7.8125,-39.55078125,-37.59765625,-24.90234375,-57.6171875,0.0
141.71484375,0.0,-35.64453125,-29.296875,-15.625,1.46484375,0.0
141.71875,-7.8125,-40.0390625,-33.203125,-14.16015625,-58.59375,0.0
141.72265625,-16.6015625,-42.48046875,-33.69140625,-16.6015625,-214.84375,0.0
141.7265625,-16.11328125,-36.1328125,-17.08984375,-13.18359375,-274.4140625,0.0
141.73046875,-13.18359375,-34.66796875,-21.484375,-22.4609375,-235.83984375,0.0
141.734375,-10.25390625,-37.109375,-27.34375,-31.25,-136.23046875,0.0
141.73828125,-13.18359375,-35.15625,-20.99609375,-24.90234375,-155.2734375,0.0
141.7421875,-19.53125,-31.73828125,-20.5078125,-22.94921875,-88.37890625,0.0
141.74609375,-14.16015625,-25.390625,-23.4375,-28.3203125,85.9375,0.0
141.75,1.46484375,-19.53125,-28.3203125,-18.06640625,31.73828125,0.0
141.75390625,2.44140625,-20.99609375,-28.80859375,-20.99609375,49.31640625,0.0
141.7578125,-18.06640625,-33.203125,-42.96875,-43.45703125,57.6171875,0.0
141.76171875,-31.25,-38.57421875,-45.8984375,-47.8515625,26.3671875,0.0
141.765625,-29.296875,-31.73828125,-27.83203125,-41.50390625,77.63671875,0.0
141.76953125,-32.2265625,-30.2734375,-32.2265625,-35.15625,69.82421875,0.0
141.7734375,-20.5078125,-23.4375,-28.3203125,-28.80859375,79.1015625,0.0
141.77734375,-11.23046875,-22.94921875,-21.97265625,-31.25,96.6796875,0.0
141.78125,-33.69140625,-38.0859375,-36.1328125,-42.48046875,109.375,0.0
141.78515625,-44.921875,-47.36328125,-41.9921875,-35.15625,15.13671875,0.0
141.7890625,-30.76171875,-41.015625,-43.45703125,-27.34375,2.9296875,0.0
141.79296875,-11.71875,-26.3671875,-38.57421875,-25.87890625,-11.23046875,0.0
141.796875,-4.39453125,-13.671875,-22.4609375,-14.16015625,-94.23828125,0.0
141.80078125,-15.13671875,-13.671875,-20.5078125,-5.859375,-42.96875,0.0
141.8046875,-32.2265625,-27.34375,-30.2734375,-26.3671875,-10.7421875,0.0
141.80859375,-27.83203125,-33.203125,-30.76171875,-27.83203125,-43.9453125,0.0
141.8125,-18.06640625,-32.2265625,-32.71484375,-23.4375,-42.96875,0.0
141.81640625,-15.625,-26.3671875,-26.3671875,-20.5078125,-21.97265625,0.0
141.8203125,-16.11328125,-17.08984375,-20.01953125,-9.27734375,-45.8984375,0.0
141.82421875,-30.2734375,-20.99609375,-30.2734375,-21.484375,-119.140625,0.0
141.828125,-39.0625,-28.3203125,-26.3671875,-35.64453125,-34.66796875,0.0
141.83203125,-25.87890625,-27.34375,-15.13671875,-29.78515625,35.15625,0.0
141.8359375,-14.16015625,-19.53125,-14.6484375,-20.01953125,-6.34765625,0.0
141.83984375,-12.6953125,-14.6484375,-8.30078125,-8.30078125,-5.37109375,0.0
141.84375,-27.34375,-29.296875,-18.5546875,-18.5546875,-20.01953125,0.0
141.84765625,-43.9453125,-41.9921875,-35.64453125,-34.1796875,13.18359375,0.0
141.8515625,-39.55078125,-29.78515625,-33.203125,-26.3671875,37.59765625,0.0
141.85546875,-25.87890625,-23.92578125,-31.25,-16.6015625,-7.8125,0.0
141.859375,-24.90234375,-25.390625,-35.64453125,-15.625,14.6484375,0.0
141.86328125,-37.59765625,-29.296875,-34.66796875,-26.3671875,-7.8125,0.0
141.8671875,-37.59765625,-31.25,-33.69140625,-31.25,-62.98828125,0.0
141.87109375,-26.85546875,-28.80859375,-29.296875,-28.80859375,-64.94140625,0.0
141.875,-13.18359375,-30.76171875,-21.484375,-22.94921875,-64.453125,0.0
141.87890625,-8.7890625,-27.34375,-10.25390625,-11.71875,-80.56640625,0.0
141.8828125,-30.76171875,-24.4140625,-19.04296875,-23.92578125,-16.6015625,0.0
141.88671875,-44.43359375,-25.390625,-30.2734375,-39.0625,5.859375,0.0
141.890625,-47.8515625,-33.69140625,-29.78515625,-49.31640625,-45.8984375,0.0
141.89453125,-42.48046875,-29.296875,-27.83203125,-53.22265625,-63.4765625,0.0
141.8984375,-45.8984375,-31.25,-23.92578125,-54.6875,-58.59375,0.0
141.90234375,-66.40625,-48.828125,-40.52734375,-61.5234375,-93.75,0.0
141.90625,-65.91796875,-45.41015625,-45.41015625,-57.12890625,-61.03515625,0.0
141.91015625,-52.734375,-30.2734375,-26.85546875,-56.15234375,-56.640625,0.0
141.9140625,-40.0390625,-23.92578125,-18.5546875,-51.26953125,-54.6875,0.0
141.91796875,-39.0625,-32.2265625,-18.06640625,-46.875,-33.69140625,0.0
141.921875,-41.015625,-36.1328125,-9.765625,-42.96875,-12.6953125,0.0
141.92578125,-45.8984375,-43.9453125,-19.04296875,-44.921875,-12.20703125,0.0
141.9296875,-42.96875,-44.43359375,-35.64453125,-48.828125,-68.359375,0.0
141.93359375,-23.4375,-26.3671875,-16.6015625,-33.69140625,-92.28515625,0.0
141.9375,-23.4375,-20.99609375,-0.48828125,-25.87890625,-125.48828125,0.0
141.94140625,-46.38671875,-37.59765625,-25.390625,-45.41015625,-106.93359375,0.0
141.9453125,-53.22265625,-46.875,-38.0859375,-52.24609375,-85.44921875,0.0
141.94921875,-44.921875,-41.9921875,-35.15625,-44.921875,-104.00390625,0.0
141.953125,-28.3203125,-30.76171875,-39.55078125,-37.109375,-78.125,0.0
141.95703125,-16.11328125,-21.484375,-30.76171875,-27.83203125,-57.6171875,0.0
141.9609375,-27.34375,-27.34375,-28.80859375,-34.66796875,-16.11328125,0.0
141.96484375,-33.203125,-31.25,-28.3203125,-38.0859375,-89.84375,0.0
141.96875,-28.80859375,-24.90234375,-20.5078125,-28.3203125,-97.16796875,0.0
141.97265625,-29.78515625,-28.80859375,-22.94921875,-31.73828125,3.41796875,0.0
141.9765625,-23.92578125,-31.25,-20.5078125,-35.64453125,13.671875,0.0
141.98046875,-25.390625,-28.80859375,-19.53125,-27.34375,1.46484375,0.0
141.984375,-35.15625,-33.69140625,-32.2265625,-26.3671875,0.0,0.0
141.98828125,-29.78515625,-33.69140625,-26.85546875,-21.97265625,35.64453125,0.0
141.9921875,-15.13671875,-29.296875,-15.13671875,-12.20703125,-13.18359375,0.0
141.99609375,-11.23046875,-22.94921875,-18.5546875,-13.671875,-23.92578125,0.0
142.0,-30.76171875,-31.25,-29.296875,-26.85546875,-47.8515625,0.0
142.00390625,-47.36328125,-47.8515625,-37.109375,-39.55078125,-102.5390625,0.0
142.0078125,-41.9921875,-41.9921875,-29.296875,-34.66796875,-49.31640625,0.0
142.01171875,-21.97265625,-23.92578125,-15.625,-15.13671875,-59.08203125,0.0
142.015625,-15.13671875,-27.34375,-19.53125,-10.7421875,-65.91796875,0.0
142.01953125,-26.85546875,-33.69140625,-21.97265625,-22.4609375,4.39453125,0.0
142.0234375,-34.66796875,-37.109375,-26.85546875,-30.2734375,-4.39453125,0.0
142.02734375,-43.9453125,-46.38671875,-33.203125,-33.69140625,13.18359375,0.0
142.03125,-41.015625,-39.0625,-28.80859375,-36.62109375,-8.7890625,0.0
142.03515625,-42.96875,-35.15625,-33.69140625,-46.38671875,-107.91015625,0.0
142.0390625,-55.17578125,-41.015625,-39.55078125,-46.38671875,-33.69140625,0.0
142.04296875,-59.5703125,-41.50390625,-32.2265625,-42.96875,22.4609375,0.0
142.046875,-48.828125,-34.66796875,-31.25,-41.015625,-73.2421875,0.0
142.05078125,-37.59765625,-32.2265625,-38.0859375,-35.15625,-127.9296875,0.0
142.0546875,-33.203125,-28.80859375,-30.76171875,-37.109375,-56.15234375,0.0
142.05859375,-29.296875,-28.80859375,-22.4609375,-34.66796875,-21.484375,0.0
142.0625,-37.109375,-37.109375,-24.4140625,-35.15625,-17.578125,0.0
142.06640625,-48.33984375,-55.6640625,-39.55078125,-52.734375,-82.51953125,0.0
142.0703125,-47.36328125,-52.24609375,-49.31640625,-54.19921875,-166.50390625,0.0
142.07421875,-44.43359375,-38.57421875,-52.24609375,-48.828125,8.30078125,0.0
142.078125,-43.9453125,-42.48046875,-52.24609375,-44.921875,108.3984375,0.0
142.08203125,-41.015625,-37.109375,-36.1328125,-32.2265625,-48.33984375,0.0
142.0859375,-35.64453125,-29.78515625,-31.25,-28.3203125,-53.22265625,0.0
142.08984375,-17.578125,-17.578125,-20.01953125,-19.04296875,-31.25,0.0
142.09375,3.41796875,1.953125,2.9296875,-8.30078125,-123.046875,0.0
142.09765625,-12.6953125,-13.18359375,-9.27734375,-19.04296875,-173.33984375,0.0
142.1015625,-51.7578125,-43.9453125,-48.828125,-49.31640625,-197.75390625,0.0
142.10546875,-64.94140625,-51.26953125,-57.12890625,-64.453125,-146.484375,0.0
142.109375,-56.640625,-40.52734375,-41.9921875,-55.17578125,-100.09765625,0.0
142.11328125,-51.7578125,-42.96875,-40.52734375,-58.10546875,-73.73046875,0.0
142.1171875,-56.640625,-49.8046875,-47.8515625,-66.89453125,-25.87890625,0.0
142.12109375,-62.01171875,-40.52734375,-42.48046875,-64.453125,21.484375,0.0
142.125,-69.82421875,-39.55078125,-30.76171875,-62.01171875,-38.0859375,0.0
142.12890625,-69.82421875,-31.73828125,-26.85546875,-62.01171875,-18.06640625,0.0
142.1328125,-64.94140625,-21.97265625,-26.3671875,-73.73046875,21.97265625,0.0
142.13671875,-76.66015625,-32.71484375,-31.25,-85.9375,26.85546875,0.0
142.140625,-93.26171875,-36.62109375,-36.62109375,-94.23828125,16.11328125,0.0
142.14453125,-103.515625,-34.66796875,-35.15625,-93.75,-36.62109375,0.0
142.1484375,-108.3984375,-31.73828125,-38.57421875,-93.26171875,-14.6484375,0.0
142.15234375,-120.1171875,-36.62109375,-38.57421875,-107.421875,21.97265625,0.0
142.15625,-130.37109375,-50.29296875,-41.50390625,-118.1640625,-22.4609375,0.0
142.16015625,-135.25390625,-50.29296875,-43.9453125,-123.046875,-95.21484375,0.0
142.1640625,-133.30078125,-46.38671875,-28.3203125,-123.046875,-63.4765625,0.0
142.16796875,-131.34765625,-49.31640625,-23.4375,-125.0,-58.10546875,0.0
142.171875,-139.6484375,-49.31640625,-36.1328125,-135.7421875,-93.75,0.0
142.17578125,-133.7890625,-38.0859375,-33.203125,-135.7421875,-94.7265625,0.0
142.1796875,-146.484375,-46.38671875,-30.2734375,-142.578125,-41.50390625,0.0
142.18359375,-155.76171875,-49.8046875,-27.83203125,-139.16015625,35.64453125,0.0
142.1875,-136.23046875,-33.203125,-8.30078125,-115.72265625,0.48828125,0.0
142.19140625,-154.78515625,-54.6875,-34.1796875,-143.5546875,-33.203125,0.0
142.1953125,-161.62109375,-65.4296875,-65.4296875,-155.2734375,-23.4375,0.0
142.19921875,-137.20703125,-54.6875,-54.19921875,-122.0703125,-6.34765625,0.0
142.203125,-138.671875,-72.265625,-50.29296875,-116.69921875,-8.30078125,0.0
142.20703125,-131.34765625,-81.0546875,-46.38671875,-111.81640625,-29.78515625,0.0
142.2109375,-103.515625,-64.453125,-47.36328125,-89.35546875,-76.66015625,0.0
142.21484375,-78.61328125,-54.19921875,-41.9921875,-73.73046875,-74.21875,0.0
142.21875,-59.5703125,-49.31640625,-26.3671875,-55.6640625,-14.6484375,0.0
142.22265625,-42.96875,-43.45703125,-27.34375,-29.296875,28.3203125,0.0
142.2265625,-47.8515625,-48.828125,-39.55078125,-28.3203125,38.57421875,0.0
142.23046875,-36.1328125,-45.41015625,-34.66796875,-19.53125,-3.41796875,0.0
142.234375,-18.5546875,-41.015625,-36.62109375,-9.765625,0.0,0.0
142.23828125,-15.13671875,-45.41015625,-47.36328125,-12.6953125,7.8125,0.0
142.2421875,-0.48828125,-33.69140625,-36.62109375,4.8828125,-3.90625,0.0
142.24609375,-0.9765625,-35.15625,-35.64453125,9.27734375,49.8046875,0.0
142.25,-2.44140625,-51.7578125,-49.31640625,3.90625,31.73828125,0.0
142.25390625,14.16015625,-44.921875,-52.734375,12.6953125,-42.48046875,0.0
142.2578125,17.08984375,-34.1796875,-46.875,14.16015625,-35.15625,0.0
142.26171875,16.11328125,-26.85546875,-29.78515625,17.08984375,-27.34375,0.0
142.265625,18.5546875,-24.90234375,-16.6015625,24.90234375,-74.21875,0.0
142.26953125,23.92578125,-23.4375,-18.5546875,25.87890625,-41.9921875,0.0
142.2734375,37.59765625,-11.23046875,-20.01953125,29.296875,-13.18359375,0.0
142.27734375,33.203125,-16.6015625,-28.3203125,23.4375,-39.55078125,0.0
142.28125,21.97265625,-27.83203125,-29.296875,18.5546875,-40.0390625,0.0
142.28515625,20.5078125,-21.97265625,-22.4609375,17.08984375,-42.48046875,0.0
142.2890625,10.7421875,-24.90234375,-27.83203125,11.71875,-122.55859375,0.0
142.29296875,19.04296875,-22.4609375,-21.97265625,16.11328125,-76.171875,0.0
142.296875,23.4375,-24.90234375,-22.4609375,11.23046875,46.38671875,0.0
142.30078125,9.27734375,-29.78515625,-35.15625,8.30078125,37.59765625,0.0
142.3046875,6.34765625,-21.97265625,-37.59765625,11.23046875,7.32421875,0.0
142.30859375,20.99609375,-15.625,-28.80859375,14.16015625,-0.9765625,0.0
142.3125,28.80859375,-20.99609375,-20.5078125,14.6484375,-44.921875,0.0
142.31640625,17.08984375,-23.92578125,-17.08984375,10.25390625,-22.94921875,0.0
142.3203125,4.8828125,-24.4140625,-9.765625,16.11328125,-52.734375,0.0
142.32421875,-13.18359375,-40.52734375,-18.06640625,6.34765625,-134.765625,0.0
142.328125,-20.01953125,-48.33984375,-25.390625,-10.7421875,-125.0,0.0
142.33203125,-9.27734375,-38.57421875,-23.4375,-16.11328125,-45.8984375,0.0
142.3359375,-0.9765625,-29.296875,-20.99609375,-8.30078125,-15.13671875,0.0
142.33984375,-7.8125,-30.2734375,-23.4375,0.0,-35.64453125,0.0
142.34375,-9.27734375,-26.85546875,-22.4609375,5.859375,9.765625,0.0
142.34765625,4.39453125,-20.5078125,-15.13671875,9.27734375,9.765625,0.0
142.3515625,7.32421875,-15.13671875,-20.99609375,6.8359375,-25.87890625,0.0
142.35546875,0.9765625,-14.6484375,-28.80859375,6.34765625,-39.0625,0.0
142.359375,-2.9296875,-23.4375,-18.5546875,6.34765625,5.37109375,0.0
142.36328125,-20.99609375,-33.69140625,-16.6015625,-7.8125,29.296875,0.0
142.3671875,-25.390625,-36.1328125,-17.08984375,-15.625,-18.5546875,0.0
142.37109375,-10.7421875,-29.78515625,-18.06640625,-12.20703125,15.13671875,0.0
142.375,-9.27734375,-28.3203125,-27.83203125,-16.11328125,52.24609375,0.0
142.37890625,-15.625,-31.25,-33.69140625,-17.578125,-7.32421875,0.0
142.3828125,-27.83203125,-30.2734375,-39.0625,-21.484375,-62.01171875,0.0
142.38671875,-22.4609375,-22.4609375,-21.97265625,-15.13671875,-7.32421875,0.0
142.390625,1.953125,-14.6484375,-7.8125,3.41796875,-22.4609375,0.0
142.39453125,8.7890625,-11.71875,-17.578125,2.9296875,-83.49609375,0.0
142.3984375,-16.11328125,-26.3671875,-23.4375,-20.01953125,-12.20703125,0.0
142.40234375,-29.296875,-34.66796875,-16.11328125,-28.3203125,-25.390625,0.0
142.40625,-22.94921875,-31.73828125,-20.99609375,-21.97265625,1.953125,0.0
142.41015625,-21.484375,-31.73828125,-32.2265625,-30.2734375,39.0625,0.0
142.4140625,-15.13671875,-25.87890625,-28.80859375,-36.1328125,-6.8359375,0.0
142.41796875,-25.390625,-35.15625,-34.66796875,-41.015625,-13.18359375,0.0
142.421875,-27.83203125,-35.15625,-26.85546875,-32.71484375,-43.9453125,0.0
142.42578125,-17.08984375,-24.4140625,-7.8125,-13.18359375,-20.5078125,0.0
142.4296875,-10.25390625,-26.85546875,-12.20703125,-14.16015625,6.34765625,0.0
142.43359375,-2.44140625,-25.390625,-24.90234375,-23.92578125,34.1796875,0.0
142.4375,-6.34765625,-27.34375,-36.1328125,-24.4140625,9.27734375,0.0
142.44140625,-26.3671875,-35.15625,-43.9453125,-26.85546875,20.5078125,0.0
142.4453125,-34.1796875,-32.71484375,-35.15625,-26.85546875,-27.34375,0.0
142.44921875,-24.90234375,-30.76171875,-29.296875,-32.2265625,-43.9453125,0.0
142.453125,-8.7890625,-23.4375,-21.97265625,-28.80859375,-106.4453125,0.0
142.45703125,-20.99609375,-27.34375,-28.80859375,-30.76171875,-215.8203125,0.0
142.4609375,-37.109375,-32.71484375,-29.78515625,-36.1328125,-80.078125,0.0
142.46484375,-28.3203125,-26.85546875,-19.53125,-29.78515625,16.6015625,0.0
142.46875,-14.16015625,-23.4375,-10.25390625,-23.4375,21.97265625,0.0
142.47265625,-21.97265625,-29.78515625,-17.578125,-27.83203125,-37.109375,0.0
142.4765625,-28.3203125,-32.71484375,-27.34375,-29.296875,-42.96875,0.0
142.48046875,-21.484375,-22.94921875,-20.99609375,-16.6015625,-61.5234375,0.0
142.484375,-32.2265625,-30.2734375,-29.296875,-20.01953125,-44.921875,0.0
142.48828125,-36.1328125,-40.52734375,-36.1328125,-37.59765625,-12.6953125,0.0
142.4921875,-32.71484375,-38.0859375,-29.296875,-41.50390625,13.671875,0.0
142.49609375,-27.34375,-26.3671875,-22.94921875,-29.296875,8.7890625,0.0
142.5,-18.06640625,-19.53125,-30.76171875,-23.92578125,-9.27734375,0.0
142.50390625,-34.1796875,-35.64453125,-29.78515625,-31.25,-6.34765625,0.0
142.5078125,-46.875,-49.31640625,-35.64453125,-41.015625,-25.87890625,0.0
142.51171875,-26.3671875,-42.96875,-48.33984375,-33.203125,-17.578125,0.0
142.515625,-10.25390625,-30.2734375,-28.80859375,-18.5546875,-78.61328125,0.0
142.51953125,-20.01953125,-27.34375,-17.578125,-17.578125,-135.25390625,0.0
142.5234375,-29.78515625,-31.73828125,-32.71484375,-22.4609375,-113.76953125,0.0
142.52734375,-33.203125,-30.2734375,-31.25,-24.90234375,-87.890625,0.0
142.53125,-31.73828125,-31.73828125,-26.85546875,-26.85546875,-98.6328125,0.0
142.53515625,-22.94921875,-32.2265625,-28.3203125,-25.390625,-82.03125,0.0
142.5390625,-25.390625,-24.4140625,-24.4140625,-25.390625,0.48828125,0.0
142.54296875,-28.80859375,-23.4375,-28.3203125,-28.3203125,-91.796875,0.0
142.546875,-32.71484375,-34.66796875,-34.1796875,-30.76171875,-103.515625,0.0
142.55078125,-22.94921875,-28.80859375,-23.92578125,-22.4609375,36.1328125,0.0
142.5546875,-10.7421875,-20.99609375,-15.625,-12.6953125,20.01953125,0.0
142.55859375,-22.94921875,-28.3203125,-29.296875,-20.01953125,-16.6015625,0.0
142.5625,-38.57421875,-33.69140625,-39.55078125,-23.92578125,-46.38671875,0.0
142.56640625,-46.875,-41.015625,-41.9921875,-31.73828125,-107.421875,0.0
142.5703125,-26.85546875,-28.3203125,-40.52734375,-33.203125,-184.08203125,0.0
142.57421875,-8.30078125,-12.20703125,-15.625,-19.53125,-156.25,0.0
142.578125,-25.87890625,-24.4140625,-4.39453125,-21.97265625,-62.98828125,0.0
142.58203125,-53.22265625,-42.96875,-26.3671875,-39.0625,-67.3828125,0.0
142.5859375,-60.546875,-48.33984375,-37.109375,-50.29296875,-42.48046875,0.0
142.58984375,-48.828125,-48.33984375,-40.52734375,-51.26953125,-14.16015625,0.0
142.59375,-26.85546875,-36.1328125,-35.64453125,-40.0390625,-28.3203125,0.0
142.59765625,-31.25,-35.64453125,-24.90234375,-38.57421875,-8.30078125,0.0
142.6015625,-61.03515625,-51.7578125,-24.90234375,-52.734375,48.33984375,0.0
142.60546875,-62.01171875,-52.24609375,-29.296875,-49.31640625,84.47265625,0.0
142.609375,-53.7109375,-54.19921875,-26.3671875,-41.015625,5.859375,0.0
142.61328125,-49.8046875,-59.5703125,-21.97265625,-43.9453125,-37.59765625,0.0
142.6171875,-41.9921875,-49.31640625,-20.01953125,-39.55078125,47.8515625,0.0
142.62109375,-47.36328125,-47.8515625,-22.4609375,-35.64453125,6.34765625,0.0
142.625,-49.8046875,-50.78125,-31.73828125,-34.66796875,-115.234375,0.0
142.62890625,-43.45703125,-40.52734375,-33.69140625,-32.71484375,-31.25,0.0
142.6328125,-25.390625,-22.4609375,-28.3203125,-21.484375,60.05859375,0.0
142.63671875,-12.20703125,-9.765625,-25.390625,-5.859375,-3.90625,0.0
142.640625,-38.0859375,-37.59765625,-34.66796875,-28.3203125,9.27734375,0.0
142.64453125,-55.17578125,-53.22265625,-44.43359375,-40.52734375,-32.2265625,0.0
142.6484375,-41.50390625,-40.52734375,-40.0390625,-28.80859375,-100.09765625,0.0
142.65234375,-36.1328125,-42.96875,-26.85546875,-35.15625,-96.6796875,0.0
142.65625,-29.296875,-35.15625,-23.92578125,-34.1796875,-116.2109375,0.0
142.66015625,-28.3203125,-28.80859375,-22.94921875,-33.203125,-89.35546875,0.0
142.6640625,-32.71484375,-26.3671875,-25.87890625,-34.1796875,-103.02734375,0.0
142.66796875,-27.83203125,-21.97265625,-30.76171875,-31.25,-78.125,0.0
142.671875,-20.99609375,-29.296875,-17.578125,-22.94921875,-31.25,0.0
142.67578125,-12.6953125,-24.4140625,-8.30078125,-13.671875,-62.01171875,0.0
142.6796875,-21.97265625,-26.3671875,-25.390625,-20.01953125,-22.94921875,0.0
142.68359375,-41.50390625,-39.55078125,-43.45703125,-31.25,-0.48828125,0.0
142.6875,-46.875,-39.55078125,-47.8515625,-38.57421875,-6.34765625,0.0
142.69140625,-38.57421875,-37.109375,-43.45703125,-41.015625,71.2890625,0.0
142.6953125,-29.78515625,-28.80859375,-29.296875,-30.76171875,89.84375,0.0
142.69921875,-24.4140625,-25.390625,-23.4375,-24.4140625,19.04296875,0.0
142.703125,-25.390625,-36.62109375,-28.3203125,-28.3203125,0.0,0.0
142.70703125,-29.78515625,-39.55078125,-30.76171875,-31.25,29.296875,0.0
142.7109375,-27.83203125,-34.1796875,-26.85546875,-29.296875,-15.13671875,0.0
142.71484375,-18.5546875,-30.76171875,-20.99609375,-21.484375,-39.0625,0.0
142.71875,-23.4375,-29.78515625,-23.92578125,-19.04296875,10.25390625,0.0
142.72265625,-31.25,-36.62109375,-38.0859375,-22.4609375,-33.203125,0.0
142.7265625,-32.2265625,-40.52734375,-49.8046875,-30.76171875,-36.62109375,0.0
142.73046875,-28.80859375,-34.66796875,-38.0859375,-32.2265625,-34.66796875,0.0
142.734375,-31.25,-34.66796875,-25.87890625,-38.0859375,49.8046875,0.0
142.73828125,-28.80859375,-33.69140625,-25.87890625,-37.109375,100.5859375,0.0
142.7421875,-30.76171875,-33.203125,-21.484375,-29.78515625,-14.16015625,0.0
142.74609375,-34.66796875,-37.59765625,-15.625,-30.76171875,-39.0625,0.0
142.75,-31.73828125,-33.69140625,-20.5078125,-32.2265625,-48.33984375,0.0
142.75390625,-43.45703125,-41.015625,-36.1328125,-45.41015625,-101.07421875,0.0
142.7578125,-42.96875,-42.48046875,-35.15625,-47.8515625,-54.19921875,0.0
142.76171875,-36.1328125,-29.296875,-30.2734375,-34.66796875,-41.50390625,0.0
142.765625,-38.0859375,-28.3203125,-37.109375,-28.80859375,-122.55859375,0.0
142.76953125,-30.2734375,-32.2265625,-33.203125,-27.34375,-143.5546875,0.0
142.7734375,-20.5078125,-23.92578125,-27.34375,-20.5078125,-118.1640625,0.0
142.77734375,-24.4140625,-23.92578125,-33.203125,-22.94921875,-97.16796875,0.0
142.78125,-33.69140625,-31.73828125,-37.109375,-31.25,-69.82421875,0.0
142.78515625,-38.0859375,-34.66796875,-29.78515625,-28.80859375,-54.19921875,0.0
142.7890625,-17.08984375,-20.01953125,-19.53125,-12.6953125,-35.64453125,0.0
142.79296875,-9.27734375,-21.484375,-19.04296875,-14.16015625,-25.87890625,0.0
142.796875,-31.73828125,-40.52734375,-38.57421875,-33.203125,-6.8359375,0.0
142.80078125,-37.109375,-37.59765625,-48.33984375,-30.76171875,-21.484375,0.0
142.8046875,-34.1796875,-30.2734375,-40.0390625,-24.4140625,-58.10546875,0.0
142.80859375,-31.73828125,-27.34375,-32.2265625,-22.94921875,-75.68359375,0.0
142.8125,-22.94921875,-33.203125,-29.78515625,-26.3671875,-31.73828125,0.0
142.81640625,-13.671875,-29.78515625,-25.390625,-24.4140625,28.80859375,0.0
142.8203125,-24.90234375,-32.2265625,-35.64453125,-27.83203125,41.50390625,0.0
142.82421875,-48.828125,-40.0390625,-51.26953125,-38.0859375,45.41015625,0.0
142.828125,-52.734375,-41.50390625,-39.55078125,-44.921875,-6.34765625,0.0
142.83203125,-42.96875,-41.9921875,-28.80859375,-47.8515625,-27.83203125,0.0
142.8359375,-30.2734375,-36.1328125,-24.4140625,-35.15625,-12.6953125,0.0
142.83984375,-30.2734375,-28.80859375,-27.34375,-23.92578125,22.94921875,0.0
142.84375,-33.69140625,-24.90234375,-25.390625,-19.04296875,-16.11328125,0.0
142.84765625,-37.109375,-29.296875,-28.3203125,-22.94921875,-69.3359375,0.0
142.8515625,-30.76171875,-23.4375,-35.15625,-22.94921875,-72.75390625,0.0
142.85546875,-26.85546875,-26.85546875,-40.0390625,-20.01953125,1.46484375,0.0
142.859375,-30.76171875,-35.15625,-42.96875,-16.6015625,17.08984375,0.0
142.86328125,-45.8984375,-41.9921875,-31.73828125,-30.76171875,-62.5,0.0
142.8671875,-62.01171875,-52.734375,-34.1796875,-50.29296875,-19.53125,0.0
142.87109375,-41.50390625,-40.52734375,-28.3203125,-41.015625,4.39453125,0.0
142.875,-27.34375,-28.3203125,-23.4375,-25.87890625,-2.44140625,0.0
142.87890625,-36.1328125,-27.83203125,-28.80859375,-20.99609375,-24.4140625,0.0
142.8828125,-44.921875,-33.203125,-28.3203125,-27.34375,10.7421875,0.0
142.88671875,-29.296875,-25.87890625,-24.4140625,-15.625,-16.6015625,0.0
142.890625,-12.20703125,-16.11328125,-21.484375,-5.859375,-80.56640625,0.0
142.89453125,-22.4609375,-20.01953125,-40.0390625,-21.484375,-70.3125,0.0
142.8984375,-26.3671875,-19.53125,-36.1328125,-25.87890625,-30.2734375,0.0
142.90234375,-20.99609375,-17.08984375,-27.83203125,-15.625,-15.13671875,0.0
142.90625,-39.0625,-28.80859375,-49.31640625,-21.484375,-26.85546875,0.0
142.91015625,-46.38671875,-36.62109375,-48.828125,-33.69140625,-27.34375,0.0
142.9140625,-30.76171875,-29.78515625,-29.78515625,-37.109375,-7.8125,0.0
142.91796875,-30.76171875,-28.3203125,-24.90234375,-41.50390625,-29.296875,0.0
142.921875,-37.109375,-33.203125,-27.83203125,-41.9921875,-30.76171875,0.0
142.92578125,-43.9453125,-33.69140625,-25.390625,-33.203125,25.390625,0.0
142.9296875,-52.734375,-36.62109375,-23.4375,-40.0390625,94.7265625,0.0
142.93359375,-53.22265625,-45.41015625,-30.2734375,-51.7578125,48.828125,0.0
142.9375,-44.921875,-36.62109375,-30.2734375,-40.52734375,-37.59765625,0.0
142.94140625,-45.41015625,-30.76171875,-21.484375,-34.66796875,-53.7109375,0.0
142.9453125,-41.015625,-23.4375,-17.08984375,-24.90234375,-104.98046875,0.0
142.94921875,-38.57421875,-24.4140625,-34.1796875,-29.296875,-57.6171875,0.0
142.953125,-34.1796875,-34.66796875,-46.38671875,-36.1328125,-70.80078125,0.0
142.95703125,-27.34375,-36.62109375,-33.203125,-24.4140625,-68.84765625,0.0
142.9609375,-45.41015625,-41.50390625,-29.296875,-31.73828125,-13.671875,0.0
142.96484375,-57.12890625,-41.50390625,-28.3203125,-40.52734375,-19.53125,0.0
142.96875,-47.8515625,-40.0390625,-27.34375,-36.1328125,-62.5,0.0
142.97265625,-29.296875,-34.1796875,-19.04296875,-25.87890625,-102.05078125,0.0
142.9765625,-32.71484375,-35.64453125,-16.6015625,-26.3671875,-80.56640625,0.0
142.98046875,-45.8984375,-36.62109375,-23.92578125,-32.71484375,-101.5625,0.0
142.984375,-42.96875,-30.2734375,-23.92578125,-26.85546875,-114.2578125,0.0
142.98828125,-28.3203125,-22.94921875,-10.25390625,-15.625,-106.4453125,0.0
142.9921875,-35.64453125,-30.2734375,-14.16015625,-27.34375,-151.3671875,0.0
142.99609375,-36.62109375,-31.73828125,-28.80859375,-28.80859375,-78.125,0.0
143.0,-36.62109375,-34.66796875,-28.3203125,-27.34375,-104.00390625,0.0
143.00390625,-58.59375,-52.24609375,-29.78515625,-43.9453125,-214.35546875,0.0
143.0078125,-52.24609375,-42.48046875,-36.62109375,-37.59765625,-144.53125,0.0
143.01171875,-26.85546875,-30.2734375,-36.1328125,-22.94921875,-108.3984375,0.0
143.015625,-16.11328125,-24.90234375,-19.53125,-15.13671875,-76.171875,0.0
143.01953125,-20.01953125,-20.99609375,0.9765625,-9.27734375,-35.15625,0.0
143.0234375,-31.25,-28.80859375,2.44140625,-14.6484375,-30.2734375,0.0
143.02734375,-38.0859375,-38.57421875,-11.23046875,-27.83203125,-5.859375,0.0
143.03125,-27.34375,-33.203125,-16.6015625,-27.34375,-32.71484375,0.0
143.03515625,-23.4375,-32.71484375,-24.90234375,-24.90234375,-94.23828125,0.0
143.0390625,-34.1796875,-35.64453125,-33.203125,-29.296875,-39.0625,0.0
143.04296875,-41.015625,-39.55078125,-35.15625,-31.73828125,54.19921875,0.0
143.046875,-41.50390625,-34.1796875,-35.64453125,-31.73828125,44.43359375,0.0
143.05078125,-38.57421875,-31.73828125,-31.25,-40.52734375,62.01171875,0.0
143.0546875,-32.71484375,-35.64453125,-25.87890625,-42.96875,35.15625,0.0
143.05859375,-31.73828125,-31.73828125,-28.3203125,-34.1796875,3.90625,0.0
143.0625,-34.66796875,-28.80859375,-24.4140625,-26.85546875,79.58984375,0.0
143.06640625,-41.50390625,-33.69140625,-29.296875,-36.1328125,109.86328125,0.0
143.0703125,-34.66796875,-36.1328125,-36.1328125,-37.109375,88.37890625,0.0
143.07421875,-22.4609375,-30.2734375,-30.76171875,-25.87890625,28.80859375,0.0
143.078125,-23.4375,-28.3203125,-25.390625,-25.87890625,-3.41796875,0.0
143.08203125,-33.203125,-24.90234375,-26.85546875,-22.94921875,-4.8828125,0.0
143.0859375,-51.7578125,-35.15625,-41.015625,-33.203125,-61.03515625,0.0
143.08984375,-51.26953125,-43.45703125,-40.0390625,-39.55078125,-51.7578125,0.0
143.09375,-35.15625,-37.109375,-35.15625,-35.64453125,-47.8515625,0.0
143.09765625,-29.78515625,-27.83203125,-39.0625,-28.80859375,-91.796875,0.0
143.1015625,-25.87890625,-20.01953125,-34.1796875,-22.4609375,-99.12109375,0.0
143.10546875,-18.06640625,-10.7421875,-15.13671875,-9.27734375,-29.78515625,0.0
143.109375,-30.2734375,-16.11328125,-20.5078125,-19.04296875,26.85546875,0.0
143.11328125,-43.9453125,-26.3671875,-31.25,-39.0625,0.48828125,0.0
143.1171875,-35.15625,-25.390625,-19.53125,-29.78515625,-15.625,0.0
143.12109375,-40.0390625,-37.109375,-26.3671875,-34.1796875,-53.22265625,0.0
143.125,-42.48046875,-35.15625,-34.66796875,-36.62109375,-85.44921875,0.0
143.12890625,-38.57421875,-29.296875,-37.59765625,-32.2265625,-25.390625,0.0
143.1328125,-34.1796875,-31.73828125,-27.34375,-32.71484375,-58.59375,0.0
143.13671875,-20.99609375,-23.4375,-9.27734375,-26.85546875,-75.68359375,0.0
143.140625,-29.296875,-30.2734375,-26.3671875,-26.85546875,-23.4375,0.0
143.14453125,-38.0859375,-37.109375,-31.73828125,-27.34375,-46.875,0.0
143.1484375,-34.66796875,-29.296875,-17.578125,-27.83203125,-43.9453125,0.0
143.15234375,-32.2265625,-24.90234375,-16.11328125,-33.203125,0.48828125,0.0
143.15625,-31.73828125,-22.4609375,-24.4140625,-36.62109375,-8.7890625,0.0
143.16015625,-30.2734375,-23.4375,-26.85546875,-33.69140625,-69.3359375,0.0
143.1640625,-47.36328125,-37.109375,-27.83203125,-44.43359375,-69.82421875,0.0
143.16796875,-57.12890625,-41.015625,-35.15625,-49.8046875,-93.26171875,0.0
143.171875,-40.0390625,-29.296875,-34.1796875,-40.52734375,-33.203125,0.0
143.17578125,-30.76171875,-22.94921875,-25.390625,-32.2265625,3.41796875,0.0
143.1796875,-36.62109375,-26.85546875,-29.296875,-36.62109375,-51.26953125,0.0
143.18359375,-43.45703125,-29.296875,-40.52734375,-42.48046875,11.71875,0.0
143.1875,-37.59765625,-30.2734375,-44.43359375,-40.0390625,4.39453125,0.0
143.19140625,-31.73828125,-29.78515625,-32.2265625,-37.109375,-34.66796875,0.0
143.1953125,-21.484375,-17.08984375,-21.484375,-30.2734375,36.62109375,0.0
143.19921875,-29.296875,-22.4609375,-25.87890625,-37.109375,33.69140625,0.0
143.203125,-37.109375,-31.73828125,-31.73828125,-41.50390625,0.9765625,0.0
143.20703125,-34.1796875,-34.1796875,-34.1796875,-38.57421875,34.66796875,0.0
143.2109375,-31.25,-38.0859375,-28.80859375,-33.69140625,-16.11328125,0.0
143.21484375,-12.6953125,-21.97265625,-15.625,-19.53125,-110.3515625,0.0
143.21875,-18.06640625,-20.99609375,-26.3671875,-23.92578125,-106.4453125,0.0
143.22265625,-41.50390625,-34.1796875,-49.31640625,-33.69140625,-66.89453125,0.0
143.2265625,-51.26953125,-33.203125,-39.0625,-43.45703125,-123.53515625,0.0
143.23046875,-45.8984375,-35.15625,-32.71484375,-45.8984375,-49.8046875,0.0
143.234375,-29.78515625,-33.69140625,-36.62109375,-35.15625,71.2890625,0.0
143.23828125,-26.85546875,-33.203125,-34.66796875,-28.3203125,54.6875,0.0
143.2421875,-37.59765625,-34.66796875,-43.45703125,-27.34375,15.13671875,0.0
143.24609375,-36.62109375,-31.25,-35.15625,-21.484375,-7.32421875,0.0
143.25,-32.71484375,-30.76171875,-24.90234375,-26.85546875,-19.53125,0.0
143.25390625,-31.73828125,-25.87890625,-31.25,-33.203125,-30.76171875,0.0
143.2578125,-31.25,-22.4609375,-39.0625,-34.1796875,78.61328125,0.0
143.26171875,-46.38671875,-32.71484375,-45.41015625,-40.52734375,79.58984375,0.0
143.265625,-43.45703125,-34.1796875,-26.85546875,-33.69140625,-44.921875,0.0
143.26953125,-32.2265625,-30.76171875,-23.4375,-27.83203125,-61.03515625,0.0
143.2734375,-28.80859375,-30.2734375,-32.2265625,-30.76171875,-2.44140625,0.0
143.27734375,-31.73828125,-30.2734375,-31.73828125,-36.62109375,-2.44140625,0.0
143.28125,-36.1328125,-28.3203125,-30.76171875,-30.2734375,-20.5078125,0.0
143.28515625,-33.69140625,-34.1796875,-26.85546875,-21.484375,-23.4375,0.0
143.2890625,-43.9453125,-48.33984375,-41.50390625,-36.62109375,-30.76171875,0.0
143.29296875,-35.15625,-37.59765625,-42.48046875,-34.1796875,-51.7578125,0.0
143.296875,-31.73828125,-31.73828125,-42.96875,-35.15625,-46.38671875,0.0
143.30078125,-34.66796875,-35.64453125,-46.38671875,-36.62109375,-99.12109375,0.0
143.3046875,-31.25,-36.1328125,-37.109375,-29.78515625,-122.55859375,0.0
143.30859375,-35.15625,-38.57421875,-33.203125,-34.66796875,-99.12109375,0.0
143.3125,-20.5078125,-32.71484375,-20.99609375,-29.78515625,-80.078125,0.0
143.31640625,-9.27734375,-28.3203125,-14.16015625,-18.06640625,-92.28515625,0.0
143.3203125,-19.04296875,-27.34375,-24.90234375,-18.5546875,-42.48046875,0.0
143.32421875,-28.3203125,-23.92578125,-37.109375,-15.13671875,-21.484375,0.0
143.328125,-23.4375,-22.94921875,-30.2734375,-6.34765625,-132.8125,0.0
143.33203125,-17.578125,-29.296875,-21.484375,-15.13671875,-96.19140625,0.0
143.3359375,-19.53125,-36.1328125,-29.78515625,-28.80859375,-72.75390625,0.0
143.33984375,-29.78515625,-42.48046875,-34.1796875,-31.73828125,-87.890625,0.0
143.34375,-45.41015625,-50.29296875,-34.66796875,-37.109375,-100.5859375,0.0
143.34765625,-36.1328125,-39.55078125,-23.4375,-38.57421875,-116.69921875,0.0
143.3515625,-12.6953125,-24.90234375,-14.16015625,-24.90234375,-67.3828125,0.0
143.35546875,-4.39453125,-21.484375,-12.20703125,-9.765625,-29.78515625,0.0
143.359375,-30.2734375,-38.57421875,-27.83203125,-29.296875,-53.22265625,0.0
143.36328125,-53.7109375,-49.31640625,-44.43359375,-42.48046875,-96.19140625,0.0
143.3671875,-40.0390625,-39.0625,-39.55078125,-26.85546875,-73.73046875,0.0
143.37109375,-25.390625,-29.78515625,-41.9921875,-28.3203125,-27.83203125,0.0
143.375,-21.484375,-27.34375,-44.43359375,-27.34375,27.34375,0.0
143.37890625,-30.2734375,-35.15625,-25.390625,-29.296875,113.76953125,0.0
143.3828125,-40.0390625,-40.52734375,-20.5078125,-30.76171875,12.20703125,0.0
143.38671875,-38.57421875,-36.62109375,-24.90234375,-30.2734375,-87.890625,0.0
143.390625,-39.55078125,-35.15625,-33.203125,-39.55078125,-60.546875,0.0
143.39453125,-22.4609375,-32.2265625,-24.90234375,-30.2734375,-24.4140625,0.0
143.3984375,-10.7421875,-25.390625,-12.6953125,-13.671875,-65.4296875,0.0
143.40234375,-40.0390625,-39.55078125,-30.76171875,-35.15625,-75.68359375,0.0
143.40625,-45.41015625,-42.96875,-34.1796875,-48.828125,-8.30078125,0.0
143.41015625,-29.296875,-31.25,-37.59765625,-40.52734375,-3.41796875,0.0
143.4140625,-30.76171875,-29.296875,-47.36328125,-48.828125,-23.92578125,0.0
143.41796875,-31.73828125,-28.3203125,-41.50390625,-42.48046875,-30.76171875,0.0
143.421875,-37.59765625,-35.15625,-41.50390625,-40.0390625,0.9765625,0.0
143.42578125,-36.62109375,-38.0859375,-31.73828125,-40.0390625,1.953125,0.0
143.4296875,-10.7421875,-28.80859375,-23.92578125,-24.90234375,-0.9765625,0.0
143.43359375,-0.48828125,-20.01953125,-29.296875,-21.484375,-54.6875,0.0
143.4375,-20.5078125,-29.296875,-40.52734375,-33.69140625,-91.796875,0.0
143.44140625,-29.78515625,-31.73828125,-30.2734375,-33.203125,6.34765625,0.0
143.4453125,-18.5546875,-16.6015625,-7.8125,-17.08984375,57.6171875,0.0
143.44921875,-14.16015625,-17.578125,-5.37109375,-11.23046875,-40.52734375,0.0
143.453125,-30.76171875,-39.55078125,-28.80859375,-28.80859375,-32.2265625,0.0
143.45703125,-26.3671875,-34.66796875,-37.109375,-25.390625,53.7109375,0.0
143.4609375,-12.6953125,-16.11328125,-31.25,-5.859375,81.54296875,0.0
143.46484375,-25.390625,-21.484375,-27.34375,-14.6484375,67.87109375,0.0
143.46875,-24.90234375,-27.83203125,-22.4609375,-19.53125,-7.32421875,0.0
143.47265625,-23.92578125,-30.76171875,-21.97265625,-17.578125,-41.9921875,0.0
143.4765625,-29.296875,-33.203125,-20.99609375,-21.97265625,-98.6328125,0.0
143.48046875,-31.25,-31.25,-20.99609375,-18.06640625,-115.234375,0.0
143.484375,-37.59765625,-29.78515625,-23.4375,-20.5078125,-87.890625,0.0
143.48828125,-26.85546875,-20.99609375,-32.2265625,-20.01953125,-72.75390625,0.0
143.4921875,-18.06640625,-23.92578125,-35.15625,-20.5078125,-171.875,0.0
143.49609375,-19.04296875,-27.83203125,-24.4140625,-24.4140625,-226.5625,0.0
143.5,-34.1796875,-31.25,-28.3203125,-32.71484375,-108.88671875,0.0
143.50390625,-42.96875,-34.1796875,-32.71484375,-41.9921875,-42.48046875,0.0
143.5078125,-42.96875,-31.73828125,-24.4140625,-42.48046875,-50.78125,0.0
143.51171875,-41.50390625,-30.2734375,-23.4375,-36.62109375,-41.015625,0.0
143.515625,-33.203125,-26.85546875,-25.87890625,-29.78515625,19.04296875,0.0
143.51953125,-36.62109375,-29.296875,-27.83203125,-30.2734375,8.7890625,0.0
143.5234375,-48.33984375,-38.57421875,-34.66796875,-35.15625,-106.93359375,0.0
143.52734375,-35.64453125,-33.203125,-31.73828125,-30.76171875,-188.96484375,0.0
143.53125,-16.11328125,-18.5546875,-22.94921875,-25.87890625,-21.484375,0.0
143.53515625,-22.4609375,-28.3203125,-34.1796875,-34.66796875,121.58203125,0.0
143.5390625,-33.69140625,-29.296875,-40.0390625,-38.57421875,66.89453125,0.0
143.54296875,-43.45703125,-26.85546875,-41.9921875,-39.55078125,-22.94921875,0.0
143.546875,-45.41015625,-31.25,-30.2734375,-40.0390625,-13.671875,0.0
143.55078125,-45.41015625,-37.109375,-22.4609375,-41.50390625,22.94921875,0.0
143.5546875,-44.43359375,-41.50390625,-30.76171875,-48.33984375,-23.4375,0.0
143.55859375,-39.0625,-36.62109375,-30.2734375,-39.55078125,-5.37109375,0.0
143.5625,-42.96875,-36.1328125,-36.62109375,-33.69140625,6.8359375,0.0
143.56640625,-29.78515625,-24.90234375,-20.01953125,-21.97265625,-73.2421875,0.0
143.5703125,-15.625,-18.06640625,-6.34765625,-9.27734375,-26.85546875,0.0
143.57421875,-21.484375,-27.34375,-15.625,-20.5078125,58.59375,0.0
143.578125,-25.390625,-26.3671875,-28.80859375,-31.25,59.08203125,0.0
143.58203125,-30.76171875,-26.85546875,-43.9453125,-38.57421875,20.99609375,0.0
143.5859375,-34.1796875,-32.2265625,-43.9453125,-34.66796875,7.32421875,0.0
143.58984375,-17.08984375,-21.97265625,-24.90234375,-20.01953125,-16.11328125,0.0
143.59375,-18.06640625,-27.34375,-27.34375,-25.87890625,-13.18359375,0.0
143.59765625,-36.1328125,-37.59765625,-39.55078125,-37.109375,-25.87890625,0.0
143.6015625,-38.0859375,-33.203125,-26.3671875,-29.78515625,-112.79296875,0.0
143.60546875,-35.15625,-32.2265625,-17.08984375,-23.92578125,-139.6484375,0.0
143.609375,-35.15625,-29.78515625,-31.73828125,-27.34375,-179.19921875,0.0
143.61328125,-25.390625,-25.390625,-36.1328125,-27.83203125,-161.62109375,0.0
143.6171875,-15.13671875,-25.87890625,-28.3203125,-26.3671875,-70.3125,0.0
143.62109375,-26.3671875,-35.15625,-21.484375,-32.71484375,-6.34765625,0.0
143.625,-44.43359375,-41.9921875,-27.34375,-42.48046875,17.578125,0.0
143.62890625,-29.78515625,-29.78515625,-27.34375,-28.3203125,-60.546875,0.0
143.6328125,-11.71875,-24.4140625,-10.7421875,-9.765625,-30.2734375,0.0
143.63671875,-17.578125,-27.34375,-19.04296875,-13.18359375,129.8828125,0.0
143.640625,-23.4375,-29.296875,-18.5546875,-12.6953125,108.88671875,0.0
143.64453125,-39.55078125,-40.52734375,-20.01953125,-28.80859375,-22.4609375,0.0
143.6484375,-38.57421875,-37.59765625,-31.25,-35.64453125,-104.98046875,0.0
143.65234375,-22.4609375,-27.83203125,-31.25,-22.4609375,-71.77734375,0.0
143.65625,-22.94921875,-32.2265625,-32.2265625,-26.85546875,-2.44140625,0.0
143.66015625,-38.57421875,-49.8046875,-40.52734375,-40.0390625,23.4375,0.0
143.6640625,-48.33984375,-51.7578125,-40.52734375,-33.69140625,58.59375,0.0
143.66796875,-42.48046875,-46.38671875,-34.66796875,-26.85546875,13.671875,0.0
143.671875,-24.4140625,-40.0390625,-29.296875,-20.01953125,-31.25,0.0
143.67578125,-23.4375,-35.15625,-36.1328125,-20.01953125,-27.83203125,0.0
143.6796875,-27.83203125,-32.71484375,-39.0625,-19.04296875,-57.12890625,0.0
143.68359375,-34.1796875,-37.59765625,-30.76171875,-15.13671875,-53.7109375,0.0
143.6875,-41.9921875,-41.015625,-21.97265625,-24.4140625,-43.9453125,0.0
143.69140625,-32.2265625,-34.66796875,-23.4375,-26.3671875,-91.796875,0.0
143.6953125,-21.484375,-29.296875,-21.97265625,-22.4609375,-36.62109375,0.0
143.69921875,-32.71484375,-32.2265625,-24.90234375,-24.4140625,3.41796875,0.0
143.703125,-45.41015625,-42.96875,-32.71484375,-33.69140625,-77.63671875,0.0
143.70703125,-38.0859375,-45.8984375,-34.1796875,-38.57421875,-75.68359375,0.0
143.7109375,-31.73828125,-40.0390625,-38.0859375,-37.109375,53.7109375,0.0
143.71484375,-28.80859375,-38.0859375,-36.1328125,-32.71484375,89.84375,0.0
143.71875,-27.34375,-33.203125,-36.1328125,-29.78515625,0.9765625,0.0
143.72265625,-33.69140625,-35.15625,-33.69140625,-25.390625,-27.34375,0.0
143.7265625,-29.78515625,-32.71484375,-26.85546875,-17.578125,-20.01953125,0.0
143.73046875,-25.390625,-23.92578125,-32.2265625,-22.4609375,-99.12109375,0.0
143.734375,-31.25,-38.57421875,-41.015625,-40.0390625,-128.41796875,0.0
143.73828125,-28.80859375,-41.015625,-28.80859375,-40.0390625,-87.40234375,0.0
143.7421875,-30.2734375,-28.3203125,-12.6953125,-33.69140625,-99.12109375,0.0
143.74609375,-46.875,-32.71484375,-23.4375,-40.52734375,-101.07421875,0.0
143.75,-37.59765625,-38.57421875,-30.2734375,-37.59765625,-60.05859375,0.0
143.75390625,-29.296875,-34.66796875,-24.90234375,-36.62109375,-63.4765625,0.0
143.7578125,-35.64453125,-32.2265625,-24.90234375,-39.0625,2.44140625,0.0
143.76171875,-34.66796875,-36.62109375,-33.203125,-32.2265625,16.6015625,0.0
143.765625,-38.57421875,-41.50390625,-36.1328125,-37.59765625,-28.3203125,0.0
143.76953125,-34.66796875,-33.203125,-28.80859375,-40.0390625,37.109375,0.0
143.7734375,-18.06640625,-16.11328125,-24.90234375,-23.92578125,15.625,0.0
143.77734375,-18.5546875,-21.484375,-25.390625,-22.94921875,-4.39453125,0.0
143.78125,-41.9921875,-45.41015625,-34.66796875,-41.50390625,-52.734375,0.0
143.78515625,-48.33984375,-38.57421875,-36.1328125,-38.57421875,-60.546875,0.0
143.7890625,-39.0625,-27.83203125,-37.59765625,-34.1796875,-40.0390625,0.0
143.79296875,-35.64453125,-40.0390625,-23.92578125,-38.0859375,1.46484375,0.0
143.796875,-34.1796875,-40.52734375,-8.30078125,-35.64453125,-7.32421875,0.0
143.80078125,-43.9453125,-41.9921875,-30.2734375,-46.875,-81.54296875,0.0
143.8046875,-39.55078125,-41.50390625,-35.15625,-43.9453125,-148.4375,0.0
143.80859375,-24.90234375,-31.73828125,-20.01953125,-31.25,-129.8828125,0.0
143.8125,-18.06640625,-27.34375,-17.578125,-23.4375,-39.0625,0.0
143.81640625,-32.2265625,-40.52734375,-41.9921875,-32.2265625,-17.578125,0.0
143.8203125,-48.33984375,-47.36328125,-56.15234375,-44.43359375,-30.2734375,0.0
143.82421875,-51.7578125,-42.96875,-45.41015625,-49.8046875,-29.78515625,0.0
143.828125,-31.73828125,-30.2734375,-24.90234375,-35.15625,-75.68359375,0.0
143.83203125,-14.16015625,-20.01953125,-17.08984375,-23.92578125,-38.57421875,0.0
143.8359375,-27.34375,-31.73828125,-31.25,-39.0625,4.39453125,0.0
143.83984375,-34.1796875,-43.45703125,-31.73828125,-42.48046875,-21.97265625,0.0
143.84375,-39.0625,-48.828125,-39.0625,-41.015625,-28.80859375,0.0
143.84765625,-41.015625,-45.41015625,-48.33984375,-41.9921875,-73.73046875,0.0
143.8515625,-32.71484375,-37.59765625,-36.62109375,-43.45703125,-43.45703125,0.0
143.85546875,-24.90234375,-29.78515625,-25.87890625,-36.62109375,17.08984375,0.0
143.859375,-32.2265625,-31.25,-27.34375,-29.296875,-67.87109375,0.0
143.86328125,-45.41015625,-40.0390625,-33.69140625,-35.64453125,-105.95703125,0.0
143.8671875,-42.48046875,-41.9921875,-31.73828125,-30.76171875,-100.5859375,0.0
143.87109375,-23.4375,-24.4140625,-23.4375,-11.71875,-106.93359375,0.0
143.875,-20.99609375,-25.390625,-19.04296875,-17.578125,-51.26953125,0.0
143.87890625,-39.55078125,-43.45703125,-30.76171875,-37.109375,-29.78515625,0.0
143.8828125,-34.66796875,-31.73828125,-32.71484375,-34.1796875,-90.8203125,0.0
143.88671875,-29.78515625,-30.76171875,-28.80859375,-31.25,-19.04296875,0.0
143.890625,-40.52734375,-41.50390625,-45.8984375,-41.50390625,38.57421875,0.0
143.89453125,-42.48046875,-40.52734375,-49.8046875,-47.8515625,-0.48828125,0.0
143.8984375,-30.76171875,-31.25,-36.62109375,-38.57421875,-20.5078125,0.0
143.90234375,-29.296875,-18.5546875,-24.90234375,-23.92578125,0.9765625,0.0
143.90625,-48.828125,-25.390625,-20.5078125,-31.73828125,-60.05859375,0.0
143.91015625,-49.8046875,-37.59765625,-26.3671875,-39.0625,-70.3125,0.0
143.9140625,-35.64453125,-35.15625,-31.73828125,-30.76171875,0.9765625,0.0
143.91796875,-38.0859375,-32.71484375,-38.0859375,-29.78515625,25.87890625,0.0
143.921875,-35.64453125,-25.390625,-34.1796875,-28.3203125,-90.33203125,0.0
143.92578125,-23.4375,-16.6015625,-18.5546875,-18.06640625,-178.22265625,0.0
143.9296875,-22.94921875,-18.5546875,-26.3671875,-20.99609375,-145.99609375,0.0
143.93359375,-32.2265625,-30.76171875,-44.921875,-30.76171875,-143.06640625,0.0
143.9375,-36.62109375,-40.0390625,-44.921875,-36.62109375,-98.14453125,0.0
143.94140625,-35.64453125,-36.62109375,-37.59765625,-33.69140625,-52.24609375,0.0
143.9453125,-36.62109375,-37.109375,-32.2265625,-31.25,-28.3203125,0.0
143.94921875,-27.34375,-34.66796875,-23.92578125,-33.69140625,-1.953125,0.0
143.953125,-21.97265625,-35.15625,-26.3671875,-39.0625,73.2421875,0.0
143.95703125,-28.80859375,-35.64453125,-30.2734375,-36.1328125,83.49609375,0.0
143.9609375,-35.64453125,-28.3203125,-31.25,-32.2265625,58.59375,0.0
143.96484375,-42.96875,-37.59765625,-41.50390625,-36.62109375,17.578125,0.0
143.96875,-45.41015625,-41.015625,-39.55078125,-33.203125,-17.578125,0.0
143.97265625,-39.0625,-33.203125,-26.85546875,-34.1796875,-25.390625,0.0
143.9765625,-34.66796875,-33.69140625,-20.01953125,-35.15625,-21.484375,0.0
143.98046875,-34.1796875,-36.1328125,-27.34375,-24.90234375,20.99609375,0.0
143.984375,-42.48046875,-40.0390625,-39.55078125,-27.34375,47.36328125,0.0
143.98828125,-39.0625,-38.0859375,-29.78515625,-26.85546875,-50.78125,0.0
143.9921875,-21.484375,-30.2734375,-7.8125,-22.4609375,-45.41015625,0.0
143.99609375,-23.4375,-32.2265625,-14.16015625,-25.87890625,30.76171875,0.0
144.0,-27.34375,-34.1796875,-27.83203125,-22.4609375,-75.1953125,0.0
144.00390625,-33.69140625,-35.15625,-29.78515625,-19.04296875,-128.90625,0.0
144.0078125,-39.0625,-41.015625,-28.3203125,-23.92578125,-73.2421875,0.0
144.01171875,-26.85546875,-38.0859375,-30.2734375,-28.80859375,-64.94140625,0.0
144.015625,-22.4609375,-30.76171875,-28.3203125,-29.296875,-43.45703125,0.0
144.01953125,-23.92578125,-19.53125,-18.06640625,-22.94921875,-8.30078125,0.0
144.0234375,-25.87890625,-19.53125,-24.4140625,-20.01953125,12.20703125,0.0
144.02734375,-27.34375,-30.76171875,-41.50390625,-26.85546875,67.87109375,0.0
144.03125,-34.1796875,-34.66796875,-38.0859375,-35.64453125,0.48828125,0.0
144.03515625,-34.66796875,-37.109375,-29.296875,-39.0625,-49.8046875,0.0
144.0390625,-33.69140625,-39.0625,-37.109375,-41.015625,16.6015625,0.0
144.04296875,-42.96875,-37.109375,-44.921875,-43.45703125,-7.32421875,0.0
144.046875,-39.55078125,-25.87890625,-34.1796875,-35.64453125,-35.64453125,0.0
144.05078125,-31.25,-23.92578125,-31.73828125,-34.66796875,-71.2890625,0.0
144.0546875,-29.78515625,-32.2265625,-36.62109375,-39.0625,-141.11328125,0.0
144.05859375,-30.76171875,-36.1328125,-37.109375,-41.015625,-35.15625,0.0
144.0625,-32.2265625,-38.57421875,-41.9921875,-36.1328125,-28.3203125,0.0
144.06640625,-20.01953125,-23.92578125,-23.4375,-18.06640625,-116.2109375,0.0
144.0703125,-26.3671875,-20.01953125,-16.11328125,-22.4609375,-87.40234375,0.0
144.07421875,-36.1328125,-33.203125,-28.3203125,-33.203125,-40.52734375,0.0
144.078125,-19.53125,-34.1796875,-29.296875,-18.06640625,-79.1015625,0.0
144.08203125,-32.71484375,-39.0625,-36.62109375,-20.5078125,-167.48046875,0.0
144.0859375,-47.8515625,-46.38671875,-41.015625,-33.69140625,-175.78125,0.0
144.08984375,-35.15625,-40.0390625,-33.203125,-23.4375,-57.6171875,0.0
144.09375,-28.80859375,-37.59765625,-30.2734375,-23.92578125,1.953125,0.0
144.09765625,-39.0625,-41.015625,-26.85546875,-27.83203125,-41.50390625,0.0
144.1015625,-38.57421875,-28.3203125,-22.94921875,-9.765625,5.859375,0.0
144.10546875,-37.109375,-26.3671875,-31.73828125,-7.32421875,56.640625,0.0
144.109375,-37.59765625,-32.2265625,-27.83203125,-16.6015625,21.97265625,0.0
144.11328125,-24.90234375,-19.53125,-26.85546875,-9.765625,-62.98828125,0.0
144.1171875,-30.2734375,-21.484375,-34.66796875,-22.94921875,-103.02734375,0.0
144.12109375,-39.0625,-45.8984375,-30.2734375,-38.57421875,-113.76953125,0.0
144.125,-42.96875,-57.12890625,-21.484375,-35.64453125,-152.34375,0.0
144.12890625,-45.8984375,-45.8984375,-18.06640625,-29.296875,-57.12890625,0.0
144.1328125,-36.62109375,-30.76171875,-25.87890625,-26.85546875,3.41796875,0.0
144.13671875,-38.0859375,-34.66796875,-27.34375,-26.85546875,-26.85546875,0.0
144.140625,-47.36328125,-42.96875,-31.25,-36.62109375,0.48828125,0.0
144.14453125,-41.50390625,-36.62109375,-28.3203125,-32.2265625,17.08984375,0.0
144.1484375,-34.1796875,-30.2734375,-17.578125,-22.94921875,63.96484375,0.0
144.15234375,-31.25,-32.2265625,-39.55078125,-34.66796875,39.55078125,0.0
144.15625,-19.53125,-25.390625,-40.0390625,-27.34375,-65.4296875,0.0
144.16015625,-17.08984375,-21.97265625,-13.18359375,-12.20703125,-69.3359375,0.0
144.1640625,-38.0859375,-31.25,-20.99609375,-25.87890625,-65.91796875,0.0
144.16796875,-45.8984375,-39.55078125,-27.34375,-38.0859375,-37.109375,0.0
144.171875,-35.64453125,-41.50390625,-27.34375,-36.62109375,-95.21484375,0.0
144.17578125,-33.69140625,-43.45703125,-33.203125,-36.1328125,-146.484375,0.0
144.1796875,-38.0859375,-41.50390625,-30.2734375,-34.66796875,-80.56640625,0.0
144.18359375,-41.50390625,-36.62109375,-32.2265625,-38.0859375,-56.15234375,0.0
144.1875,-43.9453125,-36.62109375,-28.80859375,-39.0625,-60.05859375,0.0
144.19140625,-25.390625,-29.78515625,-17.578125,-25.87890625,-7.8125,0.0
144.1953125,-12.20703125,-21.484375,-13.18359375,-17.08984375,-7.32421875,0.0
144.19921875,-30.2734375,-29.78515625,-33.203125,-25.390625,-42.48046875,0.0
144.203125,-34.1796875,-29.296875,-43.45703125,-24.90234375,-40.0390625,0.0
144.20703125,-39.55078125,-29.296875,-29.78515625,-30.76171875,-69.3359375,0.0
144.2109375,-48.33984375,-41.50390625,-31.25,-42.96875,-35.64453125,0.0
144.21484375,-35.15625,-44.43359375,-34.66796875,-37.59765625,34.1796875,0.0
144.21875,-37.109375,-43.9453125,-34.66796875,-39.0625,32.2265625,0.0
144.22265625,-46.875,-42.96875,-32.2265625,-35.64453125,38.57421875,0.0
144.2265625,-41.50390625,-42.96875,-31.73828125,-30.2734375,-0.9765625,0.0
144.23046875,-31.73828125,-41.50390625,-29.296875,-29.78515625,-109.375,0.0
144.234375,-27.83203125,-32.2265625,-25.390625,-29.296875,-43.45703125,0.0
144.23828125,-24.4140625,-22.4609375,-19.53125,-23.92578125,-3.41796875,0.0
144.2421875,-27.34375,-25.87890625,-13.671875,-22.4609375,-23.92578125,0.0
144.24609375,-36.62109375,-33.203125,-23.4375,-32.71484375,27.83203125,0.0
144.25,-31.73828125,-31.73828125,-25.87890625,-34.66796875,60.05859375,0.0
144.25390625,-21.484375,-29.296875,-20.99609375,-25.87890625,55.6640625,0.0
144.2578125,-38.0859375,-36.62109375,-32.2265625,-34.66796875,18.5546875,0.0
144.26171875,-52.734375,-41.015625,-40.52734375,-38.57421875,-23.92578125,0.0
144.265625,-47.8515625,-36.62109375,-36.1328125,-30.2734375,-69.82421875,0.0
144.26953125,-36.1328125,-32.71484375,-26.3671875,-30.76171875,-55.17578125,0.0
144.2734375,-30.76171875,-31.73828125,-26.85546875,-35.15625,-60.05859375,0.0
144.27734375,-35.64453125,-30.76171875,-29.296875,-37.109375,-95.703125,0.0
144.28125,-37.59765625,-33.203125,-27.34375,-36.1328125,-89.84375,0.0
144.28515625,-34.66796875,-32.2265625,-23.4375,-30.2734375,-67.3828125,0.0
144.2890625,-23.92578125,-21.97265625,-15.13671875,-19.53125,-62.98828125,0.0
144.29296875,-36.1328125,-34.66796875,-35.15625,-35.64453125,-52.24609375,0.0
144.296875,-46.38671875,-45.8984375,-59.08203125,-49.8046875,10.25390625,0.0
144.30078125,-44.43359375,-41.50390625,-49.31640625,-42.48046875,-22.4609375,0.0
144.3046875,-44.921875,-38.0859375,-41.015625,-39.0625,-66.40625,0.0
144.30859375,-41.015625,-35.64453125,-51.26953125,-42.96875,-30.76171875,0.0
144.3125,-29.296875,-32.71484375,-38.0859375,-38.0859375,18.5546875,0.0
144.31640625,-25.390625,-33.203125,-26.3671875,-29.296875,39.55078125,0.0
144.3203125,-30.2734375,-37.109375,-32.71484375,-39.0625,52.24609375,0.0
144.32421875,-38.0859375,-39.55078125,-33.203125,-42.96875,19.53125,0.0
144.328125,-44.43359375,-32.71484375,-31.73828125,-38.57421875,-42.48046875,0.0
144.33203125,-34.66796875,-20.5078125,-30.76171875,-31.73828125,4.8828125,0.0
144.3359375,-22.94921875,-15.625,-27.34375,-22.4609375,-2.9296875,0.0
144.33984375,-27.34375,-28.80859375,-36.1328125,-30.76171875,-55.6640625,0.0
144.34375,-38.0859375,-39.0625,-45.41015625,-34.1796875,-109.86328125,0.0
144.34765625,-28.80859375,-30.2734375,-33.69140625,-27.83203125,-141.11328125,0.0
144.3515625,-33.69140625,-29.78515625,-24.4140625,-41.015625,-81.54296875,0.0
144.35546875,-39.0625,-38.0859375,-33.203125,-52.734375,-54.6875,0.0
144.359375,-44.921875,-44.921875,-49.8046875,-51.26953125,-107.421875,0.0
144.36328125,-48.828125,-48.33984375,-45.41015625,-47.36328125,-215.8203125,0.0
144.3671875,-40.52734375,-44.43359375,-25.87890625,-42.48046875,-221.19140625,0.0
144.37109375,-31.73828125,-39.55078125,-26.3671875,-40.52734375,-59.5703125,0.0
144.375,-20.5078125,-30.76171875,-30.2734375,-35.64453125,57.6171875,0.0
144.37890625,-12.6953125,-15.13671875,-14.6484375,-16.6015625,66.89453125,0.0
144.3828125,-24.90234375,-23.92578125,-24.90234375,-23.92578125,5.859375,0.0
144.38671875,-35.15625,-38.57421875,-44.43359375,-42.48046875,-89.84375,0.0
144.390625,-23.4375,-31.73828125,-27.34375,-40.0390625,-98.14453125,0.0
144.39453125,-16.11328125,-24.90234375,-16.11328125,-34.1796875,-155.76171875,0.0
144.3984375,-28.80859375,-28.3203125,-31.25,-31.73828125,-164.0625,0.0
144.40234375,-37.59765625,-35.15625,-35.15625,-30.2734375,-99.609375,0.0
144.40625,-33.69140625,-35.15625,-27.83203125,-24.4140625,-51.26953125,0.0
144.41015625,-32.71484375,-39.0625,-36.1328125,-35.64453125,-74.70703125,0.0
144.4140625,-15.625,-29.296875,-38.0859375,-31.25,-57.6171875,0.0
144.41796875,-10.25390625,-19.04296875,-39.0625,-19.53125,45.41015625,0.0
144.421875,-28.3203125,-25.87890625,-33.69140625,-25.390625,-47.36328125,0.0
144.42578125,-36.62109375,-25.390625,-35.64453125,-24.90234375,-159.66796875,0.0
144.4296875,-32.2265625,-22.4609375,-51.26953125,-32.2265625,-48.33984375,0.0
144.43359375,-24.90234375,-25.390625,-40.0390625,-38.57421875,1.953125,0.0
144.4375,-27.83203125,-31.25,-23.92578125,-37.59765625,-35.64453125,0.0
144.44140625,-30.76171875,-30.2734375,-19.53125,-26.85546875,-48.33984375,0.0
144.4453125,-36.62109375,-33.203125,-26.3671875,-32.2265625,25.390625,0.0
144.44921875,-38.57421875,-32.71484375,-34.66796875,-41.50390625,124.0234375,0.0
144.453125,-21.97265625,-25.390625,-24.4140625,-27.34375,61.03515625,0.0
144.45703125,-16.11328125,-22.4609375,-23.4375,-29.296875,-29.296875,0.0
144.4609375,-22.4609375,-20.01953125,-29.296875,-26.3671875,-4.39453125,0.0
144.46484375,-29.296875,-29.78515625,-30.2734375,-23.92578125,12.6953125,0.0
144.46875,-31.73828125,-39.0625,-34.66796875,-29.78515625,25.390625,0.0
144.47265625,-37.59765625,-41.50390625,-41.50390625,-37.109375,77.63671875,0.0
144.4765625,-34.1796875,-35.64453125,-44.921875,-37.59765625,66.40625,0.0
144.48046875,-30.76171875,-32.71484375,-34.66796875,-28.3203125,-69.82421875,0.0
144.484375,-37.109375,-35.15625,-27.83203125,-23.4375,-100.09765625,0.0
144.48828125,-19.53125,-28.3203125,-22.94921875,-15.13671875,-19.53125,0.0
144.4921875,-5.37109375,-18.06640625,-18.06640625,-15.13671875,-76.66015625,0.0
144.49609375,-11.23046875,-19.53125,-25.87890625,-18.5546875,-56.15234375,0.0
144.5,-24.4140625,-33.69140625,-36.1328125,-26.3671875,10.7421875,0.0
144.50390625,-34.66796875,-38.0859375,-44.43359375,-36.62109375,4.39453125,0.0
144.5078125,-25.87890625,-31.25,-33.69140625,-28.3203125,13.18359375,0.0
144.51171875,-19.53125,-26.85546875,-18.5546875,-17.08984375,-21.484375,0.0
144.515625,-17.578125,-25.87890625,-15.625,-17.578125,-13.18359375,0.0
144.51953125,-18.5546875,-21.97265625,-23.92578125,-20.5078125,-48.33984375,0.0
144.5234375,-30.76171875,-23.4375,-43.45703125,-20.01953125,-175.29296875,0.0
144.52734375,-34.1796875,-33.203125,-33.69140625,-23.4375,-208.0078125,0.0
144.53125,-31.73828125,-34.1796875,-12.20703125,-34.66796875,-122.55859375,0.0
144.53515625,-27.34375,-28.3203125,-11.71875,-28.80859375,-13.671875,0.0
144.5390625,-24.90234375,-29.78515625,-19.53125,-20.99609375,18.5546875,0.0
144.54296875,-23.4375,-24.90234375,-14.6484375,-14.16015625,-6.8359375,0.0
144.546875,-26.3671875,-28.80859375,-12.6953125,-15.625,-7.32421875,0.0
144.55078125,-30.76171875,-35.64453125,-29.296875,-29.296875,-1.953125,0.0
144.5546875,-30.2734375,-30.2734375,-31.25,-34.66796875,0.0,0.0
144.55859375,-37.109375,-36.62109375,-28.80859375,-32.71484375,20.01953125,0.0
144.5625,-39.55078125,-38.57421875,-25.390625,-22.4609375,-48.33984375,0.0
144.56640625,-43.45703125,-39.0625,-21.484375,-26.3671875,-80.56640625,0.0
144.5703125,-41.015625,-36.1328125,-24.90234375,-33.69140625,-117.1875,0.0
144.57421875,-22.4609375,-28.3203125,-26.85546875,-24.4140625,-89.35546875,0.0
144.578125,-23.92578125,-30.2734375,-20.99609375,-22.94921875,-35.15625,0.0
144.58203125,-33.203125,-31.25,-17.578125,-21.484375,-81.54296875,0.0
144.5859375,-29.78515625,-22.4609375,-20.99609375,-13.18359375,-50.78125,0.0
144.58984375,-35.15625,-30.2734375,-25.390625,-21.484375,35.15625,0.0
144.59375,-33.69140625,-29.78515625,-23.92578125,-25.390625,21.97265625,0.0
144.59765625,-30.2734375,-19.04296875,-21.484375,-19.53125,56.640625,0.0
144.6015625,-41.9921875,-30.76171875,-29.296875,-26.85546875,15.625,0.0
144.60546875,-50.29296875,-37.109375,-32.2265625,-28.80859375,-54.19921875,0.0
144.609375,-42.96875,-32.71484375,-27.83203125,-25.390625,-3.41796875,0.0
144.61328125,-28.3203125,-30.2734375,-28.3203125,-24.90234375,34.66796875,0.0
144.6171875,-23.4375,-29.78515625,-35.15625,-25.390625,-31.25,0.0
144.62109375,-25.390625,-34.1796875,-36.1328125,-21.484375,-68.359375,0.0
144.625,-19.04296875,-29.78515625,-24.90234375,-10.25390625,-61.03515625,0.0
144.62890625,-23.4375,-30.76171875,-26.3671875,-15.625,-105.46875,0.0
144.6328125,-20.5078125,-29.78515625,-33.69140625,-22.94921875,-85.44921875,0.0
144.63671875,-16.11328125,-27.34375,-37.59765625,-20.01953125,-50.29296875,0.0
144.640625,-19.53125,-28.3203125,-37.59765625,-20.99609375,0.48828125,0.0
144.64453125,-27.34375,-36.1328125,-36.1328125,-19.53125,5.859375,0.0
144.6484375,-30.2734375,-34.66796875,-30.76171875,-16.6015625,-12.6953125,0.0
144.65234375,-14.16015625,-23.92578125,-23.4375,-12.6953125,-30.76171875,0.0
144.65625,-9.27734375,-21.484375,-20.5078125,-7.32421875,-5.37109375,0.0
144.66015625,-25.390625,-25.87890625,-15.13671875,-10.7421875,5.37109375,0.0
144.6640625,-22.94921875,-23.4375,-16.11328125,-14.6484375,-49.8046875,0.0
144.66796875,-24.4140625,-29.296875,-28.3203125,-24.4140625,-80.078125,0.0
144.671875,-27.83203125,-34.1796875,-41.015625,-28.3203125,-65.91796875,0.0
144.67578125,-17.08984375,-24.90234375,-32.71484375,-20.01953125,-11.23046875,0.0
144.6796875,-20.99609375,-24.90234375,-26.85546875,-21.97265625,4.8828125,0.0
144.68359375,-23.92578125,-24.4140625,-21.97265625,-14.6484375,-82.03125,0.0
144.6875,-27.34375,-26.85546875,-25.87890625,-13.18359375,-146.97265625,0.0
144.69140625,-26.3671875,-33.69140625,-42.48046875,-21.484375,-130.37109375,0.0
144.6953125,-17.578125,-29.78515625,-39.0625,-22.94921875,-138.18359375,0.0
144.69921875,-22.4609375,-31.25,-28.3203125,-24.4140625,-125.48828125,0.0
144.703125,-27.34375,-31.73828125,-26.3671875,-28.3203125,-58.10546875,0.0
144.70703125,-14.6484375,-18.06640625,-13.18359375,-21.484375,-13.671875,0.0
144.7109375,-19.04296875,-21.97265625,-22.4609375,-31.73828125,60.05859375,0.0
144.71484375,-29.78515625,-26.3671875,-30.2734375,-38.0859375,115.234375,0.0
144.71875,-29.296875,-26.3671875,-22.4609375,-24.90234375,61.03515625,0.0
144.72265625,-43.45703125,-33.69140625,-26.3671875,-31.73828125,-4.8828125,0.0
144.7265625,-47.8515625,-34.1796875,-27.34375,-39.55078125,21.484375,0.0
144.73046875,-44.43359375,-31.73828125,-33.203125,-41.015625,31.25,0.0
144.734375,-37.109375,-29.296875,-36.1328125,-39.0625,31.25,0.0
144.73828125,-34.1796875,-32.2265625,-36.62109375,-37.59765625,70.80078125,0.0
144.7421875,-38.57421875,-32.2265625,-38.0859375,-37.59765625,30.2734375,0.0
144.74609375,-35.15625,-28.3203125,-35.64453125,-39.55078125,-14.6484375,0.0
144.75,-29.296875,-27.83203125,-27.83203125,-46.38671875,24.90234375,0.0
144.75390625,-27.34375,-27.83203125,-27.83203125,-47.36328125,54.19921875,0.0
144.7578125,-31.73828125,-24.4140625,-24.4140625,-38.0859375,-3.90625,0.0
144.76171875,-35.15625,-22.94921875,-26.85546875,-32.71484375,15.13671875,0.0
144.765625,-48.33984375,-40.52734375,-47.8515625,-49.31640625,-32.2265625,0.0
144.76953125,-60.05859375,-43.9453125,-41.9921875,-64.94140625,-104.98046875,0.0
144.7734375,-54.19921875,-35.64453125,-34.66796875,-56.640625,-15.13671875,0.0
144.77734375,-48.33984375,-36.1328125,-42.48046875,-49.8046875,36.1328125,0.0
144.78125,-52.734375,-38.57421875,-37.59765625,-50.29296875,-6.8359375,0.0
144.78515625,-52.734375,-44.43359375,-26.3671875,-45.41015625,-59.08203125,0.0
144.7890625,-47.36328125,-44.921875,-28.3203125,-43.45703125,-50.78125,0.0
144.79296875,-39.55078125,-34.66796875,-36.62109375,-41.9921875,-24.90234375,0.0
144.796875,-28.80859375,-30.76171875,-39.55078125,-37.109375,-51.26953125,0.0
144.80078125,-33.69140625,-28.80859375,-36.62109375,-37.59765625,-36.62109375,0.0
144.8046875,-42.48046875,-28.3203125,-31.25,-37.109375,-37.109375,0.0
144.80859375,-33.69140625,-28.3203125,-23.92578125,-29.296875,-102.05078125,0.0
144.8125,-24.90234375,-26.85546875,-20.5078125,-22.4609375,-160.15625,0.0
144.81640625,-27.34375,-31.73828125,-25.87890625,-27.83203125,-134.27734375,0.0
144.8203125,-36.62109375,-37.59765625,-28.3203125,-38.57421875,-49.8046875,0.0
144.82421875,-44.43359375,-39.55078125,-41.015625,-42.48046875,-40.52734375,0.0
144.828125,-42.96875,-40.0390625,-49.8046875,-42.48046875,-6.8359375,0.0
144.83203125,-29.296875,-34.1796875,-30.2734375,-30.76171875,-23.92578125,0.0
144.8359375,-20.99609375,-24.90234375,-12.6953125,-23.92578125,-91.30859375,0.0
144.83984375,-33.69140625,-31.25,-20.99609375,-34.66796875,-70.3125,0.0
144.84375,-33.203125,-29.78515625,-22.94921875,-28.80859375,-29.78515625,0.0
144.84765625,-35.64453125,-32.71484375,-21.97265625,-28.3203125,-42.96875,0.0
144.8515625,-42.48046875,-41.015625,-38.0859375,-37.109375,-53.22265625,0.0
144.85546875,-30.76171875,-32.71484375,-37.109375,-38.0859375,-105.95703125,0.0
144.859375,-33.69140625,-32.2265625,-29.78515625,-40.52734375,-154.296875,0.0
144.86328125,-42.96875,-34.66796875,-35.64453125,-42.48046875,-89.35546875,0.0
144.8671875,-35.15625,-28.80859375,-37.109375,-34.1796875,-58.59375,0.0
144.87109375,-23.92578125,-26.85546875,-24.4140625,-28.80859375,-81.0546875,0.0
144.875,-13.671875,-23.4375,-28.80859375,-27.34375,-81.54296875,0.0
144.87890625,-18.06640625,-23.92578125,-39.55078125,-26.85546875,-80.56640625,0.0
144.8828125,-37.109375,-30.2734375,-31.25,-32.2265625,-8.30078125,0.0
144.88671875,-41.50390625,-31.73828125,-26.3671875,-34.66796875,24.90234375,0.0
144.890625,-28.80859375,-27.34375,-27.83203125,-30.2734375,0.9765625,0.0
144.89453125,-11.71875,-18.06640625,-25.390625,-22.4609375,-16.6015625,0.0
144.8984375,-23.92578125,-26.3671875,-35.64453125,-37.59765625,-24.4140625,0.0
144.90234375,-42.96875,-37.59765625,-39.55078125,-42.96875,-6.34765625,0.0
144.90625,-41.50390625,-37.59765625,-38.57421875,-35.64453125,-19.04296875,0.0
144.91015625,-26.3671875,-29.296875,-39.0625,-32.2265625,-67.87109375,0.0
144.9140625,-20.01953125,-30.2734375,-31.73828125,-29.78515625,-74.70703125,0.0
144.91796875,-22.4609375,-37.59765625,-31.25,-25.87890625,-1.953125,0.0
144.921875,-20.99609375,-37.59765625,-34.1796875,-23.4375,-51.26953125,0.0
144.92578125,-32.2265625,-39.0625,-32.71484375,-31.73828125,-153.3203125,0.0
144.9296875,-41.9921875,-43.45703125,-34.1796875,-42.96875,-142.578125,0.0
144.93359375,-34.1796875,-33.203125,-34.1796875,-37.109375,-145.99609375,0.0
144.9375,-31.73828125,-28.3203125,-30.76171875,-28.3203125,-184.5703125,0.0
144.94140625,-39.55078125,-34.66796875,-29.78515625,-36.62109375,-117.67578125,0.0
144.9453125,-41.015625,-34.66796875,-22.94921875,-37.59765625,-9.27734375,0.0
144.94921875,-32.71484375,-33.69140625,-24.90234375,-27.83203125,13.18359375,0.0
144.953125,-34.66796875,-38.57421875,-24.4140625,-22.4609375,4.39453125,0.0
144.95703125,-26.3671875,-31.73828125,-8.30078125,-12.20703125,-51.7578125,0.0
144.9609375,-25.390625,-25.87890625,-7.32421875,-18.06640625,-128.41796875,0.0
144.96484375,-43.45703125,-39.55078125,-31.73828125,-33.69140625,-133.7890625,0.0
144.96875,-31.25,-37.59765625,-34.66796875,-23.4375,-129.39453125,0.0
144.97265625,-23.92578125,-39.55078125,-30.2734375,-25.390625,-131.8359375,0.0
144.9765625,-29.78515625,-40.0390625,-35.15625,-32.71484375,-119.140625,0.0
144.98046875,-27.34375,-31.73828125,-23.4375,-25.87890625,-75.68359375,0.0
144.984375,-32.2265625,-38.57421875,-18.06640625,-20.99609375,-68.84765625,0.0
144.98828125,-31.25,-33.69140625,-26.85546875,-23.4375,-32.71484375,0.0
144.9921875,-16.6015625,-15.625,-42.96875,-26.85546875,46.875,0.0
144.99609375,-8.30078125,-11.23046875,-41.9921875,-19.04296875,11.23046875,0.0
145.0,-31.25,-25.390625,-32.71484375,-21.484375,-62.01171875,0.0
145.00390625,-51.7578125,-42.48046875,-34.1796875,-31.73828125,-17.578125,0.0
145.0078125,-39.55078125,-41.9921875,-30.76171875,-32.71484375,61.03515625,0.0
145.01171875,-39.0625,-47.8515625,-33.69140625,-35.64453125,66.89453125,0.0
145.015625,-26.85546875,-37.109375,-28.3203125,-30.76171875,34.1796875,0.0
145.01953125,-10.7421875,-20.99609375,-24.90234375,-12.6953125,-41.50390625,0.0
145.0234375,-30.2734375,-30.76171875,-40.0390625,-20.99609375,-7.8125,0.0
145.02734375,-35.15625,-35.64453125,-41.50390625,-29.296875,13.18359375,0.0
145.03125,-32.71484375,-36.1328125,-35.64453125,-32.2265625,-10.25390625,0.0
145.03515625,-30.2734375,-33.69140625,-30.2734375,-27.83203125,-22.94921875,0.0
145.0390625,-26.3671875,-28.3203125,-26.3671875,-21.97265625,13.671875,0.0
145.04296875,-34.66796875,-29.78515625,-26.85546875,-28.3203125,78.125,0.0
145.046875,-30.76171875,-31.73828125,-27.34375,-31.25,73.73046875,0.0
145.05078125,-20.01953125,-28.80859375,-34.1796875,-36.1328125,46.38671875,0.0
145.0546875,-14.6484375,-21.97265625,-39.55078125,-37.59765625,-20.5078125,0.0
145.05859375,-5.859375,-17.578125,-33.203125,-32.71484375,-18.5546875,0.0
145.0625,-17.08984375,-29.78515625,-27.83203125,-38.0859375,51.26953125,0.0
145.06640625,-19.53125,-28.3203125,-33.69140625,-41.015625,62.98828125,0.0
145.0703125,-7.32421875,-18.5546875,-31.25,-26.3671875,36.1328125,0.0
145.07421875,-9.27734375,-22.94921875,-24.4140625,-25.390625,51.7578125,0.0
145.078125,-13.671875,-27.83203125,-33.203125,-39.55078125,42.48046875,0.0
145.08203125,-24.90234375,-29.78515625,-36.62109375,-39.0625,18.06640625,0.0
145.0859375,-27.34375,-27.83203125,-28.3203125,-26.3671875,83.49609375,0.0
145.08984375,-16.6015625,-25.87890625,-16.11328125,-20.01953125,123.53515625,0.0
145.09375,-12.20703125,-27.34375,-14.6484375,-21.484375,103.515625,0.0
145.09765625,-13.671875,-29.296875,-23.92578125,-23.4375,23.92578125,0.0
145.1015625,-17.08984375,-22.94921875,-16.6015625,-27.34375,-35.15625,0.0
145.10546875,-20.5078125,-23.92578125,-8.7890625,-28.80859375,4.8828125,0.0
145.109375,-17.08984375,-24.90234375,-14.16015625,-28.3203125,-22.94921875,0.0
145.11328125,-6.8359375,-20.5078125,-20.5078125,-27.83203125,-44.43359375,0.0
145.1171875,1.46484375,-12.20703125,-17.08984375,-17.578125,11.23046875,0.0
145.12109375,-7.8125,-16.11328125,-12.20703125,-20.01953125,9.765625,0.0
145.125,-30.76171875,-33.203125,-30.76171875,-40.0390625,-29.296875,0.0
145.12890625,-29.296875,-30.2734375,-26.85546875,-35.15625,-56.640625,0.0
145.1328125,-24.4140625,-31.73828125,-30.76171875,-36.1328125,-73.2421875,0.0
145.13671875,-30.2734375,-33.203125,-52.734375,-46.38671875,-29.78515625,0.0
145.140625,-32.2265625,-28.80859375,-35.15625,-40.0390625,-43.45703125,0.0
145.14453125,-39.0625,-32.71484375,-22.4609375,-37.109375,-45.41015625,0.0
145.1484375,-28.3203125,-22.4609375,-15.13671875,-26.85546875,34.66796875,0.0
145.15234375,-12.6953125,-12.6953125,-9.27734375,-15.625,87.40234375,0.0
145.15625,-21.97265625,-20.5078125,-24.90234375,-26.3671875,65.91796875,0.0
145.16015625,-30.76171875,-26.3671875,-31.73828125,-24.4140625,18.06640625,0.0
145.1640625,-32.71484375,-30.2734375,-27.83203125,-21.97265625,-36.62109375,0.0
145.16796875,-27.83203125,-25.390625,-21.97265625,-26.85546875,-67.3828125,0.0
145.171875,-25.390625,-25.390625,-28.3203125,-24.90234375,-25.390625,0.0
145.17578125,-23.4375,-27.83203125,-37.109375,-28.3203125,-8.30078125,0.0
145.1796875,-40.0390625,-36.62109375,-39.55078125,-46.38671875,-59.5703125,0.0
145.18359375,-59.5703125,-50.29296875,-37.109375,-51.26953125,-109.375,0.0
145.1875,-56.15234375,-44.921875,-32.71484375,-43.9453125,-128.41796875,0.0
145.19140625,-41.9921875,-38.57421875,-20.01953125,-36.1328125,-110.3515625,0.0
145.1953125,-22.4609375,-28.3203125,-7.8125,-25.87890625,-44.43359375,0.0
145.19921875,-32.2265625,-15.625,-14.6484375,-33.69140625,6.8359375,0.0
145.203125,-53.22265625,-24.90234375,-24.4140625,-47.8515625,-19.53125,0.0
145.20703125,-51.7578125,-42.48046875,-33.203125,-58.10546875,-120.60546875,0.0
145.2109375,-54.6875,-44.43359375,-36.1328125,-66.89453125,-75.1953125,0.0
145.21484375,-49.31640625,-30.2734375,-34.66796875,-61.03515625,-45.41015625,0.0
145.21875,-41.9921875,-29.78515625,-48.33984375,-54.6875,-108.88671875,0.0
145.22265625,-42.96875,-25.87890625,-46.875,-48.33984375,-51.7578125,0.0
145.2265625,-55.17578125,-26.85546875,-37.109375,-57.6171875,-28.80859375,0.0
145.23046875,-60.546875,-41.9921875,-42.48046875,-76.66015625,-39.0625,0.0
145.234375,-47.36328125,-33.69140625,-38.57421875,-66.89453125,-50.29296875,0.0
145.23828125,-51.7578125,-30.2734375,-36.62109375,-57.6171875,-36.62109375,0.0
145.2421875,-62.01171875,-37.59765625,-37.59765625,-62.01171875,-36.1328125,0.0
145.24609375,-54.6875,-37.109375,-37.59765625,-60.05859375,-62.01171875,0.0
145.25,-46.875,-41.015625,-39.0625,-56.640625,-85.44921875,0.0
145.25390625,-43.45703125,-43.45703125,-31.73828125,-54.6875,-98.6328125,0.0
145.2578125,-38.0859375,-36.62109375,-26.85546875,-50.29296875,-16.6015625,0.0
145.26171875,-38.0859375,-29.296875,-23.4375,-42.96875,99.609375,0.0
145.265625,-38.0859375,-26.85546875,-23.92578125,-40.0390625,78.125,0.0
145.26953125,-34.66796875,-23.4375,-20.5078125,-31.73828125,-19.04296875,0.0
145.2734375,-20.99609375,-17.578125,-27.34375,-26.3671875,-14.16015625,0.0
145.27734375,-21.97265625,-19.53125,-35.64453125,-36.62109375,10.7421875,0.0
145.28125,-32.2265625,-27.34375,-29.78515625,-36.1328125,-59.5703125,0.0
145.28515625,-35.64453125,-33.69140625,-29.296875,-33.69140625,-92.28515625,0.0
145.2890625,-37.59765625,-24.4140625,-28.3203125,-34.66796875,-84.9609375,0.0
145.29296875,-31.73828125,-18.5546875,-26.3671875,-31.73828125,-29.78515625,0.0
145.296875,-25.390625,-32.2265625,-20.99609375,-27.83203125,-36.62109375,0.0
145.30078125,-32.71484375,-38.0859375,-29.296875,-29.78515625,-41.9921875,0.0
145.3046875,-36.1328125,-29.296875,-32.2265625,-29.296875,-52.24609375,0.0
145.30859375,-42.48046875,-32.2265625,-33.203125,-37.59765625,-74.21875,0.0
145.3125,-36.1328125,-26.3671875,-26.85546875,-33.69140625,-104.00390625,0.0
145.31640625,-16.11328125,-8.30078125,-20.5078125,-15.13671875,-65.91796875,0.0
145.3203125,-33.203125,-21.97265625,-35.64453125,-24.90234375,14.6484375,0.0
145.32421875,-46.875,-32.71484375,-30.2734375,-23.92578125,-87.890625,0.0
145.328125,-44.43359375,-35.15625,-38.0859375,-27.83203125,-103.02734375,0.0
145.33203125,-38.57421875,-35.64453125,-43.9453125,-35.64453125,-52.734375,0.0
145.3359375,-27.34375,-28.3203125,-45.41015625,-28.3203125,34.66796875,0.0
145.33984375,-28.3203125,-30.2734375,-41.50390625,-24.4140625,80.56640625,0.0
145.34375,-38.57421875,-31.73828125,-26.3671875,-22.4609375,-48.828125,0.0
145.34765625,-42.48046875,-35.64453125,-24.4140625,-27.34375,-113.28125,0.0
145.3515625,-45.8984375,-39.0625,-27.34375,-38.0859375,-104.98046875,0.0
145.35546875,-40.52734375,-36.1328125,-37.59765625,-39.55078125,-111.328125,0.0
145.359375,-31.73828125,-34.1796875,-35.15625,-32.71484375,-81.0546875,0.0
145.36328125,-45.41015625,-40.0390625,-28.3203125,-43.45703125,-22.4609375,0.0
145.3671875,-53.7109375,-45.41015625,-27.83203125,-51.26953125,-30.76171875,0.0
145.37109375,-39.55078125,-36.62109375,-31.25,-42.48046875,-46.875,0.0
145.375,-27.34375,-23.4375,-32.2265625,-36.62109375,-107.421875,0.0
145.37890625,-26.85546875,-25.390625,-29.296875,-35.15625,-82.51953125,0.0
145.3828125,-38.0859375,-36.1328125,-44.43359375,-38.57421875,-5.37109375,0.0
145.38671875,-35.15625,-33.69140625,-45.41015625,-35.64453125,-41.015625,0.0
145.390625,-20.5078125,-25.390625,-29.78515625,-29.296875,-14.16015625,0.0
145.39453125,-21.484375,-27.83203125,-33.69140625,-32.2265625,22.4609375,0.0
145.3984375,-26.85546875,-29.296875,-39.0625,-29.296875,-15.13671875,0.0
145.40234375,-32.71484375,-28.3203125,-29.296875,-29.296875,-58.59375,0.0
145.40625,-44.921875,-33.203125,-22.94921875,-38.57421875,-70.3125,0.0
145.41015625,-37.59765625,-32.71484375,-20.5078125,-36.1328125,-75.1953125,0.0
145.4140625,-22.94921875,-28.3203125,-24.4140625,-30.2734375,-60.546875,0.0
145.41796875,-28.3203125,-37.59765625,-33.203125,-43.9453125,19.04296875,0.0
145.421875,-40.52734375,-42.48046875,-32.71484375,-49.8046875,-33.203125,0.0
145.42578125,-36.1328125,-30.76171875,-34.66796875,-36.1328125,-87.40234375,0.0
145.4296875,-15.625,-11.71875,-27.34375,-21.97265625,-3.41796875,0.0
145.43359375,-10.7421875,-15.13671875,-23.4375,-19.53125,19.04296875,0.0
145.4375,-31.25,-30.2734375,-29.78515625,-30.76171875,-12.20703125,0.0
145.44140625,-44.921875,-29.296875,-38.0859375,-41.015625,-25.390625,0.0
145.4453125,-41.9921875,-24.4140625,-25.87890625,-39.55078125,-109.375,0.0
145.44921875,-48.828125,-37.109375,-20.5078125,-45.41015625,-59.5703125,0.0
145.453125,-43.9453125,-39.55078125,-29.296875,-37.59765625,74.70703125,0.0
145.45703125,-29.296875,-29.296875,-31.73828125,-26.85546875,58.59375,0.0
145.4609375,-35.64453125,-37.109375,-39.0625,-33.69140625,-67.87109375,0.0
145.46484375,-43.9453125,-40.0390625,-39.55078125,-34.66796875,-78.61328125,0.0
145.46875,-31.73828125,-30.2734375,-29.296875,-31.25,-28.80859375,0.0
145.47265625,-12.6953125,-21.97265625,-18.5546875,-24.4140625,45.8984375,0.0
145.4765625,-14.16015625,-25.390625,-24.90234375,-24.4140625,64.453125,0.0
145.48046875,-22.94921875,-28.80859375,-29.296875,-26.3671875,-3.41796875,0.0
145.484375,-22.4609375,-26.85546875,-22.4609375,-21.97265625,-23.4375,0.0
145.48828125,-20.01953125,-23.4375,-27.34375,-20.01953125,-8.30078125,0.0
145.4921875,-26.3671875,-29.296875,-39.0625,-26.3671875,-47.8515625,0.0
145.49609375,-31.73828125,-39.55078125,-41.015625,-35.64453125,-84.9609375,0.0
145.5,-29.78515625,-38.57421875,-34.1796875,-35.15625,-13.671875,0.0
145.50390625,-28.80859375,-41.50390625,-34.1796875,-31.25,22.94921875,0.0
145.5078125,-31.73828125,-43.45703125,-37.109375,-35.15625,-12.6953125,0.0
145.51171875,-21.97265625,-35.15625,-37.109375,-30.2734375,-99.12109375,0.0
145.515625,-10.7421875,-28.3203125,-31.25,-27.83203125,-120.60546875,0.0
145.51953125,-14.16015625,-28.80859375,-28.3203125,-29.78515625,-65.4296875,0.0
145.5234375,-17.578125,-21.484375,-23.4375,-20.01953125,-33.203125,0.0
145.52734375,-22.94921875,-25.87890625,-20.5078125,-23.92578125,24.90234375,0.0
145.53125,-27.83203125,-36.62109375,-26.3671875,-36.1328125,39.55078125,0.0
145.53515625,-16.11328125,-24.4140625,-27.83203125,-27.83203125,11.71875,0.0
145.5390625,-5.37109375,-5.37109375,-23.92578125,-14.6484375,45.41015625,0.0
145.54296875,-28.80859375,-28.3203125,-34.1796875,-28.3203125,-9.765625,0.0
145.546875,-46.38671875,-46.875,-33.203125,-38.0859375,-73.2421875,0.0
145.55078125,-35.64453125,-33.69140625,-21.484375,-31.73828125,-14.6484375,0.0
145.5546875,-30.76171875,-37.59765625,-26.3671875,-44.43359375,25.390625,0.0
145.55859375,-29.78515625,-40.52734375,-31.25,-43.45703125,96.6796875,0.0
145.5625,-36.62109375,-39.55078125,-32.71484375,-34.66796875,117.67578125,0.0
145.56640625,-41.50390625,-39.55078125,-30.76171875,-35.15625,9.27734375,0.0
145.5703125,-23.4375,-32.71484375,-20.99609375,-27.34375,-75.1953125,0.0
145.57421875,-10.25390625,-24.4140625,-19.04296875,-33.203125,-86.42578125,0.0
145.578125,-22.94921875,-31.25,-21.97265625,-40.52734375,-83.49609375,0.0
145.58203125,-26.85546875,-37.59765625,-24.4140625,-31.25,-58.10546875,0.0
145.5859375,-39.55078125,-38.0859375,-29.296875,-36.62109375,7.32421875,0.0
145.58984375,-62.01171875,-50.78125,-33.69140625,-55.17578125,-62.98828125,0.0
145.59375,-49.31640625,-44.921875,-34.1796875,-51.7578125,-90.33203125,0.0
145.59765625,-54.19921875,-47.36328125,-33.69140625,-55.6640625,-4.8828125,0.0
145.6015625,-76.171875,-56.15234375,-28.3203125,-71.2890625,18.06640625,0.0
145.60546875,-75.68359375,-55.17578125,-20.5078125,-66.40625,-67.87109375,0.0
145.609375,-60.546875,-45.41015625,-15.13671875,-56.15234375,-38.0859375,0.0
145.61328125,-55.17578125,-41.50390625,-18.06640625,-56.15234375,-12.20703125,0.0
145.6171875,-58.59375,-43.9453125,-22.94921875,-55.6640625,-101.5625,0.0
145.62109375,-65.4296875,-48.828125,-24.4140625,-55.6640625,-145.5078125,0.0
145.625,-78.125,-63.4765625,-38.0859375,-67.3828125,-152.34375,0.0
145.62890625,-76.66015625,-62.01171875,-43.45703125,-73.73046875,-91.30859375,0.0
145.6328125,-59.08203125,-41.015625,-38.0859375,-51.26953125,-16.6015625,0.0
145.63671875,-39.0625,-29.296875,-21.97265625,-29.296875,-15.13671875,0.0
145.640625,-45.8984375,-39.55078125,-25.87890625,-41.015625,-4.8828125,0.0
145.64453125,-61.03515625,-47.8515625,-47.36328125,-58.59375,44.921875,0.0
145.6484375,-58.59375,-46.875,-41.015625,-62.01171875,-9.27734375,0.0
145.65234375,-45.41015625,-42.96875,-21.97265625,-52.734375,-46.875,0.0
145.65625,-31.73828125,-35.15625,-19.04296875,-37.109375,-117.1875,0.0
145.66015625,-32.71484375,-32.71484375,-30.76171875,-37.109375,-199.21875,0.0
145.6640625,-40.0390625,-31.25,-39.55078125,-41.015625,-217.28515625,0.0
145.66796875,-41.50390625,-30.2734375,-35.64453125,-36.62109375,-251.46484375,0.0
145.671875,-33.69140625,-33.69140625,-22.94921875,-34.66796875,-239.2578125,0.0
145.67578125,-31.73828125,-35.64453125,-25.87890625,-39.55078125,-179.19921875,0.0
145.6796875,-37.109375,-31.73828125,-36.1328125,-40.0390625,-47.8515625,0.0
145.68359375,-28.80859375,-19.04296875,-33.69140625,-25.390625,-26.3671875,0.0
145.6875,-31.25,-22.94921875,-38.0859375,-30.76171875,-50.29296875,0.0
145.69140625,-32.2265625,-31.25,-47.36328125,-39.55078125,-65.4296875,0.0
145.6953125,-23.92578125,-28.80859375,-43.45703125,-36.1328125,-50.29296875,0.0
145.69921875,-27.34375,-36.62109375,-40.52734375,-38.0859375,-47.8515625,0.0
145.703125,-35.64453125,-43.9453125,-42.96875,-38.57421875,-51.7578125,0.0
145.70703125,-34.66796875,-38.0859375,-36.62109375,-27.83203125,-71.2890625,0.0
145.7109375,-20.01953125,-23.4375,-18.06640625,-15.625,-88.8671875,0.0
145.71484375,-24.4140625,-24.90234375,-29.296875,-26.85546875,3.90625,0.0
145.71875,-34.66796875,-35.15625,-40.0390625,-41.015625,-22.94921875,0.0
145.72265625,-45.41015625,-44.43359375,-32.71484375,-53.7109375,-159.66796875,0.0
145.7265625,-46.38671875,-44.921875,-28.80859375,-51.7578125,-74.70703125,0.0
145.73046875,-20.99609375,-23.4375,-19.53125,-30.2734375,89.35546875,0.0
145.734375,-16.6015625,-17.08984375,-29.296875,-27.34375,48.33984375,0.0
145.73828125,-35.15625,-32.71484375,-36.62109375,-36.62109375,-16.11328125,0.0
145.7421875,-41.9921875,-38.0859375,-29.78515625,-31.73828125,41.9921875,0.0
145.74609375,-36.62109375,-38.57421875,-40.0390625,-26.3671875,60.546875,0.0
145.75,-21.97265625,-28.80859375,-37.59765625,-27.83203125,21.484375,0.0
145.75390625,-16.11328125,-22.94921875,-25.390625,-34.1796875,51.26953125,0.0
145.7578125,-28.3203125,-36.62109375,-25.390625,-37.59765625,30.2734375,0.0
145.76171875,-43.9453125,-46.38671875,-20.99609375,-41.50390625,-26.85546875,0.0
145.765625,-46.875,-44.921875,-26.3671875,-43.45703125,45.8984375,0.0
145.76953125,-33.69140625,-41.015625,-28.80859375,-42.48046875,-8.7890625,0.0
145.7734375,-20.5078125,-31.73828125,-23.92578125,-31.73828125,-91.796875,0.0
145.77734375,-18.5546875,-26.85546875,-24.4140625,-24.4140625,-105.95703125,0.0
145.78125,-18.5546875,-24.90234375,-32.2265625,-26.3671875,-166.50390625,0.0
145.78515625,-13.18359375,-19.53125,-39.0625,-18.5546875,-63.96484375,0.0
145.7890625,-17.578125,-25.87890625,-24.4140625,-18.5546875,57.12890625,0.0
145.79296875,-21.484375,-25.390625,-18.5546875,-17.578125,35.15625,0.0
145.796875,-21.484375,-21.484375,-22.94921875,-15.625,-27.34375,0.0
145.80078125,-40.52734375,-36.62109375,-26.85546875,-29.78515625,-44.921875,0.0
145.8046875,-60.05859375,-46.38671875,-45.41015625,-43.9453125,-50.29296875,0.0
145.80859375,-44.43359375,-38.0859375,-47.8515625,-39.55078125,-41.50390625,0.0
145.8125,-20.5078125,-26.3671875,-29.296875,-27.34375,-26.3671875,0.0
145.81640625,-21.97265625,-27.34375,-25.390625,-27.34375,-39.0625,0.0
145.8203125,-31.73828125,-32.2265625,-29.78515625,-28.3203125,-28.80859375,0.0
145.82421875,-43.45703125,-34.66796875,-33.69140625,-36.1328125,-10.25390625,0.0
145.828125,-39.55078125,-34.66796875,-32.2265625,-41.9921875,-32.71484375,0.0
145.83203125,-17.08984375,-23.4375,-25.390625,-31.25,-74.70703125,0.0
145.8359375,-18.5546875,-20.5078125,-22.94921875,-32.2265625,-17.08984375,0.0
145.83984375,-31.25,-31.73828125,-27.83203125,-40.0390625,15.625,0.0
145.84375,-29.78515625,-32.2265625,-25.390625,-27.83203125,-22.94921875,0.0
145.84765625,-31.73828125,-28.80859375,-24.90234375,-20.01953125,-53.22265625,0.0
145.8515625,-39.55078125,-35.64453125,-40.0390625,-41.9921875,1.46484375,0.0
145.85546875,-42.96875,-39.0625,-39.55078125,-54.6875,47.8515625,0.0
145.859375,-49.8046875,-37.59765625,-23.92578125,-49.31640625,29.296875,0.0
145.86328125,-58.59375,-38.0859375,-22.94921875,-47.8515625,-33.69140625,0.0
145.8671875,-56.640625,-40.52734375,-26.3671875,-42.48046875,-60.546875,0.0
145.87109375,-42.48046875,-35.64453125,-24.90234375,-33.69140625,-2.9296875,0.0
145.875,-28.3203125,-28.3203125,-36.1328125,-30.2734375,-54.19921875,0.0
145.87890625,-18.06640625,-25.390625,-38.0859375,-20.01953125,-175.78125,0.0
145.8828125,-21.484375,-22.94921875,-26.3671875,-11.71875,-125.48828125,0.0
145.88671875,-42.96875,-33.69140625,-29.78515625,-25.390625,-80.078125,0.0
145.890625,-50.78125,-41.015625,-30.2734375,-40.52734375,-103.02734375,0.0
145.89453125,-39.55078125,-38.57421875,-22.94921875,-41.50390625,-62.01171875,0.0
145.8984375,-37.59765625,-34.1796875,-28.80859375,-37.109375,-34.66796875,0.0
145.90234375,-50.29296875,-37.109375,-36.62109375,-35.15625,0.48828125,0.0
145.90625,-50.78125,-42.96875,-33.69140625,-34.1796875,-12.20703125,0.0
145.91015625,-33.69140625,-32.2265625,-34.66796875,-32.71484375,-34.1796875,0.0
145.9140625,-20.99609375,-23.4375,-34.1796875,-27.34375,24.4140625,0.0
145.91796875,-22.94921875,-28.3203125,-33.69140625,-21.484375,29.296875,0.0
145.921875,-36.62109375,-36.62109375,-48.33984375,-22.4609375,-103.02734375,0.0
145.92578125,-41.015625,-31.25,-41.50390625,-25.87890625,-157.2265625,0.0
145.9296875,-25.390625,-15.13671875,-20.5078125,-17.578125,-107.91015625,0.0
145.93359375,-28.80859375,-19.53125,-24.90234375,-29.296875,-68.84765625,0.0
145.9375,-40.0390625,-26.85546875,-28.80859375,-44.43359375,-60.546875,0.0
145.94140625,-38.57421875,-22.4609375,-25.87890625,-35.64453125,-69.82421875,0.0
145.9453125,-38.0859375,-21.484375,-23.92578125,-30.76171875,-94.7265625,0.0
145.94921875,-46.38671875,-32.71484375,-31.25,-41.9921875,-67.87109375,0.0
145.953125,-39.0625,-35.64453125,-36.62109375,-44.921875,-28.80859375,0.0
145.95703125,-27.34375,-34.66796875,-31.73828125,-34.1796875,8.7890625,0.0
145.9609375,-40.52734375,-39.55078125,-42.96875,-41.9921875,49.31640625,0.0
145.96484375,-52.734375,-38.0859375,-48.33984375,-47.8515625,33.69140625,0.0
145.96875,-41.50390625,-27.83203125,-37.59765625,-39.55078125,-7.32421875,0.0
145.97265625,-35.64453125,-27.34375,-28.3203125,-40.52734375,-60.546875,0.0
145.9765625,-34.66796875,-24.90234375,-33.203125,-38.0859375,-32.2265625,0.0
145.98046875,-31.73828125,-24.4140625,-26.85546875,-36.1328125,6.8359375,0.0
145.984375,-31.73828125,-28.80859375,-19.53125,-32.2265625,-13.671875,0.0
145.98828125,-34.66796875,-29.296875,-33.69140625,-38.57421875,11.23046875,0.0
145.9921875,-15.13671875,-14.6484375,-25.87890625,-33.203125,-8.30078125,0.0
145.99609375,-15.625,-10.7421875,-21.484375,-30.76171875,-61.03515625,0.0
146.0,-51.7578125,-40.0390625,-33.69140625,-49.8046875,-146.97265625,0.0
146.00390625,-56.640625,-45.41015625,-37.109375,-48.828125,-223.6328125,0.0
146.0078125,-57.6171875,-39.55078125,-47.8515625,-52.24609375,-197.265625,0.0
146.01171875,-47.8515625,-33.203125,-39.0625,-44.43359375,-103.515625,0.0
146.015625,-32.2265625,-29.296875,-26.3671875,-41.50390625,-7.8125,0.0
146.01953125,-33.69140625,-33.69140625,-37.109375,-41.50390625,-77.63671875,0.0
146.0234375,-45.41015625,-35.64453125,-37.59765625,-32.71484375,-105.95703125,0.0
146.02734375,-55.17578125,-41.9921875,-30.2734375,-44.921875,9.765625,0.0
146.03125,-46.875,-40.52734375,-20.5078125,-51.26953125,30.76171875,0.0
146.03515625,-36.62109375,-35.64453125,-21.484375,-37.59765625,-55.17578125,0.0
146.0390625,-22.4609375,-21.484375,-17.08984375,-20.5078125,-66.89453125,0.0
146.04296875,-22.4609375,-21.97265625,-17.578125,-19.53125,-29.78515625,0.0
146.046875,-35.64453125,-37.59765625,-42.96875,-38.57421875,-123.53515625,0.0
146.05078125,-26.3671875,-34.1796875,-37.109375,-41.9921875,-211.42578125,0.0
146.0546875,-21.97265625,-30.76171875,-29.78515625,-38.57421875,-161.62109375,0.0
146.05859375,-26.3671875,-30.2734375,-31.25,-36.62109375,-195.80078125,0.0
146.0625,-35.64453125,-37.109375,-27.34375,-39.0625,-228.515625,0.0
146.06640625,-42.48046875,-41.9921875,-20.99609375,-43.9453125,-127.44140625,0.0
146.0703125,-31.25,-36.1328125,-15.625,-43.45703125,-80.56640625,0.0
146.07421875,-18.06640625,-27.34375,-23.4375,-30.76171875,15.13671875,0.0
146.078125,-23.92578125,-27.83203125,-27.34375,-25.87890625,91.796875,0.0
146.08203125,-34.1796875,-30.76171875,-30.2734375,-33.69140625,59.5703125,0.0
146.0859375,-32.71484375,-27.34375,-30.76171875,-33.203125,77.63671875,0.0
146.08984375,-30.76171875,-32.71484375,-30.76171875,-38.0859375,19.53125,0.0
146.09375,-10.7421875,-23.92578125,-22.94921875,-27.83203125,1.46484375,0.0
146.09765625,-7.32421875,-13.18359375,-19.53125,-13.671875,28.80859375,0.0
146.1015625,-33.69140625,-30.2734375,-39.0625,-37.109375,25.87890625,0.0
146.10546875,-41.50390625,-37.109375,-35.15625,-42.48046875,-15.625,0.0
146.109375,-33.69140625,-29.78515625,-26.3671875,-32.71484375,-52.734375,0.0
146.11328125,-20.5078125,-19.04296875,-36.62109375,-30.2734375,-9.765625,0.0
146.1171875,-17.08984375,-19.53125,-24.4140625,-26.85546875,41.015625,0.0
146.12109375,-27.83203125,-31.73828125,-17.578125,-27.34375,5.37109375,0.0
146.125,-44.43359375,-39.0625,-35.15625,-35.64453125,-21.484375,0.0
146.12890625,-51.26953125,-41.9921875,-42.96875,-44.921875,33.69140625,0.0
146.1328125,-43.45703125,-40.52734375,-35.15625,-44.43359375,-1.46484375,0.0
146.13671875,-29.78515625,-38.0859375,-18.06640625,-34.66796875,7.8125,0.0
146.140625,-30.76171875,-37.59765625,-15.13671875,-31.73828125,48.33984375,0.0
146.14453125,-45.41015625,-34.66796875,-19.53125,-34.66796875,51.7578125,0.0
146.1484375,-43.45703125,-31.25,-13.671875,-31.73828125,53.22265625,0.0
146.15234375,-42.48046875,-36.62109375,-26.85546875,-38.0859375,69.82421875,0.0
146.15625,-32.2265625,-29.296875,-44.43359375,-32.71484375,90.33203125,0.0
146.16015625,-32.71484375,-38.0859375,-50.78125,-32.2265625,17.578125,0.0
146.1640625,-42.48046875,-48.33984375,-44.921875,-42.48046875,-86.42578125,0.0
146.16796875,-37.59765625,-40.0390625,-39.55078125,-38.57421875,-101.07421875,0.0
146.171875,-28.3203125,-39.0625,-34.1796875,-33.203125,-31.73828125,0.0
146.17578125,-21.484375,-30.76171875,-24.4140625,-35.15625,27.83203125,0.0
146.1796875,-21.484375,-23.92578125,-22.94921875,-36.62109375,49.8046875,0.0
146.18359375,-32.2265625,-28.3203125,-25.390625,-27.83203125,93.75,0.0
146.1875,-35.64453125,-35.15625,-31.73828125,-27.34375,26.3671875,0.0
146.19140625,-34.1796875,-33.203125,-23.4375,-28.3203125,-45.41015625,0.0
146.1953125,-32.2265625,-24.4140625,-17.578125,-29.296875,-30.2734375,0.0
146.19921875,-34.66796875,-29.296875,-25.87890625,-38.57421875,25.390625,0.0
146.203125,-53.7109375,-43.45703125,-41.015625,-47.8515625,-9.27734375,0.0
146.20703125,-49.8046875,-34.66796875,-40.52734375,-36.62109375,-49.8046875,0.0
146.2109375,-20.5078125,-23.4375,-18.5546875,-20.01953125,-114.2578125,0.0
146.21484375,-13.18359375,-23.92578125,-20.99609375,-28.3203125,-54.19921875,0.0
146.21875,-25.87890625,-24.4140625,-31.73828125,-38.57421875,24.4140625,0.0
146.22265625,-39.0625,-31.25,-22.94921875,-35.15625,-22.94921875,0.0
146.2265625,-40.0390625,-34.1796875,-18.5546875,-33.69140625,-24.90234375,0.0
146.23046875,-30.2734375,-28.3203125,-33.69140625,-41.50390625,-33.69140625,0.0
146.234375,-22.4609375,-21.484375,-34.1796875,-36.1328125,14.6484375,0.0
146.23828125,-23.4375,-28.80859375,-31.25,-28.80859375,35.64453125,0.0
146.2421875,-37.59765625,-34.1796875,-35.64453125,-32.2265625,9.27734375,0.0
146.24609375,-39.55078125,-29.78515625,-39.55078125,-29.78515625,-34.1796875,0.0
146.25,-19.04296875,-19.53125,-31.25,-22.94921875,-99.12109375,0.0
146.25390625,-13.18359375,-20.01953125,-32.2265625,-26.3671875,-101.5625,0.0
146.2578125,-29.78515625,-36.1328125,-40.52734375,-37.109375,-47.8515625,0.0
146.26171875,-50.29296875,-43.9453125,-38.57421875,-41.015625,-77.63671875,0.0
146.265625,-47.8515625,-35.64453125,-31.73828125,-34.1796875,-84.47265625,0.0
146.26953125,-35.15625,-31.73828125,-28.80859375,-28.3203125,-70.80078125,0.0
146.2734375,-38.0859375,-33.203125,-36.62109375,-36.62109375,-46.875,0.0
146.27734375,-31.73828125,-21.484375,-37.59765625,-37.109375,-45.41015625,0.0
146.28125,-46.38671875,-38.57421875,-47.8515625,-49.31640625,-35.64453125,0.0
146.28515625,-50.78125,-51.26953125,-40.52734375,-49.8046875,-19.53125,0.0
146.2890625,-36.62109375,-41.015625,-25.87890625,-36.62109375,-45.41015625,0.0
146.29296875,-28.80859375,-31.73828125,-30.76171875,-32.2265625,-79.1015625,0.0
146.296875,-27.83203125,-28.80859375,-41.9921875,-32.71484375,6.34765625,0.0
146.30078125,-31.25,-29.296875,-30.76171875,-26.3671875,83.984375,0.0
146.3046875,-29.78515625,-20.5078125,-22.4609375,-15.625,51.7578125,0.0
146.30859375,-32.71484375,-20.99609375,-39.0625,-20.99609375,9.765625,0.0
146.3125,-26.3671875,-30.2734375,-39.55078125,-28.3203125,-49.8046875,0.0
146.31640625,-20.01953125,-30.76171875,-32.2265625,-30.76171875,-112.3046875,0.0
146.3203125,-29.78515625,-26.85546875,-31.25,-36.62109375,-121.09375,0.0
146.32421875,-48.33984375,-41.015625,-36.1328125,-45.8984375,-53.7109375,0.0
146.328125,-57.12890625,-54.6875,-38.0859375,-50.29296875,-37.59765625,0.0
146.33203125,-35.64453125,-40.52734375,-27.34375,-38.57421875,-90.33203125,0.0
146.3359375,-23.4375,-37.59765625,-33.69140625,-31.73828125,-103.515625,0.0
146.33984375,-25.390625,-35.15625,-41.50390625,-32.71484375,-38.0859375,0.0
146.34375,-31.73828125,-27.83203125,-26.85546875,-24.4140625,23.4375,0.0
146.34765625,-38.57421875,-34.1796875,-19.04296875,-22.4609375,-46.875,0.0
146.3515625,-24.90234375,-33.203125,-24.4140625,-24.90234375,-111.81640625,0.0
146.35546875,-14.6484375,-33.69140625,-34.66796875,-25.390625,-140.13671875,0.0
146.359375,-26.85546875,-38.0859375,-36.62109375,-31.73828125,-94.7265625,0.0
146.36328125,-35.64453125,-39.55078125,-35.15625,-32.2265625,-80.078125,0.0
146.3671875,-44.921875,-41.9921875,-39.55078125,-41.50390625,-62.5,0.0
146.37109375,-49.31640625,-41.015625,-40.52734375,-46.38671875,-33.69140625,0.0
146.375,-44.43359375,-43.45703125,-37.109375,-41.50390625,-62.01171875,0.0
146.37890625,-48.828125,-41.9921875,-38.57421875,-39.0625,-55.17578125,0.0
146.3828125,-50.29296875,-35.64453125,-41.015625,-40.52734375,-77.63671875,0.0
146.38671875,-42.96875,-33.69140625,-29.78515625,-44.43359375,-75.68359375,0.0
146.390625,-32.2265625,-32.71484375,-24.4140625,-39.0625,-70.3125,0.0
146.39453125,-12.6953125,-22.94921875,-13.18359375,-20.01953125,-51.7578125,0.0
146.3984375,-12.20703125,-14.16015625,-13.671875,-12.20703125,13.671875,0.0
146.40234375,-33.69140625,-32.71484375,-30.76171875,-30.2734375,30.2734375,0.0
146.40625,-41.015625,-41.9921875,-30.2734375,-34.66796875,-47.8515625,0.0
146.41015625,-36.1328125,-36.1328125,-32.2265625,-33.203125,-93.26171875,0.0
146.4140625,-25.87890625,-28.80859375,-40.52734375,-38.0859375,-67.3828125,0.0
146.41796875,-21.97265625,-24.4140625,-35.15625,-30.2734375,32.2265625,0.0
146.421875,-37.109375,-34.1796875,-43.45703125,-31.25,81.54296875,0.0
146.42578125,-42.96875,-34.1796875,-50.78125,-33.203125,26.3671875,0.0
146.4296875,-35.15625,-25.390625,-40.52734375,-24.90234375,21.97265625,0.0
146.43359375,-23.92578125,-21.484375,-27.34375,-23.92578125,83.984375,0.0
146.4375,-20.01953125,-13.671875,-12.6953125,-20.5078125,122.55859375,0.0
146.44140625,-34.66796875,-22.94921875,-25.390625,-26.3671875,52.734375,0.0
146.4453125,-45.8984375,-35.15625,-34.66796875,-38.0859375,-51.7578125,0.0
146.44921875,-45.41015625,-35.15625,-32.2265625,-38.0859375,-74.70703125,0.0
146.453125,-33.69140625,-35.64453125,-39.55078125,-40.0390625,-27.83203125,0.0
146.45703125,-30.76171875,-36.62109375,-38.57421875,-39.55078125,-5.37109375,0.0
146.4609375,-32.71484375,-37.59765625,-47.36328125,-30.2734375,-104.98046875,0.0
146.46484375,-30.76171875,-30.2734375,-48.828125,-25.390625,-92.7734375,0.0
146.46875,-33.69140625,-30.76171875,-31.25,-31.25,-36.1328125,0.0
146.47265625,-24.4140625,-28.80859375,-26.85546875,-31.73828125,-60.546875,0.0
146.4765625,-21.484375,-24.90234375,-28.3203125,-30.2734375,24.4140625,0.0
146.48046875,-32.2265625,-30.2734375,-24.4140625,-32.2265625,42.96875,0.0
146.484375,-42.96875,-37.109375,-36.1328125,-34.66796875,-16.11328125,0.0
146.48828125,-46.38671875,-36.62109375,-41.015625,-36.1328125,14.6484375,0.0
146.4921875,-27.83203125,-27.83203125,-20.99609375,-29.296875,56.640625,0.0
146.49609375,-12.6953125,-31.73828125,-15.625,-20.5078125,0.48828125,0.0
146.5,-27.83203125,-35.15625,-31.25,-24.4140625,-2.44140625,0.0
146.50390625,-59.5703125,-36.62109375,-39.55078125,-54.6875,-83.0078125,0.0
146.5078125,-59.08203125,-34.1796875,-29.296875,-66.89453125,-104.98046875,0.0
146.51171875,-47.8515625,-30.2734375,-24.90234375,-56.640625,-41.9921875,0.0
146.515625,-52.734375,-37.59765625,-34.1796875,-64.94140625,-91.30859375,0.0
146.51953125,-42.96875,-21.97265625,-22.94921875,-55.17578125,-108.3984375,0.0
146.5234375,-50.29296875,-17.578125,-17.578125,-52.734375,-104.4921875,0.0
146.52734375,-70.3125,-41.50390625,-43.45703125,-75.68359375,-47.36328125,0.0
146.53125,-64.453125,-48.828125,-51.7578125,-74.70703125,-107.91015625,0.0
146.53515625,-59.08203125,-41.015625,-42.48046875,-73.73046875,-62.01171875,0.0
146.5390625,-57.6171875,-31.25,-25.87890625,-67.3828125,41.9921875,0.0
146.54296875,-63.4765625,-38.0859375,-25.87890625,-72.265625,42.48046875,0.0
146.546875,-66.40625,-49.31640625,-33.69140625,-78.125,17.578125,0.0
146.55078125,-51.7578125,-41.9921875,-35.15625,-65.91796875,-21.97265625,0.0
146.5546875,-41.9921875,-34.66796875,-33.69140625,-63.4765625,-34.1796875,0.0
146.55859375,-39.55078125,-29.296875,-24.90234375,-52.24609375,-52.24609375,0.0
146.5625,-38.57421875,-21.484375,-22.4609375,-36.62109375,13.18359375,0.0
146.56640625,-47.8515625,-30.76171875,-38.57421875,-43.45703125,-41.015625,0.0
146.5703125,-39.0625,-28.3203125,-29.296875,-39.0625,-125.9765625,0.0
146.57421875,-30.76171875,-26.85546875,-33.69140625,-41.015625,-151.3671875,0.0
146.578125,-36.1328125,-28.3203125,-44.43359375,-48.33984375,-171.875,0.0
146.58203125,-34.66796875,-17.08984375,-18.5546875,-33.69140625,-43.9453125,0.0
146.5859375,-37.59765625,-19.53125,-10.25390625,-36.1328125,64.94140625,0.0
146.58984375,-42.48046875,-30.76171875,-24.4140625,-45.8984375,32.71484375,0.0
146.59375,-33.203125,-33.203125,-34.1796875,-45.41015625,-27.83203125,0.0
146.59765625,-29.78515625,-34.66796875,-36.62109375,-45.8984375,-22.4609375,0.0
146.6015625,-40.52734375,-31.25,-26.3671875,-38.57421875,-58.59375,0.0
146.60546875,-38.57421875,-24.90234375,-17.578125,-24.90234375,-76.171875,0.0
146.609375,-22.4609375,-22.94921875,-19.04296875,-21.97265625,-49.31640625,0.0
146.61328125,-1.46484375,-15.13671875,-25.390625,-18.06640625,-23.4375,0.0
146.6171875,-2.44140625,-23.4375,-35.64453125,-20.5078125,41.015625,0.0
146.62109375,-6.34765625,-33.69140625,-36.1328125,-26.3671875,38.57421875,0.0
146.625,-11.23046875,-34.1796875,-29.78515625,-33.203125,-67.87109375,0.0
146.62890625,-18.06640625,-31.73828125,-19.53125,-36.62109375,-128.41796875,0.0
146.6328125,-13.18359375,-24.90234375,-22.94921875,-31.25,-37.109375,0.0
146.63671875,-15.13671875,-24.90234375,-24.90234375,-29.296875,41.9921875,0.0
146.640625,-31.25,-33.69140625,-24.4140625,-33.69140625,-28.80859375,0.0
146.64453125,-37.59765625,-40.52734375,-30.2734375,-35.64453125,-92.7734375,0.0
146.6484375,-26.85546875,-35.15625,-33.69140625,-28.80859375,-64.94140625,0.0
146.65234375,-12.6953125,-26.3671875,-28.80859375,-26.85546875,-43.9453125,0.0
146.65625,-1.953125,-22.4609375,-14.16015625,-23.92578125,40.52734375,0.0
146.66015625,-14.6484375,-31.25,-21.97265625,-27.83203125,49.8046875,0.0
146.6640625,-37.109375,-41.50390625,-46.875,-38.0859375,-34.1796875,0.0
146.66796875,-45.41015625,-44.921875,-42.48046875,-43.9453125,-7.32421875,0.0
146.671875,-40.52734375,-43.9453125,-28.3203125,-41.015625,-9.27734375,0.0
146.67578125,-32.2265625,-40.52734375,-20.99609375,-35.15625,-9.27734375,0.0
146.6796875,-27.83203125,-35.15625,-13.671875,-32.71484375,-37.109375,0.0
146.68359375,-31.73828125,-33.69140625,-15.625,-30.76171875,-125.0,0.0
146.6875,-23.92578125,-22.94921875,-10.25390625,-25.87890625,-110.3515625,0.0
146.69140625,-19.04296875,-21.484375,-8.7890625,-21.97265625,-18.06640625,0.0
146.6953125,-19.04296875,-23.4375,-25.390625,-20.5078125,-82.51953125,0.0
146.69921875,-18.06640625,-18.06640625,-38.57421875,-25.87890625,-125.0,0.0
146.703125,-26.3671875,-28.3203125,-33.203125,-32.71484375,-73.2421875,0.0
146.70703125,-36.62109375,-41.015625,-36.1328125,-42.48046875,-30.2734375,0.0
146.7109375,-29.78515625,-34.1796875,-40.52734375,-41.9921875,-2.44140625,0.0
146.71484375,-26.85546875,-38.0859375,-35.64453125,-46.875,-61.5234375,0.0
146.71875,-31.25,-41.50390625,-32.71484375,-42.96875,-38.0859375,0.0
146.72265625,-34.1796875,-29.296875,-24.4140625,-30.76171875,-16.11328125,0.0
146.7265625,-25.390625,-15.625,-10.25390625,-20.01953125,-44.921875,0.0
146.73046875,-14.6484375,-14.6484375,-20.01953125,-17.08984375,-1.46484375,0.0
146.734375,-17.08984375,-25.390625,-33.69140625,-27.34375,7.32421875,0.0
146.73828125,-21.97265625,-24.4140625,-29.296875,-25.390625,-10.7421875,0.0
146.7421875,-34.1796875,-27.34375,-28.80859375,-28.80859375,-55.6640625,0.0
146.74609375,-51.7578125,-41.50390625,-34.66796875,-45.41015625,-85.9375,0.0
146.75,-53.7109375,-51.26953125,-37.109375,-48.828125,-35.64453125,0.0
146.75390625,-41.50390625,-46.38671875,-34.1796875,-41.9921875,60.546875,0.0
146.7578125,-38.0859375,-41.50390625,-39.55078125,-47.8515625,91.796875,0.0
146.76171875,-38.0859375,-43.45703125,-39.55078125,-43.9453125,78.61328125,0.0
146.765625,-35.15625,-35.64453125,-31.25,-35.64453125,51.7578125,0.0
146.76953125,-38.0859375,-32.71484375,-25.87890625,-36.1328125,23.4375,0.0
146.7734375,-37.109375,-34.66796875,-27.34375,-35.64453125,46.38671875,0.0
146.77734375,-26.85546875,-28.80859375,-23.4375,-30.76171875,27.34375,0.0
146.78125,-31.73828125,-31.25,-23.92578125,-31.73828125,-29.78515625,0.0
146.78515625,-42.48046875,-41.9921875,-34.1796875,-41.9921875,-21.484375,0.0
146.7890625,-24.4140625,-28.3203125,-26.3671875,-21.97265625,-32.71484375,0.0
146.79296875,-22.4609375,-26.3671875,-31.25,-28.80859375,-112.3046875,0.0
146.796875,-33.203125,-38.0859375,-42.48046875,-52.24609375,-195.3125,0.0
146.80078125,-27.83203125,-31.73828125,-36.62109375,-38.57421875,-194.82421875,0.0
146.8046875,-30.2734375,-23.4375,-27.83203125,-28.80859375,-220.703125,0.0
146.80859375,-39.0625,-21.484375,-32.71484375,-35.15625,-241.2109375,0.0
146.8125,-28.80859375,-23.92578125,-34.1796875,-32.2265625,-232.91015625,0.0
146.81640625,-17.578125,-23.4375,-30.2734375,-20.99609375,-153.80859375,0.0
146.8203125,-16.11328125,-16.6015625,-29.78515625,-19.04296875,44.921875,0.0
146.82421875,-22.94921875,-16.6015625,-31.73828125,-21.484375,7.32421875,0.0
146.828125,-30.2734375,-27.83203125,-40.52734375,-31.73828125,-5.859375,0.0
146.83203125,-17.578125,-19.04296875,-13.671875,-27.34375,60.05859375,0.0
146.8359375,-16.11328125,-14.16015625,-6.8359375,-24.90234375,32.2265625,0.0
146.83984375,-33.203125,-29.78515625,-36.1328125,-34.66796875,-41.9921875,0.0
146.84375,-41.015625,-37.109375,-43.9453125,-36.62109375,-84.9609375,0.0
146.84765625,-41.9921875,-38.57421875,-36.1328125,-34.66796875,-60.546875,0.0
146.8515625,-27.34375,-28.80859375,-20.99609375,-27.83203125,-34.66796875,0.0
146.85546875,-15.13671875,-21.97265625,-18.06640625,-25.87890625,-42.48046875,0.0
146.859375,-10.25390625,-20.01953125,-17.08984375,-19.53125,-79.1015625,0.0
146.86328125,-21.484375,-29.296875,-34.66796875,-25.87890625,-55.6640625,0.0
146.8671875,-32.2265625,-37.59765625,-41.50390625,-33.69140625,-85.9375,0.0
146.87109375,-24.90234375,-28.3203125,-28.3203125,-23.4375,-120.60546875,0.0
146.875,-16.11328125,-23.4375,-35.15625,-17.578125,-91.30859375,0.0
146.87890625,-25.87890625,-31.73828125,-36.1328125,-24.90234375,-77.1484375,0.0
146.8828125,-37.59765625,-30.2734375,-25.390625,-28.80859375,-76.66015625,0.0
146.88671875,-24.90234375,-19.53125,-15.625,-13.671875,-127.9296875,0.0
146.890625,-19.53125,-20.01953125,-18.5546875,-9.765625,-111.81640625,0.0
146.89453125,-25.87890625,-29.78515625,-26.85546875,-20.99609375,-38.57421875,0.0
146.8984375,-24.4140625,-32.71484375,-29.296875,-23.4375,-53.7109375,0.0
146.90234375,-31.25,-29.78515625,-31.25,-20.01953125,-68.359375,0.0
146.90625,-43.9453125,-29.78515625,-36.1328125,-23.92578125,-24.4140625,0.0
146.91015625,-36.62109375,-30.2734375,-38.0859375,-26.85546875,-38.0859375,0.0
146.9140625,-29.296875,-29.78515625,-26.85546875,-22.94921875,-33.203125,0.0
146.91796875,-32.2265625,-30.2734375,-22.94921875,-24.90234375,13.671875,0.0
146.921875,-44.921875,-43.9453125,-27.83203125,-34.66796875,6.8359375,0.0
146.92578125,-46.38671875,-43.9453125,-32.2265625,-35.64453125,62.98828125,0.0
146.9296875,-36.62109375,-30.2734375,-29.296875,-33.69140625,62.01171875,0.0
146.93359375,-35.15625,-37.59765625,-29.296875,-42.48046875,1.953125,0.0
146.9375,-30.2734375,-41.50390625,-38.57421875,-42.48046875,-10.25390625,0.0
146.94140625,-30.2734375,-34.66796875,-45.8984375,-40.0390625,-42.96875,0.0
146.9453125,-32.71484375,-34.66796875,-44.43359375,-40.0390625,-17.578125,0.0
146.94921875,-31.73828125,-38.57421875,-44.43359375,-40.0390625,3.90625,0.0
146.953125,-32.71484375,-38.0859375,-41.9921875,-40.0390625,-10.25390625,0.0
146.95703125,-29.78515625,-32.2265625,-35.64453125,-31.73828125,-80.56640625,0.0
146.9609375,-33.203125,-27.34375,-30.2734375,-23.4375,-69.82421875,0.0
146.96484375,-45.41015625,-38.0859375,-39.55078125,-30.76171875,-38.57421875,0.0
146.96875,-46.38671875,-43.9453125,-30.76171875,-31.25,-77.63671875,0.0
146.97265625,-32.2265625,-32.71484375,-16.11328125,-26.3671875,-20.5078125,0.0
146.9765625,-24.90234375,-23.4375,-20.5078125,-30.76171875,-10.25390625,0.0
146.98046875,-31.73828125,-26.85546875,-35.64453125,-35.15625,-42.48046875,0.0
146.984375,-43.9453125,-40.0390625,-44.43359375,-35.64453125,-12.6953125,0.0
146.98828125,-46.38671875,-38.57421875,-34.66796875,-36.62109375,-17.08984375,0.0
146.9921875,-37.109375,-32.2265625,-36.1328125,-43.45703125,58.10546875,0.0
146.99609375,-21.484375,-26.3671875,-31.25,-34.66796875,33.69140625,0.0
147.0,-29.296875,-24.90234375,-23.92578125,-28.80859375,-88.8671875,0.0
147.00390625,-53.22265625,-39.55078125,-35.64453125,-39.0625,-80.56640625,0.0
147.0078125,-50.29296875,-42.48046875,-37.59765625,-39.55078125,20.99609375,0.0
147.01171875,-26.85546875,-30.2734375,-32.71484375,-29.78515625,2.9296875,0.0
147.015625,-18.06640625,-26.85546875,-30.76171875,-23.92578125,-18.06640625,0.0
147.01953125,-25.87890625,-28.80859375,-25.390625,-30.76171875,48.828125,0.0
147.0234375,-28.3203125,-21.97265625,-20.99609375,-29.78515625,-23.4375,0.0
147.02734375,-31.25,-26.85546875,-29.78515625,-28.3203125,-54.6875,0.0
147.03125,-29.296875,-31.73828125,-35.64453125,-30.76171875,-100.09765625,0.0
147.03515625,-32.71484375,-35.64453125,-32.71484375,-34.1796875,-166.50390625,0.0
147.0390625,-34.66796875,-34.66796875,-27.34375,-37.59765625,-114.74609375,0.0
147.04296875,-36.62109375,-31.73828125,-29.78515625,-42.96875,-36.62109375,0.0
147.046875,-39.55078125,-32.71484375,-36.62109375,-43.9453125,21.484375,0.0
147.05078125,-30.76171875,-29.296875,-33.203125,-39.0625,-1.46484375,0.0
147.0546875,-22.94921875,-27.83203125,-31.25,-34.1796875,24.90234375,0.0
147.05859375,-31.25,-37.59765625,-36.62109375,-34.66796875,42.48046875,0.0
147.0625,-38.0859375,-42.96875,-33.69140625,-30.2734375,-3.90625,0.0
147.06640625,-34.66796875,-38.57421875,-27.34375,-23.4375,-56.15234375,0.0
147.0703125,-29.78515625,-31.73828125,-35.64453125,-22.4609375,-31.25,0.0
147.07421875,-16.11328125,-19.04296875,-34.1796875,-14.6484375,-10.25390625,0.0
147.078125,-14.6484375,-18.5546875,-23.92578125,-4.8828125,-53.7109375,0.0
147.08203125,-27.34375,-34.1796875,-40.52734375,-13.671875,-113.76953125,0.0
147.0859375,-37.59765625,-41.015625,-47.8515625,-23.4375,-108.3984375,0.0
147.08984375,-42.96875,-41.9921875,-36.1328125,-33.203125,-47.8515625,0.0
147.09375,-45.8984375,-39.55078125,-30.76171875,-50.78125,-32.71484375,0.0
147.09765625,-36.1328125,-38.0859375,-29.296875,-49.31640625,-90.33203125,0.0
147.1015625,-33.69140625,-38.57421875,-29.296875,-40.0390625,-100.5859375,0.0
147.10546875,-41.50390625,-35.15625,-33.69140625,-44.43359375,-46.38671875,0.0
147.109375,-40.0390625,-28.80859375,-39.55078125,-42.48046875,-57.12890625,0.0
147.11328125,-28.3203125,-19.04296875,-31.73828125,-28.3203125,-49.8046875,0.0
147.1171875,-20.01953125,-16.6015625,-19.04296875,-19.53125,-44.43359375,0.0
147.12109375,-33.69140625,-33.203125,-35.15625,-31.25,-94.23828125,0.0
147.125,-37.109375,-32.71484375,-42.96875,-36.62109375,-89.35546875,0.0
147.12890625,-27.34375,-20.5078125,-30.2734375,-35.15625,-50.78125,0.0
147.1328125,-28.3203125,-23.4375,-35.64453125,-45.41015625,-2.9296875,0.0
147.13671875,-20.99609375,-20.99609375,-24.90234375,-31.73828125,26.85546875,0.0
147.140625,-20.01953125,-19.53125,-19.53125,-17.08984375,11.23046875,0.0
147.14453125,-39.55078125,-28.3203125,-34.66796875,-25.390625,-27.34375,0.0
147.1484375,-47.8515625,-36.62109375,-39.55078125,-36.1328125,-10.7421875,0.0
147.15234375,-39.0625,-34.66796875,-39.55078125,-37.59765625,10.7421875,0.0
147.15625,-30.76171875,-30.76171875,-34.1796875,-33.69140625,-20.5078125,0.0
147.16015625,-33.203125,-39.0625,-32.71484375,-30.76171875,-48.828125,0.0
147.1640625,-35.64453125,-33.203125,-37.109375,-30.76171875,-60.546875,0.0
147.16796875,-26.3671875,-16.6015625,-29.296875,-22.94921875,-24.4140625,0.0
147.171875,-16.11328125,-13.18359375,-24.90234375,-21.484375,-57.6171875,0.0
147.17578125,-20.01953125,-27.83203125,-41.9921875,-35.64453125,-59.08203125,0.0
147.1796875,-20.99609375,-30.76171875,-46.38671875,-37.109375,-70.80078125,0.0
147.18359375,-26.3671875,-32.2265625,-32.71484375,-32.71484375,-118.1640625,0.0
147.1875,-30.2734375,-39.55078125,-28.3203125,-28.3203125,-42.48046875,0.0
147.19140625,-21.484375,-35.15625,-23.4375,-27.34375,-34.1796875,0.0
