timestamp,TP9,AF7,AF8,TP10,AUX,Marker,
1204.00390625,-12.6953125,-24.90234375,-34.66796875,-24.90234375,17.578125,0.0
1204.0078125,-13.18359375,-22.94921875,-27.83203125,-24.90234375,74.70703125,0.0
1204.01171875,-23.4375,-27.34375,-30.2734375,-26.85546875,17.578125,0.0
1204.015625,-36.1328125,-33.203125,-37.109375,-28.3203125,-46.875,0.0
1204.01953125,-34.66796875,-33.69140625,-33.203125,-27.83203125,-86.42578125,0.0
1204.0234375,-30.2734375,-28.80859375,-26.85546875,-23.4375,-98.6328125,0.0
1204.02734375,-32.71484375,-30.2734375,-27.83203125,-27.83203125,-75.68359375,0.0
1204.03125,-43.45703125,-33.203125,-34.66796875,-39.0625,35.64453125,0.0
1204.03515625,-49.8046875,-38.57421875,-35.15625,-37.59765625,3.90625,0.0
1204.0390625,-32.2265625,-37.109375,-23.4375,-24.4140625,-86.42578125,0.0
1204.04296875,-20.99609375,-24.90234375,-17.578125,-19.53125,7.32421875,0.0
1204.046875,-23.4375,-23.92578125,-22.4609375,-23.4375,36.1328125,0.0
1204.05078125,-34.1796875,-30.2734375,-31.25,-31.25,-65.4296875,0.0
1204.0546875,-40.52734375,-29.78515625,-37.59765625,-35.15625,-169.921875,0.0
1204.05859375,-37.59765625,-31.73828125,-33.69140625,-31.25,-269.04296875,0.0
1204.0625,-25.87890625,-32.71484375,-30.2734375,-28.80859375,-245.60546875,0.0
1204.06640625,-18.06640625,-28.80859375,-26.85546875,-31.25,-253.41796875,0.0
1204.0703125,-18.06640625,-32.2265625,-20.01953125,-35.15625,-241.2109375,0.0
1204.07421875,-18.5546875,-31.25,-19.53125,-32.71484375,-233.3984375,0.0
1204.078125,-19.04296875,-30.76171875,-22.94921875,-24.4140625,-250.48828125,0.0
1204.08203125,-14.16015625,-26.3671875,-22.4609375,-25.390625,-52.24609375,0.0
1204.0859375,-12.6953125,-23.92578125,-20.99609375,-23.92578125,69.82421875,0.0
1204.08984375,-23.4375,-31.25,-29.296875,-24.90234375,47.8515625,0.0
1204.09375,-32.71484375,-33.203125,-35.64453125,-29.78515625,-47.8515625,0.0
1204.09765625,-32.2265625,-31.73828125,-35.64453125,-32.2265625,-121.58203125,0.0
1204.1015625,-34.1796875,-30.76171875,-33.69140625,-33.69140625,-122.55859375,0.0
1204.10546875,-29.78515625,-29.296875,-34.1796875,-30.76171875,-150.87890625,0.0
1204.109375,-20.5078125,-30.76171875,-35.15625,-27.34375,-98.6328125,0.0
1204.11328125,-23.92578125,-31.25,-29.296875,-31.25,-105.95703125,0.0
1204.1171875,-37.109375,-32.71484375,-35.64453125,-43.45703125,-104.98046875,0.0
1204.12109375,-35.64453125,-32.71484375,-38.57421875,-41.9921875,-55.6640625,0.0
1204.125,-25.87890625,-32.71484375,-35.15625,-33.69140625,-68.84765625,0.0
1204.12890625,-30.2734375,-35.64453125,-36.1328125,-29.78515625,-106.4453125,0.0
1204.1328125,-47.36328125,-38.57421875,-35.64453125,-37.59765625,-101.07421875,0.0
1204.13671875,-50.78125,-39.0625,-38.0859375,-44.43359375,-116.69921875,0.0
1204.140625,-43.9453125,-40.52734375,-35.64453125,-37.109375,-181.15234375,0.0
1204.14453125,-31.73828125,-37.59765625,-26.3671875,-31.25,-180.17578125,0.0
1204.1484375,-19.53125,-34.1796875,-29.296875,-32.2265625,-114.2578125,0.0
1204.15234375,-28.80859375,-39.0625,-36.1328125,-33.203125,-112.79296875,0.0
1204.15625,-37.109375,-43.9453125,-34.66796875,-36.62109375,-124.51171875,0.0
1204.16015625,-25.87890625,-38.57421875,-20.99609375,-33.203125,-137.6953125,0.0
1204.1640625,-15.625,-32.71484375,-23.4375,-30.2734375,-61.03515625,0.0
1204.16796875,-18.06640625,-32.2265625,-34.1796875,-31.73828125,19.04296875,0.0
1204.171875,-23.4375,-33.69140625,-35.64453125,-29.78515625,56.640625,0.0
1204.17578125,-26.85546875,-30.2734375,-34.66796875,-31.73828125,43.45703125,0.0
1204.1796875,-24.4140625,-24.4140625,-33.69140625,-35.15625,19.04296875,0.0
1204.18359375,-20.99609375,-27.34375,-33.203125,-35.15625,63.4765625,0.0
1204.1875,-29.78515625,-34.66796875,-33.203125,-33.203125,-20.99609375,0.0
1204.19140625,-38.57421875,-34.66796875,-34.66796875,-31.25,-21.97265625,0.0
1204.1953125,-42.96875,-31.73828125,-35.64453125,-38.57421875,66.40625,0.0
1204.19921875,-44.921875,-31.25,-41.015625,-40.0390625,41.9921875,0.0
1204.203125,-43.45703125,-30.76171875,-24.90234375,-32.71484375,47.36328125,0.0
1204.20703125,-45.41015625,-30.76171875,-16.11328125,-30.76171875,31.25,0.0
1204.2109375,-43.45703125,-31.25,-38.0859375,-39.55078125,82.03125,0.0
1204.21484375,-37.109375,-28.3203125,-37.59765625,-35.64453125,123.53515625,0.0
1204.21875,-32.71484375,-27.83203125,-26.85546875,-23.92578125,38.0859375,0.0
1204.22265625,-39.0625,-31.25,-35.15625,-31.25,78.125,0.0
1204.2265625,-43.45703125,-31.73828125,-41.015625,-41.9921875,75.1953125,0.0
1204.23046875,-41.50390625,-35.64453125,-41.50390625,-39.0625,-4.8828125,0.0
1204.234375,-39.0625,-37.109375,-39.55078125,-30.76171875,-51.26953125,0.0
1204.23828125,-41.50390625,-37.59765625,-36.1328125,-33.203125,-34.1796875,0.0
1204.2421875,-42.96875,-34.1796875,-38.0859375,-39.0625,37.109375,0.0
1204.24609375,-40.0390625,-27.34375,-33.69140625,-32.71484375,20.01953125,0.0
1204.25,-33.203125,-26.85546875,-16.6015625,-29.296875,-60.546875,0.0
1204.25390625,-35.64453125,-35.15625,-25.87890625,-40.52734375,-67.3828125,0.0
1204.2578125,-35.15625,-34.1796875,-39.55078125,-44.921875,18.06640625,0.0
1204.26171875,-25.390625,-32.71484375,-36.62109375,-38.57421875,43.45703125,0.0
1204.265625,-18.06640625,-30.2734375,-35.64453125,-29.296875,129.39453125,0.0
1204.26953125,-22.4609375,-29.78515625,-36.62109375,-29.78515625,139.6484375,0.0
1204.2734375,-35.15625,-34.66796875,-36.1328125,-34.66796875,101.5625,0.0
1204.27734375,-37.59765625,-35.64453125,-34.66796875,-33.69140625,-0.48828125,0.0
1204.28125,-28.80859375,-30.76171875,-33.203125,-28.80859375,-15.625,0.0
1204.28515625,-22.4609375,-29.78515625,-34.66796875,-27.83203125,40.0390625,0.0
1204.2890625,-23.4375,-28.80859375,-37.109375,-32.2265625,13.18359375,0.0
1204.29296875,-33.203125,-30.76171875,-20.99609375,-24.90234375,-66.89453125,0.0
1204.296875,-35.64453125,-36.1328125,-18.5546875,-27.34375,-151.85546875,0.0
1204.30078125,-26.3671875,-30.2734375,-35.64453125,-33.203125,-98.14453125,0.0
1204.3046875,-28.3203125,-27.34375,-35.64453125,-31.25,-12.20703125,0.0
1204.30859375,-26.85546875,-30.2734375,-33.203125,-32.2265625,32.71484375,0.0
1204.3125,-22.94921875,-28.80859375,-41.015625,-31.25,47.36328125,0.0
1204.31640625,-27.83203125,-27.83203125,-40.0390625,-36.1328125,18.5546875,0.0
1204.3203125,-25.87890625,-27.34375,-33.69140625,-32.71484375,-26.85546875,0.0
1204.32421875,-16.6015625,-26.3671875,-30.76171875,-20.5078125,-55.17578125,0.0
1204.328125,-22.4609375,-31.73828125,-34.1796875,-29.296875,-13.18359375,0.0
1204.33203125,-41.50390625,-35.64453125,-39.55078125,-41.9921875,2.44140625,0.0
1204.3359375,-45.41015625,-30.76171875,-33.69140625,-38.0859375,-68.359375,0.0
1204.33984375,-38.57421875,-33.203125,-22.4609375,-32.2265625,-47.36328125,0.0
1204.34375,-32.71484375,-32.71484375,-31.25,-30.2734375,-8.30078125,0.0
1204.34765625,-23.92578125,-26.85546875,-39.0625,-33.203125,-99.12109375,0.0
1204.3515625,-24.90234375,-31.25,-35.64453125,-34.66796875,-155.2734375,0.0
1204.35546875,-32.2265625,-38.57421875,-27.34375,-26.85546875,-153.3203125,0.0
1204.359375,-24.4140625,-35.64453125,-30.76171875,-20.5078125,-186.03515625,0.0
1204.36328125,-12.6953125,-30.2734375,-34.1796875,-17.578125,-117.1875,0.0
1204.3671875,-19.04296875,-31.25,-30.76171875,-24.90234375,-87.40234375,0.0
1204.37109375,-34.66796875,-34.66796875,-33.69140625,-40.0390625,-54.19921875,0.0
1204.375,-36.1328125,-39.0625,-39.0625,-45.41015625,-54.19921875,0.0
1204.37890625,-33.203125,-38.57421875,-32.71484375,-33.203125,-99.609375,0.0
1204.3828125,-29.78515625,-34.1796875,-25.390625,-24.90234375,-117.67578125,0.0
1204.38671875,-22.4609375,-31.25,-28.3203125,-28.3203125,-84.9609375,0.0
1204.390625,-19.53125,-31.73828125,-36.1328125,-24.90234375,-31.73828125,0.0
1204.39453125,-22.4609375,-31.25,-35.15625,-23.92578125,-64.453125,0.0
1204.3984375,-27.83203125,-33.69140625,-21.484375,-34.66796875,-160.15625,0.0
1204.40234375,-28.80859375,-27.83203125,-26.85546875,-31.25,-164.55078125,0.0
1204.40625,-35.64453125,-29.78515625,-41.9921875,-31.25,-135.7421875,0.0
1204.41015625,-39.55078125,-38.57421875,-40.0390625,-37.59765625,-160.64453125,0.0
1204.4140625,-39.0625,-34.1796875,-36.62109375,-34.1796875,-85.44921875,0.0
1204.41796875,-38.0859375,-33.203125,-38.0859375,-33.69140625,32.2265625,0.0
1204.421875,-39.55078125,-36.62109375,-33.69140625,-30.76171875,-23.4375,0.0
1204.42578125,-36.62109375,-31.25,-29.296875,-33.203125,-69.82421875,0.0
1204.4296875,-36.62109375,-29.78515625,-25.87890625,-39.55078125,-94.23828125,0.0
1204.43359375,-46.38671875,-34.1796875,-26.3671875,-38.0859375,-118.65234375,0.0
1204.4375,-45.41015625,-33.203125,-30.2734375,-37.59765625,-177.24609375,0.0
1204.44140625,-35.15625,-29.296875,-27.34375,-35.15625,-184.08203125,0.0
1204.4453125,-26.85546875,-31.25,-8.30078125,-26.85546875,58.59375,0.0
1204.44921875,-29.78515625,-31.25,-20.99609375,-26.85546875,193.359375,0.0
1204.453125,-38.57421875,-31.25,-39.0625,-30.76171875,116.2109375,0.0
1204.45703125,-36.62109375,-29.78515625,-31.25,-29.78515625,61.5234375,0.0
1204.4609375,-25.390625,-22.94921875,-28.80859375,-26.85546875,91.30859375,0.0
1204.46484375,-18.06640625,-20.99609375,-28.3203125,-28.80859375,57.6171875,0.0
1204.46875,-11.23046875,-20.5078125,-26.85546875,-28.3203125,-23.4375,0.0
1204.47265625,-7.8125,-24.4140625,-24.90234375,-22.4609375,-97.65625,0.0
1204.4765625,-17.578125,-29.78515625,-32.2265625,-29.296875,-118.65234375,0.0
1204.48046875,-25.390625,-32.71484375,-43.9453125,-39.0625,-108.3984375,0.0
1204.484375,-18.5546875,-28.80859375,-41.9921875,-38.57421875,86.9140625,0.0
1204.48828125,-22.4609375,-22.94921875,-25.390625,-38.0859375,207.03125,0.0
1204.4921875,-39.55078125,-29.78515625,-24.90234375,-44.43359375,132.8125,0.0
1204.49609375,-41.9921875,-32.71484375,-33.69140625,-41.015625,146.97265625,0.0
1204.5,-32.71484375,-27.83203125,-32.2265625,-28.80859375,80.078125,0.0
1204.50390625,-30.2734375,-25.390625,-25.390625,-22.94921875,47.8515625,0.0
1204.5078125,-38.57421875,-29.296875,-28.80859375,-32.71484375,120.1171875,0.0
1204.51171875,-43.9453125,-40.0390625,-34.1796875,-38.57421875,67.3828125,0.0
1204.515625,-47.8515625,-42.96875,-33.69140625,-38.57421875,-21.97265625,0.0
1204.51953125,-49.31640625,-34.66796875,-31.25,-37.59765625,-11.71875,0.0
1204.5234375,-41.9921875,-29.296875,-30.76171875,-40.52734375,-41.50390625,0.0
1204.52734375,-36.62109375,-27.83203125,-34.1796875,-41.50390625,-19.53125,0.0
1204.53125,-39.55078125,-31.25,-32.71484375,-38.0859375,3.41796875,0.0
1204.53515625,-47.8515625,-41.015625,-25.87890625,-36.62109375,-30.2734375,0.0
1204.5390625,-51.26953125,-46.38671875,-29.296875,-35.64453125,5.37109375,0.0
1204.54296875,-46.38671875,-39.55078125,-34.66796875,-33.69140625,48.828125,0.0
1204.546875,-42.96875,-35.15625,-27.83203125,-33.69140625,38.0859375,0.0
1204.55078125,-45.8984375,-34.1796875,-17.08984375,-32.2265625,-21.484375,0.0
1204.5546875,-57.12890625,-35.64453125,-28.3203125,-30.2734375,34.66796875,0.0
1204.55859375,-62.01171875,-37.59765625,-30.2734375,-26.3671875,58.59375,0.0
1204.5625,-50.29296875,-37.109375,-27.34375,-30.2734375,-47.8515625,0.0
1204.56640625,-44.43359375,-35.15625,-34.66796875,-33.203125,-39.0625,0.0
1204.5703125,-42.96875,-29.78515625,-35.15625,-28.80859375,-1.46484375,0.0
1204.57421875,-43.45703125,-30.2734375,-32.2265625,-29.296875,-17.578125,0.0
1204.578125,-43.9453125,-36.1328125,-19.53125,-31.73828125,44.921875,0.0
1204.58203125,-26.3671875,-30.2734375,-17.08984375,-24.90234375,0.48828125,0.0
1204.5859375,-10.25390625,-27.83203125,-26.3671875,-15.13671875,-12.6953125,0.0
1204.58984375,-26.3671875,-38.0859375,-28.3203125,-19.04296875,-144.53125,0.0
1204.59375,-42.48046875,-45.41015625,-32.71484375,-27.83203125,-199.70703125,0.0
1204.59765625,-36.62109375,-39.55078125,-32.71484375,-28.80859375,-112.3046875,0.0
1204.6015625,-24.4140625,-28.80859375,-27.83203125,-23.4375,-68.359375,0.0
1204.60546875,-19.53125,-26.3671875,-28.80859375,-23.4375,-39.55078125,0.0
1204.609375,-22.4609375,-31.25,-35.64453125,-30.2734375,-39.55078125,0.0
1204.61328125,-35.15625,-34.66796875,-35.64453125,-37.109375,-56.15234375,0.0
1204.6171875,-36.62109375,-31.73828125,-34.66796875,-39.0625,-40.0390625,0.0
1204.62109375,-26.85546875,-26.3671875,-27.83203125,-29.78515625,-18.5546875,0.0
1204.625,-24.4140625,-25.87890625,-20.01953125,-20.99609375,-3.41796875,0.0
1204.62890625,-33.203125,-32.2265625,-31.73828125,-28.3203125,36.1328125,0.0
1204.6328125,-50.29296875,-42.48046875,-35.64453125,-40.52734375,-27.83203125,0.0
1204.63671875,-59.5703125,-43.9453125,-34.1796875,-41.9921875,-48.33984375,0.0
1204.640625,-53.22265625,-44.921875,-37.59765625,-45.8984375,-45.8984375,0.0
1204.64453125,-34.1796875,-39.55078125,-32.71484375,-42.96875,-18.06640625,0.0
1204.6484375,-24.90234375,-35.15625,-31.25,-30.76171875,10.7421875,0.0
1204.65234375,-31.25,-37.109375,-28.3203125,-33.69140625,-20.99609375,0.0
1204.65625,-30.2734375,-37.109375,-18.5546875,-31.25,-70.3125,0.0
1204.66015625,-24.4140625,-34.1796875,-25.390625,-21.484375,-78.125,0.0
1204.6640625,-22.94921875,-28.80859375,-33.203125,-24.90234375,-46.875,0.0
1204.66796875,-24.90234375,-30.76171875,-25.87890625,-33.203125,-31.25,0.0
1204.671875,-32.71484375,-35.15625,-22.4609375,-39.55078125,-62.01171875,0.0
1204.67578125,-37.59765625,-37.59765625,-32.71484375,-34.66796875,-61.5234375,0.0
1204.6796875,-30.76171875,-37.59765625,-28.3203125,-26.3671875,-46.875,0.0
1204.68359375,-31.73828125,-37.59765625,-23.4375,-28.80859375,-67.87109375,0.0
1204.6875,-32.2265625,-35.15625,-26.85546875,-29.78515625,-30.2734375,0.0
1204.69140625,-29.78515625,-32.71484375,-26.85546875,-25.390625,-13.18359375,0.0
1204.6953125,-32.71484375,-40.52734375,-26.3671875,-25.87890625,-52.24609375,0.0
1204.69921875,-28.80859375,-41.015625,-20.99609375,-24.4140625,-27.34375,0.0
1204.703125,-33.203125,-35.15625,-27.83203125,-32.2265625,22.4609375,0.0
1204.70703125,-41.9921875,-36.62109375,-40.0390625,-43.45703125,-0.9765625,0.0
1204.7109375,-40.52734375,-32.2265625,-37.109375,-43.9453125,-67.3828125,0.0
1204.71484375,-38.57421875,-29.78515625,-22.4609375,-41.015625,-94.7265625,0.0
1204.71875,-39.0625,-33.203125,-31.73828125,-43.45703125,-7.32421875,0.0
1204.72265625,-38.57421875,-30.2734375,-43.9453125,-45.41015625,36.1328125,0.0
1204.7265625,-37.59765625,-29.78515625,-35.64453125,-40.52734375,13.671875,0.0
1204.73046875,-38.0859375,-34.1796875,-26.85546875,-40.52734375,2.9296875,0.0
1204.734375,-41.50390625,-35.15625,-35.64453125,-42.96875,82.03125,0.0
1204.73828125,-35.64453125,-29.78515625,-40.0390625,-41.015625,78.61328125,0.0
1204.7421875,-29.296875,-27.34375,-39.0625,-39.55078125,-51.7578125,0.0
1204.74609375,-27.34375,-27.34375,-39.55078125,-41.015625,-96.19140625,0.0
1204.75,-28.80859375,-30.76171875,-42.48046875,-43.9453125,-111.81640625,0.0
1204.75390625,-27.83203125,-34.66796875,-46.38671875,-38.57421875,-67.3828125,0.0
1204.7578125,-20.99609375,-33.69140625,-27.34375,-27.83203125,26.3671875,0.0
1204.76171875,-19.53125,-32.71484375,-14.6484375,-27.34375,49.8046875,0.0
1204.765625,-31.73828125,-42.48046875,-35.15625,-39.55078125,45.41015625,0.0
1204.76953125,-38.0859375,-45.41015625,-41.015625,-48.828125,-46.38671875,0.0
1204.7734375,-36.62109375,-40.52734375,-37.59765625,-40.52734375,-91.796875,0.0
1204.77734375,-41.50390625,-39.55078125,-39.0625,-38.0859375,48.33984375,0.0
1204.78125,-38.57421875,-43.9453125,-34.66796875,-32.71484375,91.30859375,0.0
1204.78515625,-37.109375,-41.50390625,-31.73828125,-26.3671875,40.0390625,0.0
1204.7890625,-41.50390625,-33.69140625,-32.2265625,-33.69140625,-11.23046875,0.0
1204.79296875,-48.828125,-34.66796875,-31.25,-35.15625,-83.49609375,0.0
1204.796875,-47.8515625,-33.203125,-30.2734375,-27.34375,-112.79296875,0.0
1204.80078125,-43.45703125,-27.83203125,-29.78515625,-27.34375,-62.98828125,0.0
1204.8046875,-30.76171875,-20.5078125,-29.78515625,-21.484375,-11.71875,0.0
1204.80859375,-20.99609375,-19.04296875,-28.3203125,-17.578125,-60.546875,0.0
1204.8125,-30.2734375,-22.4609375,-26.3671875,-24.4140625,-66.40625,0.0
1204.81640625,-36.62109375,-27.34375,-31.25,-29.296875,-66.89453125,0.0
1204.8203125,-34.66796875,-26.85546875,-22.4609375,-29.78515625,-79.1015625,0.0
1204.82421875,-25.390625,-24.4140625,-24.4140625,-33.203125,-54.19921875,0.0
1204.828125,-28.3203125,-30.2734375,-36.62109375,-37.109375,-98.6328125,0.0
1204.83203125,-32.2265625,-27.34375,-34.66796875,-34.66796875,-161.1328125,0.0
1204.8359375,-19.53125,-27.83203125,-29.78515625,-21.97265625,-112.3046875,0.0
1204.83984375,-7.8125,-29.78515625,-21.484375,-4.39453125,-92.7734375,0.0
1204.84375,-9.765625,-28.3203125,-20.01953125,-6.8359375,-71.2890625,0.0
1204.84765625,-21.484375,-27.83203125,-28.3203125,-32.2265625,0.0,0.0
1204.8515625,-27.34375,-27.83203125,-35.15625,-38.0859375,-15.625,0.0
1204.85546875,-31.25,-31.25,-36.1328125,-35.15625,-100.5859375,0.0
1204.859375,-37.109375,-37.109375,-33.69140625,-33.203125,-77.63671875,0.0
1204.86328125,-38.0859375,-35.64453125,-25.87890625,-32.2265625,-17.08984375,0.0
1204.8671875,-33.69140625,-32.2265625,-20.99609375,-34.1796875,-27.83203125,0.0
1204.87109375,-45.8984375,-37.109375,-34.1796875,-36.1328125,71.2890625,0.0
1204.875,-53.22265625,-42.96875,-38.0859375,-35.64453125,88.8671875,0.0
1204.87890625,-42.48046875,-37.109375,-29.78515625,-31.73828125,17.578125,0.0
1204.8828125,-33.69140625,-28.3203125,-29.296875,-24.4140625,-68.359375,0.0
1204.88671875,-30.2734375,-26.3671875,-28.80859375,-18.5546875,-79.1015625,0.0
1204.890625,-36.1328125,-24.90234375,-30.76171875,-24.90234375,-77.63671875,0.0
1204.89453125,-45.41015625,-30.76171875,-29.78515625,-30.76171875,-14.16015625,0.0
1204.8984375,-38.0859375,-32.2265625,-26.3671875,-27.34375,6.34765625,0.0
1204.90234375,-24.90234375,-26.3671875,-30.76171875,-18.06640625,-16.6015625,0.0
1204.90625,-23.92578125,-31.73828125,-27.83203125,-12.20703125,5.859375,0.0
1204.91015625,-27.34375,-33.203125,-19.53125,-26.3671875,-21.484375,0.0
1204.9140625,-39.0625,-30.76171875,-30.76171875,-45.8984375,-58.10546875,0.0
1204.91796875,-33.69140625,-29.296875,-43.9453125,-44.43359375,-52.734375,0.0
1204.921875,-20.5078125,-24.90234375,-40.0390625,-40.52734375,-96.6796875,0.0
1204.92578125,-20.99609375,-23.92578125,-34.1796875,-40.0390625,-25.87890625,0.0
1204.9296875,-21.97265625,-23.4375,-36.62109375,-37.59765625,11.23046875,0.0
1204.93359375,-13.671875,-20.01953125,-36.62109375,-34.1796875,-27.34375,0.0
1204.9375,-5.859375,-21.97265625,-34.66796875,-27.83203125,8.30078125,0.0
1204.94140625,-14.6484375,-31.73828125,-31.25,-31.73828125,-46.38671875,0.0
1204.9453125,-25.390625,-31.73828125,-27.34375,-38.0859375,-17.08984375,0.0
1204.94921875,-24.90234375,-30.2734375,-29.296875,-31.25,-21.97265625,0.0
1204.953125,-25.390625,-36.1328125,-22.94921875,-27.34375,-80.078125,0.0
1204.95703125,-42.48046875,-40.52734375,-20.5078125,-36.1328125,-66.89453125,0.0
1204.9609375,-51.26953125,-37.59765625,-28.80859375,-42.48046875,-11.71875,0.0
1204.96484375,-41.015625,-33.203125,-28.80859375,-34.66796875,0.9765625,0.0
1204.96875,-36.62109375,-31.25,-29.78515625,-26.85546875,2.44140625,0.0
1204.97265625,-42.96875,-33.69140625,-31.25,-23.92578125,7.32421875,0.0
1204.9765625,-51.26953125,-36.62109375,-33.203125,-30.76171875,-79.58984375,0.0
1204.98046875,-45.8984375,-33.69140625,-29.296875,-31.25,-108.3984375,0.0
1204.984375,-31.73828125,-28.80859375,-24.90234375,-24.90234375,10.7421875,0.0
1204.98828125,-26.85546875,-29.296875,-28.3203125,-22.94921875,-12.20703125,0.0
1204.9921875,-27.34375,-29.296875,-30.76171875,-23.92578125,-41.50390625,0.0
1204.99609375,-37.59765625,-30.2734375,-31.25,-32.71484375,-52.24609375,0.0
1205.0,-38.57421875,-35.15625,-29.78515625,-35.64453125,-135.7421875,0.0
1205.00390625,-28.80859375,-26.3671875,-32.2265625,-29.296875,-60.546875,0.0
1205.0078125,-30.2734375,-25.87890625,-37.109375,-30.2734375,19.53125,0.0
1205.01171875,-34.1796875,-31.25,-35.15625,-30.76171875,-5.859375,0.0
1205.015625,-35.15625,-30.76171875,-28.80859375,-32.2265625,3.41796875,0.0
1205.01953125,-33.69140625,-28.3203125,-36.1328125,-35.64453125,-20.99609375,0.0
1205.0234375,-28.3203125,-24.4140625,-41.015625,-34.66796875,-74.70703125,0.0
1205.02734375,-28.3203125,-25.87890625,-29.78515625,-33.203125,-1.953125,0.0
1205.03125,-31.73828125,-34.1796875,-27.34375,-33.69140625,-3.41796875,0.0
1205.03515625,-28.3203125,-40.0390625,-32.2265625,-31.25,-46.875,0.0
1205.0390625,-28.3203125,-37.59765625,-31.25,-30.76171875,-130.859375,0.0
1205.04296875,-36.1328125,-35.64453125,-20.01953125,-36.1328125,-145.01953125,0.0
1205.046875,-29.78515625,-37.109375,-20.01953125,-37.109375,-44.921875,0.0
1205.05078125,-26.85546875,-34.1796875,-33.203125,-36.1328125,-57.12890625,0.0
1205.0546875,-37.109375,-35.15625,-33.69140625,-41.9921875,-88.37890625,0.0
1205.05859375,-40.52734375,-38.0859375,-28.3203125,-41.50390625,63.4765625,0.0
1205.0625,-36.62109375,-37.109375,-22.94921875,-32.2265625,79.1015625,0.0
1205.06640625,-38.57421875,-33.203125,-20.99609375,-26.85546875,16.11328125,0.0
1205.0703125,-46.875,-36.62109375,-20.01953125,-28.80859375,29.78515625,0.0
1205.07421875,-47.36328125,-46.875,-20.5078125,-29.78515625,-17.578125,0.0
1205.078125,-36.1328125,-42.48046875,-20.99609375,-23.4375,-47.36328125,0.0
1205.08203125,-30.2734375,-38.57421875,-22.4609375,-20.99609375,-91.796875,0.0
1205.0859375,-35.64453125,-41.015625,-22.4609375,-27.83203125,-101.5625,0.0
1205.08984375,-39.55078125,-41.015625,-3.41796875,-30.76171875,-59.5703125,0.0
1205.09375,-41.50390625,-43.9453125,-13.671875,-32.71484375,-101.07421875,0.0
1205.09765625,-39.0625,-40.0390625,-35.15625,-32.71484375,-61.03515625,0.0
1205.1015625,-31.73828125,-37.59765625,-28.3203125,-24.90234375,87.890625,0.0
1205.10546875,-33.69140625,-36.1328125,-23.4375,-20.99609375,66.89453125,0.0
1205.109375,-33.69140625,-34.1796875,-34.66796875,-28.80859375,62.01171875,0.0
1205.11328125,-33.203125,-38.0859375,-35.64453125,-35.64453125,53.7109375,0.0
1205.1171875,-24.90234375,-39.0625,-35.64453125,-30.76171875,-38.57421875,0.0
1205.12109375,-8.7890625,-34.66796875,-32.71484375,-20.99609375,-58.10546875,0.0
1205.125,-9.765625,-35.15625,-30.2734375,-21.97265625,-72.75390625,0.0
1205.12890625,-16.11328125,-36.62109375,-31.25,-20.5078125,-41.50390625,0.0
1205.1328125,-28.80859375,-31.73828125,-34.1796875,-34.66796875,-16.11328125,0.0
1205.13671875,-40.0390625,-24.90234375,-37.59765625,-46.38671875,-56.640625,0.0
1205.140625,-32.2265625,-24.4140625,-34.1796875,-33.69140625,34.66796875,0.0
1205.14453125,-28.3203125,-29.296875,-31.25,-29.78515625,61.03515625,0.0
1205.1484375,-36.62109375,-32.2265625,-20.01953125,-34.1796875,-20.99609375,0.0
1205.15234375,-45.41015625,-35.64453125,-20.99609375,-35.64453125,53.22265625,0.0
1205.15625,-49.31640625,-37.59765625,-34.66796875,-32.71484375,20.5078125,0.0
1205.16015625,-45.8984375,-36.62109375,-35.64453125,-29.296875,-49.31640625,0.0
1205.1640625,-37.59765625,-34.66796875,-35.64453125,-23.4375,-1.953125,0.0
1205.16796875,-37.59765625,-31.73828125,-38.0859375,-19.53125,-17.578125,0.0
1205.171875,-36.62109375,-34.66796875,-31.25,-22.94921875,-57.12890625,0.0
1205.17578125,-33.69140625,-37.59765625,-28.80859375,-22.4609375,-84.9609375,0.0
1205.1796875,-25.87890625,-32.2265625,-27.34375,-14.6484375,-27.83203125,0.0
1205.18359375,-14.16015625,-25.87890625,-25.390625,-12.20703125,50.78125,0.0
1205.1875,-16.6015625,-27.34375,-28.3203125,-17.08984375,44.43359375,0.0
1205.19140625,-28.80859375,-28.80859375,-31.73828125,-28.80859375,21.484375,0.0
1205.1953125,-31.73828125,-26.85546875,-17.08984375,-39.0625,-61.5234375,0.0
1205.19921875,-15.13671875,-27.34375,-13.671875,-30.76171875,-77.1484375,0.0
1205.203125,-8.30078125,-27.34375,-28.80859375,-27.83203125,-6.8359375,0.0
1205.20703125,-14.16015625,-27.34375,-33.203125,-32.2265625,-51.26953125,0.0
1205.2109375,-21.97265625,-27.83203125,-35.15625,-41.015625,-16.6015625,0.0
1205.21484375,-29.296875,-32.2265625,-38.0859375,-44.921875,70.80078125,0.0
1205.21875,-25.87890625,-37.109375,-35.64453125,-35.64453125,17.578125,0.0
1205.22265625,-17.578125,-30.2734375,-28.80859375,-23.4375,10.25390625,0.0
1205.2265625,-19.53125,-25.87890625,-30.76171875,-22.94921875,126.46484375,0.0
1205.23046875,-32.71484375,-34.66796875,-35.64453125,-28.80859375,101.5625,0.0
1205.234375,-43.45703125,-41.50390625,-35.15625,-28.80859375,24.4140625,0.0
1205.23828125,-49.31640625,-35.15625,-23.4375,-33.203125,-6.8359375,0.0
1205.2421875,-41.50390625,-26.85546875,-21.484375,-24.4140625,-51.7578125,0.0
1205.24609375,-31.73828125,-26.3671875,-29.296875,-22.4609375,-34.66796875,0.0
1205.25,-39.55078125,-26.3671875,-32.2265625,-37.59765625,-45.41015625,0.0
1205.25390625,-47.8515625,-31.73828125,-37.109375,-43.45703125,-94.7265625,0.0
1205.2578125,-35.64453125,-32.71484375,-40.0390625,-41.015625,-60.546875,0.0
1205.26171875,-23.92578125,-28.3203125,-37.59765625,-38.0859375,-15.13671875,0.0
1205.265625,-23.92578125,-26.85546875,-28.3203125,-31.25,27.34375,0.0
1205.26953125,-30.2734375,-25.87890625,-26.3671875,-30.2734375,-32.71484375,0.0
1205.2734375,-33.69140625,-27.34375,-30.2734375,-31.73828125,-116.69921875,0.0
1205.27734375,-35.64453125,-26.85546875,-27.83203125,-28.3203125,29.78515625,0.0
1205.28125,-22.4609375,-26.3671875,-19.53125,-19.04296875,-22.94921875,0.0
1205.28515625,-13.671875,-22.94921875,-3.90625,-15.625,-153.3203125,0.0
1205.2890625,-22.94921875,-22.4609375,-13.18359375,-14.6484375,-65.4296875,0.0
1205.29296875,-28.80859375,-27.83203125,-27.34375,-20.99609375,17.578125,0.0
1205.296875,-28.80859375,-29.78515625,-25.390625,-24.4140625,-47.36328125,0.0
1205.30078125,-26.85546875,-26.85546875,-25.87890625,-23.4375,-58.10546875,0.0
1205.3046875,-21.484375,-25.87890625,-23.92578125,-25.87890625,-23.4375,0.0
1205.30859375,-24.4140625,-29.296875,-25.390625,-28.80859375,1.953125,0.0
1205.3125,-23.4375,-28.80859375,-20.5078125,-28.80859375,-61.5234375,0.0
1205.31640625,-24.4140625,-28.3203125,-22.94921875,-32.71484375,-53.22265625,0.0
1205.3203125,-20.01953125,-27.83203125,-30.2734375,-31.25,-38.57421875,0.0
1205.32421875,-12.20703125,-26.85546875,-29.78515625,-21.97265625,-18.06640625,0.0
1205.328125,-19.04296875,-29.296875,-20.99609375,-21.97265625,-0.48828125,0.0
1205.33203125,-27.34375,-34.66796875,-23.4375,-26.3671875,-18.5546875,0.0
1205.3359375,-19.53125,-34.66796875,-33.203125,-27.83203125,39.55078125,0.0
1205.33984375,-20.01953125,-32.2265625,-31.25,-26.85546875,43.9453125,0.0
1205.34375,-22.4609375,-33.69140625,-28.80859375,-25.87890625,-53.7109375,0.0
1205.34765625,-24.4140625,-30.76171875,-28.80859375,-24.4140625,-65.4296875,0.0
1205.3515625,-27.83203125,-34.66796875,-29.296875,-27.34375,-72.75390625,0.0
1205.35546875,-24.90234375,-34.66796875,-27.83203125,-27.34375,-40.52734375,0.0
1205.359375,-28.3203125,-28.3203125,-27.83203125,-25.390625,-16.6015625,0.0
1205.36328125,-23.92578125,-25.390625,-26.3671875,-18.5546875,-20.5078125,0.0
1205.3671875,-24.4140625,-31.73828125,-28.80859375,-19.04296875,-29.78515625,0.0
1205.37109375,-32.71484375,-33.69140625,-30.76171875,-26.3671875,-79.58984375,0.0
1205.375,-34.66796875,-34.1796875,-21.484375,-29.78515625,-64.453125,0.0
1205.37890625,-34.1796875,-34.1796875,-20.99609375,-25.87890625,-32.71484375,0.0
1205.3828125,-28.3203125,-32.2265625,-27.83203125,-23.4375,-23.4375,0.0
1205.38671875,-29.78515625,-29.78515625,-30.76171875,-27.83203125,45.8984375,0.0
1205.390625,-35.64453125,-32.2265625,-34.1796875,-29.78515625,31.25,0.0
1205.39453125,-39.0625,-34.66796875,-38.0859375,-37.109375,-52.24609375,0.0
1205.3984375,-41.50390625,-34.66796875,-40.0390625,-43.45703125,-21.484375,0.0
1205.40234375,-34.1796875,-35.64453125,-38.0859375,-38.0859375,-31.25,0.0
1205.40625,-33.203125,-36.1328125,-37.109375,-38.57421875,34.1796875,0.0
1205.41015625,-39.55078125,-36.1328125,-37.109375,-41.50390625,-37.109375,0.0
1205.4140625,-42.48046875,-41.015625,-34.66796875,-41.50390625,-222.16796875,0.0
1205.41796875,-29.78515625,-36.62109375,-24.4140625,-19.04296875,-236.328125,0.0
1205.421875,-9.765625,-29.78515625,-14.6484375,3.41796875,-160.15625,0.0
1205.42578125,-15.13671875,-26.3671875,-26.3671875,-15.625,-79.1015625,0.0
1205.4296875,-33.203125,-22.4609375,-34.66796875,-33.69140625,-55.6640625,0.0
1205.43359375,-42.96875,-25.390625,-37.109375,-34.1796875,-132.8125,0.0
1205.4375,-50.78125,-26.3671875,-39.55078125,-41.9921875,-22.4609375,0.0
1205.44140625,-40.0390625,-25.87890625,-35.64453125,-41.015625,131.8359375,0.0
1205.4453125,-17.578125,-22.94921875,-33.69140625,-29.296875,76.66015625,0.0
1205.44921875,-21.97265625,-22.4609375,-41.50390625,-37.59765625,41.50390625,0.0
1205.453125,-41.50390625,-27.83203125,-42.96875,-48.828125,27.34375,0.0
1205.45703125,-30.2734375,-27.34375,-37.59765625,-36.62109375,-36.1328125,0.0
1205.4609375,-15.625,-20.99609375,-27.34375,-25.390625,-93.75,0.0
1205.46484375,-15.625,-18.5546875,-20.99609375,-26.3671875,-55.17578125,0.0
1205.46875,-20.01953125,-27.34375,-27.34375,-32.2265625,-4.8828125,0.0
1205.47265625,-24.90234375,-31.73828125,-33.69140625,-25.390625,-5.859375,0.0
1205.4765625,-12.6953125,-26.3671875,-26.3671875,-10.7421875,-65.4296875,0.0
1205.48046875,-6.34765625,-24.4140625,-16.11328125,-12.20703125,-48.33984375,0.0
1205.484375,-11.23046875,-27.34375,-30.76171875,-20.99609375,93.26171875,0.0
1205.48828125,-14.6484375,-28.80859375,-37.59765625,-25.87890625,88.8671875,0.0
1205.4921875,-23.4375,-31.73828125,-34.1796875,-31.73828125,9.765625,0.0
1205.49609375,-25.390625,-37.59765625,-37.109375,-35.15625,-57.6171875,0.0
1205.5,-23.92578125,-37.109375,-42.96875,-35.64453125,-86.42578125,0.0
1205.50390625,-18.06640625,-32.71484375,-40.52734375,-33.203125,-54.19921875,0.0
1205.5078125,-17.08984375,-33.69140625,-29.78515625,-32.2265625,-96.6796875,0.0
1205.51171875,-31.25,-37.109375,-31.73828125,-36.1328125,-77.1484375,0.0
1205.515625,-36.1328125,-36.62109375,-37.109375,-43.9453125,-42.48046875,0.0
1205.51953125,-35.15625,-31.73828125,-35.64453125,-41.015625,-41.015625,0.0
1205.5234375,-23.4375,-26.85546875,-25.87890625,-27.83203125,0.0,0.0
1205.52734375,-20.5078125,-24.4140625,-29.78515625,-27.83203125,26.3671875,0.0
1205.53125,-31.73828125,-29.296875,-42.48046875,-34.1796875,20.5078125,0.0
1205.53515625,-41.015625,-38.0859375,-43.9453125,-43.45703125,1.46484375,0.0
1205.5390625,-36.62109375,-40.52734375,-36.1328125,-41.015625,4.39453125,0.0
1205.54296875,-26.3671875,-34.1796875,-37.109375,-33.203125,38.0859375,0.0
1205.546875,-28.80859375,-32.71484375,-38.0859375,-31.73828125,45.8984375,0.0
1205.55078125,-34.1796875,-34.1796875,-38.0859375,-37.109375,24.90234375,0.0
1205.5546875,-38.57421875,-35.15625,-35.64453125,-38.0859375,-66.89453125,0.0
1205.55859375,-38.0859375,-39.0625,-33.69140625,-32.71484375,-62.5,0.0
1205.5625,-32.2265625,-37.109375,-36.1328125,-35.64453125,84.47265625,0.0
1205.56640625,-25.390625,-29.296875,-31.73828125,-35.15625,139.6484375,0.0
1205.5703125,-29.296875,-31.73828125,-20.01953125,-36.62109375,44.43359375,0.0
1205.57421875,-29.78515625,-33.69140625,-25.390625,-30.76171875,-42.48046875,0.0
1205.578125,-27.34375,-32.2265625,-36.1328125,-30.76171875,-8.7890625,0.0
1205.58203125,-23.4375,-28.3203125,-33.203125,-33.203125,12.20703125,0.0
1205.5859375,-20.99609375,-26.3671875,-30.2734375,-26.85546875,-40.52734375,0.0
1205.58984375,-29.78515625,-29.78515625,-36.1328125,-35.15625,-73.2421875,0.0
1205.59375,-41.50390625,-33.203125,-36.1328125,-43.45703125,-12.20703125,0.0
1205.59765625,-41.015625,-35.64453125,-30.2734375,-41.9921875,-22.4609375,0.0
1205.6015625,-37.109375,-30.76171875,-29.296875,-39.0625,-112.3046875,0.0
1205.60546875,-32.2265625,-24.90234375,-30.2734375,-28.80859375,-117.67578125,0.0
1205.609375,-36.1328125,-30.76171875,-38.0859375,-30.2734375,-99.12109375,0.0
1205.61328125,-45.41015625,-32.2265625,-32.71484375,-38.0859375,-119.140625,0.0
1205.6171875,-50.29296875,-32.71484375,-26.85546875,-36.1328125,-84.9609375,0.0
1205.62109375,-47.8515625,-34.1796875,-33.203125,-39.0625,-34.66796875,0.0
1205.625,-43.45703125,-29.296875,-28.80859375,-34.66796875,1.953125,0.0
1205.62890625,-45.41015625,-32.2265625,-26.3671875,-31.73828125,-58.59375,0.0
1205.6328125,-45.8984375,-33.203125,-29.296875,-31.25,-122.55859375,0.0
1205.63671875,-41.9921875,-27.83203125,-32.71484375,-23.92578125,-143.5546875,0.0
1205.640625,-33.69140625,-26.3671875,-35.64453125,-18.5546875,-104.4921875,0.0
1205.64453125,-31.73828125,-27.34375,-30.2734375,-25.87890625,-76.171875,0.0
1205.6484375,-34.1796875,-27.83203125,-30.76171875,-37.59765625,-17.578125,0.0
1205.65234375,-35.64453125,-33.69140625,-39.0625,-37.109375,38.0859375,0.0
1205.65625,-31.73828125,-37.59765625,-39.0625,-26.3671875,47.8515625,0.0
1205.66015625,-17.578125,-31.25,-23.92578125,-14.16015625,47.36328125,0.0
1205.6640625,-12.20703125,-26.85546875,-31.25,-20.01953125,103.02734375,0.0
1205.66796875,-17.578125,-32.2265625,-39.0625,-27.34375,182.12890625,0.0
1205.671875,-25.390625,-41.015625,-28.80859375,-30.76171875,40.52734375,0.0
1205.67578125,-37.59765625,-43.9453125,-20.99609375,-34.1796875,-52.24609375,0.0
1205.6796875,-34.66796875,-45.8984375,-19.53125,-30.76171875,-11.23046875,0.0
1205.68359375,-24.4140625,-42.96875,-21.97265625,-25.390625,-8.7890625,0.0
1205.6875,-32.2265625,-43.45703125,-30.2734375,-30.76171875,24.4140625,0.0
1205.69140625,-42.96875,-48.33984375,-34.1796875,-36.62109375,42.96875,0.0
1205.6953125,-41.9921875,-49.8046875,-32.2265625,-38.57421875,-43.9453125,0.0
1205.69921875,-39.55078125,-47.36328125,-34.1796875,-35.64453125,-23.4375,0.0
1205.703125,-40.0390625,-43.9453125,-28.80859375,-37.59765625,9.27734375,0.0
1205.70703125,-36.1328125,-41.9921875,-22.4609375,-40.0390625,-35.15625,0.0
1205.7109375,-43.45703125,-47.36328125,-25.390625,-40.0390625,-34.1796875,0.0
1205.71484375,-44.921875,-50.29296875,-26.85546875,-38.0859375,-47.36328125,0.0
1205.71875,-35.64453125,-48.828125,-31.73828125,-33.203125,-60.05859375,0.0
1205.72265625,-28.80859375,-42.48046875,-26.85546875,-22.94921875,-78.61328125,0.0
1205.7265625,-24.4140625,-38.57421875,-22.4609375,-23.4375,-49.31640625,0.0
1205.73046875,-32.71484375,-39.0625,-29.296875,-26.3671875,-74.70703125,0.0
1205.734375,-39.0625,-41.9921875,-33.203125,-28.3203125,-219.7265625,0.0
1205.73828125,-35.64453125,-41.50390625,-27.34375,-24.90234375,-184.5703125,0.0
1205.7421875,-28.3203125,-41.015625,-27.34375,-21.97265625,-41.50390625,0.0
1205.74609375,-20.5078125,-38.57421875,-30.2734375,-25.87890625,20.99609375,0.0
1205.75,-21.97265625,-38.57421875,-21.97265625,-29.296875,-67.3828125,0.0
1205.75390625,-24.90234375,-43.45703125,-24.4140625,-29.296875,-117.1875,0.0
1205.7578125,-23.92578125,-44.43359375,-31.25,-24.4140625,-54.6875,0.0
1205.76171875,-13.18359375,-32.2265625,-23.4375,-25.390625,-9.27734375,0.0
1205.765625,-4.8828125,-24.4140625,-19.04296875,-27.83203125,75.68359375,0.0
1205.76953125,-7.8125,-30.76171875,-24.4140625,-27.34375,61.03515625,0.0
1205.7734375,-13.18359375,-32.2265625,-24.90234375,-23.4375,-16.11328125,0.0
1205.77734375,-19.53125,-30.2734375,-23.92578125,-28.80859375,-15.625,0.0
1205.78125,-25.390625,-28.80859375,-23.4375,-31.25,-34.1796875,0.0
1205.78515625,-31.73828125,-28.3203125,-20.99609375,-26.3671875,-47.36328125,0.0
1205.7890625,-39.0625,-27.83203125,-20.01953125,-28.3203125,-3.90625,0.0
1205.79296875,-47.8515625,-28.80859375,-16.6015625,-32.71484375,-23.4375,0.0
1205.796875,-56.640625,-35.64453125,-17.578125,-36.1328125,-22.4609375,0.0
1205.80078125,-53.7109375,-39.55078125,-28.3203125,-34.66796875,18.06640625,0.0
1205.8046875,-45.41015625,-30.76171875,-26.85546875,-32.71484375,35.15625,0.0
1205.80859375,-41.9921875,-25.87890625,-23.92578125,-32.2265625,19.04296875,0.0
1205.8125,-45.41015625,-30.76171875,-30.76171875,-37.109375,16.11328125,0.0
1205.81640625,-43.9453125,-33.69140625,-33.69140625,-41.015625,12.6953125,0.0
1205.8203125,-34.1796875,-31.25,-30.2734375,-26.85546875,0.48828125,0.0
1205.82421875,-20.99609375,-24.90234375,-24.90234375,-15.13671875,-11.71875,0.0
1205.828125,-17.578125,-26.85546875,-28.80859375,-24.90234375,-4.39453125,0.0
1205.83203125,-23.92578125,-31.73828125,-33.69140625,-27.83203125,-63.96484375,0.0
1205.8359375,-21.484375,-23.92578125,-27.34375,-18.5546875,-107.91015625,0.0
1205.83984375,-19.04296875,-25.87890625,-20.5078125,-20.99609375,-125.0,0.0
1205.84375,-20.01953125,-34.66796875,-28.80859375,-21.97265625,-112.79296875,0.0
1205.84765625,-17.578125,-31.73828125,-33.69140625,-18.06640625,-100.09765625,0.0
1205.8515625,-27.34375,-31.25,-29.78515625,-19.53125,-105.46875,0.0
1205.85546875,-36.62109375,-36.62109375,-29.296875,-30.2734375,-173.828125,0.0
1205.859375,-29.78515625,-34.1796875,-30.76171875,-27.34375,-133.30078125,0.0
1205.86328125,-16.6015625,-24.90234375,-26.3671875,-14.6484375,-47.36328125,0.0
1205.8671875,-19.04296875,-25.390625,-21.97265625,-11.71875,-82.51953125,0.0
1205.87109375,-27.34375,-30.76171875,-20.01953125,-15.13671875,-2.9296875,0.0
1205.875,-35.15625,-37.109375,-29.296875,-22.94921875,1.953125,0.0
1205.87890625,-36.62109375,-38.0859375,-33.203125,-25.390625,-88.37890625,0.0
1205.8828125,-26.85546875,-27.83203125,-24.4140625,-22.94921875,-20.5078125,0.0
1205.88671875,-26.85546875,-23.4375,-24.90234375,-19.53125,92.7734375,0.0
1205.890625,-38.57421875,-35.15625,-32.71484375,-26.3671875,11.71875,0.0
1205.89453125,-42.48046875,-36.1328125,-30.2734375,-31.73828125,-93.26171875,0.0
1205.8984375,-35.15625,-30.2734375,-15.13671875,-23.92578125,-72.75390625,0.0
1205.90234375,-30.2734375,-34.1796875,-18.06640625,-30.2734375,-31.25,0.0
1205.90625,-30.2734375,-34.1796875,-29.78515625,-34.66796875,-31.73828125,0.0
1205.91015625,-33.203125,-36.62109375,-33.69140625,-36.62109375,-108.3984375,0.0
1205.9140625,-36.1328125,-38.0859375,-33.203125,-38.0859375,-156.73828125,0.0
1205.91796875,-30.76171875,-33.69140625,-28.80859375,-31.25,-20.5078125,0.0
1205.921875,-22.4609375,-32.71484375,-26.85546875,-29.78515625,63.96484375,0.0
1205.92578125,-21.97265625,-35.64453125,-29.296875,-34.66796875,-1.953125,0.0
1205.9296875,-26.85546875,-34.1796875,-26.85546875,-30.2734375,-56.640625,0.0
1205.93359375,-30.76171875,-31.73828125,-25.87890625,-28.3203125,-30.2734375,0.0
1205.9375,-32.71484375,-35.15625,-29.296875,-30.76171875,-61.03515625,0.0
1205.94140625,-24.4140625,-32.2265625,-26.3671875,-26.3671875,-75.68359375,0.0
1205.9453125,-16.6015625,-27.83203125,-20.01953125,-22.94921875,-50.29296875,0.0
1205.94921875,-18.5546875,-32.2265625,-23.92578125,-23.4375,-15.13671875,0.0
1205.953125,-29.296875,-37.59765625,-31.73828125,-28.3203125,68.359375,0.0
1205.95703125,-34.1796875,-35.15625,-20.5078125,-23.92578125,81.54296875,0.0
1205.9609375,-29.78515625,-30.2734375,-8.30078125,-19.04296875,61.5234375,0.0
1205.96484375,-30.76171875,-32.71484375,-26.85546875,-24.4140625,88.8671875,0.0
1205.96875,-36.1328125,-35.64453125,-30.76171875,-32.2265625,74.70703125,0.0
1205.97265625,-41.50390625,-34.66796875,-23.4375,-35.64453125,38.0859375,0.0
1205.9765625,-40.52734375,-33.203125,-28.80859375,-33.203125,77.1484375,0.0
1205.98046875,-33.203125,-31.25,-32.2265625,-31.73828125,43.45703125,0.0
1205.984375,-29.296875,-37.109375,-33.203125,-30.2734375,6.8359375,0.0
1205.98828125,-25.390625,-34.1796875,-20.99609375,-29.296875,6.34765625,0.0
1205.9921875,-19.04296875,-28.3203125,-20.01953125,-27.83203125,16.11328125,0.0
1205.99609375,-24.90234375,-34.1796875,-34.66796875,-26.85546875,14.6484375,0.0
1206.0,-27.83203125,-33.69140625,-33.69140625,-24.4140625,5.37109375,0.0
1206.00390625,-18.5546875,-29.296875,-31.73828125,-29.78515625,41.9921875,0.0
1206.0078125,-17.08984375,-30.76171875,-31.73828125,-30.2734375,-7.8125,0.0
1206.01171875,-26.85546875,-36.1328125,-33.203125,-26.3671875,-65.4296875,0.0
1206.015625,-29.296875,-37.109375,-35.15625,-31.25,-145.01953125,0.0
1206.01953125,-22.4609375,-33.203125,-29.78515625,-26.85546875,-112.79296875,0.0
1206.0234375,-20.5078125,-31.73828125,-26.85546875,-27.83203125,-50.29296875,0.0
1206.02734375,-20.99609375,-31.73828125,-32.71484375,-30.2734375,-63.4765625,0.0
1206.03125,-25.87890625,-33.69140625,-33.69140625,-27.34375,-9.27734375,0.0
1206.03515625,-33.203125,-33.69140625,-16.11328125,-31.25,24.90234375,0.0
1206.0390625,-33.69140625,-36.62109375,-18.5546875,-28.80859375,5.37109375,0.0
1206.04296875,-21.484375,-32.71484375,-30.2734375,-21.484375,-79.58984375,0.0
1206.046875,-23.92578125,-33.203125,-26.3671875,-24.90234375,-46.38671875,0.0
1206.05078125,-39.0625,-34.1796875,-28.3203125,-28.80859375,-7.8125,0.0
1206.0546875,-39.0625,-32.71484375,-30.2734375,-24.4140625,-41.015625,0.0
1206.05859375,-36.1328125,-36.1328125,-25.87890625,-21.484375,-60.05859375,0.0
1206.0625,-32.2265625,-34.1796875,-20.99609375,-19.04296875,-0.48828125,0.0
1206.06640625,-37.59765625,-36.1328125,-26.85546875,-28.3203125,24.4140625,0.0
1206.0703125,-46.875,-37.59765625,-32.71484375,-36.62109375,19.04296875,0.0
1206.07421875,-47.8515625,-36.62109375,-33.203125,-40.0390625,67.87109375,0.0
1206.078125,-45.8984375,-33.203125,-26.85546875,-40.52734375,-7.32421875,0.0
1206.08203125,-40.0390625,-28.80859375,-23.4375,-36.62109375,-62.5,0.0
1206.0859375,-32.2265625,-32.2265625,-29.78515625,-32.2265625,23.4375,0.0
1206.08984375,-35.64453125,-36.1328125,-29.78515625,-30.2734375,43.9453125,0.0
1206.09375,-47.36328125,-40.0390625,-31.73828125,-39.0625,-49.31640625,0.0
1206.09765625,-55.17578125,-41.50390625,-35.15625,-44.43359375,-121.09375,0.0
1206.1015625,-36.62109375,-36.1328125,-26.85546875,-33.203125,-120.60546875,0.0
1206.10546875,-23.4375,-33.69140625,-24.4140625,-29.78515625,-98.6328125,0.0
1206.109375,-33.69140625,-29.296875,-26.3671875,-42.96875,-51.7578125,0.0
1206.11328125,-40.52734375,-30.2734375,-25.87890625,-43.9453125,32.2265625,0.0
1206.1171875,-38.57421875,-33.203125,-32.71484375,-34.1796875,-25.87890625,0.0
1206.12109375,-31.73828125,-31.25,-29.78515625,-25.390625,-129.39453125,0.0
1206.125,-28.3203125,-24.4140625,-13.18359375,-29.296875,-126.46484375,0.0
1206.12890625,-30.2734375,-26.85546875,-21.97265625,-36.62109375,-51.26953125,0.0
1206.1328125,-37.109375,-34.66796875,-30.76171875,-27.83203125,7.32421875,0.0
1206.13671875,-41.015625,-29.296875,-22.94921875,-22.4609375,44.921875,0.0
1206.140625,-41.015625,-27.34375,-17.578125,-31.25,78.125,0.0
1206.14453125,-34.1796875,-34.1796875,-29.296875,-26.85546875,-5.37109375,0.0
1206.1484375,-38.57421875,-36.62109375,-35.15625,-23.4375,-62.98828125,0.0
1206.15234375,-40.52734375,-37.59765625,-32.2265625,-32.71484375,-19.53125,0.0
1206.15625,-37.109375,-38.57421875,-33.69140625,-33.69140625,11.23046875,0.0
1206.16015625,-33.203125,-35.15625,-35.64453125,-29.296875,-102.05078125,0.0
1206.1640625,-28.80859375,-32.2265625,-35.64453125,-26.85546875,-150.390625,0.0
1206.16796875,-29.78515625,-31.73828125,-29.296875,-28.3203125,-117.67578125,0.0
1206.171875,-34.1796875,-35.15625,-30.76171875,-37.59765625,-178.7109375,0.0
1206.17578125,-28.80859375,-33.203125,-41.9921875,-41.50390625,-174.31640625,0.0
1206.1796875,-19.04296875,-28.3203125,-38.0859375,-29.78515625,-92.28515625,0.0
1206.18359375,-15.625,-29.78515625,-33.203125,-25.390625,-101.07421875,0.0
1206.1875,-15.13671875,-33.203125,-37.109375,-29.78515625,-113.76953125,0.0
1206.19140625,-16.6015625,-28.3203125,-39.0625,-32.71484375,-94.23828125,0.0
1206.1953125,-21.97265625,-27.83203125,-34.66796875,-36.1328125,-61.5234375,0.0
1206.19921875,-23.92578125,-30.76171875,-27.34375,-30.2734375,-27.83203125,0.0
1206.203125,-23.4375,-30.2734375,-24.90234375,-26.3671875,16.6015625,0.0
1206.20703125,-28.3203125,-32.2265625,-34.66796875,-36.62109375,54.6875,0.0
1206.2109375,-41.50390625,-34.66796875,-36.1328125,-40.0390625,23.4375,0.0
1206.21484375,-50.78125,-40.0390625,-20.99609375,-42.96875,19.04296875,0.0
1206.21875,-45.41015625,-45.41015625,-32.71484375,-40.0390625,3.41796875,0.0
1206.22265625,-38.57421875,-41.50390625,-41.50390625,-36.62109375,35.15625,0.0
1206.2265625,-45.8984375,-41.015625,-38.0859375,-42.48046875,87.890625,0.0
1206.23046875,-51.26953125,-38.57421875,-32.71484375,-44.43359375,16.6015625,0.0
1206.234375,-52.24609375,-38.0859375,-34.1796875,-37.59765625,-33.203125,0.0
1206.23828125,-54.19921875,-40.0390625,-38.0859375,-35.15625,16.6015625,0.0
1206.2421875,-36.62109375,-33.203125,-33.203125,-28.80859375,-3.90625,0.0
1206.24609375,-31.73828125,-30.2734375,-32.71484375,-29.296875,9.27734375,0.0
1206.25,-38.57421875,-31.73828125,-36.1328125,-35.15625,41.015625,0.0
1206.25390625,-42.96875,-37.59765625,-39.55078125,-39.0625,-29.296875,0.0
1206.2578125,-43.45703125,-36.1328125,-33.69140625,-39.55078125,-82.51953125,0.0
1206.26171875,-35.15625,-35.64453125,-24.90234375,-37.109375,-62.5,0.0
1206.265625,-29.78515625,-41.015625,-35.64453125,-41.9921875,-53.7109375,0.0
1206.26953125,-34.1796875,-43.45703125,-41.9921875,-41.50390625,-77.63671875,0.0
1206.2734375,-41.015625,-44.921875,-39.0625,-41.50390625,-120.60546875,0.0
1206.27734375,-37.59765625,-42.48046875,-40.0390625,-45.41015625,-21.484375,0.0
1206.28125,-24.4140625,-37.109375,-33.203125,-34.66796875,10.7421875,0.0
1206.28515625,-20.5078125,-35.64453125,-31.25,-20.99609375,-42.96875,0.0
1206.2890625,-27.83203125,-40.52734375,-32.71484375,-24.90234375,-18.06640625,0.0
1206.29296875,-29.78515625,-42.48046875,-29.296875,-28.3203125,-69.3359375,0.0
1206.296875,-29.296875,-39.55078125,-30.2734375,-24.90234375,-96.19140625,0.0
1206.30078125,-25.87890625,-29.296875,-24.4140625,-21.97265625,-35.64453125,0.0
1206.3046875,-19.53125,-26.85546875,-23.92578125,-20.5078125,-6.34765625,0.0
1206.30859375,-24.90234375,-36.1328125,-25.390625,-27.34375,-41.9921875,0.0
1206.3125,-39.0625,-39.55078125,-27.34375,-35.15625,-33.203125,0.0
1206.31640625,-44.921875,-39.0625,-29.296875,-39.55078125,-28.80859375,0.0
1206.3203125,-42.96875,-37.109375,-15.13671875,-32.71484375,-24.90234375,0.0
1206.32421875,-42.48046875,-35.64453125,-13.18359375,-28.3203125,-9.765625,0.0
1206.328125,-50.29296875,-41.015625,-30.76171875,-34.1796875,27.83203125,0.0
1206.33203125,-57.6171875,-43.45703125,-37.109375,-31.25,-32.2265625,0.0
1206.3359375,-56.15234375,-41.9921875,-34.1796875,-30.76171875,-61.03515625,0.0
1206.33984375,-44.921875,-39.0625,-30.2734375,-29.78515625,-76.66015625,0.0
1206.34375,-32.71484375,-34.1796875,-31.25,-21.97265625,-5.37109375,0.0
1206.34765625,-29.296875,-31.73828125,-30.76171875,-21.97265625,18.5546875,0.0
1206.3515625,-33.203125,-30.2734375,-32.71484375,-30.76171875,-60.546875,0.0
1206.35546875,-35.15625,-33.69140625,-35.64453125,-34.66796875,-96.6796875,0.0
1206.359375,-26.3671875,-31.25,-34.66796875,-35.64453125,-73.73046875,0.0
1206.36328125,-10.7421875,-24.90234375,-20.01953125,-31.25,-41.9921875,0.0
1206.3671875,-11.71875,-25.390625,-17.08984375,-31.73828125,-67.3828125,0.0
1206.37109375,-24.4140625,-29.296875,-28.80859375,-34.1796875,-60.546875,0.0
1206.375,-31.25,-34.66796875,-35.64453125,-41.015625,-70.80078125,0.0
1206.37890625,-29.296875,-32.2265625,-36.62109375,-41.50390625,-65.4296875,0.0
1206.3828125,-25.390625,-31.25,-33.69140625,-35.15625,20.01953125,0.0
1206.38671875,-23.92578125,-30.76171875,-32.2265625,-33.203125,25.390625,0.0
1206.390625,-33.203125,-32.71484375,-34.66796875,-34.1796875,-18.5546875,0.0
1206.39453125,-39.0625,-36.1328125,-40.52734375,-40.0390625,-34.1796875,0.0
1206.3984375,-36.1328125,-32.71484375,-37.59765625,-41.015625,-48.33984375,0.0
1206.40234375,-28.80859375,-25.87890625,-33.203125,-29.296875,-25.87890625,0.0
1206.40625,-24.90234375,-26.3671875,-31.73828125,-27.34375,26.3671875,0.0
1206.41015625,-38.57421875,-36.1328125,-18.06640625,-30.76171875,7.8125,0.0
1206.4140625,-47.8515625,-42.96875,-16.6015625,-32.71484375,-29.78515625,0.0
1206.41796875,-41.50390625,-39.0625,-28.80859375,-32.2265625,5.37109375,0.0
1206.421875,-35.64453125,-35.15625,-26.85546875,-29.78515625,-11.71875,0.0
1206.42578125,-26.3671875,-34.1796875,-23.4375,-29.296875,-2.44140625,0.0
1206.4296875,-22.4609375,-30.2734375,-31.25,-32.2265625,-14.6484375,0.0
1206.43359375,-31.25,-31.25,-32.2265625,-34.1796875,-98.14453125,0.0
1206.4375,-28.3203125,-34.66796875,-29.296875,-35.64453125,-47.8515625,0.0
1206.44140625,-24.90234375,-35.15625,-29.78515625,-32.2265625,7.8125,0.0
1206.4453125,-28.3203125,-35.15625,-30.2734375,-34.66796875,-29.78515625,0.0
1206.44921875,-28.80859375,-34.1796875,-30.76171875,-41.50390625,-81.0546875,0.0
1206.453125,-36.1328125,-38.0859375,-22.94921875,-40.52734375,-132.8125,0.0
1206.45703125,-36.1328125,-35.64453125,-20.5078125,-34.66796875,-40.0390625,0.0
1206.4609375,-21.484375,-30.2734375,-26.85546875,-27.34375,13.18359375,0.0
1206.46484375,-17.08984375,-30.2734375,-26.85546875,-25.390625,-32.2265625,0.0
1206.46875,-22.94921875,-33.203125,-25.87890625,-26.85546875,53.22265625,0.0
1206.47265625,-30.2734375,-34.66796875,-24.90234375,-26.3671875,84.9609375,0.0
1206.4765625,-29.296875,-34.66796875,-22.94921875,-21.97265625,59.08203125,0.0
1206.48046875,-20.99609375,-34.66796875,-21.97265625,-20.5078125,76.171875,0.0
1206.484375,-20.01953125,-28.80859375,-23.4375,-20.01953125,45.8984375,0.0
1206.48828125,-26.85546875,-31.25,-29.296875,-26.85546875,8.7890625,0.0
1206.4921875,-32.71484375,-35.64453125,-30.2734375,-37.109375,45.41015625,0.0
1206.49609375,-27.83203125,-34.66796875,-28.3203125,-30.2734375,41.50390625,0.0
1206.5,-24.90234375,-36.62109375,-24.90234375,-26.85546875,7.8125,0.0
1206.50390625,-23.4375,-31.73828125,-23.4375,-30.2734375,-35.64453125,0.0
1206.5078125,-25.87890625,-27.83203125,-31.25,-32.2265625,-17.08984375,0.0
1206.51171875,-37.109375,-33.69140625,-32.71484375,-36.1328125,30.2734375,0.0
1206.515625,-41.015625,-39.0625,-27.83203125,-39.55078125,-62.5,0.0
1206.51953125,-30.76171875,-32.71484375,-29.78515625,-37.109375,-127.9296875,0.0
1206.5234375,-26.3671875,-27.83203125,-34.1796875,-33.203125,-69.82421875,0.0
1206.52734375,-28.80859375,-33.203125,-33.203125,-38.0859375,-82.03125,0.0
1206.53125,-33.69140625,-41.015625,-34.66796875,-45.8984375,-62.01171875,0.0
1206.53515625,-34.1796875,-38.0859375,-32.71484375,-37.59765625,-67.3828125,0.0
1206.5390625,-34.1796875,-31.73828125,-32.71484375,-32.71484375,-101.5625,0.0
1206.54296875,-33.69140625,-33.69140625,-21.484375,-30.2734375,-52.24609375,0.0
1206.546875,-31.25,-34.66796875,-19.04296875,-29.296875,-19.04296875,0.0
1206.55078125,-41.015625,-36.62109375,-38.0859375,-37.59765625,-11.71875,0.0
1206.5546875,-47.36328125,-42.48046875,-41.50390625,-41.50390625,-7.32421875,0.0
1206.55859375,-42.96875,-37.59765625,-36.1328125,-36.1328125,-59.5703125,0.0
1206.5625,-27.34375,-26.3671875,-31.73828125,-27.34375,-78.125,0.0
1206.56640625,-20.99609375,-21.97265625,-28.3203125,-22.94921875,-49.31640625,0.0
1206.5703125,-28.3203125,-23.92578125,-29.296875,-23.92578125,-76.171875,0.0
1206.57421875,-28.80859375,-22.4609375,-29.296875,-25.390625,-142.08984375,0.0
1206.578125,-24.4140625,-20.99609375,-28.3203125,-19.04296875,-83.0078125,0.0
1206.58203125,-19.04296875,-20.01953125,-24.90234375,-14.16015625,-51.7578125,0.0
1206.5859375,-19.04296875,-22.4609375,-23.4375,-17.578125,-90.8203125,0.0
1206.58984375,-24.90234375,-26.3671875,-11.23046875,-21.484375,-70.3125,0.0
1206.59375,-31.73828125,-30.2734375,-17.08984375,-27.34375,-152.83203125,0.0
1206.59765625,-29.296875,-24.90234375,-31.25,-22.94921875,-121.58203125,0.0
1206.6015625,-26.3671875,-22.4609375,-26.3671875,-17.578125,-4.8828125,0.0
1206.60546875,-27.83203125,-29.78515625,-20.99609375,-25.390625,-0.9765625,0.0
1206.609375,-27.83203125,-28.80859375,-28.80859375,-30.76171875,19.53125,0.0
1206.61328125,-32.71484375,-30.2734375,-36.62109375,-32.2265625,15.13671875,0.0
1206.6171875,-41.015625,-34.1796875,-37.59765625,-35.15625,-62.01171875,0.0
1206.62109375,-34.66796875,-30.2734375,-33.203125,-31.25,-49.8046875,0.0
1206.625,-26.85546875,-31.25,-35.64453125,-33.69140625,52.24609375,0.0
1206.62890625,-30.76171875,-30.2734375,-39.0625,-34.66796875,33.203125,0.0
1206.6328125,-43.45703125,-35.15625,-28.80859375,-35.15625,-70.3125,0.0
1206.63671875,-47.8515625,-40.52734375,-28.80859375,-38.0859375,-71.77734375,0.0
1206.640625,-42.48046875,-37.109375,-38.57421875,-41.9921875,15.13671875,0.0
1206.64453125,-34.1796875,-38.0859375,-37.59765625,-43.45703125,35.15625,0.0
1206.6484375,-37.109375,-37.109375,-24.90234375,-47.36328125,20.5078125,0.0
1206.65234375,-48.828125,-37.109375,-27.83203125,-49.31640625,35.64453125,0.0
1206.65625,-44.921875,-35.64453125,-35.64453125,-45.8984375,34.66796875,0.0
1206.66015625,-33.69140625,-29.78515625,-27.83203125,-35.15625,29.78515625,0.0
1206.6640625,-31.25,-31.25,-28.3203125,-31.25,-15.625,0.0
1206.66796875,-36.62109375,-33.203125,-38.0859375,-36.1328125,41.9921875,0.0
1206.671875,-38.57421875,-36.62109375,-41.015625,-34.66796875,129.39453125,0.0
1206.67578125,-41.015625,-38.0859375,-39.0625,-31.73828125,68.84765625,0.0
1206.6796875,-38.0859375,-34.1796875,-36.1328125,-33.203125,-52.24609375,0.0
1206.68359375,-27.34375,-33.203125,-31.73828125,-34.1796875,-109.86328125,0.0
1206.6875,-29.78515625,-39.0625,-35.15625,-36.1328125,-93.75,0.0
1206.69140625,-30.76171875,-36.62109375,-31.73828125,-37.109375,-104.4921875,0.0
1206.6953125,-29.78515625,-30.2734375,6.8359375,-34.66796875,-137.20703125,0.0
1206.69921875,-32.71484375,-27.34375,8.7890625,-36.1328125,-98.14453125,0.0
1206.703125,-21.97265625,-25.390625,-29.296875,-38.57421875,-50.78125,0.0
1206.70703125,-20.5078125,-22.94921875,-33.203125,-32.2265625,-100.5859375,0.0
1206.7109375,-32.2265625,-26.85546875,-33.69140625,-34.66796875,-20.01953125,0.0
1206.71484375,-38.57421875,-34.1796875,-40.0390625,-33.69140625,40.52734375,0.0
1206.71875,-34.1796875,-35.64453125,-38.0859375,-26.85546875,-65.91796875,0.0
1206.72265625,-28.80859375,-34.66796875,-33.69140625,-27.34375,-37.109375,0.0
1206.7265625,-35.64453125,-33.203125,-36.1328125,-30.76171875,77.1484375,0.0
1206.73046875,-43.9453125,-33.203125,-37.59765625,-38.0859375,66.40625,0.0
1206.734375,-40.52734375,-35.15625,-39.55078125,-39.55078125,14.6484375,0.0
1206.73828125,-31.25,-29.78515625,-21.484375,-29.78515625,-40.0390625,0.0
1206.7421875,-29.296875,-31.25,-14.16015625,-30.2734375,-52.734375,0.0
1206.74609375,-29.296875,-35.15625,-36.1328125,-39.0625,3.90625,0.0
1206.75,-34.1796875,-32.71484375,-37.59765625,-40.52734375,47.8515625,0.0
1206.75390625,-40.0390625,-38.0859375,-28.80859375,-43.9453125,55.6640625,0.0
1206.7578125,-36.62109375,-40.0390625,-37.109375,-48.33984375,22.94921875,0.0
1206.76171875,-30.2734375,-35.64453125,-39.0625,-40.0390625,37.109375,0.0
1206.765625,-24.90234375,-31.73828125,-34.66796875,-35.15625,87.890625,0.0
1206.76953125,-25.87890625,-34.1796875,-34.1796875,-31.73828125,47.8515625,0.0
1206.7734375,-30.2734375,-36.1328125,-31.73828125,-28.3203125,-104.4921875,0.0
1206.77734375,-39.55078125,-35.15625,-33.203125,-30.2734375,-134.765625,0.0
1206.78125,-38.0859375,-32.71484375,-35.64453125,-34.1796875,-25.87890625,0.0
1206.78515625,-35.15625,-26.85546875,-16.6015625,-36.1328125,15.13671875,0.0
1206.7890625,-43.9453125,-26.3671875,-20.99609375,-34.66796875,-13.18359375,0.0
1206.79296875,-46.38671875,-29.78515625,-35.64453125,-33.203125,-23.4375,0.0
1206.796875,-44.43359375,-29.78515625,-34.66796875,-32.71484375,-51.7578125,0.0
1206.80078125,-39.55078125,-22.4609375,-28.80859375,-31.25,-78.125,0.0
1206.8046875,-31.73828125,-17.578125,-27.34375,-25.390625,-105.95703125,0.0
1206.80859375,-30.2734375,-21.97265625,-30.76171875,-20.99609375,-62.5,0.0
1206.8125,-37.59765625,-27.34375,-31.73828125,-32.71484375,-39.55078125,0.0
1206.81640625,-34.66796875,-28.3203125,-34.66796875,-45.41015625,-69.3359375,0.0
1206.8203125,-19.04296875,-24.4140625,-35.64453125,-40.0390625,-76.171875,0.0
1206.82421875,-14.6484375,-22.4609375,-33.69140625,-33.203125,-25.87890625,0.0
1206.828125,-14.6484375,-21.97265625,-24.4140625,-37.109375,5.859375,0.0
1206.83203125,-17.08984375,-24.90234375,-20.99609375,-28.3203125,-33.69140625,0.0
1206.8359375,-27.34375,-31.25,-32.2265625,-27.34375,-128.90625,0.0
1206.83984375,-24.90234375,-28.3203125,-35.64453125,-30.2734375,-115.234375,0.0
1206.84375,-12.6953125,-19.53125,-32.71484375,-26.3671875,-48.33984375,0.0
1206.84765625,-15.625,-21.484375,-32.71484375,-29.78515625,-27.83203125,0.0
1206.8515625,-29.78515625,-26.85546875,-33.203125,-36.62109375,-1.953125,0.0
1206.85546875,-32.2265625,-23.92578125,-28.3203125,-31.73828125,-33.69140625,0.0
1206.859375,-25.390625,-25.390625,-29.296875,-28.3203125,-101.5625,0.0
1206.86328125,-20.99609375,-28.80859375,-26.3671875,-25.390625,-90.33203125,0.0
1206.8671875,-25.390625,-29.78515625,-25.390625,-28.3203125,-17.578125,0.0
1206.87109375,-37.109375,-38.0859375,-29.78515625,-36.62109375,-12.6953125,0.0
1206.875,-41.50390625,-38.0859375,-18.5546875,-37.59765625,-15.625,0.0
1206.87890625,-37.59765625,-30.76171875,-20.01953125,-31.25,-5.37109375,0.0
1206.8828125,-33.203125,-33.69140625,-29.296875,-30.76171875,29.296875,0.0
1206.88671875,-33.203125,-36.1328125,-24.4140625,-32.2265625,30.2734375,0.0
1206.890625,-44.921875,-37.59765625,-24.4140625,-31.25,17.578125,0.0
1206.89453125,-47.36328125,-40.0390625,-34.1796875,-33.69140625,38.0859375,0.0
1206.8984375,-37.59765625,-39.0625,-35.64453125,-31.73828125,62.5,0.0
1206.90234375,-32.71484375,-33.203125,-29.296875,-28.80859375,92.7734375,0.0
1206.90625,-30.2734375,-30.76171875,-28.80859375,-30.2734375,38.0859375,0.0
1206.91015625,-28.3203125,-29.78515625,-29.296875,-26.3671875,33.203125,0.0
1206.9140625,-29.296875,-31.73828125,-31.25,-30.2734375,-30.76171875,0.0
1206.91796875,-35.64453125,-32.71484375,-20.01953125,-36.1328125,-121.58203125,0.0
1206.921875,-29.296875,-30.76171875,-9.765625,-33.69140625,-102.05078125,0.0
1206.92578125,-22.4609375,-30.76171875,-32.2265625,-34.1796875,-44.921875,0.0
1206.9296875,-30.76171875,-33.203125,-41.50390625,-36.62109375,-38.57421875,0.0
1206.93359375,-35.15625,-31.25,-37.109375,-39.55078125,-123.53515625,0.0
1206.9375,-31.73828125,-29.78515625,-39.55078125,-41.50390625,-105.46875,0.0
1206.94140625,-29.296875,-32.71484375,-37.109375,-36.1328125,-39.55078125,0.0
1206.9453125,-24.90234375,-31.25,-32.71484375,-25.87890625,-33.69140625,0.0
1206.94921875,-31.73828125,-30.76171875,-30.76171875,-22.94921875,-46.38671875,0.0
1206.953125,-45.41015625,-37.109375,-33.69140625,-33.203125,-86.42578125,0.0
1206.95703125,-42.96875,-36.62109375,-38.0859375,-42.48046875,-101.07421875,0.0
1206.9609375,-32.2265625,-25.390625,-31.73828125,-30.2734375,-36.1328125,0.0
1206.96484375,-32.71484375,-17.08984375,-21.97265625,-27.34375,8.7890625,0.0
1206.96875,-35.15625,-26.85546875,-29.78515625,-35.64453125,72.265625,0.0
1206.97265625,-38.0859375,-32.71484375,-39.0625,-33.69140625,-22.94921875,0.0
1206.9765625,-40.0390625,-25.390625,-32.2265625,-28.80859375,-109.86328125,0.0
1206.98046875,-37.59765625,-20.01953125,-1.953125,-26.85546875,-30.76171875,0.0
1206.984375,-32.71484375,-23.92578125,-18.06640625,-26.85546875,58.59375,0.0
1206.98828125,-32.2265625,-31.25,-43.45703125,-31.25,17.578125,0.0
1206.9921875,-34.1796875,-34.1796875,-35.15625,-31.25,-63.96484375,0.0
1206.99609375,-28.3203125,-30.2734375,-33.69140625,-27.34375,-32.2265625,0.0
1207.0,-19.04296875,-29.78515625,-34.66796875,-23.4375,-5.37109375,0.0
1207.00390625,-11.71875,-29.78515625,-32.2265625,-25.390625,-40.0390625,0.0
1207.0078125,-11.71875,-26.85546875,-28.3203125,-31.25,-25.87890625,0.0
1207.01171875,-14.6484375,-24.90234375,-28.3203125,-24.4140625,-17.08984375,0.0
1207.015625,-18.5546875,-28.3203125,-35.64453125,-28.3203125,12.20703125,0.0
1207.01953125,-14.6484375,-24.90234375,-39.55078125,-28.80859375,39.0625,0.0
1207.0234375,-15.13671875,-21.484375,-25.87890625,-23.4375,0.48828125,0.0
1207.02734375,-22.4609375,-23.92578125,-25.87890625,-29.296875,-90.8203125,0.0
1207.03125,-32.2265625,-31.73828125,-42.96875,-38.57421875,-50.78125,0.0
1207.03515625,-38.0859375,-38.57421875,-41.50390625,-45.8984375,-19.53125,0.0
1207.0390625,-31.25,-31.25,-26.3671875,-35.64453125,13.18359375,0.0
1207.04296875,-27.34375,-26.85546875,-29.296875,-29.296875,90.33203125,0.0
1207.046875,-34.66796875,-30.2734375,-34.66796875,-35.64453125,46.38671875,0.0
1207.05078125,-38.57421875,-29.78515625,-33.203125,-32.71484375,17.08984375,0.0
1207.0546875,-33.203125,-23.92578125,-29.78515625,-35.15625,-16.6015625,0.0
1207.05859375,-32.2265625,-27.34375,-29.78515625,-33.203125,-39.55078125,0.0
1207.0625,-19.04296875,-25.87890625,-34.66796875,-31.25,-47.8515625,0.0
1207.06640625,-12.20703125,-19.04296875,-34.66796875,-36.62109375,-61.5234375,0.0
1207.0703125,-28.80859375,-26.3671875,-10.7421875,-40.52734375,22.94921875,0.0
1207.07421875,-38.57421875,-36.62109375,-11.23046875,-41.50390625,104.98046875,0.0
1207.078125,-32.2265625,-38.0859375,-30.76171875,-37.109375,70.3125,0.0
1207.08203125,-25.87890625,-34.66796875,-28.3203125,-37.59765625,1.953125,0.0
1207.0859375,-29.296875,-40.52734375,-31.25,-39.55078125,-0.48828125,0.0
1207.08984375,-37.109375,-42.48046875,-38.57421875,-38.0859375,17.08984375,0.0
1207.09375,-37.59765625,-37.109375,-35.15625,-33.203125,-30.2734375,0.0
1207.09765625,-31.25,-39.55078125,-29.296875,-32.2265625,-89.35546875,0.0
1207.1015625,-27.34375,-39.0625,-31.73828125,-37.109375,-29.296875,0.0
1207.10546875,-26.85546875,-32.71484375,-31.73828125,-33.69140625,-53.7109375,0.0
1207.109375,-33.203125,-36.62109375,-31.73828125,-31.25,-35.64453125,0.0
1207.11328125,-38.0859375,-41.9921875,-21.484375,-31.25,-23.4375,0.0
1207.1171875,-39.0625,-37.59765625,-19.53125,-33.203125,-74.70703125,0.0
1207.12109375,-36.62109375,-31.25,-31.25,-38.0859375,-55.6640625,0.0
1207.125,-35.15625,-36.1328125,-34.1796875,-37.109375,-82.03125,0.0
1207.12890625,-41.015625,-40.0390625,-35.64453125,-28.3203125,-81.0546875,0.0
1207.1328125,-46.38671875,-40.52734375,-35.15625,-33.69140625,-46.875,0.0
1207.13671875,-40.52734375,-36.62109375,-34.1796875,-34.66796875,-66.40625,0.0
1207.140625,-34.1796875,-32.2265625,-28.80859375,-35.15625,-61.5234375,0.0
1207.14453125,-33.69140625,-35.15625,-16.6015625,-38.57421875,-74.70703125,0.0
1207.1484375,-35.64453125,-34.1796875,-26.3671875,-32.2265625,-142.08984375,0.0
1207.15234375,-40.52734375,-39.55078125,-38.57421875,-33.69140625,-162.109375,0.0
1207.15625,-40.52734375,-48.33984375,-31.25,-33.203125,-108.88671875,0.0
1207.16015625,-35.15625,-51.26953125,-10.7421875,-33.203125,-102.05078125,0.0
1207.1640625,-26.85546875,-46.38671875,-21.484375,-33.69140625,-59.5703125,0.0
1207.16796875,-26.85546875,-37.109375,-35.64453125,-29.296875,-39.0625,0.0
1207.171875,-38.0859375,-41.9921875,-31.25,-33.203125,-80.56640625,0.0
1207.17578125,-41.9921875,-44.43359375,-35.64453125,-33.69140625,-94.7265625,0.0
1207.1796875,-27.83203125,-33.69140625,-34.66796875,-21.484375,-78.61328125,0.0
1207.18359375,-17.08984375,-26.85546875,-25.87890625,-13.18359375,-54.19921875,0.0
1207.1875,-23.4375,-30.76171875,-26.3671875,-17.578125,-21.97265625,0.0
1207.19140625,-31.25,-30.2734375,-26.85546875,-21.484375,-12.6953125,0.0
1207.1953125,-29.78515625,-26.3671875,-25.87890625,-26.85546875,-54.19921875,0.0
1207.19921875,-22.94921875,-24.90234375,-26.85546875,-29.78515625,-13.18359375,0.0
1207.203125,-19.04296875,-27.83203125,-14.6484375,-27.83203125,-27.83203125,0.0
1207.20703125,-20.5078125,-29.78515625,-8.30078125,-28.3203125,-40.0390625,0.0
1207.2109375,-32.2265625,-29.296875,-27.34375,-30.2734375,-1.46484375,0.0
1207.21484375,-52.24609375,-37.109375,-34.1796875,-32.71484375,44.43359375,0.0
1207.21875,-37.59765625,-43.45703125,-30.2734375,-32.71484375,65.91796875,0.0
1207.22265625,-26.3671875,-36.62109375,-27.83203125,-26.85546875,-13.671875,0.0
1207.2265625,-30.2734375,-30.2734375,-34.66796875,-30.2734375,-8.7890625,0.0
1207.23046875,-35.64453125,-36.62109375,-37.109375,-34.1796875,-19.53125,0.0
1207.234375,-38.0859375,-36.1328125,-34.1796875,-31.73828125,-15.13671875,0.0
1207.23828125,-34.66796875,-33.203125,-35.15625,-41.50390625,31.73828125,0.0
1207.2421875,-27.83203125,-31.73828125,-34.66796875,-40.0390625,-24.4140625,0.0
1207.24609375,-29.296875,-34.1796875,-34.1796875,-37.59765625,-6.34765625,0.0
1207.25,-34.66796875,-37.109375,-15.625,-38.57421875,-16.11328125,0.0
1207.25390625,-36.62109375,-35.15625,-19.53125,-35.15625,-72.75390625,0.0
1207.2578125,-41.9921875,-35.64453125,-40.52734375,-35.64453125,-38.0859375,0.0
1207.26171875,-35.15625,-33.69140625,-32.71484375,-37.109375,-45.41015625,0.0
1207.265625,-26.3671875,-32.2265625,-21.97265625,-35.15625,5.37109375,0.0
1207.26953125,-35.64453125,-33.69140625,-32.71484375,-37.59765625,102.05078125,0.0
1207.2734375,-42.96875,-38.57421875,-39.55078125,-41.015625,24.4140625,0.0
1207.27734375,-39.55078125,-37.109375,-38.0859375,-44.43359375,-11.23046875,0.0
1207.28125,-32.71484375,-41.50390625,-37.59765625,-38.0859375,25.87890625,0.0
1207.28515625,-28.3203125,-37.59765625,-34.66796875,-33.203125,26.3671875,0.0
1207.2890625,-36.1328125,-30.2734375,-34.66796875,-33.69140625,-29.78515625,0.0
1207.29296875,-43.9453125,-33.203125,-26.3671875,-35.15625,-62.98828125,0.0
1207.296875,-46.38671875,-36.62109375,-24.90234375,-38.0859375,-56.640625,0.0
1207.30078125,-41.015625,-37.59765625,-37.59765625,-34.66796875,-69.3359375,0.0
1207.3046875,-36.62109375,-31.25,-38.57421875,-32.71484375,-101.5625,0.0
1207.30859375,-39.55078125,-32.2265625,-29.296875,-35.64453125,-109.86328125,0.0
1207.3125,-41.50390625,-36.1328125,-32.71484375,-42.96875,-67.3828125,0.0
1207.31640625,-40.0390625,-32.2265625,-38.57421875,-41.50390625,8.30078125,0.0
1207.3203125,-34.66796875,-35.15625,-35.64453125,-33.203125,37.59765625,0.0
1207.32421875,-33.203125,-32.2265625,-33.203125,-34.1796875,24.4140625,0.0
1207.328125,-35.15625,-27.83203125,-34.66796875,-38.0859375,33.69140625,0.0
1207.33203125,-41.50390625,-32.2265625,-40.52734375,-37.109375,37.59765625,0.0
1207.3359375,-39.0625,-33.203125,-35.64453125,-34.1796875,-23.4375,0.0
1207.33984375,-24.4140625,-26.85546875,-18.06640625,-28.80859375,-25.87890625,0.0
1207.34375,-21.97265625,-31.73828125,-25.390625,-25.390625,13.671875,0.0
1207.34765625,-27.83203125,-34.1796875,-35.64453125,-30.2734375,10.7421875,0.0
1207.3515625,-31.25,-30.2734375,-28.80859375,-36.1328125,83.49609375,0.0
1207.35546875,-34.66796875,-31.25,-21.97265625,-37.109375,60.546875,0.0
1207.359375,-29.78515625,-30.2734375,-28.80859375,-32.2265625,5.859375,0.0
1207.36328125,-24.4140625,-23.4375,-35.64453125,-26.85546875,14.16015625,0.0
1207.3671875,-28.80859375,-28.80859375,-34.1796875,-27.34375,15.13671875,0.0
1207.37109375,-36.1328125,-33.203125,-36.62109375,-32.71484375,34.66796875,0.0
1207.375,-39.55078125,-30.2734375,-38.57421875,-40.52734375,-42.96875,0.0
1207.37890625,-34.1796875,-32.71484375,-32.2265625,-36.62109375,-78.125,0.0
1207.3828125,-27.34375,-30.76171875,-22.94921875,-29.296875,-60.05859375,0.0
1207.38671875,-29.78515625,-27.83203125,-25.390625,-29.296875,-55.17578125,0.0
1207.390625,-38.57421875,-35.15625,-34.1796875,-32.71484375,-81.54296875,0.0
1207.39453125,-43.45703125,-34.1796875,-39.0625,-41.50390625,-85.44921875,0.0
1207.3984375,-38.57421875,-28.80859375,-23.4375,-38.0859375,-73.73046875,0.0
1207.40234375,-32.71484375,-29.296875,-22.4609375,-32.2265625,-40.0390625,0.0
1207.40625,-34.1796875,-34.1796875,-38.57421875,-35.15625,25.87890625,0.0
1207.41015625,-35.15625,-34.1796875,-37.59765625,-38.0859375,-3.90625,0.0
1207.4140625,-37.59765625,-32.71484375,-35.15625,-40.0390625,-67.3828125,0.0
1207.41796875,-30.76171875,-31.73828125,-33.69140625,-34.66796875,-31.25,0.0
1207.421875,-24.4140625,-31.73828125,-33.69140625,-26.3671875,0.0,0.0
1207.42578125,-23.4375,-36.1328125,-29.296875,-28.3203125,4.39453125,0.0
1207.4296875,-29.78515625,-38.57421875,-23.4375,-34.66796875,60.546875,0.0
1207.43359375,-39.55078125,-40.0390625,-32.71484375,-31.73828125,-3.90625,0.0
1207.4375,-37.59765625,-37.109375,-35.15625,-29.78515625,-48.828125,0.0
1207.44140625,-31.73828125,-29.296875,-35.15625,-33.69140625,-46.875,0.0
1207.4453125,-32.71484375,-27.83203125,-21.484375,-29.78515625,20.01953125,0.0
1207.44921875,-36.62109375,-30.76171875,-28.3203125,-30.2734375,50.78125,0.0
1207.453125,-40.0390625,-33.69140625,-42.48046875,-40.52734375,-24.90234375,0.0
1207.45703125,-34.66796875,-33.203125,-32.2265625,-38.0859375,-91.796875,0.0
1207.4609375,-23.4375,-23.4375,-25.87890625,-33.69140625,-57.12890625,0.0
1207.46484375,-21.484375,-21.97265625,-34.1796875,-33.203125,53.22265625,0.0
1207.46875,-25.87890625,-32.71484375,-40.0390625,-32.2265625,90.8203125,0.0
1207.47265625,-33.69140625,-35.64453125,-33.203125,-33.203125,-16.6015625,0.0
1207.4765625,-31.73828125,-32.2265625,-32.71484375,-36.1328125,-103.02734375,0.0
1207.48046875,-20.99609375,-28.3203125,-34.66796875,-35.15625,-44.921875,0.0
1207.484375,-9.765625,-33.203125,-35.15625,-30.76171875,8.30078125,0.0
1207.48828125,-16.6015625,-37.59765625,-19.53125,-39.0625,-62.98828125,0.0
1207.4921875,-36.1328125,-33.69140625,-15.625,-42.48046875,-29.296875,0.0
1207.49609375,-32.2265625,-30.2734375,-33.69140625,-30.2734375,3.41796875,0.0
1207.5,-22.94921875,-34.1796875,-32.71484375,-24.90234375,-41.50390625,0.0
1207.50390625,-24.90234375,-36.1328125,-32.2265625,-28.3203125,13.671875,0.0
1207.5078125,-22.94921875,-33.69140625,-33.69140625,-34.66796875,10.7421875,0.0
1207.51171875,-23.92578125,-34.66796875,-38.0859375,-34.66796875,-47.36328125,0.0
1207.515625,-28.3203125,-36.1328125,-36.1328125,-28.80859375,-33.69140625,0.0
1207.51953125,-24.4140625,-33.203125,-34.66796875,-31.73828125,-24.90234375,0.0
1207.5234375,-22.94921875,-32.2265625,-32.71484375,-31.73828125,-90.33203125,0.0
1207.52734375,-33.203125,-36.62109375,-33.69140625,-36.62109375,-62.5,0.0
1207.53125,-43.9453125,-38.57421875,-35.64453125,-44.921875,-36.62109375,0.0
1207.53515625,-42.96875,-41.015625,-5.859375,-41.50390625,-49.8046875,0.0
1207.5390625,-32.71484375,-45.8984375,3.90625,-31.25,-64.453125,0.0
1207.54296875,-27.34375,-38.0859375,-26.3671875,-22.94921875,-88.37890625,0.0
1207.546875,-28.3203125,-32.71484375,-32.71484375,-24.90234375,-63.4765625,0.0
1207.55078125,-37.59765625,-37.59765625,-32.2265625,-31.25,-65.91796875,0.0
1207.5546875,-42.96875,-35.64453125,-35.15625,-35.15625,-68.84765625,0.0
1207.55859375,-40.52734375,-31.25,-34.66796875,-34.66796875,-57.6171875,0.0
1207.5625,-37.109375,-35.64453125,-37.109375,-29.78515625,-57.6171875,0.0
1207.56640625,-32.71484375,-36.62109375,-36.62109375,-32.2265625,-30.2734375,0.0
1207.5703125,-36.1328125,-32.71484375,-35.64453125,-39.55078125,-108.3984375,0.0
1207.57421875,-39.55078125,-33.69140625,-32.71484375,-34.66796875,-109.375,0.0
1207.578125,-31.73828125,-36.62109375,-20.5078125,-32.2265625,4.39453125,0.0
1207.58203125,-20.99609375,-30.76171875,-17.08984375,-31.25,49.31640625,0.0
1207.5859375,-21.97265625,-28.3203125,-33.203125,-32.2265625,51.7578125,0.0
1207.58984375,-32.2265625,-34.66796875,-41.015625,-38.57421875,49.8046875,0.0
1207.59375,-37.59765625,-42.96875,-32.2265625,-38.57421875,-10.25390625,0.0
1207.59765625,-32.71484375,-39.0625,-32.2265625,-37.59765625,37.109375,0.0
1207.6015625,-22.4609375,-32.71484375,-40.0390625,-34.66796875,80.078125,0.0
1207.60546875,-26.3671875,-38.0859375,-39.55078125,-35.64453125,-3.90625,0.0
1207.609375,-33.69140625,-40.52734375,-36.62109375,-38.57421875,-18.5546875,0.0
1207.61328125,-40.0390625,-42.48046875,-36.1328125,-36.1328125,20.99609375,0.0
1207.6171875,-36.62109375,-41.015625,-33.69140625,-35.64453125,-10.7421875,0.0
1207.62109375,-30.76171875,-36.1328125,-26.3671875,-37.59765625,-29.78515625,0.0
1207.625,-31.25,-37.109375,-5.37109375,-30.2734375,-59.08203125,0.0
1207.62890625,-29.78515625,-34.66796875,-16.6015625,-25.390625,-20.99609375,0.0
1207.6328125,-40.52734375,-37.109375,-35.64453125,-33.69140625,-23.92578125,0.0
1207.63671875,-46.875,-40.52734375,-28.3203125,-33.203125,-62.98828125,0.0
1207.640625,-34.66796875,-36.1328125,-17.578125,-28.80859375,-66.40625,0.0
1207.64453125,-28.3203125,-34.1796875,-28.3203125,-27.83203125,-88.8671875,0.0
1207.6484375,-29.78515625,-31.73828125,-34.66796875,-24.90234375,4.39453125,0.0
1207.65234375,-33.69140625,-31.25,-32.2265625,-22.94921875,6.34765625,0.0
1207.65625,-29.78515625,-34.1796875,-36.62109375,-22.4609375,-104.98046875,0.0
1207.66015625,-19.04296875,-30.76171875,-36.1328125,-29.296875,-65.91796875,0.0
1207.6640625,-16.11328125,-25.87890625,-34.66796875,-31.25,-41.50390625,0.0
1207.66796875,-16.11328125,-27.34375,-27.34375,-33.203125,-84.47265625,0.0
1207.671875,-23.92578125,-33.69140625,-23.4375,-36.1328125,-43.45703125,0.0
1207.67578125,-30.2734375,-33.203125,-33.203125,-31.25,22.4609375,0.0
1207.6796875,-23.4375,-28.80859375,-34.1796875,-26.3671875,-10.25390625,0.0
1207.68359375,-18.5546875,-29.296875,-33.203125,-20.01953125,-26.3671875,0.0
1207.6875,-22.94921875,-30.76171875,-34.66796875,-27.34375,9.27734375,0.0
1207.69140625,-21.97265625,-26.3671875,-34.1796875,-31.73828125,-46.38671875,0.0
1207.6953125,-21.97265625,-24.90234375,-25.390625,-26.85546875,-50.78125,0.0
1207.69921875,-25.390625,-27.83203125,-26.3671875,-24.4140625,3.41796875,0.0
1207.703125,-23.92578125,-27.83203125,-35.64453125,-23.92578125,-47.8515625,0.0
1207.70703125,-22.94921875,-26.3671875,-38.0859375,-22.94921875,-50.78125,0.0
1207.7109375,-25.390625,-21.97265625,-33.69140625,-20.99609375,-45.41015625,0.0
1207.71484375,-33.69140625,-24.90234375,-11.23046875,-20.99609375,-23.4375,0.0
1207.71875,-33.203125,-30.76171875,-20.01953125,-22.4609375,-26.85546875,0.0
1207.72265625,-24.4140625,-26.3671875,-38.57421875,-20.5078125,-89.84375,0.0
1207.7265625,-24.90234375,-27.34375,-27.34375,-18.5546875,-27.83203125,0.0
1207.73046875,-28.80859375,-35.15625,-16.6015625,-20.99609375,5.859375,0.0
1207.734375,-32.71484375,-35.15625,-29.296875,-23.92578125,6.8359375,0.0
1207.73828125,-34.66796875,-36.62109375,-30.76171875,-24.4140625,-38.57421875,0.0
1207.7421875,-28.3203125,-37.109375,-27.34375,-23.92578125,-65.91796875,0.0
1207.74609375,-23.4375,-34.66796875,-30.76171875,-23.92578125,-14.6484375,0.0
1207.75,-34.66796875,-39.55078125,-30.76171875,-33.69140625,-24.4140625,0.0
1207.75390625,-37.59765625,-40.52734375,-32.71484375,-29.78515625,-23.4375,0.0
1207.7578125,-31.73828125,-37.59765625,-27.34375,-20.01953125,-48.828125,0.0
1207.76171875,-32.2265625,-39.55078125,-16.6015625,-21.484375,-53.22265625,0.0
1207.765625,-32.71484375,-35.64453125,-25.87890625,-26.3671875,-19.53125,0.0
1207.76953125,-36.62109375,-35.64453125,-35.15625,-32.2265625,-95.21484375,0.0
1207.7734375,-43.45703125,-35.15625,-33.69140625,-31.25,-126.953125,0.0
1207.77734375,-38.57421875,-33.69140625,-38.57421875,-27.34375,-69.3359375,0.0
1207.78125,-27.83203125,-32.2265625,-39.55078125,-27.83203125,-37.59765625,0.0
1207.78515625,-24.4140625,-32.71484375,-32.2265625,-27.83203125,-57.12890625,0.0
1207.7890625,-29.296875,-34.66796875,-34.66796875,-30.76171875,-22.94921875,0.0
1207.79296875,-36.62109375,-35.64453125,-37.109375,-35.15625,-86.42578125,0.0
1207.796875,-36.62109375,-35.64453125,-34.66796875,-35.15625,-179.19921875,0.0
1207.80078125,-27.83203125,-32.2265625,-30.2734375,-29.78515625,-144.04296875,0.0
1207.8046875,-27.34375,-31.73828125,-29.78515625,-32.2265625,-69.3359375,0.0
1207.80859375,-37.59765625,-30.2734375,-34.66796875,-38.57421875,-42.96875,0.0
1207.8125,-47.8515625,-33.203125,-39.0625,-41.50390625,-54.6875,0.0
1207.81640625,-46.38671875,-33.203125,-33.69140625,-39.0625,-64.94140625,0.0
1207.8203125,-32.71484375,-35.15625,-9.765625,-38.0859375,-104.98046875,0.0
1207.82421875,-26.85546875,-37.109375,-11.23046875,-41.9921875,-23.92578125,0.0
1207.828125,-32.71484375,-32.2265625,-32.71484375,-34.66796875,72.75390625,0.0
1207.83203125,-42.48046875,-31.25,-39.0625,-32.71484375,55.17578125,0.0
1207.8359375,-39.0625,-30.76171875,-38.57421875,-41.015625,75.68359375,0.0
1207.83984375,-27.83203125,-26.3671875,-36.1328125,-36.1328125,37.109375,0.0
1207.84375,-23.4375,-26.3671875,-36.1328125,-29.296875,-0.9765625,0.0
1207.84765625,-25.87890625,-29.78515625,-36.1328125,-33.69140625,-35.15625,0.0
1207.8515625,-32.71484375,-31.25,-34.66796875,-33.69140625,-46.875,0.0
1207.85546875,-37.59765625,-29.296875,-32.71484375,-35.15625,-19.53125,0.0
1207.859375,-34.66796875,-32.71484375,-34.66796875,-38.0859375,41.015625,0.0
1207.86328125,-24.90234375,-29.296875,-21.484375,-32.2265625,98.6328125,0.0
1207.8671875,-19.53125,-28.80859375,-15.625,-28.3203125,66.89453125,0.0
1207.87109375,-33.203125,-38.57421875,-30.2734375,-30.76171875,21.97265625,0.0
1207.875,-41.50390625,-41.9921875,-31.73828125,-31.73828125,-41.9921875,0.0
1207.87890625,-34.1796875,-38.57421875,-26.3671875,-27.34375,-95.703125,0.0
1207.8828125,-31.25,-38.0859375,-27.34375,-28.80859375,-35.15625,0.0
1207.88671875,-31.73828125,-42.96875,-34.1796875,-30.2734375,63.4765625,0.0
1207.890625,-31.73828125,-40.0390625,-32.2265625,-30.76171875,1.46484375,0.0
1207.89453125,-34.66796875,-33.203125,-30.2734375,-34.1796875,-56.15234375,0.0
1207.8984375,-35.15625,-28.3203125,-28.3203125,-30.76171875,-57.12890625,0.0
1207.90234375,-27.83203125,-24.4140625,-30.76171875,-22.4609375,-39.0625,0.0
1207.90625,-23.92578125,-29.296875,-31.25,-25.87890625,-32.2265625,0.0
1207.91015625,-25.87890625,-30.76171875,-15.13671875,-33.203125,-5.37109375,0.0
1207.9140625,-24.4140625,-27.83203125,-17.08984375,-32.2265625,25.390625,0.0
1207.91796875,-20.01953125,-26.85546875,-28.80859375,-27.34375,29.296875,0.0
1207.921875,-15.13671875,-24.4140625,-29.296875,-24.90234375,20.01953125,0.0
1207.92578125,-18.06640625,-20.99609375,-27.34375,-27.34375,-48.33984375,0.0
1207.9296875,-26.85546875,-25.390625,-31.25,-29.78515625,-30.76171875,0.0
1207.93359375,-32.71484375,-30.76171875,-34.1796875,-28.80859375,21.97265625,0.0
1207.9375,-38.0859375,-32.2265625,-33.203125,-35.15625,38.57421875,0.0
1207.94140625,-31.25,-28.3203125,-32.71484375,-36.62109375,35.64453125,0.0
1207.9453125,-28.3203125,-27.83203125,-33.69140625,-29.296875,-19.53125,0.0
1207.94921875,-35.15625,-31.25,-32.71484375,-29.296875,-40.52734375,0.0
1207.953125,-37.109375,-34.66796875,-27.34375,-28.3203125,-113.76953125,0.0
1207.95703125,-36.1328125,-38.0859375,-33.203125,-32.71484375,-150.390625,0.0
1207.9609375,-33.69140625,-35.15625,-36.62109375,-35.64453125,-119.62890625,0.0
1207.96484375,-27.83203125,-34.66796875,-31.73828125,-34.1796875,-130.859375,0.0
1207.96875,-28.3203125,-34.1796875,-20.99609375,-34.1796875,-108.3984375,0.0
1207.97265625,-31.73828125,-34.1796875,-23.92578125,-29.296875,-75.1953125,0.0
1207.9765625,-25.87890625,-33.203125,-34.1796875,-29.78515625,-21.97265625,0.0
1207.98046875,-19.04296875,-31.25,-29.78515625,-28.3203125,-20.99609375,0.0
1207.984375,-16.6015625,-27.83203125,-23.4375,-25.87890625,-82.51953125,0.0
1207.98828125,-19.53125,-29.78515625,-26.3671875,-35.15625,-48.828125,0.0
1207.9921875,-22.94921875,-34.1796875,-36.1328125,-41.9921875,-73.2421875,0.0
1207.99609375,-25.390625,-35.15625,-34.1796875,-35.64453125,-131.8359375,0.0
1208.0,-26.85546875,-33.69140625,-23.4375,-29.296875,-116.69921875,0.0
1208.00390625,-21.484375,-30.2734375,-33.203125,-29.78515625,-34.66796875,0.0
1208.0078125,-26.3671875,-34.66796875,-38.57421875,-34.1796875,61.03515625,0.0
1208.01171875,-38.0859375,-41.9921875,-32.71484375,-41.9921875,26.3671875,0.0
1208.015625,-39.0625,-39.55078125,-33.203125,-42.96875,-76.171875,0.0
1208.01953125,-32.71484375,-33.203125,-32.2265625,-34.66796875,-83.984375,0.0
1208.0234375,-32.71484375,-31.25,-34.66796875,-36.1328125,-27.83203125,0.0
1208.02734375,-38.57421875,-32.71484375,-39.55078125,-40.0390625,-27.34375,0.0
1208.03125,-46.38671875,-35.64453125,-36.1328125,-38.0859375,44.43359375,0.0
1208.03515625,-54.19921875,-35.64453125,-37.59765625,-47.8515625,14.6484375,0.0
1208.0390625,-44.921875,-32.71484375,-37.109375,-48.828125,-93.26171875,0.0
1208.04296875,-35.15625,-29.296875,-23.92578125,-40.0390625,-161.62109375,0.0
1208.046875,-36.62109375,-26.85546875,-16.6015625,-41.015625,-86.42578125,0.0
1208.05078125,-41.015625,-33.69140625,-27.83203125,-41.50390625,21.97265625,0.0
1208.0546875,-38.57421875,-32.71484375,-30.76171875,-33.203125,-37.59765625,0.0
1208.05859375,-31.73828125,-30.76171875,-31.25,-29.296875,-28.3203125,0.0
1208.0625,-25.87890625,-33.203125,-34.1796875,-32.2265625,-0.48828125,0.0
1208.06640625,-25.390625,-29.78515625,-32.2265625,-31.25,-35.15625,0.0
1208.0703125,-27.83203125,-32.71484375,-32.2265625,-34.66796875,-56.15234375,0.0
1208.07421875,-38.0859375,-41.50390625,-37.109375,-42.96875,-146.484375,0.0
1208.078125,-35.15625,-37.109375,-36.1328125,-46.875,-196.2890625,0.0
1208.08203125,-21.97265625,-26.3671875,-33.203125,-39.0625,-116.69921875,0.0
1208.0859375,-24.4140625,-22.94921875,-29.296875,-33.203125,-62.98828125,0.0
1208.08984375,-35.15625,-28.80859375,-8.30078125,-34.1796875,10.25390625,0.0
1208.09375,-42.96875,-37.109375,-20.01953125,-35.64453125,57.6171875,0.0
1208.09765625,-38.57421875,-33.203125,-40.0390625,-38.57421875,-12.6953125,0.0
1208.1015625,-33.69140625,-29.296875,-25.87890625,-34.66796875,-31.25,0.0
1208.10546875,-31.25,-32.2265625,-10.25390625,-23.4375,-47.36328125,0.0
1208.109375,-37.59765625,-30.76171875,-26.3671875,-25.390625,-79.58984375,0.0
1208.11328125,-47.8515625,-33.69140625,-33.203125,-37.109375,-208.0078125,0.0
1208.1171875,-48.33984375,-33.69140625,-29.296875,-37.109375,-235.3515625,0.0
1208.12109375,-38.57421875,-27.83203125,-30.2734375,-29.78515625,-63.4765625,0.0
1208.125,-35.15625,-30.76171875,-31.25,-30.2734375,-123.046875,0.0
1208.12890625,-43.9453125,-36.1328125,-31.73828125,-31.73828125,-160.15625,0.0
1208.1328125,-43.9453125,-30.76171875,-26.85546875,-36.62109375,-28.3203125,0.0
1208.13671875,-34.66796875,-28.3203125,-27.83203125,-36.62109375,-4.39453125,0.0
1208.140625,-27.83203125,-32.2265625,-36.1328125,-30.2734375,-82.03125,0.0
1208.14453125,-23.92578125,-34.66796875,-40.52734375,-28.3203125,-137.6953125,0.0
1208.1484375,-28.80859375,-42.96875,-30.76171875,-36.1328125,-148.92578125,0.0
1208.15234375,-40.52734375,-42.96875,-25.390625,-36.1328125,-115.234375,0.0
1208.15625,-44.43359375,-37.59765625,-32.2265625,-34.1796875,-60.546875,0.0
1208.16015625,-33.203125,-34.66796875,-32.71484375,-27.34375,-5.37109375,0.0
1208.1640625,-24.4140625,-30.76171875,-31.25,-23.4375,33.69140625,0.0
1208.16796875,-35.15625,-38.57421875,-35.15625,-30.2734375,77.1484375,0.0
1208.171875,-46.875,-43.45703125,-41.50390625,-41.50390625,73.2421875,0.0
1208.17578125,-41.50390625,-36.1328125,-34.66796875,-41.50390625,2.44140625,0.0
1208.1796875,-34.66796875,-29.296875,-28.80859375,-31.25,24.90234375,0.0
1208.18359375,-36.62109375,-29.296875,-28.80859375,-31.73828125,44.921875,0.0
1208.1875,-35.64453125,-28.80859375,-35.64453125,-38.0859375,6.8359375,0.0
1208.19140625,-38.0859375,-30.2734375,-32.71484375,-32.2265625,-23.92578125,0.0
1208.1953125,-41.50390625,-29.296875,-8.7890625,-28.3203125,-69.3359375,0.0
1208.19921875,-34.1796875,-28.3203125,-10.25390625,-30.76171875,-61.03515625,0.0
1208.203125,-33.203125,-28.3203125,-30.76171875,-32.71484375,7.8125,0.0
1208.20703125,-39.0625,-25.87890625,-34.66796875,-33.203125,45.41015625,0.0
1208.2109375,-44.921875,-30.2734375,-34.66796875,-37.109375,85.44921875,0.0
1208.21484375,-46.38671875,-34.66796875,-33.69140625,-36.1328125,16.11328125,0.0
1208.21875,-31.73828125,-32.71484375,-33.203125,-32.71484375,-80.56640625,0.0
1208.22265625,-21.97265625,-28.3203125,-32.2265625,-32.2265625,-105.95703125,0.0
1208.2265625,-27.83203125,-22.94921875,-30.2734375,-30.2734375,-87.890625,0.0
1208.23046875,-30.76171875,-27.34375,-32.2265625,-32.71484375,-62.5,0.0
1208.234375,-29.296875,-31.25,-34.1796875,-31.25,-42.96875,0.0
1208.23828125,-25.87890625,-31.73828125,-24.4140625,-32.2265625,17.08984375,0.0
1208.2421875,-22.94921875,-32.71484375,-23.92578125,-37.109375,65.91796875,0.0
1208.24609375,-21.97265625,-34.66796875,-36.62109375,-40.0390625,76.66015625,0.0
1208.25,-26.3671875,-32.71484375,-32.2265625,-33.203125,79.1015625,0.0
1208.25390625,-30.76171875,-32.71484375,-23.4375,-33.203125,40.0390625,0.0
1208.2578125,-20.99609375,-33.203125,-29.78515625,-33.203125,-3.90625,0.0
1208.26171875,-14.16015625,-29.78515625,-30.2734375,-21.484375,-28.80859375,0.0
1208.265625,-20.99609375,-32.71484375,-32.2265625,-25.390625,-83.0078125,0.0
1208.26953125,-30.76171875,-38.0859375,-34.66796875,-36.62109375,-14.16015625,0.0
1208.2734375,-40.0390625,-34.1796875,-35.15625,-37.59765625,48.828125,0.0
1208.27734375,-34.1796875,-32.71484375,-36.1328125,-34.1796875,65.4296875,0.0
1208.28125,-25.390625,-35.15625,-28.3203125,-30.76171875,67.87109375,0.0
1208.28515625,-34.66796875,-33.203125,-6.8359375,-34.1796875,43.9453125,0.0
1208.2890625,-43.9453125,-34.1796875,-18.5546875,-42.48046875,50.29296875,0.0
1208.29296875,-48.828125,-38.0859375,-37.59765625,-46.875,61.5234375,0.0
1208.296875,-43.9453125,-34.1796875,-32.71484375,-40.52734375,-0.48828125,0.0
1208.30078125,-31.73828125,-27.83203125,-28.80859375,-32.71484375,-147.94921875,0.0
1208.3046875,-27.83203125,-29.296875,-28.3203125,-31.25,-154.78515625,0.0
1208.30859375,-32.2265625,-28.80859375,-32.2265625,-33.203125,-51.26953125,0.0
1208.3125,-40.0390625,-32.71484375,-27.83203125,-32.2265625,-26.85546875,0.0
1208.31640625,-38.0859375,-36.1328125,-23.4375,-31.73828125,64.94140625,0.0
1208.3203125,-32.71484375,-31.73828125,-28.80859375,-39.0625,47.36328125,0.0
1208.32421875,-22.4609375,-25.390625,-28.3203125,-31.25,-70.3125,0.0
1208.328125,-26.85546875,-33.203125,-18.5546875,-30.2734375,-90.33203125,0.0
1208.33203125,-39.0625,-35.64453125,-23.92578125,-40.0390625,-73.2421875,0.0
1208.3359375,-34.66796875,-32.71484375,-35.64453125,-36.62109375,-83.49609375,0.0
1208.33984375,-23.4375,-30.76171875,-32.2265625,-27.83203125,-108.3984375,0.0
1208.34375,-23.4375,-27.34375,-27.83203125,-23.4375,-53.7109375,0.0
1208.34765625,-32.2265625,-30.76171875,-32.71484375,-27.34375,-19.53125,0.0
1208.3515625,-34.66796875,-34.1796875,-39.0625,-36.1328125,-73.73046875,0.0
1208.35546875,-36.62109375,-34.66796875,-36.62109375,-32.71484375,-63.96484375,0.0
1208.359375,-37.109375,-35.15625,-33.69140625,-22.94921875,-18.06640625,0.0
1208.36328125,-34.1796875,-36.62109375,-35.15625,-20.99609375,37.59765625,0.0
1208.3671875,-34.66796875,-33.69140625,-41.015625,-33.203125,40.52734375,0.0
1208.37109375,-37.59765625,-38.0859375,-37.109375,-37.59765625,-2.44140625,0.0
1208.375,-39.0625,-45.41015625,-18.06640625,-33.69140625,-65.91796875,0.0
1208.37890625,-33.203125,-37.59765625,-20.5078125,-36.62109375,-93.26171875,0.0
1208.3828125,-26.85546875,-29.78515625,-39.55078125,-38.0859375,7.8125,0.0
1208.38671875,-29.78515625,-34.1796875,-41.50390625,-36.62109375,105.95703125,0.0
1208.390625,-34.66796875,-35.15625,-38.57421875,-35.64453125,99.12109375,0.0
1208.39453125,-33.203125,-33.203125,-40.52734375,-36.1328125,100.5859375,0.0
1208.3984375,-28.80859375,-35.15625,-41.50390625,-31.25,-1.46484375,0.0
1208.40234375,-21.97265625,-35.15625,-39.55078125,-25.87890625,-80.56640625,0.0
1208.40625,-25.390625,-35.15625,-38.0859375,-31.73828125,0.9765625,0.0
1208.41015625,-36.62109375,-36.1328125,-40.0390625,-39.55078125,-29.78515625,0.0
1208.4140625,-44.921875,-33.203125,-42.48046875,-43.45703125,-121.58203125,0.0
1208.41796875,-38.0859375,-31.25,-27.83203125,-39.55078125,-139.16015625,0.0
1208.421875,-34.1796875,-29.78515625,-7.32421875,-29.78515625,-103.515625,0.0
1208.42578125,-41.9921875,-31.25,-26.3671875,-33.69140625,-64.453125,0.0
1208.4296875,-43.9453125,-34.66796875,-37.59765625,-36.62109375,-80.078125,0.0
1208.43359375,-42.96875,-39.0625,-32.2265625,-33.203125,-72.75390625,0.0
1208.4375,-37.109375,-34.66796875,-33.69140625,-34.1796875,40.52734375,0.0
1208.44140625,-26.3671875,-26.3671875,-32.71484375,-33.69140625,156.73828125,0.0
1208.4453125,-21.484375,-26.3671875,-29.78515625,-32.2265625,4.39453125,0.0
1208.44921875,-23.92578125,-30.76171875,-29.296875,-30.2734375,-193.359375,0.0
1208.453125,-35.15625,-33.69140625,-30.76171875,-36.62109375,-240.72265625,0.0
1208.45703125,-32.2265625,-32.2265625,-33.203125,-36.62109375,-173.828125,0.0
1208.4609375,-20.99609375,-23.92578125,-28.3203125,-27.83203125,-22.94921875,0.0
1208.46484375,-23.4375,-24.4140625,-16.11328125,-33.203125,50.29296875,0.0
1208.46875,-36.62109375,-33.203125,-27.83203125,-40.0390625,14.16015625,0.0
1208.47265625,-41.9921875,-33.203125,-38.57421875,-41.50390625,-65.91796875,0.0
1208.4765625,-40.52734375,-28.3203125,-32.2265625,-43.9453125,-132.32421875,0.0
1208.48046875,-35.64453125,-30.2734375,-18.06640625,-45.41015625,-135.7421875,0.0
1208.484375,-28.80859375,-30.2734375,-27.83203125,-41.015625,-69.82421875,0.0
1208.48828125,-31.73828125,-32.71484375,-39.55078125,-35.64453125,-62.5,0.0
1208.4921875,-39.0625,-41.9921875,-39.0625,-35.15625,-151.85546875,0.0
1208.49609375,-34.1796875,-34.66796875,-34.1796875,-31.25,-78.61328125,0.0
1208.5,-21.97265625,-23.4375,-28.80859375,-25.390625,-12.20703125,0.0
1208.50390625,-16.11328125,-20.99609375,-35.64453125,-31.25,-27.83203125,0.0
1208.5078125,-23.92578125,-24.4140625,-32.71484375,-35.64453125,-39.55078125,0.0
1208.51171875,-35.15625,-29.78515625,-33.203125,-36.62109375,2.44140625,0.0
1208.515625,-40.0390625,-33.203125,-37.109375,-38.0859375,-26.3671875,0.0
1208.51953125,-38.0859375,-32.71484375,-35.64453125,-36.1328125,-40.52734375,0.0
1208.5234375,-30.2734375,-35.15625,-24.4140625,-28.80859375,-20.01953125,0.0
1208.52734375,-30.2734375,-36.1328125,-24.90234375,-31.25,-67.87109375,0.0
1208.53125,-30.2734375,-32.71484375,-36.62109375,-35.15625,-58.10546875,0.0
1208.53515625,-27.83203125,-31.73828125,-31.25,-31.25,-28.80859375,0.0
1208.5390625,-30.76171875,-33.203125,-28.3203125,-34.66796875,-20.5078125,0.0
1208.54296875,-27.34375,-33.203125,-33.69140625,-37.109375,15.625,0.0
1208.546875,-25.390625,-28.3203125,-34.1796875,-33.69140625,110.3515625,0.0
1208.55078125,-35.64453125,-32.2265625,-33.69140625,-43.45703125,77.63671875,0.0
1208.5546875,-40.0390625,-32.71484375,-36.1328125,-43.45703125,30.2734375,0.0
1208.55859375,-33.69140625,-27.83203125,-34.1796875,-30.2734375,34.66796875,0.0
1208.5625,-30.2734375,-31.25,-33.69140625,-30.76171875,-30.76171875,0.0
1208.56640625,-32.71484375,-30.2734375,-32.71484375,-28.3203125,-62.01171875,0.0
1208.5703125,-39.55078125,-37.59765625,-16.6015625,-28.80859375,-47.36328125,0.0
1208.57421875,-38.0859375,-45.41015625,-18.5546875,-33.69140625,-33.69140625,0.0
1208.578125,-26.85546875,-40.0390625,-28.3203125,-32.71484375,-85.44921875,0.0
1208.58203125,-20.5078125,-31.25,-27.34375,-30.76171875,-56.640625,0.0
1208.5859375,-21.97265625,-31.25,-30.76171875,-28.3203125,86.9140625,0.0
1208.58984375,-34.1796875,-39.55078125,-36.1328125,-35.64453125,121.09375,0.0
1208.59375,-45.41015625,-39.0625,-35.64453125,-37.59765625,58.10546875,0.0
1208.59765625,-40.0390625,-38.0859375,-24.4140625,-30.76171875,28.80859375,0.0
1208.6015625,-29.296875,-33.69140625,-24.4140625,-29.78515625,3.90625,0.0
1208.60546875,-24.90234375,-27.83203125,-32.71484375,-31.73828125,29.78515625,0.0
1208.609375,-35.15625,-33.203125,-37.59765625,-36.62109375,26.3671875,0.0
1208.61328125,-41.015625,-39.0625,-25.87890625,-40.0390625,-103.02734375,0.0
1208.6171875,-36.1328125,-38.0859375,-16.6015625,-27.83203125,-129.39453125,0.0
1208.62109375,-28.80859375,-30.2734375,-31.25,-25.87890625,-10.25390625,0.0
1208.625,-26.85546875,-31.25,-38.57421875,-31.73828125,-12.20703125,0.0
1208.62890625,-30.2734375,-29.296875,-32.71484375,-24.90234375,26.3671875,0.0
1208.6328125,-36.62109375,-30.76171875,-30.76171875,-27.34375,32.2265625,0.0
1208.63671875,-35.64453125,-33.203125,-35.15625,-30.2734375,-67.3828125,0.0
1208.640625,-34.66796875,-29.78515625,-31.25,-32.2265625,9.765625,0.0
1208.64453125,-32.2265625,-32.2265625,-25.390625,-33.203125,122.55859375,0.0
1208.6484375,-27.83203125,-35.64453125,-32.71484375,-31.25,19.53125,0.0
1208.65234375,-35.64453125,-38.57421875,-37.109375,-33.203125,-82.03125,0.0
1208.65625,-33.69140625,-39.55078125,-27.34375,-30.76171875,-110.3515625,0.0
1208.66015625,-21.484375,-35.15625,-0.48828125,-29.296875,-46.38671875,0.0
1208.6640625,-17.578125,-33.203125,-8.30078125,-27.34375,5.37109375,0.0
1208.66796875,-26.3671875,-36.62109375,-29.78515625,-24.90234375,-48.828125,0.0
1208.671875,-33.203125,-37.59765625,-33.203125,-33.69140625,-134.765625,0.0
1208.67578125,-27.83203125,-29.296875,-30.76171875,-34.1796875,-78.125,0.0
1208.6796875,-20.01953125,-26.85546875,-31.25,-24.4140625,-64.94140625,0.0
1208.68359375,-17.08984375,-27.34375,-30.76171875,-24.4140625,-139.6484375,0.0
1208.6875,-20.99609375,-29.78515625,-31.73828125,-30.76171875,-57.6171875,0.0
1208.69140625,-31.73828125,-38.0859375,-35.64453125,-38.57421875,2.44140625,0.0
1208.6953125,-32.71484375,-36.62109375,-34.66796875,-38.57421875,-53.22265625,0.0
1208.69921875,-27.34375,-29.78515625,-36.62109375,-35.15625,-71.2890625,0.0
1208.703125,-20.01953125,-27.83203125,-24.90234375,-29.296875,-34.1796875,0.0
1208.70703125,-26.85546875,-32.71484375,-12.20703125,-28.3203125,-2.44140625,0.0
1208.7109375,-39.0625,-36.62109375,-29.296875,-29.296875,-25.87890625,0.0
1208.71484375,-28.80859375,-34.1796875,-33.203125,-21.484375,-103.02734375,0.0
1208.71875,-19.04296875,-31.73828125,-27.83203125,-21.484375,-115.234375,0.0
1208.72265625,-27.34375,-31.73828125,-34.1796875,-24.4140625,-22.4609375,0.0
1208.7265625,-34.66796875,-36.1328125,-38.0859375,-27.83203125,25.390625,0.0
1208.73046875,-39.0625,-42.48046875,-40.0390625,-38.57421875,-58.59375,0.0
1208.734375,-44.921875,-42.48046875,-40.52734375,-41.50390625,-79.1015625,0.0
1208.73828125,-36.62109375,-37.109375,-32.71484375,-32.2265625,-44.921875,0.0
1208.7421875,-26.85546875,-28.3203125,-29.296875,-26.85546875,-105.95703125,0.0
1208.74609375,-30.76171875,-31.25,-29.296875,-24.90234375,-84.47265625,0.0
1208.75,-36.62109375,-37.59765625,-17.08984375,-26.85546875,-30.76171875,0.0
1208.75390625,-34.66796875,-34.1796875,-27.83203125,-21.97265625,57.6171875,0.0
1208.7578125,-27.34375,-32.2265625,-37.109375,-17.08984375,112.79296875,0.0
1208.76171875,-22.94921875,-31.73828125,-24.4140625,-20.5078125,66.89453125,0.0
1208.765625,-23.92578125,-33.69140625,-5.859375,-22.4609375,-1.46484375,0.0
1208.76953125,-32.2265625,-34.66796875,-23.92578125,-27.83203125,-9.765625,0.0
1208.7734375,-38.57421875,-35.64453125,-37.109375,-26.85546875,9.27734375,0.0
1208.77734375,-35.64453125,-33.203125,-32.2265625,-24.90234375,16.11328125,0.0
1208.78125,-24.90234375,-27.83203125,-32.2265625,-23.92578125,7.8125,0.0
1208.78515625,-24.4140625,-26.85546875,-31.73828125,-24.4140625,-76.66015625,0.0
1208.7890625,-32.2265625,-29.296875,-33.203125,-35.64453125,-63.4765625,0.0
1208.79296875,-33.69140625,-32.2265625,-29.296875,-40.0390625,-31.73828125,0.0
1208.796875,-31.25,-33.203125,-22.94921875,-35.64453125,-113.76953125,0.0
1208.80078125,-26.3671875,-30.2734375,-28.80859375,-31.73828125,-54.6875,0.0
1208.8046875,-25.390625,-26.85546875,-29.78515625,-29.296875,49.8046875,0.0
1208.80859375,-27.34375,-30.76171875,-19.53125,-39.55078125,57.12890625,0.0
1208.8125,-38.57421875,-36.62109375,-29.78515625,-38.57421875,-25.87890625,0.0
1208.81640625,-39.0625,-32.71484375,-37.59765625,-29.78515625,-47.8515625,0.0
1208.8203125,-22.4609375,-28.80859375,-29.296875,-28.80859375,-57.6171875,0.0
1208.82421875,-20.99609375,-27.83203125,-31.73828125,-34.1796875,-33.69140625,0.0
1208.828125,-25.87890625,-34.66796875,-39.0625,-39.0625,-29.296875,0.0
1208.83203125,-35.15625,-37.59765625,-44.43359375,-48.33984375,-50.78125,0.0
1208.8359375,-36.62109375,-33.69140625,-37.109375,-46.38671875,-20.01953125,0.0
1208.83984375,-29.296875,-33.203125,-16.11328125,-32.2265625,-113.28125,0.0
1208.84375,-29.296875,-31.73828125,-24.4140625,-36.1328125,-185.546875,0.0
1208.84765625,-38.0859375,-33.69140625,-38.0859375,-41.50390625,-115.234375,0.0
1208.8515625,-49.31640625,-38.0859375,-38.57421875,-51.26953125,-114.74609375,0.0
1208.85546875,-51.7578125,-42.48046875,-24.4140625,-45.8984375,-141.11328125,0.0
1208.859375,-42.48046875,-40.0390625,-26.3671875,-32.71484375,-25.87890625,0.0
1208.86328125,-31.73828125,-35.64453125,-33.69140625,-34.66796875,5.859375,0.0
1208.8671875,-30.76171875,-34.66796875,-28.80859375,-39.55078125,68.84765625,0.0
1208.87109375,-37.59765625,-36.62109375,-24.4140625,-37.59765625,130.37109375,0.0
1208.875,-38.57421875,-36.62109375,-26.85546875,-32.2265625,36.62109375,0.0
1208.87890625,-32.71484375,-29.296875,-32.71484375,-33.69140625,-71.77734375,0.0
1208.8828125,-22.94921875,-21.484375,-27.34375,-20.01953125,-79.1015625,0.0
1208.88671875,-20.01953125,-22.94921875,-23.4375,-11.23046875,-19.04296875,0.0
1208.890625,-27.83203125,-31.73828125,-30.2734375,-21.97265625,-15.625,0.0
1208.89453125,-35.15625,-34.1796875,-30.2734375,-21.484375,-51.7578125,0.0
1208.8984375,-31.73828125,-32.2265625,-25.390625,-22.4609375,-50.78125,0.0
1208.90234375,-24.4140625,-28.3203125,-26.85546875,-29.296875,40.0390625,0.0
1208.90625,-28.3203125,-27.83203125,-34.1796875,-35.64453125,96.19140625,0.0
1208.91015625,-37.109375,-32.2265625,-33.69140625,-38.57421875,-11.23046875,0.0
1208.9140625,-37.59765625,-35.15625,-17.08984375,-29.296875,-133.7890625,0.0
1208.91796875,-30.2734375,-29.78515625,-21.97265625,-26.3671875,-172.8515625,0.0
1208.921875,-19.04296875,-26.3671875,-32.71484375,-27.34375,-107.91015625,0.0
1208.92578125,-18.06640625,-33.203125,-25.87890625,-27.34375,12.6953125,0.0
1208.9296875,-23.92578125,-32.71484375,-16.6015625,-25.87890625,-70.3125,0.0
1208.93359375,-28.3203125,-27.83203125,-26.85546875,-20.01953125,-117.67578125,0.0
1208.9375,-28.3203125,-30.76171875,-37.59765625,-20.5078125,-15.625,0.0
1208.94140625,-26.85546875,-27.83203125,-31.25,-22.4609375,21.97265625,0.0
1208.9453125,-23.4375,-27.34375,-24.4140625,-21.484375,-31.25,0.0
1208.94921875,-31.25,-32.71484375,-32.2265625,-28.80859375,-23.92578125,0.0
1208.953125,-44.921875,-33.69140625,-37.109375,-28.80859375,-46.38671875,0.0
1208.95703125,-44.921875,-32.71484375,-32.2265625,-25.87890625,-101.5625,0.0
1208.9609375,-33.69140625,-29.78515625,-27.83203125,-23.4375,-48.828125,0.0
1208.96484375,-26.85546875,-23.92578125,-31.73828125,-26.85546875,-8.7890625,0.0
1208.96875,-32.71484375,-32.71484375,-35.64453125,-39.0625,-0.9765625,0.0
1208.97265625,-42.48046875,-39.0625,-37.109375,-47.36328125,29.296875,0.0
1208.9765625,-40.0390625,-32.2265625,-37.59765625,-42.48046875,10.25390625,0.0
1208.98046875,-31.73828125,-29.296875,-36.1328125,-32.2265625,1.953125,0.0
1208.984375,-26.3671875,-29.296875,-36.1328125,-30.2734375,13.18359375,0.0
1208.98828125,-30.2734375,-33.203125,-22.4609375,-37.109375,-45.41015625,0.0
1208.9921875,-42.48046875,-38.0859375,-10.25390625,-48.33984375,-50.29296875,0.0
1208.99609375,-41.015625,-39.0625,-29.296875,-44.921875,-65.4296875,0.0
1209.0,-31.25,-35.64453125,-38.0859375,-37.109375,-105.95703125,0.0
1209.00390625,-26.85546875,-29.78515625,-32.71484375,-33.203125,-14.16015625,0.0
1209.0078125,-34.1796875,-24.90234375,-32.2265625,-27.34375,32.71484375,0.0
1209.01171875,-33.69140625,-28.3203125,-29.296875,-24.4140625,-43.9453125,0.0
1209.015625,-32.2265625,-29.296875,-26.85546875,-26.85546875,-14.6484375,0.0
1209.01953125,-29.296875,-24.4140625,-23.92578125,-24.90234375,20.01953125,0.0
1209.0234375,-24.90234375,-27.34375,-23.92578125,-25.87890625,16.11328125,0.0
1209.02734375,-26.3671875,-26.3671875,-27.83203125,-36.62109375,28.80859375,0.0
1209.03125,-37.109375,-26.85546875,-27.34375,-45.8984375,-15.13671875,0.0
1209.03515625,-40.52734375,-29.78515625,-16.6015625,-43.9453125,-90.33203125,0.0
1209.0390625,-34.66796875,-29.78515625,-18.5546875,-43.45703125,-53.22265625,0.0
1209.04296875,-26.85546875,-24.90234375,-28.80859375,-39.55078125,21.97265625,0.0
1209.046875,-20.99609375,-24.90234375,-34.66796875,-39.55078125,2.44140625,0.0
1209.05078125,-25.390625,-33.203125,-37.109375,-46.38671875,-39.0625,0.0
1209.0546875,-28.80859375,-35.64453125,-35.64453125,-45.41015625,-34.66796875,0.0
1209.05859375,-21.484375,-30.2734375,-33.69140625,-38.0859375,11.71875,0.0
1209.0625,-14.16015625,-26.3671875,-30.76171875,-34.1796875,-6.34765625,0.0
1209.06640625,-15.625,-28.80859375,-30.76171875,-36.62109375,-50.78125,0.0
1209.0703125,-25.87890625,-31.25,-33.69140625,-44.43359375,-38.0859375,0.0
1209.07421875,-24.4140625,-31.73828125,-33.69140625,-37.109375,-54.19921875,0.0
1209.078125,-24.90234375,-35.64453125,-21.97265625,-32.2265625,-76.66015625,0.0
1209.08203125,-30.2734375,-38.57421875,-15.625,-35.64453125,-82.51953125,0.0
1209.0859375,-31.25,-35.15625,-25.87890625,-32.71484375,-64.94140625,0.0
1209.08984375,-39.0625,-37.109375,-31.25,-35.15625,-70.3125,0.0
1209.09375,-42.96875,-43.45703125,-23.4375,-39.55078125,-74.70703125,0.0
1209.09765625,-34.1796875,-37.59765625,-24.90234375,-35.15625,-88.37890625,0.0
1209.1015625,-29.296875,-33.203125,-32.71484375,-31.25,-91.30859375,0.0
1209.10546875,-27.34375,-35.15625,-31.73828125,-31.73828125,-89.84375,0.0
1209.109375,-25.390625,-32.71484375,-30.2734375,-29.296875,-83.984375,0.0
1209.11328125,-28.80859375,-31.73828125,-31.25,-30.76171875,-125.9765625,0.0
1209.1171875,-25.390625,-29.78515625,-32.71484375,-35.15625,-6.34765625,0.0
1209.12109375,-15.13671875,-27.83203125,-23.4375,-34.66796875,66.40625,0.0
1209.125,-16.11328125,-29.296875,-2.44140625,-38.0859375,-57.6171875,0.0
1209.12890625,-24.4140625,-32.2265625,-22.94921875,-41.015625,-1.953125,0.0
1209.1328125,-21.97265625,-33.69140625,-36.62109375,-30.76171875,83.0078125,0.0
1209.13671875,-23.92578125,-30.76171875,-22.4609375,-27.83203125,58.10546875,0.0
1209.140625,-20.5078125,-29.296875,-15.13671875,-29.296875,56.640625,0.0
1209.14453125,-14.6484375,-29.78515625,-27.83203125,-23.92578125,66.40625,0.0
1209.1484375,-25.87890625,-34.1796875,-35.15625,-21.484375,10.25390625,0.0
1209.15234375,-33.203125,-37.59765625,-26.3671875,-18.06640625,-79.1015625,0.0
1209.15625,-33.69140625,-36.62109375,-26.3671875,-20.5078125,-196.2890625,0.0
1209.16015625,-31.73828125,-35.15625,-32.71484375,-30.2734375,-208.984375,0.0
1209.1640625,-27.34375,-30.2734375,-36.1328125,-30.2734375,-107.91015625,0.0
1209.16796875,-32.2265625,-32.71484375,-22.4609375,-33.69140625,-39.55078125,0.0
1209.171875,-44.921875,-37.59765625,-18.06640625,-45.8984375,49.8046875,0.0
1209.17578125,-44.921875,-29.78515625,-34.1796875,-39.55078125,63.4765625,0.0
1209.1796875,-34.66796875,-25.87890625,-33.203125,-33.203125,-27.34375,0.0
1209.18359375,-27.83203125,-29.78515625,-31.73828125,-35.15625,-48.33984375,0.0
1209.1875,-34.66796875,-34.1796875,-31.73828125,-37.59765625,-4.8828125,0.0
1209.19140625,-42.48046875,-35.15625,-35.64453125,-42.96875,-27.34375,0.0
1209.1953125,-36.1328125,-32.71484375,-34.66796875,-39.55078125,-17.08984375,0.0
1209.19921875,-30.2734375,-30.2734375,-20.5078125,-34.1796875,21.97265625,0.0
1209.203125,-29.78515625,-34.66796875,-32.71484375,-38.0859375,75.1953125,0.0
1209.20703125,-30.76171875,-35.64453125,-41.9921875,-34.66796875,79.58984375,0.0
1209.2109375,-41.015625,-36.62109375,-31.73828125,-34.1796875,100.09765625,0.0
1209.21484375,-43.45703125,-41.9921875,-13.18359375,-37.59765625,142.578125,0.0
1209.21875,-37.109375,-39.0625,-19.04296875,-31.73828125,131.8359375,0.0
1209.22265625,-28.3203125,-25.390625,-31.73828125,-20.01953125,98.14453125,0.0
1209.2265625,-26.3671875,-25.87890625,-23.92578125,-14.6484375,-4.39453125,0.0
1209.23046875,-37.109375,-39.0625,-17.08984375,-25.87890625,-142.08984375,0.0
1209.234375,-37.109375,-36.62109375,-35.15625,-29.78515625,-166.50390625,0.0
1209.23828125,-30.76171875,-31.25,-39.55078125,-24.90234375,-54.6875,0.0
1209.2421875,-26.85546875,-28.3203125,-34.66796875,-27.83203125,-24.90234375,0.0
1209.24609375,-24.4140625,-30.2734375,-36.1328125,-31.73828125,-3.41796875,0.0
1209.25,-31.25,-34.66796875,-37.109375,-36.1328125,-10.25390625,0.0
1209.25390625,-33.203125,-33.69140625,-35.64453125,-32.71484375,-49.8046875,0.0
1209.2578125,-29.296875,-32.71484375,-22.94921875,-35.15625,-23.4375,0.0
1209.26171875,-23.4375,-37.109375,-4.8828125,-31.73828125,-6.8359375,0.0
1209.265625,-26.3671875,-34.66796875,-18.06640625,-24.4140625,-16.6015625,0.0
1209.26953125,-38.57421875,-30.2734375,-35.15625,-31.73828125,-40.0390625,0.0
1209.2734375,-44.43359375,-31.73828125,-32.71484375,-29.78515625,-15.13671875,0.0
1209.27734375,-42.96875,-33.69140625,-29.78515625,-19.04296875,12.6953125,0.0
1209.28125,-40.52734375,-35.64453125,-35.64453125,-26.85546875,18.06640625,0.0
1209.28515625,-36.62109375,-30.76171875,-34.66796875,-29.296875,37.109375,0.0
1209.2890625,-37.59765625,-24.90234375,-30.2734375,-27.83203125,60.546875,0.0
1209.29296875,-45.41015625,-25.87890625,-32.2265625,-41.015625,73.73046875,0.0
1209.296875,-41.015625,-26.85546875,-29.78515625,-37.59765625,117.1875,0.0
1209.30078125,-37.59765625,-27.83203125,-31.73828125,-32.71484375,57.6171875,0.0
1209.3046875,-37.109375,-28.80859375,-34.1796875,-39.0625,4.8828125,0.0
1209.30859375,-41.015625,-33.69140625,-30.76171875,-37.59765625,-21.484375,0.0
1209.3125,-49.31640625,-40.52734375,-37.109375,-41.50390625,-29.296875,0.0
1209.31640625,-50.78125,-41.015625,-36.1328125,-38.57421875,-52.24609375,0.0
1209.3203125,-36.1328125,-42.48046875,-1.953125,-24.90234375,-98.6328125,0.0
1209.32421875,-27.83203125,-40.0390625,2.44140625,-29.78515625,-66.89453125,0.0
1209.328125,-33.203125,-36.1328125,-30.2734375,-37.109375,-23.4375,0.0
1209.33203125,-35.15625,-35.15625,-34.66796875,-33.69140625,-16.6015625,0.0
1209.3359375,-35.15625,-32.2265625,-33.203125,-26.3671875,-48.828125,0.0
1209.33984375,-32.2265625,-31.25,-39.0625,-30.76171875,-34.1796875,0.0
1209.34375,-28.3203125,-30.76171875,-39.0625,-35.15625,-17.578125,0.0
1209.34765625,-33.203125,-31.73828125,-40.52734375,-37.109375,-95.703125,0.0
1209.3515625,-33.203125,-34.66796875,-37.109375,-31.25,-145.99609375,0.0
1209.35546875,-29.296875,-37.109375,-36.1328125,-28.3203125,-145.01953125,0.0
1209.359375,-29.78515625,-39.55078125,-43.45703125,-26.85546875,-135.25390625,0.0
1209.36328125,-23.4375,-35.15625,-16.6015625,-21.484375,-122.0703125,0.0
1209.3671875,-20.5078125,-34.66796875,1.953125,-22.4609375,-124.0234375,0.0
1209.37109375,-30.76171875,-40.0390625,-31.25,-29.296875,-34.1796875,0.0
1209.375,-34.66796875,-41.9921875,-42.48046875,-29.78515625,-31.73828125,0.0
1209.37890625,-24.90234375,-36.62109375,-35.64453125,-20.5078125,-16.6015625,0.0
1209.3828125,-21.484375,-32.71484375,-33.203125,-20.5078125,48.828125,0.0
1209.38671875,-25.87890625,-36.1328125,-35.64453125,-27.83203125,57.6171875,0.0
1209.390625,-38.57421875,-41.015625,-36.1328125,-34.66796875,-9.765625,0.0
1209.39453125,-41.50390625,-40.0390625,-33.203125,-36.62109375,-54.19921875,0.0
1209.3984375,-33.69140625,-34.1796875,-33.203125,-29.78515625,-55.17578125,0.0
1209.40234375,-29.78515625,-28.80859375,-34.1796875,-23.4375,-26.85546875,0.0
1209.40625,-35.64453125,-34.1796875,-30.2734375,-30.76171875,-31.25,0.0
1209.41015625,-42.96875,-39.55078125,-8.30078125,-31.73828125,-101.07421875,0.0
1209.4140625,-45.8984375,-37.109375,-14.6484375,-24.90234375,-78.125,0.0
1209.41796875,-41.015625,-35.64453125,-33.69140625,-25.390625,-89.35546875,0.0
1209.421875,-34.66796875,-35.15625,-32.2265625,-29.78515625,-78.125,0.0
1209.42578125,-35.15625,-35.15625,-34.66796875,-33.69140625,-39.0625,0.0
1209.4296875,-34.66796875,-33.69140625,-39.0625,-29.78515625,-13.671875,0.0
1209.43359375,-33.69140625,-36.1328125,-44.43359375,-27.83203125,-49.31640625,0.0
1209.4375,-35.15625,-39.55078125,-43.9453125,-32.71484375,-29.78515625,0.0
1209.44140625,-31.73828125,-39.55078125,-39.0625,-30.2734375,23.92578125,0.0
1209.4453125,-28.3203125,-33.203125,-35.64453125,-25.390625,-53.22265625,0.0
1209.44921875,-34.66796875,-34.66796875,-35.64453125,-32.2265625,-58.59375,0.0
1209.453125,-43.45703125,-50.29296875,-24.90234375,-43.9453125,-94.23828125,0.0
1209.45703125,-40.0390625,-48.828125,-20.99609375,-34.66796875,-145.99609375,0.0
1209.4609375,-33.69140625,-39.0625,-37.109375,-28.80859375,-15.13671875,0.0
1209.46484375,-34.1796875,-38.57421875,-41.015625,-35.15625,23.92578125,0.0
1209.46875,-35.64453125,-41.50390625,-41.50390625,-42.96875,-60.546875,0.0
1209.47265625,-40.0390625,-41.9921875,-39.55078125,-39.0625,-83.0078125,0.0
1209.4765625,-37.59765625,-37.59765625,-38.57421875,-34.1796875,-101.5625,0.0
1209.48046875,-29.296875,-35.15625,-32.71484375,-37.109375,-87.40234375,0.0
1209.484375,-28.80859375,-36.1328125,-20.5078125,-35.64453125,-19.53125,0.0
1209.48828125,-37.59765625,-30.2734375,-35.15625,-40.52734375,13.18359375,0.0
1209.4921875,-44.43359375,-30.2734375,-45.8984375,-47.8515625,7.8125,0.0
1209.49609375,-41.015625,-36.1328125,-36.62109375,-44.43359375,64.453125,0.0
1209.5,-29.78515625,-37.59765625,-13.671875,-35.15625,38.0859375,0.0
1209.50390625,-20.99609375,-33.203125,-20.99609375,-32.2265625,7.8125,0.0
1209.5078125,-22.4609375,-30.76171875,-38.57421875,-31.73828125,-9.765625,0.0
1209.51171875,-24.4140625,-28.80859375,-30.76171875,-25.87890625,-57.12890625,0.0
1209.515625,-23.92578125,-28.3203125,-18.5546875,-27.83203125,-102.5390625,0.0
1209.51953125,-16.6015625,-28.3203125,-26.85546875,-31.25,-108.88671875,0.0
1209.5234375,-19.04296875,-27.83203125,-39.0625,-30.76171875,-58.10546875,0.0
1209.52734375,-24.90234375,-29.78515625,-40.0390625,-28.80859375,-35.64453125,0.0
1209.53125,-29.78515625,-33.69140625,-37.59765625,-30.2734375,-40.52734375,0.0
1209.53515625,-30.76171875,-38.0859375,-36.62109375,-29.296875,-36.1328125,0.0
1209.5390625,-28.3203125,-28.3203125,-41.015625,-29.78515625,-23.92578125,0.0
1209.54296875,-27.34375,-25.87890625,-20.99609375,-29.78515625,26.85546875,0.0
1209.546875,-26.3671875,-36.62109375,1.953125,-29.78515625,26.3671875,0.0
1209.55078125,-37.59765625,-34.1796875,-25.87890625,-29.296875,-6.8359375,0.0
1209.5546875,-43.9453125,-33.69140625,-37.109375,-30.2734375,6.8359375,0.0
1209.55859375,-42.96875,-32.71484375,-31.73828125,-30.76171875,2.9296875,0.0
1209.5625,-44.43359375,-30.76171875,-32.71484375,-30.76171875,-11.23046875,0.0
1209.56640625,-45.8984375,-34.1796875,-34.66796875,-37.109375,-7.8125,0.0
1209.5703125,-58.59375,-35.64453125,-41.9921875,-41.9921875,-50.78125,0.0
1209.57421875,-56.640625,-36.1328125,-42.48046875,-48.33984375,-12.20703125,0.0
1209.578125,-45.41015625,-34.1796875,-41.50390625,-41.50390625,48.828125,0.0
1209.58203125,-40.52734375,-29.78515625,-38.57421875,-28.80859375,132.32421875,0.0
1209.5859375,-38.0859375,-25.87890625,-30.2734375,-28.80859375,156.73828125,0.0
1209.58984375,-42.48046875,-32.71484375,-23.92578125,-40.0390625,52.24609375,0.0
1209.59375,-49.8046875,-40.0390625,-35.64453125,-41.015625,5.859375,0.0
1209.59765625,-43.45703125,-38.57421875,-45.8984375,-36.62109375,-31.25,0.0
1209.6015625,-34.1796875,-40.0390625,-38.57421875,-41.50390625,-41.015625,0.0
1209.60546875,-25.87890625,-39.0625,-14.16015625,-41.50390625,9.765625,0.0
1209.609375,-33.203125,-32.71484375,-27.34375,-38.0859375,-126.953125,0.0
1209.61328125,-41.015625,-35.15625,-37.109375,-37.59765625,-186.03515625,0.0
1209.6171875,-26.85546875,-35.15625,-34.1796875,-40.0390625,-110.83984375,0.0
1209.62109375,-17.578125,-28.80859375,-38.57421875,-38.57421875,-70.80078125,0.0
1209.625,-19.04296875,-27.34375,-40.0390625,-34.1796875,-25.87890625,0.0
1209.62890625,-30.2734375,-30.76171875,-41.9921875,-39.0625,-57.12890625,0.0
1209.6328125,-36.62109375,-34.1796875,-33.69140625,-40.52734375,-198.73046875,0.0
1209.63671875,-34.66796875,-33.69140625,-31.25,-33.69140625,-230.46875,0.0
1209.640625,-32.71484375,-31.25,-36.1328125,-37.59765625,-103.02734375,0.0
1209.64453125,-27.34375,-27.34375,-34.66796875,-36.1328125,-104.98046875,0.0
1209.6484375,-30.76171875,-28.3203125,-20.99609375,-33.203125,-203.125,0.0
1209.65234375,-40.0390625,-36.1328125,-23.92578125,-39.55078125,-197.265625,0.0
1209.65625,-38.57421875,-37.109375,-42.96875,-44.43359375,-182.12890625,0.0
1209.66015625,-23.4375,-26.85546875,-39.55078125,-40.0390625,-168.45703125,0.0
1209.6640625,-20.5078125,-23.92578125,-35.64453125,-33.203125,-123.53515625,0.0
1209.66796875,-32.71484375,-29.78515625,-38.0859375,-40.52734375,-43.45703125,0.0
1209.671875,-37.59765625,-37.59765625,-40.52734375,-44.921875,-28.80859375,0.0
1209.67578125,-35.64453125,-37.59765625,-37.59765625,-41.015625,-15.625,0.0
1209.6796875,-31.73828125,-29.78515625,-33.69140625,-39.0625,45.8984375,0.0
1209.68359375,-27.34375,-31.73828125,-37.59765625,-40.0390625,66.40625,0.0
1209.6875,-32.2265625,-37.109375,-41.9921875,-39.0625,83.984375,0.0
1209.69140625,-38.57421875,-38.0859375,-37.59765625,-47.8515625,80.56640625,0.0
1209.6953125,-36.62109375,-38.57421875,-19.04296875,-50.29296875,6.8359375,0.0
1209.69921875,-30.2734375,-37.109375,-15.13671875,-35.64453125,-32.71484375,0.0
1209.703125,-28.3203125,-34.1796875,-32.2265625,-34.1796875,-28.3203125,0.0
1209.70703125,-31.25,-33.203125,-37.109375,-41.50390625,26.3671875,0.0
1209.7109375,-38.0859375,-34.1796875,-32.2265625,-38.57421875,67.87109375,0.0
1209.71484375,-41.50390625,-31.73828125,-29.78515625,-29.78515625,69.3359375,0.0
1209.71875,-38.57421875,-33.69140625,-28.3203125,-24.90234375,56.15234375,0.0
1209.72265625,-37.109375,-35.15625,-32.71484375,-34.66796875,9.765625,0.0
1209.7265625,-36.62109375,-36.1328125,-31.73828125,-36.1328125,70.80078125,0.0
1209.73046875,-45.8984375,-36.62109375,-31.73828125,-30.76171875,7.8125,0.0
1209.734375,-48.33984375,-38.57421875,-34.66796875,-34.66796875,-66.40625,0.0
1209.73828125,-31.73828125,-35.15625,-21.97265625,-32.2265625,19.53125,0.0
1209.7421875,-24.90234375,-32.71484375,-15.625,-29.296875,99.12109375,0.0
1209.74609375,-30.76171875,-34.66796875,-23.92578125,-32.2265625,142.08984375,0.0
1209.75,-39.55078125,-34.66796875,-31.73828125,-38.57421875,27.34375,0.0
1209.75390625,-42.48046875,-37.109375,-34.1796875,-42.48046875,-81.0546875,0.0
1209.7578125,-37.109375,-39.0625,-36.1328125,-40.0390625,-68.84765625,0.0
1209.76171875,-29.296875,-31.25,-38.57421875,-40.52734375,-106.4453125,0.0
1209.765625,-23.4375,-31.73828125,-39.55078125,-38.57421875,-109.86328125,0.0
1209.76953125,-35.64453125,-40.0390625,-36.1328125,-34.66796875,-76.66015625,0.0
1209.7734375,-44.921875,-37.109375,-34.66796875,-36.62109375,-50.78125,0.0
1209.77734375,-36.1328125,-32.2265625,-36.62109375,-32.71484375,-73.73046875,0.0
1209.78125,-31.73828125,-31.73828125,-29.296875,-27.83203125,-132.8125,0.0
1209.78515625,-34.1796875,-28.3203125,-4.39453125,-31.25,-89.84375,0.0
1209.7890625,-39.0625,-32.2265625,-16.11328125,-41.015625,-22.4609375,0.0
1209.79296875,-50.29296875,-40.0390625,-40.0390625,-42.48046875,17.08984375,0.0
1209.796875,-49.8046875,-40.0390625,-34.66796875,-35.15625,10.7421875,0.0
1209.80078125,-34.1796875,-33.69140625,-33.203125,-30.2734375,-21.97265625,0.0
1209.8046875,-28.3203125,-29.296875,-36.1328125,-26.85546875,-35.15625,0.0
1209.80859375,-35.64453125,-33.69140625,-38.0859375,-32.71484375,-90.33203125,0.0
1209.8125,-44.43359375,-41.50390625,-36.1328125,-40.0390625,-22.4609375,0.0
1209.81640625,-36.62109375,-39.0625,-27.34375,-32.71484375,-16.6015625,0.0
1209.8203125,-22.4609375,-29.296875,-28.3203125,-26.85546875,-16.11328125,0.0
1209.82421875,-20.99609375,-22.4609375,-30.76171875,-23.92578125,73.2421875,0.0
1209.828125,-32.71484375,-32.2265625,-25.390625,-34.66796875,18.5546875,0.0
1209.83203125,-34.1796875,-39.55078125,-26.85546875,-46.875,-61.5234375,0.0
1209.8359375,-32.71484375,-35.15625,-35.64453125,-44.43359375,-28.3203125,0.0
1209.83984375,-26.3671875,-31.25,-31.25,-38.0859375,-41.015625,0.0
1209.84375,-18.06640625,-27.83203125,-27.34375,-36.1328125,-43.45703125,0.0
1209.84765625,-22.94921875,-31.73828125,-30.2734375,-34.1796875,-59.5703125,0.0
1209.8515625,-31.73828125,-33.203125,-31.25,-34.1796875,-93.75,0.0
1209.85546875,-32.2265625,-26.85546875,-33.69140625,-35.15625,-93.26171875,0.0
1209.859375,-23.92578125,-26.3671875,-34.66796875,-27.83203125,-75.1953125,0.0
1209.86328125,-25.390625,-28.80859375,-29.78515625,-30.76171875,4.39453125,0.0
1209.8671875,-41.50390625,-28.80859375,-32.2265625,-35.64453125,36.1328125,0.0
1209.87109375,-49.8046875,-33.69140625,-40.0390625,-34.66796875,3.41796875,0.0
1209.875,-43.45703125,-42.48046875,-14.16015625,-35.64453125,-48.828125,0.0
1209.87890625,-30.2734375,-37.59765625,-8.7890625,-31.25,-46.875,0.0
1209.8828125,-16.6015625,-28.3203125,-33.69140625,-24.4140625,-8.7890625,0.0
1209.88671875,-17.578125,-28.80859375,-32.71484375,-30.2734375,-8.7890625,0.0
1209.890625,-29.78515625,-33.203125,-28.80859375,-36.1328125,-4.8828125,0.0
1209.89453125,-30.76171875,-27.83203125,-34.1796875,-29.78515625,10.25390625,0.0
1209.8984375,-25.87890625,-22.94921875,-34.1796875,-25.390625,0.9765625,0.0
1209.90234375,-25.87890625,-24.4140625,-34.1796875,-35.15625,-16.11328125,0.0
1209.90625,-24.90234375,-25.390625,-38.0859375,-30.2734375,84.9609375,0.0
1209.91015625,-23.4375,-30.2734375,-36.62109375,-17.578125,131.8359375,0.0
1209.9140625,-26.85546875,-30.2734375,-37.59765625,-24.4140625,42.48046875,0.0
1209.91796875,-29.296875,-28.80859375,-19.53125,-26.3671875,-36.62109375,0.0
1209.921875,-25.87890625,-31.25,-3.90625,-21.97265625,-90.33203125,0.0
1209.92578125,-32.2265625,-28.80859375,-24.4140625,-20.5078125,-69.3359375,0.0
1209.9296875,-39.0625,-27.83203125,-34.1796875,-27.83203125,-114.74609375,0.0
1209.93359375,-41.9921875,-27.83203125,-38.0859375,-38.0859375,-51.7578125,0.0
1209.9375,-40.52734375,-29.78515625,-38.0859375,-37.109375,1.953125,0.0
1209.94140625,-36.1328125,-34.66796875,-34.66796875,-27.83203125,0.48828125,0.0
1209.9453125,-31.25,-31.25,-32.2265625,-28.3203125,21.484375,0.0
1209.94921875,-34.66796875,-31.25,-32.2265625,-31.25,-63.4765625,0.0
1209.953125,-42.48046875,-37.109375,-31.25,-32.71484375,-76.66015625,0.0
1209.95703125,-40.0390625,-34.1796875,-31.73828125,-31.73828125,-8.30078125,0.0
1209.9609375,-36.1328125,-26.85546875,-33.203125,-28.3203125,-29.296875,0.0
1209.96484375,-35.15625,-24.90234375,-20.01953125,-26.85546875,-40.0390625,0.0
1209.96875,-40.0390625,-31.25,-27.83203125,-36.62109375,1.46484375,0.0
1209.97265625,-43.9453125,-35.64453125,-40.52734375,-39.0625,-16.6015625,0.0
1209.9765625,-36.1328125,-32.2265625,-35.15625,-34.1796875,-118.65234375,0.0
1209.98046875,-31.73828125,-30.2734375,-30.76171875,-36.62109375,-52.734375,0.0
1209.984375,-35.64453125,-31.73828125,-33.69140625,-36.1328125,56.15234375,0.0
1209.98828125,-41.015625,-32.71484375,-36.62109375,-37.59765625,38.0859375,0.0
1209.9921875,-44.43359375,-34.1796875,-39.0625,-41.9921875,-129.39453125,0.0
1209.99609375,-39.0625,-34.1796875,-36.1328125,-35.64453125,-178.7109375,0.0
1210.0,-31.73828125,-32.2265625,-31.73828125,-32.71484375,-123.046875,0.0
1210.00390625,-28.80859375,-27.83203125,-29.78515625,-30.76171875,-166.50390625,0.0
1210.0078125,-33.69140625,-23.92578125,-27.83203125,-29.78515625,-125.48828125,0.0
1210.01171875,-46.875,-29.78515625,-32.71484375,-41.50390625,-111.328125,0.0
1210.015625,-47.36328125,-27.83203125,-39.55078125,-46.38671875,-118.65234375,0.0
1210.01953125,-31.25,-24.90234375,-39.0625,-35.15625,-94.7265625,0.0
1210.0234375,-31.25,-25.87890625,-36.62109375,-34.66796875,-97.65625,0.0
1210.02734375,-39.55078125,-31.25,-36.62109375,-44.43359375,-109.375,0.0
1210.03125,-42.48046875,-34.66796875,-39.0625,-44.921875,-65.91796875,0.0
1210.03515625,-42.96875,-37.59765625,-38.57421875,-43.9453125,-10.25390625,0.0
1210.0390625,-34.66796875,-35.64453125,-33.203125,-36.1328125,-44.43359375,0.0
1210.04296875,-29.78515625,-28.80859375,-34.1796875,-29.296875,77.63671875,0.0
1210.046875,-37.109375,-34.66796875,-35.64453125,-39.0625,156.73828125,0.0
1210.05078125,-36.1328125,-36.62109375,-31.73828125,-42.48046875,96.6796875,0.0
1210.0546875,-31.25,-31.25,-24.4140625,-33.69140625,15.13671875,0.0
1210.05859375,-25.87890625,-30.76171875,-21.97265625,-24.90234375,-78.125,0.0
1210.0625,-19.53125,-31.73828125,-28.80859375,-27.34375,-16.6015625,0.0
1210.06640625,-19.53125,-32.2265625,-27.34375,-35.64453125,15.625,0.0
1210.0703125,-21.484375,-32.71484375,2.44140625,-32.2265625,-93.26171875,0.0
1210.07421875,-20.5078125,-32.2265625,-2.44140625,-28.3203125,-104.4921875,0.0
1210.078125,-17.08984375,-28.3203125,-28.3203125,-27.34375,-39.0625,0.0
1210.08203125,-9.765625,-28.3203125,-24.4140625,-25.87890625,-22.4609375,0.0
1210.0859375,-16.11328125,-29.296875,-27.83203125,-30.76171875,-29.78515625,0.0
1210.08984375,-26.3671875,-27.83203125,-31.73828125,-31.25,-10.25390625,0.0
1210.09375,-27.83203125,-32.2265625,-34.66796875,-30.76171875,-45.8984375,0.0
1210.09765625,-25.87890625,-33.69140625,-26.85546875,-29.78515625,-73.2421875,0.0
1210.1015625,-24.4140625,-27.34375,-19.53125,-26.3671875,-29.296875,0.0
1210.10546875,-24.4140625,-28.80859375,-30.2734375,-26.85546875,-20.99609375,0.0
1210.109375,-31.25,-35.15625,-30.2734375,-29.78515625,-36.62109375,0.0
1210.11328125,-35.15625,-38.0859375,-8.30078125,-33.69140625,3.90625,0.0
