timestamp,TP9,AF7,AF8,TP10,AUX,Marker,
783.00390625,-37.109375,-39.0625,-31.73828125,-35.15625,35.15625,0.0
783.0078125,-16.6015625,-34.66796875,-29.296875,-26.85546875,-27.34375,0.0
783.01171875,-10.7421875,-30.2734375,-29.296875,-25.87890625,-62.01171875,0.0
783.015625,-24.90234375,-27.34375,-31.25,-27.83203125,-66.89453125,0.0
783.01953125,-40.0390625,-34.1796875,-33.69140625,-32.2265625,-100.5859375,0.0
783.0234375,-31.73828125,-33.69140625,-26.85546875,-29.296875,-116.69921875,0.0
783.02734375,-19.04296875,-24.90234375,-22.4609375,-20.01953125,-27.83203125,0.0
783.03125,-20.99609375,-32.71484375,-25.390625,-17.08984375,54.6875,0.0
783.03515625,-31.25,-37.59765625,-31.73828125,-25.87890625,49.8046875,0.0
783.0390625,-48.33984375,-37.59765625,-33.203125,-35.64453125,10.7421875,0.0
783.04296875,-48.828125,-38.0859375,-26.3671875,-26.85546875,19.04296875,0.0
783.046875,-31.25,-32.71484375,-25.87890625,-17.08984375,28.3203125,0.0
783.05078125,-24.90234375,-32.71484375,-28.3203125,-22.94921875,-139.6484375,0.0
783.0546875,-35.64453125,-36.62109375,-27.83203125,-31.73828125,-240.72265625,0.0
783.05859375,-45.8984375,-42.48046875,-29.296875,-34.1796875,-209.47265625,0.0
783.0625,-43.9453125,-40.52734375,-30.2734375,-33.69140625,-182.6171875,0.0
783.06640625,-31.25,-28.80859375,-27.34375,-31.73828125,-52.24609375,0.0
783.0703125,-18.06640625,-26.3671875,-27.83203125,-22.94921875,12.6953125,0.0
783.07421875,-21.484375,-32.71484375,-26.85546875,-17.08984375,-10.7421875,0.0
783.078125,-34.66796875,-38.0859375,-29.296875,-24.90234375,36.62109375,0.0
783.08203125,-40.52734375,-39.0625,-32.71484375,-31.73828125,82.03125,0.0
783.0859375,-28.3203125,-32.71484375,-30.2734375,-26.85546875,76.66015625,0.0
783.08984375,-10.7421875,-26.85546875,-31.73828125,-22.94921875,60.05859375,0.0
783.09375,-16.6015625,-24.4140625,-33.203125,-31.25,-24.90234375,0.0
783.09765625,-34.1796875,-25.390625,-33.69140625,-41.9921875,-23.4375,0.0
783.1015625,-42.48046875,-27.83203125,-33.203125,-39.55078125,46.875,0.0
783.10546875,-29.78515625,-26.85546875,-31.73828125,-32.71484375,86.42578125,0.0
783.109375,-13.671875,-27.34375,-28.3203125,-28.80859375,47.8515625,0.0
783.11328125,-16.11328125,-29.296875,-30.2734375,-30.76171875,-41.50390625,0.0
783.1171875,-30.76171875,-30.2734375,-32.2265625,-32.2265625,-40.0390625,0.0
783.12109375,-40.0390625,-41.015625,-31.73828125,-35.15625,7.8125,0.0
783.125,-31.73828125,-40.0390625,-31.25,-33.69140625,-26.85546875,0.0
783.12890625,-12.20703125,-28.80859375,-25.390625,-24.90234375,-50.78125,0.0
783.1328125,-3.41796875,-28.80859375,-21.484375,-19.04296875,-61.03515625,0.0
783.13671875,-29.296875,-35.64453125,-26.3671875,-23.92578125,-73.73046875,0.0
783.140625,-45.41015625,-34.66796875,-26.3671875,-22.94921875,-13.671875,0.0
783.14453125,-34.66796875,-29.296875,-18.5546875,-15.13671875,88.37890625,0.0
783.1484375,-20.5078125,-26.85546875,-17.578125,-8.30078125,117.67578125,0.0
783.15234375,-18.5546875,-21.97265625,-24.4140625,-7.32421875,62.01171875,0.0
783.15625,-29.296875,-23.92578125,-28.3203125,-17.08984375,-16.6015625,0.0
783.16015625,-38.0859375,-34.1796875,-33.203125,-24.90234375,-53.7109375,0.0
783.1640625,-36.62109375,-35.64453125,-34.66796875,-29.296875,-56.15234375,0.0
783.16796875,-19.53125,-27.34375,-32.2265625,-27.34375,-7.8125,0.0
783.171875,-7.32421875,-22.4609375,-30.76171875,-22.4609375,76.66015625,0.0
783.17578125,-19.04296875,-24.4140625,-27.34375,-29.78515625,26.3671875,0.0
783.1796875,-36.62109375,-29.78515625,-31.25,-32.71484375,-4.8828125,0.0
783.18359375,-34.66796875,-29.78515625,-35.64453125,-30.76171875,64.453125,0.0
783.1875,-19.04296875,-25.390625,-29.78515625,-25.390625,83.984375,0.0
783.19140625,-12.20703125,-22.4609375,-30.76171875,-23.92578125,116.2109375,0.0
783.1953125,-23.92578125,-27.83203125,-32.2265625,-28.80859375,143.5546875,0.0
783.19921875,-39.0625,-37.59765625,-30.2734375,-33.69140625,29.296875,0.0
783.203125,-40.0390625,-31.25,-29.78515625,-34.1796875,-52.734375,0.0
783.20703125,-28.80859375,-27.34375,-24.4140625,-31.25,36.1328125,0.0
783.2109375,-20.5078125,-24.90234375,-27.83203125,-33.69140625,73.73046875,0.0
783.21484375,-29.296875,-32.2265625,-30.2734375,-36.62109375,44.921875,0.0
783.21875,-42.48046875,-40.52734375,-31.73828125,-41.50390625,37.109375,0.0
783.22265625,-40.52734375,-35.64453125,-34.66796875,-43.45703125,-0.9765625,0.0
783.2265625,-28.3203125,-31.73828125,-29.296875,-35.64453125,65.91796875,0.0
783.23046875,-22.94921875,-27.83203125,-29.78515625,-30.76171875,109.86328125,0.0
783.234375,-30.76171875,-31.25,-34.1796875,-30.76171875,25.390625,0.0
783.23828125,-44.921875,-39.0625,-34.1796875,-36.62109375,-18.06640625,0.0
783.2421875,-51.7578125,-36.62109375,-35.15625,-41.9921875,-9.765625,0.0
783.24609375,-39.55078125,-31.73828125,-33.69140625,-32.71484375,-56.640625,0.0
783.25,-23.92578125,-28.3203125,-23.92578125,-26.85546875,-104.4921875,0.0
783.25390625,-27.83203125,-29.78515625,-22.94921875,-30.2734375,-121.58203125,0.0
783.2578125,-44.43359375,-35.64453125,-35.15625,-35.64453125,-62.5,0.0
783.26171875,-47.8515625,-35.64453125,-37.59765625,-38.0859375,-23.92578125,0.0
783.265625,-34.66796875,-34.1796875,-17.08984375,-31.73828125,-152.34375,0.0
783.26953125,-29.296875,-33.203125,-17.578125,-24.4140625,-85.44921875,0.0
783.2734375,-28.80859375,-29.78515625,-34.66796875,-25.87890625,-13.671875,0.0
783.27734375,-34.66796875,-33.203125,-32.71484375,-41.9921875,-25.87890625,0.0
783.28125,-43.45703125,-34.66796875,-33.203125,-44.921875,8.7890625,0.0
783.28515625,-29.296875,-28.3203125,-30.76171875,-24.90234375,-52.24609375,0.0
783.2890625,-14.16015625,-24.90234375,-24.4140625,-24.4140625,-73.73046875,0.0
783.29296875,-20.5078125,-27.34375,-28.3203125,-30.76171875,-2.9296875,0.0
783.296875,-35.64453125,-29.78515625,-32.71484375,-29.78515625,20.5078125,0.0
783.30078125,-40.52734375,-32.71484375,-30.2734375,-29.78515625,-48.828125,0.0
783.3046875,-29.78515625,-28.3203125,-29.78515625,-26.3671875,-98.14453125,0.0
783.30859375,-16.6015625,-24.4140625,-25.87890625,-22.94921875,-47.8515625,0.0
783.3125,-15.625,-24.90234375,-25.390625,-21.484375,50.29296875,0.0
783.31640625,-30.2734375,-29.78515625,-37.109375,-27.83203125,70.80078125,0.0
783.3203125,-44.43359375,-37.109375,-38.57421875,-34.1796875,84.47265625,0.0
783.32421875,-36.62109375,-33.69140625,-28.80859375,-31.25,24.4140625,0.0
783.328125,-17.578125,-27.83203125,-22.4609375,-23.4375,-50.78125,0.0
783.33203125,-16.11328125,-25.87890625,-26.3671875,-23.4375,64.453125,0.0
783.3359375,-37.109375,-26.3671875,-30.76171875,-37.109375,71.77734375,0.0
783.33984375,-52.24609375,-38.57421875,-31.73828125,-46.875,1.953125,0.0
783.34375,-46.38671875,-39.55078125,-27.83203125,-39.0625,-11.23046875,0.0
783.34765625,-24.90234375,-28.80859375,-27.83203125,-32.2265625,-12.6953125,0.0
783.3515625,-19.04296875,-29.296875,-28.3203125,-36.1328125,-6.8359375,0.0
783.35546875,-34.1796875,-35.15625,-24.4140625,-38.0859375,-34.66796875,0.0
783.359375,-48.33984375,-38.57421875,-28.80859375,-40.0390625,-53.7109375,0.0
783.36328125,-49.8046875,-38.0859375,-32.71484375,-42.48046875,-93.26171875,0.0
783.3671875,-33.69140625,-35.15625,-29.296875,-29.78515625,-88.8671875,0.0
783.37109375,-24.90234375,-30.2734375,-30.2734375,-25.87890625,-59.08203125,0.0
783.375,-29.78515625,-29.78515625,-35.15625,-36.1328125,-76.66015625,0.0
783.37890625,-44.921875,-37.109375,-37.59765625,-38.0859375,-47.36328125,0.0
783.3828125,-45.41015625,-33.69140625,-41.015625,-41.9921875,-61.5234375,0.0
783.38671875,-27.34375,-25.390625,-39.0625,-38.57421875,-56.640625,0.0
783.390625,-18.06640625,-20.5078125,-31.73828125,-33.69140625,-32.71484375,0.0
783.39453125,-23.92578125,-22.4609375,-29.296875,-34.1796875,-69.82421875,0.0
783.3984375,-44.921875,-33.203125,-34.66796875,-36.62109375,-112.79296875,0.0
783.40234375,-51.7578125,-35.15625,-37.59765625,-41.9921875,-159.1796875,0.0
783.40625,-34.1796875,-29.296875,-32.2265625,-34.1796875,-114.74609375,0.0
783.41015625,-19.53125,-30.2734375,-30.76171875,-28.3203125,-17.578125,0.0
783.4140625,-23.92578125,-31.73828125,-30.76171875,-27.34375,35.64453125,0.0
783.41796875,-44.43359375,-31.73828125,-34.66796875,-36.62109375,-6.8359375,0.0
783.421875,-58.59375,-38.0859375,-33.69140625,-46.875,-43.9453125,0.0
783.42578125,-46.875,-39.0625,-26.3671875,-36.1328125,49.31640625,0.0
783.4296875,-34.66796875,-33.203125,-30.2734375,-28.3203125,75.1953125,0.0
783.43359375,-39.0625,-36.1328125,-35.64453125,-32.2265625,6.8359375,0.0
783.4375,-45.41015625,-35.64453125,-33.203125,-41.50390625,27.34375,0.0
783.44140625,-53.22265625,-37.59765625,-29.78515625,-41.015625,59.5703125,0.0
783.4453125,-45.8984375,-40.0390625,-28.3203125,-32.71484375,-6.8359375,0.0
783.44921875,-25.390625,-29.296875,-29.78515625,-27.83203125,-5.37109375,0.0
783.453125,-29.78515625,-29.296875,-28.80859375,-34.66796875,43.9453125,0.0
783.45703125,-49.8046875,-34.66796875,-32.2265625,-50.29296875,92.28515625,0.0
783.4609375,-58.59375,-41.9921875,-37.59765625,-51.7578125,30.76171875,0.0
783.46484375,-52.24609375,-44.43359375,-35.64453125,-44.43359375,-98.6328125,0.0
783.46875,-36.62109375,-35.15625,-31.73828125,-40.52734375,-98.6328125,0.0
783.47265625,-32.71484375,-32.2265625,-35.15625,-34.66796875,-54.6875,0.0
783.4765625,-47.36328125,-36.62109375,-36.1328125,-35.64453125,-48.828125,0.0
783.48046875,-56.640625,-40.0390625,-34.1796875,-37.59765625,-74.70703125,0.0
783.484375,-45.41015625,-38.57421875,-31.73828125,-35.64453125,-90.8203125,0.0
783.48828125,-28.3203125,-32.71484375,-35.64453125,-34.66796875,-114.74609375,0.0
783.4921875,-19.04296875,-28.80859375,-33.69140625,-28.3203125,-113.28125,0.0
783.49609375,-30.2734375,-31.73828125,-33.69140625,-30.2734375,-27.83203125,0.0
783.5,-42.48046875,-36.1328125,-35.64453125,-41.015625,-54.19921875,0.0
783.50390625,-39.55078125,-33.69140625,-49.31640625,-40.52734375,-100.5859375,0.0
783.5078125,-28.3203125,-33.69140625,-55.17578125,-33.69140625,-32.71484375,0.0
783.51171875,-19.04296875,-33.203125,-33.69140625,-32.2265625,-18.5546875,0.0
783.515625,-38.0859375,-35.15625,-29.78515625,-39.0625,-46.38671875,0.0
783.51953125,-55.6640625,-45.8984375,-38.0859375,-41.015625,-1.46484375,0.0
783.5234375,-47.36328125,-43.9453125,-36.1328125,-39.0625,11.71875,0.0
783.52734375,-35.64453125,-37.109375,-27.83203125,-34.1796875,-54.6875,0.0
783.53125,-21.484375,-34.66796875,-25.390625,-19.53125,-83.0078125,0.0
783.53515625,-27.34375,-35.64453125,-31.25,-21.484375,-33.203125,0.0
783.5390625,-46.875,-38.0859375,-38.0859375,-35.64453125,10.25390625,0.0
783.54296875,-45.41015625,-35.64453125,-34.66796875,-39.0625,-33.203125,0.0
783.546875,-26.3671875,-33.69140625,-32.2265625,-29.296875,-26.3671875,0.0
783.55078125,-19.53125,-35.15625,-48.828125,-22.94921875,-35.64453125,0.0
783.5546875,-26.85546875,-34.1796875,-51.26953125,-32.71484375,-23.4375,0.0
783.55859375,-39.0625,-39.0625,-31.25,-39.0625,-23.4375,0.0
783.5625,-45.41015625,-45.41015625,-29.296875,-39.0625,51.7578125,0.0
783.56640625,-40.52734375,-41.015625,-34.66796875,-37.109375,71.2890625,0.0
783.5703125,-32.2265625,-35.15625,-32.2265625,-32.71484375,50.29296875,0.0
783.57421875,-37.109375,-40.0390625,-31.25,-34.1796875,-29.296875,0.0
783.578125,-55.6640625,-46.875,-38.0859375,-46.38671875,-108.88671875,0.0
783.58203125,-62.5,-45.8984375,-35.15625,-54.19921875,-91.30859375,0.0
783.5859375,-49.8046875,-36.1328125,-29.78515625,-46.875,-78.61328125,0.0
783.58984375,-30.76171875,-26.85546875,-19.53125,-30.76171875,-63.96484375,0.0
783.59375,-33.69140625,-29.78515625,-34.66796875,-27.34375,-4.8828125,0.0
783.59765625,-49.8046875,-37.59765625,-56.640625,-28.3203125,9.765625,0.0
783.6015625,-56.640625,-40.52734375,-33.69140625,-31.25,-12.20703125,0.0
783.60546875,-50.29296875,-40.0390625,-20.01953125,-32.71484375,-91.30859375,0.0
783.609375,-29.78515625,-38.0859375,-25.390625,-24.4140625,-62.01171875,0.0
783.61328125,-24.90234375,-36.62109375,-31.25,-24.90234375,12.20703125,0.0
783.6171875,-42.48046875,-39.55078125,-30.76171875,-33.69140625,-27.83203125,0.0
783.62109375,-49.8046875,-39.0625,-28.3203125,-38.57421875,-46.875,0.0
783.625,-36.1328125,-33.69140625,-29.78515625,-33.203125,-68.84765625,0.0
783.62890625,-20.99609375,-30.76171875,-28.80859375,-24.90234375,-31.25,0.0
783.6328125,-14.6484375,-24.90234375,-28.3203125,-24.4140625,-27.83203125,0.0
783.63671875,-36.62109375,-33.69140625,-37.109375,-40.52734375,-63.96484375,0.0
783.640625,-44.921875,-43.45703125,-52.24609375,-47.36328125,-106.4453125,0.0
783.64453125,-23.4375,-36.1328125,-43.45703125,-32.2265625,-33.203125,0.0
783.6484375,-7.32421875,-32.71484375,-25.87890625,-33.203125,-34.66796875,0.0
783.65234375,-4.39453125,-28.3203125,-27.83203125,-37.59765625,-13.671875,0.0
783.65625,-16.11328125,-30.2734375,-38.0859375,-35.15625,103.02734375,0.0
783.66015625,-26.85546875,-32.71484375,-35.15625,-41.9921875,99.609375,0.0
783.6640625,-20.5078125,-27.34375,-30.76171875,-36.1328125,-3.41796875,0.0
783.66796875,-10.25390625,-27.83203125,-31.73828125,-22.94921875,-66.40625,0.0
783.671875,-10.7421875,-25.87890625,-27.83203125,-22.4609375,6.34765625,0.0
783.67578125,-24.90234375,-25.390625,-24.90234375,-32.2265625,5.37109375,0.0
783.6796875,-44.43359375,-31.73828125,-30.2734375,-43.45703125,-5.37109375,0.0
783.68359375,-48.828125,-37.109375,-41.9921875,-41.015625,10.25390625,0.0
783.6875,-34.1796875,-36.1328125,-42.48046875,-34.66796875,13.18359375,0.0
783.69140625,-30.2734375,-28.3203125,-30.76171875,-32.71484375,51.26953125,0.0
783.6953125,-35.64453125,-30.2734375,-30.76171875,-32.2265625,-16.6015625,0.0
783.69921875,-40.52734375,-28.3203125,-30.2734375,-33.203125,-27.83203125,0.0
783.703125,-40.0390625,-30.2734375,-27.34375,-32.71484375,-21.97265625,0.0
783.70703125,-27.83203125,-36.62109375,-26.3671875,-24.90234375,5.37109375,0.0
783.7109375,-14.16015625,-30.2734375,-24.90234375,-23.4375,21.484375,0.0
783.71484375,-21.484375,-31.73828125,-33.69140625,-29.78515625,-46.875,0.0
783.71875,-37.59765625,-37.59765625,-36.62109375,-35.15625,-56.640625,0.0
783.72265625,-40.52734375,-35.64453125,-26.3671875,-36.62109375,62.5,0.0
783.7265625,-30.2734375,-29.78515625,-26.3671875,-29.296875,80.078125,0.0
783.73046875,-23.92578125,-34.1796875,-30.76171875,-24.90234375,20.5078125,0.0
783.734375,-30.76171875,-39.0625,-29.78515625,-28.3203125,57.12890625,0.0
783.73828125,-41.50390625,-37.109375,-33.203125,-36.62109375,-43.45703125,0.0
783.7421875,-45.8984375,-37.109375,-33.203125,-41.9921875,-78.61328125,0.0
783.74609375,-37.109375,-34.66796875,-26.85546875,-37.109375,-3.90625,0.0
783.75,-21.484375,-27.34375,-25.390625,-26.3671875,48.33984375,0.0
783.75390625,-26.85546875,-30.2734375,-26.85546875,-30.2734375,38.57421875,0.0
783.7578125,-47.8515625,-36.1328125,-31.25,-47.36328125,-63.4765625,0.0
783.76171875,-52.24609375,-36.62109375,-32.71484375,-51.26953125,-106.93359375,0.0
783.765625,-42.48046875,-31.73828125,-30.76171875,-40.0390625,-47.36328125,0.0
783.76953125,-22.94921875,-25.390625,-24.90234375,-26.85546875,10.7421875,0.0
783.7734375,-24.90234375,-26.3671875,-29.78515625,-26.85546875,-44.43359375,0.0
783.77734375,-51.26953125,-35.64453125,-42.48046875,-38.0859375,-106.93359375,0.0
783.78125,-55.17578125,-42.96875,-37.109375,-35.15625,-69.3359375,0.0
783.78515625,-39.55078125,-38.0859375,-29.78515625,-25.390625,-85.44921875,0.0
783.7890625,-25.390625,-34.1796875,-31.73828125,-23.92578125,-50.78125,0.0
783.79296875,-23.4375,-34.66796875,-30.76171875,-28.80859375,3.41796875,0.0
783.796875,-33.69140625,-35.15625,-27.83203125,-30.2734375,-31.73828125,0.0
783.80078125,-43.9453125,-38.57421875,-24.4140625,-29.296875,-69.3359375,0.0
783.8046875,-40.0390625,-37.109375,-21.97265625,-28.3203125,-83.0078125,0.0
783.80859375,-20.01953125,-33.69140625,-19.04296875,-16.6015625,6.34765625,0.0
783.8125,-13.18359375,-32.71484375,-22.94921875,-15.13671875,102.5390625,0.0
783.81640625,-30.2734375,-34.66796875,-26.85546875,-28.3203125,90.33203125,0.0
783.8203125,-44.921875,-34.1796875,-29.296875,-29.78515625,75.68359375,0.0
783.82421875,-34.1796875,-31.73828125,-27.83203125,-27.83203125,73.73046875,0.0
783.828125,-17.578125,-28.3203125,-25.390625,-31.73828125,54.6875,0.0
783.83203125,-13.18359375,-30.76171875,-30.76171875,-35.64453125,-1.46484375,0.0
783.8359375,-33.203125,-38.0859375,-46.38671875,-41.50390625,-51.26953125,0.0
783.83984375,-58.59375,-38.57421875,-47.36328125,-47.8515625,-36.62109375,0.0
783.84375,-50.29296875,-35.64453125,-33.203125,-41.9921875,29.78515625,0.0
783.84765625,-31.25,-30.2734375,-26.3671875,-27.83203125,34.66796875,0.0
783.8515625,-29.296875,-30.76171875,-24.90234375,-20.99609375,-55.17578125,0.0
783.85546875,-40.52734375,-36.62109375,-25.390625,-29.296875,-57.6171875,0.0
783.859375,-58.59375,-35.64453125,-32.2265625,-42.48046875,4.39453125,0.0
783.86328125,-57.6171875,-31.25,-32.2265625,-40.0390625,-21.484375,0.0
783.8671875,-45.8984375,-26.85546875,-22.94921875,-30.76171875,-91.30859375,0.0
783.87109375,-37.109375,-28.80859375,-25.390625,-38.57421875,-38.0859375,0.0
783.875,-36.1328125,-34.66796875,-24.90234375,-40.52734375,38.57421875,0.0
783.87890625,-49.8046875,-40.0390625,-33.69140625,-33.69140625,-2.44140625,0.0
783.8828125,-55.6640625,-41.9921875,-44.921875,-36.62109375,-56.640625,0.0
783.88671875,-33.69140625,-33.203125,-30.2734375,-28.3203125,-61.5234375,0.0
783.890625,-12.20703125,-26.85546875,-24.4140625,-22.94921875,34.1796875,0.0
783.89453125,-20.01953125,-32.2265625,-26.3671875,-29.78515625,12.20703125,0.0
783.8984375,-37.59765625,-37.59765625,-26.3671875,-26.85546875,-38.0859375,0.0
783.90234375,-37.109375,-33.203125,-24.90234375,-24.90234375,-14.16015625,0.0
783.90625,-21.484375,-26.3671875,-26.3671875,-27.34375,24.90234375,0.0
783.91015625,-11.23046875,-24.4140625,-24.4140625,-24.90234375,107.91015625,0.0
783.9140625,-18.5546875,-28.3203125,-27.83203125,-29.78515625,12.6953125,0.0
783.91796875,-34.1796875,-34.1796875,-36.62109375,-41.9921875,-165.52734375,0.0
783.921875,-38.57421875,-36.1328125,-33.203125,-40.0390625,-102.5390625,0.0
783.92578125,-22.4609375,-32.2265625,-22.4609375,-32.2265625,21.97265625,0.0
783.9296875,-2.44140625,-28.80859375,-23.4375,-35.15625,46.875,0.0
783.93359375,-3.90625,-28.3203125,-29.296875,-37.59765625,16.11328125,0.0
783.9375,-24.90234375,-30.76171875,-30.76171875,-45.41015625,-50.29296875,0.0
783.94140625,-41.50390625,-36.62109375,-30.76171875,-52.734375,-181.15234375,0.0
783.9453125,-44.921875,-38.0859375,-29.296875,-49.31640625,-222.16796875,0.0
783.94921875,-34.1796875,-28.80859375,-27.83203125,-41.9921875,-106.93359375,0.0
783.953125,-30.2734375,-26.3671875,-20.99609375,-41.9921875,-16.11328125,0.0
783.95703125,-46.875,-36.62109375,-24.4140625,-49.31640625,22.94921875,0.0
783.9609375,-62.01171875,-41.9921875,-30.76171875,-43.9453125,-46.875,0.0
783.96484375,-58.10546875,-40.0390625,-37.109375,-36.1328125,-39.0625,0.0
783.96875,-41.9921875,-40.0390625,-30.76171875,-34.66796875,-15.13671875,0.0
783.97265625,-34.1796875,-41.50390625,-22.4609375,-22.4609375,44.43359375,0.0
783.9765625,-42.48046875,-40.52734375,-33.203125,-24.90234375,105.46875,0.0
783.98046875,-49.8046875,-39.55078125,-35.64453125,-30.2734375,-1.953125,0.0
783.984375,-41.9921875,-38.57421875,-21.484375,-22.4609375,4.8828125,0.0
783.98828125,-26.85546875,-39.0625,-18.5546875,-18.5546875,101.07421875,0.0
783.9921875,-17.08984375,-37.109375,-29.296875,-17.578125,116.2109375,0.0
783.99609375,-26.3671875,-37.59765625,-31.25,-22.94921875,54.6875,0.0
784.0,-41.015625,-36.1328125,-34.1796875,-30.76171875,4.8828125,0.0
784.00390625,-29.296875,-34.66796875,-31.25,-32.2265625,43.45703125,0.0
784.0078125,-8.7890625,-31.25,-30.76171875,-28.3203125,67.87109375,0.0
784.01171875,-3.90625,-28.80859375,-33.203125,-22.4609375,39.0625,0.0
784.015625,-15.625,-34.66796875,-26.3671875,-29.78515625,-2.9296875,0.0
784.01953125,-27.83203125,-39.55078125,-29.296875,-39.0625,-19.53125,0.0
784.0234375,-31.25,-40.52734375,-34.1796875,-42.48046875,-16.6015625,0.0
784.02734375,-24.90234375,-35.64453125,-31.25,-40.52734375,-57.12890625,0.0
784.03125,-25.390625,-29.78515625,-32.2265625,-32.71484375,-47.36328125,0.0
784.03515625,-38.0859375,-32.2265625,-33.203125,-38.0859375,-4.39453125,0.0
784.0390625,-51.7578125,-37.109375,-32.2265625,-40.52734375,-32.71484375,0.0
784.04296875,-56.640625,-39.0625,-24.4140625,-37.59765625,-51.7578125,0.0
784.046875,-43.9453125,-37.109375,-17.08984375,-25.87890625,-75.68359375,0.0
784.05078125,-31.73828125,-33.69140625,-19.53125,-17.578125,-115.72265625,0.0
784.0546875,-39.55078125,-33.69140625,-28.3203125,-23.92578125,-66.40625,0.0
784.05859375,-57.6171875,-40.0390625,-23.4375,-33.69140625,-83.0078125,0.0
784.0625,-63.4765625,-47.36328125,-16.6015625,-36.62109375,-201.171875,0.0
784.06640625,-42.96875,-46.875,-26.3671875,-30.76171875,-118.65234375,0.0
784.0703125,-22.94921875,-41.50390625,-28.80859375,-25.390625,-17.08984375,0.0
784.07421875,-20.5078125,-37.109375,-28.3203125,-25.87890625,-37.109375,0.0
784.078125,-31.25,-35.15625,-34.1796875,-29.78515625,-55.6640625,0.0
784.08203125,-39.0625,-37.109375,-37.109375,-37.109375,-83.984375,0.0
784.0859375,-26.3671875,-34.66796875,-34.66796875,-37.109375,-68.359375,0.0
784.08984375,-9.27734375,-26.85546875,-31.25,-22.94921875,-4.39453125,0.0
784.09375,-18.5546875,-25.390625,-34.1796875,-28.3203125,41.015625,0.0
784.09765625,-43.45703125,-35.64453125,-42.48046875,-43.45703125,37.59765625,0.0
784.1015625,-47.36328125,-40.0390625,-45.8984375,-38.0859375,-10.25390625,0.0
784.10546875,-35.64453125,-34.1796875,-34.1796875,-29.78515625,-19.04296875,0.0
784.109375,-27.83203125,-32.71484375,-28.80859375,-20.01953125,22.4609375,0.0
784.11328125,-31.73828125,-31.73828125,-32.71484375,-14.6484375,116.2109375,0.0
784.1171875,-45.8984375,-37.109375,-36.1328125,-27.83203125,78.61328125,0.0
784.12109375,-54.6875,-44.43359375,-38.0859375,-34.1796875,-50.29296875,0.0
784.125,-37.59765625,-36.62109375,-29.296875,-30.2734375,-37.109375,0.0
784.12890625,-20.99609375,-29.296875,-26.85546875,-25.390625,33.203125,0.0
784.1328125,-25.390625,-32.2265625,-29.78515625,-25.87890625,53.7109375,0.0
784.13671875,-36.62109375,-35.64453125,-33.203125,-28.3203125,-16.6015625,0.0
784.140625,-42.48046875,-39.0625,-34.1796875,-34.1796875,-118.65234375,0.0
784.14453125,-43.45703125,-35.15625,-34.66796875,-42.96875,-104.98046875,0.0
784.1484375,-27.83203125,-20.5078125,-29.296875,-29.296875,-32.2265625,0.0
784.15234375,-17.578125,-20.99609375,-24.90234375,-21.484375,1.46484375,0.0
784.15625,-32.2265625,-35.15625,-32.71484375,-31.25,62.5,0.0
784.16015625,-44.921875,-40.52734375,-36.62109375,-34.66796875,45.8984375,0.0
784.1640625,-43.9453125,-37.109375,-27.34375,-33.203125,-45.41015625,0.0
784.16796875,-25.390625,-25.390625,-19.04296875,-30.2734375,38.57421875,0.0
784.171875,-13.671875,-20.99609375,-26.85546875,-19.53125,93.75,0.0
784.17578125,-26.3671875,-32.2265625,-29.296875,-25.87890625,60.05859375,0.0
784.1796875,-39.55078125,-41.015625,-31.73828125,-34.66796875,15.13671875,0.0
784.18359375,-36.62109375,-42.96875,-34.66796875,-29.78515625,-61.03515625,0.0
784.1875,-17.578125,-33.69140625,-29.296875,-18.06640625,-81.54296875,0.0
784.19140625,-0.9765625,-28.3203125,-23.4375,-12.20703125,-9.765625,0.0
784.1953125,-8.7890625,-27.83203125,-27.34375,-22.4609375,43.9453125,0.0
784.19921875,-30.2734375,-33.203125,-37.59765625,-30.76171875,-36.1328125,0.0
784.203125,-42.96875,-37.109375,-40.52734375,-33.203125,-93.75,0.0
784.20703125,-31.73828125,-30.2734375,-33.69140625,-31.25,-58.10546875,0.0
784.2109375,-25.390625,-27.34375,-22.4609375,-24.90234375,-23.92578125,0.0
784.21484375,-36.1328125,-29.78515625,-25.390625,-30.76171875,-58.59375,0.0
784.21875,-60.05859375,-35.64453125,-35.15625,-46.875,-50.78125,0.0
784.22265625,-66.40625,-34.1796875,-32.71484375,-45.41015625,-30.76171875,0.0
784.2265625,-46.38671875,-25.390625,-30.2734375,-35.15625,25.87890625,0.0
784.23046875,-31.73828125,-17.08984375,-25.87890625,-22.4609375,12.6953125,0.0
784.234375,-31.73828125,-18.06640625,-28.3203125,-14.16015625,-4.8828125,0.0
784.23828125,-42.96875,-30.76171875,-33.69140625,-26.3671875,-8.7890625,0.0
784.2421875,-43.45703125,-32.2265625,-32.71484375,-32.71484375,-140.625,0.0
784.24609375,-24.4140625,-25.390625,-27.83203125,-20.99609375,-150.390625,0.0
784.25,-4.39453125,-22.94921875,-28.80859375,-13.18359375,-55.17578125,0.0
784.25390625,-9.27734375,-27.83203125,-27.34375,-21.484375,59.08203125,0.0
784.2578125,-25.87890625,-38.0859375,-25.87890625,-30.76171875,50.29296875,0.0
784.26171875,-27.83203125,-37.59765625,-32.71484375,-32.2265625,-106.93359375,0.0
784.265625,-11.23046875,-30.76171875,-35.15625,-30.2734375,-148.4375,0.0
784.26953125,0.0,-25.87890625,-22.94921875,-30.2734375,-127.9296875,0.0
784.2734375,-5.37109375,-27.83203125,-24.4140625,-34.1796875,-46.875,0.0
784.27734375,-13.18359375,-31.25,-40.52734375,-35.64453125,-3.41796875,0.0
784.28125,-25.87890625,-33.203125,-34.66796875,-37.109375,-71.77734375,0.0
784.28515625,-24.4140625,-31.25,-31.73828125,-39.55078125,-83.984375,0.0
784.2890625,-9.765625,-28.80859375,-32.71484375,-39.55078125,-38.0859375,0.0
784.29296875,-16.6015625,-29.78515625,-35.15625,-39.0625,42.48046875,0.0
784.296875,-36.1328125,-37.109375,-38.0859375,-42.96875,-14.6484375,0.0
784.30078125,-49.8046875,-41.015625,-31.25,-52.734375,-117.1875,0.0
784.3046875,-51.26953125,-37.109375,-34.66796875,-54.19921875,-119.140625,0.0
784.30859375,-37.109375,-31.25,-42.48046875,-44.921875,-106.93359375,0.0
784.3125,-29.296875,-25.87890625,-37.109375,-43.9453125,-32.2265625,0.0
784.31640625,-43.9453125,-25.87890625,-38.0859375,-48.828125,4.8828125,0.0
784.3203125,-54.19921875,-31.73828125,-40.0390625,-55.17578125,-46.875,0.0
784.32421875,-47.36328125,-37.109375,-33.203125,-52.734375,-10.7421875,0.0
784.328125,-33.69140625,-34.66796875,-27.34375,-43.45703125,2.44140625,0.0
784.33203125,-24.90234375,-31.73828125,-29.78515625,-38.57421875,-32.71484375,0.0
784.3359375,-30.2734375,-35.15625,-35.64453125,-44.921875,1.953125,0.0
784.33984375,-37.109375,-34.1796875,-44.43359375,-50.29296875,-6.8359375,0.0
784.34375,-35.64453125,-32.71484375,-40.0390625,-45.41015625,-58.10546875,0.0
784.34765625,-15.13671875,-27.83203125,-27.34375,-39.55078125,-5.37109375,0.0
784.3515625,-2.44140625,-26.3671875,-31.73828125,-31.25,31.73828125,0.0
784.35546875,-20.01953125,-32.71484375,-34.66796875,-32.2265625,3.90625,0.0
784.359375,-35.64453125,-39.0625,-28.3203125,-39.0625,-53.7109375,0.0
784.36328125,-33.203125,-38.57421875,-27.34375,-37.109375,-53.7109375,0.0
784.3671875,-17.578125,-29.78515625,-25.390625,-24.90234375,-22.94921875,0.0
784.37109375,-8.30078125,-25.87890625,-20.99609375,-20.01953125,10.25390625,0.0
784.375,-19.53125,-31.25,-29.296875,-33.69140625,-21.97265625,0.0
784.37890625,-42.48046875,-42.48046875,-39.0625,-47.36328125,-40.0390625,0.0
784.3828125,-44.921875,-43.9453125,-37.59765625,-48.828125,-53.7109375,0.0
784.38671875,-24.4140625,-38.57421875,-36.62109375,-43.9453125,-79.58984375,0.0
784.390625,-21.97265625,-32.71484375,-45.41015625,-42.48046875,-17.578125,0.0
784.39453125,-37.109375,-27.83203125,-41.9921875,-41.015625,42.96875,0.0
784.3984375,-50.78125,-33.203125,-37.109375,-45.8984375,15.625,0.0
784.40234375,-58.59375,-39.55078125,-37.59765625,-52.734375,-32.71484375,0.0
784.40625,-43.9453125,-31.25,-31.25,-43.45703125,-28.80859375,0.0
784.41015625,-30.2734375,-22.94921875,-26.3671875,-35.64453125,-48.33984375,0.0
784.4140625,-33.203125,-22.4609375,-26.3671875,-34.1796875,41.50390625,0.0
784.41796875,-44.43359375,-28.80859375,-27.83203125,-36.62109375,54.6875,0.0
784.421875,-44.921875,-31.25,-27.83203125,-34.66796875,-1.953125,0.0
784.42578125,-32.2265625,-24.90234375,-21.484375,-26.85546875,9.27734375,0.0
784.4296875,-22.94921875,-23.4375,-17.08984375,-25.390625,-17.578125,0.0
784.43359375,-25.87890625,-24.4140625,-25.87890625,-26.85546875,13.671875,0.0
784.4375,-41.50390625,-26.85546875,-27.34375,-28.80859375,33.69140625,0.0
784.44140625,-52.24609375,-31.73828125,-23.4375,-27.34375,4.8828125,0.0
784.4453125,-39.0625,-36.62109375,-27.34375,-26.85546875,-25.87890625,0.0
784.44921875,-19.04296875,-30.2734375,-30.76171875,-25.390625,43.45703125,0.0
784.453125,-15.625,-22.94921875,-31.73828125,-24.4140625,130.859375,0.0
784.45703125,-25.87890625,-32.71484375,-27.83203125,-31.73828125,107.421875,0.0
784.4609375,-38.57421875,-39.0625,-34.1796875,-41.015625,97.65625,0.0
784.46484375,-32.2265625,-34.66796875,-31.73828125,-35.64453125,89.35546875,0.0
784.46875,-18.5546875,-28.3203125,-26.85546875,-28.3203125,98.14453125,0.0
784.47265625,-23.4375,-35.15625,-29.78515625,-29.78515625,76.66015625,0.0
784.4765625,-41.50390625,-40.52734375,-29.296875,-41.9921875,-3.41796875,0.0
784.48046875,-54.6875,-36.62109375,-42.48046875,-45.8984375,-83.49609375,0.0
784.484375,-55.17578125,-37.59765625,-39.0625,-40.0390625,-128.41796875,0.0
784.48828125,-38.57421875,-35.15625,-21.97265625,-36.1328125,18.06640625,0.0
784.4921875,-34.66796875,-34.66796875,-29.78515625,-36.1328125,15.13671875,0.0
784.49609375,-54.19921875,-34.66796875,-37.109375,-48.33984375,-111.328125,0.0
784.5,-68.84765625,-41.015625,-32.71484375,-56.640625,-126.953125,0.0
784.50390625,-67.3828125,-45.8984375,-32.71484375,-50.78125,-98.6328125,0.0
784.5078125,-48.828125,-37.109375,-31.73828125,-41.50390625,-107.421875,0.0
784.51171875,-32.71484375,-28.80859375,-29.78515625,-31.73828125,-94.7265625,0.0
784.515625,-38.57421875,-33.203125,-32.71484375,-33.203125,-25.390625,0.0
784.51953125,-56.640625,-37.59765625,-35.15625,-42.48046875,-20.01953125,0.0
784.5234375,-52.734375,-38.57421875,-36.62109375,-40.0390625,-99.609375,0.0
784.52734375,-22.94921875,-29.78515625,-30.2734375,-24.90234375,-99.12109375,0.0
784.53125,-9.27734375,-25.390625,-27.83203125,-25.87890625,-42.48046875,0.0
784.53515625,-22.4609375,-30.2734375,-31.73828125,-30.2734375,-113.76953125,0.0
784.5390625,-31.73828125,-28.80859375,-33.203125,-24.4140625,-141.6015625,0.0
784.54296875,-30.76171875,-27.83203125,-35.64453125,-29.78515625,-130.37109375,0.0
784.546875,-24.4140625,-25.390625,-25.390625,-28.80859375,-106.4453125,0.0
784.55078125,-16.11328125,-21.97265625,-19.04296875,-26.3671875,-8.30078125,0.0
784.5546875,-22.4609375,-28.3203125,-26.3671875,-36.1328125,1.46484375,0.0
784.55859375,-31.73828125,-37.109375,-30.76171875,-39.0625,-38.0859375,0.0
784.5625,-30.76171875,-35.64453125,-27.34375,-31.73828125,-15.625,0.0
784.56640625,-26.3671875,-26.85546875,-30.76171875,-28.80859375,0.48828125,0.0
784.5703125,-19.53125,-22.4609375,-38.57421875,-27.83203125,52.734375,0.0
784.57421875,-27.83203125,-27.34375,-37.109375,-24.90234375,46.875,0.0
784.578125,-47.36328125,-37.109375,-31.73828125,-33.69140625,-46.875,0.0
784.58203125,-47.8515625,-35.15625,-36.62109375,-38.0859375,-53.22265625,0.0
784.5859375,-32.2265625,-30.2734375,-36.1328125,-31.73828125,2.9296875,0.0
784.58984375,-19.53125,-24.4140625,-27.34375,-25.87890625,59.08203125,0.0
784.59375,-18.5546875,-22.4609375,-26.3671875,-24.90234375,46.38671875,0.0
784.59765625,-35.15625,-33.69140625,-33.203125,-31.73828125,-27.34375,0.0
784.6015625,-46.875,-42.48046875,-34.66796875,-35.64453125,-4.8828125,0.0
784.60546875,-35.15625,-38.0859375,-29.296875,-27.34375,-48.33984375,0.0
784.609375,-22.94921875,-33.203125,-25.87890625,-25.87890625,-43.45703125,0.0
784.61328125,-24.4140625,-32.2265625,-25.87890625,-31.25,99.609375,0.0
784.6171875,-40.0390625,-37.59765625,-28.3203125,-37.109375,35.15625,0.0
784.62109375,-49.8046875,-43.45703125,-33.203125,-45.41015625,-28.3203125,0.0
784.625,-41.50390625,-40.0390625,-33.203125,-39.0625,-13.671875,0.0
784.62890625,-26.85546875,-32.2265625,-30.2734375,-30.2734375,-29.296875,0.0
784.6328125,-21.97265625,-30.2734375,-29.296875,-30.76171875,8.7890625,0.0
784.63671875,-35.15625,-31.73828125,-29.296875,-32.71484375,-56.15234375,0.0
784.640625,-46.875,-36.1328125,-30.2734375,-37.109375,-54.6875,0.0
784.64453125,-38.0859375,-37.109375,-29.78515625,-35.64453125,29.296875,0.0
784.6484375,-20.01953125,-26.85546875,-25.87890625,-27.34375,66.40625,0.0
784.65234375,-19.04296875,-28.3203125,-19.04296875,-20.99609375,16.11328125,0.0
784.65625,-35.64453125,-33.69140625,-22.4609375,-24.90234375,-55.6640625,0.0
784.66015625,-45.8984375,-38.0859375,-28.80859375,-30.2734375,-66.89453125,0.0
784.6640625,-41.9921875,-37.109375,-25.87890625,-26.3671875,-158.69140625,0.0
784.66796875,-32.71484375,-30.2734375,-22.94921875,-22.94921875,-150.87890625,0.0
784.671875,-25.87890625,-27.83203125,-22.4609375,-24.90234375,-18.5546875,0.0
784.67578125,-36.62109375,-29.78515625,-29.78515625,-31.73828125,-27.34375,0.0
784.6796875,-53.22265625,-35.64453125,-37.109375,-40.0390625,-23.92578125,0.0
784.68359375,-52.734375,-39.55078125,-32.71484375,-41.015625,9.765625,0.0
784.6875,-32.2265625,-32.2265625,-24.90234375,-30.2734375,-69.3359375,0.0
784.69140625,-25.87890625,-28.3203125,-30.76171875,-30.76171875,-119.140625,0.0
784.6953125,-33.203125,-31.73828125,-34.1796875,-35.64453125,-24.4140625,0.0
784.69921875,-39.55078125,-35.15625,-36.62109375,-36.62109375,8.30078125,0.0
784.703125,-41.50390625,-37.109375,-34.66796875,-40.0390625,-11.23046875,0.0
784.70703125,-30.2734375,-33.69140625,-28.80859375,-31.73828125,38.57421875,0.0
784.7109375,-18.06640625,-31.25,-30.2734375,-21.97265625,55.6640625,0.0
784.71484375,-22.94921875,-35.64453125,-31.25,-29.78515625,3.41796875,0.0
784.71875,-39.0625,-44.921875,-37.109375,-41.9921875,32.71484375,0.0
784.72265625,-42.96875,-42.48046875,-33.69140625,-36.1328125,-28.3203125,0.0
784.7265625,-33.69140625,-34.1796875,-24.90234375,-31.73828125,-43.45703125,0.0
784.73046875,-24.4140625,-29.296875,-26.85546875,-24.90234375,21.484375,0.0
784.734375,-31.73828125,-30.76171875,-32.71484375,-21.97265625,-12.20703125,0.0
784.73828125,-49.31640625,-39.0625,-34.66796875,-34.66796875,-55.17578125,0.0
784.7421875,-56.15234375,-37.109375,-29.78515625,-43.45703125,-59.08203125,0.0
784.74609375,-39.0625,-32.2265625,-25.87890625,-40.0390625,-51.7578125,0.0
784.75,-22.94921875,-24.4140625,-21.97265625,-26.85546875,-2.44140625,0.0
784.75390625,-28.3203125,-24.90234375,-27.83203125,-30.2734375,55.6640625,0.0
784.7578125,-42.48046875,-31.25,-33.203125,-43.45703125,-10.25390625,0.0
784.76171875,-52.734375,-39.55078125,-31.25,-41.50390625,-17.08984375,0.0
784.765625,-41.9921875,-39.0625,-24.4140625,-37.109375,-43.9453125,0.0
784.76953125,-22.94921875,-30.2734375,-22.94921875,-34.1796875,-14.16015625,0.0
784.7734375,-20.5078125,-27.34375,-29.296875,-31.25,54.19921875,0.0
784.77734375,-32.2265625,-32.2265625,-28.3203125,-40.52734375,17.08984375,0.0
784.78125,-45.41015625,-39.55078125,-29.296875,-47.8515625,-3.41796875,0.0
784.78515625,-37.109375,-33.203125,-29.296875,-39.0625,4.39453125,0.0
784.7890625,-14.6484375,-24.4140625,-21.484375,-27.83203125,-47.8515625,0.0
784.79296875,-12.20703125,-23.92578125,-20.01953125,-25.87890625,-19.53125,0.0
784.796875,-30.76171875,-28.3203125,-27.34375,-30.76171875,91.30859375,0.0
784.80078125,-37.59765625,-34.66796875,-30.76171875,-33.203125,-18.5546875,0.0
784.8046875,-31.73828125,-29.78515625,-28.80859375,-35.15625,-104.00390625,0.0
784.80859375,-20.01953125,-24.4140625,-20.01953125,-29.296875,-92.7734375,0.0
784.8125,-14.16015625,-26.85546875,-17.08984375,-28.80859375,-65.4296875,0.0
784.81640625,-31.25,-36.1328125,-26.3671875,-41.50390625,1.953125,0.0
784.8203125,-44.43359375,-40.0390625,-33.69140625,-45.8984375,25.87890625,0.0
784.82421875,-32.2265625,-31.73828125,-22.94921875,-34.66796875,22.94921875,0.0
784.828125,-16.11328125,-30.2734375,-15.13671875,-24.4140625,45.8984375,0.0
784.83203125,-10.7421875,-38.0859375,-26.85546875,-22.4609375,24.4140625,0.0
784.8359375,-22.4609375,-39.0625,-31.25,-29.78515625,0.48828125,0.0
784.83984375,-38.57421875,-37.59765625,-30.76171875,-32.71484375,49.31640625,0.0
784.84375,-38.57421875,-38.57421875,-28.80859375,-27.34375,-20.01953125,0.0
784.84765625,-23.4375,-38.0859375,-33.69140625,-23.92578125,-89.35546875,0.0
784.8515625,-15.13671875,-32.71484375,-33.203125,-18.06640625,-52.734375,0.0
784.85546875,-25.390625,-31.25,-32.2265625,-22.94921875,-9.27734375,0.0
784.859375,-36.62109375,-39.0625,-38.0859375,-35.15625,-44.921875,0.0
784.86328125,-34.1796875,-35.64453125,-35.15625,-36.1328125,-79.58984375,0.0
784.8671875,-20.5078125,-28.80859375,-33.69140625,-31.25,-98.6328125,0.0
784.87109375,-14.6484375,-27.83203125,-35.64453125,-30.2734375,-102.05078125,0.0
784.875,-25.87890625,-32.2265625,-39.0625,-40.52734375,-83.984375,0.0
784.87890625,-43.45703125,-38.0859375,-41.50390625,-48.828125,-63.96484375,0.0
784.8828125,-50.29296875,-41.015625,-37.59765625,-48.828125,-68.359375,0.0
784.88671875,-34.1796875,-38.0859375,-31.73828125,-39.0625,-81.54296875,0.0
784.890625,-22.4609375,-32.71484375,-31.73828125,-29.296875,-47.36328125,0.0
784.89453125,-35.15625,-31.73828125,-32.71484375,-35.64453125,-14.16015625,0.0
784.8984375,-50.78125,-33.203125,-31.73828125,-37.109375,1.953125,0.0
784.90234375,-56.15234375,-35.64453125,-33.203125,-35.15625,-15.13671875,0.0
784.90625,-49.31640625,-40.52734375,-33.203125,-35.64453125,-45.8984375,0.0
784.91015625,-33.69140625,-41.9921875,-29.78515625,-30.76171875,-25.390625,0.0
784.9140625,-34.1796875,-39.55078125,-26.85546875,-32.2265625,30.2734375,0.0
784.91796875,-53.22265625,-40.52734375,-31.25,-44.921875,-5.37109375,0.0
784.921875,-61.03515625,-42.96875,-32.2265625,-47.36328125,-104.00390625,0.0
784.92578125,-43.45703125,-38.57421875,-27.34375,-26.3671875,-76.171875,0.0
784.9296875,-27.34375,-32.71484375,-19.04296875,-21.484375,-32.2265625,0.0
784.93359375,-28.3203125,-34.66796875,-19.04296875,-30.2734375,-38.0859375,0.0
784.9375,-46.875,-43.9453125,-31.73828125,-40.0390625,-23.4375,0.0
784.94140625,-53.7109375,-45.41015625,-38.57421875,-44.43359375,-26.3671875,0.0
784.9453125,-37.109375,-37.59765625,-38.57421875,-38.57421875,-16.11328125,0.0
784.94921875,-15.625,-33.69140625,-33.69140625,-25.87890625,19.53125,0.0
784.953125,-11.23046875,-30.76171875,-36.1328125,-22.4609375,-2.9296875,0.0
784.95703125,-33.203125,-36.62109375,-39.0625,-33.203125,-32.2265625,0.0
784.9609375,-45.41015625,-41.50390625,-31.25,-35.15625,-73.2421875,0.0
784.96484375,-38.57421875,-34.66796875,-34.1796875,-32.71484375,-97.16796875,0.0
784.96875,-27.83203125,-28.80859375,-42.96875,-34.1796875,-102.05078125,0.0
784.97265625,-24.4140625,-25.87890625,-43.45703125,-33.203125,-87.40234375,0.0
784.9765625,-39.55078125,-29.296875,-43.45703125,-34.1796875,-67.3828125,0.0
784.98046875,-50.78125,-35.15625,-40.0390625,-37.59765625,-29.296875,0.0
784.984375,-42.96875,-33.203125,-41.50390625,-33.203125,-10.7421875,0.0
784.98828125,-27.83203125,-24.4140625,-32.71484375,-29.78515625,12.20703125,0.0
784.9921875,-16.6015625,-19.53125,-30.2734375,-30.76171875,2.9296875,0.0
784.99609375,-24.4140625,-26.85546875,-41.9921875,-31.73828125,-4.39453125,0.0
785.0,-41.015625,-33.69140625,-41.015625,-41.50390625,-30.76171875,0.0
785.00390625,-40.0390625,-32.2265625,-22.4609375,-41.9921875,-60.546875,0.0
785.0078125,-21.484375,-27.83203125,-19.04296875,-25.87890625,37.59765625,0.0
785.01171875,-15.13671875,-29.296875,-37.109375,-21.97265625,48.828125,0.0
785.015625,-30.2734375,-32.71484375,-37.59765625,-36.62109375,32.71484375,0.0
785.01953125,-53.22265625,-38.57421875,-31.25,-46.875,38.0859375,0.0
785.0234375,-57.6171875,-39.0625,-32.2265625,-40.0390625,45.41015625,0.0
785.02734375,-40.0390625,-37.59765625,-39.0625,-34.1796875,53.7109375,0.0
785.03125,-27.34375,-34.66796875,-35.64453125,-31.73828125,93.75,0.0
785.03515625,-31.73828125,-37.109375,-29.296875,-35.64453125,84.47265625,0.0
785.0390625,-46.875,-38.57421875,-28.80859375,-47.36328125,0.9765625,0.0
785.04296875,-49.31640625,-35.15625,-22.94921875,-44.43359375,-78.125,0.0
785.046875,-28.3203125,-31.25,-25.87890625,-30.76171875,-108.3984375,0.0
785.05078125,-18.06640625,-30.2734375,-14.6484375,-25.390625,-65.4296875,0.0
785.0546875,-27.34375,-33.69140625,-15.625,-31.73828125,-0.9765625,0.0
785.05859375,-43.9453125,-37.109375,-39.55078125,-43.45703125,28.80859375,0.0
785.0625,-49.31640625,-37.109375,-38.57421875,-41.50390625,-8.7890625,0.0
785.06640625,-37.109375,-34.66796875,-36.62109375,-30.76171875,-17.578125,0.0
785.0703125,-20.01953125,-29.296875,-35.64453125,-20.01953125,20.01953125,0.0
785.07421875,-19.53125,-24.90234375,-32.2265625,-24.90234375,22.4609375,0.0
785.078125,-38.57421875,-34.66796875,-35.64453125,-35.64453125,-31.25,0.0
785.08203125,-45.8984375,-39.0625,-33.69140625,-27.34375,-42.96875,0.0
785.0859375,-30.76171875,-34.1796875,-30.76171875,-16.6015625,-12.6953125,0.0
785.08984375,-18.5546875,-33.69140625,-34.1796875,-15.625,20.01953125,0.0
785.09375,-24.4140625,-34.1796875,-30.76171875,-20.5078125,86.9140625,0.0
785.09765625,-36.62109375,-37.109375,-25.390625,-24.90234375,0.9765625,0.0
785.1015625,-43.45703125,-35.15625,-33.69140625,-27.34375,-43.9453125,0.0
785.10546875,-29.296875,-28.80859375,-30.2734375,-25.87890625,15.13671875,0.0
785.109375,-8.7890625,-22.4609375,-13.671875,-15.625,46.38671875,0.0
785.11328125,-7.32421875,-21.97265625,-19.53125,-9.765625,124.0234375,0.0
785.1171875,-25.87890625,-29.78515625,-31.73828125,-23.4375,109.86328125,0.0
785.12109375,-37.109375,-33.203125,-27.83203125,-31.25,31.73828125,0.0
785.125,-35.15625,-32.71484375,-24.4140625,-29.78515625,29.78515625,0.0
785.12890625,-25.87890625,-28.3203125,-26.3671875,-28.3203125,22.94921875,0.0
785.1328125,-18.5546875,-25.87890625,-28.80859375,-25.390625,-28.80859375,0.0
785.13671875,-38.0859375,-35.64453125,-29.78515625,-32.71484375,10.7421875,0.0
785.140625,-53.22265625,-39.0625,-11.71875,-37.59765625,-8.30078125,0.0
785.14453125,-46.38671875,-36.62109375,-14.16015625,-41.015625,-89.84375,0.0
785.1484375,-25.390625,-28.3203125,-30.76171875,-33.69140625,-49.31640625,0.0
785.15234375,-21.484375,-25.390625,-29.78515625,-30.76171875,36.1328125,0.0
785.15625,-41.50390625,-31.73828125,-31.25,-47.36328125,21.97265625,0.0
785.16015625,-53.7109375,-36.1328125,-39.0625,-54.19921875,-8.7890625,0.0
785.1640625,-43.9453125,-33.69140625,-33.69140625,-38.0859375,4.8828125,0.0
785.16796875,-25.87890625,-23.4375,-24.90234375,-24.4140625,-20.99609375,0.0
785.171875,-19.04296875,-21.97265625,-24.4140625,-28.3203125,-5.859375,0.0
785.17578125,-28.80859375,-28.3203125,-31.25,-29.78515625,21.484375,0.0
785.1796875,-45.8984375,-31.25,-37.59765625,-33.69140625,63.96484375,0.0
785.18359375,-39.0625,-31.25,-22.94921875,-35.64453125,-3.41796875,0.0
785.1875,-21.97265625,-29.296875,-13.671875,-33.203125,-73.2421875,0.0
785.19140625,-16.11328125,-27.83203125,-21.97265625,-30.76171875,6.8359375,0.0
785.1953125,-25.390625,-28.80859375,-27.34375,-32.71484375,11.71875,0.0
785.19921875,-40.52734375,-30.76171875,-28.80859375,-38.0859375,1.46484375,0.0
785.203125,-41.015625,-35.15625,-28.80859375,-35.64453125,-2.9296875,0.0
785.20703125,-30.2734375,-30.76171875,-29.296875,-28.3203125,-85.44921875,0.0
785.2109375,-19.04296875,-24.4140625,-28.80859375,-20.99609375,-31.25,0.0
785.21484375,-23.4375,-29.78515625,-25.87890625,-24.4140625,20.5078125,0.0
785.21875,-42.48046875,-34.1796875,-27.83203125,-37.109375,-46.875,0.0
785.22265625,-42.96875,-36.1328125,-34.1796875,-37.109375,-30.76171875,0.0
785.2265625,-26.85546875,-32.2265625,-29.78515625,-32.2265625,3.41796875,0.0
785.23046875,-15.13671875,-31.25,-23.4375,-29.78515625,-6.34765625,0.0
785.234375,-11.71875,-28.3203125,-30.2734375,-27.83203125,-70.3125,0.0
785.23828125,-32.2265625,-28.3203125,-33.69140625,-34.66796875,-91.30859375,0.0
785.2421875,-45.41015625,-33.69140625,-34.66796875,-41.50390625,-49.8046875,0.0
785.24609375,-24.4140625,-28.80859375,-30.76171875,-29.78515625,-49.8046875,0.0
785.25,-1.953125,-17.08984375,-24.4140625,-23.4375,-20.5078125,0.0
785.25390625,-7.32421875,-17.578125,-30.2734375,-27.34375,26.3671875,0.0
785.2578125,-27.34375,-27.34375,-36.1328125,-28.80859375,-14.16015625,0.0
785.26171875,-35.64453125,-28.80859375,-33.203125,-32.71484375,-106.4453125,0.0
785.265625,-24.90234375,-24.90234375,-32.2265625,-34.66796875,-89.84375,0.0
785.26953125,-15.13671875,-23.92578125,-37.109375,-30.76171875,-24.4140625,0.0
785.2734375,-18.06640625,-22.4609375,-29.78515625,-25.87890625,-39.0625,0.0
785.27734375,-35.64453125,-26.3671875,-32.71484375,-29.78515625,-111.81640625,0.0
785.28125,-46.875,-34.1796875,-42.96875,-36.1328125,-144.53125,0.0
785.28515625,-33.69140625,-30.2734375,-36.62109375,-31.73828125,-108.3984375,0.0
785.2890625,-25.87890625,-28.3203125,-32.71484375,-29.78515625,-114.2578125,0.0
785.29296875,-30.76171875,-29.296875,-33.69140625,-34.66796875,-56.640625,0.0
785.296875,-41.015625,-32.2265625,-32.71484375,-36.1328125,-13.18359375,0.0
785.30078125,-52.24609375,-35.64453125,-29.78515625,-33.203125,-33.203125,0.0
785.3046875,-47.36328125,-33.203125,-38.57421875,-33.203125,-34.1796875,0.0
785.30859375,-27.34375,-30.76171875,-38.0859375,-29.78515625,-5.37109375,0.0
785.3125,-17.08984375,-28.80859375,-28.80859375,-28.3203125,-61.03515625,0.0
785.31640625,-28.3203125,-29.78515625,-31.25,-37.59765625,-148.92578125,0.0
785.3203125,-43.9453125,-37.109375,-43.9453125,-43.9453125,-122.0703125,0.0
785.32421875,-45.41015625,-36.62109375,-46.38671875,-44.43359375,-81.54296875,0.0
785.328125,-29.78515625,-30.2734375,-29.78515625,-38.57421875,-61.5234375,0.0
785.33203125,-25.87890625,-34.1796875,-35.64453125,-43.45703125,-42.48046875,0.0
785.3359375,-39.0625,-42.48046875,-48.828125,-51.7578125,22.94921875,0.0
785.33984375,-48.33984375,-43.45703125,-38.57421875,-47.36328125,90.8203125,0.0
785.34375,-51.7578125,-40.52734375,-29.78515625,-43.45703125,68.84765625,0.0
785.34765625,-41.015625,-37.109375,-31.73828125,-39.0625,-4.8828125,0.0
785.3515625,-25.390625,-34.66796875,-34.66796875,-40.52734375,-28.3203125,0.0
785.35546875,-33.69140625,-37.109375,-31.25,-45.41015625,-20.5078125,0.0
785.359375,-45.8984375,-39.55078125,-33.203125,-42.48046875,-49.31640625,0.0
785.36328125,-46.38671875,-39.0625,-36.1328125,-40.52734375,-7.32421875,0.0
785.3671875,-31.25,-32.71484375,-28.80859375,-35.64453125,-56.15234375,0.0
785.37109375,-17.08984375,-28.3203125,-28.3203125,-24.90234375,-75.1953125,0.0
785.375,-25.390625,-31.25,-22.94921875,-17.578125,70.3125,0.0
785.37890625,-45.41015625,-38.0859375,-30.76171875,-27.83203125,62.5,0.0
785.3828125,-54.19921875,-42.48046875,-44.921875,-40.0390625,-32.71484375,0.0
785.38671875,-42.96875,-31.73828125,-30.76171875,-41.015625,-67.87109375,0.0
785.390625,-36.62109375,-24.4140625,-30.2734375,-40.0390625,-27.83203125,0.0
785.39453125,-45.41015625,-36.62109375,-46.875,-39.55078125,3.41796875,0.0
785.3984375,-62.01171875,-45.41015625,-50.29296875,-49.31640625,-84.47265625,0.0
785.40234375,-74.70703125,-41.50390625,-39.0625,-57.12890625,-150.390625,0.0
785.40625,-61.5234375,-38.57421875,-32.2265625,-54.19921875,-108.3984375,0.0
785.41015625,-39.55078125,-33.203125,-27.83203125,-43.9453125,-28.3203125,0.0
785.4140625,-38.0859375,-30.76171875,-25.390625,-39.55078125,-34.1796875,0.0
785.41796875,-62.5,-36.1328125,-31.73828125,-55.6640625,-119.62890625,0.0
785.421875,-83.0078125,-41.015625,-37.109375,-72.265625,-130.37109375,0.0
785.42578125,-71.77734375,-39.55078125,-36.1328125,-74.70703125,-68.84765625,0.0
785.4296875,-46.38671875,-31.25,-32.2265625,-56.640625,44.921875,0.0
785.43359375,-36.1328125,-33.203125,-31.73828125,-43.45703125,83.0078125,0.0
785.4375,-56.640625,-41.9921875,-34.1796875,-53.7109375,-20.99609375,0.0
785.44140625,-76.66015625,-43.9453125,-34.1796875,-57.6171875,-7.32421875,0.0
785.4453125,-73.2421875,-36.62109375,-36.1328125,-52.24609375,32.2265625,0.0
785.44921875,-58.10546875,-29.78515625,-38.0859375,-48.828125,-36.62109375,0.0
785.453125,-51.7578125,-29.296875,-41.9921875,-47.36328125,-76.171875,0.0
785.45703125,-64.94140625,-36.1328125,-40.52734375,-53.22265625,-63.4765625,0.0
785.4609375,-78.125,-41.50390625,-34.66796875,-57.6171875,-115.72265625,0.0
785.46484375,-69.3359375,-41.015625,-35.64453125,-49.31640625,-87.890625,0.0
785.46875,-50.78125,-38.0859375,-34.66796875,-40.0390625,18.5546875,0.0
785.47265625,-42.96875,-38.57421875,-30.76171875,-41.9921875,16.11328125,0.0
785.4765625,-51.7578125,-39.0625,-30.76171875,-50.78125,-30.76171875,0.0
785.48046875,-71.77734375,-42.96875,-42.48046875,-58.10546875,-84.9609375,0.0
785.484375,-67.3828125,-45.8984375,-34.66796875,-56.640625,-80.078125,0.0
785.48828125,-36.62109375,-40.52734375,-16.11328125,-37.59765625,-26.3671875,0.0
785.4921875,-31.73828125,-36.62109375,-26.85546875,-34.1796875,30.2734375,0.0
785.49609375,-54.6875,-38.57421875,-36.62109375,-48.828125,-5.37109375,0.0
785.5,-71.2890625,-41.50390625,-36.1328125,-52.734375,16.11328125,0.0
785.50390625,-74.21875,-41.50390625,-40.52734375,-61.5234375,62.01171875,0.0
785.5078125,-61.5234375,-34.1796875,-44.43359375,-61.5234375,18.5546875,0.0
785.51171875,-54.19921875,-37.59765625,-38.57421875,-52.24609375,9.765625,0.0
785.515625,-62.98828125,-49.31640625,-29.296875,-46.38671875,-19.04296875,0.0
785.51953125,-78.61328125,-53.22265625,-34.66796875,-51.26953125,1.46484375,0.0
785.5234375,-74.70703125,-47.36328125,-39.55078125,-57.12890625,23.4375,0.0
785.52734375,-59.5703125,-42.96875,-35.64453125,-48.828125,48.33984375,0.0
785.53125,-46.875,-36.62109375,-32.71484375,-34.66796875,64.453125,0.0
785.53515625,-50.29296875,-34.66796875,-29.296875,-30.76171875,21.484375,0.0
785.5390625,-74.70703125,-41.50390625,-32.71484375,-47.36328125,46.875,0.0
785.54296875,-84.9609375,-40.0390625,-35.64453125,-62.98828125,46.38671875,0.0
785.546875,-60.546875,-32.2265625,-39.55078125,-60.05859375,22.4609375,0.0
785.55078125,-40.0390625,-26.3671875,-41.50390625,-46.38671875,52.734375,0.0
785.5546875,-41.50390625,-24.4140625,-35.64453125,-39.55078125,68.359375,0.0
785.55859375,-55.17578125,-36.62109375,-33.203125,-49.31640625,95.703125,0.0
785.5625,-61.03515625,-44.921875,-34.1796875,-54.19921875,-2.9296875,0.0
785.56640625,-46.875,-37.59765625,-37.109375,-50.78125,-78.61328125,0.0
785.5703125,-26.85546875,-27.83203125,-36.1328125,-38.57421875,-103.02734375,0.0
785.57421875,-33.69140625,-30.2734375,-33.69140625,-37.109375,-105.95703125,0.0
785.578125,-57.12890625,-40.52734375,-37.59765625,-51.7578125,-59.5703125,0.0
785.58203125,-60.546875,-47.8515625,-43.45703125,-53.7109375,-31.25,0.0
785.5859375,-52.734375,-45.41015625,-36.1328125,-42.96875,-28.80859375,0.0
785.58984375,-39.55078125,-40.52734375,-29.296875,-36.1328125,-10.7421875,0.0
785.59375,-34.66796875,-32.71484375,-28.80859375,-33.69140625,-20.5078125,0.0
785.59765625,-55.17578125,-34.1796875,-34.66796875,-41.9921875,-82.51953125,0.0
785.6015625,-70.80078125,-44.43359375,-40.0390625,-51.26953125,-15.13671875,0.0
785.60546875,-59.08203125,-43.45703125,-35.15625,-46.38671875,-147.4609375,0.0
785.609375,-42.96875,-41.015625,-27.83203125,-39.55078125,-289.0625,0.0
785.61328125,-44.43359375,-43.9453125,-29.78515625,-41.9921875,-162.59765625,0.0
785.6171875,-62.01171875,-46.38671875,-38.0859375,-48.828125,-85.44921875,0.0
785.62109375,-69.3359375,-47.8515625,-36.62109375,-54.19921875,-125.9765625,0.0
785.625,-53.22265625,-42.48046875,-31.25,-45.8984375,-144.04296875,0.0
785.62890625,-37.59765625,-35.15625,-24.90234375,-35.64453125,-98.14453125,0.0
785.6328125,-31.25,-35.15625,-24.90234375,-37.59765625,-88.8671875,0.0
785.63671875,-41.50390625,-37.59765625,-37.109375,-47.8515625,-108.3984375,0.0
785.640625,-57.6171875,-41.9921875,-38.0859375,-60.546875,-152.83203125,0.0
785.64453125,-61.5234375,-40.52734375,-28.3203125,-55.6640625,-169.43359375,0.0
785.6484375,-43.9453125,-29.78515625,-15.625,-45.8984375,-163.0859375,0.0
785.65234375,-34.1796875,-27.34375,-21.484375,-44.43359375,-123.046875,0.0
785.65625,-57.12890625,-35.15625,-30.2734375,-48.33984375,-63.4765625,0.0
785.66015625,-69.82421875,-41.9921875,-32.71484375,-55.6640625,25.390625,0.0
785.6640625,-59.08203125,-42.48046875,-23.4375,-54.6875,44.43359375,0.0
785.66796875,-48.33984375,-35.15625,-9.765625,-46.38671875,79.58984375,0.0
785.671875,-41.9921875,-36.1328125,-26.3671875,-50.29296875,97.65625,0.0
785.67578125,-48.33984375,-41.015625,-36.1328125,-51.26953125,49.8046875,0.0
785.6796875,-66.40625,-44.921875,-32.2265625,-52.734375,-16.6015625,0.0
785.68359375,-70.3125,-48.33984375,-34.1796875,-63.4765625,-14.6484375,0.0
785.6875,-48.33984375,-39.0625,-35.15625,-48.33984375,44.43359375,0.0
785.69140625,-31.73828125,-31.25,-30.2734375,-30.76171875,26.85546875,0.0
785.6953125,-38.57421875,-32.71484375,-27.34375,-35.64453125,30.2734375,0.0
785.69921875,-61.03515625,-43.9453125,-32.71484375,-49.31640625,11.71875,0.0
785.703125,-68.359375,-51.26953125,-36.62109375,-53.22265625,-31.73828125,0.0
785.70703125,-50.78125,-41.50390625,-33.69140625,-39.55078125,29.296875,0.0
785.7109375,-40.0390625,-32.71484375,-32.71484375,-29.78515625,81.54296875,0.0
785.71484375,-47.36328125,-43.45703125,-40.52734375,-41.50390625,44.921875,0.0
785.71875,-60.05859375,-47.8515625,-39.0625,-43.9453125,9.27734375,0.0
785.72265625,-63.4765625,-42.48046875,-34.1796875,-45.8984375,-12.6953125,0.0
785.7265625,-49.31640625,-39.0625,-31.73828125,-41.50390625,-38.57421875,0.0
785.73046875,-30.2734375,-33.69140625,-27.83203125,-28.3203125,-26.85546875,0.0
785.734375,-33.203125,-28.80859375,-31.25,-32.71484375,27.34375,0.0
785.73828125,-51.26953125,-35.15625,-33.203125,-39.0625,-12.20703125,0.0
785.7421875,-57.12890625,-42.48046875,-29.78515625,-35.64453125,-71.2890625,0.0
785.74609375,-41.015625,-36.1328125,-28.3203125,-34.66796875,9.765625,0.0
785.75,-32.2265625,-31.25,-31.73828125,-28.3203125,56.15234375,0.0
785.75390625,-35.64453125,-32.2265625,-20.99609375,-21.484375,-1.46484375,0.0
785.7578125,-52.24609375,-41.9921875,-18.06640625,-38.0859375,-69.3359375,0.0
785.76171875,-64.453125,-43.9453125,-30.76171875,-49.31640625,-87.40234375,0.0
785.765625,-41.015625,-32.71484375,-28.3203125,-26.85546875,-43.9453125,0.0
785.76953125,-18.5546875,-31.73828125,-14.16015625,-13.18359375,-21.484375,0.0
785.7734375,-23.4375,-34.1796875,-14.16015625,-21.97265625,-54.6875,0.0
785.77734375,-45.8984375,-40.0390625,-37.59765625,-37.109375,-45.41015625,0.0
785.78125,-63.96484375,-41.50390625,-49.31640625,-49.31640625,-14.16015625,0.0
785.78515625,-58.10546875,-34.66796875,-45.41015625,-47.36328125,-37.59765625,0.0
785.7890625,-41.9921875,-30.2734375,-33.203125,-36.62109375,-36.1328125,0.0
785.79296875,-32.71484375,-27.83203125,-31.73828125,-23.92578125,15.625,0.0
785.796875,-41.9921875,-33.203125,-34.66796875,-22.94921875,17.578125,0.0
785.80078125,-58.10546875,-42.48046875,-20.99609375,-34.1796875,6.34765625,0.0
785.8046875,-45.8984375,-43.9453125,-22.94921875,-31.25,62.5,0.0
785.80859375,-25.390625,-36.62109375,-31.73828125,-24.4140625,169.43359375,0.0
785.8125,-17.578125,-28.80859375,-29.78515625,-27.34375,96.6796875,0.0
785.81640625,-30.76171875,-26.3671875,-35.64453125,-42.48046875,53.7109375,0.0
785.8203125,-44.43359375,-30.2734375,-37.59765625,-47.8515625,115.234375,0.0
785.82421875,-38.0859375,-34.66796875,-37.59765625,-40.52734375,55.6640625,0.0
785.828125,-20.99609375,-27.83203125,-38.57421875,-30.2734375,-56.640625,0.0
785.83203125,-16.11328125,-27.83203125,-33.203125,-24.4140625,-48.828125,0.0
785.8359375,-30.76171875,-32.71484375,-28.80859375,-29.78515625,-0.9765625,0.0
785.83984375,-43.45703125,-34.66796875,-29.78515625,-36.1328125,-20.99609375,0.0
785.84375,-42.96875,-38.57421875,-36.1328125,-33.69140625,-43.9453125,0.0
785.84765625,-27.83203125,-35.64453125,-30.2734375,-21.484375,-39.55078125,0.0
785.8515625,-20.01953125,-35.15625,-27.34375,-24.4140625,14.16015625,0.0
785.85546875,-24.90234375,-36.1328125,-31.73828125,-33.69140625,-15.13671875,0.0
785.859375,-38.57421875,-35.15625,-29.296875,-29.296875,-48.828125,0.0
785.86328125,-57.12890625,-40.0390625,-32.71484375,-40.0390625,-43.9453125,0.0
785.8671875,-53.22265625,-36.1328125,-35.64453125,-50.29296875,16.6015625,0.0
785.87109375,-39.0625,-28.80859375,-39.55078125,-50.78125,41.015625,0.0
785.875,-40.52734375,-27.34375,-39.0625,-45.41015625,45.41015625,0.0
785.87890625,-52.24609375,-31.73828125,-34.1796875,-39.55078125,-26.3671875,0.0
785.8828125,-45.41015625,-32.71484375,-27.34375,-28.80859375,-77.63671875,0.0
785.88671875,-27.34375,-28.3203125,-22.94921875,-13.671875,-32.71484375,0.0
785.890625,-20.5078125,-26.3671875,-26.85546875,-21.484375,9.765625,0.0
785.89453125,-22.4609375,-26.3671875,-32.71484375,-31.25,52.24609375,0.0
785.8984375,-31.73828125,-35.64453125,-32.2265625,-28.3203125,-4.8828125,0.0
785.90234375,-37.109375,-41.9921875,-30.2734375,-24.90234375,-28.80859375,0.0
785.90625,-31.25,-39.55078125,-29.296875,-21.484375,-48.828125,0.0
785.91015625,-17.08984375,-26.3671875,-25.390625,-20.99609375,-55.17578125,0.0
785.9140625,-17.08984375,-23.92578125,-26.85546875,-23.92578125,10.7421875,0.0
785.91796875,-22.94921875,-30.2734375,-28.3203125,-18.5546875,23.92578125,0.0
785.921875,-23.92578125,-31.73828125,-20.01953125,-15.625,-6.8359375,0.0
785.92578125,-22.94921875,-25.390625,-21.97265625,-19.04296875,-81.54296875,0.0
785.9296875,-13.671875,-13.18359375,-27.83203125,-22.4609375,-58.59375,0.0
785.93359375,-16.11328125,-12.6953125,-28.3203125,-28.80859375,106.93359375,0.0
785.9375,-33.69140625,-23.4375,-25.87890625,-35.64453125,80.078125,0.0
785.94140625,-35.15625,-27.34375,-34.1796875,-38.57421875,-12.6953125,0.0
785.9453125,-26.3671875,-25.390625,-41.015625,-37.109375,-6.34765625,0.0
785.94921875,-16.11328125,-21.484375,-32.71484375,-27.83203125,-63.4765625,0.0
785.953125,-13.18359375,-19.04296875,-22.4609375,-21.484375,-82.03125,0.0
785.95703125,-25.87890625,-27.34375,-21.97265625,-19.04296875,-34.66796875,0.0
785.9609375,-35.64453125,-39.0625,-23.4375,-14.16015625,37.109375,0.0
785.96484375,-36.62109375,-35.64453125,-23.92578125,-21.97265625,32.71484375,0.0
785.96875,-29.296875,-26.85546875,-27.83203125,-28.3203125,-13.18359375,0.0
785.97265625,-21.484375,-27.34375,-28.3203125,-22.4609375,-25.87890625,0.0
785.9765625,-33.203125,-27.34375,-30.2734375,-30.2734375,-34.66796875,0.0
785.98046875,-45.8984375,-28.3203125,-39.0625,-46.38671875,-31.25,0.0
785.984375,-44.43359375,-27.83203125,-43.45703125,-42.48046875,-7.8125,0.0
785.98828125,-30.76171875,-29.78515625,-44.43359375,-43.45703125,-49.8046875,0.0
785.9921875,-17.08984375,-29.78515625,-44.43359375,-44.921875,-54.6875,0.0
785.99609375,-21.97265625,-23.92578125,-43.45703125,-44.43359375,-73.73046875,0.0
786.0,-34.1796875,-28.3203125,-44.43359375,-55.17578125,-82.03125,0.0
786.00390625,-39.55078125,-31.25,-41.9921875,-57.12890625,-29.296875,0.0
786.0078125,-32.71484375,-30.2734375,-40.52734375,-53.7109375,28.80859375,0.0
786.01171875,-20.01953125,-29.296875,-34.66796875,-41.50390625,15.625,0.0
786.015625,-28.80859375,-31.25,-30.76171875,-31.25,-23.4375,0.0
786.01953125,-45.41015625,-36.1328125,-36.1328125,-37.59765625,-63.96484375,0.0
786.0234375,-41.9921875,-29.296875,-35.15625,-38.0859375,-65.4296875,0.0
786.02734375,-27.83203125,-24.90234375,-31.73828125,-28.80859375,-25.390625,0.0
786.03125,-10.7421875,-26.3671875,-28.3203125,-16.11328125,15.13671875,0.0
786.03515625,-18.5546875,-29.296875,-30.76171875,-20.5078125,33.203125,0.0
786.0390625,-40.0390625,-34.66796875,-36.1328125,-41.50390625,-12.6953125,0.0
786.04296875,-39.55078125,-27.83203125,-39.0625,-44.43359375,-40.52734375,0.0
786.046875,-27.83203125,-23.4375,-46.38671875,-40.0390625,-2.9296875,0.0
786.05078125,-16.6015625,-27.83203125,-42.48046875,-36.62109375,22.94921875,0.0
786.0546875,-21.97265625,-29.78515625,-33.69140625,-39.0625,-92.7734375,0.0
786.05859375,-41.015625,-39.0625,-35.64453125,-48.33984375,-164.0625,0.0
786.0625,-48.828125,-43.45703125,-39.0625,-50.78125,-55.17578125,0.0
786.06640625,-31.25,-33.69140625,-36.62109375,-42.48046875,-48.33984375,0.0
786.0703125,-7.8125,-23.4375,-32.71484375,-34.66796875,-17.08984375,0.0
786.07421875,-9.27734375,-25.87890625,-33.69140625,-29.296875,-7.8125,0.0
786.078125,-29.78515625,-35.64453125,-33.69140625,-33.203125,-60.05859375,0.0
786.08203125,-45.8984375,-41.015625,-33.69140625,-52.24609375,-50.29296875,0.0
786.0859375,-33.203125,-35.64453125,-33.203125,-47.8515625,-33.69140625,0.0
786.08984375,-13.18359375,-25.390625,-32.2265625,-34.1796875,22.4609375,0.0
786.09375,-20.5078125,-23.92578125,-34.66796875,-41.50390625,-15.625,0.0
786.09765625,-39.55078125,-29.78515625,-30.2734375,-48.828125,-132.32421875,0.0
786.1015625,-45.41015625,-35.64453125,-27.34375,-46.875,-227.05078125,0.0
786.10546875,-37.109375,-38.0859375,-26.85546875,-40.0390625,-203.61328125,0.0
786.109375,-25.390625,-34.1796875,-24.4140625,-35.64453125,-137.6953125,0.0
786.11328125,-20.01953125,-26.85546875,-27.34375,-34.1796875,-16.6015625,0.0
786.1171875,-31.73828125,-23.92578125,-32.71484375,-35.64453125,91.30859375,0.0
786.12109375,-38.0859375,-27.34375,-31.73828125,-26.3671875,-1.953125,0.0
786.125,-28.80859375,-30.2734375,-25.390625,-19.04296875,-12.20703125,0.0
786.12890625,-24.90234375,-23.92578125,-25.87890625,-31.73828125,79.58984375,0.0
786.1328125,-23.92578125,-22.94921875,-29.296875,-29.78515625,52.24609375,0.0
786.13671875,-32.2265625,-28.80859375,-35.15625,-31.73828125,0.0,0.0
786.140625,-42.48046875,-32.2265625,-40.52734375,-39.55078125,-56.15234375,0.0
786.14453125,-38.0859375,-26.3671875,-24.4140625,-33.69140625,-122.0703125,0.0
786.1484375,-20.99609375,-21.97265625,-17.08984375,-22.4609375,-141.11328125,0.0
786.15234375,-17.578125,-23.92578125,-26.3671875,-19.04296875,-77.1484375,0.0
786.15625,-34.66796875,-29.296875,-26.85546875,-31.73828125,-94.23828125,0.0
786.16015625,-47.8515625,-34.1796875,-29.78515625,-41.50390625,-179.6875,0.0
786.1640625,-55.17578125,-36.62109375,-33.69140625,-44.921875,-132.8125,0.0
786.16796875,-35.15625,-33.203125,-26.85546875,-36.62109375,-111.81640625,0.0
786.171875,-12.6953125,-30.2734375,-24.4140625,-22.4609375,-129.8828125,0.0
786.17578125,-22.94921875,-37.59765625,-26.85546875,-25.87890625,-51.7578125,0.0
786.1796875,-43.9453125,-40.0390625,-31.73828125,-38.0859375,50.78125,0.0
786.18359375,-49.31640625,-34.1796875,-39.0625,-46.875,128.41796875,0.0
786.1875,-34.1796875,-31.73828125,-34.66796875,-45.8984375,100.5859375,0.0
786.19140625,-22.4609375,-29.78515625,-27.34375,-35.64453125,-21.484375,0.0
786.1953125,-38.0859375,-26.3671875,-35.15625,-37.59765625,-33.69140625,0.0
786.19921875,-58.59375,-34.1796875,-34.66796875,-46.38671875,-23.92578125,0.0
786.203125,-58.10546875,-41.50390625,-22.94921875,-41.50390625,-22.94921875,0.0
786.20703125,-39.0625,-33.69140625,-16.6015625,-26.85546875,-24.90234375,0.0
786.2109375,-31.25,-28.3203125,-19.04296875,-29.296875,-26.85546875,0.0
786.21484375,-41.50390625,-30.2734375,-26.85546875,-34.66796875,-107.421875,0.0
786.21875,-60.05859375,-39.0625,-34.1796875,-38.57421875,-169.43359375,0.0
786.22265625,-61.5234375,-42.96875,-24.90234375,-41.50390625,-191.89453125,0.0
786.2265625,-49.31640625,-33.203125,-22.94921875,-35.15625,-193.359375,0.0
786.23046875,-47.36328125,-22.4609375,-30.2734375,-40.0390625,-122.0703125,0.0
786.234375,-45.41015625,-21.484375,-28.80859375,-44.921875,-118.1640625,0.0
786.23828125,-56.15234375,-32.71484375,-29.78515625,-42.96875,-137.6953125,0.0
786.2421875,-73.73046875,-39.55078125,-37.59765625,-50.29296875,-121.58203125,0.0
786.24609375,-55.17578125,-36.62109375,-32.2265625,-43.45703125,-93.75,0.0
786.25,-26.3671875,-26.3671875,-24.4140625,-25.87890625,-55.6640625,0.0
786.25390625,-19.53125,-29.78515625,-28.3203125,-27.83203125,-93.26171875,0.0
786.2578125,-27.83203125,-33.203125,-36.1328125,-35.15625,-83.984375,0.0
786.26171875,-39.0625,-29.78515625,-43.9453125,-34.66796875,25.390625,0.0
786.265625,-36.1328125,-30.2734375,-16.6015625,-27.83203125,72.75390625,0.0
786.26953125,-9.27734375,-30.2734375,-2.44140625,-10.7421875,111.81640625,0.0
786.2734375,-2.9296875,-34.66796875,-24.90234375,-10.7421875,182.12890625,0.0
786.27734375,-24.4140625,-31.25,-28.80859375,-28.80859375,206.0546875,0.0
786.28125,-41.015625,-30.76171875,-31.73828125,-41.015625,131.34765625,0.0
786.28515625,-37.59765625,-29.78515625,-35.64453125,-39.55078125,60.05859375,0.0
786.2890625,-17.08984375,-21.484375,-34.66796875,-30.76171875,38.57421875,0.0
786.29296875,-16.11328125,-23.92578125,-33.203125,-29.296875,39.55078125,0.0
786.296875,-34.66796875,-26.3671875,-32.71484375,-32.71484375,20.5078125,0.0
786.30078125,-47.36328125,-26.3671875,-32.2265625,-32.2265625,-33.69140625,0.0
786.3046875,-34.66796875,-21.97265625,-30.2734375,-27.34375,42.48046875,0.0
786.30859375,-20.5078125,-22.94921875,-21.97265625,-28.3203125,184.08203125,0.0
786.3125,-27.83203125,-29.78515625,-12.6953125,-32.2265625,188.4765625,0.0
786.31640625,-41.50390625,-37.109375,-25.87890625,-36.1328125,44.921875,0.0
786.3203125,-60.05859375,-41.9921875,-40.0390625,-45.8984375,-49.31640625,0.0
786.32421875,-60.546875,-39.0625,-30.76171875,-48.828125,-62.5,0.0
786.328125,-39.0625,-31.25,-23.92578125,-37.109375,-22.4609375,0.0
786.33203125,-30.76171875,-29.296875,-34.1796875,-30.76171875,-9.765625,0.0
786.3359375,-36.1328125,-36.62109375,-41.015625,-42.48046875,-103.02734375,0.0
786.33984375,-41.9921875,-39.55078125,-43.45703125,-46.38671875,-89.35546875,0.0
786.34375,-32.71484375,-35.15625,-41.015625,-36.1328125,-29.78515625,0.0
786.34765625,-15.625,-35.15625,-39.0625,-27.34375,-109.375,0.0
786.3515625,-11.23046875,-34.66796875,-37.59765625,-29.296875,-107.91015625,0.0
786.35546875,-18.5546875,-37.59765625,-19.04296875,-33.69140625,-33.203125,0.0
786.359375,-28.3203125,-44.43359375,-20.99609375,-41.015625,-79.58984375,0.0
786.36328125,-30.2734375,-46.38671875,-40.0390625,-38.0859375,-44.43359375,0.0
786.3671875,-17.08984375,-43.9453125,-30.2734375,-25.87890625,-11.71875,0.0
786.37109375,-8.7890625,-35.64453125,-29.296875,-29.78515625,-18.5546875,0.0
786.375,-29.78515625,-35.15625,-39.0625,-43.45703125,-4.8828125,0.0
786.37890625,-54.6875,-43.9453125,-48.33984375,-55.17578125,-0.9765625,0.0
786.3828125,-57.6171875,-47.36328125,-42.48046875,-52.734375,-27.83203125,0.0
786.38671875,-43.45703125,-38.57421875,-31.25,-47.36328125,-53.7109375,0.0
786.390625,-21.97265625,-28.80859375,-41.50390625,-40.0390625,4.8828125,0.0
786.39453125,-25.390625,-31.25,-44.43359375,-37.109375,8.7890625,0.0
786.3984375,-55.17578125,-44.43359375,-31.25,-43.9453125,-44.921875,0.0
786.40234375,-65.91796875,-50.78125,-27.34375,-42.96875,-43.45703125,0.0
786.40625,-47.8515625,-46.38671875,-30.76171875,-28.80859375,-43.9453125,0.0
786.41015625,-27.34375,-38.57421875,-30.76171875,-20.01953125,10.25390625,0.0
786.4140625,-26.3671875,-40.0390625,-17.08984375,-14.16015625,-15.625,0.0
786.41796875,-38.57421875,-45.41015625,-15.625,-16.6015625,-30.2734375,0.0
786.421875,-48.828125,-47.36328125,-30.76171875,-22.4609375,40.0390625,0.0
786.42578125,-42.48046875,-39.55078125,-30.2734375,-22.4609375,38.57421875,0.0
786.4296875,-30.76171875,-33.69140625,-14.6484375,-25.390625,21.484375,0.0
786.43359375,-29.296875,-37.109375,-14.16015625,-28.80859375,61.5234375,0.0
786.4375,-35.64453125,-38.0859375,-35.15625,-35.15625,82.51953125,0.0
786.44140625,-35.15625,-36.62109375,-31.73828125,-32.71484375,-52.24609375,0.0
786.4453125,-24.4140625,-32.71484375,-25.87890625,-25.390625,-98.6328125,0.0
786.44921875,-6.34765625,-28.80859375,-26.85546875,-20.01953125,-65.91796875,0.0
786.453125,8.7890625,-25.87890625,-26.3671875,-16.11328125,-71.77734375,0.0
786.45703125,-4.8828125,-28.3203125,-29.78515625,-27.83203125,-20.99609375,0.0
786.4609375,-27.83203125,-30.2734375,-17.578125,-39.0625,-41.50390625,0.0
786.46484375,-18.5546875,-23.4375,-18.06640625,-30.2734375,-60.546875,0.0
786.46875,1.46484375,-17.578125,-26.3671875,-18.06640625,-61.03515625,0.0
786.47265625,0.0,-19.53125,-23.92578125,-16.11328125,-41.9921875,0.0
786.4765625,-14.16015625,-26.85546875,-31.25,-20.99609375,-14.16015625,0.0
786.48046875,-30.76171875,-35.64453125,-43.45703125,-38.57421875,-97.16796875,0.0
786.484375,-32.2265625,-35.64453125,-49.31640625,-43.9453125,-160.64453125,0.0
786.48828125,-21.484375,-34.66796875,-30.76171875,-31.73828125,-68.359375,0.0
786.4921875,-13.671875,-34.1796875,-20.01953125,-23.4375,9.765625,0.0
786.49609375,-26.3671875,-38.57421875,-33.203125,-29.296875,18.06640625,0.0
786.5,-47.8515625,-44.43359375,-37.59765625,-42.96875,-39.55078125,0.0
786.50390625,-46.875,-35.64453125,-20.5078125,-39.55078125,-122.0703125,0.0
786.5078125,-30.76171875,-31.25,-9.765625,-33.203125,-23.4375,0.0
786.51171875,-23.92578125,-32.2265625,-32.71484375,-31.73828125,25.390625,0.0
786.515625,-43.45703125,-40.0390625,-47.36328125,-43.45703125,-36.1328125,0.0
786.51953125,-65.91796875,-46.38671875,-32.2265625,-54.6875,-23.4375,0.0
786.5234375,-55.6640625,-37.109375,-30.2734375,-49.8046875,25.87890625,0.0
786.52734375,-35.15625,-32.2265625,-49.31640625,-39.55078125,66.89453125,0.0
786.53125,-28.80859375,-30.2734375,-43.9453125,-27.34375,89.84375,0.0
786.53515625,-30.76171875,-29.78515625,-46.875,-33.203125,78.61328125,0.0
786.5390625,-37.109375,-34.66796875,-50.29296875,-42.96875,20.01953125,0.0
786.54296875,-36.62109375,-35.64453125,-47.8515625,-40.0390625,-4.8828125,0.0
786.546875,-24.4140625,-35.15625,-44.43359375,-28.3203125,-11.71875,0.0
786.55078125,-4.39453125,-29.296875,-19.53125,-13.18359375,22.94921875,0.0
786.5546875,-1.46484375,-29.296875,-17.578125,-16.11328125,61.5234375,0.0
786.55859375,-18.06640625,-35.64453125,-38.0859375,-23.92578125,23.4375,0.0
786.5625,-27.34375,-40.0390625,-32.2265625,-21.97265625,-103.02734375,0.0
786.56640625,-20.01953125,-38.0859375,-32.71484375,-20.5078125,-45.41015625,0.0
786.5703125,-17.578125,-33.203125,-38.0859375,-29.296875,19.04296875,0.0
786.57421875,-25.87890625,-32.71484375,-34.66796875,-31.73828125,-38.57421875,0.0
786.578125,-40.52734375,-37.59765625,-34.66796875,-39.55078125,12.6953125,0.0
786.58203125,-55.6640625,-42.48046875,-42.48046875,-52.24609375,30.76171875,0.0
786.5859375,-53.22265625,-40.52734375,-44.921875,-53.22265625,-104.00390625,0.0
786.58984375,-32.71484375,-36.1328125,-41.50390625,-40.52734375,-25.390625,0.0
786.59375,-32.71484375,-32.2265625,-20.99609375,-35.15625,110.83984375,0.0
786.59765625,-50.78125,-31.73828125,-2.9296875,-38.57421875,59.08203125,0.0
786.6015625,-52.734375,-41.015625,-23.4375,-35.15625,-4.39453125,0.0
786.60546875,-39.55078125,-40.0390625,-30.2734375,-26.3671875,-39.0625,0.0
786.609375,-25.390625,-25.87890625,-19.04296875,-15.13671875,-64.453125,0.0
786.61328125,-29.78515625,-27.83203125,-28.3203125,-17.578125,-23.92578125,0.0
786.6171875,-41.9921875,-38.0859375,-38.0859375,-26.85546875,13.671875,0.0
786.62109375,-39.55078125,-43.45703125,-38.57421875,-22.94921875,5.37109375,0.0
786.625,-22.94921875,-37.59765625,-37.59765625,-14.16015625,-6.8359375,0.0
786.62890625,-6.8359375,-33.203125,-35.64453125,-9.765625,41.50390625,0.0
786.6328125,-2.44140625,-32.71484375,-35.64453125,-10.7421875,41.015625,0.0
786.63671875,-10.25390625,-37.109375,-30.2734375,-21.484375,-19.53125,0.0
786.640625,-18.06640625,-45.41015625,-26.3671875,-20.01953125,-82.03125,0.0
786.64453125,-4.39453125,-38.57421875,-27.83203125,-0.48828125,-137.20703125,0.0
786.6484375,4.39453125,-28.3203125,-29.78515625,-5.859375,-73.73046875,0.0
786.65234375,-3.41796875,-24.90234375,-33.69140625,-23.92578125,-69.82421875,0.0
786.65625,-14.16015625,-29.78515625,-38.57421875,-28.80859375,6.34765625,0.0
786.66015625,-30.76171875,-38.57421875,-40.52734375,-35.64453125,97.16796875,0.0
786.6640625,-37.59765625,-42.96875,-35.15625,-29.296875,15.13671875,0.0
786.66796875,-31.25,-38.57421875,-26.85546875,-21.97265625,-32.2265625,0.0
786.671875,-24.90234375,-32.71484375,-27.34375,-28.80859375,44.921875,0.0
786.67578125,-28.80859375,-37.109375,-32.71484375,-23.4375,9.27734375,0.0
786.6796875,-48.828125,-38.0859375,-36.1328125,-26.85546875,-71.2890625,0.0
786.68359375,-57.12890625,-37.109375,-33.203125,-36.62109375,-97.16796875,0.0
786.6875,-36.62109375,-32.2265625,-23.92578125,-28.80859375,-156.25,0.0
786.69140625,-16.6015625,-26.85546875,-21.97265625,-15.625,-90.8203125,0.0
786.6953125,-31.25,-35.64453125,-31.25,-24.4140625,-62.01171875,0.0
786.69921875,-58.10546875,-44.921875,-39.55078125,-42.48046875,-78.61328125,0.0
786.703125,-57.6171875,-46.875,-38.57421875,-45.8984375,-66.40625,0.0
786.70703125,-31.73828125,-41.50390625,-30.76171875,-30.2734375,-104.4921875,0.0
786.7109375,-9.765625,-33.203125,-25.87890625,-23.92578125,-118.1640625,0.0
786.71484375,-18.06640625,-38.57421875,-25.87890625,-34.1796875,-71.77734375,0.0
786.71875,-42.96875,-44.43359375,-32.71484375,-39.0625,-5.37109375,0.0
786.72265625,-43.9453125,-40.0390625,-32.2265625,-41.50390625,27.34375,0.0
786.7265625,-22.94921875,-35.15625,-27.34375,-34.66796875,52.24609375,0.0
786.73046875,-2.9296875,-30.2734375,-23.92578125,-21.97265625,46.875,0.0
786.734375,-0.48828125,-33.203125,-22.94921875,-20.5078125,79.1015625,0.0
786.73828125,-12.20703125,-44.43359375,-25.87890625,-24.90234375,14.6484375,0.0
786.7421875,-24.90234375,-43.9453125,-26.85546875,-26.3671875,-135.7421875,0.0
786.74609375,-25.87890625,-36.1328125,-26.3671875,-24.4140625,-126.953125,0.0
786.75,-10.7421875,-28.3203125,-28.80859375,-17.08984375,-77.63671875,0.0
786.75390625,-13.671875,-28.3203125,-29.296875,-17.08984375,-13.671875,0.0
786.7578125,-32.71484375,-37.59765625,-30.2734375,-30.76171875,-77.1484375,0.0
786.76171875,-45.8984375,-39.55078125,-31.73828125,-37.59765625,-219.7265625,0.0
786.765625,-37.59765625,-32.71484375,-29.78515625,-30.2734375,-232.91015625,0.0
786.76953125,-16.6015625,-24.4140625,-28.3203125,-20.99609375,-145.99609375,0.0
786.7734375,-8.7890625,-18.5546875,-24.90234375,-17.08984375,16.11328125,0.0
786.77734375,-30.2734375,-28.80859375,-22.4609375,-21.484375,57.6171875,0.0
786.78125,-54.6875,-40.52734375,-26.3671875,-33.69140625,10.7421875,0.0
786.78515625,-49.8046875,-40.52734375,-27.83203125,-33.69140625,47.8515625,0.0
786.7890625,-32.71484375,-39.55078125,-21.484375,-22.4609375,93.75,0.0
786.79296875,-26.3671875,-37.109375,-22.94921875,-15.625,-19.04296875,0.0
786.796875,-39.0625,-41.015625,-28.80859375,-20.99609375,-198.73046875,0.0
786.80078125,-49.8046875,-49.31640625,-26.3671875,-27.34375,-169.43359375,0.0
786.8046875,-41.50390625,-42.96875,-18.06640625,-20.5078125,-114.74609375,0.0
786.80859375,-20.5078125,-33.203125,-14.6484375,-10.7421875,-52.734375,0.0
786.8125,-7.32421875,-27.34375,-18.06640625,-13.18359375,55.17578125,0.0
786.81640625,-18.06640625,-32.71484375,-21.97265625,-19.53125,88.37890625,0.0
786.8203125,-26.85546875,-37.59765625,-20.5078125,-16.6015625,1.46484375,0.0
786.82421875,-25.87890625,-32.71484375,-24.90234375,-18.5546875,-88.8671875,0.0
786.828125,-12.20703125,-29.296875,-26.3671875,-18.5546875,-82.51953125,0.0
786.83203125,-1.953125,-24.90234375,-20.01953125,-16.6015625,13.671875,0.0
786.8359375,-14.6484375,-29.78515625,-8.30078125,-22.4609375,77.63671875,0.0
786.83984375,-36.62109375,-40.52734375,-17.578125,-31.25,20.99609375,0.0
786.84375,-44.921875,-44.43359375,-36.1328125,-41.50390625,-23.4375,0.0
786.84765625,-31.73828125,-39.55078125,-36.62109375,-36.1328125,-49.31640625,0.0
786.8515625,-20.99609375,-32.71484375,-37.109375,-28.80859375,-30.76171875,0.0
786.85546875,-28.3203125,-35.15625,-31.73828125,-29.296875,41.50390625,0.0
786.859375,-49.31640625,-42.96875,-32.71484375,-36.62109375,36.1328125,0.0
786.86328125,-55.17578125,-41.9921875,-38.57421875,-38.0859375,14.16015625,0.0
786.8671875,-40.52734375,-34.1796875,-34.66796875,-30.76171875,40.0390625,0.0
786.87109375,-33.203125,-33.203125,-35.15625,-30.76171875,63.4765625,0.0
786.875,-35.64453125,-34.1796875,-34.66796875,-34.1796875,53.7109375,0.0
786.87890625,-42.96875,-34.66796875,-40.52734375,-40.52734375,13.671875,0.0
786.8828125,-46.38671875,-41.9921875,-42.48046875,-39.55078125,-17.08984375,0.0
786.88671875,-33.203125,-37.59765625,-32.2265625,-31.25,-20.01953125,0.0
786.890625,-15.13671875,-24.90234375,-30.2734375,-24.90234375,7.32421875,0.0
786.89453125,-21.484375,-26.85546875,-35.64453125,-28.3203125,-1.46484375,0.0
786.8984375,-40.52734375,-35.15625,-38.0859375,-36.62109375,-21.484375,0.0
786.90234375,-40.0390625,-36.62109375,-37.59765625,-41.9921875,25.390625,0.0
786.90625,-24.90234375,-31.25,-40.52734375,-36.1328125,-53.7109375,0.0
786.91015625,-7.32421875,-19.53125,-35.64453125,-20.99609375,-78.61328125,0.0
786.9140625,-11.71875,-15.625,-37.109375,-28.80859375,-10.25390625,0.0
786.91796875,-37.59765625,-26.3671875,-41.9921875,-50.29296875,58.59375,0.0
786.921875,-43.45703125,-29.78515625,-41.015625,-51.7578125,94.23828125,0.0
786.92578125,-35.64453125,-21.484375,-45.8984375,-43.9453125,-1.46484375,0.0
786.9296875,-23.92578125,-13.671875,-47.36328125,-34.1796875,-33.203125,0.0
786.93359375,-15.625,-11.71875,-35.64453125,-20.01953125,46.38671875,0.0
786.9375,-28.80859375,-19.53125,-30.76171875,-22.94921875,74.70703125,0.0
786.94140625,-46.875,-27.83203125,-31.25,-40.0390625,20.01953125,0.0
786.9453125,-44.921875,-25.87890625,-31.25,-45.8984375,23.92578125,0.0
786.94921875,-29.78515625,-18.5546875,-30.76171875,-34.66796875,37.109375,0.0
786.953125,-23.4375,-17.08984375,-27.34375,-29.78515625,4.8828125,0.0
786.95703125,-35.64453125,-22.94921875,-31.73828125,-38.57421875,-3.90625,0.0
786.9609375,-59.5703125,-26.85546875,-36.1328125,-49.8046875,2.9296875,0.0
786.96484375,-60.05859375,-26.85546875,-33.203125,-48.33984375,-55.17578125,0.0
786.96875,-34.1796875,-21.484375,-21.97265625,-30.2734375,-94.7265625,0.0
786.97265625,-26.85546875,-20.01953125,-16.6015625,-27.34375,-120.60546875,0.0
786.9765625,-41.015625,-27.83203125,-24.90234375,-43.45703125,-107.421875,0.0
786.98046875,-50.29296875,-32.2265625,-30.76171875,-50.29296875,-53.7109375,0.0
786.984375,-50.29296875,-28.3203125,-26.85546875,-47.36328125,-46.875,0.0
786.98828125,-30.2734375,-22.4609375,-22.94921875,-38.0859375,-85.44921875,0.0
786.9921875,-16.6015625,-20.5078125,-32.71484375,-37.59765625,5.859375,0.0
786.99609375,-23.4375,-20.01953125,-39.55078125,-41.50390625,66.40625,0.0
787.0,-28.80859375,-23.92578125,-36.1328125,-37.109375,36.62109375,0.0
787.00390625,-30.2734375,-28.3203125,-32.71484375,-39.0625,32.71484375,0.0
787.0078125,-18.06640625,-23.92578125,-31.25,-29.78515625,-39.55078125,0.0
787.01171875,-0.48828125,-18.06640625,-29.78515625,-18.5546875,-61.5234375,0.0
787.015625,-11.71875,-25.87890625,-31.73828125,-28.3203125,-81.0546875,0.0
787.01953125,-34.1796875,-37.109375,-34.66796875,-38.0859375,-140.625,0.0
787.0234375,-36.62109375,-35.64453125,-36.1328125,-38.0859375,-145.01953125,0.0
787.02734375,-28.80859375,-32.2265625,-38.0859375,-30.76171875,-70.3125,0.0
787.03125,-22.4609375,-31.73828125,-32.2265625,-28.3203125,-30.2734375,0.0
787.03515625,-29.296875,-30.2734375,-24.4140625,-28.80859375,13.671875,0.0
787.0390625,-51.26953125,-30.76171875,-28.3203125,-34.66796875,48.828125,0.0
787.04296875,-60.05859375,-33.69140625,-34.66796875,-38.57421875,-24.90234375,0.0
787.046875,-50.29296875,-35.64453125,-34.66796875,-36.1328125,-99.12109375,0.0
787.05078125,-33.69140625,-33.203125,-35.15625,-33.69140625,-108.88671875,0.0
787.0546875,-33.203125,-31.73828125,-33.69140625,-41.50390625,-55.6640625,0.0
787.05859375,-53.22265625,-39.55078125,-45.41015625,-50.29296875,-0.9765625,0.0
787.0625,-61.5234375,-41.50390625,-53.22265625,-48.33984375,-20.01953125,0.0
787.06640625,-52.24609375,-35.15625,-35.64453125,-45.41015625,-3.90625,0.0
787.0703125,-36.62109375,-31.73828125,-30.76171875,-41.015625,25.87890625,0.0
787.07421875,-31.25,-29.78515625,-33.69140625,-38.57421875,29.296875,0.0
787.078125,-43.9453125,-33.69140625,-36.62109375,-43.9453125,8.30078125,0.0
787.08203125,-57.6171875,-42.96875,-38.0859375,-48.33984375,15.625,0.0
787.0859375,-44.43359375,-38.0859375,-37.59765625,-46.38671875,48.828125,0.0
787.08984375,-24.4140625,-28.80859375,-39.55078125,-40.52734375,-31.73828125,0.0
787.09375,-16.11328125,-27.83203125,-29.78515625,-29.78515625,-73.2421875,0.0
787.09765625,-21.97265625,-34.66796875,-22.94921875,-28.3203125,-54.6875,0.0
787.1015625,-32.71484375,-37.59765625,-26.3671875,-33.69140625,-21.484375,0.0
787.10546875,-28.3203125,-39.0625,-31.25,-36.62109375,-66.89453125,0.0
787.109375,-9.27734375,-34.66796875,-31.25,-25.390625,-94.7265625,0.0
787.11328125,0.9765625,-23.4375,-22.94921875,-10.7421875,15.625,0.0
787.1171875,-14.6484375,-32.2265625,-20.5078125,-19.53125,34.66796875,0.0
787.12109375,-42.48046875,-42.48046875,-25.390625,-37.109375,58.59375,0.0
787.125,-52.734375,-39.0625,-32.71484375,-47.36328125,105.95703125,0.0
787.12890625,-42.96875,-34.66796875,-27.83203125,-46.875,124.0234375,0.0
787.1328125,-41.50390625,-33.203125,-24.4140625,-37.59765625,102.05078125,0.0
787.13671875,-52.734375,-34.66796875,-29.296875,-37.109375,69.3359375,0.0
787.140625,-63.4765625,-40.52734375,-32.71484375,-47.8515625,6.34765625,0.0
787.14453125,-62.01171875,-40.52734375,-34.66796875,-47.36328125,-14.6484375,0.0
787.1484375,-46.38671875,-31.73828125,-35.64453125,-37.109375,48.828125,0.0
787.15234375,-39.0625,-30.76171875,-31.25,-32.2265625,47.8515625,0.0
787.15625,-46.38671875,-35.64453125,-28.3203125,-34.66796875,43.9453125,0.0
787.16015625,-58.10546875,-43.9453125,-32.71484375,-36.62109375,21.484375,0.0
787.1640625,-48.33984375,-47.36328125,-36.1328125,-28.80859375,-25.390625,0.0
787.16796875,-24.4140625,-38.0859375,-29.78515625,-17.08984375,-10.7421875,0.0
787.171875,-7.8125,-29.78515625,-19.04296875,-12.6953125,9.765625,0.0
787.17578125,-13.18359375,-32.2265625,-23.4375,-19.53125,-99.609375,0.0
787.1796875,-35.64453125,-39.55078125,-36.62109375,-37.59765625,-215.33203125,0.0
787.18359375,-41.015625,-38.0859375,-38.0859375,-42.96875,-259.27734375,0.0
787.1875,-20.5078125,-30.2734375,-31.25,-37.59765625,-253.90625,0.0
787.19140625,-3.90625,-20.01953125,-28.80859375,-29.78515625,-162.109375,0.0
787.1953125,-11.71875,-20.01953125,-29.78515625,-27.34375,-124.51171875,0.0
787.19921875,-33.203125,-27.83203125,-35.15625,-42.96875,-125.48828125,0.0
787.203125,-41.50390625,-35.64453125,-36.1328125,-39.55078125,-145.01953125,0.0
787.20703125,-23.92578125,-34.66796875,-34.1796875,-28.80859375,-211.42578125,0.0
787.2109375,-6.8359375,-29.78515625,-35.15625,-25.390625,-253.90625,0.0
787.21484375,-21.484375,-36.62109375,-32.71484375,-24.90234375,-236.328125,0.0
787.21875,-50.29296875,-44.921875,-31.73828125,-37.109375,-116.69921875,0.0
787.22265625,-64.453125,-46.38671875,-30.76171875,-44.921875,-78.125,0.0
787.2265625,-49.31640625,-39.0625,-20.99609375,-30.76171875,-110.83984375,0.0
787.23046875,-26.3671875,-31.73828125,-13.18359375,-9.27734375,-50.29296875,0.0
787.234375,-33.69140625,-30.76171875,-19.04296875,-18.06640625,-27.83203125,0.0
787.23828125,-55.6640625,-35.64453125,-29.296875,-34.66796875,-72.265625,0.0
787.2421875,-66.40625,-36.62109375,-34.1796875,-37.109375,-138.671875,0.0
787.24609375,-50.29296875,-34.66796875,-35.15625,-33.69140625,-138.18359375,0.0
787.25,-25.390625,-33.203125,-32.2265625,-29.78515625,12.6953125,0.0
787.25390625,-25.390625,-33.203125,-39.55078125,-32.71484375,102.5390625,0.0
787.2578125,-45.41015625,-38.57421875,-48.828125,-42.96875,115.72265625,0.0
787.26171875,-51.7578125,-41.015625,-38.0859375,-45.8984375,109.375,0.0
787.265625,-37.109375,-34.66796875,-29.78515625,-37.109375,53.7109375,0.0
787.26953125,-23.4375,-31.73828125,-35.64453125,-30.2734375,121.58203125,0.0
787.2734375,-21.484375,-32.71484375,-40.0390625,-36.62109375,213.8671875,0.0
787.27734375,-25.390625,-35.64453125,-37.109375,-45.41015625,127.9296875,0.0
787.28125,-27.34375,-37.109375,-37.59765625,-37.109375,23.92578125,0.0
787.28515625,-15.13671875,-31.73828125,-34.66796875,-28.80859375,-5.859375,0.0
787.2890625,0.9765625,-24.90234375,-25.87890625,-17.578125,85.9375,0.0
787.29296875,6.34765625,-22.94921875,-25.390625,-12.6953125,112.79296875,0.0
787.296875,-14.6484375,-32.2265625,-26.85546875,-25.390625,56.640625,0.0
787.30078125,-38.57421875,-38.57421875,-36.62109375,-29.78515625,22.4609375,0.0
787.3046875,-36.1328125,-38.0859375,-32.71484375,-24.4140625,33.203125,0.0
787.30859375,-20.99609375,-33.203125,-20.99609375,-20.5078125,9.27734375,0.0
787.3125,-11.23046875,-24.4140625,-23.4375,-17.08984375,-22.4609375,0.0
787.31640625,-25.87890625,-30.76171875,-25.390625,-23.92578125,20.99609375,0.0
787.3203125,-49.31640625,-37.59765625,-27.34375,-35.15625,57.12890625,0.0
787.32421875,-54.6875,-40.0390625,-28.3203125,-36.62109375,74.21875,0.0
787.328125,-35.64453125,-35.64453125,-27.34375,-28.80859375,22.94921875,0.0
787.33203125,-20.99609375,-29.78515625,-28.80859375,-27.34375,43.9453125,0.0
787.3359375,-28.80859375,-34.66796875,-27.34375,-35.64453125,39.55078125,0.0
787.33984375,-47.8515625,-37.109375,-25.87890625,-47.36328125,-21.97265625,0.0
787.34375,-50.29296875,-41.015625,-35.15625,-48.828125,-12.20703125,0.0
787.34765625,-31.25,-37.59765625,-33.69140625,-42.96875,-27.83203125,0.0
787.3515625,-17.578125,-27.34375,-20.99609375,-30.76171875,29.78515625,0.0
787.35546875,-26.3671875,-26.3671875,-25.390625,-32.71484375,34.1796875,0.0
787.359375,-40.0390625,-29.296875,-41.015625,-41.015625,-90.8203125,0.0
787.36328125,-45.8984375,-31.73828125,-43.9453125,-41.50390625,-136.71875,0.0
787.3671875,-33.69140625,-23.4375,-30.2734375,-38.57421875,-63.96484375,0.0
787.37109375,-14.6484375,-20.01953125,-25.87890625,-27.34375,-9.765625,0.0
787.375,-15.625,-28.80859375,-26.85546875,-24.90234375,-39.0625,0.0
787.37890625,-28.3203125,-31.25,-29.296875,-33.69140625,-68.359375,0.0
787.3828125,-31.25,-25.390625,-28.3203125,-36.1328125,-144.04296875,0.0
787.38671875,-24.4140625,-26.3671875,-27.83203125,-29.78515625,-121.09375,0.0
787.390625,-13.18359375,-21.484375,-27.34375,-25.87890625,-23.4375,0.0
787.39453125,-14.16015625,-21.484375,-31.25,-32.2265625,-43.9453125,0.0
787.3984375,-29.296875,-28.80859375,-36.1328125,-43.45703125,-56.15234375,0.0
787.40234375,-40.52734375,-30.2734375,-35.64453125,-50.78125,-7.8125,0.0
787.40625,-30.76171875,-24.90234375,-37.109375,-42.96875,2.9296875,0.0
787.41015625,-12.20703125,-21.484375,-35.64453125,-32.2265625,-50.29296875,0.0
787.4140625,-10.25390625,-21.97265625,-33.69140625,-33.203125,8.7890625,0.0
787.41796875,-29.296875,-30.2734375,-30.76171875,-37.109375,62.01171875,0.0
787.421875,-41.9921875,-38.0859375,-31.73828125,-41.9921875,-7.32421875,0.0
787.42578125,-36.1328125,-32.71484375,-32.2265625,-37.109375,19.53125,0.0
787.4296875,-18.06640625,-20.01953125,-28.3203125,-26.85546875,23.4375,0.0
787.43359375,-14.6484375,-20.01953125,-38.0859375,-30.2734375,18.5546875,0.0
787.4375,-27.83203125,-28.3203125,-48.33984375,-35.64453125,63.4765625,0.0
787.44140625,-36.1328125,-30.76171875,-38.0859375,-39.55078125,86.42578125,0.0
787.4453125,-33.203125,-33.69140625,-31.25,-40.0390625,-9.765625,0.0
787.44921875,-17.08984375,-29.296875,-31.73828125,-32.2265625,-60.546875,0.0
787.453125,-15.13671875,-23.92578125,-29.296875,-27.34375,22.4609375,0.0
787.45703125,-35.15625,-33.69140625,-30.76171875,-41.015625,53.22265625,0.0
787.4609375,-48.828125,-38.57421875,-33.69140625,-44.921875,13.671875,0.0
787.46484375,-42.48046875,-33.203125,-31.25,-34.1796875,-85.9375,0.0
787.46875,-30.76171875,-31.25,-29.78515625,-32.2265625,-66.40625,0.0
787.47265625,-24.4140625,-30.2734375,-35.15625,-33.69140625,10.25390625,0.0
787.4765625,-24.90234375,-25.390625,-35.15625,-29.78515625,42.96875,0.0
787.48046875,-44.921875,-34.66796875,-40.52734375,-29.296875,60.546875,0.0
787.484375,-53.7109375,-44.921875,-41.015625,-35.64453125,54.19921875,0.0
787.48828125,-49.31640625,-41.50390625,-39.55078125,-43.45703125,63.96484375,0.0
787.4921875,-45.8984375,-38.57421875,-43.45703125,-42.96875,12.6953125,0.0
787.49609375,-43.45703125,-40.0390625,-41.015625,-32.2265625,-69.3359375,0.0
787.5,-49.31640625,-41.9921875,-36.1328125,-28.3203125,-49.8046875,0.0
787.50390625,-51.26953125,-44.43359375,-33.69140625,-30.76171875,-57.12890625,0.0
787.5078125,-38.0859375,-37.109375,-33.69140625,-27.34375,-74.70703125,0.0
787.51171875,-23.92578125,-29.296875,-32.71484375,-30.2734375,15.625,0.0
787.515625,-28.3203125,-32.2265625,-35.15625,-38.0859375,-13.671875,0.0
787.51953125,-41.9921875,-36.62109375,-36.62109375,-43.9453125,-104.4921875,0.0
787.5234375,-46.38671875,-32.71484375,-42.96875,-50.78125,-110.83984375,0.0
787.52734375,-31.73828125,-25.87890625,-43.9453125,-39.55078125,-35.64453125,0.0
787.53125,-10.7421875,-26.3671875,-31.25,-24.90234375,-10.7421875,0.0
787.53515625,-8.7890625,-26.85546875,-26.85546875,-18.5546875,-62.01171875,0.0
787.5390625,-30.2734375,-36.1328125,-30.76171875,-20.99609375,-73.2421875,0.0
787.54296875,-40.52734375,-37.109375,-29.78515625,-30.76171875,-103.02734375,0.0
787.546875,-29.296875,-29.78515625,-33.69140625,-33.69140625,-93.75,0.0
787.55078125,-16.6015625,-29.78515625,-37.109375,-31.25,-10.7421875,0.0
787.5546875,-13.18359375,-33.203125,-33.203125,-27.83203125,-65.91796875,0.0
787.55859375,-33.203125,-39.0625,-33.69140625,-35.64453125,-54.6875,0.0
787.5625,-46.875,-40.52734375,-36.1328125,-44.921875,2.44140625,0.0
787.56640625,-34.1796875,-36.62109375,-36.62109375,-42.48046875,-117.67578125,0.0
787.5703125,-14.6484375,-29.296875,-34.1796875,-32.2265625,-89.84375,0.0
787.57421875,-14.16015625,-29.296875,-30.2734375,-20.99609375,-17.578125,0.0
787.578125,-36.1328125,-37.109375,-30.76171875,-30.2734375,68.84765625,0.0
787.58203125,-47.36328125,-38.57421875,-35.15625,-38.0859375,136.71875,0.0
787.5859375,-34.66796875,-40.0390625,-31.73828125,-26.85546875,20.01953125,0.0
787.58984375,-25.390625,-40.52734375,-28.80859375,-22.4609375,9.27734375,0.0
787.59375,-28.3203125,-33.69140625,-31.73828125,-26.85546875,83.49609375,0.0
787.59765625,-39.55078125,-36.62109375,-36.1328125,-35.15625,11.71875,0.0
787.6015625,-51.26953125,-45.41015625,-34.1796875,-33.203125,-133.30078125,0.0
787.60546875,-43.9453125,-40.52734375,-32.71484375,-35.64453125,-129.8828125,0.0
787.609375,-30.2734375,-28.80859375,-34.66796875,-41.015625,21.484375,0.0
787.61328125,-15.13671875,-27.83203125,-36.62109375,-28.80859375,20.99609375,0.0
787.6171875,-16.6015625,-28.3203125,-34.66796875,-27.83203125,1.46484375,0.0
787.62109375,-38.0859375,-33.69140625,-34.1796875,-42.96875,20.99609375,0.0
787.625,-40.52734375,-35.64453125,-40.52734375,-52.734375,-71.2890625,0.0
787.62890625,-27.83203125,-27.34375,-31.25,-44.43359375,-81.0546875,0.0
787.6328125,-23.92578125,-24.4140625,-24.4140625,-42.96875,-11.23046875,0.0
787.63671875,-35.15625,-28.3203125,-38.0859375,-48.828125,32.2265625,0.0
787.640625,-44.921875,-34.1796875,-42.96875,-51.7578125,75.68359375,0.0
787.64453125,-32.71484375,-36.1328125,-32.71484375,-50.78125,83.984375,0.0
787.6484375,-13.18359375,-31.25,-23.92578125,-33.203125,114.2578125,0.0
787.65234375,-9.27734375,-25.390625,-27.83203125,-34.66796875,107.421875,0.0
787.65625,-33.69140625,-27.34375,-32.71484375,-56.15234375,42.96875,0.0
787.66015625,-52.24609375,-31.73828125,-27.34375,-55.6640625,-54.6875,0.0
787.6640625,-40.0390625,-29.296875,-27.83203125,-41.015625,-137.6953125,0.0
787.66796875,-23.4375,-27.83203125,-33.203125,-37.59765625,-143.06640625,0.0
787.671875,-24.4140625,-24.90234375,-29.78515625,-41.015625,-79.1015625,0.0
787.67578125,-38.0859375,-23.4375,-17.08984375,-45.8984375,-21.484375,0.0
787.6796875,-54.6875,-28.80859375,-24.4140625,-48.828125,63.4765625,0.0
787.68359375,-62.01171875,-33.69140625,-38.57421875,-48.33984375,32.71484375,0.0
787.6875,-41.015625,-28.3203125,-32.2265625,-39.55078125,-23.4375,0.0
787.69140625,-18.5546875,-22.4609375,-25.87890625,-31.25,17.578125,0.0
787.6953125,-25.390625,-26.3671875,-31.73828125,-35.64453125,0.9765625,0.0
787.69921875,-42.96875,-35.64453125,-42.48046875,-46.875,-39.55078125,0.0
787.703125,-42.48046875,-36.62109375,-41.015625,-42.96875,-92.28515625,0.0
787.70703125,-31.25,-26.85546875,-38.0859375,-26.85546875,-86.9140625,0.0
787.7109375,-18.06640625,-24.90234375,-34.66796875,-20.5078125,-7.32421875,0.0
787.71484375,-13.18359375,-29.78515625,-34.66796875,-17.578125,-23.92578125,0.0
787.71875,-37.109375,-34.1796875,-25.390625,-26.85546875,-167.96875,0.0
787.72265625,-54.19921875,-35.15625,-9.765625,-35.64453125,-255.37109375,0.0
787.7265625,-41.9921875,-31.25,-26.3671875,-30.2734375,-161.1328125,0.0
787.73046875,-27.83203125,-25.87890625,-39.55078125,-27.83203125,-19.53125,0.0
787.734375,-33.203125,-25.390625,-24.90234375,-33.69140625,-6.8359375,0.0
787.73828125,-46.38671875,-34.1796875,-36.1328125,-47.8515625,-20.01953125,0.0
787.7421875,-48.33984375,-39.55078125,-57.12890625,-57.12890625,-51.7578125,0.0
787.74609375,-38.57421875,-34.66796875,-45.8984375,-53.7109375,-69.3359375,0.0
787.75,-17.08984375,-29.296875,-34.1796875,-44.43359375,-57.12890625,0.0
787.75390625,-2.9296875,-23.4375,-36.1328125,-35.15625,-26.3671875,0.0
787.7578125,-11.23046875,-23.92578125,-36.1328125,-32.71484375,4.39453125,0.0
787.76171875,-39.0625,-35.15625,-41.015625,-44.921875,41.50390625,0.0
787.765625,-39.55078125,-32.71484375,-17.578125,-41.015625,5.37109375,0.0
787.76953125,-16.11328125,-27.34375,-6.8359375,-25.87890625,-10.25390625,0.0
787.7734375,-15.13671875,-31.73828125,-25.87890625,-24.4140625,21.484375,0.0
787.77734375,-34.1796875,-35.64453125,-28.80859375,-28.3203125,-20.99609375,0.0
787.78125,-42.48046875,-37.59765625,-33.203125,-27.34375,-76.66015625,0.0
787.78515625,-34.1796875,-34.66796875,-32.71484375,-24.4140625,-57.6171875,0.0
787.7890625,-20.01953125,-27.34375,-29.296875,-21.97265625,19.04296875,0.0
787.79296875,-18.06640625,-22.4609375,-25.390625,-25.87890625,99.12109375,0.0
787.796875,-39.0625,-25.87890625,-33.203125,-39.0625,137.6953125,0.0
787.80078125,-56.640625,-37.59765625,-39.55078125,-46.38671875,143.06640625,0.0
787.8046875,-47.8515625,-37.109375,-31.73828125,-35.64453125,76.66015625,0.0
787.80859375,-24.4140625,-24.4140625,-25.390625,-19.04296875,-10.7421875,0.0
787.8125,-13.671875,-21.484375,-25.390625,-18.06640625,18.5546875,0.0
787.81640625,-28.3203125,-27.34375,-31.73828125,-33.69140625,85.9375,0.0
787.8203125,-42.96875,-34.66796875,-36.62109375,-37.109375,15.13671875,0.0
787.82421875,-41.9921875,-32.2265625,-33.69140625,-28.80859375,-44.43359375,0.0
787.828125,-29.78515625,-27.34375,-31.25,-26.85546875,-25.87890625,0.0
787.83203125,-9.765625,-23.4375,-31.25,-20.01953125,-88.8671875,0.0
787.8359375,-3.90625,-20.99609375,-30.76171875,-17.578125,-128.90625,0.0
787.83984375,-16.6015625,-21.484375,-24.90234375,-21.97265625,-89.35546875,0.0
787.84375,-21.97265625,-21.484375,-21.97265625,-20.01953125,-127.44140625,0.0
787.84765625,-9.765625,-22.4609375,-25.390625,-12.6953125,-168.9453125,0.0
787.8515625,-1.46484375,-18.06640625,-22.4609375,-11.71875,-37.109375,0.0
787.85546875,-19.53125,-22.4609375,-25.87890625,-17.578125,1.46484375,0.0
787.859375,-41.50390625,-30.2734375,-28.80859375,-26.3671875,-80.56640625,0.0
787.86328125,-42.96875,-29.78515625,-31.25,-27.83203125,-131.34765625,0.0
787.8671875,-27.83203125,-25.390625,-32.2265625,-20.5078125,-105.46875,0.0
787.87109375,-15.13671875,-21.97265625,-29.296875,-16.6015625,-67.3828125,0.0
787.875,-31.25,-21.484375,-32.71484375,-27.34375,-77.63671875,0.0
787.87890625,-52.24609375,-30.2734375,-39.55078125,-37.59765625,-58.10546875,0.0
787.8828125,-53.22265625,-30.76171875,-36.1328125,-33.203125,-84.9609375,0.0
787.88671875,-42.96875,-27.34375,-28.3203125,-28.80859375,-145.99609375,0.0
787.890625,-24.4140625,-23.4375,-26.3671875,-22.4609375,-117.67578125,0.0
787.89453125,-18.5546875,-25.87890625,-31.73828125,-27.34375,-2.44140625,0.0
787.8984375,-35.15625,-32.71484375,-31.73828125,-35.15625,43.9453125,0.0
787.90234375,-47.36328125,-35.15625,-32.71484375,-34.66796875,-1.46484375,0.0
787.90625,-32.71484375,-32.71484375,-33.69140625,-33.203125,-35.64453125,0.0
787.91015625,-11.23046875,-26.3671875,-36.1328125,-24.90234375,46.875,0.0
787.9140625,-9.27734375,-25.390625,-28.80859375,-27.34375,145.5078125,0.0
787.91796875,-20.5078125,-26.3671875,-28.80859375,-36.62109375,130.37109375,0.0
787.921875,-33.69140625,-30.76171875,-40.0390625,-35.15625,76.66015625,0.0
787.92578125,-28.80859375,-30.2734375,-38.57421875,-27.83203125,56.15234375,0.0
787.9296875,-10.25390625,-19.04296875,-39.55078125,-24.90234375,55.6640625,0.0
787.93359375,-10.7421875,-17.578125,-40.0390625,-28.80859375,122.0703125,0.0
787.9375,-20.99609375,-30.2734375,-41.015625,-36.1328125,207.03125,0.0
787.94140625,-24.90234375,-37.59765625,-44.921875,-39.55078125,220.21484375,0.0
787.9453125,-12.6953125,-27.83203125,-38.57421875,-25.390625,92.28515625,0.0
787.94921875,0.0,-22.4609375,-27.83203125,-18.06640625,-44.921875,0.0
787.953125,-5.37109375,-24.90234375,-28.3203125,-22.94921875,-22.94921875,0.0
787.95703125,-25.87890625,-28.80859375,-29.78515625,-27.83203125,-26.3671875,0.0
787.9609375,-53.7109375,-40.52734375,-35.15625,-39.0625,-43.9453125,0.0
787.96484375,-62.5,-45.8984375,-35.64453125,-41.9921875,-52.734375,0.0
787.96875,-44.921875,-38.57421875,-26.85546875,-33.69140625,-48.828125,0.0
787.97265625,-33.69140625,-32.71484375,-30.2734375,-31.25,15.625,0.0
787.9765625,-47.8515625,-37.59765625,-35.64453125,-41.015625,-4.39453125,0.0
787.98046875,-56.15234375,-38.0859375,-30.2734375,-41.015625,-34.1796875,0.0
787.984375,-46.38671875,-30.76171875,-26.3671875,-31.73828125,-0.9765625,0.0
787.98828125,-34.1796875,-24.4140625,-30.76171875,-33.203125,41.015625,0.0
787.9921875,-20.5078125,-24.90234375,-32.71484375,-31.73828125,55.17578125,0.0
787.99609375,-25.87890625,-29.78515625,-30.2734375,-30.2734375,20.01953125,0.0
788.0,-40.52734375,-34.66796875,-30.2734375,-39.0625,-44.921875,0.0
788.00390625,-33.69140625,-34.66796875,-36.1328125,-34.66796875,-54.6875,0.0
788.0078125,-10.25390625,-24.90234375,-39.55078125,-20.99609375,34.66796875,0.0
788.01171875,-2.44140625,-22.4609375,-31.25,-21.97265625,59.08203125,0.0
788.015625,-22.4609375,-26.3671875,-30.2734375,-36.62109375,43.9453125,0.0
788.01953125,-36.62109375,-32.71484375,-41.50390625,-45.8984375,21.97265625,0.0
788.0234375,-33.69140625,-37.59765625,-40.0390625,-35.15625,-14.16015625,0.0
788.02734375,-16.11328125,-35.15625,-25.87890625,-22.4609375,-44.43359375,0.0
788.03125,-3.41796875,-31.73828125,-17.08984375,-17.578125,-18.5546875,0.0
788.03515625,-16.6015625,-37.59765625,-13.671875,-16.11328125,34.66796875,0.0
788.0390625,-44.921875,-42.96875,-23.92578125,-26.3671875,5.37109375,0.0
788.04296875,-64.94140625,-43.9453125,-33.69140625,-36.1328125,-9.765625,0.0
788.046875,-52.24609375,-44.43359375,-25.87890625,-31.73828125,-26.85546875,0.0
788.05078125,-30.2734375,-43.45703125,-26.85546875,-16.6015625,-231.93359375,0.0
788.0546875,-36.62109375,-40.52734375,-33.203125,-21.484375,-211.9140625,0.0
788.05859375,-53.22265625,-42.96875,-31.25,-33.69140625,33.203125,0.0
788.0625,-57.12890625,-46.38671875,-32.2265625,-32.71484375,6.34765625,0.0
788.06640625,-47.36328125,-44.921875,-26.3671875,-25.390625,-80.56640625,0.0
788.0703125,-33.203125,-37.59765625,-20.01953125,-15.625,-41.50390625,0.0
788.07421875,-35.15625,-34.66796875,-26.85546875,-22.94921875,40.0390625,0.0
788.078125,-51.26953125,-38.57421875,-33.69140625,-35.15625,62.98828125,0.0
788.08203125,-53.22265625,-39.0625,-36.1328125,-34.66796875,-49.31640625,0.0
788.0859375,-33.69140625,-29.78515625,-31.73828125,-30.76171875,-20.5078125,0.0
788.08984375,-10.25390625,-23.92578125,-31.25,-27.34375,157.71484375,0.0
788.09375,-19.04296875,-30.76171875,-37.109375,-32.2265625,164.55078125,0.0
788.09765625,-37.109375,-36.1328125,-37.59765625,-39.0625,63.4765625,0.0
788.1015625,-37.109375,-35.64453125,-41.9921875,-39.55078125,40.0390625,0.0
788.10546875,-34.66796875,-35.64453125,-49.31640625,-37.109375,-21.97265625,0.0
788.109375,-22.94921875,-33.203125,-44.921875,-30.2734375,-57.6171875,0.0
788.11328125,-12.6953125,-31.73828125,-35.15625,-16.6015625,-9.27734375,0.0
788.1171875,-32.71484375,-35.15625,-31.73828125,-21.97265625,-2.9296875,0.0
788.12109375,-56.15234375,-41.015625,-36.1328125,-42.96875,-51.7578125,0.0
788.125,-52.734375,-37.109375,-36.62109375,-44.921875,-41.50390625,0.0
788.12890625,-38.57421875,-33.203125,-30.2734375,-34.1796875,-6.8359375,0.0
788.1328125,-28.80859375,-28.80859375,-29.78515625,-25.390625,-71.77734375,0.0
788.13671875,-36.1328125,-29.296875,-32.71484375,-24.90234375,-112.3046875,0.0
788.140625,-59.08203125,-40.52734375,-39.0625,-40.52734375,-110.83984375,0.0
788.14453125,-61.03515625,-41.9921875,-39.55078125,-44.43359375,-108.88671875,0.0
788.1484375,-38.0859375,-32.2265625,-29.296875,-32.71484375,-16.11328125,0.0
788.15234375,-29.78515625,-27.83203125,-25.87890625,-33.69140625,34.66796875,0.0
788.15625,-45.8984375,-29.78515625,-27.83203125,-37.109375,6.34765625,0.0
788.16015625,-62.01171875,-35.15625,-30.2734375,-42.96875,17.578125,0.0
788.1640625,-62.01171875,-41.015625,-35.15625,-45.8984375,-2.9296875,0.0
788.16796875,-44.43359375,-42.96875,-35.15625,-30.2734375,-58.59375,0.0
788.171875,-29.78515625,-38.57421875,-28.80859375,-23.92578125,6.34765625,0.0
788.17578125,-26.85546875,-37.59765625,-23.4375,-18.5546875,106.93359375,0.0
788.1796875,-30.76171875,-43.9453125,-23.92578125,-14.16015625,40.52734375,0.0
788.18359375,-42.48046875,-48.828125,-32.2265625,-29.296875,-75.68359375,0.0
788.1875,-29.78515625,-44.921875,-31.25,-22.94921875,-108.88671875,0.0
788.19140625,-4.39453125,-38.57421875,-24.4140625,-12.20703125,-83.0078125,0.0
788.1953125,-6.34765625,-37.109375,-30.2734375,-24.90234375,-91.30859375,0.0
788.19921875,-32.2265625,-38.0859375,-34.66796875,-39.55078125,-71.77734375,0.0
788.203125,-39.55078125,-37.109375,-32.71484375,-39.0625,-29.78515625,0.0
788.20703125,-16.11328125,-31.25,-29.296875,-30.2734375,-0.9765625,0.0
788.2109375,-2.9296875,-30.2734375,-30.76171875,-28.80859375,1.953125,0.0
788.21484375,-19.53125,-34.66796875,-35.15625,-31.73828125,15.13671875,0.0
788.21875,-41.015625,-34.66796875,-36.1328125,-35.64453125,55.17578125,0.0
788.22265625,-46.38671875,-34.1796875,-31.73828125,-38.57421875,47.8515625,0.0
788.2265625,-34.1796875,-29.78515625,-31.25,-29.78515625,95.703125,0.0
788.23046875,-20.99609375,-24.90234375,-18.5546875,-24.90234375,100.5859375,0.0
788.234375,-26.3671875,-25.87890625,-17.08984375,-29.296875,-10.7421875,0.0
788.23828125,-39.0625,-28.3203125,-29.296875,-34.1796875,-95.21484375,0.0
788.2421875,-49.31640625,-33.203125,-26.85546875,-39.0625,-150.390625,0.0
788.24609375,-47.8515625,-31.73828125,-24.4140625,-39.55078125,-54.6875,0.0
788.25,-33.69140625,-27.34375,-28.80859375,-39.0625,-13.671875,0.0
788.25390625,-35.64453125,-29.78515625,-31.73828125,-37.109375,-23.92578125,0.0
788.2578125,-51.26953125,-34.66796875,-30.76171875,-39.55078125,-4.39453125,0.0
788.26171875,-57.6171875,-37.59765625,-34.66796875,-49.31640625,-84.47265625,0.0
788.265625,-47.36328125,-30.2734375,-33.69140625,-43.45703125,-108.3984375,0.0
788.26953125,-25.87890625,-24.90234375,-30.2734375,-31.25,2.44140625,0.0
788.2734375,-22.94921875,-26.3671875,-31.73828125,-38.0859375,45.41015625,0.0
788.27734375,-38.0859375,-29.296875,-39.55078125,-47.8515625,10.25390625,0.0
788.28125,-50.29296875,-33.69140625,-42.96875,-45.8984375,-14.6484375,0.0
788.28515625,-43.45703125,-32.71484375,-38.0859375,-38.0859375,-33.203125,0.0
788.2890625,-19.53125,-27.83203125,-29.296875,-28.3203125,-82.03125,0.0
788.29296875,-14.6484375,-25.390625,-28.3203125,-34.1796875,-86.42578125,0.0
788.296875,-25.87890625,-26.85546875,-28.80859375,-37.59765625,-23.92578125,0.0
788.30078125,-33.203125,-31.25,-30.2734375,-27.83203125,-14.16015625,0.0
788.3046875,-33.203125,-33.203125,-31.73828125,-25.87890625,-45.8984375,0.0
788.30859375,-18.5546875,-29.78515625,-24.4140625,-23.4375,-54.6875,0.0
788.3125,-14.16015625,-29.78515625,-23.92578125,-26.3671875,28.3203125,0.0
788.31640625,-26.85546875,-33.203125,-33.203125,-36.62109375,38.57421875,0.0
788.3203125,-48.33984375,-38.57421875,-37.109375,-45.41015625,-36.62109375,0.0
788.32421875,-53.22265625,-42.48046875,-36.1328125,-47.36328125,-29.296875,0.0
788.328125,-31.25,-34.1796875,-27.83203125,-31.73828125,41.015625,0.0
788.33203125,-18.5546875,-30.2734375,-21.97265625,-24.4140625,70.80078125,0.0
788.3359375,-39.55078125,-36.62109375,-30.2734375,-37.109375,10.7421875,0.0
788.33984375,-61.5234375,-40.0390625,-32.71484375,-46.38671875,-59.5703125,0.0
788.34375,-59.5703125,-43.45703125,-28.3203125,-43.9453125,-87.40234375,0.0
788.34765625,-50.78125,-39.0625,-29.296875,-38.57421875,-72.265625,0.0
788.3515625,-41.9921875,-35.15625,-27.83203125,-35.15625,-25.87890625,0.0
788.35546875,-41.015625,-36.62109375,-27.34375,-34.66796875,-46.38671875,0.0
788.359375,-49.31640625,-39.0625,-29.78515625,-39.55078125,-108.3984375,0.0
788.36328125,-54.6875,-39.55078125,-28.3203125,-40.0390625,-60.546875,0.0
788.3671875,-37.59765625,-36.62109375,-26.85546875,-30.76171875,-49.8046875,0.0
788.37109375,-15.625,-31.25,-22.94921875,-22.4609375,-77.63671875,0.0
788.375,-13.18359375,-25.87890625,-21.484375,-20.99609375,-52.734375,0.0
788.37890625,-33.203125,-33.203125,-30.2734375,-36.1328125,-138.671875,0.0
788.3828125,-43.9453125,-41.50390625,-32.2265625,-41.50390625,-227.05078125,0.0
788.38671875,-29.78515625,-31.73828125,-30.2734375,-31.73828125,-163.57421875,0.0
788.390625,-16.11328125,-24.90234375,-30.2734375,-22.4609375,-105.46875,0.0
788.39453125,-10.7421875,-29.78515625,-31.73828125,-16.11328125,-66.40625,0.0
788.3984375,-25.390625,-36.62109375,-35.64453125,-24.90234375,-34.66796875,0.0
788.40234375,-41.015625,-35.15625,-33.69140625,-33.203125,39.55078125,0.0
788.40625,-30.76171875,-30.2734375,-33.69140625,-33.203125,46.38671875,0.0
788.41015625,-13.18359375,-22.4609375,-34.66796875,-33.203125,26.3671875,0.0
788.4140625,-13.18359375,-17.578125,-32.71484375,-30.2734375,98.6328125,0.0
788.41796875,-31.73828125,-25.87890625,-31.73828125,-35.15625,48.828125,0.0
788.421875,-39.55078125,-36.62109375,-36.1328125,-38.0859375,-6.34765625,0.0
788.42578125,-29.78515625,-38.57421875,-35.64453125,-35.64453125,47.36328125,0.0
788.4296875,-20.5078125,-33.69140625,-33.203125,-31.25,-1.953125,0.0
788.43359375,-23.92578125,-31.25,-33.203125,-30.76171875,-45.8984375,0.0
788.4375,-38.0859375,-35.64453125,-36.1328125,-35.64453125,25.87890625,0.0
788.44140625,-46.875,-41.015625,-34.66796875,-39.0625,-57.12890625,0.0
788.4453125,-38.57421875,-39.0625,-31.25,-35.64453125,-39.55078125,0.0
788.44921875,-21.484375,-30.76171875,-31.73828125,-32.71484375,20.99609375,0.0
788.453125,-14.16015625,-28.80859375,-29.296875,-28.3203125,-28.3203125,0.0
788.45703125,-20.01953125,-32.2265625,-26.85546875,-28.80859375,-95.21484375,0.0
788.4609375,-39.55078125,-33.203125,-25.390625,-33.69140625,-71.77734375,0.0
788.46484375,-39.55078125,-34.66796875,-27.34375,-30.2734375,7.8125,0.0
788.46875,-19.53125,-32.2265625,-23.4375,-24.4140625,-21.484375,0.0
788.47265625,-5.37109375,-24.90234375,-19.04296875,-11.71875,-85.44921875,0.0
788.4765625,-21.484375,-26.3671875,-24.90234375,-20.5078125,-50.29296875,0.0
788.48046875,-48.828125,-36.1328125,-33.69140625,-39.0625,-73.2421875,0.0
788.484375,-47.36328125,-37.59765625,-29.296875,-38.57421875,-183.59375,0.0
788.48828125,-28.80859375,-27.34375,-20.5078125,-25.390625,-86.9140625,0.0
788.4921875,-18.5546875,-20.5078125,-20.5078125,-23.92578125,32.71484375,0.0
788.49609375,-29.78515625,-24.90234375,-25.390625,-32.2265625,-84.9609375,0.0
788.5,-45.8984375,-30.2734375,-29.78515625,-33.69140625,-171.875,0.0
788.50390625,-48.33984375,-32.71484375,-25.87890625,-29.296875,-243.1640625,0.0
788.5078125,-34.66796875,-25.87890625,-22.4609375,-23.92578125,-252.44140625,0.0
788.51171875,-16.6015625,-24.4140625,-25.87890625,-22.4609375,-121.09375,0.0
788.515625,-15.625,-30.76171875,-20.5078125,-26.3671875,-44.43359375,0.0
788.51953125,-29.78515625,-34.66796875,-27.83203125,-36.1328125,-87.890625,0.0
788.5234375,-31.73828125,-35.15625,-36.1328125,-35.64453125,-148.92578125,0.0
788.52734375,-15.625,-27.34375,-28.3203125,-22.94921875,-174.31640625,0.0
788.53125,-0.48828125,-19.53125,-22.4609375,-19.04296875,-160.15625,0.0
788.53515625,-4.39453125,-19.04296875,-22.4609375,-23.92578125,-82.03125,0.0
788.5390625,-25.87890625,-25.87890625,-28.80859375,-34.66796875,-20.01953125,0.0
788.54296875,-38.57421875,-36.62109375,-29.78515625,-40.52734375,-41.9921875,0.0
788.546875,-33.203125,-37.109375,-26.85546875,-36.62109375,-26.3671875,0.0
788.55078125,-23.4375,-32.2265625,-25.390625,-32.2265625,45.8984375,0.0
788.5546875,-21.97265625,-28.80859375,-27.34375,-30.2734375,73.73046875,0.0
788.55859375,-42.48046875,-36.1328125,-32.71484375,-41.015625,-8.7890625,0.0
788.5625,-59.5703125,-41.50390625,-33.69140625,-51.26953125,-109.86328125,0.0
788.56640625,-48.33984375,-35.15625,-29.78515625,-39.55078125,-14.16015625,0.0
788.5703125,-26.85546875,-29.296875,-26.3671875,-26.85546875,74.21875,0.0
788.57421875,-20.01953125,-27.34375,-23.92578125,-29.296875,67.87109375,0.0
788.578125,-34.66796875,-31.25,-25.87890625,-38.0859375,47.36328125,0.0
788.58203125,-47.8515625,-37.59765625,-31.73828125,-40.52734375,38.57421875,0.0
788.5859375,-43.45703125,-34.1796875,-29.296875,-31.73828125,76.66015625,0.0
788.58984375,-25.390625,-27.83203125,-22.94921875,-21.484375,86.9140625,0.0
788.59375,-19.53125,-28.80859375,-26.3671875,-21.97265625,91.796875,0.0
788.59765625,-35.15625,-32.71484375,-28.80859375,-23.92578125,55.17578125,0.0
788.6015625,-46.875,-37.109375,-29.296875,-31.73828125,-67.87109375,0.0
788.60546875,-39.0625,-32.2265625,-33.203125,-37.109375,-56.15234375,0.0
788.609375,-23.92578125,-24.4140625,-31.73828125,-25.390625,64.453125,0.0
788.61328125,-17.08984375,-23.92578125,-24.90234375,-12.6953125,133.7890625,0.0
788.6171875,-32.2265625,-31.73828125,-27.34375,-17.08984375,114.2578125,0.0
788.62109375,-53.22265625,-39.55078125,-34.1796875,-29.296875,22.94921875,0.0
788.625,-44.43359375,-36.62109375,-28.3203125,-27.34375,1.953125,0.0
788.62890625,-23.92578125,-28.3203125,-24.90234375,-16.6015625,-4.39453125,0.0
788.6328125,-20.99609375,-30.76171875,-30.2734375,-18.5546875,-39.0625,0.0
788.63671875,-27.83203125,-33.69140625,-31.25,-26.3671875,-21.484375,0.0
788.640625,-36.62109375,-28.3203125,-28.80859375,-32.71484375,-25.87890625,0.0
788.64453125,-28.80859375,-24.90234375,-29.78515625,-34.66796875,0.9765625,0.0
788.6484375,-13.18359375,-21.97265625,-28.3203125,-27.83203125,41.50390625,0.0
788.65234375,-4.39453125,-21.97265625,-25.87890625,-27.83203125,0.9765625,0.0
788.65625,-9.27734375,-24.90234375,-27.83203125,-31.73828125,-41.50390625,0.0
788.66015625,-26.85546875,-33.203125,-33.203125,-33.69140625,-18.5546875,0.0
788.6640625,-33.203125,-33.203125,-30.76171875,-32.2265625,-31.25,0.0
788.66796875,-21.97265625,-25.87890625,-22.94921875,-26.85546875,10.7421875,0.0
788.671875,-14.6484375,-30.76171875,-25.87890625,-25.87890625,9.27734375,0.0
788.67578125,-22.94921875,-36.62109375,-29.78515625,-31.25,-52.24609375,0.0
788.6796875,-39.55078125,-37.109375,-28.3203125,-34.66796875,-10.7421875,0.0
788.68359375,-53.22265625,-37.59765625,-30.76171875,-37.109375,40.52734375,0.0
788.6875,-41.015625,-32.2265625,-29.296875,-33.69140625,38.0859375,0.0
788.69140625,-19.53125,-27.34375,-27.83203125,-24.90234375,16.6015625,0.0
788.6953125,-25.87890625,-28.3203125,-29.78515625,-24.4140625,-4.39453125,0.0
788.69921875,-53.22265625,-33.203125,-30.76171875,-26.85546875,-83.49609375,0.0
788.703125,-60.546875,-37.109375,-31.25,-33.203125,-119.62890625,0.0
788.70703125,-42.96875,-34.66796875,-26.3671875,-31.25,-52.24609375,0.0
788.7109375,-28.80859375,-28.80859375,-35.64453125,-25.390625,-34.66796875,0.0
788.71484375,-30.2734375,-27.34375,-40.0390625,-29.78515625,13.18359375,0.0
788.71875,-43.9453125,-35.15625,-32.71484375,-36.1328125,24.90234375,0.0
788.72265625,-46.38671875,-38.57421875,-32.2265625,-38.57421875,-41.9921875,0.0
788.7265625,-29.78515625,-28.80859375,-25.87890625,-31.73828125,-47.8515625,0.0
788.73046875,-10.7421875,-24.4140625,-23.4375,-28.80859375,-23.92578125,0.0
788.734375,-10.7421875,-29.78515625,-26.3671875,-35.15625,-30.2734375,0.0
788.73828125,-30.2734375,-31.25,-31.73828125,-38.57421875,-72.75390625,0.0
788.7421875,-36.1328125,-32.2265625,-30.76171875,-38.57421875,-57.6171875,0.0
788.74609375,-23.4375,-36.62109375,-28.3203125,-33.203125,49.31640625,0.0
788.75,-7.8125,-32.71484375,-25.87890625,-20.5078125,123.53515625,0.0
788.75390625,-7.8125,-27.83203125,-39.0625,-20.5078125,29.296875,0.0
788.7578125,-24.4140625,-31.25,-56.15234375,-30.2734375,-57.12890625,0.0
788.76171875,-42.48046875,-41.015625,-43.45703125,-33.203125,-85.44921875,0.0
788.765625,-38.57421875,-38.0859375,-33.69140625,-35.64453125,-99.12109375,0.0
788.76953125,-20.01953125,-29.78515625,-40.0390625,-29.296875,-24.90234375,0.0
788.7734375,-13.18359375,-34.1796875,-43.45703125,-22.4609375,-3.41796875,0.0
788.77734375,-27.34375,-43.9453125,-35.15625,-30.2734375,-51.7578125,0.0
788.78125,-46.875,-42.48046875,-34.1796875,-40.52734375,-77.63671875,0.0
788.78515625,-42.48046875,-36.1328125,-33.203125,-41.50390625,-41.9921875,0.0
788.7890625,-23.92578125,-28.3203125,-26.3671875,-31.25,-38.57421875,0.0
788.79296875,-18.5546875,-25.390625,-24.90234375,-27.34375,2.9296875,0.0
788.796875,-33.69140625,-29.296875,-30.2734375,-33.203125,50.29296875,0.0
788.80078125,-52.24609375,-34.1796875,-25.87890625,-37.109375,-46.38671875,0.0
788.8046875,-50.29296875,-37.109375,-24.90234375,-40.0390625,-95.703125,0.0
788.80859375,-33.69140625,-27.34375,-23.4375,-29.78515625,20.01953125,0.0
788.8125,-18.06640625,-13.671875,-18.5546875,-22.4609375,121.58203125,0.0
788.81640625,-19.04296875,-19.53125,-23.92578125,-29.78515625,132.32421875,0.0
788.8203125,-33.69140625,-28.3203125,-30.2734375,-31.73828125,22.4609375,0.0
788.82421875,-35.15625,-29.78515625,-30.76171875,-32.71484375,-63.4765625,0.0
788.828125,-17.08984375,-21.97265625,-22.4609375,-28.80859375,-18.06640625,0.0
788.83203125,-6.34765625,-19.04296875,-20.99609375,-23.4375,-48.33984375,0.0
788.8359375,-13.18359375,-26.3671875,-23.92578125,-26.85546875,-124.51171875,0.0
788.83984375,-30.76171875,-31.25,-29.296875,-35.64453125,-91.30859375,0.0
788.84375,-40.0390625,-33.203125,-27.34375,-38.0859375,-26.85546875,0.0
788.84765625,-20.99609375,-26.85546875,-19.04296875,-20.99609375,38.0859375,0.0
788.8515625,-0.48828125,-20.01953125,-21.484375,-12.6953125,65.91796875,0.0
788.85546875,-7.8125,-26.3671875,-24.90234375,-19.04296875,-56.640625,0.0
788.859375,-25.390625,-31.25,-23.4375,-22.4609375,-119.62890625,0.0
788.86328125,-35.64453125,-35.64453125,-25.87890625,-28.3203125,-144.04296875,0.0
788.8671875,-25.87890625,-34.66796875,-31.25,-27.34375,-164.0625,0.0
788.87109375,-12.20703125,-31.73828125,-27.83203125,-22.4609375,-104.98046875,0.0
788.875,-11.71875,-25.87890625,-18.06640625,-20.5078125,-38.57421875,0.0
788.87890625,-31.25,-30.2734375,-21.97265625,-30.76171875,-40.52734375,0.0
788.8828125,-50.78125,-38.57421875,-33.203125,-44.43359375,-42.48046875,0.0
788.88671875,-43.9453125,-31.73828125,-32.2265625,-38.57421875,-8.7890625,0.0
788.890625,-25.87890625,-28.3203125,-29.296875,-24.90234375,-4.39453125,0.0
788.89453125,-19.53125,-28.80859375,-24.90234375,-20.01953125,69.3359375,0.0
788.8984375,-34.66796875,-30.2734375,-26.85546875,-29.78515625,96.6796875,0.0
788.90234375,-38.0859375,-33.203125,-25.87890625,-34.1796875,-20.99609375,0.0
788.90625,-24.4140625,-27.34375,-20.5078125,-21.484375,-62.01171875,0.0
788.91015625,-17.08984375,-23.92578125,-19.53125,-18.5546875,-44.43359375,0.0
788.9140625,-16.6015625,-27.34375,-20.01953125,-20.5078125,-53.7109375,0.0
788.91796875,-31.25,-28.80859375,-23.4375,-29.78515625,14.6484375,0.0
788.921875,-41.50390625,-35.15625,-26.3671875,-41.50390625,49.31640625,0.0
788.92578125,-28.3203125,-36.62109375,-24.4140625,-35.64453125,145.5078125,0.0
788.9296875,-10.25390625,-26.3671875,-19.04296875,-27.83203125,175.78125,0.0
788.93359375,-4.8828125,-23.4375,-18.5546875,-22.94921875,94.7265625,0.0
788.9375,-21.97265625,-27.34375,-28.80859375,-31.73828125,73.73046875,0.0
788.94140625,-42.96875,-35.15625,-36.1328125,-40.52734375,25.87890625,0.0
788.9453125,-35.64453125,-38.0859375,-28.3203125,-36.62109375,-43.9453125,0.0
788.94921875,-14.6484375,-28.3203125,-22.94921875,-28.3203125,-70.80078125,0.0
788.953125,-10.25390625,-22.4609375,-26.3671875,-26.3671875,-29.296875,0.0
788.95703125,-27.83203125,-33.203125,-30.76171875,-36.1328125,10.7421875,0.0
788.9609375,-43.9453125,-40.0390625,-33.203125,-41.9921875,-24.4140625,0.0
788.96484375,-37.109375,-36.62109375,-31.73828125,-37.59765625,-15.625,0.0
788.96875,-23.4375,-32.2265625,-32.2265625,-29.78515625,31.73828125,0.0
788.97265625,-20.5078125,-27.83203125,-31.73828125,-25.390625,-26.3671875,0.0
788.9765625,-30.76171875,-29.296875,-28.80859375,-29.296875,-47.8515625,0.0
788.98046875,-45.41015625,-36.1328125,-32.2265625,-35.64453125,-19.53125,0.0
788.984375,-52.734375,-38.0859375,-36.62109375,-40.0390625,-44.43359375,0.0
788.98828125,-37.109375,-34.1796875,-33.69140625,-40.0390625,-57.12890625,0.0
788.9921875,-27.34375,-33.203125,-28.80859375,-31.73828125,-27.83203125,0.0
788.99609375,-43.45703125,-41.50390625,-27.83203125,-34.1796875,-16.6015625,0.0
789.0,-62.01171875,-49.31640625,-32.71484375,-46.875,5.37109375,0.0
789.00390625,-66.89453125,-44.921875,-36.62109375,-48.33984375,2.44140625,0.0
789.0078125,-46.38671875,-36.62109375,-32.71484375,-37.109375,-67.3828125,0.0
789.01171875,-26.85546875,-33.203125,-29.78515625,-32.71484375,-47.8515625,0.0
789.015625,-39.0625,-34.66796875,-31.25,-40.0390625,11.23046875,0.0
789.01953125,-54.6875,-39.0625,-31.25,-43.9453125,-59.08203125,0.0
789.0234375,-55.6640625,-39.0625,-30.2734375,-45.8984375,-4.39453125,0.0
789.02734375,-46.875,-43.45703125,-35.64453125,-48.33984375,79.1015625,0.0
789.03125,-31.73828125,-41.50390625,-37.59765625,-41.015625,54.19921875,0.0
789.03515625,-26.85546875,-33.69140625,-33.203125,-34.1796875,41.015625,0.0
789.0390625,-41.9921875,-36.1328125,-38.0859375,-40.52734375,24.90234375,0.0
789.04296875,-45.41015625,-35.64453125,-35.15625,-38.0859375,-52.734375,0.0
789.046875,-30.2734375,-34.1796875,-29.78515625,-28.3203125,-64.453125,0.0
789.05078125,-19.53125,-31.73828125,-34.66796875,-26.85546875,16.6015625,0.0
789.0546875,-23.92578125,-32.71484375,-31.73828125,-26.85546875,47.8515625,0.0
789.05859375,-44.43359375,-40.0390625,-29.296875,-32.2265625,-40.0390625,0.0
789.0625,-52.734375,-42.48046875,-36.1328125,-42.96875,-30.2734375,0.0
789.06640625,-47.8515625,-41.9921875,-33.203125,-41.015625,46.875,0.0
789.0703125,-37.59765625,-35.15625,-26.3671875,-26.85546875,3.90625,0.0
789.07421875,-29.78515625,-27.34375,-28.3203125,-23.4375,-23.92578125,0.0
789.078125,-50.29296875,-38.0859375,-34.1796875,-34.1796875,5.859375,0.0
789.08203125,-67.3828125,-46.875,-35.15625,-42.48046875,-30.76171875,0.0
789.0859375,-52.734375,-41.015625,-26.3671875,-32.2265625,-83.49609375,0.0
789.08984375,-31.73828125,-35.15625,-22.4609375,-25.390625,-4.8828125,0.0
789.09375,-30.2734375,-34.66796875,-27.34375,-28.3203125,62.5,0.0
789.09765625,-41.9921875,-39.0625,-30.76171875,-31.73828125,-38.57421875,0.0
789.1015625,-55.17578125,-44.921875,-32.2265625,-37.109375,-75.1953125,0.0
789.10546875,-43.9453125,-39.55078125,-30.76171875,-32.2265625,4.39453125,0.0
789.109375,-27.34375,-33.203125,-29.296875,-25.87890625,14.6484375,0.0
789.11328125,-21.97265625,-35.64453125,-30.2734375,-24.90234375,-22.94921875,0.0
789.1171875,-28.3203125,-32.71484375,-28.80859375,-28.80859375,-55.17578125,0.0
789.12109375,-43.9453125,-37.59765625,-30.76171875,-33.69140625,-105.95703125,0.0
789.125,-40.52734375,-38.57421875,-34.1796875,-35.64453125,-128.41796875,0.0
789.12890625,-20.99609375,-32.71484375,-20.99609375,-24.4140625,-198.73046875,0.0
789.1328125,-15.13671875,-31.73828125,-16.11328125,-23.4375,-260.25390625,0.0
789.13671875,-27.34375,-34.1796875,-32.2265625,-28.80859375,-230.46875,0.0
789.140625,-40.0390625,-39.55078125,-31.25,-29.78515625,-142.578125,0.0
789.14453125,-39.55078125,-39.55078125,-24.90234375,-36.1328125,-97.65625,0.0
789.1484375,-26.85546875,-29.296875,-25.87890625,-31.73828125,-4.39453125,0.0
789.15234375,-15.625,-24.4140625,-27.83203125,-22.4609375,95.703125,0.0
789.15625,-28.3203125,-25.87890625,-30.76171875,-25.87890625,14.6484375,0.0
789.16015625,-50.29296875,-31.25,-32.2265625,-42.48046875,2.44140625,0.0
789.1640625,-51.7578125,-31.73828125,-32.71484375,-45.8984375,36.62109375,0.0
789.16796875,-36.62109375,-26.3671875,-30.2734375,-30.76171875,-6.34765625,0.0
789.171875,-29.78515625,-29.78515625,-28.3203125,-25.390625,2.9296875,0.0
789.17578125,-33.203125,-31.73828125,-31.25,-31.25,-31.73828125,0.0
789.1796875,-38.0859375,-29.296875,-33.69140625,-27.83203125,-7.32421875,0.0
789.18359375,-41.015625,-32.71484375,-34.66796875,-31.73828125,84.47265625,0.0
789.1875,-29.78515625,-32.2265625,-31.25,-31.25,2.44140625,0.0
