timestamp,TP9,AF7,AF8,TP10,AUX,Marker,
2034.00390625,-43.45703125,-30.2734375,-36.62109375,-27.34375,-76.66015625,0.0
2034.0078125,-44.921875,-30.76171875,-31.73828125,-27.34375,-31.73828125,0.0
2034.01171875,-41.50390625,-29.78515625,-30.76171875,-35.64453125,1.46484375,0.0
2034.015625,-32.71484375,-30.2734375,-33.203125,-38.57421875,-2.9296875,0.0
2034.01953125,-38.57421875,-37.109375,-32.71484375,-32.2265625,-15.13671875,0.0
2034.0234375,-49.8046875,-31.73828125,-36.62109375,-32.2265625,-51.26953125,0.0
2034.02734375,-49.31640625,-28.3203125,-38.0859375,-39.55078125,-38.0859375,0.0
2034.03125,-46.38671875,-31.73828125,-34.66796875,-41.015625,0.48828125,0.0
2034.03515625,-34.66796875,-29.78515625,-35.15625,-39.55078125,-18.06640625,0.0
2034.0390625,-27.34375,-28.80859375,-26.85546875,-36.62109375,24.4140625,0.0
2034.04296875,-34.1796875,-31.73828125,-26.3671875,-33.203125,23.4375,0.0
2034.046875,-35.64453125,-32.71484375,-34.66796875,-34.1796875,-119.140625,0.0
2034.05078125,-26.85546875,-29.78515625,-30.2734375,-33.203125,-225.09765625,0.0
2034.0546875,-18.06640625,-21.484375,-30.2734375,-25.87890625,-181.640625,0.0
2034.05859375,-28.3203125,-23.92578125,-30.76171875,-25.87890625,-23.92578125,0.0
2034.0625,-34.1796875,-31.25,-34.1796875,-37.59765625,37.109375,0.0
2034.06640625,-31.73828125,-33.203125,-38.0859375,-44.43359375,8.30078125,0.0
2034.0703125,-29.296875,-32.2265625,-28.80859375,-30.76171875,-38.0859375,0.0
2034.07421875,-20.01953125,-27.83203125,-25.87890625,-19.04296875,-32.2265625,0.0
2034.078125,-20.99609375,-26.3671875,-32.71484375,-24.90234375,8.30078125,0.0
2034.08203125,-26.3671875,-31.25,-25.390625,-30.76171875,-18.5546875,0.0
2034.0859375,-37.109375,-36.62109375,-19.04296875,-32.71484375,-75.68359375,0.0
2034.08984375,-37.109375,-33.203125,-27.34375,-25.87890625,-90.33203125,0.0
2034.09375,-31.25,-28.3203125,-30.2734375,-25.390625,-28.80859375,0.0
2034.09765625,-32.2265625,-28.80859375,-32.71484375,-32.2265625,3.41796875,0.0
2034.1015625,-39.55078125,-32.71484375,-32.2265625,-29.78515625,12.6953125,0.0
2034.10546875,-44.921875,-35.64453125,-32.2265625,-32.2265625,-9.27734375,0.0
2034.109375,-42.48046875,-35.15625,-29.296875,-29.296875,-116.69921875,0.0
2034.11328125,-33.203125,-32.71484375,-28.3203125,-25.87890625,-116.2109375,0.0
2034.1171875,-26.3671875,-26.3671875,-33.69140625,-25.87890625,-27.83203125,0.0
2034.12109375,-28.3203125,-23.92578125,-30.2734375,-27.34375,-39.0625,0.0
2034.125,-27.83203125,-31.73828125,-29.78515625,-33.203125,-60.05859375,0.0
2034.12890625,-21.484375,-36.1328125,-26.3671875,-31.25,-4.39453125,0.0
2034.1328125,-18.5546875,-30.76171875,-22.94921875,-29.296875,34.66796875,0.0
2034.13671875,-18.5546875,-28.3203125,-30.2734375,-31.73828125,11.71875,0.0
2034.140625,-22.94921875,-25.390625,-30.76171875,-36.62109375,72.265625,0.0
2034.14453125,-29.296875,-26.3671875,-23.4375,-28.80859375,103.02734375,0.0
2034.1484375,-26.3671875,-26.85546875,-26.3671875,-26.3671875,32.71484375,0.0
2034.15234375,-12.6953125,-24.4140625,-34.1796875,-34.66796875,12.20703125,0.0
2034.15625,-6.34765625,-26.3671875,-21.97265625,-25.87890625,11.71875,0.0
2034.16015625,-18.06640625,-31.73828125,-21.484375,-20.99609375,-29.78515625,0.0
2034.1640625,-20.99609375,-33.69140625,-31.25,-31.25,-24.90234375,0.0
2034.16796875,-17.08984375,-32.2265625,-30.2734375,-23.4375,-30.2734375,0.0
2034.171875,-18.06640625,-34.1796875,-20.99609375,-17.578125,-53.7109375,0.0
2034.17578125,-13.18359375,-29.78515625,-18.06640625,-21.97265625,16.11328125,0.0
2034.1796875,-11.71875,-21.97265625,-29.296875,-22.94921875,20.01953125,0.0
2034.18359375,-19.04296875,-26.85546875,-29.78515625,-20.5078125,44.43359375,0.0
2034.1875,-25.390625,-34.66796875,-24.4140625,-22.4609375,88.37890625,0.0
2034.19140625,-23.4375,-29.296875,-25.390625,-22.94921875,46.38671875,0.0
2034.1953125,-19.04296875,-25.390625,-28.80859375,-18.5546875,0.9765625,0.0
2034.19921875,-32.71484375,-29.78515625,-37.59765625,-28.3203125,-24.4140625,0.0
2034.203125,-47.36328125,-31.25,-41.015625,-37.59765625,-57.6171875,0.0
2034.20703125,-45.41015625,-34.1796875,-38.0859375,-42.96875,-112.3046875,0.0
2034.2109375,-44.921875,-34.66796875,-39.0625,-42.96875,-131.8359375,0.0
2034.21484375,-43.9453125,-31.25,-38.57421875,-39.0625,-98.14453125,0.0
2034.21875,-37.59765625,-36.62109375,-12.20703125,-40.52734375,-120.1171875,0.0
2034.22265625,-41.9921875,-39.0625,-11.71875,-43.45703125,-83.984375,0.0
2034.2265625,-43.45703125,-33.69140625,-39.0625,-41.50390625,-29.296875,0.0
2034.23046875,-32.71484375,-28.80859375,-36.1328125,-32.2265625,-58.59375,0.0
2034.234375,-25.87890625,-27.34375,-32.2265625,-28.3203125,-59.5703125,0.0
2034.23828125,-25.87890625,-27.34375,-31.73828125,-38.57421875,-34.1796875,0.0
2034.2421875,-26.3671875,-30.2734375,-31.73828125,-35.15625,7.32421875,0.0
2034.24609375,-31.25,-33.203125,-29.78515625,-27.34375,-25.390625,0.0
2034.25,-29.78515625,-34.66796875,-30.76171875,-27.83203125,-103.515625,0.0
2034.25390625,-21.484375,-32.2265625,-29.296875,-25.390625,-67.87109375,0.0
2034.2578125,-20.5078125,-30.2734375,-33.203125,-20.5078125,-27.34375,0.0
2034.26171875,-24.4140625,-27.83203125,-20.99609375,-18.06640625,-36.1328125,0.0
2034.265625,-27.34375,-28.80859375,-1.953125,-23.92578125,-70.80078125,0.0
2034.26953125,-29.78515625,-33.203125,-22.4609375,-22.94921875,-57.12890625,0.0
2034.2734375,-23.92578125,-25.87890625,-36.1328125,-14.6484375,-20.99609375,0.0
2034.27734375,-20.01953125,-22.94921875,-24.90234375,-21.484375,-31.73828125,0.0
2034.28125,-21.97265625,-25.390625,-25.87890625,-32.2265625,3.41796875,0.0
2034.28515625,-30.2734375,-26.85546875,-32.71484375,-31.73828125,-3.90625,0.0
2034.2890625,-41.015625,-33.69140625,-31.25,-34.1796875,-33.69140625,0.0
2034.29296875,-35.64453125,-35.64453125,-38.0859375,-39.0625,-4.39453125,0.0
2034.296875,-29.296875,-29.78515625,-36.62109375,-35.15625,24.90234375,0.0
2034.30078125,-37.109375,-29.78515625,-32.2265625,-29.296875,-4.8828125,0.0
2034.3046875,-48.33984375,-33.203125,-32.71484375,-34.66796875,-51.26953125,0.0
2034.30859375,-50.78125,-37.59765625,-11.23046875,-40.52734375,-61.03515625,0.0
2034.3125,-41.50390625,-39.55078125,-17.578125,-44.43359375,-119.62890625,0.0
2034.31640625,-32.71484375,-37.109375,-38.57421875,-34.1796875,-98.14453125,0.0
2034.3203125,-26.85546875,-31.73828125,-23.4375,-25.390625,16.6015625,0.0
2034.32421875,-33.69140625,-27.83203125,-21.97265625,-34.1796875,-31.73828125,0.0
2034.328125,-41.9921875,-29.78515625,-38.57421875,-41.50390625,-124.51171875,0.0
2034.33203125,-30.2734375,-28.80859375,-36.62109375,-29.78515625,-50.29296875,0.0
2034.3359375,-24.90234375,-23.4375,-32.2265625,-23.4375,46.875,0.0
2034.33984375,-30.2734375,-27.34375,-34.66796875,-32.2265625,25.87890625,0.0
2034.34375,-32.2265625,-29.78515625,-41.015625,-35.15625,0.9765625,0.0
2034.34765625,-32.2265625,-28.3203125,-41.015625,-36.1328125,-22.94921875,0.0
2034.3515625,-26.85546875,-25.87890625,-32.71484375,-33.69140625,-100.09765625,0.0
2034.35546875,-22.94921875,-21.97265625,-34.66796875,-32.2265625,-69.3359375,0.0
2034.359375,-26.3671875,-30.2734375,-41.50390625,-31.73828125,-0.48828125,0.0
2034.36328125,-37.109375,-33.203125,-44.43359375,-28.80859375,-21.97265625,0.0
2034.3671875,-42.48046875,-29.78515625,-26.85546875,-28.3203125,-76.66015625,0.0
2034.37109375,-43.9453125,-34.1796875,-6.34765625,-29.78515625,-80.56640625,0.0
2034.375,-35.15625,-30.2734375,-23.4375,-32.2265625,-10.25390625,0.0
2034.37890625,-29.296875,-25.390625,-37.59765625,-29.78515625,-20.5078125,0.0
2034.3828125,-41.015625,-31.73828125,-38.0859375,-31.73828125,-52.734375,0.0
2034.38671875,-46.875,-37.59765625,-39.0625,-33.69140625,-46.875,0.0
2034.390625,-41.9921875,-39.55078125,-41.9921875,-31.73828125,-64.94140625,0.0
2034.39453125,-36.1328125,-36.62109375,-39.0625,-30.76171875,-83.49609375,0.0
2034.3984375,-29.78515625,-28.3203125,-34.66796875,-31.73828125,-35.64453125,0.0
2034.40234375,-26.3671875,-26.3671875,-38.0859375,-37.109375,9.765625,0.0
2034.40625,-27.83203125,-30.76171875,-42.96875,-40.52734375,53.7109375,0.0
2034.41015625,-26.85546875,-32.71484375,-32.2265625,-36.62109375,28.3203125,0.0
2034.4140625,-21.484375,-32.71484375,-12.20703125,-34.66796875,2.44140625,0.0
2034.41796875,-23.4375,-30.2734375,-26.85546875,-40.52734375,35.64453125,0.0
2034.421875,-31.73828125,-34.1796875,-41.9921875,-40.0390625,16.6015625,0.0
2034.42578125,-36.62109375,-38.57421875,-33.69140625,-36.62109375,-19.53125,0.0
2034.4296875,-34.66796875,-34.66796875,-29.78515625,-35.64453125,21.97265625,0.0
2034.43359375,-28.80859375,-31.25,-34.66796875,-38.0859375,16.11328125,0.0
2034.4375,-26.3671875,-31.25,-31.73828125,-28.3203125,-35.15625,0.0
2034.44140625,-30.76171875,-34.66796875,-25.87890625,-20.5078125,-66.40625,0.0
2034.4453125,-40.52734375,-39.0625,-31.73828125,-27.83203125,-51.7578125,0.0
2034.44921875,-42.96875,-41.9921875,-41.50390625,-36.1328125,-21.484375,0.0
2034.453125,-33.69140625,-38.0859375,-40.52734375,-35.15625,-52.734375,0.0
2034.45703125,-33.203125,-35.15625,-17.08984375,-34.66796875,-76.171875,0.0
2034.4609375,-37.59765625,-37.59765625,4.8828125,-36.62109375,-74.21875,0.0
2034.46484375,-44.43359375,-40.52734375,-24.4140625,-40.0390625,-143.5546875,0.0
2034.46875,-52.24609375,-43.45703125,-39.0625,-39.55078125,-147.4609375,0.0
2034.47265625,-53.22265625,-41.015625,-33.203125,-33.69140625,-71.77734375,0.0
2034.4765625,-45.41015625,-38.0859375,-32.2265625,-29.78515625,-11.71875,0.0
2034.48046875,-47.8515625,-37.59765625,-37.59765625,-32.2265625,-14.16015625,0.0
2034.484375,-53.22265625,-42.48046875,-45.41015625,-41.50390625,-26.85546875,0.0
2034.48828125,-56.15234375,-43.9453125,-34.1796875,-45.41015625,8.7890625,0.0
2034.4921875,-49.31640625,-41.015625,-31.73828125,-42.48046875,-0.48828125,0.0
2034.49609375,-34.1796875,-37.59765625,-41.9921875,-40.0390625,-12.20703125,0.0
2034.5,-32.71484375,-38.0859375,-39.0625,-43.45703125,117.67578125,0.0
2034.50390625,-37.109375,-43.45703125,-20.5078125,-45.8984375,41.015625,0.0
2034.5078125,-27.83203125,-41.50390625,-26.85546875,-39.0625,-52.734375,0.0
2034.51171875,-18.06640625,-41.015625,-41.50390625,-34.1796875,-141.6015625,0.0
2034.515625,-17.08984375,-36.62109375,-38.57421875,-32.2265625,-181.640625,0.0
2034.51953125,-17.08984375,-32.71484375,-35.64453125,-34.1796875,-35.15625,0.0
2034.5234375,-20.5078125,-39.55078125,-39.55078125,-38.0859375,-15.625,0.0
2034.52734375,-25.390625,-39.55078125,-37.109375,-32.71484375,-31.73828125,0.0
2034.53125,-24.90234375,-37.59765625,-37.59765625,-30.2734375,-34.66796875,0.0
2034.53515625,-16.11328125,-37.109375,-40.52734375,-27.34375,-22.94921875,0.0
2034.5390625,-19.53125,-37.59765625,-34.1796875,-18.5546875,-55.6640625,0.0
2034.54296875,-31.73828125,-37.59765625,-29.78515625,-20.5078125,-67.87109375,0.0
2034.546875,-36.62109375,-38.57421875,-23.4375,-29.296875,-18.5546875,0.0
2034.55078125,-32.71484375,-35.64453125,-12.20703125,-26.3671875,-5.37109375,0.0
2034.5546875,-26.85546875,-31.25,-25.390625,-25.87890625,45.8984375,0.0
2034.55859375,-35.64453125,-37.59765625,-36.1328125,-32.2265625,50.78125,0.0
2034.5625,-44.921875,-39.55078125,-31.25,-38.57421875,-3.41796875,0.0
2034.56640625,-49.8046875,-35.15625,-29.296875,-37.59765625,-46.875,0.0
2034.5703125,-53.22265625,-35.64453125,-27.83203125,-37.59765625,-90.8203125,0.0
2034.57421875,-52.734375,-33.69140625,-28.3203125,-39.0625,-97.65625,0.0
2034.578125,-52.734375,-33.203125,-32.2265625,-36.1328125,-76.171875,0.0
2034.58203125,-56.640625,-33.69140625,-35.15625,-41.50390625,-76.66015625,0.0
2034.5859375,-56.640625,-30.2734375,-35.15625,-39.55078125,-89.84375,0.0
2034.58984375,-50.29296875,-29.296875,-30.2734375,-34.1796875,-144.04296875,0.0
2034.59375,-40.52734375,-31.25,-22.4609375,-36.1328125,-121.09375,0.0
2034.59765625,-30.76171875,-34.1796875,-26.85546875,-35.15625,52.734375,0.0
2034.6015625,-34.1796875,-31.73828125,-37.59765625,-42.96875,83.0078125,0.0
2034.60546875,-39.55078125,-37.109375,-36.1328125,-46.38671875,-0.9765625,0.0
2034.609375,-41.015625,-41.9921875,-31.25,-39.0625,-11.23046875,0.0
2034.61328125,-32.71484375,-36.62109375,-36.62109375,-37.109375,65.91796875,0.0
2034.6171875,-20.5078125,-28.3203125,-36.1328125,-32.2265625,22.4609375,0.0
2034.62109375,-14.16015625,-27.83203125,-32.71484375,-24.90234375,-28.80859375,0.0
2034.625,-10.7421875,-33.69140625,-30.76171875,-21.484375,-35.64453125,0.0
2034.62890625,-18.5546875,-32.71484375,-30.76171875,-24.90234375,-30.76171875,0.0
2034.6328125,-25.390625,-27.34375,-32.71484375,-34.66796875,-32.71484375,0.0
2034.63671875,-22.4609375,-25.87890625,-29.296875,-37.59765625,-46.875,0.0
2034.640625,-23.4375,-31.73828125,-28.3203125,-30.76171875,-104.00390625,0.0
2034.64453125,-33.69140625,-35.64453125,-34.66796875,-32.71484375,-83.984375,0.0
2034.6484375,-39.55078125,-32.71484375,-39.0625,-43.45703125,25.87890625,0.0
2034.65234375,-38.0859375,-31.73828125,-33.203125,-44.921875,36.1328125,0.0
2034.65625,-39.0625,-31.25,-29.296875,-41.50390625,74.21875,0.0
2034.66015625,-48.33984375,-26.85546875,-37.59765625,-38.57421875,39.55078125,0.0
2034.6640625,-56.15234375,-31.73828125,-39.55078125,-44.921875,-10.7421875,0.0
2034.66796875,-57.6171875,-30.76171875,-33.69140625,-48.828125,29.78515625,0.0
2034.671875,-54.19921875,-31.25,-34.66796875,-41.9921875,34.66796875,0.0
2034.67578125,-49.8046875,-31.25,-31.73828125,-36.1328125,8.30078125,0.0
2034.6796875,-50.78125,-25.87890625,-29.78515625,-38.57421875,-86.9140625,0.0
2034.68359375,-61.03515625,-33.203125,-28.3203125,-46.38671875,-224.609375,0.0
2034.6875,-60.05859375,-33.69140625,-27.34375,-42.96875,-211.9140625,0.0
2034.69140625,-44.43359375,-30.76171875,-31.25,-32.71484375,-180.6640625,0.0
2034.6953125,-34.66796875,-31.25,-28.3203125,-27.34375,-212.40234375,0.0
2034.69921875,-27.83203125,-25.87890625,-26.85546875,-33.203125,-133.30078125,0.0
2034.703125,-25.390625,-26.85546875,-28.3203125,-31.25,-114.2578125,0.0
2034.70703125,-24.4140625,-28.3203125,-29.78515625,-23.92578125,-41.9921875,0.0
2034.7109375,-16.6015625,-27.83203125,-25.390625,-24.90234375,101.5625,0.0
2034.71484375,-11.23046875,-32.2265625,-27.34375,-24.4140625,83.984375,0.0
2034.71875,-12.20703125,-31.25,-36.1328125,-26.3671875,-37.109375,0.0
2034.72265625,-15.13671875,-29.78515625,-38.57421875,-32.71484375,-63.4765625,0.0
2034.7265625,-16.6015625,-30.2734375,-30.2734375,-28.3203125,-32.2265625,0.0
2034.73046875,-20.99609375,-32.71484375,-26.85546875,-23.4375,-107.421875,0.0
2034.734375,-20.5078125,-31.73828125,-31.73828125,-21.97265625,-32.2265625,0.0
2034.73828125,-23.4375,-25.87890625,-36.62109375,-25.87890625,26.85546875,0.0
2034.7421875,-30.2734375,-28.3203125,-26.3671875,-29.296875,-60.05859375,0.0
2034.74609375,-42.48046875,-35.15625,-18.5546875,-37.109375,-52.24609375,0.0
2034.75,-51.26953125,-32.2265625,-34.66796875,-42.96875,-23.4375,0.0
2034.75390625,-47.8515625,-26.3671875,-32.2265625,-39.0625,-57.12890625,0.0
2034.7578125,-45.41015625,-21.484375,-32.71484375,-37.109375,-48.33984375,0.0
2034.76171875,-50.29296875,-28.3203125,-34.66796875,-37.59765625,-14.6484375,0.0
2034.765625,-50.78125,-36.62109375,-34.1796875,-39.55078125,-54.19921875,0.0
2034.76953125,-44.43359375,-30.76171875,-35.15625,-39.0625,-78.61328125,0.0
2034.7734375,-38.57421875,-26.3671875,-20.5078125,-34.66796875,-78.125,0.0
2034.77734375,-31.25,-23.92578125,-22.94921875,-32.2265625,-111.328125,0.0
2034.78125,-33.69140625,-26.85546875,-36.1328125,-32.71484375,-48.33984375,0.0
2034.78515625,-39.0625,-28.3203125,-30.76171875,-29.78515625,-9.27734375,0.0
2034.7890625,-34.1796875,-28.80859375,-21.484375,-22.94921875,11.71875,0.0
2034.79296875,-26.3671875,-31.25,-26.85546875,-18.5546875,83.984375,0.0
2034.796875,-22.94921875,-27.83203125,-33.203125,-24.4140625,69.82421875,0.0
2034.80078125,-18.5546875,-21.97265625,-34.66796875,-24.90234375,53.7109375,0.0
2034.8046875,-21.484375,-21.484375,-33.69140625,-18.06640625,-4.39453125,0.0
2034.80859375,-19.53125,-25.390625,-32.2265625,-19.04296875,-22.94921875,0.0
2034.8125,-10.7421875,-25.87890625,-32.71484375,-16.6015625,2.9296875,0.0
2034.81640625,-9.27734375,-26.3671875,-21.97265625,-16.11328125,-85.44921875,0.0
2034.8203125,-13.18359375,-22.4609375,-21.97265625,-29.296875,-158.203125,0.0
2034.82421875,-22.4609375,-26.85546875,-34.1796875,-35.64453125,-49.8046875,0.0
2034.828125,-26.85546875,-36.1328125,-39.55078125,-40.52734375,-11.71875,0.0
2034.83203125,-17.08984375,-29.296875,-18.06640625,-30.76171875,-45.8984375,0.0
2034.8359375,-9.765625,-25.87890625,4.8828125,-17.08984375,-26.3671875,0.0
2034.83984375,-16.6015625,-29.296875,-19.53125,-24.90234375,-99.12109375,0.0
2034.84375,-26.85546875,-35.64453125,-32.2265625,-34.66796875,-91.796875,0.0
2034.84765625,-35.64453125,-34.1796875,-29.296875,-34.66796875,-56.15234375,0.0
2034.8515625,-39.55078125,-29.78515625,-29.296875,-36.62109375,-66.40625,0.0
2034.85546875,-40.0390625,-30.76171875,-28.3203125,-34.66796875,1.46484375,0.0
2034.859375,-39.55078125,-32.71484375,-28.80859375,-28.80859375,-32.2265625,0.0
2034.86328125,-46.875,-34.1796875,-29.78515625,-38.0859375,21.484375,0.0
2034.8671875,-48.828125,-34.66796875,-31.73828125,-45.41015625,71.77734375,0.0
2034.87109375,-38.57421875,-35.15625,-35.15625,-40.52734375,34.1796875,0.0
2034.875,-38.0859375,-35.15625,-30.2734375,-39.0625,15.625,0.0
2034.87890625,-38.0859375,-37.59765625,-26.85546875,-41.50390625,-53.7109375,0.0
2034.8828125,-38.0859375,-36.62109375,-32.2265625,-41.015625,-55.17578125,0.0
2034.88671875,-42.96875,-38.0859375,-40.52734375,-38.57421875,-63.96484375,0.0
2034.890625,-42.48046875,-41.50390625,-36.62109375,-34.1796875,-83.0078125,0.0
2034.89453125,-34.66796875,-37.59765625,-12.6953125,-33.203125,-42.48046875,0.0
2034.8984375,-25.390625,-32.2265625,-20.99609375,-29.296875,14.16015625,0.0
2034.90234375,-27.83203125,-35.64453125,-38.57421875,-26.85546875,-59.5703125,0.0
2034.90625,-31.73828125,-39.55078125,-36.62109375,-30.76171875,-162.59765625,0.0
2034.91015625,-27.83203125,-38.0859375,-37.59765625,-29.78515625,-116.69921875,0.0
2034.9140625,-24.4140625,-31.25,-37.59765625,-27.83203125,-83.49609375,0.0
2034.91796875,-17.578125,-26.85546875,-41.015625,-28.80859375,-34.1796875,0.0
2034.921875,-13.671875,-28.80859375,-29.78515625,-28.3203125,-3.90625,0.0
2034.92578125,-20.01953125,-34.66796875,-21.484375,-34.66796875,-95.703125,0.0
2034.9296875,-19.53125,-33.203125,-33.69140625,-33.203125,-51.7578125,0.0
2034.93359375,-11.71875,-28.80859375,-31.73828125,-27.83203125,26.85546875,0.0
2034.9375,-16.11328125,-29.78515625,-18.5546875,-29.78515625,26.85546875,0.0
2034.94140625,-20.99609375,-30.2734375,-15.13671875,-25.87890625,-32.71484375,0.0
2034.9453125,-32.2265625,-28.80859375,-32.2265625,-23.92578125,-77.63671875,0.0
2034.94921875,-38.57421875,-24.90234375,-34.66796875,-25.390625,-33.69140625,0.0
2034.953125,-34.1796875,-28.80859375,-33.69140625,-24.90234375,64.453125,0.0
2034.95703125,-38.0859375,-33.203125,-39.0625,-35.15625,86.42578125,0.0
2034.9609375,-37.109375,-29.78515625,-41.50390625,-46.875,-16.11328125,0.0
2034.96484375,-41.9921875,-29.296875,-38.57421875,-42.96875,-30.76171875,0.0
2034.96875,-38.0859375,-28.80859375,-28.80859375,-37.59765625,-34.1796875,0.0
2034.97265625,-24.4140625,-31.73828125,-28.80859375,-30.2734375,-35.15625,0.0
2034.9765625,-25.87890625,-32.2265625,-39.55078125,-38.0859375,50.29296875,0.0
2034.98046875,-24.4140625,-28.80859375,-39.0625,-42.96875,10.25390625,0.0
2034.984375,-23.4375,-32.2265625,-38.57421875,-34.66796875,-14.6484375,0.0
2034.98828125,-26.3671875,-35.15625,-38.57421875,-33.69140625,13.18359375,0.0
2034.9921875,-23.4375,-31.25,-32.2265625,-27.34375,12.20703125,0.0
2034.99609375,-27.34375,-32.2265625,-32.71484375,-33.203125,-36.1328125,0.0
2035.0,-30.2734375,-28.80859375,-34.66796875,-43.45703125,-77.1484375,0.0
2035.00390625,-27.34375,-27.83203125,-29.78515625,-31.73828125,-83.49609375,0.0
2035.0078125,-27.83203125,-28.80859375,-27.83203125,-22.4609375,-33.69140625,0.0
2035.01171875,-25.87890625,-28.80859375,-20.5078125,-22.4609375,11.71875,0.0
2035.015625,-26.3671875,-34.66796875,-19.04296875,-26.3671875,-64.453125,0.0
2035.01953125,-26.85546875,-36.1328125,-34.1796875,-25.87890625,-74.70703125,0.0
2035.0234375,-29.78515625,-35.64453125,-35.15625,-25.390625,-75.68359375,0.0
2035.02734375,-32.2265625,-33.69140625,-27.83203125,-23.92578125,-50.29296875,0.0
2035.03125,-28.3203125,-30.76171875,-27.34375,-21.97265625,65.4296875,0.0
2035.03515625,-25.87890625,-31.25,-35.15625,-24.90234375,20.5078125,0.0
2035.0390625,-23.4375,-29.78515625,-36.1328125,-28.3203125,-21.97265625,0.0
2035.04296875,-32.71484375,-32.71484375,-29.296875,-29.78515625,47.8515625,0.0
2035.046875,-41.50390625,-36.62109375,-30.76171875,-31.73828125,15.625,0.0
2035.05078125,-43.9453125,-35.15625,-35.64453125,-31.25,-3.90625,0.0
2035.0546875,-31.25,-30.76171875,-31.73828125,-25.390625,50.29296875,0.0
2035.05859375,-21.484375,-24.90234375,-15.13671875,-26.85546875,7.8125,0.0
2035.0625,-30.76171875,-29.296875,-20.99609375,-36.1328125,-100.09765625,0.0
2035.06640625,-32.2265625,-30.2734375,-35.15625,-36.1328125,-105.95703125,0.0
2035.0703125,-32.2265625,-29.78515625,-32.2265625,-41.9921875,-107.421875,0.0
2035.07421875,-34.66796875,-29.78515625,-28.3203125,-45.41015625,-85.9375,0.0
2035.078125,-20.99609375,-25.87890625,-30.76171875,-35.15625,-42.48046875,0.0
2035.08203125,-19.04296875,-27.83203125,-30.76171875,-33.203125,-109.375,0.0
2035.0859375,-23.92578125,-21.97265625,-30.76171875,-41.015625,-119.140625,0.0
2035.08984375,-19.53125,-22.94921875,-29.296875,-34.1796875,-116.2109375,0.0
2035.09375,-6.8359375,-23.92578125,-29.78515625,-24.4140625,-170.8984375,0.0
2035.09765625,-4.8828125,-21.484375,-36.1328125,-26.85546875,-93.75,0.0
2035.1015625,-18.06640625,-30.2734375,-26.85546875,-29.296875,-26.85546875,0.0
2035.10546875,-24.90234375,-37.109375,-14.16015625,-29.296875,-18.5546875,0.0
2035.109375,-27.34375,-37.59765625,-28.80859375,-32.2265625,-42.48046875,0.0
2035.11328125,-25.390625,-31.25,-33.203125,-33.203125,4.8828125,0.0
2035.1171875,-23.92578125,-31.25,-27.34375,-36.62109375,9.765625,0.0
2035.12109375,-24.4140625,-35.64453125,-32.2265625,-38.57421875,-75.68359375,0.0
2035.125,-37.109375,-41.50390625,-41.50390625,-44.921875,-127.44140625,0.0
2035.12890625,-41.50390625,-43.9453125,-44.921875,-47.8515625,-176.7578125,0.0
2035.1328125,-33.203125,-37.109375,-40.0390625,-41.9921875,-101.07421875,0.0
2035.13671875,-30.2734375,-31.25,-36.1328125,-33.203125,60.546875,0.0
2035.140625,-29.296875,-31.25,-32.2265625,-26.3671875,31.25,0.0
2035.14453125,-36.62109375,-32.2265625,-28.3203125,-33.69140625,-38.0859375,0.0
2035.1484375,-44.921875,-30.76171875,-33.203125,-43.9453125,18.06640625,0.0
2035.15234375,-38.0859375,-28.80859375,-32.71484375,-36.62109375,25.390625,0.0
2035.15625,-32.2265625,-33.203125,-32.71484375,-28.3203125,8.30078125,0.0
2035.16015625,-38.0859375,-33.69140625,-34.66796875,-29.78515625,9.27734375,0.0
2035.1640625,-38.0859375,-28.3203125,-16.6015625,-32.2265625,-15.625,0.0
2035.16796875,-32.2265625,-30.2734375,-23.4375,-32.2265625,-32.2265625,0.0
2035.171875,-23.92578125,-32.2265625,-34.1796875,-30.76171875,-4.8828125,0.0
2035.17578125,-14.16015625,-30.76171875,-26.85546875,-28.80859375,-5.859375,0.0
2035.1796875,-8.7890625,-30.2734375,-28.3203125,-22.94921875,-17.08984375,0.0
2035.18359375,-14.16015625,-31.25,-31.73828125,-23.92578125,-6.8359375,0.0
2035.1875,-27.34375,-34.66796875,-34.66796875,-34.1796875,-60.05859375,0.0
2035.19140625,-30.76171875,-36.1328125,-34.66796875,-37.109375,-65.4296875,0.0
2035.1953125,-23.4375,-31.73828125,-35.15625,-32.2265625,9.765625,0.0
2035.19921875,-27.83203125,-30.76171875,-34.1796875,-29.78515625,16.6015625,0.0
2035.203125,-37.59765625,-33.203125,-37.109375,-28.3203125,-22.4609375,0.0
2035.20703125,-41.50390625,-33.203125,-36.62109375,-27.83203125,-43.9453125,0.0
2035.2109375,-44.43359375,-35.15625,-25.390625,-32.2265625,-58.10546875,0.0
2035.21484375,-47.36328125,-37.109375,-29.296875,-34.1796875,-10.7421875,0.0
2035.21875,-49.8046875,-35.64453125,-35.64453125,-37.109375,-6.34765625,0.0
2035.22265625,-52.734375,-38.0859375,-34.66796875,-41.50390625,-8.7890625,0.0
2035.2265625,-58.59375,-37.59765625,-37.59765625,-44.921875,-24.4140625,0.0
2035.23046875,-58.59375,-32.71484375,-35.15625,-46.38671875,-73.2421875,0.0
2035.234375,-50.29296875,-32.71484375,-30.76171875,-39.55078125,-26.3671875,0.0
2035.23828125,-43.45703125,-33.203125,-29.78515625,-32.2265625,-41.50390625,0.0
2035.2421875,-46.38671875,-30.76171875,-30.2734375,-36.62109375,-68.84765625,0.0
2035.24609375,-45.41015625,-32.71484375,-34.1796875,-39.55078125,-78.61328125,0.0
2035.25,-44.921875,-35.64453125,-30.2734375,-33.69140625,-49.8046875,0.0
2035.25390625,-36.62109375,-30.2734375,-20.01953125,-26.3671875,16.6015625,0.0
2035.2578125,-27.83203125,-27.83203125,-22.94921875,-18.06640625,68.359375,0.0
2035.26171875,-37.109375,-33.203125,-33.203125,-23.92578125,-3.41796875,0.0
2035.265625,-41.50390625,-38.57421875,-33.203125,-33.69140625,-79.58984375,0.0
2035.26953125,-36.62109375,-41.015625,-28.3203125,-32.2265625,-36.1328125,0.0
2035.2734375,-29.78515625,-37.59765625,-33.203125,-28.80859375,1.953125,0.0
2035.27734375,-27.34375,-34.66796875,-38.0859375,-28.80859375,-34.66796875,0.0
2035.28125,-32.2265625,-33.203125,-35.64453125,-30.2734375,-53.22265625,0.0
2035.28515625,-33.69140625,-31.73828125,-28.3203125,-36.1328125,-52.24609375,0.0
2035.2890625,-33.203125,-32.2265625,-29.296875,-35.15625,-102.5390625,0.0
2035.29296875,-31.73828125,-32.71484375,-29.296875,-33.203125,-142.578125,0.0
2035.296875,-27.83203125,-35.15625,-18.5546875,-33.69140625,-120.60546875,0.0
2035.30078125,-30.2734375,-35.15625,-17.578125,-32.2265625,-22.94921875,0.0
2035.3046875,-39.55078125,-37.109375,-27.83203125,-37.109375,17.08984375,0.0
2035.30859375,-44.921875,-38.0859375,-29.296875,-41.9921875,14.16015625,0.0
2035.3125,-36.62109375,-37.109375,-21.97265625,-34.1796875,40.52734375,0.0
2035.31640625,-28.80859375,-33.69140625,-19.53125,-21.97265625,41.015625,0.0
2035.3203125,-25.87890625,-25.390625,-23.4375,-20.99609375,62.98828125,0.0
2035.32421875,-28.80859375,-28.3203125,-23.92578125,-22.94921875,-33.69140625,0.0
2035.328125,-34.66796875,-34.66796875,-20.99609375,-21.484375,-15.625,0.0
2035.33203125,-30.76171875,-33.203125,-16.6015625,-23.4375,95.21484375,0.0
2035.3359375,-22.94921875,-25.87890625,-18.5546875,-19.04296875,62.5,0.0
2035.33984375,-26.3671875,-26.85546875,-27.34375,-25.390625,-14.16015625,0.0
2035.34375,-38.0859375,-37.109375,-26.85546875,-38.0859375,-140.625,0.0
2035.34765625,-40.52734375,-35.15625,-29.296875,-35.15625,-180.6640625,0.0
2035.3515625,-31.25,-27.34375,-34.1796875,-25.87890625,-86.9140625,0.0
2035.35546875,-30.2734375,-26.85546875,-29.78515625,-19.04296875,-10.25390625,0.0
2035.359375,-35.15625,-27.83203125,-29.296875,-27.34375,-11.71875,0.0
2035.36328125,-36.1328125,-31.73828125,-31.73828125,-35.15625,-62.5,0.0
2035.3671875,-34.1796875,-36.1328125,-28.80859375,-29.78515625,-107.91015625,0.0
2035.37109375,-30.76171875,-31.73828125,-28.80859375,-26.85546875,-69.3359375,0.0
2035.375,-27.83203125,-30.2734375,-32.2265625,-29.78515625,-33.69140625,0.0
2035.37890625,-26.85546875,-29.78515625,-33.203125,-31.73828125,-11.23046875,0.0
2035.3828125,-25.87890625,-25.87890625,-32.71484375,-33.69140625,-38.57421875,0.0
2035.38671875,-32.71484375,-32.71484375,-32.71484375,-37.59765625,-98.6328125,0.0
2035.390625,-34.1796875,-37.59765625,-31.73828125,-35.64453125,-66.89453125,0.0
2035.39453125,-24.4140625,-35.15625,-34.1796875,-37.109375,38.57421875,0.0
2035.3984375,-18.06640625,-30.2734375,-34.66796875,-35.64453125,80.078125,0.0
2035.40234375,-20.5078125,-31.25,-25.87890625,-27.34375,76.171875,0.0
2035.40625,-27.34375,-36.1328125,-28.3203125,-34.66796875,26.3671875,0.0
2035.41015625,-30.2734375,-37.59765625,-31.25,-37.59765625,3.90625,0.0
2035.4140625,-25.87890625,-34.66796875,-26.3671875,-26.3671875,43.45703125,0.0
2035.41796875,-27.34375,-33.69140625,-27.83203125,-24.4140625,10.25390625,0.0
2035.421875,-31.73828125,-37.59765625,-28.80859375,-26.85546875,-82.03125,0.0
2035.42578125,-30.76171875,-36.1328125,-31.73828125,-27.83203125,-67.3828125,0.0
2035.4296875,-27.83203125,-31.25,-30.2734375,-25.87890625,-104.00390625,0.0
2035.43359375,-21.484375,-29.296875,-20.5078125,-21.484375,-138.18359375,0.0
2035.4375,-15.13671875,-27.83203125,-16.11328125,-13.671875,-46.875,0.0
2035.44140625,-10.7421875,-25.390625,-21.484375,-10.25390625,71.77734375,0.0
2035.4453125,-17.578125,-32.2265625,-20.99609375,-13.671875,48.33984375,0.0
2035.44921875,-24.90234375,-41.9921875,-25.87890625,-22.4609375,-78.61328125,0.0
2035.453125,-19.53125,-39.55078125,-31.73828125,-29.78515625,3.90625,0.0
2035.45703125,-16.11328125,-30.2734375,-30.76171875,-27.34375,49.31640625,0.0
2035.4609375,-19.04296875,-26.3671875,-28.3203125,-20.5078125,-76.171875,0.0
2035.46484375,-25.87890625,-27.34375,-27.83203125,-20.99609375,-28.3203125,0.0
2035.46875,-32.71484375,-28.80859375,-31.25,-24.4140625,-12.6953125,0.0
2035.47265625,-26.3671875,-29.296875,-30.76171875,-23.4375,-13.18359375,0.0
2035.4765625,-19.04296875,-22.4609375,-27.83203125,-24.4140625,-31.73828125,0.0
2035.48046875,-23.92578125,-20.5078125,-28.3203125,-30.2734375,-97.65625,0.0
2035.484375,-38.57421875,-31.25,-32.2265625,-38.0859375,-57.6171875,0.0
2035.48828125,-41.015625,-32.71484375,-27.83203125,-35.64453125,-82.03125,0.0
2035.4921875,-34.1796875,-29.296875,-19.53125,-27.83203125,-134.27734375,0.0
2035.49609375,-38.57421875,-35.15625,-23.4375,-32.71484375,-147.94921875,0.0
2035.5,-40.52734375,-31.73828125,-26.85546875,-35.15625,-69.82421875,0.0
2035.50390625,-41.50390625,-34.66796875,-28.3203125,-33.69140625,-42.48046875,0.0
2035.5078125,-43.45703125,-35.15625,-34.66796875,-41.015625,-120.1171875,0.0
2035.51171875,-37.59765625,-26.3671875,-31.73828125,-42.96875,-69.82421875,0.0
2035.515625,-30.2734375,-26.3671875,-30.2734375,-35.15625,-20.99609375,0.0
2035.51953125,-24.4140625,-26.3671875,-32.2265625,-31.25,-38.57421875,0.0
2035.5234375,-28.80859375,-23.4375,-32.2265625,-33.203125,-57.6171875,0.0
2035.52734375,-39.55078125,-32.71484375,-35.64453125,-37.59765625,-31.73828125,0.0
2035.53125,-31.25,-34.66796875,-33.69140625,-37.109375,-47.36328125,0.0
2035.53515625,-15.625,-31.73828125,-29.296875,-31.25,-75.1953125,0.0
2035.5390625,-17.08984375,-35.15625,-25.390625,-26.3671875,-72.265625,0.0
2035.54296875,-22.94921875,-31.73828125,-32.2265625,-26.85546875,-24.90234375,0.0
2035.546875,-24.4140625,-29.296875,-40.0390625,-27.83203125,44.43359375,0.0
2035.55078125,-27.34375,-29.296875,-34.1796875,-27.34375,11.71875,0.0
2035.5546875,-20.5078125,-27.34375,-31.73828125,-27.83203125,-42.96875,0.0
2035.55859375,-19.53125,-33.203125,-31.73828125,-24.90234375,-2.44140625,0.0
2035.5625,-34.1796875,-39.0625,-30.2734375,-25.390625,-24.4140625,0.0
2035.56640625,-39.0625,-40.0390625,-29.296875,-29.296875,-131.34765625,0.0
2035.5703125,-34.1796875,-34.1796875,-31.25,-34.1796875,-178.7109375,0.0
2035.57421875,-31.73828125,-29.296875,-32.71484375,-33.69140625,-84.9609375,0.0
2035.578125,-40.52734375,-31.73828125,-31.25,-29.78515625,19.04296875,0.0
2035.58203125,-44.43359375,-35.64453125,-26.85546875,-27.83203125,13.671875,0.0
2035.5859375,-47.36328125,-40.0390625,-26.85546875,-28.80859375,-44.43359375,0.0
2035.58984375,-47.36328125,-39.55078125,-32.71484375,-34.1796875,-42.48046875,0.0
2035.59375,-40.52734375,-33.203125,-27.83203125,-36.62109375,32.2265625,0.0
2035.59765625,-38.57421875,-31.73828125,-21.484375,-33.69140625,-29.296875,0.0
2035.6015625,-38.0859375,-29.296875,-30.2734375,-33.69140625,-105.95703125,0.0
2035.60546875,-38.57421875,-29.296875,-36.62109375,-40.0390625,-44.43359375,0.0
2035.609375,-33.203125,-27.83203125,-33.69140625,-38.57421875,-122.0703125,0.0
2035.61328125,-22.94921875,-22.94921875,-30.76171875,-33.203125,-182.12890625,0.0
2035.6171875,-16.11328125,-23.92578125,-28.80859375,-35.64453125,-97.16796875,0.0
2035.62109375,-21.97265625,-30.2734375,-33.203125,-39.55078125,-112.3046875,0.0
2035.625,-28.3203125,-37.59765625,-31.73828125,-36.1328125,-111.328125,0.0
2035.62890625,-32.71484375,-36.1328125,-19.53125,-38.57421875,-69.3359375,0.0
2035.6328125,-30.76171875,-29.296875,-21.484375,-36.1328125,-17.08984375,0.0
2035.63671875,-20.99609375,-27.83203125,-27.34375,-29.296875,62.01171875,0.0
2035.640625,-27.83203125,-32.2265625,-26.85546875,-39.0625,57.6171875,0.0
2035.64453125,-36.1328125,-34.1796875,-31.25,-45.8984375,51.7578125,0.0
2035.6484375,-38.0859375,-30.76171875,-32.71484375,-41.9921875,43.45703125,0.0
2035.65234375,-36.1328125,-32.71484375,-32.2265625,-38.57421875,-16.11328125,0.0
2035.65625,-31.73828125,-33.69140625,-27.83203125,-35.64453125,12.6953125,0.0
2035.66015625,-34.66796875,-32.2265625,-26.85546875,-34.66796875,-5.859375,0.0
2035.6640625,-34.66796875,-30.2734375,-27.34375,-35.64453125,-34.1796875,0.0
2035.66796875,-35.15625,-26.85546875,-33.69140625,-39.0625,51.26953125,0.0
2035.671875,-35.15625,-28.3203125,-13.18359375,-36.1328125,22.4609375,0.0
2035.67578125,-33.203125,-32.71484375,2.44140625,-31.25,-80.078125,0.0
2035.6796875,-36.62109375,-34.66796875,-31.25,-36.62109375,-72.265625,0.0
2035.68359375,-44.43359375,-33.69140625,-41.9921875,-41.9921875,-54.6875,0.0
2035.6875,-40.52734375,-28.3203125,-28.3203125,-41.015625,-16.6015625,0.0
2035.69140625,-31.73828125,-27.34375,-24.4140625,-41.015625,-50.78125,0.0
2035.6953125,-26.85546875,-23.92578125,-39.0625,-39.0625,-69.3359375,0.0
2035.69921875,-24.4140625,-24.90234375,-41.015625,-31.73828125,-42.48046875,0.0
2035.703125,-20.5078125,-26.85546875,-38.0859375,-34.1796875,-118.65234375,0.0
2035.70703125,-19.04296875,-30.2734375,-40.52734375,-42.96875,-119.62890625,0.0
2035.7109375,-23.4375,-33.69140625,-41.50390625,-33.69140625,-125.9765625,0.0
2035.71484375,-17.578125,-28.3203125,-35.15625,-17.08984375,-89.84375,0.0
2035.71875,-14.6484375,-30.76171875,-16.6015625,-15.625,-89.84375,0.0
2035.72265625,-23.4375,-33.203125,-18.06640625,-23.92578125,-103.515625,0.0
2035.7265625,-27.34375,-26.3671875,-35.15625,-29.296875,-37.59765625,0.0
2035.73046875,-26.3671875,-24.90234375,-32.71484375,-32.2265625,-84.47265625,0.0
2035.734375,-27.83203125,-29.296875,-31.73828125,-30.76171875,-49.31640625,0.0
2035.73828125,-25.390625,-29.78515625,-31.73828125,-23.4375,-13.18359375,0.0
2035.7421875,-29.78515625,-29.78515625,-27.34375,-31.25,-72.265625,0.0
2035.74609375,-43.45703125,-35.15625,-26.3671875,-32.2265625,-93.75,0.0
2035.75,-50.78125,-36.62109375,-23.92578125,-29.296875,-43.9453125,0.0
2035.75390625,-45.41015625,-35.64453125,-19.53125,-30.2734375,-5.859375,0.0
2035.7578125,-41.015625,-36.1328125,-22.94921875,-26.85546875,-48.33984375,0.0
2035.76171875,-43.45703125,-36.1328125,-17.08984375,-29.78515625,-73.2421875,0.0
2035.765625,-52.24609375,-41.50390625,-19.04296875,-34.1796875,-35.15625,0.0
2035.76953125,-53.22265625,-40.0390625,-31.73828125,-40.0390625,-26.3671875,0.0
2035.7734375,-41.9921875,-34.1796875,-37.109375,-41.015625,-1.46484375,0.0
2035.77734375,-34.66796875,-32.71484375,-23.4375,-31.25,72.265625,0.0
2035.78125,-33.69140625,-35.15625,-6.34765625,-30.76171875,-10.7421875,0.0
2035.78515625,-39.55078125,-41.9921875,-29.296875,-39.55078125,-51.7578125,0.0
2035.7890625,-41.9921875,-43.9453125,-43.9453125,-41.015625,-10.7421875,0.0
2035.79296875,-32.2265625,-37.109375,-41.015625,-32.71484375,-15.13671875,0.0
2035.796875,-27.83203125,-30.76171875,-39.0625,-26.3671875,-10.25390625,0.0
2035.80078125,-34.1796875,-31.73828125,-38.0859375,-36.1328125,-13.18359375,0.0
2035.8046875,-37.109375,-29.78515625,-36.62109375,-37.109375,-49.31640625,0.0
2035.80859375,-36.1328125,-26.3671875,-9.27734375,-32.2265625,-66.89453125,0.0
2035.8125,-30.2734375,-31.25,-14.6484375,-33.203125,-87.40234375,0.0
2035.81640625,-23.4375,-30.2734375,-42.48046875,-29.296875,-108.3984375,0.0
2035.8203125,-26.3671875,-29.296875,-39.0625,-29.296875,29.296875,0.0
2035.82421875,-32.2265625,-33.69140625,-35.15625,-33.203125,164.0625,0.0
2035.828125,-26.85546875,-34.66796875,-39.55078125,-35.64453125,100.5859375,0.0
2035.83203125,-20.01953125,-35.64453125,-39.0625,-42.96875,-17.578125,0.0
2035.8359375,-20.5078125,-32.71484375,-29.78515625,-43.45703125,-36.1328125,0.0
2035.83984375,-23.92578125,-29.78515625,-27.83203125,-41.50390625,-25.390625,0.0
2035.84375,-35.64453125,-33.69140625,-34.1796875,-37.59765625,-68.84765625,0.0
2035.84765625,-45.41015625,-34.66796875,-36.1328125,-32.71484375,-101.5625,0.0
2035.8515625,-44.43359375,-32.2265625,-22.94921875,-33.69140625,-82.03125,0.0
2035.85546875,-46.38671875,-28.80859375,-21.484375,-32.2265625,11.71875,0.0
2035.859375,-47.36328125,-30.2734375,-32.2265625,-32.71484375,72.265625,0.0
2035.86328125,-52.24609375,-37.109375,-39.0625,-36.62109375,104.4921875,0.0
2035.8671875,-57.6171875,-38.0859375,-23.92578125,-37.59765625,136.71875,0.0
2035.87109375,-40.52734375,-33.203125,-7.8125,-27.34375,94.23828125,0.0
2035.875,-20.5078125,-32.2265625,-31.25,-21.484375,3.90625,0.0
2035.87890625,-13.671875,-31.73828125,-37.59765625,-24.90234375,-38.57421875,0.0
2035.8828125,-16.11328125,-31.73828125,-28.3203125,-31.73828125,-42.48046875,0.0
2035.88671875,-16.11328125,-30.2734375,-31.73828125,-36.1328125,-48.828125,0.0
2035.890625,-11.71875,-24.90234375,-36.1328125,-32.2265625,7.8125,0.0
2035.89453125,-10.7421875,-27.34375,-31.73828125,-26.3671875,7.8125,0.0
2035.8984375,-15.13671875,-26.3671875,-27.83203125,-32.2265625,-43.45703125,0.0
2035.90234375,-20.99609375,-24.90234375,-26.85546875,-33.203125,-54.19921875,0.0
2035.90625,-30.2734375,-31.73828125,-31.73828125,-26.3671875,-38.0859375,0.0
2035.91015625,-36.1328125,-33.69140625,-29.296875,-29.296875,-80.078125,0.0
2035.9140625,-35.15625,-30.2734375,-12.20703125,-32.71484375,-112.3046875,0.0
2035.91796875,-38.57421875,-33.69140625,-26.3671875,-40.52734375,-43.45703125,0.0
2035.921875,-44.921875,-41.015625,-46.38671875,-45.41015625,-66.89453125,0.0
2035.92578125,-43.9453125,-40.0390625,-43.9453125,-42.48046875,-147.4609375,0.0
2035.9296875,-44.921875,-37.109375,-41.9921875,-36.62109375,-126.46484375,0.0
2035.93359375,-41.015625,-37.59765625,-38.57421875,-34.66796875,-74.70703125,0.0
2035.9375,-34.66796875,-34.1796875,-33.203125,-32.2265625,-32.71484375,0.0
2035.94140625,-31.25,-35.15625,-27.83203125,-29.78515625,-62.98828125,0.0
2035.9453125,-30.76171875,-37.109375,-26.85546875,-36.1328125,-59.08203125,0.0
2035.94921875,-32.2265625,-37.59765625,-30.2734375,-27.34375,-7.32421875,0.0
2035.953125,-24.90234375,-35.64453125,-30.2734375,-18.06640625,41.9921875,0.0
2035.95703125,-16.6015625,-36.62109375,-27.34375,-21.97265625,67.87109375,0.0
2035.9609375,-16.6015625,-41.9921875,-16.6015625,-23.92578125,53.7109375,0.0
2035.96484375,-24.4140625,-40.0390625,-26.85546875,-32.2265625,-50.78125,0.0
2035.96875,-31.25,-38.57421875,-38.0859375,-34.1796875,-97.16796875,0.0
2035.97265625,-23.4375,-38.0859375,-36.1328125,-29.78515625,-75.1953125,0.0
2035.9765625,-20.01953125,-32.71484375,-34.66796875,-27.34375,-40.52734375,0.0
2035.98046875,-24.90234375,-34.66796875,-34.1796875,-22.4609375,-23.92578125,0.0
2035.984375,-28.3203125,-35.15625,-29.78515625,-15.625,-4.39453125,0.0
2035.98828125,-34.1796875,-33.203125,-22.94921875,-13.671875,-18.06640625,0.0
2035.9921875,-34.1796875,-32.71484375,-25.87890625,-22.4609375,-37.59765625,0.0
2035.99609375,-33.203125,-32.71484375,-28.80859375,-28.80859375,-12.6953125,0.0
2036.0,-40.52734375,-35.15625,-25.390625,-29.78515625,-15.13671875,0.0
2036.00390625,-51.7578125,-36.1328125,-23.92578125,-34.66796875,-26.3671875,0.0
2036.0078125,-51.26953125,-35.15625,-34.1796875,-43.9453125,31.25,0.0
2036.01171875,-41.50390625,-31.25,-34.1796875,-43.9453125,113.28125,0.0
2036.015625,-41.50390625,-30.2734375,-26.3671875,-37.59765625,-71.2890625,0.0
2036.01953125,-43.9453125,-33.203125,-28.80859375,-34.1796875,-228.02734375,0.0
2036.0234375,-40.52734375,-29.78515625,-32.2265625,-37.109375,-160.15625,0.0
2036.02734375,-41.9921875,-30.76171875,-33.203125,-35.64453125,-160.64453125,0.0
2036.03125,-41.9921875,-35.15625,-31.73828125,-31.73828125,-201.66015625,0.0
2036.03515625,-36.1328125,-37.109375,-28.80859375,-35.15625,-181.15234375,0.0
2036.0390625,-31.25,-33.69140625,-24.90234375,-28.80859375,-139.16015625,0.0
2036.04296875,-33.69140625,-29.78515625,-31.25,-26.85546875,-37.109375,0.0
2036.046875,-35.15625,-33.69140625,-18.5546875,-32.71484375,-0.48828125,0.0
2036.05078125,-31.73828125,-40.0390625,17.08984375,-26.85546875,-56.15234375,0.0
2036.0546875,-29.296875,-39.0625,-6.8359375,-25.87890625,29.78515625,0.0
2036.05859375,-26.3671875,-36.62109375,-35.64453125,-33.203125,39.0625,0.0
2036.0625,-26.85546875,-35.64453125,-28.80859375,-29.78515625,-14.6484375,0.0
2036.06640625,-34.1796875,-34.66796875,-30.76171875,-27.34375,2.44140625,0.0
2036.0703125,-32.2265625,-33.203125,-35.64453125,-27.83203125,-48.33984375,0.0
2036.07421875,-24.4140625,-30.2734375,-33.69140625,-26.3671875,-38.57421875,0.0
2036.078125,-31.73828125,-32.71484375,-34.66796875,-32.2265625,-6.8359375,0.0
2036.08203125,-42.48046875,-35.64453125,-38.0859375,-33.203125,-32.2265625,0.0
2036.0859375,-39.55078125,-35.64453125,-35.64453125,-32.71484375,-13.671875,0.0
2036.08984375,-36.1328125,-34.66796875,-32.71484375,-30.2734375,-62.01171875,0.0
2036.09375,-34.1796875,-26.85546875,-18.5546875,-25.390625,-110.3515625,0.0
2036.09765625,-27.34375,-23.92578125,-15.625,-23.92578125,-60.05859375,0.0
2036.1015625,-33.69140625,-30.76171875,-35.64453125,-33.203125,-2.44140625,0.0
2036.10546875,-41.015625,-33.203125,-40.0390625,-38.57421875,20.5078125,0.0
2036.109375,-38.57421875,-31.25,-39.55078125,-41.50390625,40.0390625,0.0
2036.11328125,-35.64453125,-29.78515625,-40.0390625,-40.0390625,54.19921875,0.0
2036.1171875,-25.390625,-25.390625,-37.109375,-31.73828125,26.3671875,0.0
2036.12109375,-22.94921875,-25.87890625,-35.64453125,-32.2265625,16.11328125,0.0
2036.125,-26.85546875,-26.3671875,-36.1328125,-34.66796875,25.390625,0.0
2036.12890625,-27.83203125,-26.3671875,-36.1328125,-41.9921875,-40.52734375,0.0
2036.1328125,-24.90234375,-27.83203125,-40.0390625,-38.0859375,-91.796875,0.0
2036.13671875,-16.6015625,-23.92578125,-29.296875,-30.2734375,-15.625,0.0
2036.140625,-24.90234375,-27.34375,-20.99609375,-43.45703125,-25.87890625,0.0
2036.14453125,-31.73828125,-30.76171875,-37.59765625,-50.29296875,-52.734375,0.0
2036.1484375,-30.2734375,-27.34375,-47.8515625,-42.96875,-14.6484375,0.0
2036.15234375,-19.53125,-24.90234375,-25.87890625,-36.62109375,-35.15625,0.0
2036.15625,-14.6484375,-26.3671875,-13.671875,-39.0625,-20.01953125,0.0
2036.16015625,-28.3203125,-33.203125,-37.109375,-41.015625,-17.08984375,0.0
2036.1640625,-39.55078125,-32.2265625,-36.62109375,-35.15625,-109.375,0.0
2036.16796875,-45.41015625,-34.66796875,-33.69140625,-35.64453125,-114.74609375,0.0
2036.171875,-46.38671875,-38.57421875,-41.9921875,-41.015625,-53.22265625,0.0
2036.17578125,-34.66796875,-32.71484375,-42.48046875,-32.71484375,-80.56640625,0.0
2036.1796875,-34.1796875,-28.80859375,-37.59765625,-30.76171875,-69.3359375,0.0
2036.18359375,-47.8515625,-36.1328125,-28.3203125,-40.0390625,-48.828125,0.0
2036.1875,-55.6640625,-41.50390625,-28.80859375,-43.45703125,-55.17578125,0.0
2036.19140625,-57.12890625,-34.66796875,-39.0625,-45.8984375,-31.25,0.0
2036.1953125,-49.8046875,-30.76171875,-35.15625,-41.50390625,-52.734375,0.0
2036.19921875,-44.921875,-36.62109375,-33.203125,-38.57421875,-62.98828125,0.0
2036.203125,-46.875,-38.0859375,-38.57421875,-41.50390625,40.52734375,0.0
2036.20703125,-53.22265625,-35.15625,-40.0390625,-38.0859375,32.2265625,0.0
2036.2109375,-51.26953125,-35.64453125,-36.62109375,-35.15625,-40.52734375,0.0
2036.21484375,-42.96875,-34.66796875,-34.66796875,-35.64453125,38.0859375,0.0
2036.21875,-37.59765625,-30.2734375,-38.0859375,-39.0625,64.94140625,0.0
2036.22265625,-29.296875,-31.73828125,-41.9921875,-39.55078125,1.46484375,0.0
2036.2265625,-29.78515625,-35.64453125,-37.109375,-38.57421875,-61.5234375,0.0
2036.23046875,-27.83203125,-35.15625,-34.1796875,-37.109375,-90.8203125,0.0
2036.234375,-16.11328125,-33.203125,-38.57421875,-29.78515625,-69.3359375,0.0
2036.23828125,-12.20703125,-25.87890625,-37.59765625,-31.73828125,-38.57421875,0.0
2036.2421875,-13.671875,-24.4140625,-35.15625,-33.203125,-54.19921875,0.0
2036.24609375,-13.18359375,-29.296875,-37.59765625,-30.2734375,-102.05078125,0.0
2036.25,-12.20703125,-30.76171875,-39.55078125,-24.4140625,-80.078125,0.0
2036.25390625,-10.25390625,-27.34375,-39.0625,-24.90234375,-25.87890625,0.0
2036.2578125,-13.18359375,-28.3203125,-35.64453125,-34.1796875,-11.23046875,0.0
2036.26171875,-18.5546875,-30.76171875,-37.59765625,-38.57421875,-13.671875,0.0
2036.265625,-28.3203125,-36.62109375,-42.96875,-39.55078125,46.38671875,0.0
2036.26953125,-28.3203125,-38.0859375,-41.015625,-40.52734375,69.82421875,0.0
2036.2734375,-28.80859375,-35.15625,-34.66796875,-41.015625,20.5078125,0.0
2036.27734375,-33.69140625,-32.71484375,-38.0859375,-44.43359375,37.109375,0.0
2036.28125,-35.64453125,-33.69140625,-42.96875,-41.50390625,-7.32421875,0.0
2036.28515625,-39.55078125,-37.59765625,-36.62109375,-40.0390625,-49.8046875,0.0
2036.2890625,-37.59765625,-35.64453125,-27.34375,-36.1328125,-6.34765625,0.0
2036.29296875,-37.109375,-33.203125,-24.90234375,-28.80859375,9.27734375,0.0
2036.296875,-32.2265625,-31.73828125,-30.2734375,-30.2734375,-14.16015625,0.0
2036.30078125,-29.78515625,-32.2265625,-27.83203125,-25.87890625,-46.875,0.0
2036.3046875,-41.50390625,-35.15625,-27.34375,-30.2734375,-42.48046875,0.0
2036.30859375,-42.48046875,-37.59765625,-32.2265625,-31.25,7.32421875,0.0
2036.3125,-30.76171875,-33.203125,-30.76171875,-16.6015625,39.55078125,0.0
2036.31640625,-25.87890625,-26.3671875,-22.4609375,-16.6015625,40.52734375,0.0
2036.3203125,-34.66796875,-29.78515625,-23.92578125,-27.34375,-30.76171875,0.0
2036.32421875,-44.43359375,-34.1796875,-33.203125,-33.203125,-203.125,0.0
2036.328125,-46.38671875,-31.25,-37.109375,-33.203125,-230.46875,0.0
2036.33203125,-45.8984375,-31.73828125,-23.4375,-30.76171875,-235.83984375,0.0
2036.3359375,-44.921875,-32.2265625,-6.8359375,-41.9921875,-212.890625,0.0
2036.33984375,-42.96875,-32.71484375,-23.4375,-49.31640625,-144.53125,0.0
2036.34375,-41.015625,-35.64453125,-35.64453125,-45.41015625,-56.15234375,0.0
2036.34765625,-43.45703125,-36.62109375,-34.1796875,-48.828125,-19.04296875,0.0
2036.3515625,-36.1328125,-32.71484375,-35.15625,-44.921875,-92.7734375,0.0
2036.35546875,-24.90234375,-30.76171875,-37.109375,-33.69140625,-196.77734375,0.0
2036.359375,-15.625,-26.3671875,-35.15625,-28.80859375,-149.4140625,0.0
2036.36328125,-16.6015625,-25.87890625,-31.73828125,-32.71484375,0.48828125,0.0
2036.3671875,-20.99609375,-26.85546875,-33.69140625,-39.55078125,31.73828125,0.0
2036.37109375,-15.13671875,-25.390625,-34.1796875,-36.1328125,40.52734375,0.0
2036.375,-9.27734375,-30.2734375,-30.76171875,-29.296875,3.41796875,0.0
2036.37890625,-11.23046875,-30.76171875,-26.3671875,-27.83203125,-54.6875,0.0
2036.3828125,-22.94921875,-31.25,-29.296875,-36.1328125,-29.296875,0.0
2036.38671875,-29.296875,-33.203125,-33.69140625,-35.64453125,20.5078125,0.0
2036.390625,-30.2734375,-31.25,-28.3203125,-34.66796875,28.80859375,0.0
2036.39453125,-38.57421875,-35.64453125,-11.23046875,-39.55078125,5.37109375,0.0
2036.3984375,-37.109375,-32.71484375,-19.04296875,-37.109375,47.8515625,0.0
2036.40234375,-46.38671875,-28.3203125,-33.203125,-42.48046875,16.6015625,0.0
2036.40625,-64.453125,-37.59765625,-34.1796875,-49.8046875,-18.5546875,0.0
2036.41015625,-56.640625,-38.0859375,-39.55078125,-44.43359375,-34.1796875,0.0
2036.4140625,-40.0390625,-23.92578125,-32.71484375,-38.0859375,-95.21484375,0.0
2036.41796875,-41.015625,-20.99609375,-29.78515625,-41.9921875,-37.109375,0.0
2036.421875,-40.0390625,-28.80859375,-29.78515625,-43.9453125,-26.85546875,0.0
2036.42578125,-37.109375,-36.62109375,-26.85546875,-42.48046875,-33.203125,0.0
2036.4296875,-31.25,-36.1328125,-34.1796875,-35.15625,-11.71875,0.0
2036.43359375,-20.99609375,-25.390625,-36.1328125,-29.296875,9.765625,0.0
2036.4375,-10.25390625,-19.04296875,-24.4140625,-26.3671875,114.2578125,0.0
2036.44140625,-8.30078125,-24.90234375,-22.94921875,-25.87890625,95.21484375,0.0
2036.4453125,-21.484375,-28.80859375,-37.109375,-30.76171875,29.296875,0.0
2036.44921875,-25.87890625,-27.83203125,-36.62109375,-26.85546875,23.4375,0.0
2036.453125,-16.6015625,-27.34375,-30.2734375,-24.4140625,0.0,0.0
2036.45703125,-17.08984375,-30.2734375,-28.3203125,-27.34375,28.3203125,0.0
2036.4609375,-22.94921875,-27.83203125,-31.73828125,-31.25,-14.16015625,0.0
2036.46484375,-30.2734375,-33.203125,-37.109375,-35.15625,-73.73046875,0.0
2036.46875,-40.0390625,-43.9453125,-15.13671875,-35.15625,-110.83984375,0.0
2036.47265625,-37.59765625,-41.9921875,-15.13671875,-31.25,-81.54296875,0.0
2036.4765625,-32.2265625,-37.59765625,-34.1796875,-27.83203125,-29.296875,0.0
2036.48046875,-34.1796875,-37.59765625,-33.69140625,-24.90234375,-106.93359375,0.0
2036.484375,-45.8984375,-39.55078125,-37.59765625,-30.2734375,-49.8046875,0.0
2036.48828125,-49.31640625,-41.9921875,-39.0625,-36.62109375,45.41015625,0.0
2036.4921875,-42.96875,-33.69140625,-39.0625,-33.203125,42.96875,0.0
2036.49609375,-40.0390625,-28.80859375,-28.3203125,-32.2265625,62.5,0.0
2036.5,-46.38671875,-34.1796875,-26.85546875,-33.203125,48.33984375,0.0
2036.50390625,-47.8515625,-35.64453125,-38.57421875,-29.78515625,-68.84765625,0.0
2036.5078125,-46.38671875,-34.1796875,-40.0390625,-31.25,-159.1796875,0.0
2036.51171875,-44.43359375,-29.78515625,-15.13671875,-32.2265625,-119.140625,0.0
2036.515625,-39.0625,-31.73828125,-1.46484375,-37.59765625,-141.11328125,0.0
2036.51953125,-43.9453125,-34.1796875,-28.80859375,-37.109375,-114.74609375,0.0
2036.5234375,-52.24609375,-36.62109375,-41.015625,-36.1328125,12.20703125,0.0
2036.52734375,-50.29296875,-39.55078125,-19.04296875,-35.64453125,-2.44140625,0.0
2036.53125,-44.43359375,-42.48046875,-11.71875,-34.1796875,-27.83203125,0.0
2036.53515625,-33.203125,-41.015625,-33.203125,-27.83203125,10.7421875,0.0
2036.5390625,-28.80859375,-35.15625,-39.0625,-31.25,35.15625,0.0
2036.54296875,-36.62109375,-36.1328125,-34.1796875,-39.55078125,15.625,0.0
2036.546875,-33.69140625,-39.55078125,-33.203125,-34.1796875,19.53125,0.0
2036.55078125,-33.203125,-40.0390625,-42.48046875,-29.296875,15.13671875,0.0
2036.5546875,-28.3203125,-36.62109375,-39.0625,-28.80859375,-23.4375,0.0
2036.55859375,-26.85546875,-41.9921875,-14.6484375,-31.25,-92.28515625,0.0
2036.5625,-29.296875,-46.875,-20.99609375,-34.1796875,-198.73046875,0.0
2036.56640625,-30.76171875,-45.41015625,-43.45703125,-40.0390625,-83.984375,0.0
2036.5703125,-38.57421875,-41.50390625,-40.52734375,-40.52734375,16.6015625,0.0
2036.57421875,-27.34375,-35.64453125,-36.1328125,-30.76171875,20.99609375,0.0
2036.578125,-23.4375,-33.69140625,-35.64453125,-28.80859375,-11.71875,0.0
2036.58203125,-34.1796875,-34.1796875,-38.0859375,-38.0859375,-32.2265625,0.0
2036.5859375,-35.64453125,-32.71484375,-40.0390625,-39.55078125,-20.99609375,0.0
2036.58984375,-34.1796875,-33.203125,-41.50390625,-41.015625,-19.53125,0.0
2036.59375,-29.296875,-34.1796875,-38.0859375,-37.59765625,-29.296875,0.0
2036.59765625,-23.4375,-32.71484375,-39.55078125,-35.15625,-51.7578125,0.0
2036.6015625,-29.296875,-28.80859375,-30.2734375,-39.0625,1.953125,0.0
2036.60546875,-37.109375,-32.71484375,-10.7421875,-41.50390625,31.73828125,0.0
2036.609375,-39.0625,-39.0625,-26.3671875,-43.45703125,55.17578125,0.0
2036.61328125,-35.64453125,-35.15625,-41.015625,-39.55078125,71.77734375,0.0
2036.6171875,-35.15625,-34.66796875,-32.71484375,-41.50390625,-21.97265625,0.0
2036.62109375,-35.15625,-32.2265625,-31.73828125,-49.8046875,-25.87890625,0.0
2036.625,-43.45703125,-35.15625,-36.1328125,-49.31640625,54.19921875,0.0
2036.62890625,-48.33984375,-36.62109375,-40.0390625,-48.33984375,1.953125,0.0
2036.6328125,-38.0859375,-30.76171875,-41.015625,-52.734375,-60.546875,0.0
2036.63671875,-35.64453125,-33.203125,-38.0859375,-50.29296875,-24.4140625,0.0
2036.640625,-40.52734375,-34.1796875,-40.0390625,-48.828125,71.2890625,0.0
2036.64453125,-44.921875,-33.69140625,-40.52734375,-48.33984375,125.0,0.0
2036.6484375,-43.45703125,-36.1328125,-37.109375,-46.875,75.1953125,0.0
2036.65234375,-35.15625,-34.1796875,-35.15625,-33.203125,20.5078125,0.0
2036.65625,-25.87890625,-35.15625,-30.76171875,-23.4375,-1.953125,0.0
2036.66015625,-29.296875,-38.57421875,-25.87890625,-20.01953125,-46.875,0.0
2036.6640625,-37.59765625,-39.55078125,-7.8125,-20.5078125,-42.48046875,0.0
2036.66796875,-31.25,-37.109375,-12.6953125,-20.01953125,-97.65625,0.0
2036.671875,-22.4609375,-36.1328125,-33.203125,-13.671875,-123.53515625,0.0
2036.67578125,-17.578125,-31.25,-26.3671875,-12.6953125,4.8828125,0.0
2036.6796875,-23.4375,-29.78515625,-29.296875,-20.5078125,53.22265625,0.0
2036.68359375,-38.0859375,-34.66796875,-38.0859375,-24.4140625,41.9921875,0.0
2036.6875,-42.96875,-39.0625,-40.0390625,-29.296875,-32.71484375,0.0
2036.69140625,-44.921875,-40.0390625,-39.0625,-33.69140625,-86.42578125,0.0
2036.6953125,-44.43359375,-35.64453125,-38.0859375,-39.55078125,-82.51953125,0.0
2036.69921875,-43.9453125,-35.64453125,-41.015625,-45.8984375,-22.4609375,0.0
2036.703125,-48.828125,-41.9921875,-44.43359375,-37.59765625,43.45703125,0.0
2036.70703125,-52.734375,-47.36328125,-21.97265625,-34.66796875,33.203125,0.0
2036.7109375,-52.734375,-44.921875,13.18359375,-38.0859375,-80.56640625,0.0
2036.71484375,-49.8046875,-42.96875,-8.7890625,-44.43359375,-86.42578125,0.0
2036.71875,-46.875,-40.0390625,-44.921875,-46.875,0.48828125,0.0
2036.72265625,-42.96875,-37.109375,-44.921875,-46.875,-28.80859375,0.0
2036.7265625,-50.78125,-38.0859375,-42.96875,-55.6640625,3.41796875,0.0
2036.73046875,-53.22265625,-36.62109375,-41.50390625,-55.6640625,50.29296875,0.0
2036.734375,-43.9453125,-31.25,-43.45703125,-40.52734375,17.578125,0.0
2036.73828125,-40.0390625,-30.76171875,-43.45703125,-34.1796875,25.87890625,0.0
2036.7421875,-41.50390625,-34.1796875,-39.55078125,-35.15625,-20.01953125,0.0
2036.74609375,-40.52734375,-40.52734375,-44.43359375,-33.203125,-115.72265625,0.0
2036.75,-41.9921875,-43.45703125,-45.41015625,-36.1328125,-164.55078125,0.0
2036.75390625,-37.109375,-39.55078125,-17.08984375,-29.296875,-216.796875,0.0
2036.7578125,-26.85546875,-34.66796875,-18.06640625,-25.390625,-94.7265625,0.0
2036.76171875,-27.34375,-33.69140625,-40.52734375,-29.296875,-27.34375,0.0
2036.765625,-37.109375,-36.62109375,-32.2265625,-23.4375,-60.546875,0.0
2036.76953125,-40.52734375,-38.57421875,-30.2734375,-22.94921875,-59.08203125,0.0
2036.7734375,-34.1796875,-37.109375,-38.57421875,-25.390625,-29.296875,0.0
2036.77734375,-34.66796875,-35.15625,-34.1796875,-20.5078125,38.0859375,0.0
2036.78125,-41.50390625,-39.0625,-31.73828125,-26.3671875,-12.20703125,0.0
2036.78515625,-51.26953125,-44.921875,-33.69140625,-29.78515625,-23.4375,0.0
2036.7890625,-51.7578125,-40.0390625,-34.66796875,-33.203125,28.80859375,0.0
2036.79296875,-41.50390625,-36.1328125,-31.73828125,-32.71484375,-11.71875,0.0
2036.796875,-37.59765625,-36.62109375,-20.5078125,-27.34375,-6.34765625,0.0
2036.80078125,-38.57421875,-31.25,-18.5546875,-32.2265625,-33.69140625,0.0
2036.8046875,-42.48046875,-29.78515625,-39.0625,-42.96875,-36.1328125,0.0
2036.80859375,-45.41015625,-31.25,-43.9453125,-44.921875,-35.15625,0.0
2036.8125,-41.50390625,-27.83203125,-34.66796875,-37.109375,-62.98828125,0.0
2036.81640625,-26.85546875,-24.90234375,-30.76171875,-32.71484375,-96.19140625,0.0
2036.8203125,-22.4609375,-26.85546875,-28.80859375,-39.0625,-157.71484375,0.0
2036.82421875,-32.2265625,-30.76171875,-33.203125,-46.38671875,-107.421875,0.0
2036.828125,-32.2265625,-34.1796875,-38.57421875,-48.828125,-83.0078125,0.0
2036.83203125,-27.83203125,-36.62109375,-34.1796875,-41.9921875,-57.6171875,0.0
2036.8359375,-19.04296875,-34.66796875,-32.71484375,-36.62109375,-32.2265625,0.0
2036.83984375,-10.25390625,-30.2734375,-36.62109375,-36.62109375,-78.61328125,0.0
2036.84375,-15.13671875,-33.69140625,-23.4375,-36.62109375,-97.65625,0.0
2036.84765625,-22.94921875,-38.0859375,-25.390625,-35.15625,-132.32421875,0.0
2036.8515625,-22.4609375,-34.1796875,-34.66796875,-29.296875,-105.95703125,0.0
2036.85546875,-25.87890625,-30.2734375,-32.2265625,-29.296875,-113.28125,0.0
2036.859375,-27.34375,-30.2734375,-30.2734375,-24.4140625,-103.515625,0.0
2036.86328125,-36.62109375,-35.15625,-28.80859375,-26.85546875,-31.73828125,0.0
2036.8671875,-43.45703125,-36.1328125,-34.1796875,-32.2265625,-49.8046875,0.0
2036.87109375,-41.015625,-29.78515625,-36.1328125,-33.69140625,-36.62109375,0.0
2036.875,-29.78515625,-21.97265625,-31.25,-27.83203125,4.8828125,0.0
2036.87890625,-24.90234375,-24.90234375,-30.2734375,-28.3203125,-13.18359375,0.0
2036.8828125,-36.62109375,-26.85546875,-34.66796875,-36.1328125,-11.71875,0.0
2036.88671875,-43.45703125,-31.73828125,-27.83203125,-36.1328125,-69.82421875,0.0
2036.890625,-44.921875,-39.0625,-3.90625,-38.57421875,-135.7421875,0.0
2036.89453125,-33.69140625,-30.76171875,-12.6953125,-34.66796875,-47.8515625,0.0
2036.8984375,-32.71484375,-28.3203125,-36.1328125,-38.0859375,51.7578125,0.0
2036.90234375,-46.38671875,-40.0390625,-29.296875,-47.8515625,20.01953125,0.0
2036.90625,-49.31640625,-46.875,-27.83203125,-44.43359375,-27.83203125,0.0
2036.91015625,-47.36328125,-40.52734375,-36.1328125,-44.43359375,-46.875,0.0
2036.9140625,-39.55078125,-30.2734375,-32.71484375,-47.36328125,19.04296875,0.0
2036.91796875,-26.3671875,-26.3671875,-32.71484375,-46.38671875,37.59765625,0.0
2036.921875,-25.87890625,-25.87890625,-35.15625,-44.43359375,19.53125,0.0
2036.92578125,-31.25,-29.296875,-38.0859375,-42.48046875,29.78515625,0.0
2036.9296875,-36.62109375,-32.71484375,-38.0859375,-49.31640625,65.4296875,0.0
2036.93359375,-35.64453125,-31.73828125,-21.484375,-58.59375,47.36328125,0.0
2036.9375,-30.2734375,-37.109375,-25.87890625,-49.31640625,18.06640625,0.0
2036.94140625,-24.4140625,-36.1328125,-42.48046875,-41.50390625,104.98046875,0.0
2036.9453125,-27.34375,-35.15625,-35.15625,-39.0625,21.97265625,0.0
2036.94921875,-30.2734375,-37.59765625,-26.3671875,-31.73828125,-85.44921875,0.0
2036.953125,-21.484375,-39.0625,-26.85546875,-24.90234375,-90.8203125,0.0
2036.95703125,-16.6015625,-37.59765625,-25.390625,-18.06640625,-64.94140625,0.0
2036.9609375,-21.97265625,-31.73828125,-19.53125,-20.5078125,-61.5234375,0.0
2036.96484375,-34.66796875,-33.203125,-21.97265625,-24.4140625,-85.44921875,0.0
2036.96875,-45.41015625,-40.0390625,-29.296875,-21.484375,-68.359375,0.0
2036.97265625,-47.36328125,-42.48046875,-27.34375,-20.5078125,-87.40234375,0.0
2036.9765625,-43.45703125,-33.203125,-16.11328125,-22.4609375,-10.7421875,0.0
2036.98046875,-47.36328125,-38.0859375,-21.97265625,-29.78515625,7.32421875,0.0
2036.984375,-54.6875,-43.45703125,-34.66796875,-38.57421875,-25.390625,0.0
2036.98828125,-56.640625,-36.62109375,-33.69140625,-39.0625,8.7890625,0.0
2036.9921875,-54.19921875,-35.64453125,-30.76171875,-38.57421875,12.6953125,0.0
2036.99609375,-47.36328125,-37.109375,-30.2734375,-36.1328125,-14.6484375,0.0
2037.0,-44.921875,-36.62109375,-27.83203125,-27.83203125,-22.4609375,0.0
2037.00390625,-48.828125,-35.64453125,-33.203125,-29.78515625,-41.015625,0.0
2037.0078125,-44.921875,-40.0390625,-20.5078125,-33.69140625,-46.38671875,0.0
2037.01171875,-38.57421875,-37.59765625,-10.7421875,-33.203125,-110.83984375,0.0
2037.015625,-32.71484375,-33.69140625,-35.15625,-31.73828125,-126.953125,0.0
2037.01953125,-24.4140625,-35.15625,-41.015625,-24.90234375,-107.421875,0.0
2037.0234375,-20.99609375,-34.66796875,-33.203125,-25.390625,-183.10546875,0.0
2037.02734375,-23.92578125,-33.69140625,-35.64453125,-33.203125,-107.91015625,0.0
2037.03125,-20.01953125,-32.2265625,-40.52734375,-35.15625,49.8046875,0.0
2037.03515625,-15.625,-30.76171875,-39.0625,-36.62109375,-13.671875,0.0
2037.0390625,-17.08984375,-24.90234375,-30.2734375,-30.76171875,-54.19921875,0.0
2037.04296875,-26.3671875,-22.94921875,-30.76171875,-31.73828125,8.7890625,0.0
2037.046875,-32.2265625,-31.25,-36.1328125,-38.57421875,-36.1328125,0.0
2037.05078125,-32.71484375,-31.25,-34.1796875,-36.62109375,60.05859375,0.0
2037.0546875,-32.71484375,-29.78515625,-32.71484375,-38.57421875,68.359375,0.0
2037.05859375,-34.66796875,-36.1328125,-36.62109375,-41.015625,-54.19921875,0.0
2037.0625,-42.48046875,-36.1328125,-39.55078125,-45.8984375,20.01953125,0.0
2037.06640625,-47.36328125,-34.66796875,-37.59765625,-53.7109375,35.15625,0.0
2037.0703125,-45.8984375,-31.73828125,-31.73828125,-41.9921875,-19.04296875,0.0
2037.07421875,-37.59765625,-34.66796875,-27.83203125,-28.3203125,-71.77734375,0.0
2037.078125,-36.1328125,-36.62109375,-26.85546875,-30.2734375,6.8359375,0.0
2037.08203125,-49.31640625,-34.66796875,-19.53125,-39.0625,26.85546875,0.0
2037.0859375,-57.6171875,-38.57421875,-7.32421875,-40.52734375,-63.4765625,0.0
2037.08984375,-52.734375,-39.0625,-27.34375,-42.96875,-24.4140625,0.0
2037.09375,-43.45703125,-32.2265625,-35.64453125,-40.52734375,-57.12890625,0.0
2037.09765625,-29.296875,-27.83203125,-24.90234375,-33.203125,-68.84765625,0.0
2037.1015625,-26.85546875,-28.3203125,-31.25,-35.64453125,-37.109375,0.0
2037.10546875,-29.78515625,-30.2734375,-39.0625,-37.109375,-63.4765625,0.0
2037.109375,-22.94921875,-36.62109375,-39.55078125,-39.55078125,-127.44140625,0.0
2037.11328125,-19.53125,-36.62109375,-36.1328125,-37.109375,-111.81640625,0.0
2037.1171875,-12.6953125,-31.73828125,-35.64453125,-33.203125,-21.97265625,0.0
2037.12109375,-12.20703125,-32.71484375,-35.64453125,-27.83203125,-15.625,0.0
2037.125,-16.6015625,-34.1796875,-31.73828125,-27.34375,31.25,0.0
2037.12890625,-19.04296875,-34.1796875,-21.97265625,-26.3671875,15.625,0.0
2037.1328125,-19.04296875,-32.71484375,-25.390625,-22.4609375,-39.0625,0.0
2037.13671875,-16.11328125,-30.2734375,-34.66796875,-23.4375,38.0859375,0.0
2037.140625,-19.04296875,-31.25,-32.2265625,-23.4375,1.46484375,0.0
2037.14453125,-31.25,-40.52734375,-28.3203125,-29.78515625,-74.21875,0.0
2037.1484375,-38.0859375,-44.921875,-33.203125,-34.1796875,-83.0078125,0.0
2037.15234375,-43.45703125,-45.41015625,-33.203125,-27.34375,-113.28125,0.0
2037.15625,-41.015625,-39.55078125,-19.53125,-16.6015625,-82.03125,0.0
2037.16015625,-36.1328125,-37.109375,-18.5546875,-22.4609375,-61.03515625,0.0
2037.1640625,-44.921875,-41.9921875,-32.2265625,-31.73828125,-2.44140625,0.0
2037.16796875,-47.36328125,-35.15625,-37.109375,-28.3203125,86.42578125,0.0
2037.171875,-49.8046875,-32.71484375,-32.2265625,-34.1796875,-33.69140625,0.0
2037.17578125,-52.24609375,-38.0859375,-27.83203125,-38.57421875,-76.66015625,0.0
2037.1796875,-47.8515625,-36.62109375,-37.109375,-42.48046875,29.296875,0.0
2037.18359375,-44.43359375,-33.203125,-35.64453125,-42.96875,5.37109375,0.0
2037.1875,-41.50390625,-35.15625,-30.2734375,-41.015625,-69.3359375,0.0
2037.19140625,-38.0859375,-39.0625,-29.78515625,-43.45703125,-152.34375,0.0
2037.1953125,-29.78515625,-33.203125,-35.15625,-42.48046875,-89.84375,0.0
2037.19921875,-27.83203125,-31.73828125,-40.0390625,-44.43359375,3.90625,0.0
2037.203125,-34.1796875,-35.64453125,-42.96875,-51.26953125,29.78515625,0.0
2037.20703125,-33.203125,-37.109375,-40.0390625,-44.921875,-1.953125,0.0
2037.2109375,-33.203125,-33.69140625,-35.64453125,-37.59765625,-32.2265625,0.0
2037.21484375,-37.109375,-31.25,-45.41015625,-50.29296875,-24.4140625,0.0
2037.21875,-30.2734375,-35.15625,-35.64453125,-47.8515625,-73.73046875,0.0
2037.22265625,-34.1796875,-38.0859375,-28.80859375,-47.36328125,-83.984375,0.0
2037.2265625,-45.8984375,-35.15625,-40.0390625,-51.7578125,9.27734375,0.0
2037.23046875,-44.921875,-34.1796875,-38.0859375,-37.59765625,14.16015625,0.0
2037.234375,-44.921875,-37.109375,-36.1328125,-32.71484375,-59.08203125,0.0
2037.23828125,-39.55078125,-34.1796875,-33.69140625,-33.69140625,-45.8984375,0.0
2037.2421875,-36.62109375,-31.73828125,-31.73828125,-36.1328125,-16.11328125,0.0
2037.24609375,-45.8984375,-37.59765625,-33.69140625,-37.59765625,33.203125,0.0
2037.25,-47.36328125,-40.52734375,-35.64453125,-32.71484375,-42.48046875,0.0
2037.25390625,-35.64453125,-38.57421875,-30.2734375,-34.1796875,-52.24609375,0.0
2037.2578125,-33.203125,-29.78515625,-30.2734375,-37.109375,10.7421875,0.0
2037.26171875,-35.64453125,-24.90234375,-22.4609375,-30.76171875,-18.5546875,0.0
2037.265625,-40.0390625,-31.25,-10.7421875,-27.83203125,26.3671875,0.0
2037.26953125,-47.36328125,-33.203125,-23.4375,-38.0859375,14.16015625,0.0
2037.2734375,-47.8515625,-28.3203125,-34.1796875,-40.0390625,-51.7578125,0.0
2037.27734375,-43.9453125,-31.25,-23.92578125,-27.34375,-13.18359375,0.0
2037.28125,-42.48046875,-34.66796875,-22.94921875,-28.80859375,-35.15625,0.0
2037.28515625,-47.8515625,-38.0859375,-35.15625,-32.71484375,-57.12890625,0.0
2037.2890625,-48.828125,-40.0390625,-30.2734375,-32.2265625,-17.578125,0.0
2037.29296875,-40.0390625,-39.55078125,-26.3671875,-28.80859375,-34.66796875,0.0
2037.296875,-34.66796875,-39.55078125,-27.83203125,-25.87890625,-2.44140625,0.0
2037.30078125,-33.69140625,-38.57421875,-30.2734375,-30.2734375,2.9296875,0.0
2037.3046875,-34.66796875,-38.0859375,-33.203125,-39.0625,-89.84375,0.0
2037.30859375,-36.62109375,-36.1328125,-28.80859375,-39.55078125,-113.76953125,0.0
2037.3125,-28.80859375,-34.66796875,-26.85546875,-38.0859375,-32.2265625,0.0
2037.31640625,-15.13671875,-32.2265625,-36.1328125,-42.96875,-16.6015625,0.0
2037.3203125,-14.16015625,-37.109375,-37.59765625,-36.1328125,-69.82421875,0.0
2037.32421875,-24.90234375,-40.0390625,-37.59765625,-40.52734375,-84.47265625,0.0
2037.328125,-27.83203125,-34.66796875,-38.57421875,-38.0859375,3.41796875,0.0
2037.33203125,-27.34375,-33.203125,-39.55078125,-32.71484375,75.68359375,0.0
2037.3359375,-24.90234375,-28.3203125,-32.2265625,-30.2734375,-4.8828125,0.0
2037.33984375,-26.85546875,-27.34375,-29.296875,-21.484375,-35.64453125,0.0
2037.34375,-32.2265625,-33.69140625,-33.69140625,-20.01953125,28.3203125,0.0
2037.34765625,-33.69140625,-37.59765625,-33.203125,-23.4375,-35.64453125,0.0
2037.3515625,-37.59765625,-31.25,-26.3671875,-25.87890625,-150.87890625,0.0
2037.35546875,-33.69140625,-28.80859375,-21.484375,-20.99609375,-133.30078125,0.0
2037.359375,-32.71484375,-37.59765625,-25.87890625,-18.06640625,-69.3359375,0.0
2037.36328125,-38.0859375,-32.71484375,-27.83203125,-20.5078125,-71.2890625,0.0
2037.3671875,-42.48046875,-30.76171875,-21.97265625,-28.80859375,-124.51171875,0.0
2037.37109375,-41.50390625,-39.0625,-21.484375,-27.34375,-208.0078125,0.0
2037.375,-29.296875,-35.64453125,-29.296875,-24.4140625,-194.3359375,0.0
2037.37890625,-28.3203125,-34.1796875,-35.15625,-35.15625,-35.64453125,0.0
2037.3828125,-32.2265625,-32.2265625,-31.73828125,-37.59765625,20.01953125,0.0
2037.38671875,-36.1328125,-30.76171875,-28.3203125,-34.66796875,-67.87109375,0.0
2037.390625,-36.1328125,-35.64453125,-34.66796875,-45.8984375,-38.0859375,0.0
2037.39453125,-26.3671875,-32.71484375,-36.1328125,-45.41015625,-4.39453125,0.0
2037.3984375,-22.4609375,-28.3203125,-35.64453125,-41.9921875,-73.2421875,0.0
2037.40234375,-24.90234375,-32.71484375,-39.0625,-45.8984375,-135.7421875,0.0
2037.40625,-29.78515625,-36.62109375,-39.55078125,-40.0390625,-200.1953125,0.0
2037.41015625,-33.203125,-35.15625,-37.109375,-37.109375,-218.26171875,0.0
2037.4140625,-27.34375,-26.85546875,-27.83203125,-29.78515625,-87.890625,0.0
2037.41796875,-26.85546875,-23.92578125,-26.3671875,-20.01953125,45.41015625,0.0
2037.421875,-30.2734375,-25.87890625,-30.76171875,-21.484375,63.4765625,0.0
2037.42578125,-38.57421875,-29.78515625,-30.2734375,-35.15625,4.39453125,0.0
2037.4296875,-41.015625,-32.2265625,-31.25,-33.69140625,-38.0859375,0.0
2037.43359375,-40.52734375,-30.76171875,-26.85546875,-23.4375,110.83984375,0.0
2037.4375,-43.45703125,-31.73828125,-31.25,-32.2265625,123.046875,0.0
2037.44140625,-40.0390625,-31.73828125,-33.203125,-29.78515625,32.2265625,0.0
2037.4453125,-48.33984375,-33.203125,-31.73828125,-33.203125,92.7734375,0.0
2037.44921875,-54.19921875,-37.109375,-40.52734375,-45.8984375,9.27734375,0.0
2037.453125,-51.26953125,-36.1328125,-45.41015625,-47.36328125,-100.09765625,0.0
2037.45703125,-46.875,-33.69140625,-41.50390625,-47.8515625,16.6015625,0.0
2037.4609375,-42.96875,-35.15625,-36.1328125,-43.9453125,38.0859375,0.0
2037.46484375,-42.96875,-36.62109375,-37.109375,-40.52734375,49.8046875,0.0
2037.46875,-41.015625,-37.109375,-39.0625,-38.0859375,97.16796875,0.0
2037.47265625,-41.9921875,-37.109375,-38.0859375,-39.55078125,20.01953125,0.0
2037.4765625,-34.66796875,-30.2734375,-33.203125,-38.0859375,36.62109375,0.0
2037.48046875,-22.94921875,-27.34375,-33.69140625,-36.1328125,31.25,0.0
2037.484375,-20.5078125,-28.80859375,-32.71484375,-37.109375,-39.55078125,0.0
2037.48828125,-21.484375,-28.3203125,-29.78515625,-30.76171875,-19.04296875,0.0
2037.4921875,-16.6015625,-28.3203125,-31.25,-30.76171875,8.7890625,0.0
2037.49609375,-14.16015625,-28.80859375,-35.64453125,-34.66796875,-1.953125,0.0
2037.5,-18.5546875,-32.71484375,-36.1328125,-38.0859375,-34.66796875,0.0
2037.50390625,-22.4609375,-36.62109375,-27.83203125,-42.48046875,-60.05859375,0.0
2037.5078125,-34.66796875,-35.64453125,-30.2734375,-46.38671875,-32.2265625,0.0
2037.51171875,-39.0625,-32.2265625,-33.203125,-40.0390625,-7.8125,0.0
2037.515625,-33.203125,-35.15625,-32.2265625,-38.0859375,11.23046875,0.0
2037.51953125,-40.52734375,-37.59765625,-33.203125,-40.0390625,3.90625,0.0
2037.5234375,-53.7109375,-39.55078125,-32.71484375,-41.9921875,-15.625,0.0
2037.52734375,-53.7109375,-41.015625,-33.69140625,-41.015625,-125.48828125,0.0
2037.53125,-55.17578125,-40.52734375,-31.25,-43.45703125,-177.24609375,0.0
2037.53515625,-54.19921875,-36.62109375,-27.34375,-40.0390625,-76.171875,0.0
2037.5390625,-41.50390625,-30.76171875,-23.92578125,-28.3203125,33.69140625,0.0
2037.54296875,-40.52734375,-34.66796875,-31.73828125,-27.83203125,57.6171875,0.0
2037.546875,-37.59765625,-34.1796875,-25.87890625,-29.78515625,-36.62109375,0.0
2037.55078125,-29.78515625,-26.85546875,1.953125,-29.296875,21.97265625,0.0
2037.5546875,-19.53125,-28.3203125,-7.8125,-25.87890625,31.25,0.0
2037.55859375,-17.578125,-30.2734375,-31.25,-26.85546875,-32.71484375,0.0
2037.5625,-20.5078125,-30.2734375,-29.296875,-30.76171875,6.8359375,0.0
2037.56640625,-24.4140625,-32.71484375,-29.296875,-33.69140625,30.2734375,0.0
2037.5703125,-24.90234375,-32.2265625,-34.66796875,-26.85546875,44.921875,0.0
2037.57421875,-21.97265625,-36.1328125,-36.62109375,-27.34375,68.359375,0.0
2037.578125,-24.90234375,-35.15625,-33.69140625,-32.2265625,16.6015625,0.0
2037.58203125,-27.83203125,-26.3671875,-32.71484375,-30.76171875,-3.90625,0.0
2037.5859375,-37.59765625,-32.2265625,-39.0625,-34.1796875,-39.55078125,0.0
2037.58984375,-38.57421875,-33.69140625,-37.109375,-39.55078125,-75.68359375,0.0
2037.59375,-37.109375,-29.296875,-19.53125,-42.96875,-88.37890625,0.0
2037.59765625,-32.71484375,-28.80859375,-23.4375,-33.203125,-38.57421875,0.0
2037.6015625,-37.109375,-32.71484375,-34.66796875,-35.64453125,42.96875,0.0
2037.60546875,-43.9453125,-35.15625,-28.80859375,-42.48046875,36.62109375,0.0
2037.609375,-40.0390625,-35.15625,-27.83203125,-30.2734375,-41.9921875,0.0
2037.61328125,-35.64453125,-33.203125,-25.390625,-21.97265625,-99.609375,0.0
2037.6171875,-33.69140625,-29.78515625,-27.83203125,-21.97265625,-126.953125,0.0
2037.62109375,-36.1328125,-26.3671875,-16.11328125,-27.34375,-99.609375,0.0
2037.625,-41.015625,-25.390625,-8.30078125,-31.25,-39.55078125,0.0
2037.62890625,-44.43359375,-31.73828125,-27.34375,-25.390625,-12.20703125,0.0
2037.6328125,-40.0390625,-30.2734375,-33.69140625,-25.390625,-17.578125,0.0
2037.63671875,-26.3671875,-24.90234375,-19.04296875,-23.4375,-18.5546875,0.0
2037.640625,-20.5078125,-26.85546875,-11.23046875,-23.92578125,-32.71484375,0.0
2037.64453125,-20.5078125,-24.90234375,-32.2265625,-29.78515625,-55.17578125,0.0
2037.6484375,-18.5546875,-24.4140625,-42.48046875,-29.78515625,-30.2734375,0.0
2037.65234375,-13.671875,-28.80859375,-16.11328125,-20.99609375,-31.25,0.0
2037.65625,-8.30078125,-28.3203125,-2.9296875,-15.13671875,-72.75390625,0.0
2037.66015625,-10.25390625,-26.3671875,-36.1328125,-29.78515625,-40.52734375,0.0
2037.6640625,-14.6484375,-29.296875,-42.96875,-39.0625,-6.34765625,0.0
2037.66796875,-21.484375,-34.1796875,-42.96875,-45.41015625,-22.4609375,0.0
2037.671875,-29.296875,-35.15625,-42.48046875,-49.8046875,-46.38671875,0.0
2037.67578125,-27.34375,-33.69140625,-32.71484375,-37.59765625,17.08984375,0.0
2037.6796875,-29.78515625,-31.25,-30.76171875,-40.0390625,81.0546875,0.0
2037.68359375,-40.0390625,-32.71484375,-16.11328125,-41.50390625,39.0625,0.0
2037.6875,-51.7578125,-41.015625,-22.94921875,-45.8984375,-8.7890625,0.0
2037.69140625,-57.12890625,-45.41015625,-42.96875,-52.734375,-24.90234375,0.0
2037.6953125,-44.43359375,-34.66796875,-37.59765625,-43.45703125,-51.7578125,0.0
2037.69921875,-36.1328125,-30.76171875,-34.66796875,-34.1796875,-103.02734375,0.0
2037.703125,-44.921875,-35.15625,-38.0859375,-33.69140625,-58.59375,0.0
2037.70703125,-48.828125,-33.69140625,-45.8984375,-32.2265625,-46.38671875,0.0
2037.7109375,-37.109375,-29.78515625,-33.203125,-31.25,-43.9453125,0.0
2037.71484375,-31.25,-26.85546875,-20.5078125,-22.94921875,-92.7734375,0.0
2037.71875,-26.3671875,-29.296875,-28.80859375,-26.85546875,-68.84765625,0.0
2037.72265625,-29.296875,-31.25,-35.15625,-33.203125,-9.27734375,0.0
2037.7265625,-33.69140625,-34.1796875,-25.87890625,-29.296875,-4.8828125,0.0
2037.73046875,-30.2734375,-38.0859375,-18.5546875,-34.66796875,29.296875,0.0
2037.734375,-27.34375,-31.25,-34.1796875,-34.66796875,107.421875,0.0
2037.73828125,-27.83203125,-31.73828125,-40.0390625,-30.76171875,126.46484375,0.0
2037.7421875,-32.2265625,-36.1328125,-18.06640625,-37.109375,24.4140625,0.0
2037.74609375,-34.66796875,-36.1328125,-10.25390625,-39.0625,59.5703125,0.0
2037.75,-32.71484375,-38.57421875,-39.55078125,-37.109375,134.765625,0.0
2037.75390625,-26.3671875,-37.109375,-40.0390625,-33.69140625,133.30078125,0.0
2037.7578125,-20.99609375,-33.203125,-39.55078125,-34.66796875,133.30078125,0.0
2037.76171875,-24.90234375,-36.1328125,-43.9453125,-38.57421875,131.34765625,0.0
2037.765625,-32.2265625,-37.59765625,-42.48046875,-33.69140625,37.109375,0.0
2037.76953125,-34.66796875,-36.1328125,-42.48046875,-36.1328125,-47.8515625,0.0
2037.7734375,-33.203125,-35.15625,-34.1796875,-38.57421875,-57.6171875,0.0
2037.77734375,-27.34375,-31.73828125,-33.203125,-28.3203125,-62.01171875,0.0
2037.78125,-27.34375,-34.66796875,-39.55078125,-27.83203125,-48.33984375,0.0
2037.78515625,-34.1796875,-37.59765625,-36.1328125,-33.203125,-30.76171875,0.0
2037.7890625,-36.62109375,-39.55078125,-20.01953125,-33.203125,18.5546875,0.0
2037.79296875,-30.2734375,-39.55078125,-22.4609375,-22.4609375,80.078125,0.0
2037.796875,-20.5078125,-36.62109375,-28.80859375,-11.23046875,73.2421875,0.0
2037.80078125,-26.85546875,-34.1796875,-30.2734375,-26.85546875,59.08203125,0.0
2037.8046875,-44.43359375,-31.73828125,-41.9921875,-46.875,81.0546875,0.0
2037.80859375,-48.33984375,-33.203125,-44.921875,-44.921875,72.75390625,0.0
2037.8125,-38.0859375,-29.78515625,-41.015625,-41.015625,-9.765625,0.0
2037.81640625,-27.83203125,-26.85546875,-39.0625,-43.9453125,-67.3828125,0.0
2037.8203125,-28.80859375,-24.4140625,-39.55078125,-42.48046875,-8.7890625,0.0
2037.82421875,-33.69140625,-24.4140625,-40.52734375,-41.015625,-5.859375,0.0
2037.828125,-42.96875,-32.2265625,-39.55078125,-40.52734375,-90.8203125,0.0
2037.83203125,-40.0390625,-26.3671875,-25.390625,-41.015625,-47.8515625,0.0
2037.8359375,-31.25,-23.92578125,-2.44140625,-40.0390625,-20.5078125,0.0
2037.83984375,-29.78515625,-33.203125,-14.6484375,-37.109375,-12.20703125,0.0
2037.84375,-23.92578125,-35.64453125,-29.78515625,-31.25,30.2734375,0.0
2037.84765625,-40.52734375,-36.62109375,-32.2265625,-29.296875,-48.828125,0.0
2037.8515625,-34.1796875,-30.2734375,-32.71484375,-28.80859375,-97.65625,0.0
2037.85546875,-5.859375,-23.4375,-30.76171875,-18.06640625,-109.375,0.0
2037.859375,-8.7890625,-24.4140625,-31.73828125,-19.04296875,-45.8984375,0.0
2037.86328125,-21.484375,-30.76171875,-35.15625,-26.3671875,-7.32421875,0.0
2037.8671875,-23.4375,-35.15625,-38.0859375,-27.34375,-51.7578125,0.0
2037.87109375,-16.6015625,-31.73828125,-32.2265625,-22.94921875,-64.453125,0.0
2037.875,-13.671875,-26.85546875,-28.3203125,-20.99609375,5.37109375,0.0
2037.87890625,-17.08984375,-26.85546875,-22.94921875,-23.92578125,-23.92578125,0.0
2037.8828125,-22.4609375,-32.71484375,-22.4609375,-28.3203125,-77.63671875,0.0
2037.88671875,-32.71484375,-38.0859375,-35.15625,-31.73828125,-16.6015625,0.0
2037.890625,-36.62109375,-35.15625,-38.57421875,-31.25,17.08984375,0.0
2037.89453125,-20.99609375,-25.87890625,-36.1328125,-31.73828125,5.859375,0.0
2037.8984375,-25.390625,-21.484375,-34.66796875,-35.64453125,-24.4140625,0.0
2037.90234375,-50.78125,-22.94921875,-34.1796875,-33.69140625,10.25390625,0.0
2037.90625,-48.828125,-30.2734375,-32.71484375,-29.78515625,-21.97265625,0.0
2037.91015625,-50.29296875,-34.66796875,-34.66796875,-35.64453125,-19.04296875,0.0
2037.9140625,-47.36328125,-26.3671875,-32.71484375,-32.71484375,25.87890625,0.0
2037.91796875,-38.57421875,-24.90234375,-28.80859375,-25.390625,-2.44140625,0.0
2037.921875,-50.78125,-29.78515625,-21.97265625,-29.296875,40.52734375,0.0
2037.92578125,-64.453125,-35.15625,-17.08984375,-40.52734375,4.8828125,0.0
2037.9296875,-61.5234375,-35.64453125,-28.3203125,-35.64453125,-66.40625,0.0
2037.93359375,-50.29296875,-32.2265625,-34.1796875,-22.4609375,-28.3203125,0.0
2037.9375,-40.52734375,-33.69140625,-20.99609375,-20.5078125,-20.5078125,0.0
2037.94140625,-34.66796875,-32.2265625,-20.01953125,-26.3671875,14.6484375,0.0
2037.9453125,-31.73828125,-32.71484375,-36.1328125,-31.73828125,93.26171875,0.0
2037.94921875,-29.296875,-36.62109375,-39.0625,-36.1328125,88.8671875,0.0
2037.953125,-20.5078125,-34.66796875,-38.57421875,-37.59765625,48.828125,0.0
2037.95703125,-7.8125,-31.25,-39.55078125,-34.66796875,45.8984375,0.0
2037.9609375,-9.765625,-30.2734375,-34.66796875,-33.69140625,38.0859375,0.0
2037.96484375,-18.5546875,-34.1796875,-33.69140625,-36.62109375,-35.64453125,0.0
2037.96875,-22.94921875,-38.0859375,-31.73828125,-41.015625,-42.96875,0.0
2037.97265625,-24.4140625,-40.52734375,-34.1796875,-42.96875,-30.76171875,0.0
2037.9765625,-26.85546875,-40.0390625,-41.50390625,-47.8515625,-98.14453125,0.0
2037.98046875,-31.73828125,-39.55078125,-40.52734375,-49.31640625,-117.67578125,0.0
2037.984375,-38.57421875,-36.1328125,-32.71484375,-41.015625,-90.33203125,0.0
2037.98828125,-46.38671875,-33.203125,-28.80859375,-37.59765625,-65.91796875,0.0
2037.9921875,-46.38671875,-36.62109375,-31.73828125,-39.0625,-44.921875,0.0
2037.99609375,-45.8984375,-36.1328125,-29.296875,-40.0390625,0.0,0.0
2038.0,-41.50390625,-36.1328125,-28.80859375,-35.64453125,-7.32421875,0.0
2038.00390625,-50.78125,-37.59765625,-34.1796875,-31.73828125,-117.67578125,0.0
2038.0078125,-65.91796875,-32.71484375,-37.59765625,-36.62109375,-214.84375,0.0
2038.01171875,-61.5234375,-34.1796875,-27.83203125,-38.0859375,-195.3125,0.0
2038.015625,-55.17578125,-35.15625,-16.11328125,-34.1796875,-51.26953125,0.0
2038.01953125,-47.8515625,-26.85546875,-28.80859375,-32.71484375,16.6015625,0.0
2038.0234375,-42.48046875,-23.92578125,-39.0625,-36.1328125,-110.83984375,0.0
2038.02734375,-41.015625,-27.34375,-21.484375,-41.9921875,-223.6328125,0.0
2038.03125,-37.109375,-28.3203125,-18.06640625,-32.71484375,-203.125,0.0
2038.03515625,-28.3203125,-27.34375,-39.0625,-26.3671875,-83.984375,0.0
2038.0390625,-16.11328125,-22.94921875,-35.15625,-29.78515625,-115.234375,0.0
2038.04296875,-19.53125,-22.94921875,-33.203125,-31.25,-157.2265625,0.0
2038.046875,-29.78515625,-24.90234375,-35.64453125,-35.64453125,-68.359375,0.0
2038.05078125,-26.85546875,-28.3203125,-36.1328125,-31.73828125,-13.18359375,0.0
2038.0546875,-18.5546875,-29.296875,-38.57421875,-25.390625,26.85546875,0.0
2038.05859375,-20.99609375,-27.83203125,-22.94921875,-23.4375,71.77734375,0.0
2038.0625,-32.2265625,-32.2265625,-22.4609375,-34.66796875,32.71484375,0.0
2038.06640625,-34.1796875,-30.76171875,-39.55078125,-45.8984375,21.97265625,0.0
2038.0703125,-37.59765625,-27.34375,-41.015625,-41.015625,18.5546875,0.0
2038.07421875,-39.0625,-28.80859375,-39.55078125,-38.0859375,-79.1015625,0.0
2038.078125,-40.52734375,-29.78515625,-40.52734375,-46.38671875,-125.9765625,0.0
2038.08203125,-58.10546875,-31.73828125,-43.9453125,-61.03515625,-62.98828125,0.0
2038.0859375,-68.359375,-35.15625,-39.0625,-62.01171875,7.32421875,0.0
2038.08984375,-64.453125,-35.15625,-41.015625,-52.24609375,-0.48828125,0.0
2038.09375,-62.01171875,-32.71484375,-44.43359375,-49.31640625,46.875,0.0
2038.09765625,-51.26953125,-31.25,-39.0625,-52.734375,43.9453125,0.0
2038.1015625,-42.96875,-29.78515625,-24.4140625,-53.7109375,-16.6015625,0.0
2038.10546875,-43.9453125,-35.15625,-10.7421875,-45.8984375,-40.0390625,0.0
2038.109375,-41.50390625,-40.0390625,-28.3203125,-41.015625,-72.75390625,0.0
2038.11328125,-31.25,-30.2734375,-40.0390625,-46.38671875,-105.95703125,0.0
2038.1171875,-13.18359375,-27.34375,-23.4375,-37.59765625,-56.640625,0.0
2038.12109375,-8.7890625,-35.64453125,-22.94921875,-30.76171875,37.109375,0.0
2038.125,-13.18359375,-35.15625,-38.57421875,-29.78515625,0.48828125,0.0
2038.12890625,-14.16015625,-31.25,-36.1328125,-28.80859375,-75.1953125,0.0
2038.1328125,-13.671875,-28.3203125,-29.78515625,-31.25,-48.33984375,0.0
2038.13671875,-12.20703125,-26.3671875,-31.25,-25.390625,6.34765625,0.0
2038.140625,-15.625,-25.390625,-35.64453125,-24.4140625,3.90625,0.0
2038.14453125,-22.94921875,-23.4375,-36.62109375,-33.203125,-27.83203125,0.0
2038.1484375,-32.2265625,-27.34375,-33.203125,-42.96875,-48.33984375,0.0
2038.15234375,-27.83203125,-27.83203125,-31.25,-39.55078125,-48.33984375,0.0
2038.15625,-20.5078125,-27.83203125,-35.64453125,-31.73828125,-90.33203125,0.0
2038.16015625,-29.78515625,-31.25,-36.1328125,-41.50390625,-41.9921875,0.0
2038.1640625,-39.55078125,-33.203125,-9.765625,-46.38671875,-21.484375,0.0
2038.16796875,-48.33984375,-36.1328125,-11.71875,-44.43359375,24.4140625,0.0
2038.171875,-52.734375,-38.57421875,-32.71484375,-42.48046875,11.23046875,0.0
2038.17578125,-48.828125,-37.109375,-32.71484375,-41.50390625,-31.73828125,0.0
2038.1796875,-39.55078125,-28.80859375,-30.2734375,-32.71484375,33.69140625,0.0
2038.18359375,-36.62109375,-26.85546875,-29.78515625,-23.92578125,12.20703125,0.0
2038.1875,-47.8515625,-33.203125,-35.64453125,-30.76171875,-58.59375,0.0
2038.19140625,-45.8984375,-31.25,-33.203125,-30.76171875,-55.17578125,0.0
2038.1953125,-30.76171875,-23.4375,-30.2734375,-34.1796875,-47.36328125,0.0
2038.19921875,-23.92578125,-21.484375,-32.71484375,-40.0390625,-13.18359375,0.0
2038.203125,-23.92578125,-24.90234375,-41.015625,-34.66796875,50.78125,0.0
2038.20703125,-27.34375,-29.296875,-34.1796875,-35.64453125,40.52734375,0.0
2038.2109375,-23.4375,-32.71484375,10.25390625,-36.1328125,1.953125,0.0
2038.21484375,-16.11328125,-32.2265625,-1.953125,-33.69140625,0.48828125,0.0
2038.21875,-14.6484375,-27.83203125,-40.0390625,-35.64453125,7.32421875,0.0
2038.22265625,-18.06640625,-26.3671875,-41.015625,-38.0859375,-23.4375,0.0
2038.2265625,-27.34375,-38.0859375,-40.52734375,-36.62109375,7.32421875,0.0
2038.23046875,-31.73828125,-41.015625,-40.52734375,-37.59765625,41.9921875,0.0
2038.234375,-33.69140625,-39.55078125,-42.48046875,-38.57421875,27.83203125,0.0
2038.23828125,-40.0390625,-39.0625,-41.015625,-40.52734375,-3.90625,0.0
2038.2421875,-44.921875,-36.62109375,-45.8984375,-47.8515625,-32.2265625,0.0
2038.24609375,-47.8515625,-40.52734375,-47.36328125,-45.41015625,-52.734375,0.0
2038.25,-51.26953125,-47.8515625,-44.43359375,-40.0390625,-16.11328125,0.0
2038.25390625,-47.8515625,-42.48046875,-30.76171875,-43.45703125,-50.78125,0.0
2038.2578125,-38.57421875,-37.109375,-24.90234375,-37.59765625,-84.47265625,0.0
2038.26171875,-34.1796875,-35.64453125,-43.45703125,-31.73828125,-12.6953125,0.0
2038.265625,-40.0390625,-36.1328125,-42.48046875,-38.57421875,-71.2890625,0.0
2038.26953125,-45.8984375,-36.62109375,-32.2265625,-35.64453125,-128.90625,0.0
2038.2734375,-42.96875,-30.76171875,-44.43359375,-28.3203125,-75.1953125,0.0
2038.27734375,-40.0390625,-30.76171875,-48.33984375,-37.59765625,-43.45703125,0.0
2038.28125,-42.96875,-34.66796875,-43.9453125,-41.50390625,-9.27734375,0.0
2038.28515625,-43.9453125,-36.62109375,-42.48046875,-37.109375,-33.69140625,0.0
2038.2890625,-40.52734375,-35.64453125,-39.55078125,-40.52734375,-220.21484375,0.0
2038.29296875,-36.1328125,-33.69140625,-44.43359375,-43.9453125,-228.515625,0.0
2038.296875,-23.4375,-31.73828125,-27.34375,-35.64453125,-147.94921875,0.0
2038.30078125,-14.6484375,-27.34375,-9.765625,-33.69140625,-147.4609375,0.0
2038.3046875,-20.5078125,-31.25,-35.15625,-33.69140625,-62.98828125,0.0
2038.30859375,-26.85546875,-32.2265625,-48.828125,-38.57421875,19.53125,0.0
2038.3125,-20.01953125,-23.92578125,-33.203125,-42.96875,57.12890625,0.0
2038.31640625,-8.30078125,-20.01953125,-24.4140625,-28.80859375,7.8125,0.0
2038.3203125,-8.7890625,-20.99609375,-35.64453125,-20.5078125,-26.3671875,0.0
2038.32421875,-18.06640625,-22.94921875,-38.0859375,-32.2265625,16.11328125,0.0
2038.328125,-28.3203125,-27.34375,-34.1796875,-41.015625,-32.71484375,0.0
2038.33203125,-25.87890625,-30.2734375,-34.1796875,-35.15625,-108.88671875,0.0
2038.3359375,-27.83203125,-32.2265625,-37.59765625,-31.25,-83.0078125,0.0
2038.33984375,-37.109375,-33.203125,-37.59765625,-32.2265625,-85.9375,0.0
2038.34375,-38.0859375,-37.109375,-9.765625,-34.1796875,-145.99609375,0.0
2038.34765625,-42.48046875,-41.9921875,-8.7890625,-34.66796875,-182.12890625,0.0
2038.3515625,-46.875,-38.0859375,-30.76171875,-32.2265625,-172.36328125,0.0
2038.35546875,-47.8515625,-35.64453125,-29.296875,-30.2734375,-115.234375,0.0
2038.359375,-47.8515625,-37.109375,-34.1796875,-36.62109375,-10.7421875,0.0
2038.36328125,-45.41015625,-40.0390625,-40.0390625,-41.50390625,72.265625,0.0
2038.3671875,-41.9921875,-41.50390625,-36.1328125,-38.57421875,33.69140625,0.0
2038.37109375,-40.0390625,-41.015625,-34.66796875,-34.66796875,0.0,0.0
2038.375,-28.3203125,-32.2265625,-38.57421875,-30.2734375,60.546875,0.0
2038.37890625,-21.97265625,-30.2734375,-36.1328125,-31.25,100.09765625,0.0
2038.3828125,-28.3203125,-29.78515625,-41.50390625,-39.0625,60.05859375,0.0
2038.38671875,-22.4609375,-28.80859375,-25.390625,-41.015625,-28.3203125,0.0
2038.390625,-16.11328125,-36.62109375,10.25390625,-33.69140625,-26.3671875,0.0
2038.39453125,-15.13671875,-31.25,-17.578125,-35.15625,-45.41015625,0.0
2038.3984375,-10.7421875,-30.2734375,-44.43359375,-33.69140625,-103.515625,0.0
2038.40234375,-17.578125,-35.15625,-23.92578125,-29.296875,-62.01171875,0.0
2038.40625,-28.80859375,-35.15625,-20.99609375,-35.15625,-9.27734375,0.0
2038.41015625,-30.2734375,-36.62109375,-35.15625,-40.52734375,-102.5390625,0.0
2038.4140625,-28.80859375,-35.64453125,-31.25,-40.0390625,-95.703125,0.0
2038.41796875,-27.34375,-30.2734375,-29.78515625,-40.52734375,-41.9921875,0.0
2038.421875,-38.0859375,-34.1796875,-31.25,-44.921875,-63.96484375,0.0
2038.42578125,-51.26953125,-41.9921875,-38.0859375,-46.38671875,-111.328125,0.0
2038.4296875,-52.734375,-40.52734375,-47.36328125,-50.29296875,-131.34765625,0.0
2038.43359375,-49.31640625,-36.1328125,-23.92578125,-44.43359375,-97.65625,0.0
2038.4375,-41.9921875,-34.66796875,-23.92578125,-38.0859375,-54.19921875,0.0
2038.44140625,-43.45703125,-33.203125,-47.36328125,-40.52734375,3.90625,0.0
2038.4453125,-51.26953125,-35.15625,-39.0625,-41.015625,-51.7578125,0.0
2038.44921875,-49.31640625,-34.66796875,-16.11328125,-41.015625,-96.19140625,0.0
2038.453125,-34.66796875,-29.296875,-23.92578125,-38.0859375,-0.9765625,0.0
2038.45703125,-26.85546875,-29.78515625,-31.73828125,-30.2734375,72.265625,0.0
2038.4609375,-22.94921875,-30.2734375,-26.85546875,-25.390625,33.69140625,0.0
2038.46484375,-24.4140625,-28.80859375,-31.73828125,-28.3203125,-8.30078125,0.0
2038.46875,-30.76171875,-30.2734375,-35.15625,-34.1796875,-54.6875,0.0
2038.47265625,-34.1796875,-35.64453125,-43.45703125,-37.109375,-72.265625,0.0
2038.4765625,-27.34375,-35.64453125,-29.296875,-31.25,-59.5703125,0.0
2038.48046875,-24.4140625,-31.73828125,-22.94921875,-35.64453125,-27.34375,0.0
2038.484375,-30.76171875,-32.71484375,-43.45703125,-41.015625,-51.7578125,0.0
2038.48828125,-36.1328125,-32.71484375,-41.015625,-29.78515625,-8.7890625,0.0
2038.4921875,-36.1328125,-36.62109375,-22.94921875,-19.53125,53.7109375,0.0
2038.49609375,-31.73828125,-41.015625,-10.25390625,-18.06640625,20.99609375,0.0
2038.5,-34.66796875,-34.1796875,-25.390625,-21.97265625,70.3125,0.0
2038.50390625,-35.64453125,-34.1796875,-36.62109375,-23.92578125,108.3984375,0.0
2038.5078125,-39.0625,-39.0625,-31.25,-22.4609375,50.29296875,0.0
2038.51171875,-49.31640625,-43.9453125,-31.73828125,-24.90234375,50.78125,0.0
2038.515625,-46.875,-39.0625,-38.0859375,-33.203125,106.93359375,0.0
2038.51953125,-43.45703125,-34.66796875,-32.71484375,-32.71484375,92.28515625,0.0
2038.5234375,-49.8046875,-35.15625,-28.80859375,-32.71484375,-68.359375,0.0
2038.52734375,-62.5,-37.109375,-35.15625,-44.921875,-169.921875,0.0
2038.53125,-65.4296875,-38.0859375,-39.0625,-53.7109375,-90.33203125,0.0
2038.53515625,-53.22265625,-37.109375,-37.59765625,-51.26953125,-49.31640625,0.0
2038.5390625,-45.41015625,-41.50390625,-29.296875,-47.8515625,-37.109375,0.0
2038.54296875,-48.828125,-40.52734375,-33.69140625,-45.8984375,-18.5546875,0.0
2038.546875,-55.17578125,-41.9921875,-40.0390625,-44.43359375,-12.20703125,0.0
2038.55078125,-46.38671875,-42.48046875,-35.64453125,-39.0625,-44.43359375,0.0
2038.5546875,-29.296875,-36.1328125,-33.69140625,-28.80859375,-29.296875,0.0
2038.55859375,-23.4375,-32.2265625,-35.15625,-20.5078125,-0.48828125,0.0
2038.5625,-23.4375,-32.2265625,-33.203125,-18.06640625,-8.30078125,0.0
2038.56640625,-25.87890625,-30.2734375,-29.296875,-16.6015625,-1.953125,0.0
2038.5703125,-28.3203125,-30.76171875,-30.2734375,-18.06640625,6.34765625,0.0
2038.57421875,-25.390625,-33.69140625,-31.73828125,-16.6015625,-40.0390625,0.0
2038.578125,-25.87890625,-31.25,-36.1328125,-20.01953125,-46.875,0.0
2038.58203125,-29.296875,-33.203125,-25.390625,-24.90234375,16.6015625,0.0
2038.5859375,-32.71484375,-34.1796875,-4.8828125,-22.94921875,-7.8125,0.0
2038.58984375,-35.64453125,-31.73828125,-25.87890625,-25.390625,-58.10546875,0.0
2038.59375,-36.1328125,-31.25,-40.52734375,-27.34375,-23.4375,0.0
2038.59765625,-32.71484375,-28.80859375,-31.73828125,-24.4140625,48.33984375,0.0
2038.6015625,-36.62109375,-28.80859375,-33.203125,-30.2734375,0.48828125,0.0
2038.60546875,-43.9453125,-33.203125,-38.0859375,-36.1328125,-104.00390625,0.0
2038.609375,-46.38671875,-36.1328125,-32.71484375,-36.1328125,-86.42578125,0.0
2038.61328125,-45.41015625,-35.64453125,-29.78515625,-35.15625,-98.14453125,0.0
2038.6171875,-38.0859375,-32.2265625,-32.71484375,-28.3203125,-144.04296875,0.0
2038.62109375,-38.0859375,-32.71484375,-40.0390625,-35.15625,-153.3203125,0.0
2038.625,-47.36328125,-35.64453125,-40.52734375,-47.36328125,-148.92578125,0.0
2038.62890625,-42.48046875,-39.0625,-23.4375,-42.96875,-141.6015625,0.0
2038.6328125,-27.83203125,-39.0625,-22.94921875,-37.109375,-147.4609375,0.0
2038.63671875,-21.97265625,-31.25,-36.62109375,-39.0625,-40.0390625,0.0
2038.640625,-20.99609375,-31.25,-31.25,-38.57421875,42.48046875,0.0
2038.64453125,-25.390625,-36.62109375,-27.83203125,-36.1328125,-14.6484375,0.0
2038.6484375,-23.4375,-36.62109375,-35.15625,-37.109375,-27.34375,0.0
2038.65234375,-13.671875,-32.2265625,-35.64453125,-35.15625,-47.36328125,0.0
2038.65625,-6.8359375,-30.2734375,-32.71484375,-24.90234375,-73.73046875,0.0
2038.66015625,-9.765625,-29.296875,-33.69140625,-23.92578125,14.16015625,0.0
2038.6640625,-14.16015625,-26.3671875,-32.71484375,-28.3203125,38.0859375,0.0
2038.66796875,-16.11328125,-32.2265625,-34.66796875,-25.390625,-68.84765625,0.0
2038.671875,-21.97265625,-39.0625,-31.25,-25.390625,-48.33984375,0.0
2038.67578125,-20.5078125,-37.59765625,-15.13671875,-24.4140625,42.96875,0.0
2038.6796875,-11.71875,-25.87890625,-20.99609375,-24.90234375,48.33984375,0.0
2038.68359375,-16.11328125,-25.87890625,-35.64453125,-25.390625,-37.109375,0.0
2038.6875,-25.390625,-32.2265625,-32.2265625,-24.90234375,-41.50390625,0.0
2038.69140625,-23.4375,-29.296875,-27.34375,-28.3203125,62.5,0.0
2038.6953125,-17.578125,-23.4375,-29.78515625,-31.73828125,49.8046875,0.0
2038.69921875,-20.99609375,-23.92578125,-30.2734375,-34.66796875,41.50390625,0.0
2038.703125,-28.3203125,-31.73828125,-36.1328125,-42.48046875,20.01953125,0.0
2038.70703125,-37.59765625,-33.203125,-40.0390625,-48.33984375,-81.0546875,0.0
2038.7109375,-39.0625,-28.80859375,-31.25,-40.52734375,-105.46875,0.0
2038.71484375,-43.45703125,-27.83203125,-26.3671875,-38.0859375,-76.171875,0.0
2038.71875,-47.8515625,-31.25,-24.90234375,-44.921875,-29.296875,0.0
2038.72265625,-42.96875,-34.1796875,-27.83203125,-44.43359375,18.06640625,0.0
2038.7265625,-44.921875,-40.0390625,-33.69140625,-44.43359375,-34.66796875,0.0
2038.73046875,-44.921875,-37.59765625,-31.25,-40.0390625,-86.9140625,0.0
2038.734375,-37.109375,-35.15625,-31.73828125,-32.2265625,-1.953125,0.0
2038.73828125,-30.2734375,-34.1796875,-33.69140625,-31.25,16.11328125,0.0
2038.7421875,-34.66796875,-34.1796875,-32.2265625,-28.80859375,5.37109375,0.0
2038.74609375,-36.62109375,-34.1796875,-31.25,-21.97265625,4.39453125,0.0
2038.75,-29.296875,-30.2734375,-31.25,-20.01953125,-25.87890625,0.0
2038.75390625,-22.4609375,-27.34375,-29.296875,-19.53125,-51.7578125,0.0
2038.7578125,-23.4375,-24.90234375,-29.78515625,-20.5078125,-58.10546875,0.0
2038.76171875,-20.5078125,-26.85546875,-18.06640625,-25.87890625,-89.35546875,0.0
2038.765625,-23.92578125,-31.73828125,-4.8828125,-36.1328125,-81.0546875,0.0
2038.76953125,-28.3203125,-31.73828125,-26.3671875,-46.38671875,-60.05859375,0.0
2038.7734375,-24.4140625,-29.78515625,-38.57421875,-45.41015625,-95.703125,0.0
2038.77734375,-16.11328125,-30.76171875,-24.90234375,-34.1796875,-109.86328125,0.0
2038.78125,-12.6953125,-28.80859375,-26.85546875,-31.73828125,-98.6328125,0.0
2038.78515625,-20.99609375,-25.87890625,-34.66796875,-37.109375,12.20703125,0.0
2038.7890625,-34.66796875,-29.78515625,-32.71484375,-37.59765625,72.265625,0.0
2038.79296875,-38.57421875,-33.203125,-36.62109375,-34.1796875,21.97265625,0.0
2038.796875,-33.69140625,-29.78515625,-31.73828125,-28.3203125,66.89453125,0.0
2038.80078125,-40.52734375,-31.25,-32.71484375,-33.203125,23.4375,0.0
2038.8046875,-49.8046875,-37.109375,-36.1328125,-32.2265625,-91.30859375,0.0
2038.80859375,-48.33984375,-39.55078125,-23.4375,-32.71484375,-165.0390625,0.0
2038.8125,-44.921875,-38.0859375,-25.87890625,-34.66796875,-124.0234375,0.0
2038.81640625,-40.52734375,-33.203125,-36.1328125,-27.83203125,-93.75,0.0
2038.8203125,-41.9921875,-36.62109375,-33.203125,-29.296875,-214.35546875,0.0
2038.82421875,-49.8046875,-47.36328125,-32.2265625,-37.109375,-60.546875,0.0
2038.828125,-49.31640625,-45.8984375,-35.64453125,-30.2734375,126.46484375,0.0
2038.83203125,-41.9921875,-42.96875,-37.109375,-26.3671875,74.21875,0.0
2038.8359375,-28.80859375,-40.0390625,-34.1796875,-25.390625,-72.265625,0.0
2038.83984375,-18.06640625,-31.73828125,-31.25,-13.671875,-83.49609375,0.0
2038.84375,-25.390625,-35.15625,-34.1796875,-19.53125,-100.5859375,0.0
2038.84765625,-30.2734375,-37.109375,-34.66796875,-27.34375,-187.98828125,0.0
2038.8515625,-18.06640625,-31.73828125,-21.484375,-22.4609375,-196.2890625,0.0
2038.85546875,-6.8359375,-28.80859375,-11.71875,-17.578125,-142.578125,0.0
2038.859375,-9.765625,-29.78515625,-20.99609375,-19.04296875,-65.4296875,0.0
2038.86328125,-20.99609375,-30.2734375,-26.85546875,-28.80859375,-37.59765625,0.0
2038.8671875,-28.3203125,-34.66796875,-20.99609375,-29.296875,-14.6484375,0.0
2038.87109375,-28.3203125,-41.015625,-16.11328125,-28.3203125,7.8125,0.0
2038.875,-24.90234375,-35.15625,-25.390625,-24.4140625,23.4375,0.0
2038.87890625,-27.34375,-27.83203125,-27.34375,-27.83203125,33.69140625,0.0
2038.8828125,-36.62109375,-30.2734375,-30.2734375,-38.0859375,16.6015625,0.0
2038.88671875,-41.015625,-33.69140625,-28.80859375,-31.73828125,23.4375,0.0
2038.890625,-36.1328125,-35.64453125,-28.3203125,-31.25,38.57421875,0.0
2038.89453125,-29.78515625,-33.69140625,-30.2734375,-40.52734375,0.9765625,0.0
2038.8984375,-23.92578125,-24.4140625,-25.390625,-29.78515625,64.94140625,0.0
2038.90234375,-18.5546875,-21.484375,-24.4140625,-17.08984375,60.546875,0.0
2038.90625,-27.34375,-30.2734375,-30.76171875,-20.99609375,29.78515625,0.0
2038.91015625,-35.64453125,-32.71484375,-31.25,-27.83203125,-6.8359375,0.0
2038.9140625,-36.62109375,-31.73828125,-26.85546875,-30.76171875,-54.6875,0.0
2038.91796875,-31.73828125,-34.1796875,-32.2265625,-24.4140625,4.39453125,0.0
2038.921875,-27.34375,-30.76171875,-32.71484375,-20.99609375,4.39453125,0.0
2038.92578125,-34.1796875,-40.0390625,-32.2265625,-28.3203125,-12.6953125,0.0
2038.9296875,-37.59765625,-47.36328125,-36.1328125,-29.296875,-57.12890625,0.0
2038.93359375,-30.2734375,-42.96875,-35.64453125,-21.484375,-48.33984375,0.0
2038.9375,-23.4375,-42.96875,-33.203125,-23.92578125,87.40234375,0.0
2038.94140625,-21.484375,-39.0625,-26.85546875,-26.3671875,59.08203125,0.0
2038.9453125,-26.3671875,-35.15625,-20.5078125,-19.53125,-29.78515625,0.0
2038.94921875,-32.2265625,-36.62109375,-28.80859375,-21.484375,16.6015625,0.0
2038.953125,-29.296875,-33.203125,-31.73828125,-24.4140625,43.45703125,0.0
2038.95703125,-24.90234375,-28.3203125,-25.87890625,-28.80859375,-6.8359375,0.0
2038.9609375,-25.87890625,-28.80859375,-24.90234375,-32.2265625,-40.52734375,0.0
2038.96484375,-30.76171875,-33.203125,-29.296875,-34.66796875,-2.9296875,0.0
2038.96875,-39.0625,-41.015625,-33.69140625,-42.48046875,-48.828125,0.0
2038.97265625,-38.0859375,-44.921875,-36.1328125,-42.96875,-102.05078125,0.0
2038.9765625,-32.2265625,-35.64453125,-33.69140625,-38.57421875,7.8125,0.0
2038.98046875,-32.2265625,-32.71484375,-33.203125,-37.59765625,56.640625,0.0
2038.984375,-31.73828125,-35.64453125,-32.71484375,-37.109375,54.6875,0.0
2038.98828125,-36.1328125,-34.1796875,-30.2734375,-37.59765625,-57.6171875,0.0
2038.9921875,-34.1796875,-32.2265625,-31.73828125,-35.64453125,-95.21484375,0.0
2038.99609375,-19.53125,-28.3203125,-30.76171875,-27.83203125,19.04296875,0.0
2039.0,-15.13671875,-27.34375,-31.25,-24.90234375,-18.5546875,0.0
2039.00390625,-11.71875,-25.87890625,0.48828125,-24.90234375,-26.85546875,0.0
2039.0078125,-21.97265625,-27.83203125,0.9765625,-32.71484375,-30.76171875,0.0
2039.01171875,-32.71484375,-33.203125,-34.1796875,-36.62109375,-48.33984375,0.0
2039.015625,-23.92578125,-33.203125,-31.73828125,-32.2265625,-41.50390625,0.0
2039.01953125,-19.53125,-28.80859375,-27.34375,-26.3671875,-60.05859375,0.0
2039.0234375,-29.296875,-26.3671875,-34.1796875,-31.73828125,-56.15234375,0.0
2039.02734375,-37.59765625,-30.76171875,-40.0390625,-40.0390625,-122.55859375,0.0
2039.03125,-38.0859375,-28.80859375,-29.296875,-33.69140625,-166.015625,0.0
2039.03515625,-41.015625,-31.73828125,-26.3671875,-35.64453125,-124.51171875,0.0
2039.0390625,-45.41015625,-36.1328125,-30.2734375,-38.0859375,-93.26171875,0.0
2039.04296875,-40.0390625,-34.1796875,-31.25,-30.2734375,-46.875,0.0
2039.046875,-37.109375,-35.64453125,-27.34375,-25.87890625,-47.8515625,0.0
2039.05078125,-44.921875,-38.0859375,-15.625,-27.83203125,-77.63671875,0.0
2039.0546875,-39.55078125,-34.1796875,-23.4375,-35.64453125,0.9765625,0.0
2039.05859375,-30.76171875,-25.87890625,-32.2265625,-38.57421875,136.23046875,0.0
2039.0625,-29.78515625,-26.3671875,-26.85546875,-28.80859375,83.49609375,0.0
2039.06640625,-30.76171875,-28.3203125,-25.87890625,-26.85546875,81.0546875,0.0
2039.0703125,-29.78515625,-26.85546875,-27.83203125,-24.4140625,148.4375,0.0
2039.07421875,-25.390625,-25.87890625,-30.2734375,-15.13671875,-4.8828125,0.0
2039.078125,-19.53125,-26.85546875,-33.203125,-14.6484375,-127.44140625,0.0
2039.08203125,-18.5546875,-30.76171875,-38.0859375,-19.04296875,-124.51171875,0.0
2039.0859375,-21.484375,-25.87890625,-35.15625,-18.06640625,-74.70703125,0.0
2039.08984375,-24.4140625,-25.87890625,-38.57421875,-23.4375,-85.44921875,0.0
2039.09375,-20.5078125,-30.76171875,-31.25,-27.34375,-161.62109375,0.0
2039.09765625,-16.11328125,-28.80859375,-29.78515625,-31.25,-142.578125,0.0
2039.1015625,-17.578125,-24.4140625,-43.45703125,-41.9921875,-18.5546875,0.0
2039.10546875,-25.390625,-27.83203125,-38.57421875,-45.8984375,-6.8359375,0.0
2039.109375,-34.66796875,-32.2265625,-36.1328125,-47.36328125,-36.1328125,0.0
2039.11328125,-35.64453125,-30.2734375,-44.43359375,-41.015625,76.66015625,0.0
2039.1171875,-35.15625,-28.80859375,-42.96875,-34.66796875,62.5,0.0
2039.12109375,-34.1796875,-29.296875,-34.1796875,-32.71484375,-87.40234375,0.0
2039.125,-44.43359375,-36.62109375,-32.2265625,-35.15625,-125.9765625,0.0
2039.12890625,-53.7109375,-43.45703125,-33.203125,-44.921875,-112.79296875,0.0
2039.1328125,-45.41015625,-37.109375,-31.73828125,-36.62109375,-141.11328125,0.0
2039.13671875,-37.109375,-29.78515625,-23.4375,-26.3671875,-90.33203125,0.0
2039.140625,-39.0625,-33.69140625,-21.484375,-31.73828125,-0.9765625,0.0
2039.14453125,-43.45703125,-36.62109375,-30.2734375,-32.71484375,23.92578125,0.0
2039.1484375,-42.96875,-30.76171875,-29.296875,-32.71484375,-16.11328125,0.0
2039.15234375,-39.0625,-30.76171875,-24.4140625,-36.1328125,-138.18359375,0.0
2039.15625,-39.0625,-33.203125,-26.85546875,-32.71484375,-167.96875,0.0
2039.16015625,-40.0390625,-31.25,-27.83203125,-35.15625,-70.80078125,0.0
2039.1640625,-45.41015625,-30.2734375,-26.85546875,-42.48046875,-13.671875,0.0
2039.16796875,-56.15234375,-32.2265625,-26.3671875,-38.57421875,-29.78515625,0.0
2039.171875,-52.24609375,-34.1796875,-28.3203125,-30.76171875,-51.7578125,0.0
2039.17578125,-42.48046875,-33.69140625,-33.69140625,-34.66796875,-35.15625,0.0
2039.1796875,-41.015625,-32.71484375,-35.64453125,-39.0625,-148.92578125,0.0
2039.18359375,-42.48046875,-36.1328125,-31.73828125,-31.73828125,-202.1484375,0.0
2039.1875,-41.015625,-34.66796875,-30.76171875,-31.73828125,-95.703125,0.0
2039.19140625,-41.015625,-30.76171875,-39.55078125,-34.1796875,-81.0546875,0.0
2039.1953125,-31.25,-35.15625,-40.0390625,-28.80859375,-128.90625,0.0
2039.19921875,-19.53125,-35.15625,-38.57421875,-22.4609375,-91.30859375,0.0
2039.203125,-19.04296875,-31.73828125,-38.57421875,-27.34375,31.25,0.0
2039.20703125,-24.90234375,-35.64453125,-41.9921875,-33.69140625,68.84765625,0.0
2039.2109375,-21.484375,-36.62109375,-38.0859375,-30.76171875,-25.87890625,0.0
2039.21484375,-17.08984375,-26.3671875,-31.73828125,-32.71484375,-87.40234375,0.0
2039.21875,-24.90234375,-23.4375,-37.109375,-42.48046875,-20.99609375,0.0
2039.22265625,-32.2265625,-29.78515625,-41.9921875,-54.19921875,-2.44140625,0.0
2039.2265625,-38.0859375,-31.73828125,-41.9921875,-60.05859375,-75.1953125,0.0
2039.23046875,-42.96875,-29.78515625,-38.57421875,-51.26953125,-44.921875,0.0
2039.234375,-47.8515625,-29.78515625,-39.55078125,-47.8515625,28.80859375,0.0
2039.23828125,-44.43359375,-28.80859375,-37.59765625,-43.9453125,-20.01953125,0.0
2039.2421875,-41.9921875,-31.73828125,-25.87890625,-42.48046875,-20.5078125,0.0
2039.24609375,-47.8515625,-38.57421875,-20.99609375,-53.7109375,18.06640625,0.0
2039.25,-47.36328125,-40.52734375,-30.2734375,-48.33984375,-47.8515625,0.0
2039.25390625,-43.45703125,-37.59765625,-29.296875,-40.0390625,-41.50390625,0.0
2039.2578125,-39.0625,-34.66796875,-23.92578125,-37.109375,-10.7421875,0.0
2039.26171875,-38.57421875,-35.15625,-28.80859375,-34.66796875,19.04296875,0.0
2039.265625,-42.48046875,-40.52734375,-35.15625,-37.59765625,-35.64453125,0.0
2039.26953125,-41.9921875,-44.43359375,-37.59765625,-38.57421875,-104.98046875,0.0
2039.2734375,-35.64453125,-41.015625,-29.78515625,-34.66796875,-78.125,0.0
2039.27734375,-19.53125,-34.66796875,-24.90234375,-24.4140625,-60.05859375,0.0
2039.28125,-9.765625,-29.296875,-32.2265625,-22.4609375,-42.48046875,0.0
2039.28515625,-16.6015625,-35.64453125,-34.1796875,-28.80859375,-25.390625,0.0
2039.2890625,-21.484375,-43.45703125,-28.80859375,-27.83203125,25.87890625,0.0
2039.29296875,-19.04296875,-36.62109375,-28.3203125,-27.34375,-23.4375,0.0
2039.296875,-19.53125,-31.73828125,-30.76171875,-31.73828125,-115.234375,0.0
2039.30078125,-20.5078125,-31.25,-30.2734375,-30.2734375,-65.4296875,0.0
2039.3046875,-26.85546875,-32.71484375,-27.34375,-27.83203125,-95.21484375,0.0
2039.30859375,-38.0859375,-37.109375,-25.87890625,-30.76171875,-96.6796875,0.0
2039.3125,-42.96875,-38.57421875,-31.25,-33.69140625,-7.32421875,0.0
2039.31640625,-36.1328125,-36.62109375,-32.71484375,-32.71484375,-20.01953125,0.0
2039.3203125,-31.73828125,-30.2734375,-32.2265625,-33.203125,-75.68359375,0.0
2039.32421875,-41.9921875,-27.83203125,-34.1796875,-40.0390625,-29.296875,0.0
2039.328125,-51.7578125,-30.2734375,-39.55078125,-51.26953125,-104.00390625,0.0
2039.33203125,-51.26953125,-35.15625,-37.109375,-50.29296875,-84.47265625,0.0
2039.3359375,-41.015625,-37.59765625,-20.5078125,-36.62109375,32.2265625,0.0
2039.33984375,-35.15625,-32.2265625,-20.99609375,-39.55078125,33.203125,0.0
2039.34375,-39.0625,-30.2734375,-29.296875,-43.45703125,17.08984375,0.0
2039.34765625,-43.9453125,-32.2265625,-32.71484375,-36.1328125,-22.4609375,0.0
2039.3515625,-40.0390625,-23.92578125,-30.2734375,-31.73828125,-66.40625,0.0
2039.35546875,-26.3671875,-20.99609375,-23.92578125,-30.2734375,-69.3359375,0.0
2039.359375,-19.04296875,-27.34375,-25.87890625,-28.80859375,-6.8359375,0.0
2039.36328125,-27.83203125,-27.83203125,-30.76171875,-32.2265625,13.18359375,0.0
2039.3671875,-41.50390625,-26.85546875,-37.109375,-38.57421875,-45.41015625,0.0
2039.37109375,-37.59765625,-29.296875,-37.109375,-32.2265625,-50.78125,0.0
2039.375,-30.2734375,-29.296875,-32.2265625,-24.90234375,-26.3671875,0.0
2039.37890625,-33.69140625,-30.2734375,-22.94921875,-32.71484375,6.8359375,0.0
2039.3828125,-36.1328125,-29.78515625,-22.4609375,-34.1796875,-10.25390625,0.0
2039.38671875,-41.50390625,-30.76171875,-33.203125,-31.73828125,-68.359375,0.0
2039.390625,-46.875,-34.1796875,-30.76171875,-34.66796875,-103.02734375,0.0
2039.39453125,-43.45703125,-32.71484375,-28.80859375,-30.76171875,-46.875,0.0
2039.3984375,-35.64453125,-29.78515625,-35.64453125,-28.3203125,7.32421875,0.0
2039.40234375,-38.0859375,-30.76171875,-38.0859375,-35.15625,-100.5859375,0.0
2039.40625,-49.8046875,-36.1328125,-37.59765625,-39.55078125,-172.36328125,0.0
2039.41015625,-48.33984375,-40.0390625,-37.59765625,-37.109375,-92.7734375,0.0
2039.4140625,-37.59765625,-36.1328125,-34.66796875,-32.71484375,-73.73046875,0.0
2039.41796875,-29.78515625,-30.2734375,-33.203125,-29.296875,-135.7421875,0.0
2039.421875,-26.85546875,-37.59765625,-27.34375,-34.1796875,-105.46875,0.0
2039.42578125,-32.2265625,-42.48046875,-30.2734375,-41.015625,-39.0625,0.0
2039.4296875,-32.2265625,-35.64453125,-36.1328125,-41.9921875,-89.84375,0.0
2039.43359375,-27.34375,-31.73828125,-32.2265625,-39.0625,-161.1328125,0.0
2039.4375,-21.97265625,-33.69140625,-30.76171875,-36.62109375,-109.375,0.0
2039.44140625,-25.390625,-35.64453125,-32.2265625,-42.96875,-58.59375,0.0
2039.4453125,-28.3203125,-31.73828125,-35.64453125,-48.828125,-50.29296875,0.0
2039.44921875,-27.34375,-30.2734375,-33.69140625,-43.45703125,-33.203125,0.0
2039.453125,-27.83203125,-33.69140625,-30.76171875,-38.0859375,-85.44921875,0.0
2039.45703125,-21.484375,-30.76171875,-34.1796875,-32.2265625,-105.95703125,0.0
2039.4609375,-24.4140625,-26.3671875,-36.1328125,-25.87890625,4.39453125,0.0
2039.46484375,-33.203125,-30.2734375,-37.109375,-31.73828125,41.50390625,0.0
2039.46875,-42.48046875,-39.0625,-25.87890625,-39.0625,-22.94921875,0.0
2039.47265625,-49.8046875,-41.015625,-24.4140625,-34.1796875,-106.4453125,0.0
2039.4765625,-38.57421875,-36.1328125,-35.15625,-32.71484375,-36.62109375,0.0
2039.48046875,-30.76171875,-30.76171875,-33.203125,-41.015625,21.484375,0.0
2039.484375,-34.1796875,-31.73828125,-32.2265625,-42.96875,-49.8046875,0.0
2039.48828125,-37.109375,-36.62109375,-33.69140625,-38.57421875,-98.14453125,0.0
2039.4921875,-35.64453125,-36.62109375,-32.71484375,-32.2265625,-79.58984375,0.0
2039.49609375,-26.85546875,-28.3203125,-21.97265625,-26.3671875,-117.67578125,0.0
2039.5,-20.99609375,-25.390625,-16.11328125,-23.4375,-55.6640625,0.0
2039.50390625,-20.5078125,-31.73828125,-25.87890625,-26.3671875,48.828125,0.0
2039.5078125,-26.3671875,-32.2265625,-32.71484375,-25.390625,-50.29296875,0.0
2039.51171875,-24.90234375,-33.203125,-24.4140625,-24.90234375,-91.30859375,0.0
2039.515625,-18.5546875,-34.1796875,-15.625,-29.296875,-25.390625,0.0
2039.51953125,-20.99609375,-32.2265625,-26.85546875,-29.296875,-48.828125,0.0
2039.5234375,-23.92578125,-33.69140625,-37.59765625,-30.76171875,-177.734375,0.0
2039.52734375,-26.3671875,-31.25,-25.390625,-31.73828125,-242.67578125,0.0
2039.53125,-30.2734375,-28.3203125,-23.92578125,-32.2265625,-208.49609375,0.0
2039.53515625,-24.4140625,-25.87890625,-35.64453125,-33.203125,-187.98828125,0.0
2039.5390625,-20.01953125,-27.34375,-35.64453125,-34.66796875,-23.4375,0.0
2039.54296875,-23.4375,-24.90234375,-38.0859375,-38.57421875,40.52734375,0.0
2039.546875,-29.296875,-27.34375,-39.0625,-42.48046875,11.71875,0.0
2039.55078125,-31.73828125,-34.66796875,-41.50390625,-45.8984375,-48.828125,0.0
2039.5546875,-25.390625,-25.87890625,-40.0390625,-37.59765625,-33.69140625,0.0
2039.55859375,-19.53125,-25.390625,-16.11328125,-35.64453125,-6.8359375,0.0
2039.5625,-21.484375,-32.71484375,-7.32421875,-38.0859375,-47.36328125,0.0
2039.56640625,-29.78515625,-31.25,-33.69140625,-32.2265625,-42.96875,0.0
2039.5703125,-35.64453125,-30.2734375,-41.50390625,-32.2265625,-44.43359375,0.0
2039.57421875,-24.4140625,-24.90234375,-35.64453125,-28.3203125,12.6953125,0.0
2039.578125,-4.39453125,-18.5546875,-25.390625,-15.625,19.53125,0.0
2039.58203125,-1.953125,-16.6015625,-23.92578125,-14.16015625,20.99609375,0.0
2039.5859375,-19.04296875,-24.4140625,-30.76171875,-26.85546875,62.5,0.0
2039.58984375,-23.92578125,-27.83203125,-35.64453125,-29.78515625,41.50390625,0.0
2039.59375,-21.97265625,-20.99609375,-38.57421875,-30.2734375,43.9453125,0.0
2039.59765625,-18.5546875,-17.08984375,-40.52734375,-34.66796875,5.859375,0.0
2039.6015625,-13.671875,-16.6015625,-36.62109375,-38.0859375,-17.578125,0.0
2039.60546875,-28.80859375,-21.97265625,-35.15625,-42.96875,-20.01953125,0.0
2039.609375,-36.1328125,-29.296875,-41.50390625,-49.8046875,-17.578125,0.0
2039.61328125,-27.34375,-28.80859375,-39.0625,-41.015625,-14.16015625,0.0
2039.6171875,-24.4140625,-24.90234375,-16.11328125,-23.92578125,-70.3125,0.0
2039.62109375,-27.83203125,-26.3671875,10.25390625,-24.4140625,-112.79296875,0.0
2039.625,-35.15625,-30.76171875,-8.7890625,-30.76171875,-171.38671875,0.0
2039.62890625,-41.9921875,-35.15625,-35.15625,-33.203125,-236.81640625,0.0
2039.6328125,-40.52734375,-31.73828125,-30.76171875,-32.71484375,-249.0234375,0.0
2039.63671875,-29.296875,-21.484375,-24.4140625,-22.4609375,-141.6015625,0.0
2039.640625,-22.4609375,-22.94921875,-25.87890625,-22.94921875,-52.734375,0.0
2039.64453125,-28.80859375,-32.71484375,-30.76171875,-26.85546875,-77.63671875,0.0
2039.6484375,-34.66796875,-34.1796875,-31.73828125,-20.5078125,-62.01171875,0.0
2039.65234375,-30.76171875,-31.73828125,-31.25,-20.99609375,-43.9453125,0.0
2039.65625,-18.5546875,-27.83203125,-31.25,-21.97265625,13.671875,0.0
2039.66015625,-18.5546875,-27.83203125,-31.25,-27.83203125,-9.27734375,0.0
2039.6640625,-31.73828125,-32.71484375,-37.59765625,-41.015625,-49.8046875,0.0
2039.66796875,-32.2265625,-31.73828125,-39.55078125,-32.2265625,29.296875,0.0
2039.671875,-27.34375,-34.1796875,-34.1796875,-25.87890625,35.64453125,0.0
2039.67578125,-28.3203125,-34.66796875,-36.1328125,-29.78515625,-8.30078125,0.0
2039.6796875,-29.296875,-28.3203125,-22.4609375,-28.80859375,-9.765625,0.0
2039.68359375,-30.76171875,-25.87890625,-22.4609375,-25.87890625,-0.9765625,0.0
2039.6875,-39.55078125,-28.80859375,-30.2734375,-32.2265625,-10.7421875,0.0
2039.69140625,-44.921875,-30.76171875,-24.4140625,-38.57421875,-67.87109375,0.0
2039.6953125,-37.109375,-26.3671875,-25.87890625,-32.71484375,-61.03515625,0.0
2039.69921875,-25.390625,-25.390625,-31.73828125,-26.85546875,30.76171875,0.0
2039.703125,-26.85546875,-26.85546875,-32.2265625,-30.2734375,56.640625,0.0
2039.70703125,-30.76171875,-29.296875,-31.73828125,-36.62109375,1.953125,0.0
2039.7109375,-34.66796875,-36.1328125,-22.94921875,-36.1328125,-61.03515625,0.0
2039.71484375,-38.0859375,-37.109375,-22.4609375,-27.83203125,-76.171875,0.0
2039.71875,-33.69140625,-33.203125,-29.78515625,-21.484375,-54.6875,0.0
2039.72265625,-34.1796875,-38.57421875,-33.203125,-19.04296875,-48.33984375,0.0
2039.7265625,-44.43359375,-39.55078125,-36.1328125,-21.484375,-44.43359375,0.0
2039.73046875,-47.8515625,-38.0859375,-36.62109375,-25.390625,-62.98828125,0.0
2039.734375,-40.52734375,-38.57421875,-35.15625,-22.94921875,-42.96875,0.0
2039.73828125,-32.2265625,-33.69140625,-30.2734375,-16.6015625,6.34765625,0.0
2039.7421875,-31.73828125,-31.73828125,-31.73828125,-21.484375,-34.1796875,0.0
2039.74609375,-34.1796875,-36.1328125,-34.1796875,-27.83203125,-100.5859375,0.0
2039.75,-31.73828125,-31.25,-30.2734375,-25.87890625,-40.0390625,0.0
2039.75390625,-24.90234375,-28.3203125,-23.4375,-22.94921875,-0.9765625,0.0
2039.7578125,-20.5078125,-29.78515625,-28.3203125,-25.87890625,74.21875,0.0
2039.76171875,-20.01953125,-28.80859375,-37.59765625,-28.80859375,124.51171875,0.0
2039.765625,-22.4609375,-27.34375,-33.69140625,-34.66796875,-44.43359375,0.0
2039.76953125,-28.80859375,-25.390625,-26.3671875,-33.69140625,-50.29296875,0.0
2039.7734375,-32.2265625,-28.3203125,-29.78515625,-41.9921875,-54.19921875,0.0
2039.77734375,-27.34375,-26.85546875,-36.1328125,-46.38671875,-39.55078125,0.0
2039.78125,-26.85546875,-23.4375,-35.15625,-36.62109375,-39.0625,0.0
2039.78515625,-36.62109375,-25.87890625,-33.69140625,-42.96875,-48.33984375,0.0
2039.7890625,-44.921875,-28.3203125,-41.50390625,-42.96875,16.11328125,0.0
2039.79296875,-44.43359375,-29.78515625,-42.96875,-37.59765625,27.34375,0.0
2039.796875,-28.80859375,-27.34375,-30.2734375,-31.25,-7.8125,0.0
2039.80078125,-26.3671875,-23.92578125,-20.5078125,-28.80859375,1.46484375,0.0
2039.8046875,-35.15625,-32.2265625,-31.25,-30.76171875,37.59765625,0.0
2039.80859375,-34.66796875,-36.1328125,-41.9921875,-34.1796875,-89.84375,0.0
2039.8125,-37.109375,-30.2734375,-34.1796875,-42.48046875,-116.69921875,0.0
2039.81640625,-36.1328125,-31.73828125,-28.3203125,-41.9921875,34.66796875,0.0
2039.8203125,-29.78515625,-33.203125,-35.15625,-39.55078125,30.2734375,0.0
2039.82421875,-34.1796875,-31.25,-36.62109375,-42.96875,-21.97265625,0.0
2039.828125,-38.57421875,-37.109375,-28.80859375,-42.96875,-60.05859375,0.0
2039.83203125,-33.203125,-38.0859375,-25.87890625,-40.52734375,-111.328125,0.0
2039.8359375,-28.3203125,-33.203125,-28.80859375,-39.55078125,-110.3515625,0.0
2039.83984375,-26.3671875,-30.2734375,-29.296875,-40.0390625,-100.5859375,0.0
2039.84375,-29.296875,-35.15625,-22.4609375,-44.43359375,-135.7421875,0.0
2039.84765625,-38.57421875,-40.52734375,-21.97265625,-49.31640625,-24.4140625,0.0
2039.8515625,-41.50390625,-36.62109375,-31.25,-42.96875,69.82421875,0.0
2039.85546875,-38.0859375,-32.2265625,-30.2734375,-37.109375,-7.32421875,0.0
2039.859375,-37.109375,-29.296875,-29.296875,-41.015625,-11.23046875,0.0
2039.86328125,-39.55078125,-32.2265625,-30.2734375,-37.59765625,107.91015625,0.0
2039.8671875,-41.015625,-33.203125,-32.71484375,-39.0625,125.9765625,0.0
2039.87109375,-36.1328125,-29.78515625,-27.34375,-32.71484375,3.90625,0.0
2039.875,-32.71484375,-25.390625,-23.92578125,-21.97265625,-2.9296875,0.0
2039.87890625,-30.76171875,-27.83203125,-29.78515625,-29.78515625,-11.23046875,0.0
2039.8828125,-27.34375,-32.2265625,-34.1796875,-32.2265625,-59.08203125,0.0
2039.88671875,-33.69140625,-37.109375,-31.73828125,-36.1328125,-23.92578125,0.0
2039.890625,-34.1796875,-40.52734375,-21.97265625,-34.1796875,-41.50390625,0.0
2039.89453125,-22.4609375,-32.2265625,-26.85546875,-20.99609375,-91.796875,0.0
2039.8984375,-11.71875,-25.390625,-33.69140625,-20.99609375,-6.8359375,0.0
2039.90234375,-8.7890625,-23.92578125,-27.34375,-23.4375,32.2265625,0.0
2039.90625,-20.01953125,-24.90234375,-25.390625,-25.390625,-136.23046875,0.0
2039.91015625,-25.87890625,-24.90234375,-32.2265625,-29.78515625,-107.421875,0.0
2039.9140625,-20.5078125,-25.390625,-32.71484375,-34.66796875,-11.71875,0.0
2039.91796875,-18.06640625,-24.90234375,-31.73828125,-32.2265625,7.32421875,0.0
2039.921875,-20.5078125,-25.87890625,-34.1796875,-27.83203125,46.38671875,0.0
2039.92578125,-22.94921875,-27.83203125,-32.2265625,-31.25,16.6015625,0.0
2039.9296875,-29.78515625,-24.90234375,-33.203125,-37.109375,-80.078125,0.0
2039.93359375,-30.2734375,-23.4375,-19.53125,-40.0390625,-93.75,0.0
2039.9375,-14.6484375,-21.97265625,-14.6484375,-25.87890625,-14.6484375,0.0
2039.94140625,-6.34765625,-20.01953125,-27.83203125,-14.16015625,55.17578125,0.0
2039.9453125,-22.4609375,-24.4140625,-22.4609375,-20.01953125,34.66796875,0.0
2039.94921875,-32.71484375,-31.73828125,-26.3671875,-28.80859375,-62.98828125,0.0
2039.953125,-25.87890625,-36.1328125,-40.0390625,-37.109375,-80.56640625,0.0
2039.95703125,-22.4609375,-34.66796875,-35.15625,-38.0859375,-66.40625,0.0
2039.9609375,-21.97265625,-31.73828125,-29.78515625,-31.73828125,-84.47265625,0.0
2039.96484375,-25.87890625,-31.25,-30.76171875,-32.71484375,-92.7734375,0.0
2039.96875,-31.73828125,-31.25,-29.78515625,-33.203125,-35.15625,0.0
2039.97265625,-30.76171875,-27.83203125,-35.64453125,-28.80859375,7.32421875,0.0
2039.9765625,-23.92578125,-27.34375,-27.34375,-24.90234375,7.32421875,0.0
2039.98046875,-23.92578125,-28.3203125,-18.5546875,-22.4609375,20.5078125,0.0
2039.984375,-31.25,-32.2265625,-31.73828125,-23.4375,-15.625,0.0
2039.98828125,-45.41015625,-38.57421875,-37.59765625,-31.25,-64.94140625,0.0
2039.9921875,-47.36328125,-40.0390625,-31.73828125,-37.109375,-100.09765625,0.0
2039.99609375,-35.15625,-36.1328125,-28.3203125,-29.78515625,-124.0234375,0.0
2040.0,-31.73828125,-33.203125,-32.71484375,-30.2734375,-96.19140625,0.0
2040.00390625,-31.73828125,-34.1796875,-34.66796875,-37.59765625,-27.34375,0.0
2040.0078125,-34.66796875,-31.25,-36.1328125,-38.0859375,7.8125,0.0
2040.01171875,-37.109375,-33.203125,-34.66796875,-35.64453125,-21.97265625,0.0
2040.015625,-32.71484375,-32.2265625,-33.203125,-29.78515625,-52.734375,0.0
2040.01953125,-29.296875,-27.83203125,-33.203125,-27.83203125,-64.94140625,0.0
2040.0234375,-26.3671875,-23.4375,-29.78515625,-28.80859375,-123.53515625,0.0
2040.02734375,-33.203125,-22.4609375,-32.2265625,-28.80859375,-125.0,0.0
2040.03125,-40.52734375,-29.296875,-35.64453125,-28.3203125,-107.91015625,0.0
2040.03515625,-32.2265625,-28.3203125,-33.69140625,-25.390625,-107.421875,0.0
2040.0390625,-25.390625,-22.94921875,-26.3671875,-26.3671875,-72.75390625,0.0
2040.04296875,-26.3671875,-27.83203125,-29.78515625,-28.80859375,-61.03515625,0.0
2040.046875,-33.69140625,-28.3203125,-38.57421875,-31.73828125,-27.83203125,0.0
2040.05078125,-37.109375,-29.296875,-39.0625,-36.62109375,-41.9921875,0.0
2040.0546875,-36.1328125,-35.15625,-37.59765625,-40.0390625,-30.2734375,0.0
2040.05859375,-30.76171875,-28.3203125,-40.0390625,-35.15625,25.87890625,0.0
2040.0625,-29.78515625,-25.87890625,-38.0859375,-34.66796875,3.41796875,0.0
2040.06640625,-26.3671875,-32.2265625,-35.64453125,-37.59765625,-37.109375,0.0
2040.0703125,-27.83203125,-32.2265625,-34.1796875,-32.2265625,-88.37890625,0.0
2040.07421875,-35.15625,-34.1796875,-28.80859375,-32.2265625,-8.7890625,0.0
2040.078125,-28.3203125,-33.203125,-30.76171875,-40.52734375,42.96875,0.0
2040.08203125,-27.83203125,-25.390625,-24.90234375,-45.8984375,-24.90234375,0.0
2040.0859375,-28.80859375,-23.4375,-8.30078125,-42.48046875,0.9765625,0.0
2040.08984375,-32.2265625,-28.80859375,-22.94921875,-41.50390625,46.875,0.0
2040.09375,-34.66796875,-29.78515625,-38.0859375,-37.109375,-2.9296875,0.0
2040.09765625,-27.83203125,-27.34375,-34.1796875,-30.76171875,-13.18359375,0.0
2040.1015625,-27.34375,-25.87890625,-35.15625,-36.1328125,-9.27734375,0.0
2040.10546875,-35.15625,-30.76171875,-35.15625,-36.62109375,-49.31640625,0.0
2040.109375,-37.59765625,-33.69140625,-30.76171875,-30.76171875,-43.45703125,0.0
