timestamp,TP9,AF7,AF8,TP10,AUX,Marker,
191.00390625,-0.48828125,-42.48046875,-9.765625,0.9765625,-6.8359375,0.0
191.0078125,-4.8828125,-35.64453125,-15.13671875,-0.48828125,-20.5078125,0.0
191.01171875,-6.8359375,-42.96875,-16.11328125,-6.8359375,-8.30078125,0.0
191.015625,-8.7890625,-48.828125,-22.4609375,-9.765625,-3.90625,0.0
191.01953125,-18.5546875,-38.57421875,-34.66796875,-20.5078125,-11.71875,0.0
191.0234375,-12.6953125,-22.4609375,-26.3671875,-20.01953125,57.6171875,0.0
191.02734375,-25.87890625,-35.15625,-32.71484375,-23.4375,56.15234375,0.0
191.03125,-34.1796875,-45.8984375,-38.57421875,-27.34375,44.921875,0.0
191.03515625,-31.73828125,-46.875,-32.2265625,-25.390625,66.40625,0.0
191.0390625,-50.29296875,-48.828125,-45.8984375,-42.48046875,38.57421875,0.0
191.04296875,-43.9453125,-40.52734375,-43.45703125,-39.55078125,-20.99609375,0.0
191.046875,-33.69140625,-35.64453125,-43.45703125,-41.9921875,-56.640625,0.0
191.05078125,-36.1328125,-26.85546875,-54.19921875,-43.45703125,-42.48046875,0.0
191.0546875,-38.57421875,-25.87890625,-45.41015625,-40.0390625,-15.13671875,0.0
191.05859375,-46.875,-32.71484375,-42.96875,-53.22265625,-16.11328125,0.0
191.0625,-44.921875,-36.1328125,-42.96875,-49.8046875,-68.84765625,0.0
191.06640625,-41.9921875,-34.1796875,-42.96875,-40.52734375,-67.87109375,0.0
191.0703125,-34.1796875,-25.87890625,-42.48046875,-34.1796875,-65.91796875,0.0
191.07421875,-35.15625,-25.390625,-33.69140625,-42.48046875,-53.7109375,0.0
191.078125,-28.80859375,-27.83203125,-28.80859375,-39.55078125,-24.90234375,0.0
191.08203125,-14.6484375,-33.203125,-28.3203125,-19.53125,-73.2421875,0.0
191.0859375,-29.78515625,-34.66796875,-45.41015625,-39.0625,-33.203125,0.0
191.08984375,-34.1796875,-34.1796875,-43.45703125,-42.96875,33.69140625,0.0
191.09375,-20.5078125,-38.57421875,-27.34375,-14.16015625,38.57421875,0.0
191.09765625,-28.3203125,-33.69140625,-33.203125,-22.94921875,-24.4140625,0.0
191.1015625,-41.015625,-23.4375,-42.48046875,-48.828125,16.11328125,0.0
191.10546875,-24.90234375,-21.97265625,-39.0625,-43.45703125,86.42578125,0.0
191.109375,-26.3671875,-24.4140625,-36.1328125,-37.109375,31.25,0.0
191.11328125,-37.109375,-18.5546875,-37.59765625,-33.69140625,-26.85546875,0.0
191.1171875,-24.4140625,-26.3671875,-24.90234375,-21.484375,-75.68359375,0.0
191.12109375,-26.3671875,-33.69140625,-21.484375,-16.11328125,-91.796875,0.0
191.125,-28.3203125,-26.85546875,-16.6015625,-20.99609375,-70.80078125,0.0
191.12890625,-21.484375,-19.53125,-19.04296875,-20.5078125,-107.421875,0.0
191.1328125,-5.859375,-17.578125,-19.04296875,-7.32421875,-126.46484375,0.0
191.13671875,-17.578125,-27.83203125,-22.4609375,-21.97265625,-123.046875,0.0
191.140625,-20.01953125,-39.0625,-19.04296875,-17.08984375,-111.328125,0.0
191.14453125,-7.32421875,-41.9921875,-7.32421875,9.27734375,-124.0234375,0.0
191.1484375,-28.80859375,-28.80859375,-27.83203125,-23.92578125,-114.74609375,0.0
191.15234375,-28.80859375,-19.53125,-33.203125,-36.1328125,-77.1484375,0.0
191.15625,-10.25390625,-16.6015625,-11.71875,-4.39453125,-157.71484375,0.0
191.16015625,-8.30078125,-20.5078125,-11.23046875,-8.7890625,-118.1640625,0.0
191.1640625,-8.7890625,-29.296875,-8.30078125,-6.8359375,-82.51953125,0.0
191.16796875,-22.4609375,-21.484375,-12.6953125,-12.6953125,-99.609375,0.0
191.171875,-32.71484375,-16.11328125,-26.3671875,-19.04296875,-68.84765625,0.0
191.17578125,-31.73828125,-26.3671875,-24.4140625,-13.671875,-85.9375,0.0
191.1796875,-15.625,-30.2734375,-10.25390625,-10.25390625,-65.91796875,0.0
191.18359375,-0.48828125,-27.83203125,0.0,-0.48828125,-41.50390625,0.0
191.1875,20.99609375,-33.69140625,12.20703125,26.85546875,-63.96484375,0.0
191.19140625,20.99609375,-30.2734375,8.7890625,18.06640625,-73.73046875,0.0
191.1953125,-4.8828125,-26.3671875,-9.27734375,-9.27734375,-87.40234375,0.0
191.19921875,1.46484375,-32.2265625,-1.953125,13.18359375,-53.7109375,0.0
191.203125,11.71875,-32.71484375,5.859375,22.4609375,3.41796875,0.0
191.20703125,0.0,-40.0390625,-1.953125,2.44140625,-51.26953125,0.0
191.2109375,-7.32421875,-41.9921875,-4.39453125,-6.8359375,-91.796875,0.0
191.21484375,-5.37109375,-37.59765625,-6.34765625,-7.8125,16.6015625,0.0
191.21875,-14.16015625,-36.1328125,-12.6953125,-20.01953125,11.71875,0.0
191.22265625,-24.4140625,-29.78515625,-24.90234375,-32.71484375,-60.546875,0.0
191.2265625,-20.01953125,-17.578125,-14.6484375,-17.08984375,-50.78125,0.0
191.23046875,-11.23046875,-18.06640625,-4.8828125,-10.25390625,-52.734375,0.0
191.234375,-8.7890625,-40.52734375,-18.06640625,-22.94921875,-44.921875,0.0
191.23828125,-1.46484375,-43.45703125,-14.6484375,-20.5078125,-37.109375,0.0
191.2421875,-3.41796875,-32.2265625,-17.578125,-18.06640625,-89.35546875,0.0
191.24609375,-15.13671875,-30.2734375,-22.4609375,-23.92578125,-115.234375,0.0
191.25,-17.578125,-31.73828125,-19.53125,-24.4140625,-44.43359375,0.0
191.25390625,-11.23046875,-31.73828125,-20.5078125,-12.6953125,-43.45703125,0.0
191.2578125,-3.90625,-26.85546875,-4.39453125,19.04296875,-59.08203125,0.0
191.26171875,-9.27734375,-30.2734375,-10.7421875,13.671875,-37.109375,0.0
191.265625,-3.41796875,-39.0625,-20.01953125,-8.7890625,-53.7109375,0.0
191.26953125,-6.8359375,-37.109375,-14.6484375,0.48828125,-45.41015625,0.0
191.2734375,1.953125,-21.97265625,-3.41796875,26.3671875,57.12890625,0.0
191.27734375,17.08984375,-29.78515625,0.9765625,23.4375,101.07421875,0.0
191.28125,25.390625,-53.22265625,6.34765625,29.78515625,39.0625,0.0
191.28515625,32.2265625,-59.08203125,14.6484375,42.96875,42.48046875,0.0
191.2890625,21.484375,-48.828125,5.859375,28.80859375,19.53125,0.0
191.29296875,29.296875,-39.55078125,13.671875,35.15625,-51.7578125,0.0
191.296875,36.1328125,-40.0390625,33.203125,52.734375,-51.7578125,0.0
191.30078125,45.8984375,-34.66796875,39.0625,58.59375,-47.8515625,0.0
191.3046875,51.26953125,-19.04296875,30.2734375,55.17578125,-13.671875,0.0
191.30859375,47.36328125,-23.4375,33.69140625,50.29296875,36.1328125,0.0
191.3125,63.4765625,-38.57421875,53.7109375,54.6875,9.27734375,0.0
191.31640625,79.58984375,-32.71484375,51.26953125,60.05859375,7.32421875,0.0
191.3203125,77.63671875,-26.85546875,42.48046875,59.08203125,53.22265625,0.0
191.32421875,79.1015625,-35.64453125,56.15234375,62.98828125,12.6953125,0.0
191.328125,76.171875,-46.38671875,61.03515625,72.75390625,-69.3359375,0.0
191.33203125,78.61328125,-37.109375,51.26953125,76.66015625,-92.28515625,0.0
191.3359375,89.35546875,-32.71484375,54.19921875,71.2890625,-193.84765625,0.0
191.33984375,87.40234375,-33.203125,43.9453125,62.01171875,-202.1484375,0.0
191.34375,72.75390625,-34.1796875,31.25,50.78125,-143.06640625,0.0
191.34765625,63.96484375,-41.50390625,35.64453125,44.43359375,-135.25390625,0.0
191.3515625,73.2421875,-30.76171875,44.921875,45.41015625,-106.93359375,0.0
191.35546875,78.125,-29.296875,41.50390625,42.96875,-112.3046875,0.0
191.359375,62.98828125,-37.59765625,21.97265625,37.109375,-88.8671875,0.0
191.36328125,51.7578125,-29.296875,10.25390625,25.87890625,-2.9296875,0.0
191.3671875,55.17578125,-21.484375,21.97265625,32.71484375,3.90625,0.0
191.37109375,34.1796875,-30.76171875,11.71875,21.484375,-28.3203125,0.0
191.375,19.04296875,-35.64453125,9.765625,19.04296875,-30.76171875,0.0
191.37890625,32.71484375,-35.64453125,27.34375,47.8515625,6.34765625,0.0
191.3828125,-9.27734375,-30.2734375,-9.27734375,14.6484375,13.671875,0.0
191.38671875,-24.90234375,-28.3203125,-33.203125,-8.7890625,-18.5546875,0.0
191.390625,-24.4140625,-32.2265625,-29.78515625,-9.765625,51.26953125,0.0
191.39453125,-6.34765625,-31.25,-6.34765625,4.8828125,24.90234375,0.0
191.3984375,9.765625,-41.50390625,-0.9765625,12.20703125,-4.39453125,0.0
191.40234375,-13.18359375,-47.8515625,-23.92578125,-7.32421875,1.953125,0.0
191.40625,-17.578125,-41.015625,-35.15625,-25.87890625,18.06640625,0.0
191.41015625,9.27734375,-36.62109375,-18.5546875,-6.8359375,-43.45703125,0.0
191.4140625,24.90234375,-36.62109375,0.0,20.01953125,-152.34375,0.0
191.41796875,7.8125,-35.15625,-9.765625,0.48828125,-116.2109375,0.0
191.421875,-13.671875,-41.015625,-20.01953125,-15.13671875,-56.640625,0.0
191.42578125,-21.484375,-49.31640625,-25.87890625,-15.625,-121.09375,0.0
191.4296875,-9.27734375,-34.66796875,-24.4140625,-13.18359375,-163.57421875,0.0
191.43359375,3.90625,-27.83203125,-15.13671875,-6.34765625,-128.41796875,0.0
191.4375,-0.48828125,-37.109375,-11.23046875,2.9296875,-118.1640625,0.0
191.44140625,-15.625,-34.66796875,-27.34375,-11.71875,-122.0703125,0.0
191.4453125,20.99609375,-33.69140625,-0.9765625,9.27734375,-83.0078125,0.0
191.44921875,72.75390625,-33.69140625,53.22265625,71.2890625,-57.12890625,0.0
191.453125,84.9609375,-36.62109375,69.3359375,78.125,-112.3046875,0.0
191.45703125,83.984375,-40.52734375,68.84765625,66.40625,-102.5390625,0.0
191.4609375,82.03125,-34.1796875,69.3359375,76.171875,-138.671875,0.0
191.46484375,94.23828125,-40.0390625,84.9609375,100.5859375,-120.1171875,0.0
191.46875,93.26171875,-47.8515625,80.078125,96.6796875,61.5234375,0.0
191.47265625,62.01171875,-54.6875,49.31640625,67.87109375,31.73828125,0.0
191.4765625,43.45703125,-53.22265625,28.3203125,41.50390625,-6.8359375,0.0
191.48046875,45.41015625,-44.921875,31.25,26.85546875,54.19921875,0.0
191.484375,44.43359375,-40.0390625,40.52734375,32.2265625,85.44921875,0.0
191.48828125,22.4609375,-29.78515625,19.04296875,2.9296875,124.51171875,0.0
191.4921875,4.39453125,-29.296875,8.7890625,-2.9296875,82.51953125,0.0
191.49609375,12.6953125,-37.109375,24.90234375,26.85546875,8.30078125,0.0
191.5,18.06640625,-39.55078125,19.04296875,19.04296875,-81.0546875,0.0
191.50390625,7.8125,-35.64453125,9.765625,6.34765625,-106.93359375,0.0
191.5078125,-1.953125,-33.203125,6.8359375,12.6953125,5.37109375,0.0
191.51171875,4.39453125,-36.62109375,10.7421875,30.76171875,38.57421875,0.0
191.515625,32.2265625,-40.0390625,21.484375,28.80859375,0.48828125,0.0
191.51953125,25.390625,-46.38671875,17.08984375,27.83203125,-55.6640625,0.0
191.5234375,18.06640625,-42.48046875,7.8125,15.13671875,-108.3984375,0.0
191.52734375,31.73828125,-37.109375,12.6953125,11.23046875,-68.359375,0.0
191.53125,24.4140625,-43.45703125,19.53125,30.2734375,-29.78515625,0.0
191.53515625,20.01953125,-50.29296875,23.92578125,31.25,0.9765625,0.0
191.5390625,32.71484375,-47.36328125,34.66796875,43.9453125,57.12890625,0.0
191.54296875,50.78125,-47.36328125,51.7578125,64.94140625,61.03515625,0.0
191.546875,66.40625,-47.36328125,67.87109375,80.56640625,122.0703125,0.0
191.55078125,56.15234375,-41.9921875,60.546875,77.63671875,87.40234375,0.0
191.5546875,44.43359375,-27.83203125,51.7578125,76.66015625,72.265625,0.0
191.55859375,56.640625,-35.15625,57.12890625,89.35546875,38.0859375,0.0
191.5625,30.76171875,-46.875,29.78515625,52.734375,-57.6171875,0.0
191.56640625,-24.4140625,-48.33984375,-12.20703125,-6.34765625,-39.55078125,0.0
191.5703125,-14.16015625,-45.8984375,-0.48828125,17.08984375,57.12890625,0.0
191.57421875,1.46484375,-32.2265625,6.34765625,24.4140625,68.359375,0.0
191.578125,-7.8125,-30.76171875,-10.25390625,-6.34765625,10.25390625,0.0
191.58203125,-1.953125,-34.1796875,-8.7890625,-3.90625,-30.76171875,0.0
191.5859375,-15.13671875,-36.62109375,-22.94921875,-13.18359375,-49.8046875,0.0
191.58984375,-38.57421875,-41.50390625,-41.50390625,-31.25,-97.16796875,0.0
191.59375,-41.015625,-37.109375,-38.0859375,-39.0625,-123.53515625,0.0
191.59765625,-24.90234375,-35.15625,-17.578125,-30.76171875,-49.31640625,0.0
191.6015625,-29.78515625,-44.43359375,-12.6953125,-22.94921875,-41.015625,0.0
191.60546875,-31.73828125,-50.29296875,-22.94921875,-23.4375,-83.984375,0.0
191.609375,-20.01953125,-49.8046875,-17.578125,-14.6484375,-74.21875,0.0
191.61328125,-9.27734375,-45.8984375,-3.90625,-10.25390625,-41.9921875,0.0
191.6171875,-4.39453125,-32.71484375,-0.48828125,-0.9765625,16.6015625,0.0
191.62109375,-9.27734375,-40.0390625,-4.39453125,6.8359375,9.765625,0.0
191.625,-14.16015625,-40.52734375,-11.71875,-12.6953125,-25.87890625,0.0
191.62890625,-12.6953125,-32.71484375,-14.6484375,-14.16015625,41.50390625,0.0
191.6328125,0.0,-36.1328125,2.9296875,-4.8828125,-18.5546875,0.0
191.63671875,16.11328125,-33.69140625,21.97265625,16.11328125,-88.37890625,0.0
191.640625,30.76171875,-30.76171875,42.48046875,43.9453125,-42.48046875,0.0
191.64453125,32.2265625,-32.71484375,51.26953125,41.50390625,-71.77734375,0.0
191.6484375,32.2265625,-25.390625,41.015625,33.203125,-110.83984375,0.0
191.65234375,53.22265625,-24.90234375,55.17578125,50.78125,-118.65234375,0.0
191.65625,90.33203125,-33.203125,89.35546875,85.44921875,-65.4296875,0.0
191.66015625,104.98046875,-34.1796875,108.88671875,105.46875,58.10546875,0.0
191.6640625,100.5859375,-37.59765625,109.86328125,99.609375,49.8046875,0.0
191.66796875,109.86328125,-34.1796875,118.1640625,109.375,11.71875,0.0
191.671875,101.5625,-30.76171875,113.76953125,110.83984375,72.75390625,0.0
191.67578125,97.65625,-35.64453125,103.02734375,105.46875,61.5234375,0.0
191.6796875,104.4921875,-36.1328125,111.328125,114.2578125,32.71484375,0.0
191.68359375,73.2421875,-38.0859375,85.44921875,79.1015625,-3.41796875,0.0
191.6875,19.53125,-44.921875,40.0390625,34.1796875,-20.01953125,0.0
191.69140625,9.27734375,-47.36328125,25.390625,33.203125,-40.0390625,0.0
191.6953125,28.80859375,-27.34375,40.0390625,28.3203125,-78.61328125,0.0
191.69921875,39.55078125,-27.34375,55.6640625,42.96875,-43.45703125,0.0
191.703125,42.96875,-34.1796875,63.4765625,68.84765625,19.53125,0.0
191.70703125,37.109375,-35.64453125,52.734375,47.36328125,-4.39453125,0.0
191.7109375,65.91796875,-33.69140625,73.73046875,69.3359375,-74.70703125,0.0
191.71484375,68.84765625,-33.69140625,81.0546875,81.0546875,-115.72265625,0.0
191.71875,61.5234375,-42.48046875,62.98828125,61.5234375,-138.18359375,0.0
191.72265625,96.19140625,-38.57421875,94.7265625,101.5625,-74.70703125,0.0
191.7265625,81.54296875,-35.15625,77.63671875,82.03125,-27.83203125,0.0
191.73046875,81.0546875,-30.2734375,70.80078125,60.05859375,17.578125,0.0
191.734375,128.41796875,-36.1328125,113.28125,127.44140625,58.59375,0.0
191.73828125,167.48046875,-37.109375,126.46484375,171.875,-19.04296875,0.0
191.7421875,145.5078125,-28.3203125,132.8125,144.04296875,-104.4921875,0.0
191.74609375,100.09765625,-33.203125,131.8359375,111.81640625,-61.5234375,0.0
191.75,84.47265625,-34.66796875,113.76953125,90.33203125,24.90234375,0.0
191.75390625,68.359375,-39.0625,89.84375,72.75390625,1.953125,0.0
191.7578125,75.1953125,-35.64453125,89.35546875,88.8671875,-67.87109375,0.0
191.76171875,76.66015625,-38.57421875,104.98046875,100.5859375,-83.984375,0.0
191.765625,77.1484375,-36.62109375,105.46875,100.5859375,-95.703125,0.0
191.76953125,79.58984375,-23.4375,101.5625,91.796875,-59.5703125,0.0
191.7734375,39.0625,-20.99609375,76.171875,55.17578125,7.8125,0.0
191.77734375,-4.39453125,-21.97265625,23.92578125,6.8359375,-15.13671875,0.0
191.78125,-0.48828125,-31.25,8.30078125,4.8828125,-51.7578125,0.0
191.78515625,-19.53125,-35.64453125,-6.34765625,-15.13671875,-67.3828125,0.0
191.7890625,-6.8359375,-26.85546875,0.9765625,-4.39453125,-102.05078125,0.0
191.79296875,19.04296875,-19.53125,30.2734375,31.25,-128.41796875,0.0
191.796875,4.8828125,-30.2734375,14.16015625,18.06640625,-84.9609375,0.0
191.80078125,-3.41796875,-35.64453125,-7.8125,5.37109375,-77.1484375,0.0
191.8046875,6.34765625,-26.3671875,-1.46484375,2.9296875,-80.56640625,0.0
191.80859375,21.97265625,-32.71484375,13.18359375,15.625,-38.57421875,0.0
191.8125,34.66796875,-35.15625,26.3671875,30.76171875,-61.5234375,0.0
191.81640625,34.66796875,-32.71484375,25.87890625,27.83203125,-44.921875,0.0
191.8203125,40.52734375,-35.15625,25.87890625,30.2734375,-15.13671875,0.0
191.82421875,62.5,-35.64453125,47.36328125,54.6875,-29.296875,0.0
191.828125,60.05859375,-37.59765625,56.15234375,63.4765625,-23.92578125,0.0
191.83203125,11.71875,-36.62109375,7.8125,13.671875,-83.0078125,0.0
191.8359375,-27.34375,-29.296875,-31.73828125,-26.3671875,-90.33203125,0.0
191.83984375,-24.90234375,-37.109375,-29.296875,-15.13671875,-55.17578125,0.0
191.84375,-17.08984375,-46.875,-15.625,-1.46484375,-33.203125,0.0
191.84765625,-14.6484375,-37.109375,-9.27734375,-6.34765625,-75.1953125,0.0
191.8515625,17.08984375,-34.66796875,7.32421875,20.5078125,-59.08203125,0.0
191.85546875,17.08984375,-44.43359375,10.7421875,34.66796875,-30.76171875,0.0
191.859375,-10.7421875,-37.109375,-3.90625,16.6015625,-106.93359375,0.0
191.86328125,20.99609375,-31.25,12.20703125,26.85546875,-62.01171875,0.0
191.8671875,51.26953125,-40.52734375,24.4140625,48.828125,-59.08203125,0.0
191.87109375,61.5234375,-38.57421875,32.2265625,71.77734375,-66.89453125,0.0
191.875,73.73046875,-42.96875,45.41015625,75.68359375,-5.37109375,0.0
191.87890625,70.80078125,-44.921875,57.6171875,72.265625,-15.13671875,0.0
191.8828125,55.17578125,-36.62109375,63.4765625,69.3359375,-70.80078125,0.0
191.88671875,56.15234375,-31.73828125,70.80078125,69.3359375,-29.296875,0.0
191.890625,75.68359375,-37.109375,89.35546875,88.37890625,-17.08984375,0.0
191.89453125,106.4453125,-34.1796875,112.3046875,109.375,-41.9921875,0.0
191.8984375,113.28125,-30.2734375,113.28125,103.02734375,-13.671875,0.0
191.90234375,107.91015625,-27.34375,104.00390625,110.83984375,-5.37109375,0.0
191.90625,122.0703125,-29.78515625,117.1875,128.41796875,-41.015625,0.0
191.91015625,120.1171875,-33.69140625,131.34765625,124.0234375,-62.5,0.0
191.9140625,125.0,-27.83203125,137.6953125,134.765625,-11.71875,0.0
191.91796875,120.60546875,-35.64453125,129.39453125,125.48828125,27.34375,0.0
191.921875,112.3046875,-40.0390625,121.58203125,122.55859375,-58.10546875,0.0
191.92578125,103.02734375,-28.3203125,112.3046875,130.37109375,-82.03125,0.0
191.9296875,13.18359375,-17.578125,27.34375,23.92578125,-25.390625,0.0
191.93359375,-55.17578125,-25.87890625,-41.015625,-52.734375,-69.82421875,0.0
191.9375,-44.43359375,-42.48046875,-47.8515625,-52.734375,-43.9453125,0.0
191.94140625,-47.8515625,-37.109375,-57.12890625,-66.89453125,-27.83203125,0.0
191.9453125,-66.89453125,-32.2265625,-71.77734375,-88.37890625,-23.92578125,0.0
191.94921875,-59.5703125,-35.15625,-67.87109375,-80.078125,75.68359375,0.0
191.953125,-66.89453125,-41.50390625,-74.21875,-87.40234375,92.28515625,0.0
191.95703125,-84.9609375,-39.55078125,-82.51953125,-91.30859375,9.765625,0.0
191.9609375,-84.9609375,-40.0390625,-70.80078125,-63.4765625,-29.78515625,0.0
191.96484375,-65.91796875,-45.41015625,-48.828125,-34.66796875,5.859375,0.0
191.96875,-29.78515625,-34.1796875,-7.8125,1.46484375,-71.77734375,0.0
191.97265625,41.9921875,-28.3203125,60.05859375,67.87109375,-113.28125,0.0
191.9765625,73.2421875,-33.203125,91.30859375,94.23828125,-114.74609375,0.0
191.98046875,27.34375,-39.55078125,41.9921875,52.24609375,-69.3359375,0.0
191.984375,-13.18359375,-39.55078125,-3.90625,24.4140625,79.1015625,0.0
191.98828125,-30.76171875,-36.1328125,-8.30078125,2.44140625,87.40234375,0.0
191.9921875,-34.66796875,-30.76171875,-5.37109375,-5.37109375,40.52734375,0.0
191.99609375,-54.6875,-28.3203125,-35.15625,-15.625,38.0859375,0.0
192.0,-53.7109375,-36.1328125,-29.296875,-1.953125,-45.41015625,0.0
192.00390625,-38.57421875,-33.203125,-6.34765625,5.37109375,-38.57421875,0.0
192.0078125,-21.484375,-21.484375,3.41796875,13.671875,61.5234375,0.0
192.01171875,-12.20703125,-23.92578125,13.18359375,18.06640625,24.90234375,0.0
192.015625,-7.8125,-28.80859375,14.16015625,18.06640625,-26.85546875,0.0
192.01953125,-11.23046875,-33.69140625,-3.90625,25.87890625,-0.9765625,0.0
192.0234375,2.44140625,-30.76171875,11.23046875,32.71484375,-61.03515625,0.0
192.02734375,25.390625,-34.1796875,37.59765625,38.57421875,-127.9296875,0.0
192.03125,11.23046875,-39.0625,24.90234375,27.34375,-75.1953125,0.0
192.03515625,-9.27734375,-38.57421875,4.39453125,11.71875,-63.4765625,0.0
192.0390625,16.6015625,-33.203125,33.203125,35.15625,-58.59375,0.0
192.04296875,46.38671875,-26.85546875,62.01171875,70.3125,-41.50390625,0.0
192.046875,36.1328125,-29.78515625,46.38671875,62.01171875,-77.1484375,0.0
192.05078125,31.25,-25.390625,47.8515625,57.12890625,-79.1015625,0.0
192.0546875,25.390625,-33.203125,50.78125,57.6171875,-31.25,0.0
192.05859375,21.97265625,-47.8515625,41.9921875,52.24609375,-44.921875,0.0
192.0625,31.73828125,-39.0625,49.8046875,50.29296875,-27.34375,0.0
192.06640625,37.109375,-30.2734375,55.17578125,44.43359375,-33.203125,0.0
192.0703125,29.78515625,-23.4375,38.57421875,34.1796875,-62.5,0.0
192.07421875,31.73828125,-23.92578125,31.25,37.109375,15.625,0.0
192.078125,33.203125,-35.15625,27.83203125,38.0859375,-66.89453125,0.0
192.08203125,55.6640625,-51.26953125,59.5703125,57.12890625,-156.73828125,0.0
192.0859375,76.171875,-46.38671875,83.49609375,78.125,-51.7578125,0.0
192.08984375,63.96484375,-36.62109375,61.5234375,84.47265625,-30.76171875,0.0
192.09375,59.5703125,-35.64453125,56.640625,72.265625,-54.19921875,0.0
192.09765625,36.62109375,-31.25,41.50390625,37.59765625,-21.484375,0.0
192.1015625,10.7421875,-28.3203125,14.16015625,23.92578125,-41.015625,0.0
192.10546875,11.23046875,-33.69140625,10.25390625,29.296875,-33.203125,0.0
192.109375,4.39453125,-45.41015625,4.39453125,17.578125,41.015625,0.0
192.11328125,-1.46484375,-46.38671875,-1.46484375,1.953125,40.52734375,0.0
192.1171875,-3.41796875,-30.2734375,-4.39453125,-7.8125,-57.12890625,0.0
192.12109375,22.94921875,-24.90234375,-13.671875,16.6015625,-31.25,0.0
192.125,59.5703125,-38.0859375,-3.90625,51.7578125,76.171875,0.0
192.12890625,0.9765625,-41.50390625,0.9765625,-1.46484375,10.7421875,0.0
192.1328125,-45.8984375,-33.69140625,-17.08984375,-38.0859375,-32.2265625,0.0
192.13671875,-37.109375,-26.3671875,-33.69140625,-31.25,8.7890625,0.0
192.140625,-36.62109375,-34.1796875,-18.5546875,-25.87890625,-34.1796875,0.0
192.14453125,-12.6953125,-34.66796875,10.25390625,4.39453125,-53.7109375,0.0
192.1484375,16.11328125,-25.87890625,24.4140625,18.06640625,-41.9921875,0.0
192.15234375,12.20703125,-26.3671875,21.484375,10.7421875,-2.9296875,0.0
192.15625,16.11328125,-30.2734375,26.85546875,28.80859375,23.4375,0.0
192.16015625,14.16015625,-26.85546875,28.80859375,28.80859375,48.33984375,0.0
192.1640625,7.32421875,-10.7421875,21.97265625,10.25390625,58.59375,0.0
192.16796875,23.4375,-18.5546875,31.73828125,23.92578125,-0.9765625,0.0
192.171875,23.92578125,-40.52734375,24.4140625,23.92578125,4.8828125,0.0
192.17578125,27.34375,-38.57421875,22.94921875,33.69140625,-51.7578125,0.0
192.1796875,37.109375,-28.80859375,37.109375,49.8046875,-86.9140625,0.0
192.18359375,21.97265625,-21.484375,21.484375,34.1796875,-61.03515625,0.0
192.1875,10.25390625,-20.99609375,5.859375,23.4375,-76.171875,0.0
192.19140625,-16.11328125,-20.99609375,-9.27734375,-4.8828125,-111.328125,0.0
192.1953125,-62.5,-17.08984375,-43.9453125,-55.6640625,-84.9609375,0.0
192.19921875,-44.921875,-12.20703125,-28.3203125,-33.203125,-74.70703125,0.0
192.203125,-11.71875,-13.671875,-8.7890625,-10.25390625,-53.22265625,0.0
192.20703125,-14.16015625,-12.6953125,-11.71875,-10.7421875,56.640625,0.0
192.2109375,-19.04296875,-9.27734375,-6.8359375,-9.27734375,43.45703125,0.0
192.21484375,-18.5546875,-18.06640625,-12.20703125,-21.97265625,-64.94140625,0.0
192.21875,-9.765625,-26.85546875,-14.16015625,-12.6953125,-138.18359375,0.0
192.22265625,-16.11328125,-26.85546875,-19.04296875,-21.484375,-109.86328125,0.0
192.2265625,-38.0859375,-4.39453125,-40.52734375,-41.9921875,-41.50390625,0.0
192.23046875,-35.64453125,-3.90625,-43.45703125,-38.0859375,-10.25390625,0.0
192.234375,-24.4140625,-22.4609375,-34.66796875,-30.76171875,-37.59765625,0.0
192.23828125,-32.2265625,-7.32421875,-37.109375,-25.390625,-137.20703125,0.0
192.2421875,-37.59765625,0.48828125,-42.96875,-41.50390625,-110.3515625,0.0
192.24609375,-39.55078125,-5.859375,-50.78125,-52.734375,-3.41796875,0.0
192.25,-39.55078125,-6.8359375,-50.29296875,-41.9921875,-53.7109375,0.0
192.25390625,-48.828125,-8.30078125,-55.17578125,-55.17578125,-180.6640625,0.0
192.2578125,-45.41015625,-15.625,-49.31640625,-50.78125,-221.19140625,0.0
192.26171875,-46.38671875,-35.15625,-52.734375,-45.8984375,-156.73828125,0.0
192.265625,-51.26953125,-20.5078125,-59.08203125,-52.24609375,-113.28125,0.0
192.26953125,-31.73828125,-1.46484375,-37.109375,-23.92578125,-125.9765625,0.0
192.2734375,-36.62109375,0.9765625,-30.76171875,-30.2734375,-154.296875,0.0
192.27734375,-38.0859375,-3.41796875,-23.92578125,-31.73828125,-194.82421875,0.0
192.28125,-27.83203125,-4.8828125,-18.5546875,-24.4140625,-158.203125,0.0
192.28515625,-35.64453125,-1.953125,-28.80859375,-39.0625,-147.4609375,0.0
192.2890625,-30.76171875,1.953125,-32.2265625,-30.2734375,-149.90234375,0.0
192.29296875,-24.90234375,-1.46484375,-33.69140625,-21.97265625,-88.37890625,0.0
192.296875,-47.36328125,-28.80859375,-54.19921875,-38.57421875,-131.8359375,0.0
192.30078125,-63.96484375,-48.33984375,-65.91796875,-55.17578125,-103.02734375,0.0
192.3046875,-51.7578125,-41.50390625,-58.59375,-46.38671875,-70.80078125,0.0
192.30859375,-25.87890625,-25.87890625,-35.64453125,-19.04296875,-78.61328125,0.0
192.3125,-4.39453125,-18.06640625,-5.859375,-3.41796875,40.0390625,0.0
192.31640625,-3.41796875,-20.01953125,6.8359375,6.34765625,60.546875,0.0
192.3203125,-31.25,-21.97265625,7.32421875,7.8125,39.0625,0.0
192.32421875,-31.25,-32.71484375,6.34765625,11.71875,88.37890625,0.0
192.328125,-7.8125,-41.9921875,21.97265625,32.2265625,15.13671875,0.0
192.33203125,0.0,-38.0859375,43.9453125,46.38671875,-71.77734375,0.0
192.3359375,2.9296875,-41.50390625,47.36328125,38.0859375,-0.9765625,0.0
192.33984375,19.04296875,-41.9921875,54.6875,53.7109375,95.703125,0.0
192.34375,38.57421875,-37.59765625,78.61328125,88.8671875,28.80859375,0.0
192.34765625,43.9453125,-42.48046875,89.35546875,93.75,39.55078125,0.0
192.3515625,41.50390625,-36.1328125,76.171875,79.58984375,53.22265625,0.0
192.35546875,24.90234375,-40.0390625,50.29296875,49.8046875,-31.73828125,0.0
192.359375,14.16015625,-51.7578125,41.015625,41.9921875,53.7109375,0.0
192.36328125,23.92578125,-50.29296875,57.12890625,64.94140625,147.94921875,0.0
192.3671875,26.85546875,-47.36328125,67.3828125,72.75390625,108.88671875,0.0
192.37109375,12.6953125,-48.828125,44.43359375,57.12890625,44.43359375,0.0
192.375,18.06640625,-41.50390625,33.69140625,44.43359375,-34.1796875,0.0
192.37890625,36.62109375,-29.78515625,60.05859375,57.6171875,-31.73828125,0.0
192.3828125,55.17578125,-26.85546875,83.49609375,74.70703125,62.5,0.0
192.38671875,79.1015625,-33.203125,89.35546875,87.890625,45.41015625,0.0
192.390625,80.56640625,-33.203125,89.35546875,99.609375,-24.90234375,0.0
192.39453125,47.8515625,-37.59765625,75.1953125,66.89453125,-105.95703125,0.0
192.3984375,33.203125,-29.78515625,61.5234375,50.29296875,-92.7734375,0.0
192.40234375,47.8515625,-26.85546875,67.87109375,64.453125,6.8359375,0.0
192.40625,66.89453125,-41.015625,73.73046875,76.66015625,-50.29296875,0.0
192.41015625,74.70703125,-32.2265625,72.265625,88.37890625,-51.26953125,0.0
192.4140625,50.78125,-21.484375,55.17578125,63.4765625,-5.859375,0.0
192.41796875,36.62109375,-23.92578125,46.875,39.55078125,-86.9140625,0.0
192.421875,51.7578125,-28.3203125,55.6640625,58.10546875,-70.3125,0.0
192.42578125,36.62109375,-28.3203125,39.55078125,39.0625,-45.41015625,0.0
192.4296875,16.11328125,-30.2734375,32.71484375,19.04296875,2.9296875,0.0
192.43359375,15.625,-30.76171875,38.0859375,29.78515625,11.71875,0.0
192.4375,14.6484375,-28.80859375,30.76171875,21.484375,-70.3125,0.0
192.44140625,9.765625,-37.109375,19.04296875,20.01953125,-49.8046875,0.0
192.4453125,20.5078125,-26.85546875,26.3671875,28.3203125,-37.109375,0.0
192.44921875,28.80859375,-22.4609375,34.1796875,26.3671875,-21.484375,0.0
192.453125,23.92578125,-33.203125,34.1796875,33.203125,-43.45703125,0.0
192.45703125,4.39453125,-36.62109375,20.5078125,21.97265625,-34.66796875,0.0
192.4609375,3.90625,-38.0859375,24.4140625,23.92578125,-1.46484375,0.0
192.46484375,31.25,-34.66796875,44.43359375,37.59765625,16.11328125,0.0
192.46875,20.99609375,-32.71484375,40.0390625,28.80859375,-55.6640625,0.0
192.47265625,23.4375,-31.73828125,48.828125,48.33984375,-80.56640625,0.0
192.4765625,20.5078125,-32.2265625,36.1328125,35.64453125,22.94921875,0.0
192.48046875,31.73828125,-34.1796875,45.8984375,50.78125,-35.15625,0.0
192.484375,30.2734375,-41.015625,45.8984375,59.5703125,-22.4609375,0.0
192.48828125,-1.953125,-38.57421875,17.08984375,14.6484375,-38.0859375,0.0
192.4921875,11.71875,-29.78515625,35.64453125,25.87890625,-88.8671875,0.0
192.49609375,24.4140625,-37.109375,39.0625,35.15625,-74.21875,0.0
192.5,13.671875,-47.8515625,31.73828125,23.4375,-68.359375,0.0
192.50390625,24.4140625,-47.8515625,55.6640625,42.96875,33.203125,0.0
192.5078125,33.69140625,-41.9921875,67.87109375,51.26953125,64.94140625,0.0
192.51171875,41.9921875,-40.52734375,77.63671875,56.15234375,-15.625,0.0
192.515625,46.875,-46.38671875,79.1015625,63.96484375,-49.31640625,0.0
192.51953125,20.5078125,-44.921875,53.7109375,39.0625,-98.14453125,0.0
192.5234375,13.671875,-34.66796875,39.0625,18.5546875,-135.25390625,0.0
192.52734375,8.30078125,-31.25,29.296875,6.8359375,-111.81640625,0.0
192.53125,-3.41796875,-31.25,14.16015625,5.859375,-20.01953125,0.0
192.53515625,-3.90625,-24.90234375,12.6953125,12.20703125,59.08203125,0.0
192.5390625,1.46484375,-23.92578125,22.4609375,17.578125,55.17578125,0.0
192.54296875,0.48828125,-33.69140625,9.27734375,3.90625,-24.90234375,0.0
192.546875,-20.5078125,-38.57421875,-12.20703125,-20.5078125,-10.25390625,0.0
192.55078125,-28.3203125,-30.2734375,-18.5546875,-19.53125,64.453125,0.0
192.5546875,-20.5078125,-24.4140625,-15.625,-18.5546875,14.6484375,0.0
192.55859375,-26.85546875,-29.78515625,-21.97265625,-26.3671875,-31.73828125,0.0
192.5625,-24.4140625,-29.296875,-32.2265625,-27.83203125,-94.23828125,0.0
192.56640625,-25.390625,-22.94921875,-35.15625,-40.52734375,-94.7265625,0.0
192.5703125,-41.50390625,-29.296875,-42.48046875,-55.6640625,-14.6484375,0.0
192.57421875,-44.43359375,-45.41015625,-53.22265625,-57.6171875,-23.92578125,0.0
192.578125,-37.59765625,-43.9453125,-62.01171875,-60.05859375,-21.484375,0.0
192.58203125,-33.203125,-37.109375,-54.19921875,-51.7578125,8.7890625,0.0
192.5859375,-27.34375,-30.76171875,-47.8515625,-41.015625,-40.0390625,0.0
192.58984375,-40.0390625,-32.71484375,-53.7109375,-49.8046875,-23.92578125,0.0
192.59375,-56.15234375,-39.0625,-53.22265625,-54.6875,27.83203125,0.0
192.59765625,-62.01171875,-41.50390625,-50.29296875,-51.26953125,-41.50390625,0.0
192.6015625,-65.4296875,-43.9453125,-52.24609375,-58.59375,-102.05078125,0.0
192.60546875,-56.640625,-39.55078125,-51.26953125,-48.828125,-70.3125,0.0
192.609375,-51.26953125,-30.76171875,-48.828125,-49.31640625,-83.0078125,0.0
192.61328125,-59.08203125,-24.90234375,-41.015625,-61.5234375,-76.66015625,0.0
192.6171875,-65.91796875,-17.578125,-43.9453125,-62.01171875,-51.26953125,0.0
192.62109375,-43.9453125,-29.296875,-32.2265625,-39.55078125,28.80859375,0.0
192.625,-35.64453125,-38.57421875,-18.06640625,-37.59765625,33.69140625,0.0
192.62890625,-24.4140625,-31.73828125,1.953125,-13.671875,-17.578125,0.0
192.6328125,-12.6953125,-17.578125,12.20703125,-3.90625,47.36328125,0.0
192.63671875,-11.71875,-20.01953125,5.859375,-22.4609375,-8.7890625,0.0
192.640625,-22.94921875,-28.80859375,-4.39453125,-25.390625,-36.1328125,0.0
192.64453125,-36.1328125,-24.4140625,-14.6484375,-30.76171875,90.33203125,0.0
192.6484375,-70.80078125,-27.83203125,-50.29296875,-69.3359375,27.34375,0.0
192.65234375,-132.8125,-31.25,-113.28125,-124.51171875,-41.50390625,0.0
192.65625,-110.3515625,-28.80859375,-97.16796875,-104.00390625,0.48828125,0.0
192.66015625,-66.40625,-37.59765625,-53.7109375,-70.3125,-57.6171875,0.0
192.6640625,-44.921875,-37.109375,-25.390625,-47.36328125,-100.5859375,0.0
192.66796875,-27.34375,-33.203125,-0.9765625,-29.78515625,-99.12109375,0.0
192.671875,-33.203125,-29.296875,5.859375,-34.66796875,-58.10546875,0.0
192.67578125,-42.48046875,-32.2265625,0.9765625,-35.15625,-52.734375,0.0
192.6796875,-13.18359375,-29.78515625,18.06640625,-7.32421875,-102.5390625,0.0
192.68359375,-7.32421875,-28.80859375,23.4375,-14.6484375,-123.046875,0.0
192.6875,-25.390625,-35.64453125,0.9765625,-38.57421875,-103.515625,0.0
192.69140625,-12.20703125,-20.01953125,5.37109375,-15.625,-38.0859375,0.0
192.6953125,-22.4609375,-12.6953125,-2.44140625,-19.53125,-90.33203125,0.0
192.69921875,-30.2734375,-25.390625,-8.30078125,-38.57421875,-92.7734375,0.0
192.703125,-14.16015625,-31.73828125,-0.48828125,-24.90234375,-15.13671875,0.0
192.70703125,-13.18359375,-35.64453125,1.46484375,-5.859375,-42.96875,0.0
192.7109375,-21.97265625,-38.57421875,2.9296875,-24.90234375,-21.97265625,0.0
192.71484375,-23.92578125,-41.015625,3.41796875,-32.71484375,5.37109375,0.0
192.71875,11.71875,-46.38671875,27.83203125,2.9296875,-67.3828125,0.0
192.72265625,38.0859375,-31.25,53.22265625,33.69140625,-59.5703125,0.0
192.7265625,17.578125,-19.53125,43.9453125,16.11328125,-78.61328125,0.0
192.73046875,13.671875,-25.87890625,33.69140625,6.34765625,-131.8359375,0.0
192.734375,-0.9765625,-31.25,20.01953125,-3.41796875,-96.6796875,0.0
192.73828125,-12.6953125,-30.76171875,12.6953125,-14.6484375,-17.578125,0.0
192.7421875,-5.859375,-27.83203125,18.5546875,3.41796875,92.28515625,0.0
192.74609375,-3.90625,-27.34375,30.76171875,11.23046875,98.14453125,0.0
192.75,1.953125,-34.66796875,38.57421875,5.859375,13.18359375,0.0
192.75390625,-7.8125,-42.48046875,17.578125,13.18359375,-22.4609375,0.0
192.7578125,-34.1796875,-38.57421875,-5.37109375,-16.11328125,-6.34765625,0.0
192.76171875,-44.43359375,-32.2265625,-25.390625,-51.26953125,17.08984375,0.0
192.765625,-17.08984375,-35.15625,-25.87890625,-28.3203125,23.92578125,0.0
192.76953125,-4.8828125,-39.0625,-21.484375,-18.5546875,26.3671875,0.0
192.7734375,-22.94921875,-34.1796875,-30.76171875,-34.66796875,21.484375,0.0
192.77734375,3.41796875,-36.62109375,2.9296875,-1.46484375,-13.18359375,0.0
192.78125,3.41796875,-38.0859375,9.27734375,2.9296875,3.90625,0.0
192.78515625,-27.83203125,-39.55078125,-23.4375,-32.2265625,-31.73828125,0.0
192.7890625,-29.78515625,-35.64453125,-33.69140625,-47.8515625,-26.85546875,0.0
192.79296875,-21.97265625,-29.78515625,-40.0390625,-35.64453125,60.546875,0.0
192.796875,-3.90625,-32.2265625,-27.34375,-19.04296875,50.78125,0.0
192.80078125,9.765625,-32.2265625,-10.7421875,-7.32421875,-41.9921875,0.0
192.8046875,32.2265625,-24.4140625,22.4609375,31.25,-113.76953125,0.0
192.80859375,39.55078125,-24.4140625,32.71484375,29.78515625,-117.1875,0.0
192.8125,42.48046875,-34.66796875,31.25,25.87890625,-3.41796875,0.0
192.81640625,-11.23046875,-40.52734375,-12.6953125,-17.08984375,55.17578125,0.0
192.8203125,-31.73828125,-32.71484375,-22.94921875,-39.55078125,-52.24609375,0.0
192.82421875,27.83203125,-35.15625,37.59765625,20.01953125,-89.84375,0.0
192.828125,46.38671875,-44.43359375,49.8046875,51.26953125,-91.30859375,0.0
192.83203125,52.24609375,-48.33984375,56.640625,63.4765625,-100.5859375,0.0
192.8359375,43.9453125,-51.7578125,57.6171875,46.875,-98.6328125,0.0
192.83984375,35.64453125,-45.41015625,46.38671875,49.31640625,-96.19140625,0.0
192.84375,20.01953125,-38.57421875,32.71484375,38.0859375,-55.17578125,0.0
192.84765625,18.5546875,-37.109375,34.66796875,23.92578125,-57.12890625,0.0
192.8515625,28.3203125,-40.0390625,37.109375,24.4140625,-55.6640625,0.0
192.85546875,35.15625,-37.109375,31.25,22.4609375,-2.9296875,0.0
192.859375,23.92578125,-31.73828125,14.6484375,16.11328125,41.015625,0.0
192.86328125,-3.41796875,-44.43359375,-8.30078125,3.41796875,36.1328125,0.0
192.8671875,7.32421875,-41.015625,9.27734375,10.7421875,-23.4375,0.0
192.87109375,5.859375,-36.1328125,14.6484375,3.41796875,-53.7109375,0.0
192.875,-0.48828125,-46.38671875,7.8125,-3.41796875,-64.94140625,0.0
192.87890625,7.32421875,-41.50390625,20.01953125,-7.32421875,-44.43359375,0.0
192.8828125,-7.8125,-37.109375,4.8828125,-23.92578125,34.1796875,0.0
192.88671875,-19.53125,-43.9453125,-27.34375,-43.9453125,-45.41015625,0.0
192.890625,-57.12890625,-46.875,-46.875,-79.58984375,-125.48828125,0.0
192.89453125,-103.515625,-33.203125,-53.7109375,-112.79296875,-68.359375,0.0
192.8984375,-83.984375,-30.2734375,-48.33984375,-97.16796875,-32.2265625,0.0
192.90234375,-67.87109375,-42.48046875,-34.1796875,-82.51953125,-58.59375,0.0
192.90625,-94.7265625,-40.52734375,-57.6171875,-117.67578125,-25.390625,0.0
192.91015625,-101.5625,-37.109375,-79.58984375,-125.0,-23.4375,0.0
192.9140625,-115.234375,-23.92578125,-73.2421875,-113.28125,-32.2265625,0.0
192.91796875,-112.3046875,-24.4140625,-68.84765625,-106.4453125,89.35546875,0.0
192.921875,-76.171875,-41.9921875,-60.05859375,-93.75,61.03515625,0.0
192.92578125,-62.01171875,-41.50390625,-56.640625,-81.54296875,16.6015625,0.0
192.9296875,-44.43359375,-29.78515625,-47.36328125,-55.6640625,33.69140625,0.0
192.93359375,-37.109375,-30.2734375,-47.8515625,-50.29296875,-33.203125,0.0
192.9375,-34.66796875,-35.64453125,-46.38671875,-50.78125,-59.08203125,0.0
192.94140625,-35.64453125,-36.1328125,-54.19921875,-56.640625,-51.26953125,0.0
192.9453125,-58.10546875,-41.50390625,-77.63671875,-77.1484375,-93.26171875,0.0
192.94921875,-26.85546875,-30.76171875,-53.7109375,-41.50390625,-91.30859375,0.0
192.953125,17.578125,-25.87890625,-19.04296875,4.8828125,-51.7578125,0.0
192.95703125,3.41796875,-38.57421875,-21.97265625,-9.27734375,-49.8046875,0.0
192.9609375,27.34375,-27.83203125,1.46484375,1.953125,-24.90234375,0.0
192.96484375,48.33984375,-29.296875,5.37109375,18.06640625,7.32421875,0.0
192.96875,21.97265625,-43.9453125,-28.3203125,-4.8828125,36.1328125,0.0
192.97265625,0.48828125,-41.9921875,-40.0390625,-26.85546875,-2.9296875,0.0
192.9765625,-31.73828125,-34.66796875,-70.3125,-50.29296875,-56.15234375,0.0
192.98046875,-36.62109375,-35.64453125,-82.03125,-45.41015625,-94.7265625,0.0
192.984375,-35.15625,-47.36328125,-83.0078125,-43.45703125,-117.1875,0.0
192.98828125,-41.50390625,-43.9453125,-88.8671875,-58.10546875,-88.8671875,0.0
192.9921875,-15.625,-36.1328125,-65.91796875,-29.78515625,-51.26953125,0.0
192.99609375,19.04296875,-40.52734375,-27.34375,7.32421875,-29.296875,0.0
193.0,21.97265625,-37.59765625,-7.8125,14.6484375,4.39453125,0.0
193.00390625,10.7421875,-38.0859375,-22.4609375,7.8125,36.62109375,0.0
193.0078125,16.11328125,-38.57421875,-25.87890625,14.16015625,-94.7265625,0.0
193.01171875,18.06640625,-34.66796875,-27.83203125,11.71875,-140.625,0.0
193.015625,6.34765625,-43.45703125,-37.109375,-12.20703125,-102.05078125,0.0
193.01953125,-3.90625,-50.78125,-42.48046875,-17.578125,-101.07421875,0.0
193.0234375,-20.5078125,-41.9921875,-48.33984375,-30.2734375,-53.22265625,0.0
193.02734375,-50.29296875,-30.2734375,-57.12890625,-44.921875,-15.13671875,0.0
193.03125,-44.921875,-40.0390625,-49.31640625,-26.85546875,38.0859375,0.0
193.03515625,0.48828125,-53.7109375,-22.94921875,-1.953125,127.9296875,0.0
193.0390625,4.39453125,-43.45703125,-20.99609375,0.48828125,172.36328125,0.0
193.04296875,9.765625,-33.203125,-19.04296875,5.37109375,144.53125,0.0
193.046875,15.625,-28.80859375,-16.6015625,3.90625,56.15234375,0.0
193.05078125,-23.4375,-22.94921875,-34.1796875,-25.390625,-6.34765625,0.0
193.0546875,-38.0859375,-18.06640625,-47.36328125,-41.50390625,-26.85546875,0.0
193.05859375,-7.8125,-31.25,-27.83203125,-24.4140625,-2.44140625,0.0
193.0625,-8.30078125,-51.26953125,-27.83203125,-14.6484375,7.8125,0.0
193.06640625,-27.83203125,-45.8984375,-45.41015625,-30.76171875,-7.8125,0.0
193.0703125,-57.6171875,-41.50390625,-64.453125,-54.19921875,6.34765625,0.0
193.07421875,-82.51953125,-48.33984375,-73.73046875,-69.82421875,-33.69140625,0.0
193.078125,-73.2421875,-43.9453125,-59.5703125,-53.7109375,-51.26953125,0.0
193.08203125,-67.3828125,-70.80078125,-65.4296875,-65.91796875,-23.4375,0.0
193.0859375,-89.84375,-88.37890625,-88.37890625,-98.6328125,16.6015625,0.0
193.08984375,-109.86328125,-99.609375,-96.19140625,-104.4921875,-15.13671875,0.0
193.09375,-115.234375,-112.3046875,-103.515625,-113.76953125,-42.96875,0.0
193.09765625,-97.16796875,-102.05078125,-94.23828125,-102.05078125,8.7890625,0.0
193.1015625,-95.21484375,-95.21484375,-86.42578125,-104.00390625,-2.44140625,0.0
193.10546875,-120.60546875,-105.95703125,-108.88671875,-127.9296875,-41.50390625,0.0
193.109375,-123.53515625,-99.12109375,-104.98046875,-112.3046875,-73.73046875,0.0
193.11328125,-110.3515625,-88.37890625,-89.35546875,-97.16796875,-59.08203125,0.0
193.1171875,-114.2578125,-87.890625,-100.5859375,-110.83984375,-47.8515625,0.0
193.12109375,-102.5390625,-70.80078125,-82.03125,-105.95703125,-45.41015625,0.0
193.125,-83.49609375,-39.55078125,-54.19921875,-81.0546875,-15.13671875,0.0
193.12890625,-87.890625,-22.4609375,-41.9921875,-77.63671875,-80.56640625,0.0
193.1328125,-97.16796875,-25.390625,-45.8984375,-94.23828125,-152.83203125,0.0
193.13671875,-77.1484375,-20.5078125,-42.96875,-83.984375,-200.68359375,0.0
193.140625,-83.984375,-26.3671875,-48.828125,-84.9609375,-218.26171875,0.0
193.14453125,-106.4453125,-31.25,-53.22265625,-105.95703125,-137.6953125,0.0
193.1484375,-96.6796875,-21.97265625,-38.57421875,-104.4921875,-179.6875,0.0
193.15234375,-88.37890625,-20.5078125,-45.8984375,-106.93359375,-197.75390625,0.0
193.15625,-105.46875,-26.85546875,-66.89453125,-113.28125,-168.9453125,0.0
193.16015625,-108.88671875,-29.296875,-74.70703125,-100.5859375,-98.6328125,0.0
193.1640625,-72.75390625,-17.578125,-70.80078125,-68.359375,18.5546875,0.0
193.16796875,-60.05859375,-10.7421875,-67.3828125,-50.78125,71.2890625,0.0
193.171875,-79.1015625,-23.4375,-64.453125,-66.89453125,75.1953125,0.0
193.17578125,-59.08203125,-25.87890625,-61.03515625,-49.8046875,9.765625,0.0
193.1796875,-31.25,-24.90234375,-57.6171875,-25.87890625,-62.98828125,0.0
193.18359375,-37.59765625,-33.69140625,-60.05859375,-36.62109375,-51.7578125,0.0
193.1875,-43.9453125,-25.87890625,-65.91796875,-29.296875,0.9765625,0.0
193.19140625,-51.26953125,-29.78515625,-77.1484375,-30.76171875,-90.33203125,0.0
193.1953125,-58.10546875,-36.1328125,-87.40234375,-43.45703125,-89.84375,0.0
193.19921875,-64.453125,-35.64453125,-98.14453125,-47.36328125,-56.15234375,0.0
193.203125,-72.265625,-40.0390625,-104.00390625,-55.17578125,-99.609375,0.0
193.20703125,-80.56640625,-40.52734375,-95.703125,-71.2890625,-56.15234375,0.0
193.2109375,-85.9375,-30.76171875,-88.8671875,-61.5234375,17.08984375,0.0
193.21484375,-62.01171875,-25.390625,-83.984375,-29.78515625,-38.57421875,0.0
193.21875,-53.7109375,-36.1328125,-83.984375,-28.80859375,-29.296875,0.0
193.22265625,-65.91796875,-41.015625,-90.33203125,-43.9453125,22.94921875,0.0
193.2265625,-41.9921875,-40.52734375,-80.56640625,-41.50390625,8.30078125,0.0
193.23046875,-8.30078125,-39.55078125,-53.7109375,-10.25390625,60.05859375,0.0
193.234375,1.953125,-35.64453125,-32.71484375,9.27734375,72.265625,0.0
193.23828125,-4.39453125,-37.109375,-40.0390625,-1.46484375,-46.38671875,0.0
193.2421875,-4.39453125,-31.25,-49.8046875,-3.41796875,-30.76171875,0.0
193.24609375,-0.48828125,-29.296875,-43.9453125,-5.37109375,19.53125,0.0
193.25,-2.44140625,-37.109375,-58.10546875,-4.8828125,-60.546875,0.0
193.25390625,16.11328125,-31.73828125,-56.640625,6.8359375,-43.9453125,0.0
193.2578125,39.55078125,-27.34375,-39.0625,19.04296875,5.859375,0.0
193.26171875,16.6015625,-30.2734375,-44.43359375,-5.859375,46.875,0.0
193.265625,-11.23046875,-34.66796875,-51.7578125,-16.11328125,57.12890625,0.0
193.26953125,-15.13671875,-32.2265625,-46.875,3.41796875,14.6484375,0.0
193.2734375,-39.0625,-22.94921875,-66.40625,-15.625,-3.41796875,0.0
193.27734375,-27.83203125,-22.4609375,-68.359375,-11.71875,-19.53125,0.0
193.28125,-8.30078125,-23.92578125,-41.015625,12.20703125,6.34765625,0.0
193.28515625,-35.64453125,-24.4140625,-50.78125,-8.7890625,-30.76171875,0.0
193.2890625,-56.640625,-15.13671875,-64.94140625,-29.296875,-45.8984375,0.0
193.29296875,-41.9921875,-18.5546875,-57.6171875,-19.04296875,-28.3203125,0.0
193.296875,-27.34375,-35.15625,-48.828125,-12.6953125,-20.01953125,0.0
193.30078125,-16.6015625,-36.62109375,-37.59765625,-4.39453125,-22.4609375,0.0
193.3046875,-9.765625,-33.69140625,-30.76171875,-1.953125,-43.45703125,0.0
193.30859375,-25.390625,-32.2265625,-47.8515625,-29.78515625,-53.7109375,0.0
193.3125,-34.66796875,-32.2265625,-53.22265625,-35.64453125,5.859375,0.0
193.31640625,-11.71875,-28.3203125,-20.01953125,-13.18359375,53.22265625,0.0
193.3203125,-0.9765625,-30.2734375,-16.11328125,-16.6015625,-24.4140625,0.0
193.32421875,-17.578125,-35.64453125,-31.25,-26.3671875,-52.24609375,0.0
193.328125,-20.5078125,-39.0625,-25.87890625,-21.97265625,36.62109375,0.0
193.33203125,-18.5546875,-39.0625,-19.53125,-23.92578125,42.48046875,0.0
193.3359375,0.9765625,-22.4609375,-12.20703125,3.41796875,37.59765625,0.0
193.33984375,39.0625,-34.66796875,8.30078125,38.57421875,16.11328125,0.0
193.34375,18.5546875,-44.921875,15.13671875,22.4609375,7.32421875,0.0
193.34765625,-2.44140625,-25.87890625,5.37109375,-4.39453125,61.5234375,0.0
193.3515625,27.34375,-16.11328125,13.18359375,22.94921875,50.29296875,0.0
193.35546875,40.52734375,-17.08984375,16.6015625,47.8515625,-23.92578125,0.0
193.359375,46.875,-20.01953125,7.8125,54.19921875,-134.27734375,0.0
193.36328125,43.9453125,44.43359375,-0.48828125,32.2265625,-129.8828125,0.0
193.3671875,25.390625,40.0390625,-11.23046875,-5.37109375,-20.99609375,0.0
193.37109375,22.4609375,52.24609375,-13.18359375,8.7890625,-51.26953125,0.0
193.375,32.2265625,43.9453125,-16.11328125,22.94921875,-83.49609375,0.0
193.37890625,26.3671875,29.78515625,-45.8984375,10.7421875,-22.4609375,0.0
193.3828125,-1.46484375,14.6484375,-67.87109375,-21.97265625,-20.5078125,0.0
193.38671875,-23.92578125,-8.30078125,-65.91796875,-41.50390625,-77.1484375,0.0
193.390625,-8.30078125,0.9765625,-55.6640625,-25.390625,-59.08203125,0.0
193.39453125,0.9765625,15.625,-50.29296875,-15.13671875,-4.8828125,0.0
193.3984375,-22.4609375,-8.30078125,-66.40625,-26.3671875,-47.36328125,0.0
193.40234375,-8.7890625,-4.8828125,-58.59375,-16.6015625,-61.5234375,0.0
193.40625,-4.39453125,5.37109375,-56.15234375,-22.4609375,-30.76171875,0.0
193.41015625,-27.34375,-35.64453125,-78.61328125,-58.59375,-114.2578125,0.0
193.4140625,-22.94921875,-31.73828125,-77.63671875,-51.7578125,-199.70703125,0.0
193.41796875,-17.578125,-23.92578125,-76.171875,-43.9453125,-87.40234375,0.0
193.421875,-25.87890625,-34.1796875,-74.21875,-54.6875,47.8515625,0.0
193.42578125,-40.0390625,-30.2734375,-66.89453125,-61.5234375,43.9453125,0.0
193.4296875,-46.38671875,-27.34375,-63.4765625,-52.24609375,-10.25390625,0.0
193.43359375,-34.66796875,-34.66796875,-69.3359375,-56.640625,-0.48828125,0.0
193.4375,-14.6484375,-47.36328125,-71.77734375,-54.19921875,44.43359375,0.0
193.44140625,-11.71875,-50.78125,-69.3359375,-39.55078125,0.0,0.0
193.4453125,-16.11328125,-35.15625,-78.61328125,-51.26953125,-44.43359375,0.0
193.44921875,-4.8828125,-36.62109375,-78.125,-42.48046875,-24.90234375,0.0
193.453125,-6.34765625,-48.828125,-68.359375,-30.76171875,-41.9921875,0.0
193.45703125,-25.87890625,-37.59765625,-79.1015625,-51.7578125,-45.41015625,0.0
193.4609375,-54.19921875,-33.69140625,-102.05078125,-73.2421875,-85.44921875,0.0
193.46484375,-61.03515625,-38.57421875,-100.09765625,-80.56640625,-156.73828125,0.0
193.46875,-45.8984375,-32.2265625,-84.9609375,-76.66015625,-231.93359375,0.0
193.47265625,-32.71484375,-23.92578125,-81.0546875,-66.89453125,-232.91015625,0.0
193.4765625,-35.64453125,-24.90234375,-83.49609375,-62.98828125,-165.52734375,0.0
193.48046875,-49.8046875,-31.73828125,-93.26171875,-71.77734375,-107.91015625,0.0
193.484375,-50.29296875,-36.1328125,-88.37890625,-70.3125,-109.375,0.0
193.48828125,-51.7578125,-38.0859375,-82.51953125,-72.265625,-180.6640625,0.0
193.4921875,-53.22265625,-31.25,-78.125,-67.3828125,-124.0234375,0.0
193.49609375,-61.03515625,-24.90234375,-82.03125,-71.77734375,-87.890625,0.0
193.5,-62.01171875,-34.1796875,-89.35546875,-96.19140625,-101.07421875,0.0
193.50390625,-44.43359375,-42.48046875,-75.1953125,-68.359375,-85.44921875,0.0
193.5078125,-31.25,-24.4140625,-66.89453125,-44.43359375,-112.79296875,0.0
193.51171875,-38.57421875,-23.92578125,-79.58984375,-68.359375,-76.66015625,0.0
193.515625,-36.62109375,-34.66796875,-77.1484375,-59.08203125,-72.265625,0.0
193.51953125,-23.92578125,-30.76171875,-62.5,-60.05859375,-122.55859375,0.0
193.5234375,-34.1796875,-25.390625,-64.94140625,-61.5234375,-104.4921875,0.0
193.52734375,-45.8984375,-22.4609375,-67.87109375,-49.31640625,-40.0390625,0.0
193.53125,-52.24609375,-30.2734375,-64.94140625,-66.89453125,-90.8203125,0.0
193.53515625,-45.8984375,-30.76171875,-62.98828125,-66.40625,-125.0,0.0
193.5390625,-37.59765625,-34.1796875,-59.5703125,-62.98828125,5.37109375,0.0
193.54296875,-56.640625,-42.48046875,-64.453125,-78.61328125,-21.484375,0.0
193.546875,-81.54296875,-39.55078125,-82.03125,-87.890625,-80.56640625,0.0
193.55078125,-75.1953125,-27.83203125,-78.61328125,-82.03125,-44.43359375,0.0
193.5546875,-70.3125,-22.94921875,-64.94140625,-83.984375,-15.13671875,0.0
193.55859375,-83.0078125,-33.203125,-72.265625,-94.7265625,-13.671875,0.0
193.5625,-90.8203125,-44.43359375,-78.61328125,-106.93359375,-41.015625,0.0
193.56640625,-78.125,-40.0390625,-65.91796875,-86.42578125,117.1875,0.0
193.5703125,-56.15234375,-24.90234375,-46.875,-66.89453125,167.48046875,0.0
193.57421875,-29.78515625,-34.1796875,-23.92578125,-51.7578125,89.35546875,0.0
193.578125,-22.4609375,-47.36328125,-8.30078125,-38.0859375,39.55078125,0.0
193.58203125,-32.2265625,-39.55078125,-13.18359375,-49.31640625,59.5703125,0.0
193.5859375,-44.43359375,-37.109375,-28.80859375,-61.03515625,82.51953125,0.0
193.58984375,-63.96484375,-39.55078125,-45.41015625,-68.359375,103.515625,0.0
193.59375,-71.77734375,-33.203125,-57.6171875,-76.171875,152.83203125,0.0
193.59765625,-65.91796875,-37.109375,-57.6171875,-71.2890625,71.77734375,0.0
193.6015625,-75.1953125,-38.0859375,-66.40625,-83.0078125,-19.53125,0.0
193.60546875,-89.35546875,-32.2265625,-77.1484375,-93.75,24.4140625,0.0
193.609375,-85.44921875,-37.59765625,-62.5,-81.0546875,51.7578125,0.0
193.61328125,-91.30859375,-36.1328125,-66.89453125,-91.796875,14.16015625,0.0
193.6171875,-93.75,-26.85546875,-75.1953125,-86.42578125,-30.2734375,0.0
193.62109375,-70.80078125,-36.62109375,-61.03515625,-80.078125,-69.3359375,0.0
193.625,-79.58984375,-54.6875,-61.5234375,-89.84375,-94.7265625,0.0
193.62890625,-81.54296875,-54.6875,-60.05859375,-78.61328125,-133.7890625,0.0
193.6328125,-40.52734375,-38.0859375,-38.0859375,-35.64453125,-171.875,0.0
193.63671875,-42.48046875,-42.48046875,-40.0390625,-33.203125,-138.18359375,0.0
193.640625,-58.59375,-49.8046875,-51.7578125,-58.10546875,-59.5703125,0.0
193.64453125,-52.24609375,-40.0390625,-43.9453125,-57.6171875,-94.7265625,0.0
193.6484375,-47.36328125,-34.66796875,-40.52734375,-57.12890625,-63.96484375,0.0
193.65234375,-27.34375,-34.1796875,-46.875,-41.015625,83.49609375,0.0
193.65625,-20.01953125,-41.50390625,-33.69140625,-33.203125,118.65234375,0.0
193.66015625,-57.12890625,-53.7109375,-20.99609375,-53.22265625,67.3828125,0.0
193.6640625,-71.2890625,-47.8515625,-20.99609375,-55.6640625,-46.38671875,0.0
193.66796875,-38.0859375,-47.36328125,-10.25390625,-41.9921875,-119.62890625,0.0
193.671875,-28.3203125,-52.24609375,1.46484375,-36.62109375,-124.51171875,0.0
193.67578125,-41.50390625,-44.43359375,-2.44140625,-48.33984375,-37.59765625,0.0
193.6796875,-47.36328125,-40.52734375,-4.39453125,-52.24609375,20.99609375,0.0
193.68359375,-40.52734375,-36.1328125,4.39453125,-44.921875,30.76171875,0.0
193.6875,-51.26953125,-27.83203125,-4.8828125,-57.6171875,7.8125,0.0
193.69140625,-47.8515625,-23.92578125,-16.6015625,-62.5,19.04296875,0.0
193.6953125,-52.734375,-28.3203125,-35.64453125,-65.4296875,70.3125,0.0
193.69921875,-60.05859375,-37.109375,-35.64453125,-61.03515625,80.078125,0.0
193.703125,-33.69140625,-33.203125,-20.5078125,-36.62109375,18.5546875,0.0
193.70703125,-23.4375,-31.25,-21.484375,-35.64453125,-48.828125,0.0
193.7109375,-32.2265625,-28.80859375,-27.83203125,-39.55078125,-40.0390625,0.0
193.71484375,-33.69140625,-24.90234375,-30.2734375,-37.109375,-7.32421875,0.0
193.71875,-10.25390625,-41.50390625,-14.16015625,-20.99609375,-23.4375,0.0
193.72265625,-7.32421875,-48.33984375,-5.37109375,-12.6953125,-64.453125,0.0
193.7265625,-37.59765625,-36.1328125,-14.16015625,-34.1796875,-101.07421875,0.0
193.73046875,-49.31640625,-29.296875,-24.4140625,-47.36328125,-115.234375,0.0
193.734375,-50.78125,-29.78515625,-32.2265625,-43.9453125,-165.0390625,0.0
193.73828125,-23.92578125,-20.99609375,-4.8828125,-20.99609375,-156.25,0.0
193.7421875,-29.296875,-15.625,-6.8359375,-45.41015625,-14.6484375,0.0
193.74609375,-60.05859375,-30.76171875,-39.0625,-66.40625,17.08984375,0.0
193.75,-75.1953125,-32.71484375,-64.453125,-84.47265625,-56.15234375,0.0
193.75390625,-87.40234375,-22.94921875,-83.984375,-111.81640625,-64.453125,0.0
193.7578125,-63.4765625,-20.99609375,-59.5703125,-75.1953125,1.953125,0.0
193.76171875,-70.3125,-31.73828125,-61.03515625,-72.75390625,43.9453125,0.0
193.765625,-96.6796875,-39.0625,-93.26171875,-97.16796875,41.50390625,0.0
193.76953125,-105.46875,-31.73828125,-92.28515625,-102.5390625,35.15625,0.0
193.7734375,-105.95703125,-20.01953125,-79.58984375,-102.05078125,-51.26953125,0.0
193.77734375,-109.86328125,-24.4140625,-95.21484375,-122.0703125,-45.8984375,0.0
193.78125,-122.55859375,-28.80859375,-119.140625,-140.13671875,-5.859375,0.0
193.78515625,-101.07421875,-21.484375,-100.09765625,-109.375,-67.87109375,0.0
193.7890625,-83.49609375,-20.99609375,-93.75,-101.5625,-7.8125,0.0
193.79296875,-89.35546875,-26.3671875,-101.5625,-101.5625,47.8515625,0.0
193.796875,-77.63671875,-34.1796875,-80.078125,-90.33203125,-54.19921875,0.0
193.80078125,-73.2421875,-39.55078125,-69.82421875,-74.70703125,-47.8515625,0.0
193.8046875,-83.984375,-33.203125,-73.2421875,-76.66015625,-27.83203125,0.0
193.80859375,-82.51953125,-32.2265625,-68.359375,-78.125,-25.87890625,0.0
193.8125,-109.375,-30.76171875,-95.703125,-104.98046875,18.5546875,0.0
193.81640625,-136.71875,-26.85546875,-128.41796875,-138.671875,6.8359375,0.0
193.8203125,-127.9296875,-28.3203125,-118.65234375,-123.046875,-4.8828125,0.0
193.82421875,-103.515625,-33.203125,-104.4921875,-103.515625,-41.015625,0.0
193.828125,-93.26171875,-36.1328125,-100.5859375,-105.46875,-14.6484375,0.0
193.83203125,-111.81640625,-27.34375,-103.515625,-111.81640625,57.12890625,0.0
193.8359375,-118.1640625,-28.3203125,-110.83984375,-107.421875,-3.41796875,0.0
193.83984375,-104.4921875,-35.64453125,-105.95703125,-89.84375,-8.30078125,0.0
193.84375,-101.5625,-36.1328125,-101.07421875,-84.9609375,-26.3671875,0.0
193.84765625,-107.91015625,-32.2265625,-109.86328125,-101.07421875,-87.40234375,0.0
193.8515625,-87.40234375,-26.3671875,-89.35546875,-77.63671875,-42.96875,0.0
193.85546875,-54.19921875,-41.9921875,-48.828125,-40.0390625,-88.37890625,0.0
193.859375,-20.99609375,-41.9921875,-17.08984375,-13.671875,-138.671875,0.0
193.86328125,-31.25,-27.34375,-26.3671875,-23.92578125,-54.6875,0.0
193.8671875,-58.10546875,-20.99609375,-50.29296875,-54.6875,-76.171875,0.0
193.87109375,-45.8984375,-13.671875,-37.59765625,-53.22265625,-148.4375,0.0
193.875,-39.55078125,-20.01953125,-32.71484375,-37.109375,-128.90625,0.0
193.87890625,-32.71484375,-26.3671875,-34.1796875,-24.90234375,-136.23046875,0.0
193.8828125,-30.2734375,-26.3671875,-35.15625,-30.76171875,-183.10546875,0.0
193.88671875,-62.01171875,-28.3203125,-63.96484375,-74.21875,-192.3828125,0.0
193.890625,-51.7578125,-32.71484375,-54.6875,-56.640625,-190.4296875,0.0
193.89453125,-30.76171875,-32.71484375,-33.203125,-23.4375,-96.6796875,0.0
193.8984375,-29.296875,-32.2265625,-33.203125,-15.625,-118.1640625,0.0
193.90234375,-16.11328125,-29.296875,-25.390625,-11.23046875,-143.5546875,0.0
193.90625,-17.578125,-28.80859375,-22.94921875,-5.859375,-148.92578125,0.0
193.91015625,-20.99609375,-26.85546875,-24.4140625,9.765625,-36.1328125,0.0
193.9140625,-14.16015625,-30.76171875,-30.2734375,-11.71875,71.2890625,0.0
193.91796875,-21.97265625,-30.76171875,-37.109375,-25.390625,0.0,0.0
193.921875,-37.59765625,-31.73828125,-41.015625,-28.3203125,-18.5546875,0.0
193.92578125,-30.2734375,-28.80859375,-28.80859375,-25.390625,-47.8515625,0.0
193.9296875,-25.87890625,-22.94921875,-30.76171875,-28.3203125,-55.6640625,0.0
193.93359375,-15.625,-16.6015625,-37.109375,-37.59765625,21.484375,0.0
193.9375,-1.953125,-14.6484375,-33.203125,-27.34375,19.53125,0.0
193.94140625,7.8125,-18.5546875,-30.2734375,-25.390625,-18.06640625,0.0
193.9453125,8.30078125,-4.39453125,-33.203125,-37.109375,36.62109375,0.0
193.94921875,-12.20703125,-7.8125,-43.45703125,-36.1328125,-36.1328125,0.0
193.953125,-24.90234375,-12.20703125,-46.875,-33.69140625,-159.66796875,0.0
193.95703125,-15.13671875,-14.6484375,-44.43359375,-21.484375,-178.22265625,0.0
193.9609375,-16.6015625,-12.6953125,-44.43359375,-19.04296875,-134.765625,0.0
193.96484375,-22.4609375,-8.7890625,-49.8046875,-32.2265625,-142.578125,0.0
193.96875,-13.671875,-2.9296875,-46.38671875,-29.78515625,-123.046875,0.0
193.97265625,-20.99609375,-3.41796875,-41.9921875,-33.203125,-76.66015625,0.0
193.9765625,-34.66796875,-15.625,-42.48046875,-20.99609375,-131.8359375,0.0
193.98046875,-32.71484375,-13.671875,-45.8984375,-35.15625,-167.96875,0.0
193.984375,-37.109375,-9.765625,-54.6875,-59.5703125,-41.9921875,0.0
193.98828125,-46.875,-12.20703125,-46.875,-51.26953125,76.171875,0.0
193.9921875,-55.17578125,-12.20703125,-47.36328125,-50.29296875,73.2421875,0.0
193.99609375,-50.29296875,-19.53125,-55.17578125,-59.08203125,29.78515625,0.0
194.0,-45.8984375,-20.99609375,-43.9453125,-48.33984375,54.6875,0.0
194.00390625,-40.52734375,-18.06640625,-33.203125,-40.52734375,143.5546875,0.0
194.0078125,-30.76171875,-14.16015625,-24.90234375,-26.85546875,127.9296875,0.0
194.01171875,-29.296875,-14.6484375,-24.90234375,-16.11328125,100.5859375,0.0
194.015625,-37.109375,-15.625,-47.36328125,-38.0859375,84.9609375,0.0
194.01953125,-42.96875,-11.71875,-55.6640625,-47.36328125,43.9453125,0.0
194.0234375,-41.50390625,-14.6484375,-41.9921875,-34.1796875,21.97265625,0.0
194.02734375,-42.96875,-17.08984375,-36.1328125,-28.3203125,22.94921875,0.0
194.03125,-24.4140625,-21.484375,-33.69140625,-25.87890625,87.890625,0.0
194.03515625,-21.484375,-22.4609375,-31.25,-33.69140625,55.17578125,0.0
194.0390625,-20.99609375,-15.13671875,-19.04296875,-16.11328125,-42.48046875,0.0
194.04296875,-45.8984375,-19.53125,-46.38671875,-39.0625,-70.3125,0.0
194.046875,-65.4296875,-30.2734375,-72.75390625,-62.5,-78.61328125,0.0
194.05078125,-37.109375,-27.34375,-52.24609375,-39.55078125,-42.48046875,0.0
194.0546875,-48.33984375,-24.90234375,-57.12890625,-62.5,-33.69140625,0.0
194.05859375,-56.15234375,-29.78515625,-55.6640625,-53.7109375,-65.91796875,0.0
194.0625,-42.96875,-28.3203125,-35.15625,-36.62109375,-87.890625,0.0
194.06640625,-43.9453125,-27.34375,-43.9453125,-48.828125,-105.95703125,0.0
194.0703125,-37.59765625,-35.64453125,-41.50390625,-37.59765625,-118.65234375,0.0
194.07421875,-20.5078125,-42.96875,-21.484375,-17.08984375,-118.65234375,0.0
194.078125,-14.16015625,-38.0859375,-24.4140625,-20.01953125,-144.04296875,0.0
194.08203125,-38.0859375,-45.41015625,-50.29296875,-52.734375,-178.22265625,0.0
194.0859375,-58.59375,-47.8515625,-76.171875,-81.54296875,-155.76171875,0.0
194.08984375,-69.82421875,-39.0625,-92.7734375,-78.61328125,-86.42578125,0.0
194.09375,-71.2890625,-37.59765625,-96.6796875,-71.2890625,-94.7265625,0.0
194.09765625,-72.75390625,-40.52734375,-95.703125,-73.2421875,-158.69140625,0.0
194.1015625,-46.38671875,-37.59765625,-73.2421875,-47.36328125,-121.09375,0.0
194.10546875,-39.0625,-31.73828125,-71.77734375,-43.9453125,-61.5234375,0.0
194.109375,-59.08203125,-35.15625,-85.44921875,-68.359375,-35.64453125,0.0
194.11328125,-71.77734375,-31.25,-105.95703125,-94.23828125,39.55078125,0.0
194.1171875,-62.98828125,-28.3203125,-106.4453125,-91.30859375,52.734375,0.0
194.12109375,-66.40625,-45.8984375,-99.609375,-91.30859375,43.45703125,0.0
194.125,-98.14453125,-59.08203125,-122.55859375,-117.67578125,18.06640625,0.0
194.12890625,-98.14453125,-46.38671875,-126.953125,-107.421875,-2.9296875,0.0
194.1328125,-90.8203125,-36.1328125,-121.09375,-101.5625,5.37109375,0.0
194.13671875,-87.40234375,-49.31640625,-116.69921875,-108.88671875,6.34765625,0.0
194.140625,-102.05078125,-56.15234375,-127.44140625,-117.1875,33.203125,0.0
194.14453125,-86.42578125,-48.828125,-109.86328125,-94.7265625,4.8828125,0.0
194.1484375,-81.0546875,-47.36328125,-93.75,-100.09765625,52.24609375,0.0
194.15234375,-92.7734375,-58.10546875,-99.12109375,-111.81640625,145.5078125,0.0
194.15625,-69.3359375,-62.01171875,-85.44921875,-98.6328125,151.85546875,0.0
194.16015625,-52.24609375,-55.6640625,-66.89453125,-82.51953125,123.046875,0.0
194.1640625,-51.26953125,-54.19921875,-69.3359375,-72.75390625,73.2421875,0.0
194.16796875,-40.52734375,-54.19921875,-51.7578125,-60.546875,62.5,0.0
194.171875,-44.921875,-49.31640625,-51.26953125,-66.40625,80.078125,0.0
194.17578125,-68.359375,-39.55078125,-76.171875,-84.9609375,-16.11328125,0.0
194.1796875,-78.125,-33.69140625,-84.9609375,-91.796875,-98.6328125,0.0
194.18359375,-62.98828125,-43.45703125,-69.3359375,-81.54296875,-101.07421875,0.0
194.1875,-48.33984375,-53.7109375,-47.8515625,-54.6875,-53.7109375,0.0
194.19140625,-25.390625,-50.29296875,-22.94921875,-21.484375,-95.703125,0.0
194.1953125,-14.16015625,-38.57421875,-15.13671875,-19.53125,-148.92578125,0.0
194.19921875,-21.97265625,-34.1796875,-24.90234375,-27.34375,-34.66796875,0.0
194.203125,-35.15625,-38.57421875,-37.59765625,-48.828125,-10.25390625,0.0
194.20703125,-52.24609375,-38.0859375,-56.15234375,-63.4765625,25.390625,0.0
194.2109375,-48.828125,-43.45703125,-50.29296875,-42.48046875,75.68359375,0.0
194.21484375,-20.01953125,-49.31640625,-26.3671875,-22.94921875,54.6875,0.0
194.21875,-32.71484375,-57.6171875,-44.43359375,-43.45703125,-44.921875,0.0
194.22265625,-43.45703125,-53.22265625,-45.41015625,-51.7578125,-91.30859375,0.0
194.2265625,-30.2734375,-45.41015625,-27.83203125,-45.41015625,-110.83984375,0.0
194.23046875,-32.71484375,-50.78125,-30.76171875,-51.26953125,-112.3046875,0.0
194.234375,-23.4375,-51.7578125,-32.2265625,-39.0625,8.30078125,0.0
194.23828125,-18.5546875,-42.48046875,-30.76171875,-20.5078125,78.61328125,0.0
194.2421875,-28.3203125,-41.50390625,-36.1328125,-30.76171875,32.71484375,0.0
194.24609375,-41.9921875,-50.78125,-45.8984375,-52.734375,-21.97265625,0.0
194.25,-51.26953125,-48.33984375,-49.31640625,-53.22265625,3.41796875,0.0
194.25390625,-30.76171875,-52.24609375,-39.55078125,-39.0625,20.01953125,0.0
194.2578125,-9.27734375,-46.38671875,-16.6015625,-29.78515625,6.8359375,0.0
194.26171875,-21.97265625,-41.50390625,-14.6484375,-39.0625,25.87890625,0.0
194.265625,-18.06640625,-51.7578125,-16.6015625,-25.87890625,11.23046875,0.0
194.26953125,-13.671875,-47.8515625,-11.71875,-19.04296875,-21.97265625,0.0
194.2734375,-31.73828125,-34.66796875,-21.97265625,-37.109375,-40.0390625,0.0
194.27734375,-24.4140625,-38.57421875,-14.6484375,-33.69140625,-127.44140625,0.0
194.28125,-26.85546875,-47.8515625,-18.5546875,-24.4140625,-234.375,0.0
194.28515625,-27.34375,-41.015625,-26.85546875,-24.4140625,-259.765625,0.0
194.2890625,-17.08984375,-39.55078125,-16.6015625,-26.85546875,-198.73046875,0.0
194.29296875,-28.3203125,-40.52734375,-20.99609375,-25.390625,-157.71484375,0.0
194.296875,-46.875,-35.15625,-31.73828125,-36.1328125,-74.70703125,0.0
194.30078125,-48.33984375,-39.0625,-36.1328125,-42.48046875,25.87890625,0.0
194.3046875,-50.78125,-37.109375,-35.64453125,-50.29296875,31.25,0.0
194.30859375,-62.5,-33.203125,-40.0390625,-49.8046875,34.66796875,0.0
194.3125,-59.5703125,-35.64453125,-41.50390625,-33.203125,31.25,0.0
194.31640625,-53.7109375,-35.64453125,-39.55078125,-34.66796875,43.9453125,0.0
194.3203125,-56.640625,-25.87890625,-43.9453125,-50.29296875,58.59375,0.0
194.32421875,-36.62109375,-26.85546875,-38.0859375,-47.8515625,-20.01953125,0.0
194.328125,-39.55078125,-35.64453125,-41.9921875,-56.15234375,-65.4296875,0.0
194.33203125,-46.875,-34.66796875,-58.10546875,-69.3359375,-49.8046875,0.0
194.3359375,-42.96875,-32.71484375,-63.96484375,-62.5,-73.2421875,0.0
194.33984375,-57.12890625,-34.1796875,-64.453125,-59.08203125,-104.00390625,0.0
194.34375,-49.31640625,-36.62109375,-57.12890625,-54.6875,-105.95703125,0.0
194.34765625,-26.85546875,-38.57421875,-46.875,-34.66796875,-62.98828125,0.0
194.3515625,-38.0859375,-36.62109375,-58.10546875,-44.43359375,-14.16015625,0.0
194.35546875,-48.33984375,-34.66796875,-65.4296875,-56.640625,29.78515625,0.0
194.359375,-58.59375,-34.66796875,-79.1015625,-52.734375,19.04296875,0.0
194.36328125,-47.8515625,-32.71484375,-82.51953125,-41.015625,-30.2734375,0.0
194.3671875,-51.26953125,-24.4140625,-73.73046875,-58.59375,-56.15234375,0.0
194.37109375,-65.4296875,-20.99609375,-65.4296875,-88.8671875,-39.55078125,0.0
194.375,-51.7578125,-37.109375,-68.359375,-65.91796875,-91.30859375,0.0
194.37890625,-67.3828125,-38.0859375,-106.93359375,-65.4296875,-70.3125,0.0
194.3828125,-66.40625,-28.80859375,-108.3984375,-80.56640625,3.41796875,0.0
194.38671875,-59.08203125,-24.4140625,-80.56640625,-74.70703125,34.1796875,0.0
194.390625,-90.8203125,-26.3671875,-114.74609375,-96.19140625,67.87109375,0.0
194.39453125,-93.75,-22.94921875,-120.60546875,-74.70703125,12.20703125,0.0
194.3984375,-69.82421875,-20.01953125,-75.1953125,-54.19921875,11.71875,0.0
194.40234375,-53.7109375,-27.83203125,-67.3828125,-60.546875,-4.39453125,0.0
194.40625,-32.2265625,-27.83203125,-52.24609375,-30.76171875,-41.9921875,0.0
194.41015625,-45.8984375,-25.390625,-54.6875,-38.0859375,-21.484375,0.0
194.4140625,-44.921875,-18.06640625,-61.5234375,-46.38671875,-5.859375,0.0
194.41796875,-42.48046875,-14.16015625,-64.94140625,-45.8984375,-32.2265625,0.0
194.421875,-81.0546875,-19.53125,-95.21484375,-84.47265625,-74.21875,0.0
194.42578125,-72.265625,-20.99609375,-87.40234375,-75.1953125,-58.59375,0.0
194.4296875,-103.515625,-18.06640625,-122.55859375,-120.60546875,-4.8828125,0.0
194.43359375,-150.87890625,-20.99609375,-161.1328125,-167.96875,21.97265625,0.0
194.4375,-97.16796875,-29.296875,-106.93359375,-100.09765625,30.76171875,0.0
194.44140625,-50.78125,-32.71484375,-70.3125,-54.19921875,-3.41796875,0.0
194.4453125,-58.10546875,-30.2734375,-78.61328125,-60.05859375,-1.46484375,0.0
194.44921875,-68.84765625,-27.34375,-91.796875,-83.0078125,32.71484375,0.0
194.453125,-64.453125,-27.34375,-82.51953125,-61.5234375,40.0390625,0.0
194.45703125,-70.80078125,-34.1796875,-85.9375,-62.01171875,-7.8125,0.0
194.4609375,-64.94140625,-23.92578125,-77.63671875,-60.05859375,-30.76171875,0.0
194.46484375,-61.5234375,-30.76171875,-78.61328125,-53.7109375,-25.87890625,0.0
194.46875,-69.3359375,-42.48046875,-92.28515625,-70.3125,5.37109375,0.0
194.47265625,-63.96484375,-30.2734375,-84.47265625,-69.82421875,-0.9765625,0.0
194.4765625,-69.82421875,-26.85546875,-87.40234375,-72.265625,-13.671875,0.0
194.48046875,-82.51953125,-28.80859375,-97.65625,-81.0546875,88.8671875,0.0
194.484375,-70.3125,-37.59765625,-83.984375,-73.73046875,63.4765625,0.0
194.48828125,-51.26953125,-37.59765625,-74.70703125,-66.40625,-13.18359375,0.0
194.4921875,-53.7109375,-28.3203125,-86.42578125,-60.546875,22.94921875,0.0
194.49609375,-47.36328125,-32.71484375,-78.61328125,-57.12890625,-24.90234375,0.0
194.5,-32.2265625,-36.1328125,-54.19921875,-37.59765625,-53.22265625,0.0
194.50390625,-34.1796875,-37.109375,-46.38671875,-32.71484375,-24.4140625,0.0
194.5078125,-37.59765625,-42.48046875,-43.45703125,-43.9453125,-70.80078125,0.0
194.51171875,-70.80078125,-44.43359375,-67.3828125,-76.171875,-96.19140625,0.0
194.515625,-68.84765625,-49.8046875,-76.66015625,-75.1953125,-48.828125,0.0
194.51953125,-43.9453125,-49.31640625,-60.546875,-59.08203125,-49.8046875,0.0
194.5234375,-12.6953125,-41.50390625,-33.203125,-10.25390625,-63.96484375,0.0
194.52734375,13.671875,-32.2265625,-11.71875,15.625,-22.4609375,0.0
194.53125,2.9296875,-35.15625,-20.01953125,-15.625,2.44140625,0.0
194.53515625,11.23046875,-41.015625,-20.01953125,-30.2734375,4.8828125,0.0
194.5390625,7.8125,-31.25,-18.5546875,-29.296875,44.43359375,0.0
194.54296875,-21.97265625,-36.62109375,-33.203125,-23.92578125,-75.68359375,0.0
194.546875,-56.640625,-41.9921875,-66.40625,-58.10546875,-250.48828125,0.0
194.55078125,-76.171875,-30.76171875,-80.078125,-92.28515625,-193.84765625,0.0
194.5546875,-66.89453125,-29.78515625,-74.70703125,-80.56640625,-183.59375,0.0
194.55859375,-14.6484375,-37.109375,-36.1328125,-23.92578125,-227.05078125,0.0
194.5625,-21.97265625,-35.15625,-29.78515625,-26.3671875,-145.99609375,0.0
194.56640625,-20.99609375,-29.296875,-26.85546875,-29.78515625,-121.58203125,0.0
194.5703125,12.6953125,-23.92578125,1.953125,7.8125,-119.62890625,0.0
194.57421875,-8.30078125,-25.390625,-16.11328125,-8.7890625,-69.3359375,0.0
194.578125,-20.01953125,-32.2265625,-24.4140625,-22.4609375,-97.16796875,0.0
194.58203125,-39.0625,-24.90234375,-34.1796875,-30.2734375,-50.29296875,0.0
194.5859375,-57.12890625,-20.01953125,-52.734375,-41.9921875,-40.52734375,0.0
194.58984375,-72.75390625,-26.85546875,-60.546875,-52.734375,-134.27734375,0.0
194.59375,-83.49609375,-28.80859375,-70.80078125,-66.40625,-112.79296875,0.0
194.59765625,-97.65625,-25.87890625,-92.7734375,-93.75,-96.19140625,0.0
194.6015625,-92.7734375,-22.94921875,-91.796875,-95.703125,-131.34765625,0.0
194.60546875,-75.1953125,-28.80859375,-81.0546875,-71.2890625,-48.33984375,0.0
194.609375,-89.84375,-35.64453125,-86.9140625,-84.47265625,2.9296875,0.0
194.61328125,-110.3515625,-29.78515625,-99.609375,-107.421875,-43.45703125,0.0
194.6171875,-91.796875,-28.3203125,-97.65625,-101.5625,-14.16015625,0.0
194.62109375,-43.45703125,-32.2265625,-67.3828125,-62.98828125,14.6484375,0.0
194.625,-50.78125,-32.71484375,-79.1015625,-79.58984375,33.69140625,0.0
194.62890625,-66.40625,-32.71484375,-104.00390625,-120.1171875,83.0078125,0.0
194.6328125,-70.80078125,-28.3203125,-104.00390625,-111.81640625,87.890625,0.0
194.63671875,-67.87109375,-27.83203125,-96.19140625,-90.33203125,11.71875,0.0
194.640625,-54.19921875,-32.2265625,-76.66015625,-79.58984375,-39.0625,0.0
194.64453125,-62.01171875,-33.69140625,-68.359375,-65.4296875,-1.46484375,0.0
194.6484375,-55.6640625,-29.78515625,-67.3828125,-45.41015625,17.578125,0.0
194.65234375,-55.17578125,-33.203125,-62.5,-48.828125,-83.49609375,0.0
194.65625,-56.640625,-49.31640625,-48.828125,-48.828125,-169.43359375,0.0
194.66015625,-60.05859375,-49.31640625,-40.52734375,-40.0390625,-81.54296875,0.0
194.6640625,-69.82421875,-46.875,-43.9453125,-47.8515625,-6.8359375,0.0
194.66796875,-64.94140625,-43.9453125,-35.15625,-45.41015625,10.7421875,0.0
194.671875,-72.265625,-40.52734375,-40.52734375,-51.7578125,52.24609375,0.0
194.67578125,-54.6875,-37.59765625,-46.875,-50.29296875,10.25390625,0.0
194.6796875,-34.66796875,-43.45703125,-48.33984375,-33.203125,-70.80078125,0.0
194.68359375,-65.91796875,-44.43359375,-37.59765625,-49.8046875,-134.765625,0.0
194.6875,-88.8671875,-32.2265625,-22.94921875,-82.03125,-113.76953125,0.0
194.69140625,-49.8046875,-33.203125,-21.97265625,-46.38671875,-67.87109375,0.0
194.6953125,-18.06640625,-33.203125,-7.8125,-1.953125,-86.9140625,0.0
194.69921875,-41.9921875,-31.25,-20.5078125,-34.66796875,-116.69921875,0.0
194.703125,-69.3359375,-37.59765625,-35.15625,-57.6171875,-131.8359375,0.0
194.70703125,-58.10546875,-41.9921875,-29.296875,-45.8984375,-156.25,0.0
194.7109375,-24.90234375,-30.2734375,-21.484375,-12.6953125,-142.578125,0.0
194.71484375,2.9296875,-22.4609375,10.7421875,18.5546875,-127.9296875,0.0
194.71875,14.6484375,-29.296875,26.85546875,16.6015625,-118.1640625,0.0
194.72265625,9.27734375,-31.73828125,5.37109375,8.7890625,-101.07421875,0.0
194.7265625,-0.48828125,-37.59765625,-18.06640625,6.34765625,-57.12890625,0.0
194.73046875,-4.39453125,-38.57421875,-11.71875,19.53125,-70.3125,0.0
194.734375,-19.04296875,-35.15625,-3.90625,8.7890625,-31.25,0.0
194.73828125,-30.76171875,-41.015625,-17.08984375,-11.23046875,7.8125,0.0
194.7421875,-7.8125,-28.80859375,-22.94921875,-2.9296875,-16.6015625,0.0
194.74609375,15.13671875,-21.97265625,-26.3671875,15.625,-25.87890625,0.0
194.75,6.8359375,-23.4375,-29.78515625,8.7890625,2.44140625,0.0
194.75390625,-10.7421875,-24.4140625,-15.13671875,-0.48828125,11.23046875,0.0
194.7578125,-26.85546875,-31.25,-26.3671875,-4.8828125,-2.44140625,0.0
194.76171875,-9.27734375,-31.25,-16.6015625,15.13671875,-17.08984375,0.0
194.765625,4.39453125,-41.015625,-2.9296875,37.109375,-76.171875,0.0
194.76953125,11.23046875,-34.66796875,-9.765625,28.3203125,-94.23828125,0.0
194.7734375,15.13671875,-24.90234375,-4.39453125,24.4140625,-39.0625,0.0
194.77734375,-15.13671875,-34.66796875,-27.83203125,-10.25390625,-31.73828125,0.0
194.78125,-24.90234375,-36.62109375,-49.8046875,-20.5078125,-31.25,0.0
194.78515625,-15.13671875,-30.76171875,-43.9453125,-4.8828125,-62.98828125,0.0
194.7890625,-6.8359375,-20.01953125,-33.69140625,-13.18359375,-89.84375,0.0
194.79296875,0.48828125,-23.92578125,-25.87890625,-20.01953125,-53.7109375,0.0
194.796875,-6.34765625,-39.55078125,-24.4140625,-19.53125,32.71484375,0.0
194.80078125,-22.4609375,-38.57421875,-33.203125,-22.94921875,35.15625,0.0
194.8046875,-28.3203125,-22.4609375,-36.62109375,-43.45703125,27.34375,0.0
194.80859375,-13.671875,-19.53125,-20.99609375,-30.2734375,73.2421875,0.0
194.8125,5.37109375,-22.4609375,-13.671875,-14.6484375,88.37890625,0.0
194.81640625,-5.37109375,-22.94921875,-28.80859375,-21.97265625,74.70703125,0.0
194.8203125,-26.3671875,-23.4375,-43.9453125,-31.25,24.4140625,0.0
194.82421875,-18.5546875,-21.484375,-62.01171875,-24.4140625,-31.73828125,0.0
194.828125,-6.34765625,-24.4140625,-63.96484375,-24.90234375,68.84765625,0.0
194.83203125,-11.71875,-22.4609375,-44.921875,-13.671875,148.92578125,0.0
194.8359375,-30.76171875,-11.71875,-56.640625,-28.3203125,61.03515625,0.0
194.83984375,-33.69140625,-21.484375,-64.453125,-36.1328125,10.25390625,0.0
194.84375,4.39453125,-29.78515625,-35.15625,14.6484375,-43.9453125,0.0
194.84765625,18.5546875,-22.4609375,-11.23046875,22.4609375,-127.44140625,0.0
194.8515625,0.9765625,-15.625,-11.71875,0.0,-35.64453125,0.0
194.85546875,11.71875,-15.13671875,-8.30078125,17.578125,76.66015625,0.0
194.859375,21.97265625,-23.4375,-11.71875,25.390625,63.96484375,0.0
194.86328125,11.71875,-22.94921875,-27.34375,9.765625,44.921875,0.0
194.8671875,-0.9765625,-19.04296875,-42.96875,13.18359375,3.90625,0.0
194.87109375,-7.32421875,-24.90234375,-54.6875,20.5078125,-34.1796875,0.0
194.875,-0.9765625,-29.296875,-43.9453125,12.20703125,-38.57421875,0.0
194.87890625,12.20703125,-29.78515625,-29.78515625,13.671875,-19.53125,0.0
194.8828125,10.25390625,-21.484375,-37.59765625,8.30078125,-53.22265625,0.0
194.88671875,10.7421875,-19.53125,-19.04296875,22.4609375,-93.26171875,0.0
194.890625,-2.44140625,-18.06640625,-18.5546875,27.34375,-67.3828125,0.0
194.89453125,-4.8828125,-17.578125,-33.203125,16.6015625,-38.0859375,0.0
194.8984375,17.08984375,-18.5546875,-20.5078125,25.390625,-34.1796875,0.0
194.90234375,3.90625,-24.4140625,-28.3203125,7.8125,-20.01953125,0.0
194.90625,-8.30078125,-29.296875,-32.71484375,-1.953125,-14.16015625,0.0
194.91015625,-12.20703125,-27.34375,-37.59765625,-10.25390625,15.625,0.0
194.9140625,-25.87890625,-26.85546875,-55.6640625,-31.25,-1.953125,0.0
194.91796875,-33.69140625,-33.69140625,-58.10546875,-30.2734375,-68.359375,0.0
194.921875,-23.92578125,-45.41015625,-37.59765625,-18.5546875,-44.921875,0.0
194.92578125,-16.11328125,-43.9453125,-24.4140625,-10.7421875,-13.18359375,0.0
194.9296875,-21.484375,-36.62109375,-21.97265625,3.90625,-20.01953125,0.0
194.93359375,-35.15625,-36.62109375,-35.15625,-14.6484375,-21.484375,0.0
194.9375,-33.203125,-32.2265625,-44.43359375,-32.71484375,16.11328125,0.0
194.94140625,-24.90234375,-29.296875,-42.96875,-29.296875,26.85546875,0.0
194.9453125,-15.13671875,-26.85546875,-27.34375,-6.8359375,30.76171875,0.0
194.94921875,-18.5546875,-29.296875,-27.83203125,-12.20703125,-7.8125,0.0
194.953125,-12.6953125,-33.203125,-36.62109375,-18.06640625,-23.4375,0.0
194.95703125,-12.20703125,-30.76171875,-40.0390625,-19.04296875,-23.92578125,0.0
194.9609375,-37.109375,-32.2265625,-52.24609375,-35.15625,-43.45703125,0.0
194.96484375,-41.015625,-32.71484375,-43.9453125,-20.5078125,-103.515625,0.0
194.96875,-39.55078125,-30.76171875,-43.9453125,-33.203125,-87.40234375,0.0
194.97265625,-64.453125,-36.62109375,-78.61328125,-72.265625,-62.5,0.0
194.9765625,-86.9140625,-42.96875,-99.609375,-92.28515625,-130.859375,0.0
194.98046875,-84.9609375,-39.55078125,-89.35546875,-93.75,-130.859375,0.0
194.984375,-96.19140625,-38.57421875,-94.23828125,-93.75,-117.67578125,0.0
194.98828125,-114.74609375,-31.73828125,-109.86328125,-112.3046875,-50.78125,0.0
194.9921875,-125.48828125,-19.04296875,-119.140625,-135.25390625,-34.66796875,0.0
194.99609375,-124.0234375,-22.4609375,-110.3515625,-121.09375,-77.1484375,0.0
195.0,-82.51953125,-33.203125,-69.3359375,-78.125,-19.53125,0.0
195.00390625,-77.63671875,-37.109375,-68.84765625,-80.56640625,-48.828125,0.0
195.0078125,-77.1484375,-28.80859375,-83.0078125,-90.8203125,-82.51953125,0.0
195.01171875,-46.875,-27.34375,-77.63671875,-76.66015625,7.32421875,0.0
195.015625,-60.546875,-37.59765625,-78.125,-84.47265625,44.921875,0.0
195.01953125,-64.94140625,-43.9453125,-71.2890625,-81.0546875,-26.3671875,0.0
195.0234375,-40.52734375,-37.109375,-55.17578125,-51.26953125,-35.15625,0.0
195.02734375,-23.4375,-33.203125,-46.38671875,-33.69140625,27.83203125,0.0
195.03125,-7.32421875,-30.2734375,-38.57421875,-27.83203125,-36.62109375,0.0
195.03515625,-12.6953125,-29.78515625,-39.0625,-28.3203125,-89.35546875,0.0
195.0390625,1.953125,-32.2265625,-31.25,-15.13671875,-64.453125,0.0
195.04296875,17.08984375,-24.90234375,-22.4609375,-2.44140625,-57.6171875,0.0
195.046875,0.0,-28.80859375,-30.2734375,-8.7890625,2.44140625,0.0
195.05078125,20.01953125,-33.69140625,-0.48828125,20.99609375,-5.37109375,0.0
195.0546875,33.203125,-32.71484375,13.671875,30.76171875,-87.890625,0.0
195.05859375,30.2734375,-31.73828125,14.16015625,30.2734375,-17.578125,0.0
195.0625,55.6640625,-35.15625,41.50390625,43.9453125,18.06640625,0.0
195.06640625,76.66015625,-42.96875,57.6171875,48.33984375,-8.7890625,0.0
195.0703125,41.015625,-37.59765625,27.34375,22.94921875,-6.34765625,0.0
195.07421875,19.53125,-37.59765625,8.30078125,3.90625,12.20703125,0.0
195.078125,33.69140625,-36.1328125,20.01953125,14.16015625,-14.16015625,0.0
195.08203125,46.875,-28.3203125,36.62109375,38.0859375,-19.04296875,0.0
195.0859375,55.6640625,-23.4375,47.8515625,50.29296875,-64.453125,0.0
195.08984375,48.33984375,-23.92578125,35.64453125,25.87890625,-98.14453125,0.0
195.09375,42.96875,-29.78515625,26.3671875,10.25390625,-53.7109375,0.0
195.09765625,48.33984375,-33.203125,36.1328125,20.5078125,62.01171875,0.0
195.1015625,40.0390625,-30.76171875,34.1796875,18.5546875,43.9453125,0.0
195.10546875,16.11328125,-35.64453125,18.5546875,9.27734375,-26.3671875,0.0
195.109375,8.7890625,-43.9453125,23.92578125,3.90625,-0.48828125,0.0
195.11328125,21.484375,-40.52734375,41.50390625,21.484375,-39.0625,0.0
195.1171875,23.4375,-27.83203125,38.0859375,32.71484375,4.8828125,0.0
195.12109375,24.4140625,-26.85546875,29.78515625,18.5546875,-28.80859375,0.0
195.125,39.55078125,-41.50390625,25.87890625,17.08984375,-207.51953125,0.0
195.12890625,55.17578125,-42.96875,33.203125,34.66796875,-200.1953125,0.0
195.1328125,41.9921875,-28.80859375,25.390625,24.90234375,-5.37109375,0.0
195.13671875,9.765625,-33.203125,-0.48828125,-2.44140625,1.953125,0.0
195.140625,21.97265625,-33.69140625,10.25390625,9.765625,-40.0390625,0.0
195.14453125,27.83203125,-30.2734375,11.23046875,5.859375,-0.9765625,0.0
195.1484375,18.06640625,-26.85546875,10.25390625,11.71875,-10.7421875,0.0
195.15234375,30.2734375,-34.66796875,20.5078125,27.83203125,-35.15625,0.0
195.15625,34.1796875,-38.0859375,8.7890625,7.32421875,-34.66796875,0.0
195.16015625,26.85546875,-31.25,7.32421875,2.9296875,-33.69140625,0.0
195.1640625,32.71484375,-22.4609375,16.11328125,14.6484375,-20.5078125,0.0
195.16796875,15.13671875,-23.4375,13.18359375,5.859375,47.8515625,0.0
195.171875,5.859375,-41.015625,11.71875,3.90625,56.15234375,0.0
195.17578125,9.27734375,-42.48046875,7.32421875,18.5546875,67.87109375,0.0
195.1796875,9.27734375,-39.0625,7.8125,2.9296875,-19.53125,0.0
195.18359375,15.625,-42.48046875,12.6953125,-3.41796875,-92.28515625,0.0
195.1875,2.9296875,-40.52734375,-3.90625,-14.16015625,-24.90234375,0.0
195.19140625,-20.5078125,-51.26953125,-17.578125,-34.66796875,11.23046875,0.0
195.1953125,-37.59765625,-52.24609375,-20.01953125,-43.45703125,-36.1328125,0.0
195.19921875,-54.6875,-40.52734375,-37.109375,-48.33984375,-55.6640625,0.0
195.203125,-61.5234375,-37.109375,-52.24609375,-67.3828125,-50.78125,0.0
195.20703125,-59.5703125,-32.71484375,-56.15234375,-73.2421875,-95.21484375,0.0
195.2109375,-72.265625,-21.97265625,-63.96484375,-69.82421875,-97.16796875,0.0
195.21484375,-70.3125,-25.390625,-65.4296875,-66.89453125,-75.1953125,0.0
195.21875,-69.82421875,-32.71484375,-71.77734375,-64.453125,4.39453125,0.0
195.22265625,-77.1484375,-36.62109375,-75.68359375,-76.171875,-5.37109375,0.0
195.2265625,-64.94140625,-43.45703125,-67.3828125,-76.66015625,-110.83984375,0.0
195.23046875,-48.33984375,-44.921875,-56.640625,-52.24609375,-102.5390625,0.0
195.234375,-43.9453125,-52.24609375,-56.15234375,-41.9921875,-41.015625,0.0
195.23828125,-44.921875,-39.0625,-62.5,-54.6875,-15.13671875,0.0
195.2421875,-47.36328125,-28.3203125,-63.96484375,-59.08203125,4.8828125,0.0
195.24609375,-38.0859375,-40.52734375,-56.640625,-49.31640625,-7.32421875,0.0
195.25,-25.87890625,-36.1328125,-45.41015625,-39.0625,-23.4375,0.0
195.25390625,-32.2265625,-30.76171875,-42.96875,-35.15625,-94.23828125,0.0
195.2578125,-35.64453125,-28.3203125,-38.57421875,-30.2734375,-99.609375,0.0
195.26171875,-43.9453125,-36.1328125,-55.17578125,-38.0859375,-88.37890625,0.0
195.265625,-41.50390625,-41.015625,-59.08203125,-42.48046875,-118.65234375,0.0
195.26953125,-38.0859375,-29.296875,-48.828125,-36.1328125,-92.7734375,0.0
195.2734375,-31.25,-28.3203125,-39.55078125,-29.296875,-96.19140625,0.0
195.27734375,-28.80859375,-34.66796875,-41.9921875,-42.96875,-93.26171875,0.0
195.28125,-22.94921875,-37.109375,-45.8984375,-47.8515625,-42.96875,0.0
195.28515625,-19.53125,-38.0859375,-49.8046875,-61.5234375,-28.80859375,0.0
195.2890625,-19.53125,-38.0859375,-53.7109375,-63.4765625,12.20703125,0.0
195.29296875,-12.6953125,-38.57421875,-41.50390625,-30.2734375,-1.953125,0.0
195.296875,-28.3203125,-38.0859375,-45.8984375,-43.45703125,-9.27734375,0.0
195.30078125,-40.52734375,-40.0390625,-53.7109375,-52.24609375,-66.89453125,0.0
195.3046875,-58.59375,-34.1796875,-69.3359375,-66.40625,-139.6484375,0.0
195.30859375,-74.21875,-34.66796875,-73.2421875,-78.61328125,-52.24609375,0.0
195.3125,-54.19921875,-44.921875,-46.38671875,-48.33984375,65.91796875,0.0
195.31640625,-43.45703125,-44.43359375,-41.9921875,-31.25,51.7578125,0.0
195.3203125,-54.19921875,-38.57421875,-52.734375,-39.55078125,66.89453125,0.0
195.32421875,-43.45703125,-42.96875,-41.015625,-31.73828125,42.48046875,0.0
195.328125,-31.73828125,-42.48046875,-33.203125,-35.64453125,-1.46484375,0.0
195.33203125,-31.25,-36.1328125,-30.76171875,-23.4375,16.11328125,0.0
195.3359375,-27.34375,-40.0390625,-26.3671875,-5.859375,-0.48828125,0.0
195.33984375,-33.203125,-43.45703125,-36.1328125,-20.99609375,-26.85546875,0.0
195.34375,-44.921875,-34.66796875,-53.7109375,-54.6875,-60.05859375,0.0
195.34765625,-65.4296875,-28.80859375,-64.453125,-60.546875,25.87890625,0.0
195.3515625,-60.546875,-26.85546875,-56.15234375,-38.0859375,51.7578125,0.0
195.35546875,-47.8515625,-40.0390625,-56.640625,-47.8515625,-26.3671875,0.0
195.359375,-41.50390625,-45.8984375,-48.33984375,-49.8046875,1.46484375,0.0
195.36328125,-33.203125,-35.64453125,-44.921875,-40.0390625,-1.46484375,0.0
195.3671875,-47.8515625,-30.2734375,-70.3125,-63.4765625,-103.02734375,0.0
195.37109375,-47.36328125,-26.85546875,-70.3125,-68.84765625,-152.34375,0.0
195.375,-31.73828125,-35.15625,-48.33984375,-41.9921875,-174.31640625,0.0
195.37890625,-41.015625,-37.59765625,-47.36328125,-54.19921875,-230.46875,0.0
195.3828125,-77.63671875,-24.90234375,-74.70703125,-82.03125,-217.28515625,0.0
195.38671875,-115.234375,-26.3671875,-101.07421875,-95.21484375,-182.12890625,0.0
195.390625,-116.69921875,-35.15625,-96.6796875,-98.6328125,-153.3203125,0.0
195.39453125,-67.3828125,-29.78515625,-61.03515625,-71.2890625,-130.859375,0.0
195.3984375,-51.26953125,-27.83203125,-53.7109375,-56.640625,-111.328125,0.0
195.40234375,-83.49609375,-36.62109375,-86.42578125,-71.77734375,-127.9296875,0.0
195.40625,-91.30859375,-34.66796875,-88.37890625,-77.63671875,-190.4296875,0.0
195.41015625,-80.078125,-30.2734375,-78.61328125,-84.47265625,-128.90625,0.0
195.4140625,-93.26171875,-28.3203125,-99.12109375,-99.609375,13.18359375,0.0
195.41796875,-80.56640625,-32.71484375,-91.796875,-67.87109375,-31.73828125,0.0
195.421875,-52.24609375,-43.9453125,-69.82421875,-52.734375,-119.140625,0.0
195.42578125,-46.875,-41.9921875,-73.2421875,-67.87109375,-132.32421875,0.0
195.4296875,-30.76171875,-28.3203125,-54.19921875,-52.734375,-4.8828125,0.0
195.43359375,-1.46484375,-28.3203125,-15.625,-17.578125,150.87890625,0.0
195.4375,-20.99609375,-33.203125,-30.2734375,-23.4375,137.20703125,0.0
195.44140625,-41.9921875,-38.0859375,-41.9921875,-38.57421875,48.33984375,0.0
195.4453125,-31.73828125,-32.71484375,-29.78515625,-37.59765625,97.65625,0.0
195.44921875,-20.99609375,-33.203125,-30.2734375,-36.1328125,125.48828125,0.0
195.453125,-29.78515625,-47.36328125,-35.64453125,-30.2734375,54.6875,0.0
195.45703125,-43.45703125,-44.921875,-41.50390625,-41.50390625,77.1484375,0.0
195.4609375,-39.0625,-35.64453125,-34.1796875,-45.41015625,65.4296875,0.0
195.46484375,-38.57421875,-33.69140625,-30.76171875,-33.69140625,75.1953125,0.0
195.46875,-56.640625,-37.109375,-59.08203125,-59.08203125,83.984375,0.0
195.47265625,-62.5,-39.55078125,-73.73046875,-70.3125,38.57421875,0.0
195.4765625,-55.17578125,-48.33984375,-66.89453125,-62.98828125,15.625,0.0
195.48046875,-54.6875,-50.78125,-73.2421875,-73.2421875,-71.77734375,0.0
195.484375,-88.8671875,-43.9453125,-113.76953125,-112.3046875,-67.87109375,0.0
195.48828125,-113.76953125,-42.96875,-125.48828125,-128.41796875,-39.0625,0.0
195.4921875,-111.81640625,-32.2265625,-111.81640625,-122.0703125,-55.17578125,0.0
195.49609375,-98.6328125,-36.62109375,-105.46875,-113.28125,-14.16015625,0.0
195.5,-70.80078125,-43.45703125,-90.8203125,-89.84375,52.734375,0.0
195.50390625,-68.359375,-38.57421875,-86.42578125,-82.03125,0.9765625,0.0
195.5078125,-76.171875,-33.69140625,-85.44921875,-88.8671875,-59.08203125,0.0
195.51171875,-67.87109375,-27.83203125,-73.73046875,-66.40625,19.53125,0.0
195.515625,-63.96484375,-39.0625,-72.265625,-66.89453125,4.39453125,0.0
195.51953125,-78.61328125,-40.52734375,-84.9609375,-95.703125,-49.8046875,0.0
195.5234375,-82.03125,-29.296875,-79.58984375,-96.19140625,-2.44140625,0.0
195.52734375,-67.3828125,-33.203125,-62.98828125,-72.265625,-48.33984375,0.0
195.53125,-56.15234375,-37.109375,-59.08203125,-57.12890625,-92.28515625,0.0
195.53515625,-52.24609375,-46.875,-59.5703125,-60.05859375,-49.8046875,0.0
195.5390625,-58.10546875,-42.96875,-55.6640625,-50.78125,5.37109375,0.0
195.54296875,-80.56640625,-39.55078125,-68.84765625,-64.94140625,-5.859375,0.0
195.546875,-79.58984375,-46.38671875,-70.80078125,-69.3359375,-7.32421875,0.0
195.55078125,-69.3359375,-48.828125,-75.1953125,-68.359375,52.734375,0.0
195.5546875,-69.82421875,-47.8515625,-82.03125,-78.61328125,10.25390625,0.0
195.55859375,-65.4296875,-46.875,-79.58984375,-73.2421875,-41.9921875,0.0
195.5625,-72.265625,-51.7578125,-83.0078125,-79.1015625,-26.3671875,0.0
195.56640625,-61.5234375,-50.78125,-62.98828125,-74.70703125,14.6484375,0.0
195.5703125,-42.96875,-38.57421875,-42.48046875,-50.29296875,-89.35546875,0.0
195.57421875,-51.26953125,-32.71484375,-53.7109375,-57.12890625,-161.1328125,0.0
195.578125,-56.640625,-38.0859375,-58.59375,-62.01171875,-145.01953125,0.0
195.58203125,-45.41015625,-33.203125,-44.43359375,-48.33984375,-85.44921875,0.0
195.5859375,-39.55078125,-25.390625,-39.0625,-31.73828125,-30.2734375,0.0
195.58984375,-48.828125,-28.3203125,-49.8046875,-45.41015625,-112.79296875,0.0
195.59375,-59.5703125,-30.2734375,-60.05859375,-57.6171875,-121.58203125,0.0
195.59765625,-46.38671875,-36.1328125,-46.875,-41.50390625,-93.75,0.0
195.6015625,-28.3203125,-41.015625,-31.25,-31.73828125,-190.91796875,0.0
195.60546875,-22.4609375,-39.55078125,-22.94921875,-13.18359375,-114.74609375,0.0
195.609375,-25.87890625,-38.0859375,-23.4375,-1.46484375,58.10546875,0.0
195.61328125,-42.96875,-36.1328125,-41.50390625,-20.99609375,50.29296875,0.0
195.6171875,-39.55078125,-40.52734375,-37.109375,-20.01953125,36.1328125,0.0
195.62109375,-16.6015625,-43.9453125,-20.5078125,-7.32421875,48.828125,0.0
195.625,-21.484375,-33.69140625,-30.2734375,-20.01953125,-10.25390625,0.0
195.62890625,-55.17578125,-26.3671875,-50.78125,-51.7578125,-11.23046875,0.0
195.6328125,-79.58984375,-18.5546875,-58.59375,-62.01171875,-15.625,0.0
195.63671875,-68.359375,-32.2265625,-50.29296875,-41.50390625,-4.8828125,0.0
195.640625,-63.4765625,-41.015625,-64.94140625,-56.15234375,82.03125,0.0
195.64453125,-63.96484375,-37.59765625,-82.51953125,-69.3359375,86.42578125,0.0
195.6484375,-58.59375,-31.73828125,-73.73046875,-51.26953125,26.3671875,0.0
195.65234375,-52.24609375,-30.2734375,-60.546875,-48.33984375,-73.2421875,0.0
195.65625,-26.85546875,-34.66796875,-45.41015625,-21.97265625,-125.9765625,0.0
195.66015625,-18.06640625,-26.85546875,-50.78125,-14.16015625,-67.3828125,0.0
195.6640625,-38.0859375,-22.94921875,-67.87109375,-44.921875,74.70703125,0.0
195.66796875,-48.33984375,-27.34375,-68.359375,-38.0859375,85.44921875,0.0
195.671875,-34.66796875,-29.296875,-50.29296875,-32.71484375,29.296875,0.0
195.67578125,-34.66796875,-26.3671875,-40.0390625,-34.66796875,63.96484375,0.0
195.6796875,-39.55078125,-27.34375,-41.50390625,-29.78515625,40.0390625,0.0
195.68359375,-35.64453125,-41.015625,-39.0625,-31.73828125,-29.296875,0.0
195.6875,-37.109375,-47.36328125,-44.43359375,-40.52734375,-26.85546875,0.0
195.69140625,-41.9921875,-40.52734375,-54.19921875,-48.828125,-37.59765625,0.0
195.6953125,-53.7109375,-29.78515625,-75.1953125,-57.12890625,-83.984375,0.0
195.69921875,-68.84765625,-27.34375,-84.9609375,-66.89453125,-9.765625,0.0
195.703125,-72.75390625,-34.66796875,-80.56640625,-73.2421875,21.97265625,0.0
195.70703125,-46.875,-27.34375,-58.10546875,-43.9453125,-46.875,0.0
195.7109375,-44.921875,-23.4375,-44.921875,-35.64453125,-29.296875,0.0
195.71484375,-78.61328125,-23.92578125,-63.96484375,-65.91796875,34.1796875,0.0
195.71875,-66.40625,-23.4375,-54.6875,-50.29296875,17.08984375,0.0
195.72265625,-38.0859375,-23.4375,-27.34375,-37.59765625,-114.2578125,0.0
195.7265625,-32.2265625,-18.5546875,-16.11328125,-31.73828125,-165.52734375,0.0
195.73046875,-24.4140625,-20.01953125,-14.16015625,-8.7890625,-140.625,0.0
195.734375,-18.5546875,-27.34375,-13.671875,-11.23046875,-148.4375,0.0
195.73828125,-16.11328125,-30.2734375,-11.71875,-22.94921875,-98.6328125,0.0
195.7421875,-24.90234375,-25.87890625,-18.5546875,-27.83203125,-77.63671875,0.0
195.74609375,-39.0625,-30.2734375,-35.64453125,-35.64453125,-93.75,0.0
195.75,-33.203125,-39.0625,-36.62109375,-29.78515625,-104.4921875,0.0
195.75390625,-32.2265625,-30.76171875,-34.66796875,-28.3203125,-59.08203125,0.0
195.7578125,-44.921875,-32.2265625,-39.0625,-39.55078125,-13.18359375,0.0
195.76171875,-39.55078125,-36.1328125,-24.4140625,-31.25,-86.42578125,0.0
195.765625,-34.66796875,-31.25,-29.78515625,-17.578125,-99.12109375,0.0
195.76953125,-29.78515625,-27.34375,-28.3203125,-13.18359375,24.4140625,0.0
195.7734375,-20.01953125,-23.4375,-22.94921875,-15.625,8.7890625,0.0
195.77734375,-27.34375,-31.73828125,-29.78515625,-24.90234375,-41.015625,0.0
195.78125,-40.52734375,-43.45703125,-36.62109375,-36.62109375,27.34375,0.0
195.78515625,-38.0859375,-45.8984375,-37.59765625,-27.83203125,-29.78515625,0.0
195.7890625,-39.55078125,-35.64453125,-38.0859375,-25.87890625,-105.95703125,0.0
195.79296875,-37.59765625,-29.296875,-33.69140625,-29.296875,-39.55078125,0.0
195.796875,-24.90234375,-44.921875,-19.04296875,-17.578125,-28.3203125,0.0
195.80078125,-25.390625,-41.015625,-26.3671875,-12.20703125,-45.41015625,0.0
195.8046875,-25.390625,-39.0625,-21.97265625,-5.859375,-28.3203125,0.0
195.80859375,-18.06640625,-45.8984375,-15.625,-13.671875,-38.57421875,0.0
195.8125,-33.203125,-50.78125,-29.296875,-36.62109375,-60.546875,0.0
195.81640625,-40.0390625,-45.41015625,-28.80859375,-27.83203125,-82.51953125,0.0
195.8203125,-31.25,-29.296875,-34.66796875,-22.94921875,-9.27734375,0.0
195.82421875,-43.45703125,-33.203125,-47.36328125,-34.1796875,51.26953125,0.0
195.828125,-44.921875,-34.1796875,-42.48046875,-37.109375,-0.9765625,0.0
195.83203125,-26.3671875,-28.80859375,-34.1796875,-24.4140625,-110.83984375,0.0
195.8359375,-19.04296875,-22.4609375,-35.15625,-30.2734375,-69.3359375,0.0
195.83984375,-35.64453125,-21.97265625,-41.50390625,-44.43359375,-1.46484375,0.0
195.84375,-41.9921875,-29.78515625,-46.38671875,-36.1328125,29.78515625,0.0
195.84765625,-38.57421875,-26.3671875,-51.26953125,-43.9453125,32.2265625,0.0
195.8515625,-62.98828125,-26.3671875,-66.89453125,-71.2890625,-8.30078125,0.0
195.85546875,-69.3359375,-27.83203125,-62.01171875,-65.91796875,67.87109375,0.0
195.859375,-60.546875,-30.76171875,-60.05859375,-67.87109375,-36.1328125,0.0
195.86328125,-58.59375,-23.4375,-68.84765625,-74.70703125,-107.91015625,0.0
195.8671875,-35.15625,-13.671875,-40.52734375,-41.015625,-1.953125,0.0
195.87109375,-28.80859375,-22.4609375,-30.2734375,-29.296875,-25.390625,0.0
195.875,-44.921875,-28.3203125,-56.15234375,-56.640625,-7.8125,0.0
195.87890625,-52.24609375,-26.85546875,-62.01171875,-62.5,-37.109375,0.0
195.8828125,-62.5,-27.34375,-69.82421875,-71.77734375,-58.10546875,0.0
195.88671875,-78.61328125,-24.90234375,-90.33203125,-100.09765625,-21.484375,0.0
195.890625,-65.91796875,-28.80859375,-82.03125,-90.8203125,37.109375,0.0
195.89453125,-41.50390625,-29.78515625,-65.91796875,-67.3828125,88.37890625,0.0
195.8984375,-20.99609375,-32.2265625,-52.24609375,-50.29296875,-67.87109375,0.0
195.90234375,-21.97265625,-36.62109375,-55.17578125,-49.31640625,-60.546875,0.0
195.90625,-27.34375,-40.0390625,-56.640625,-53.7109375,57.12890625,0.0
195.91015625,-45.8984375,-38.0859375,-55.6640625,-62.01171875,35.15625,0.0
195.9140625,-54.19921875,-29.296875,-67.3828125,-78.125,16.6015625,0.0
195.91796875,-29.78515625,-38.0859375,-62.98828125,-64.453125,-46.38671875,0.0
195.921875,-37.59765625,-54.19921875,-59.5703125,-55.17578125,-32.71484375,0.0
195.92578125,-41.9921875,-52.734375,-51.26953125,-56.640625,-28.80859375,0.0
195.9296875,-36.1328125,-41.9921875,-34.66796875,-45.41015625,-9.27734375,0.0
195.93359375,-32.71484375,-35.15625,-20.01953125,-23.92578125,-7.8125,0.0
195.9375,-33.69140625,-32.2265625,-19.53125,-28.3203125,-45.8984375,0.0
195.94140625,-47.36328125,-38.0859375,-38.57421875,-40.0390625,-122.0703125,0.0
195.9453125,-40.52734375,-38.57421875,-45.8984375,-32.71484375,-140.13671875,0.0
195.94921875,-32.71484375,-30.2734375,-44.921875,-41.015625,-55.6640625,0.0
195.953125,-37.109375,-30.76171875,-49.8046875,-48.33984375,-59.08203125,0.0
195.95703125,-37.59765625,-31.73828125,-60.05859375,-47.36328125,-81.54296875,0.0
195.9609375,-39.0625,-26.85546875,-66.89453125,-58.59375,-59.5703125,0.0
195.96484375,-45.8984375,-21.484375,-67.3828125,-54.6875,19.53125,0.0
195.96875,-57.6171875,-32.2265625,-69.3359375,-55.6640625,2.44140625,0.0
195.97265625,-70.3125,-32.71484375,-73.73046875,-62.98828125,-23.92578125,0.0
195.9765625,-63.4765625,-22.4609375,-68.359375,-59.08203125,1.46484375,0.0
195.98046875,-54.19921875,-36.62109375,-61.03515625,-59.5703125,-46.875,0.0
195.984375,-55.6640625,-39.55078125,-57.6171875,-47.8515625,-123.046875,0.0
195.98828125,-52.734375,-22.94921875,-60.546875,-43.9453125,-104.98046875,0.0
195.9921875,-57.6171875,-21.484375,-69.3359375,-56.640625,-71.77734375,0.0
195.99609375,-56.15234375,-33.203125,-70.3125,-44.921875,-35.64453125,0.0
196.0,-46.875,-36.1328125,-73.2421875,-47.8515625,3.41796875,0.0
196.00390625,-45.41015625,-36.62109375,-82.51953125,-59.08203125,-29.78515625,0.0
196.0078125,-41.9921875,-30.2734375,-82.03125,-49.31640625,-17.578125,0.0
196.01171875,-36.1328125,-34.66796875,-78.61328125,-50.29296875,9.27734375,0.0
196.015625,-27.34375,-38.57421875,-67.3828125,-43.9453125,47.36328125,0.0
196.01953125,-11.23046875,-36.62109375,-43.9453125,-25.87890625,21.97265625,0.0
196.0234375,-14.6484375,-40.52734375,-45.41015625,-15.625,-135.25390625,0.0
196.02734375,-32.71484375,-34.66796875,-54.6875,-24.4140625,-163.57421875,0.0
196.03125,-27.83203125,-31.73828125,-52.734375,-35.64453125,-139.6484375,0.0
196.03515625,-12.20703125,-41.9921875,-49.8046875,-21.97265625,-83.0078125,0.0
196.0390625,-7.32421875,-45.41015625,-45.8984375,-21.484375,-39.55078125,0.0
196.04296875,-1.953125,-40.0390625,-44.921875,-19.04296875,-61.5234375,0.0
196.046875,1.953125,-45.8984375,-45.41015625,-15.13671875,-96.19140625,0.0
196.05078125,-19.04296875,-47.36328125,-52.24609375,-33.203125,-80.56640625,0.0
196.0546875,-40.52734375,-40.0390625,-54.19921875,-46.875,-98.14453125,0.0
196.05859375,-53.22265625,-40.0390625,-59.08203125,-51.26953125,-134.27734375,0.0
196.0625,-39.55078125,-38.57421875,-53.22265625,-39.0625,-124.51171875,0.0
196.06640625,-30.2734375,-33.69140625,-50.29296875,-30.76171875,-86.42578125,0.0
196.0703125,-27.34375,-24.4140625,-46.875,-32.71484375,-12.20703125,0.0
196.07421875,-18.5546875,-30.76171875,-39.55078125,-20.01953125,35.15625,0.0
196.078125,-38.0859375,-45.8984375,-50.29296875,-28.3203125,42.96875,0.0
196.08203125,-37.59765625,-42.96875,-53.7109375,-32.71484375,8.30078125,0.0
196.0859375,-28.80859375,-41.50390625,-44.43359375,-30.2734375,-20.5078125,0.0
196.08984375,-29.78515625,-46.875,-33.203125,-23.4375,-83.49609375,0.0
196.09375,-20.5078125,-50.78125,-24.4140625,-5.37109375,-115.234375,0.0
196.09765625,-18.5546875,-52.734375,-25.87890625,-11.23046875,-75.68359375,0.0
196.1015625,-38.0859375,-42.48046875,-46.875,-41.015625,-55.6640625,0.0
196.10546875,-51.7578125,-47.36328125,-55.17578125,-36.62109375,-127.44140625,0.0
196.109375,-63.96484375,-48.33984375,-54.19921875,-47.8515625,-94.7265625,0.0
196.11328125,-69.82421875,-34.1796875,-61.03515625,-63.96484375,-15.625,0.0
196.1171875,-72.265625,-29.78515625,-67.3828125,-79.1015625,24.90234375,0.0
196.12109375,-71.2890625,-33.203125,-66.89453125,-82.51953125,74.21875,0.0
196.125,-66.40625,-37.59765625,-78.125,-78.61328125,1.46484375,0.0
196.12890625,-55.6640625,-36.62109375,-77.63671875,-84.47265625,7.32421875,0.0
196.1328125,-52.24609375,-41.9921875,-70.3125,-56.640625,60.546875,0.0
196.13671875,-51.7578125,-37.109375,-65.4296875,-44.921875,37.59765625,0.0
196.140625,-56.15234375,-25.87890625,-68.84765625,-80.078125,4.39453125,0.0
196.14453125,-62.01171875,-34.1796875,-71.77734375,-79.58984375,-23.92578125,0.0
196.1484375,-46.875,-32.71484375,-59.5703125,-50.29296875,-9.27734375,0.0
196.15234375,-41.015625,-32.71484375,-57.6171875,-54.6875,14.6484375,0.0
196.15625,-55.6640625,-44.43359375,-59.5703125,-71.77734375,-37.109375,0.0
196.16015625,-65.4296875,-44.921875,-63.4765625,-72.265625,-71.77734375,0.0
196.1640625,-71.77734375,-40.52734375,-60.05859375,-59.08203125,-25.87890625,0.0
196.16796875,-62.01171875,-43.9453125,-53.22265625,-57.12890625,29.296875,0.0
196.171875,-60.05859375,-51.26953125,-52.24609375,-54.19921875,87.40234375,0.0
196.17578125,-82.51953125,-50.78125,-62.5,-68.84765625,70.3125,0.0
196.1796875,-88.37890625,-49.8046875,-77.1484375,-95.21484375,-26.85546875,0.0
196.18359375,-72.265625,-52.734375,-69.82421875,-93.26171875,-113.28125,0.0
196.1875,-68.359375,-50.29296875,-50.78125,-78.125,-15.625,0.0
196.19140625,-47.36328125,-48.828125,-23.4375,-53.22265625,56.640625,0.0
196.1953125,-58.59375,-38.57421875,-31.73828125,-62.5,81.54296875,0.0
196.19921875,-63.4765625,-36.1328125,-41.9921875,-59.5703125,91.796875,0.0
196.203125,-35.15625,-38.57421875,-24.4140625,-30.2734375,-39.0625,0.0
196.20703125,-48.828125,-38.57421875,-41.9921875,-47.36328125,-18.06640625,0.0
196.2109375,-35.15625,-31.73828125,-40.0390625,-37.59765625,60.546875,0.0
196.21484375,-27.83203125,-29.78515625,-24.90234375,-28.80859375,38.57421875,0.0
196.21875,-48.828125,-34.1796875,-44.43359375,-53.22265625,-43.9453125,0.0
196.22265625,-40.0390625,-34.66796875,-42.48046875,-35.64453125,-40.0390625,0.0
196.2265625,-34.1796875,-36.1328125,-35.64453125,-30.2734375,14.16015625,0.0
196.23046875,-23.4375,-32.71484375,-18.06640625,-20.5078125,-106.4453125,0.0
196.234375,-6.8359375,-25.87890625,-3.41796875,-0.9765625,-87.40234375,0.0
196.23828125,-5.859375,-33.69140625,-10.7421875,-0.9765625,-31.73828125,0.0
196.2421875,-10.7421875,-33.203125,-6.34765625,2.44140625,-29.296875,0.0
196.24609375,-18.06640625,-34.66796875,-9.765625,-14.16015625,-49.31640625,0.0
196.25,-5.859375,-41.015625,-12.6953125,-11.23046875,-83.0078125,0.0
196.25390625,-41.50390625,-33.69140625,-43.45703125,-49.31640625,-85.44921875,0.0
196.2578125,-60.05859375,-30.76171875,-57.6171875,-69.82421875,-56.640625,0.0
196.26171875,-41.50390625,-38.0859375,-33.203125,-43.45703125,-24.90234375,0.0
196.265625,-50.29296875,-46.38671875,-35.64453125,-46.38671875,-139.16015625,0.0
196.26953125,-57.12890625,-32.2265625,-51.26953125,-66.40625,-166.015625,0.0
196.2734375,-65.91796875,-21.484375,-61.03515625,-71.77734375,-62.5,0.0
196.27734375,-104.00390625,-35.15625,-90.8203125,-87.890625,-77.63671875,0.0
196.28125,-97.65625,-41.50390625,-92.7734375,-93.75,-48.33984375,0.0
196.28515625,-68.359375,-39.0625,-54.6875,-61.5234375,20.99609375,0.0
196.2890625,-68.84765625,-26.85546875,-45.8984375,-41.9921875,-5.859375,0.0
196.29296875,-53.7109375,-34.66796875,-39.0625,-39.0625,-66.89453125,0.0
196.296875,-40.0390625,-50.29296875,-33.69140625,-29.78515625,-86.42578125,0.0
196.30078125,-47.8515625,-39.55078125,-37.109375,-41.015625,-27.34375,0.0
196.3046875,-48.828125,-24.90234375,-29.296875,-42.48046875,-30.76171875,0.0
196.30859375,-39.0625,-22.4609375,-16.6015625,-20.01953125,-51.7578125,0.0
196.3125,-41.015625,-28.3203125,-21.484375,-26.3671875,-19.53125,0.0
196.31640625,-33.69140625,-39.0625,-33.203125,-39.55078125,-42.96875,0.0
196.3203125,-20.01953125,-35.15625,-37.109375,-34.66796875,-10.25390625,0.0
196.32421875,-34.1796875,-26.85546875,-47.8515625,-43.9453125,16.6015625,0.0
196.328125,-53.22265625,-32.2265625,-63.96484375,-69.82421875,51.7578125,0.0
196.33203125,-49.8046875,-29.296875,-72.265625,-82.03125,93.75,0.0
196.3359375,-61.03515625,-17.578125,-83.0078125,-93.26171875,35.64453125,0.0
196.33984375,-85.9375,-25.390625,-102.05078125,-90.8203125,14.6484375,0.0
196.34375,-92.28515625,-33.203125,-103.515625,-87.40234375,17.578125,0.0
196.34765625,-83.984375,-21.97265625,-98.14453125,-91.796875,2.44140625,0.0
196.3515625,-70.3125,-16.11328125,-91.796875,-75.1953125,40.0390625,0.0
196.35546875,-56.15234375,-20.99609375,-78.125,-64.453125,5.859375,0.0
196.359375,-56.640625,-25.390625,-80.56640625,-86.9140625,-21.484375,0.0
196.36328125,-67.3828125,-25.87890625,-88.37890625,-94.7265625,4.8828125,0.0
196.3671875,-52.734375,-30.76171875,-71.2890625,-55.17578125,-13.671875,0.0
196.37109375,-41.9921875,-34.1796875,-64.94140625,-43.9453125,-4.8828125,0.0
196.375,-53.7109375,-38.57421875,-68.84765625,-60.05859375,-14.6484375,0.0
196.37890625,-47.36328125,-35.64453125,-54.19921875,-51.26953125,-8.30078125,0.0
196.3828125,-44.921875,-28.80859375,-51.7578125,-44.43359375,-40.52734375,0.0
196.38671875,-58.10546875,-28.3203125,-73.73046875,-62.5,-71.2890625,0.0
196.390625,-67.3828125,-30.76171875,-86.42578125,-80.56640625,-62.01171875,0.0
196.39453125,-73.73046875,-32.71484375,-77.1484375,-80.56640625,-69.3359375,0.0
196.3984375,-76.66015625,-24.4140625,-67.87109375,-83.0078125,-100.09765625,0.0
196.40234375,-61.03515625,0.0,-65.4296875,-68.84765625,-51.26953125,0.0
196.40625,-32.71484375,32.2265625,-62.98828125,-58.59375,-37.109375,0.0
196.41015625,-34.1796875,43.45703125,-75.1953125,-71.2890625,-23.4375,0.0
196.4140625,-34.1796875,59.5703125,-80.56640625,-75.1953125,25.87890625,0.0
196.41796875,-25.390625,20.99609375,-73.73046875,-64.453125,-12.20703125,0.0
196.421875,-14.6484375,-5.37109375,-70.3125,-46.875,7.8125,0.0
196.42578125,2.9296875,10.7421875,-59.5703125,-43.45703125,0.9765625,0.0
196.4296875,-1.953125,-2.9296875,-56.15234375,-45.8984375,-41.015625,0.0
196.43359375,-10.25390625,11.23046875,-53.7109375,-48.33984375,25.390625,0.0
196.4375,-9.27734375,105.46875,-43.45703125,-38.57421875,16.11328125,0.0
196.44140625,-4.8828125,54.6875,-38.57421875,-16.6015625,-67.87109375,0.0
196.4453125,-29.296875,-41.9921875,-50.29296875,-34.66796875,-53.7109375,0.0
196.44921875,-43.9453125,41.9921875,-62.01171875,-39.55078125,-50.78125,0.0
196.453125,-22.4609375,340.33203125,-54.6875,-44.43359375,-66.89453125,0.0
196.45703125,-8.30078125,776.3671875,-49.8046875,-47.8515625,-37.59765625,0.0
196.4609375,-11.23046875,975.09765625,-55.17578125,-32.71484375,-8.7890625,0.0
196.46484375,-27.34375,958.984375,-58.59375,-43.9453125,-62.5,0.0
196.46875,-23.4375,965.33203125,-52.734375,-42.48046875,-50.78125,0.0
196.47265625,-16.11328125,969.23828125,-41.9921875,-32.71484375,-26.3671875,0.0
196.4765625,-6.34765625,968.26171875,-30.2734375,-24.90234375,-26.3671875,0.0
196.48046875,5.37109375,968.26171875,-31.25,-20.01953125,-41.50390625,0.0
196.484375,0.9765625,968.26171875,-38.57421875,-25.87890625,-106.4453125,0.0
196.48828125,-14.6484375,968.26171875,-43.9453125,-45.41015625,-124.51171875,0.0
196.4921875,-21.97265625,968.26171875,-51.26953125,-46.875,-47.36328125,0.0
196.49609375,-21.97265625,967.7734375,-60.05859375,-43.45703125,-8.30078125,0.0
196.5,-29.296875,968.26171875,-48.33984375,-43.45703125,-80.56640625,0.0
196.50390625,-34.1796875,968.26171875,-29.78515625,-38.57421875,-86.42578125,0.0
196.5078125,-26.85546875,967.7734375,-31.25,-41.50390625,-39.0625,0.0
196.51171875,-19.53125,968.26171875,-36.62109375,-54.6875,-56.640625,0.0
196.515625,-3.41796875,968.26171875,-18.5546875,-39.55078125,-93.75,0.0
196.51953125,28.80859375,968.26171875,5.37109375,-15.625,-55.17578125,0.0
196.5234375,23.4375,968.26171875,0.48828125,-18.06640625,-98.14453125,0.0
196.52734375,8.30078125,967.7734375,-10.7421875,-21.97265625,-143.06640625,0.0
196.53125,-0.48828125,967.7734375,-25.87890625,-34.66796875,-84.9609375,0.0
196.53515625,-20.99609375,967.7734375,-34.1796875,-29.296875,54.19921875,0.0
196.5390625,-28.80859375,968.26171875,-26.3671875,-23.92578125,56.640625,0.0
196.54296875,-27.34375,967.7734375,-26.85546875,-13.671875,-54.6875,0.0
196.546875,-29.296875,968.26171875,-35.64453125,-13.671875,-0.9765625,0.0
196.55078125,-32.2265625,965.8203125,-28.3203125,-21.484375,38.0859375,0.0
196.5546875,-47.8515625,968.75,-41.9921875,-31.73828125,2.9296875,0.0
196.55859375,-62.5,958.49609375,-59.5703125,-47.8515625,-36.62109375,0.0
196.5625,-49.31640625,883.30078125,-44.43359375,-48.33984375,-5.859375,0.0
196.56640625,-32.2265625,795.41015625,-37.59765625,-43.9453125,-17.578125,0.0
196.5703125,-36.62109375,732.91015625,-30.2734375,-34.1796875,-38.57421875,0.0
196.57421875,-46.875,667.96875,-36.62109375,-42.96875,0.48828125,0.0
196.578125,-41.9921875,577.1484375,-49.8046875,-48.828125,-17.578125,0.0
196.58203125,-21.484375,501.46484375,-41.015625,-37.59765625,-33.69140625,0.0
196.5859375,-21.484375,476.07421875,-41.9921875,-43.9453125,-30.76171875,0.0
196.58984375,-33.203125,420.41015625,-53.7109375,-56.640625,-41.015625,0.0
196.59375,-24.4140625,340.33203125,-40.0390625,-39.55078125,-22.94921875,0.0
196.59765625,-22.4609375,282.71484375,-47.36328125,-42.96875,-25.390625,0.0
196.6015625,-34.1796875,251.953125,-62.98828125,-46.875,-81.0546875,0.0
196.60546875,-68.359375,217.28515625,-74.70703125,-63.96484375,-103.02734375,0.0
196.609375,-69.82421875,170.8984375,-79.1015625,-73.2421875,-135.25390625,0.0
196.61328125,-82.03125,149.90234375,-95.703125,-77.1484375,-141.6015625,0.0
196.6171875,-111.328125,156.73828125,-110.3515625,-98.6328125,-64.94140625,0.0
196.62109375,-99.609375,170.8984375,-99.12109375,-96.6796875,-62.01171875,0.0
196.625,-129.39453125,188.96484375,-133.30078125,-145.5078125,-80.56640625,0.0
196.62890625,-126.46484375,198.2421875,-125.0,-139.6484375,-79.58984375,0.0
196.6328125,-90.33203125,209.47265625,-91.30859375,-100.5859375,-105.95703125,0.0
196.63671875,-89.84375,249.51171875,-81.0546875,-99.12109375,-83.0078125,0.0
196.640625,-83.984375,292.96875,-74.70703125,-94.7265625,-55.17578125,0.0
196.64453125,-76.171875,322.75390625,-69.82421875,-89.84375,-117.1875,0.0
196.6484375,-82.51953125,372.55859375,-69.3359375,-95.21484375,-165.52734375,0.0
196.65234375,-87.40234375,419.921875,-73.2421875,-103.515625,-149.90234375,0.0
196.65625,-110.3515625,472.16796875,-81.0546875,-115.72265625,-93.26171875,0.0
196.66015625,-103.02734375,483.88671875,-62.98828125,-123.53515625,-56.15234375,0.0
196.6640625,-91.30859375,488.28125,-42.96875,-117.1875,-43.9453125,0.0
196.66796875,-119.140625,512.6953125,-42.48046875,-121.58203125,45.41015625,0.0
196.671875,-104.00390625,521.97265625,-21.484375,-96.19140625,86.42578125,0.0
196.67578125,-76.66015625,540.52734375,-7.8125,-83.984375,-34.66796875,0.0
196.6796875,-89.84375,536.62109375,-15.625,-99.12109375,-59.08203125,0.0
196.68359375,-93.26171875,535.64453125,-17.08984375,-93.26171875,-0.48828125,0.0
196.6875,-74.21875,531.25,-1.953125,-85.44921875,-17.578125,0.0
196.69140625,-43.45703125,512.20703125,16.6015625,-62.5,31.25,0.0
196.6953125,-48.828125,504.39453125,8.30078125,-67.87109375,20.01953125,0.0
196.69921875,-70.80078125,480.46875,-10.7421875,-70.80078125,-153.80859375,0.0
196.703125,-51.26953125,510.25390625,-13.671875,-73.73046875,-166.9921875,0.0
196.70703125,-33.203125,489.74609375,-1.46484375,-67.87109375,13.18359375,0.0
196.7109375,-30.76171875,418.45703125,-4.8828125,-51.7578125,35.64453125,0.0
196.71484375,-34.66796875,459.9609375,-21.484375,-62.5,-31.73828125,0.0
196.71875,-51.26953125,430.17578125,-35.15625,-71.77734375,25.87890625,0.0
196.72265625,-51.26953125,376.953125,-33.203125,-60.05859375,21.484375,0.0
196.7265625,-15.13671875,429.6875,-15.13671875,-36.1328125,42.48046875,0.0
196.73046875,-7.8125,424.8046875,-19.53125,-26.85546875,-17.578125,0.0
196.734375,-10.7421875,376.46484375,-19.04296875,-23.92578125,-71.2890625,0.0
196.73828125,15.13671875,367.67578125,-3.41796875,-9.27734375,-45.8984375,0.0
196.7421875,18.5546875,343.75,-4.39453125,-7.8125,-37.109375,0.0
196.74609375,-3.90625,344.7265625,-24.4140625,-24.4140625,-70.80078125,0.0
196.75,-7.32421875,345.21484375,-28.80859375,-27.83203125,-119.62890625,0.0
196.75390625,-19.53125,334.47265625,-31.73828125,-19.53125,-24.90234375,0.0
196.7578125,-18.06640625,323.2421875,-31.25,-13.18359375,-19.04296875,0.0
196.76171875,18.06640625,305.17578125,-2.44140625,14.16015625,-71.77734375,0.0
196.765625,26.85546875,299.31640625,16.6015625,19.53125,24.4140625,0.0
196.76953125,25.390625,292.48046875,19.04296875,15.13671875,27.83203125,0.0
196.7734375,6.34765625,291.50390625,5.37109375,12.20703125,8.7890625,0.0
196.77734375,-19.04296875,287.109375,-19.53125,-17.578125,2.44140625,0.0
196.78125,-50.78125,244.140625,-50.78125,-58.59375,-45.8984375,0.0
196.78515625,-88.37890625,225.09765625,-76.171875,-85.9375,-66.89453125,0.0
196.7890625,-89.35546875,235.3515625,-79.1015625,-79.58984375,-26.85546875,0.0
196.79296875,-80.078125,225.5859375,-65.91796875,-81.54296875,4.8828125,0.0
196.796875,-80.078125,205.078125,-63.96484375,-84.9609375,-46.38671875,0.0
196.80078125,-73.73046875,197.265625,-68.84765625,-77.1484375,-12.6953125,0.0
196.8046875,-75.68359375,199.70703125,-67.87109375,-80.56640625,17.08984375,0.0
196.80859375,-84.9609375,190.91796875,-70.3125,-86.9140625,-19.53125,0.0
196.8125,-93.75,192.3828125,-81.54296875,-89.84375,-21.97265625,0.0
196.81640625,-84.47265625,188.96484375,-83.49609375,-95.703125,-16.6015625,0.0
196.8203125,-62.5,185.546875,-70.80078125,-78.61328125,-2.44140625,0.0
196.82421875,-58.59375,180.17578125,-47.8515625,-42.48046875,3.41796875,0.0
196.828125,-64.94140625,187.01171875,-35.15625,-51.7578125,3.41796875,0.0
196.83203125,-66.40625,210.44921875,-34.1796875,-61.03515625,20.01953125,0.0
196.8359375,-75.68359375,211.9140625,-39.55078125,-63.96484375,-4.8828125,0.0
196.83984375,-80.56640625,215.8203125,-43.9453125,-79.1015625,-64.94140625,0.0
196.84375,-65.91796875,228.515625,-53.22265625,-63.96484375,-115.234375,0.0
196.84765625,-40.0390625,240.72265625,-47.8515625,-38.57421875,-109.375,0.0
196.8515625,-55.17578125,270.01953125,-50.29296875,-58.59375,-70.3125,0.0
196.85546875,-58.10546875,300.78125,-60.05859375,-61.03515625,-31.73828125,0.0
196.859375,-51.7578125,340.33203125,-56.15234375,-44.921875,19.53125,0.0
196.86328125,-53.22265625,384.27734375,-59.5703125,-41.50390625,44.921875,0.0
196.8671875,-35.64453125,426.7578125,-62.01171875,-33.69140625,65.91796875,0.0
196.87109375,-34.1796875,469.23828125,-67.3828125,-20.99609375,73.2421875,0.0
196.875,-36.1328125,498.046875,-65.4296875,-36.62109375,31.25,0.0
196.87890625,-36.62109375,523.4375,-58.59375,-43.9453125,-14.6484375,0.0
196.8828125,-38.57421875,557.12890625,-53.7109375,-20.01953125,-41.9921875,0.0
196.88671875,-31.73828125,586.42578125,-50.29296875,-8.7890625,-16.6015625,0.0
196.890625,-30.2734375,612.3046875,-52.24609375,-5.37109375,-75.1953125,0.0
196.89453125,-48.33984375,642.08984375,-64.94140625,-30.2734375,-71.2890625,0.0
196.8984375,-41.50390625,661.1328125,-62.5,-25.87890625,-65.4296875,0.0
196.90234375,-28.3203125,656.25,-49.31640625,-14.16015625,-128.90625,0.0
196.90625,-31.25,660.64453125,-52.734375,-21.97265625,-26.85546875,0.0
196.91015625,-35.64453125,681.15234375,-65.91796875,-25.390625,16.11328125,0.0
196.9140625,-40.52734375,687.98828125,-69.3359375,-38.0859375,-38.0859375,0.0
196.91796875,-35.64453125,687.5,-63.4765625,-38.0859375,-55.17578125,0.0
196.921875,-35.64453125,679.6875,-57.12890625,-26.85546875,-54.19921875,0.0
196.92578125,-26.3671875,678.22265625,-49.31640625,-29.296875,-10.7421875,0.0
196.9296875,-25.390625,681.15234375,-55.17578125,-37.109375,87.890625,0.0
196.93359375,-38.57421875,675.78125,-62.98828125,-22.4609375,34.1796875,0.0
196.9375,-32.71484375,689.453125,-59.5703125,-12.20703125,-11.23046875,0.0
196.94140625,-26.3671875,707.03125,-62.5,-20.01953125,31.73828125,0.0
196.9453125,-18.5546875,721.19140625,-61.5234375,-23.4375,19.04296875,0.0
196.94921875,-16.11328125,719.7265625,-63.4765625,-12.20703125,-33.203125,0.0
196.953125,-30.2734375,689.94140625,-63.96484375,-20.99609375,-107.91015625,0.0
196.95703125,-32.2265625,662.109375,-63.96484375,-37.59765625,-168.45703125,0.0
196.9609375,-8.7890625,645.5078125,-56.15234375,-23.92578125,-191.40625,0.0
196.96484375,-1.46484375,620.1171875,-49.8046875,-6.8359375,-103.02734375,0.0
196.96875,-14.6484375,588.37890625,-56.640625,-22.4609375,-9.765625,0.0
196.97265625,-6.8359375,-48.828125,-51.7578125,-24.90234375,-9.765625,0.0
196.9765625,11.23046875,-30.76171875,-35.15625,1.953125,-57.6171875,0.0
196.98046875,2.44140625,-35.64453125,-41.015625,-4.8828125,-80.078125,0.0
196.984375,-25.390625,-55.17578125,-65.91796875,-33.203125,-24.90234375,0.0
196.98828125,-24.90234375,-53.7109375,-55.17578125,-24.4140625,22.4609375,0.0
196.9921875,-28.3203125,-55.6640625,-52.24609375,-26.85546875,-18.06640625,0.0
196.99609375,-14.6484375,-44.43359375,-50.78125,-27.34375,39.55078125,0.0
197.0,0.0,-23.92578125,-29.78515625,-12.20703125,30.76171875,0.0
197.00390625,-16.11328125,-35.64453125,-38.57421875,-25.390625,-15.625,0.0
197.0078125,-30.76171875,-53.22265625,-64.94140625,-52.734375,-54.19921875,0.0
197.01171875,-52.24609375,-69.82421875,-83.984375,-67.87109375,-103.515625,0.0
197.015625,-43.45703125,-61.5234375,-73.73046875,-56.15234375,-69.82421875,0.0
197.01953125,-31.73828125,-46.38671875,-61.03515625,-50.78125,-34.1796875,0.0
197.0234375,-35.15625,-40.0390625,-59.08203125,-49.8046875,-0.48828125,0.0
197.02734375,-39.0625,-37.59765625,-64.94140625,-51.7578125,-15.625,0.0
197.03125,-46.875,-39.55078125,-70.3125,-51.7578125,-101.5625,0.0
197.03515625,-45.8984375,-45.41015625,-62.98828125,-57.12890625,-83.49609375,0.0
197.0390625,-57.12890625,-53.22265625,-68.359375,-65.4296875,-95.703125,0.0
197.04296875,-60.546875,-58.59375,-81.54296875,-74.70703125,-107.421875,0.0
197.046875,-56.640625,-67.3828125,-81.54296875,-76.171875,-72.75390625,0.0
197.05078125,-66.40625,-76.66015625,-83.49609375,-76.171875,-71.77734375,0.0
197.0546875,-56.15234375,-66.89453125,-75.1953125,-67.87109375,-42.96875,0.0
197.05859375,-28.3203125,-39.55078125,-45.8984375,-44.43359375,-20.5078125,0.0
197.0625,-19.04296875,-37.109375,-40.0390625,-34.66796875,-45.41015625,0.0
197.06640625,-30.2734375,95.703125,-46.38671875,-37.59765625,-66.40625,0.0
197.0703125,-40.0390625,96.19140625,-57.6171875,-59.5703125,-30.2734375,0.0
197.07421875,-101.07421875,86.9140625,-122.55859375,-115.72265625,-21.97265625,0.0
197.078125,-137.20703125,72.75390625,-154.78515625,-138.18359375,-96.6796875,0.0
197.08203125,-133.7890625,79.1015625,-149.4140625,-137.6953125,-129.39453125,0.0
197.0859375,-155.2734375,76.171875,-157.71484375,-154.296875,-18.06640625,0.0
197.08984375,-133.7890625,57.12890625,-139.16015625,-134.765625,69.82421875,0.0
197.09375,-110.83984375,39.55078125,-123.53515625,-117.1875,-11.23046875,0.0
197.09765625,-102.05078125,33.69140625,-112.79296875,-112.3046875,-54.19921875,0.0
197.1015625,-78.125,31.25,-82.51953125,-96.6796875,-29.296875,0.0
197.10546875,-68.359375,23.92578125,-75.68359375,-82.03125,22.94921875,0.0
197.109375,-63.96484375,21.484375,-89.84375,-80.078125,87.40234375,0.0
197.11328125,-57.12890625,26.3671875,-77.63671875,-82.03125,82.51953125,0.0
197.1171875,-54.6875,18.5546875,-65.4296875,-77.1484375,12.20703125,0.0
197.12109375,-69.82421875,-0.48828125,-72.265625,-92.7734375,-118.65234375,0.0
197.125,-83.49609375,4.8828125,-79.1015625,-107.421875,-75.68359375,0.0
197.12890625,-75.1953125,12.6953125,-88.8671875,-109.86328125,-9.27734375,0.0
197.1328125,-66.89453125,14.6484375,-103.02734375,-127.44140625,-62.5,0.0
197.13671875,-73.2421875,2.9296875,-105.95703125,-130.859375,-169.921875,0.0
197.140625,-75.1953125,-8.7890625,-103.515625,-119.62890625,-161.1328125,0.0
197.14453125,-78.125,-5.859375,-98.14453125,-105.46875,-97.65625,0.0
197.1484375,-91.796875,-18.06640625,-92.28515625,-95.21484375,-211.9140625,0.0
197.15234375,-109.86328125,-22.4609375,-99.12109375,-94.7265625,-186.03515625,0.0
197.15625,-93.75,-19.53125,-98.14453125,-82.03125,-41.015625,0.0
197.16015625,-93.26171875,-25.87890625,-103.02734375,-82.03125,-58.10546875,0.0
197.1640625,-108.88671875,-19.53125,-100.09765625,-77.1484375,-104.4921875,0.0
197.16796875,-93.75,-16.6015625,-85.9375,-65.4296875,-67.3828125,0.0
197.171875,-75.1953125,-21.484375,-73.73046875,-51.26953125,-58.59375,0.0
197.17578125,-87.890625,-17.08984375,-84.47265625,-49.8046875,-17.08984375,0.0
197.1796875,-79.58984375,-12.20703125,-78.61328125,-53.7109375,40.52734375,0.0
197.18359375,-46.875,-19.53125,-47.8515625,-28.80859375,-32.71484375,0.0
197.1875,-52.24609375,-17.08984375,-48.828125,-23.4375,31.73828125,0.0
197.19140625,-60.05859375,-19.04296875,-50.29296875,-38.57421875,88.8671875,0.0
197.1953125,-49.8046875,-27.34375,-38.0859375,-32.71484375,-18.06640625,0.0
197.19921875,-55.6640625,-12.6953125,-44.921875,-38.0859375,-61.5234375,0.0
197.203125,-79.58984375,-18.5546875,-66.40625,-66.40625,-18.06640625,0.0
197.20703125,-88.8671875,-16.6015625,-70.80078125,-78.125,59.08203125,0.0
197.2109375,-77.1484375,5.37109375,-53.7109375,-53.22265625,86.42578125,0.0
197.21484375,-65.91796875,9.27734375,-45.8984375,-44.43359375,2.44140625,0.0
197.21875,-53.7109375,20.5078125,-39.55078125,-50.78125,24.90234375,0.0
197.22265625,-63.96484375,31.73828125,-47.8515625,-68.359375,56.640625,0.0
197.2265625,-63.96484375,44.921875,-47.36328125,-64.453125,-20.99609375,0.0
197.23046875,-23.4375,48.33984375,-13.18359375,-35.15625,-100.09765625,0.0
197.234375,-3.90625,31.25,0.0,-16.6015625,-115.72265625,0.0
197.23828125,-35.15625,26.3671875,-30.76171875,-54.19921875,-45.8984375,0.0
197.2421875,-53.22265625,34.1796875,-49.8046875,-84.9609375,-11.23046875,0.0
