timestamp,TP9,AF7,AF8,TP10,AUX,Marker,
84.00390625,-14.16015625,-32.71484375,-23.92578125,-22.4609375,-229.98046875,0.0
84.0078125,-8.7890625,-26.85546875,-19.53125,-27.83203125,-77.1484375,0.0
84.01171875,-8.30078125,-28.3203125,-27.83203125,-27.34375,-41.015625,0.0
84.015625,-21.484375,-29.78515625,-34.66796875,-25.87890625,-7.8125,0.0
84.01953125,-32.2265625,-37.109375,-34.1796875,-25.390625,3.90625,0.0
84.0234375,-33.203125,-36.62109375,-29.78515625,-30.76171875,-8.7890625,0.0
84.02734375,-23.4375,-27.34375,-21.97265625,-26.3671875,-51.7578125,0.0
84.03125,-21.97265625,-33.203125,-26.3671875,-24.4140625,-24.4140625,0.0
84.03515625,-31.25,-39.55078125,-38.0859375,-29.296875,41.9921875,0.0
84.0390625,-24.4140625,-39.55078125,-42.96875,-25.390625,28.80859375,0.0
84.04296875,-19.53125,-30.76171875,-31.73828125,-23.92578125,-21.97265625,0.0
84.046875,-21.97265625,-28.80859375,-21.97265625,-28.80859375,-105.46875,0.0
84.05078125,-19.04296875,-30.76171875,-25.390625,-26.85546875,-93.26171875,0.0
84.0546875,-11.23046875,-30.76171875,-33.69140625,-25.390625,-15.13671875,0.0
84.05859375,-14.16015625,-33.69140625,-40.52734375,-31.73828125,-47.36328125,0.0
84.0625,-16.11328125,-30.2734375,-37.109375,-37.109375,0.48828125,0.0
84.06640625,-8.30078125,-26.85546875,-27.83203125,-32.71484375,48.828125,0.0
84.0703125,-24.4140625,-29.296875,-33.203125,-38.57421875,-25.390625,0.0
84.07421875,-40.0390625,-29.296875,-41.015625,-41.9921875,-53.7109375,0.0
84.078125,-44.921875,-37.109375,-45.41015625,-35.64453125,-59.08203125,0.0
84.08203125,-50.78125,-38.0859375,-41.50390625,-32.2265625,-13.671875,0.0
84.0859375,-33.69140625,-26.85546875,-26.3671875,-31.73828125,-22.94921875,0.0
84.08984375,-20.99609375,-30.2734375,-25.390625,-32.2265625,3.41796875,0.0
84.09375,-28.3203125,-37.109375,-35.64453125,-34.1796875,150.390625,0.0
84.09765625,-35.15625,-35.64453125,-39.55078125,-36.62109375,84.47265625,0.0
84.1015625,-37.59765625,-36.1328125,-31.25,-38.0859375,0.0,0.0
84.10546875,-32.2265625,-34.1796875,-22.94921875,-35.64453125,-30.76171875,0.0
84.109375,-33.203125,-28.80859375,-26.3671875,-30.76171875,-17.578125,0.0
84.11328125,-41.50390625,-27.83203125,-32.71484375,-22.4609375,14.16015625,0.0
84.1171875,-34.66796875,-29.78515625,-38.0859375,-22.4609375,-32.71484375,0.0
84.12109375,-23.4375,-34.66796875,-34.66796875,-29.296875,-85.9375,0.0
84.125,-25.390625,-35.64453125,-26.85546875,-33.203125,-94.7265625,0.0
84.12890625,-35.15625,-34.66796875,-30.2734375,-41.9921875,-57.12890625,0.0
84.1328125,-33.203125,-35.64453125,-35.15625,-39.55078125,-26.3671875,0.0
84.13671875,-39.0625,-41.015625,-42.96875,-36.1328125,-0.48828125,0.0
84.140625,-41.9921875,-40.52734375,-42.48046875,-38.57421875,-18.06640625,0.0
84.14453125,-31.73828125,-31.25,-28.3203125,-37.109375,-36.62109375,0.0
84.1484375,-29.296875,-32.2265625,-22.4609375,-33.69140625,-10.7421875,0.0
84.15234375,-33.69140625,-33.203125,-25.87890625,-31.25,-23.4375,0.0
84.15625,-37.59765625,-27.83203125,-40.0390625,-27.83203125,-18.06640625,0.0
84.16015625,-40.52734375,-29.296875,-47.8515625,-31.25,-29.78515625,0.0
84.1640625,-32.2265625,-21.97265625,-34.1796875,-32.2265625,-64.94140625,0.0
84.16796875,-24.90234375,-19.53125,-31.25,-25.87890625,-63.4765625,0.0
84.171875,-29.296875,-29.78515625,-44.921875,-30.2734375,-30.2734375,0.0
84.17578125,-33.203125,-27.83203125,-54.19921875,-33.203125,32.2265625,0.0
84.1796875,-31.25,-29.296875,-47.36328125,-25.390625,-51.26953125,0.0
84.18359375,-28.3203125,-32.71484375,-33.69140625,-25.390625,-141.11328125,0.0
84.1875,-32.71484375,-32.71484375,-35.15625,-34.1796875,-101.07421875,0.0
84.19140625,-30.2734375,-30.76171875,-37.59765625,-34.66796875,-41.9921875,0.0
84.1953125,-28.80859375,-31.25,-44.43359375,-33.69140625,-83.984375,0.0
84.19921875,-32.71484375,-33.203125,-48.33984375,-36.1328125,-42.48046875,0.0
84.203125,-29.78515625,-34.1796875,-39.0625,-35.64453125,-56.640625,0.0
84.20703125,-29.296875,-28.80859375,-32.2265625,-33.203125,-88.37890625,0.0
84.2109375,-35.64453125,-22.4609375,-36.1328125,-35.64453125,-22.4609375,0.0
84.21484375,-31.73828125,-24.90234375,-43.45703125,-31.25,24.4140625,0.0
84.21875,-31.25,-27.83203125,-52.24609375,-34.66796875,38.57421875,0.0
84.22265625,-29.78515625,-23.92578125,-38.57421875,-37.59765625,57.12890625,0.0
84.2265625,-25.390625,-30.2734375,-30.76171875,-31.73828125,42.48046875,0.0
84.23046875,-17.578125,-38.57421875,-36.62109375,-32.2265625,-10.7421875,0.0
84.234375,-15.13671875,-33.69140625,-41.015625,-34.66796875,-14.16015625,0.0
84.23828125,-25.390625,-33.69140625,-49.31640625,-36.62109375,57.12890625,0.0
84.2421875,-21.484375,-31.73828125,-35.64453125,-30.2734375,76.171875,0.0
84.24609375,-16.11328125,-24.90234375,-17.578125,-25.390625,43.45703125,0.0
84.25,-26.85546875,-26.85546875,-23.4375,-25.390625,-11.71875,0.0
84.25390625,-42.96875,-33.203125,-28.80859375,-23.92578125,-3.90625,0.0
84.2578125,-52.734375,-31.25,-36.1328125,-26.3671875,35.15625,0.0
84.26171875,-42.48046875,-27.83203125,-32.2265625,-26.3671875,-41.50390625,0.0
84.265625,-29.296875,-30.76171875,-24.4140625,-28.3203125,-2.44140625,0.0
84.26953125,-29.78515625,-31.25,-27.83203125,-27.34375,17.08984375,0.0
84.2734375,-30.76171875,-37.109375,-26.3671875,-27.34375,23.4375,0.0
84.27734375,-31.73828125,-39.0625,-34.66796875,-29.296875,20.5078125,0.0
84.28125,-34.66796875,-35.15625,-33.69140625,-29.296875,-24.4140625,0.0
84.28515625,-32.2265625,-32.71484375,-17.578125,-25.390625,-6.8359375,0.0
84.2890625,-27.34375,-30.76171875,-12.6953125,-21.484375,35.15625,0.0
84.29296875,-29.78515625,-31.25,-15.13671875,-23.4375,46.875,0.0
84.296875,-31.73828125,-30.2734375,-21.97265625,-21.484375,-5.859375,0.0
84.30078125,-21.484375,-24.90234375,-13.18359375,-19.04296875,50.78125,0.0
84.3046875,-22.4609375,-27.34375,-6.8359375,-25.390625,63.4765625,0.0
84.30859375,-33.203125,-30.76171875,-14.6484375,-28.80859375,15.625,0.0
84.3125,-37.109375,-28.3203125,-20.99609375,-26.85546875,119.62890625,0.0
84.31640625,-38.0859375,-32.2265625,-31.73828125,-28.80859375,56.640625,0.0
84.3203125,-25.390625,-36.1328125,-28.3203125,-30.76171875,-46.875,0.0
84.32421875,-15.625,-25.87890625,-14.16015625,-32.2265625,-70.3125,0.0
84.328125,-19.04296875,-23.4375,-17.578125,-32.71484375,-52.734375,0.0
84.33203125,-26.3671875,-28.80859375,-23.4375,-35.64453125,-50.29296875,0.0
84.3359375,-25.390625,-29.296875,-26.85546875,-27.83203125,-54.19921875,0.0
84.33984375,-30.2734375,-31.73828125,-26.85546875,-27.34375,-5.859375,0.0
84.34375,-31.73828125,-35.64453125,-22.4609375,-37.59765625,-9.765625,0.0
84.34765625,-33.69140625,-35.64453125,-22.94921875,-38.0859375,59.08203125,0.0
84.3515625,-40.52734375,-31.73828125,-25.87890625,-38.57421875,47.8515625,0.0
84.35546875,-41.015625,-35.15625,-29.296875,-41.50390625,-11.23046875,0.0
84.359375,-37.59765625,-41.015625,-29.296875,-39.0625,-61.5234375,0.0
84.36328125,-40.52734375,-43.9453125,-21.484375,-29.78515625,-94.7265625,0.0
84.3671875,-36.62109375,-35.15625,-20.5078125,-27.34375,-3.41796875,0.0
84.37109375,-28.80859375,-30.2734375,-29.78515625,-30.76171875,-9.765625,0.0
84.375,-40.0390625,-39.0625,-40.0390625,-34.1796875,-6.34765625,0.0
84.37890625,-51.26953125,-39.55078125,-41.50390625,-35.64453125,6.8359375,0.0
84.3828125,-53.22265625,-37.59765625,-34.1796875,-34.1796875,-41.9921875,0.0
84.38671875,-56.15234375,-39.55078125,-31.25,-39.0625,-25.390625,0.0
84.390625,-55.17578125,-43.45703125,-37.109375,-46.875,-17.08984375,0.0
84.39453125,-63.4765625,-50.29296875,-43.45703125,-48.828125,-103.515625,0.0
84.3984375,-60.546875,-49.8046875,-40.52734375,-44.921875,-61.03515625,0.0
84.40234375,-37.109375,-41.015625,-30.2734375,-38.57421875,-28.80859375,0.0
84.40625,-34.66796875,-40.52734375,-30.2734375,-40.52734375,-104.4921875,0.0
84.41015625,-51.7578125,-44.921875,-30.76171875,-43.45703125,-112.3046875,0.0
84.4140625,-49.8046875,-38.0859375,-33.203125,-42.48046875,-69.82421875,0.0
84.41796875,-44.921875,-38.0859375,-39.0625,-38.57421875,-0.9765625,0.0
84.421875,-53.7109375,-44.43359375,-35.64453125,-40.52734375,9.27734375,0.0
84.42578125,-54.19921875,-39.0625,-25.87890625,-43.45703125,4.8828125,0.0
84.4296875,-40.52734375,-37.59765625,-24.4140625,-42.96875,58.59375,0.0
84.43359375,-41.9921875,-42.48046875,-29.296875,-44.921875,16.11328125,0.0
84.4375,-56.15234375,-41.015625,-33.69140625,-40.0390625,-79.58984375,0.0
84.44140625,-50.29296875,-39.55078125,-21.97265625,-35.64453125,-104.00390625,0.0
84.4453125,-46.38671875,-37.109375,-15.625,-39.0625,-113.28125,0.0
84.44921875,-45.41015625,-30.76171875,-24.90234375,-39.0625,-61.5234375,0.0
84.453125,-27.83203125,-37.109375,-26.3671875,-34.1796875,-60.05859375,0.0
84.45703125,-42.96875,-41.50390625,-36.1328125,-35.15625,-31.25,0.0
84.4609375,-60.546875,-35.64453125,-37.59765625,-42.48046875,37.109375,0.0
84.46484375,-33.69140625,-31.73828125,-21.484375,-38.0859375,81.54296875,0.0
84.46875,-21.97265625,-36.1328125,-22.94921875,-44.43359375,108.88671875,0.0
84.47265625,-28.3203125,-41.50390625,-30.2734375,-49.31640625,51.7578125,0.0
84.4765625,-35.64453125,-40.0390625,-37.59765625,-43.9453125,-32.71484375,0.0
84.48046875,-39.0625,-33.203125,-29.78515625,-51.7578125,-61.5234375,0.0
84.484375,-26.85546875,-31.73828125,-16.6015625,-47.8515625,-16.11328125,0.0
84.48828125,-39.0625,-37.59765625,-21.484375,-42.96875,-46.875,0.0
84.4921875,-72.265625,-39.0625,-27.34375,-55.17578125,5.859375,0.0
84.49609375,-91.796875,-42.48046875,-33.69140625,-64.94140625,111.81640625,0.0
84.5,-76.66015625,-47.36328125,-38.57421875,-56.15234375,31.25,0.0
84.50390625,-37.59765625,-39.0625,-20.5078125,-47.8515625,-37.109375,0.0
84.5078125,-54.6875,-40.0390625,-9.765625,-51.26953125,6.8359375,0.0
84.51171875,-84.47265625,-45.41015625,-22.94921875,-57.12890625,24.90234375,0.0
84.515625,-41.015625,-49.31640625,-40.0390625,-58.59375,-31.73828125,0.0
84.51953125,-28.80859375,-46.875,-38.0859375,-45.8984375,-61.03515625,0.0
84.5234375,-66.89453125,-45.8984375,-25.87890625,-44.43359375,-32.71484375,0.0
84.52734375,-64.94140625,-49.8046875,-22.94921875,-53.7109375,-47.36328125,0.0
84.53125,-38.57421875,-47.8515625,-25.87890625,-43.45703125,-36.62109375,0.0
84.53515625,-63.96484375,-58.59375,-38.57421875,-47.8515625,-4.8828125,0.0
84.5390625,-63.96484375,-62.01171875,-38.0859375,-48.828125,-18.06640625,0.0
84.54296875,-46.875,-51.26953125,-19.53125,-39.0625,-37.109375,0.0
84.546875,-82.03125,-51.7578125,-21.484375,-51.26953125,-55.6640625,0.0
84.55078125,-89.35546875,-50.78125,-33.69140625,-64.453125,-84.9609375,0.0
84.5546875,-58.59375,-47.8515625,-32.2265625,-43.9453125,-59.5703125,0.0
84.55859375,-59.5703125,-44.43359375,-30.76171875,-31.25,41.9921875,0.0
84.5625,-76.171875,-45.8984375,-27.83203125,-51.7578125,-24.90234375,0.0
84.56640625,-50.29296875,-44.43359375,-17.578125,-45.41015625,-88.8671875,0.0
84.5703125,-36.1328125,-38.57421875,-23.92578125,-32.2265625,-50.29296875,0.0
84.57421875,-57.6171875,-45.8984375,-35.15625,-38.0859375,-87.890625,0.0
84.578125,-70.3125,-45.8984375,-40.52734375,-37.59765625,15.625,0.0
84.58203125,-61.03515625,-42.96875,-30.76171875,-33.203125,48.33984375,0.0
84.5859375,-45.41015625,-46.38671875,-11.23046875,-23.92578125,-35.64453125,0.0
84.58984375,-37.109375,-51.7578125,-20.99609375,-29.296875,19.04296875,0.0
84.59375,-40.0390625,-52.734375,-40.0390625,-38.0859375,37.59765625,0.0
84.59765625,-60.05859375,-46.38671875,-55.6640625,-47.36328125,28.80859375,0.0
84.6015625,-66.89453125,-42.96875,-49.8046875,-50.78125,90.33203125,0.0
84.60546875,-48.828125,-46.38671875,-31.73828125,-40.0390625,-11.71875,0.0
84.609375,-38.0859375,-46.38671875,-36.62109375,-34.66796875,-75.1953125,0.0
84.61328125,-48.33984375,-40.52734375,-41.50390625,-36.1328125,41.9921875,0.0
84.6171875,-56.640625,-39.0625,-47.36328125,-35.15625,50.78125,0.0
84.62109375,-48.828125,-38.57421875,-45.41015625,-33.203125,82.51953125,0.0
84.625,-38.0859375,-39.55078125,-32.71484375,-25.390625,172.36328125,0.0
84.62890625,-35.15625,-39.55078125,-33.69140625,-19.53125,163.0859375,0.0
84.6328125,-37.109375,-33.203125,-33.69140625,-20.01953125,51.26953125,0.0
84.63671875,-43.45703125,-32.2265625,-39.0625,-23.4375,-11.23046875,0.0
84.640625,-42.48046875,-34.1796875,-39.55078125,-27.34375,-26.3671875,0.0
84.64453125,-30.2734375,-35.15625,-28.3203125,-21.484375,-47.36328125,0.0
84.6484375,-32.2265625,-35.15625,-28.3203125,-22.4609375,-43.45703125,0.0
84.65234375,-35.64453125,-34.1796875,-35.64453125,-26.85546875,-20.99609375,0.0
84.65625,-36.62109375,-38.0859375,-45.8984375,-24.4140625,-105.46875,0.0
84.66015625,-43.9453125,-38.0859375,-41.9921875,-26.85546875,-66.89453125,0.0
84.6640625,-42.48046875,-36.1328125,-24.4140625,-28.3203125,9.765625,0.0
84.66796875,-36.62109375,-36.1328125,-20.99609375,-22.4609375,-17.08984375,0.0
84.671875,-37.59765625,-36.62109375,-24.4140625,-11.71875,5.859375,0.0
84.67578125,-56.640625,-36.62109375,-33.69140625,-15.13671875,-19.53125,0.0
84.6796875,-52.734375,-32.71484375,-31.73828125,-16.6015625,-63.4765625,0.0
84.68359375,-27.34375,-34.66796875,-20.01953125,-15.13671875,-68.359375,0.0
84.6875,-27.83203125,-40.0390625,-24.4140625,-23.4375,-61.5234375,0.0
84.69140625,-35.15625,-35.64453125,-23.92578125,-21.484375,-31.73828125,0.0
84.6953125,-35.64453125,-34.1796875,-29.296875,-23.4375,2.9296875,0.0
84.69921875,-27.83203125,-35.64453125,-39.0625,-23.92578125,-0.9765625,0.0
84.703125,-16.11328125,-35.64453125,-30.2734375,-14.6484375,-45.8984375,0.0
84.70703125,-24.90234375,-37.109375,-32.71484375,-16.6015625,-84.47265625,0.0
84.7109375,-30.2734375,-33.69140625,-35.64453125,-23.4375,-66.40625,0.0
84.71484375,-23.92578125,-30.76171875,-35.64453125,-21.97265625,-67.87109375,0.0
84.71875,-26.85546875,-33.69140625,-42.96875,-20.5078125,14.6484375,0.0
84.72265625,-20.99609375,-34.66796875,-33.203125,-23.92578125,21.97265625,0.0
84.7265625,-19.04296875,-30.76171875,-22.94921875,-25.87890625,-6.8359375,0.0
84.73046875,-27.34375,-28.80859375,-24.90234375,-27.83203125,33.203125,0.0
84.734375,-23.4375,-33.203125,-38.0859375,-26.3671875,16.6015625,0.0
84.73828125,-20.5078125,-38.57421875,-39.55078125,-18.5546875,48.828125,0.0
84.7421875,-26.3671875,-40.52734375,-25.87890625,-20.01953125,93.26171875,0.0
84.74609375,-27.34375,-35.64453125,-18.5546875,-24.90234375,91.796875,0.0
84.75,-22.4609375,-37.109375,-25.87890625,-21.97265625,42.96875,0.0
84.75390625,-29.296875,-37.59765625,-29.78515625,-14.16015625,2.44140625,0.0
84.7578125,-39.0625,-36.1328125,-35.15625,-11.71875,21.97265625,0.0
84.76171875,-28.3203125,-35.64453125,-29.78515625,-19.04296875,56.15234375,0.0
84.765625,-38.57421875,-31.25,-19.53125,-22.94921875,54.6875,0.0
84.76953125,-33.203125,-30.76171875,-24.90234375,-19.04296875,-11.23046875,0.0
84.7734375,-12.20703125,-28.80859375,-22.94921875,-14.6484375,-112.3046875,0.0
84.77734375,-15.625,-26.85546875,-28.3203125,-15.13671875,-98.6328125,0.0
84.78125,-34.1796875,-34.1796875,-29.296875,-16.6015625,-40.52734375,0.0
84.78515625,-41.50390625,-33.203125,-22.94921875,-17.08984375,-43.45703125,0.0
84.7890625,-27.83203125,-27.34375,-32.2265625,-19.53125,-93.75,0.0
84.79296875,-18.5546875,-34.66796875,-31.73828125,-15.625,-48.828125,0.0
84.796875,-24.4140625,-36.62109375,-41.9921875,-15.13671875,38.0859375,0.0
84.80078125,-24.4140625,-31.25,-32.71484375,-7.8125,58.59375,0.0
84.8046875,-21.97265625,-29.78515625,-17.08984375,-8.30078125,0.0,0.0
84.80859375,-30.2734375,-28.80859375,-29.296875,-30.2734375,6.8359375,0.0
84.8125,-26.3671875,-36.1328125,-32.71484375,-33.203125,27.83203125,0.0
84.81640625,-32.71484375,-42.48046875,-40.0390625,-36.62109375,-11.71875,0.0
84.8203125,-48.828125,-37.109375,-41.50390625,-40.0390625,-0.9765625,0.0
84.82421875,-47.36328125,-36.62109375,-33.69140625,-43.9453125,28.3203125,0.0
84.828125,-45.8984375,-38.57421875,-39.55078125,-54.19921875,12.6953125,0.0
84.83203125,-51.26953125,-34.66796875,-41.9921875,-57.12890625,-43.45703125,0.0
84.8359375,-53.7109375,-34.66796875,-45.41015625,-61.5234375,-63.4765625,0.0
84.83984375,-61.03515625,-34.66796875,-46.875,-61.5234375,-29.78515625,0.0
84.84375,-67.3828125,-35.15625,-33.203125,-63.4765625,-53.22265625,0.0
84.84765625,-51.7578125,-34.1796875,-23.92578125,-69.3359375,-60.05859375,0.0
84.8515625,-42.96875,-32.2265625,-21.97265625,-63.96484375,-87.40234375,0.0
84.85546875,-62.01171875,-33.203125,-20.5078125,-55.17578125,-183.10546875,0.0
84.859375,-78.125,-39.55078125,-28.3203125,-64.94140625,-167.48046875,0.0
84.86328125,-63.4765625,-41.50390625,-21.97265625,-63.4765625,-75.1953125,0.0
84.8671875,-44.921875,-36.1328125,-13.671875,-46.875,-29.78515625,0.0
84.87109375,-51.26953125,-35.15625,-19.04296875,-48.33984375,-82.03125,0.0
84.875,-68.359375,-44.921875,-30.2734375,-56.15234375,-43.9453125,0.0
84.87890625,-70.3125,-48.33984375,-33.69140625,-45.8984375,7.8125,0.0
84.8828125,-48.828125,-46.38671875,-24.90234375,-41.015625,-31.25,0.0
84.88671875,-45.8984375,-52.24609375,-14.6484375,-42.96875,-21.484375,0.0
84.890625,-44.921875,-53.22265625,-13.671875,-39.0625,34.1796875,0.0
84.89453125,-50.29296875,-49.31640625,-24.90234375,-43.45703125,21.484375,0.0
84.8984375,-85.9375,-56.15234375,-36.1328125,-54.6875,-15.625,0.0
84.90234375,-72.75390625,-59.08203125,-26.85546875,-52.24609375,-72.75390625,0.0
84.90625,-38.0859375,-52.734375,-14.16015625,-35.64453125,-70.80078125,0.0
84.91015625,-48.828125,-52.24609375,-20.99609375,-33.203125,29.296875,0.0
84.9140625,-47.8515625,-54.19921875,-15.625,-32.2265625,25.390625,0.0
84.91796875,-35.15625,-56.15234375,-15.13671875,-21.97265625,-85.9375,0.0
84.921875,-36.1328125,-57.6171875,-17.08984375,-26.3671875,-78.61328125,0.0
84.92578125,-58.10546875,-54.19921875,-16.11328125,-46.875,-21.484375,0.0
84.9296875,-60.05859375,-51.7578125,-19.53125,-44.921875,-45.8984375,0.0
84.93359375,-32.2265625,-51.26953125,-20.01953125,-22.4609375,-102.5390625,0.0
84.9375,-22.4609375,-51.7578125,-32.71484375,-15.13671875,-103.515625,0.0
84.94140625,-26.3671875,-53.22265625,-28.3203125,-20.01953125,-50.78125,0.0
84.9453125,-34.66796875,-52.734375,-19.53125,-23.4375,22.94921875,0.0
84.94921875,-34.66796875,-52.734375,-28.80859375,-24.4140625,32.71484375,0.0
84.953125,-26.85546875,-57.12890625,-27.34375,-10.7421875,60.546875,0.0
84.95703125,-27.34375,-55.6640625,-31.25,-4.39453125,26.85546875,0.0
84.9609375,-33.203125,-53.22265625,-31.25,-18.5546875,-34.66796875,0.0
84.96484375,-30.76171875,-49.31640625,-20.5078125,-17.578125,-11.71875,0.0
84.96875,-35.64453125,-53.22265625,-27.83203125,-14.6484375,-26.85546875,0.0
84.97265625,-36.62109375,-52.734375,-33.203125,-19.53125,-37.109375,0.0
84.9765625,-23.92578125,-48.828125,-32.71484375,-7.8125,0.9765625,0.0
84.98046875,-14.16015625,-47.36328125,-29.78515625,-2.44140625,28.80859375,0.0
84.984375,-20.01953125,-41.50390625,-24.90234375,-13.18359375,29.296875,0.0
84.98828125,-16.11328125,-39.0625,-27.34375,-14.16015625,-33.203125,0.0
84.9921875,-10.25390625,-39.0625,-30.76171875,-9.27734375,-117.1875,0.0
84.99609375,-8.7890625,-41.9921875,-35.15625,0.48828125,-128.90625,0.0
85.0,-6.34765625,-37.109375,-34.66796875,3.41796875,-206.0546875,0.0
85.00390625,-3.90625,-36.1328125,-21.484375,-0.9765625,-130.859375,0.0
85.0078125,0.9765625,-28.3203125,-18.06640625,-6.34765625,-12.6953125,0.0
85.01171875,1.953125,-23.4375,-22.94921875,-8.7890625,-20.5078125,0.0
85.015625,-3.90625,-35.15625,-33.203125,-6.34765625,-24.90234375,0.0
85.01953125,-4.8828125,-40.52734375,-35.15625,-1.953125,0.9765625,0.0
85.0234375,-0.9765625,-33.203125,-24.90234375,0.0,14.6484375,0.0
85.02734375,8.7890625,-28.3203125,-21.484375,2.9296875,25.87890625,0.0
85.03125,12.20703125,-28.80859375,-24.4140625,5.859375,63.4765625,0.0
85.03515625,8.7890625,-29.78515625,-27.34375,5.37109375,130.859375,0.0
85.0390625,3.41796875,-32.71484375,-29.296875,0.0,113.76953125,0.0
85.04296875,-7.8125,-34.1796875,-29.78515625,-10.25390625,-12.6953125,0.0
85.046875,-12.6953125,-36.62109375,-23.92578125,-13.671875,-104.00390625,0.0
85.05078125,-14.16015625,-40.0390625,-20.5078125,-14.16015625,-71.77734375,0.0
85.0546875,-25.87890625,-39.55078125,-24.90234375,-16.11328125,-40.52734375,0.0
85.05859375,-28.3203125,-37.109375,-37.109375,-21.484375,-16.6015625,0.0
85.0625,-25.87890625,-39.0625,-33.69140625,-22.94921875,18.5546875,0.0
85.06640625,-36.1328125,-40.52734375,-25.390625,-20.99609375,-14.6484375,0.0
85.0703125,-34.66796875,-38.0859375,-22.94921875,-22.94921875,-22.94921875,0.0
85.07421875,-35.64453125,-33.69140625,-24.4140625,-27.34375,-6.8359375,0.0
85.078125,-44.921875,-38.57421875,-34.1796875,-35.15625,5.859375,0.0
85.08203125,-41.50390625,-50.78125,-31.73828125,-41.9921875,-18.5546875,0.0
85.0859375,-41.50390625,-49.31640625,-26.85546875,-43.9453125,-30.76171875,0.0
85.08984375,-47.8515625,-42.96875,-30.2734375,-48.828125,-70.3125,0.0
85.09375,-51.26953125,-45.41015625,-36.1328125,-48.828125,-61.03515625,0.0
85.09765625,-50.78125,-46.38671875,-36.62109375,-47.8515625,22.94921875,0.0
85.1015625,-47.8515625,-42.48046875,-25.87890625,-48.828125,-4.39453125,0.0
85.10546875,-52.734375,-43.9453125,-23.92578125,-51.26953125,12.6953125,0.0
85.109375,-53.7109375,-49.31640625,-29.78515625,-53.22265625,-9.27734375,0.0
85.11328125,-48.33984375,-46.38671875,-33.203125,-48.828125,-18.5546875,0.0
85.1171875,-46.875,-39.0625,-40.0390625,-50.29296875,77.63671875,0.0
85.12109375,-42.96875,-34.1796875,-30.2734375,-47.8515625,14.6484375,0.0
85.125,-70.80078125,-36.1328125,-25.87890625,-56.15234375,15.625,0.0
85.12890625,-75.68359375,-41.50390625,-34.1796875,-66.40625,114.2578125,0.0
85.1328125,-48.828125,-42.48046875,-35.64453125,-59.5703125,112.3046875,0.0
85.13671875,-55.17578125,-41.015625,-39.55078125,-61.03515625,103.02734375,0.0
85.140625,-68.359375,-40.0390625,-34.1796875,-67.87109375,69.3359375,0.0
85.14453125,-65.4296875,-42.96875,-24.4140625,-63.96484375,3.90625,0.0
85.1484375,-66.89453125,-43.9453125,-24.90234375,-64.94140625,-14.6484375,0.0
85.15234375,-76.171875,-48.828125,-31.73828125,-66.40625,38.0859375,0.0
85.15625,-84.9609375,-59.08203125,-46.875,-65.91796875,9.27734375,0.0
85.16015625,-76.171875,-59.08203125,-38.0859375,-58.10546875,-23.4375,0.0
85.1640625,-65.91796875,-51.7578125,-20.99609375,-58.59375,-62.98828125,0.0
85.16796875,-72.75390625,-46.875,-26.85546875,-66.40625,-132.32421875,0.0
85.171875,-80.078125,-50.29296875,-30.2734375,-66.89453125,-122.0703125,0.0
85.17578125,-71.77734375,-52.734375,-29.78515625,-52.24609375,-72.265625,0.0
85.1796875,-78.125,-47.8515625,-32.2265625,-52.24609375,-106.93359375,0.0
85.18359375,-64.94140625,-42.96875,-28.3203125,-55.6640625,-59.5703125,0.0
85.1875,-37.109375,-42.48046875,-26.3671875,-30.2734375,38.57421875,0.0
85.19140625,-62.5,-46.875,-34.66796875,-32.2265625,11.23046875,0.0
85.1953125,-61.03515625,-46.875,-46.38671875,-45.8984375,31.25,0.0
85.19921875,-35.64453125,-47.36328125,-44.43359375,-31.25,68.84765625,0.0
85.203125,-32.2265625,-56.640625,-35.15625,-21.97265625,32.71484375,0.0
85.20703125,-37.109375,-58.59375,-37.59765625,-27.34375,32.71484375,0.0
85.2109375,-43.9453125,-52.734375,-38.57421875,-25.390625,100.09765625,0.0
85.21484375,-25.87890625,-53.22265625,-33.203125,-13.18359375,-9.765625,0.0
85.21875,-16.6015625,-60.546875,-33.69140625,-6.34765625,-124.0234375,0.0
85.22265625,-14.6484375,-60.05859375,-30.76171875,-7.32421875,-41.015625,0.0
85.2265625,-6.8359375,-49.8046875,-25.390625,-3.90625,15.13671875,0.0
85.23046875,-16.11328125,-41.015625,-31.73828125,-14.16015625,-51.26953125,0.0
85.234375,-18.5546875,-39.55078125,-42.48046875,-17.08984375,-83.49609375,0.0
85.23828125,-17.578125,-41.015625,-49.8046875,-9.27734375,-100.09765625,0.0
85.2421875,-14.16015625,-38.0859375,-40.52734375,-3.41796875,-92.28515625,0.0
85.24609375,-6.8359375,-39.0625,-29.296875,-5.859375,-51.7578125,0.0
85.25,-7.8125,-45.8984375,-34.1796875,-11.71875,-81.54296875,0.0
85.25390625,-13.18359375,-43.9453125,-43.45703125,-13.18359375,-46.38671875,0.0
85.2578125,-16.6015625,-38.57421875,-47.8515625,-9.765625,22.4609375,0.0
85.26171875,-18.06640625,-36.1328125,-35.15625,-5.37109375,50.29296875,0.0
85.265625,-16.11328125,-38.57421875,-24.90234375,-7.8125,21.97265625,0.0
85.26953125,-1.953125,-36.62109375,-24.90234375,-10.25390625,-46.38671875,0.0
85.2734375,0.0,-33.203125,-33.69140625,-12.6953125,34.1796875,0.0
85.27734375,-17.08984375,-41.50390625,-42.48046875,-13.18359375,80.078125,0.0
85.28125,-22.94921875,-40.0390625,-37.109375,-14.6484375,6.8359375,0.0
85.28515625,-20.01953125,-35.15625,-31.25,-17.578125,-36.62109375,0.0
85.2890625,-20.5078125,-34.66796875,-29.296875,-18.06640625,-64.94140625,0.0
85.29296875,-7.32421875,-30.2734375,-28.80859375,-10.7421875,-10.25390625,0.0
85.296875,-6.34765625,-32.2265625,-39.0625,-10.7421875,-5.859375,0.0
85.30078125,-18.06640625,-31.73828125,-31.73828125,-16.11328125,-34.1796875,0.0
85.3046875,-15.625,-27.83203125,-15.13671875,-12.6953125,-27.34375,0.0
85.30859375,-14.16015625,-28.3203125,-21.97265625,-15.625,-12.6953125,0.0
85.3125,-21.484375,-28.80859375,-26.3671875,-20.5078125,26.3671875,0.0
85.31640625,-12.6953125,-27.34375,-28.80859375,-13.18359375,-24.4140625,0.0
85.3203125,-11.23046875,-33.69140625,-26.3671875,-9.27734375,-14.6484375,0.0
85.32421875,-11.23046875,-32.71484375,-20.01953125,-11.23046875,-32.2265625,0.0
85.328125,-7.32421875,-28.80859375,-27.34375,-11.71875,-51.26953125,0.0
85.33203125,-12.20703125,-32.2265625,-32.71484375,-10.7421875,-48.828125,0.0
85.3359375,-15.13671875,-35.64453125,-31.25,-3.90625,-127.9296875,0.0
85.33984375,-15.625,-39.55078125,-26.85546875,-3.90625,-74.70703125,0.0
85.34375,-20.5078125,-35.64453125,-20.99609375,-7.8125,-19.53125,0.0
85.34765625,-22.94921875,-29.296875,-23.4375,-6.34765625,-41.015625,0.0
85.3515625,-16.6015625,-32.2265625,-28.3203125,-5.859375,-64.94140625,0.0
85.35546875,-12.20703125,-33.203125,-31.25,-14.16015625,-49.31640625,0.0
85.359375,-14.6484375,-30.76171875,-39.55078125,-20.99609375,-66.89453125,0.0
85.36328125,-14.16015625,-32.71484375,-30.76171875,-13.671875,-48.828125,0.0
85.3671875,-15.625,-35.15625,-21.97265625,-16.11328125,3.90625,0.0
85.37109375,-23.92578125,-32.71484375,-27.83203125,-24.4140625,36.1328125,0.0
85.375,-30.76171875,-35.15625,-39.55078125,-21.97265625,2.9296875,0.0
85.37890625,-37.109375,-40.52734375,-43.9453125,-19.53125,-44.921875,0.0
85.3828125,-32.2265625,-39.0625,-30.76171875,-25.390625,-99.609375,0.0
85.38671875,-33.69140625,-33.69140625,-25.390625,-37.59765625,-75.1953125,0.0
85.390625,-51.26953125,-37.109375,-34.66796875,-41.50390625,-40.52734375,0.0
85.39453125,-55.17578125,-45.41015625,-42.96875,-42.96875,27.34375,0.0
85.3984375,-42.48046875,-43.9453125,-40.52734375,-44.43359375,114.74609375,0.0
85.40234375,-42.48046875,-42.96875,-31.25,-43.45703125,28.80859375,0.0
85.40625,-47.36328125,-42.48046875,-23.92578125,-44.921875,-11.23046875,0.0
85.41015625,-52.734375,-38.57421875,-25.87890625,-46.875,16.11328125,0.0
85.4140625,-56.15234375,-37.59765625,-31.73828125,-51.7578125,-9.765625,0.0
85.41796875,-65.4296875,-39.0625,-36.1328125,-59.08203125,7.8125,0.0
85.421875,-67.3828125,-39.55078125,-29.296875,-62.5,-18.06640625,0.0
85.42578125,-62.98828125,-35.64453125,-22.94921875,-62.98828125,-5.859375,0.0
85.4296875,-64.94140625,-29.78515625,-23.92578125,-66.89453125,17.578125,0.0
85.43359375,-77.63671875,-36.1328125,-22.94921875,-70.3125,9.765625,0.0
85.4375,-76.171875,-42.96875,-29.296875,-63.4765625,21.484375,0.0
85.44140625,-59.5703125,-41.015625,-31.73828125,-67.3828125,-11.23046875,0.0
85.4453125,-54.19921875,-42.96875,-23.92578125,-65.91796875,-88.8671875,0.0
85.44921875,-61.5234375,-44.921875,-29.78515625,-66.89453125,-71.2890625,0.0
85.453125,-59.08203125,-44.43359375,-37.109375,-67.87109375,0.9765625,0.0
85.45703125,-51.26953125,-41.015625,-39.55078125,-56.15234375,67.87109375,0.0
85.4609375,-67.87109375,-40.0390625,-35.64453125,-65.91796875,12.6953125,0.0
85.46484375,-72.265625,-41.9921875,-23.92578125,-68.359375,-18.06640625,0.0
85.46875,-46.875,-39.0625,-20.99609375,-53.22265625,-19.53125,0.0
85.47265625,-39.55078125,-41.015625,-26.3671875,-52.24609375,-6.8359375,0.0
85.4765625,-56.640625,-37.109375,-36.1328125,-56.640625,46.38671875,0.0
85.48046875,-60.05859375,-31.25,-41.015625,-53.7109375,-30.76171875,0.0
85.484375,-38.57421875,-33.69140625,-34.66796875,-41.9921875,-92.7734375,0.0
85.48828125,-39.55078125,-39.0625,-24.4140625,-34.66796875,-72.265625,0.0
85.4921875,-60.05859375,-45.41015625,-33.69140625,-50.29296875,-58.10546875,0.0
85.49609375,-31.73828125,-43.9453125,-41.50390625,-36.62109375,-6.8359375,0.0
85.5,-35.64453125,-43.45703125,-39.55078125,-33.203125,-49.8046875,0.0
85.50390625,-43.45703125,-42.96875,-28.80859375,-43.45703125,55.17578125,0.0
85.5078125,-20.5078125,-44.921875,-21.484375,-26.3671875,111.81640625,0.0
85.51171875,-10.25390625,-45.8984375,-27.34375,-9.765625,-49.31640625,0.0
85.515625,-24.4140625,-44.921875,-38.57421875,-12.6953125,-114.2578125,0.0
85.51953125,-41.9921875,-40.0390625,-41.015625,-31.25,-84.9609375,0.0
85.5234375,-24.90234375,-33.69140625,-23.92578125,-27.34375,13.18359375,0.0
85.52734375,-4.39453125,-32.71484375,-19.04296875,-10.7421875,65.91796875,0.0
85.53125,-8.30078125,-28.80859375,-31.73828125,-12.6953125,24.4140625,0.0
85.53515625,-17.578125,-23.92578125,-42.48046875,-20.99609375,8.7890625,0.0
85.5390625,-23.92578125,-21.484375,-45.8984375,-20.99609375,19.53125,0.0
85.54296875,-38.57421875,-24.4140625,-42.96875,-34.1796875,7.8125,0.0
85.546875,-32.71484375,-28.3203125,-42.48046875,-30.76171875,-17.578125,0.0
85.55078125,-25.87890625,-26.3671875,-44.43359375,-17.578125,-58.10546875,0.0
85.5546875,-11.71875,-24.4140625,-42.96875,-5.859375,-88.37890625,0.0
85.55859375,-3.90625,-33.203125,-50.29296875,6.8359375,-51.7578125,0.0
85.5625,-7.32421875,-31.25,-42.48046875,-5.859375,52.24609375,0.0
85.56640625,0.0,-24.4140625,-32.2265625,-27.34375,4.39453125,0.0
85.5703125,-5.859375,-32.2265625,-37.59765625,-37.59765625,-51.26953125,0.0
85.57421875,-8.30078125,-36.62109375,-41.9921875,-25.390625,-54.19921875,0.0
85.578125,-2.9296875,-33.69140625,-41.015625,10.25390625,-73.73046875,0.0
85.58203125,-3.90625,-31.25,-26.85546875,13.18359375,-93.75,0.0
85.5859375,-2.9296875,-23.92578125,-23.92578125,-4.39453125,-118.1640625,0.0
85.58984375,-1.953125,-19.53125,-32.2265625,10.25390625,-78.125,0.0
85.59375,1.46484375,-22.94921875,-36.1328125,-0.48828125,-8.30078125,0.0
85.59765625,1.953125,-25.87890625,-46.38671875,-42.48046875,14.16015625,0.0
85.6015625,1.953125,-20.5078125,-38.57421875,-54.6875,1.953125,0.0
85.60546875,10.7421875,-16.11328125,-21.484375,-40.0390625,-38.0859375,0.0
85.609375,-0.9765625,-23.92578125,-29.296875,-35.64453125,-50.78125,0.0
85.61328125,-13.18359375,-25.390625,-33.69140625,-32.2265625,-16.11328125,0.0
85.6171875,-7.8125,-24.4140625,-35.64453125,-22.4609375,-37.109375,0.0
85.62109375,-8.30078125,-24.90234375,-34.1796875,-23.4375,-54.6875,0.0
85.625,-7.8125,-25.87890625,-24.90234375,-22.4609375,-40.52734375,0.0
85.62890625,-13.18359375,-24.4140625,-25.390625,-22.4609375,-0.9765625,0.0
85.6328125,-22.94921875,-27.83203125,-38.57421875,-27.34375,84.47265625,0.0
85.63671875,-32.2265625,-35.15625,-45.41015625,-29.78515625,109.375,0.0
85.640625,-30.76171875,-35.64453125,-33.203125,-35.15625,78.125,0.0
85.64453125,-19.53125,-29.78515625,-21.484375,-33.69140625,-14.16015625,0.0
85.6484375,-14.16015625,-22.94921875,-27.34375,-27.83203125,-59.08203125,0.0
85.65234375,-19.53125,-23.4375,-33.203125,-27.83203125,60.05859375,0.0
85.65625,-24.90234375,-33.203125,-39.55078125,-34.66796875,104.00390625,0.0
85.66015625,-28.80859375,-34.66796875,-41.50390625,-39.55078125,58.10546875,0.0
85.6640625,-34.1796875,-25.87890625,-32.71484375,-42.48046875,71.2890625,0.0
85.66796875,-38.0859375,-19.53125,-32.71484375,-41.9921875,51.7578125,0.0
85.671875,-29.296875,-21.97265625,-44.43359375,-42.96875,-4.8828125,0.0
85.67578125,-20.99609375,-25.390625,-53.22265625,-45.8984375,-70.3125,0.0
85.6796875,-29.78515625,-25.390625,-46.875,-43.9453125,-103.02734375,0.0
85.68359375,-32.71484375,-25.390625,-38.0859375,-45.41015625,-125.9765625,0.0
85.6875,-35.15625,-27.34375,-39.55078125,-54.6875,-178.22265625,0.0
85.69140625,-41.50390625,-31.25,-39.55078125,-54.19921875,-229.00390625,0.0
85.6953125,-35.15625,-29.78515625,-42.96875,-47.36328125,-178.7109375,0.0
85.69921875,-28.3203125,-30.2734375,-44.43359375,-49.31640625,-109.86328125,0.0
85.703125,-37.59765625,-34.1796875,-32.71484375,-50.29296875,-134.27734375,0.0
85.70703125,-42.96875,-35.64453125,-32.71484375,-54.6875,-116.69921875,0.0
85.7109375,-37.109375,-26.85546875,-38.0859375,-56.640625,94.23828125,0.0
85.71484375,-42.48046875,-24.4140625,-36.1328125,-56.15234375,93.75,0.0
85.71875,-56.15234375,-30.76171875,-40.0390625,-54.6875,11.23046875,0.0
85.72265625,-55.6640625,-26.85546875,-32.2265625,-53.7109375,-1.46484375,0.0
85.7265625,-55.17578125,-26.85546875,-22.4609375,-63.4765625,-62.98828125,0.0
85.73046875,-63.4765625,-29.78515625,-24.4140625,-70.80078125,-20.5078125,0.0
85.734375,-68.84765625,-32.2265625,-40.0390625,-75.68359375,-20.5078125,0.0
85.73828125,-76.66015625,-34.1796875,-45.41015625,-81.0546875,3.41796875,0.0
85.7421875,-70.80078125,-31.25,-27.83203125,-80.56640625,40.0390625,0.0
85.74609375,-63.96484375,-29.296875,-22.94921875,-87.40234375,14.6484375,0.0
85.75,-72.265625,-30.2734375,-36.1328125,-94.23828125,42.48046875,0.0
85.75390625,-75.1953125,-34.66796875,-43.9453125,-90.8203125,57.6171875,0.0
85.7578125,-65.4296875,-39.0625,-37.109375,-77.1484375,-32.71484375,0.0
85.76171875,-55.6640625,-40.0390625,-32.71484375,-75.1953125,-46.875,0.0
85.765625,-62.5,-35.64453125,-40.0390625,-83.0078125,-34.66796875,0.0
85.76953125,-79.1015625,-27.34375,-46.875,-89.84375,-60.546875,0.0
85.7734375,-87.40234375,-26.85546875,-52.734375,-94.23828125,-6.34765625,0.0
85.77734375,-88.37890625,-36.1328125,-56.15234375,-83.0078125,0.9765625,0.0
85.78125,-79.1015625,-37.109375,-41.9921875,-73.2421875,-39.0625,0.0
85.78515625,-73.2421875,-33.203125,-37.59765625,-75.1953125,-38.57421875,0.0
85.7890625,-66.40625,-36.1328125,-40.52734375,-68.359375,-57.12890625,0.0
85.79296875,-53.7109375,-36.62109375,-35.15625,-55.6640625,-93.75,0.0
85.796875,-67.87109375,-37.109375,-47.36328125,-67.3828125,-77.1484375,0.0
85.80078125,-84.47265625,-35.15625,-51.7578125,-84.9609375,-58.10546875,0.0
85.8046875,-66.89453125,-31.25,-39.55078125,-89.35546875,-103.02734375,0.0
85.80859375,-53.7109375,-34.1796875,-41.50390625,-86.9140625,-47.36328125,0.0
85.8125,-66.89453125,-37.59765625,-46.38671875,-83.984375,33.69140625,0.0
85.81640625,-55.17578125,-31.73828125,-42.48046875,-68.359375,48.828125,0.0
85.8203125,-52.24609375,-31.73828125,-37.109375,-60.05859375,52.24609375,0.0
85.82421875,-64.94140625,-38.0859375,-31.73828125,-61.5234375,9.765625,0.0
85.828125,-42.48046875,-34.1796875,-27.34375,-51.7578125,-30.76171875,0.0
85.83203125,-34.66796875,-32.71484375,-33.69140625,-44.43359375,-17.578125,0.0
85.8359375,-51.26953125,-33.203125,-43.9453125,-49.8046875,39.55078125,0.0
85.83984375,-43.9453125,-30.2734375,-39.55078125,-51.26953125,78.125,0.0
85.84375,-24.90234375,-31.25,-33.203125,-50.29296875,6.34765625,0.0
85.84765625,-26.85546875,-23.92578125,-31.73828125,-49.31640625,-10.25390625,0.0
85.8515625,-43.9453125,-22.4609375,-38.0859375,-54.6875,73.73046875,0.0
85.85546875,-40.52734375,-28.80859375,-48.33984375,-55.17578125,59.08203125,0.0
85.859375,-26.3671875,-24.90234375,-46.38671875,-36.62109375,10.25390625,0.0
85.86328125,-20.5078125,-22.4609375,-31.73828125,-24.4140625,9.27734375,0.0
85.8671875,-12.20703125,-27.34375,-22.94921875,-21.97265625,48.828125,0.0
85.87109375,-4.8828125,-25.87890625,-25.87890625,-19.53125,40.0390625,0.0
85.875,-9.765625,-23.92578125,-35.64453125,-17.08984375,37.59765625,0.0
85.87890625,-14.6484375,-28.3203125,-42.48046875,-16.6015625,95.21484375,0.0
85.8828125,-4.8828125,-22.4609375,-39.0625,-31.25,111.81640625,0.0
85.88671875,0.9765625,-20.5078125,-32.2265625,-41.9921875,67.87109375,0.0
85.890625,-3.90625,-27.34375,-29.296875,-34.1796875,-4.39453125,0.0
85.89453125,-9.27734375,-22.94921875,-36.62109375,-29.78515625,-88.37890625,0.0
85.8984375,-7.32421875,-18.5546875,-45.8984375,-33.203125,-6.34765625,0.0
85.90234375,-7.32421875,-25.87890625,-45.41015625,-30.76171875,91.796875,0.0
85.90625,-0.9765625,-25.390625,-37.59765625,-23.92578125,10.7421875,0.0
85.91015625,8.30078125,-15.625,-30.2734375,-23.92578125,7.32421875,0.0
85.9140625,0.9765625,-12.20703125,-34.1796875,-29.296875,53.22265625,0.0
85.91796875,-13.671875,-22.4609375,-46.875,-35.15625,12.20703125,0.0
85.921875,-12.20703125,-30.2734375,-37.59765625,-31.25,-13.18359375,0.0
85.92578125,-7.8125,-27.34375,-28.80859375,-25.87890625,11.71875,0.0
85.9296875,-10.7421875,-20.5078125,-32.71484375,-21.97265625,52.24609375,0.0
85.93359375,-16.11328125,-22.94921875,-37.109375,-20.99609375,47.8515625,0.0
85.9375,-19.53125,-25.87890625,-47.36328125,-21.484375,86.42578125,0.0
85.94140625,-20.5078125,-24.90234375,-44.921875,-30.2734375,75.1953125,0.0
85.9453125,-25.390625,-21.97265625,-40.0390625,-38.0859375,-12.6953125,0.0
85.94921875,-27.34375,-23.4375,-43.9453125,-35.15625,70.80078125,0.0
85.953125,-35.64453125,-32.71484375,-47.36328125,-39.0625,76.66015625,0.0
85.95703125,-46.38671875,-37.109375,-48.828125,-48.828125,45.41015625,0.0
85.9609375,-59.08203125,-36.62109375,-41.50390625,-56.15234375,83.0078125,0.0
85.96484375,-68.84765625,-35.64453125,-32.71484375,-61.5234375,69.3359375,0.0
85.96875,-70.80078125,-33.69140625,-29.296875,-67.3828125,43.45703125,0.0
85.97265625,-79.58984375,-35.15625,-34.1796875,-72.75390625,35.15625,0.0
85.9765625,-88.8671875,-42.48046875,-40.0390625,-73.73046875,63.4765625,0.0
85.98046875,-89.35546875,-42.96875,-39.0625,-77.63671875,94.23828125,0.0
85.984375,-83.984375,-38.0859375,-35.64453125,-79.58984375,107.91015625,0.0
85.98828125,-78.61328125,-35.15625,-34.1796875,-73.73046875,96.6796875,0.0
85.9921875,-65.91796875,-31.73828125,-29.296875,-65.91796875,64.453125,0.0
85.99609375,-66.89453125,-26.85546875,-33.69140625,-68.359375,64.94140625,0.0
86.0,-77.63671875,-18.06640625,-44.43359375,-83.49609375,30.76171875,0.0
86.00390625,-80.56640625,-14.6484375,-33.69140625,-87.890625,-30.76171875,0.0
86.0078125,-83.0078125,-18.5546875,-27.83203125,-82.51953125,-103.02734375,0.0
86.01171875,-83.49609375,-25.87890625,-27.83203125,-76.66015625,-73.2421875,0.0
86.015625,-72.75390625,-28.80859375,-31.73828125,-68.84765625,-43.9453125,0.0
86.01953125,-61.5234375,-25.390625,-32.2265625,-67.3828125,-118.1640625,0.0
86.0234375,-78.61328125,-20.99609375,-19.53125,-71.2890625,-51.7578125,0.0
86.02734375,-91.796875,-24.4140625,-24.4140625,-80.56640625,-46.875,0.0
86.03125,-83.0078125,-32.2265625,-30.76171875,-80.078125,-122.55859375,0.0
86.03515625,-95.21484375,-37.109375,-28.80859375,-83.984375,-75.1953125,0.0
86.0390625,-95.703125,-36.62109375,-28.3203125,-79.1015625,-27.83203125,0.0
86.04296875,-69.3359375,-27.83203125,-20.01953125,-61.5234375,-84.47265625,0.0
86.046875,-66.89453125,-18.5546875,-30.76171875,-74.21875,-100.09765625,0.0
86.05078125,-78.125,-20.01953125,-39.0625,-83.0078125,-116.69921875,0.0
86.0546875,-73.2421875,-26.85546875,-33.69140625,-63.96484375,-148.92578125,0.0
86.05859375,-70.3125,-25.87890625,-38.57421875,-52.24609375,-82.03125,0.0
86.0625,-71.2890625,-25.87890625,-35.15625,-50.78125,-22.94921875,0.0
86.06640625,-66.89453125,-30.76171875,-31.73828125,-47.36328125,20.99609375,0.0
86.0703125,-67.3828125,-30.76171875,-33.203125,-42.96875,-9.27734375,0.0
86.07421875,-64.94140625,-27.83203125,-33.69140625,-46.875,-0.9765625,0.0
86.078125,-58.59375,-29.296875,-35.64453125,-47.36328125,49.8046875,0.0
86.08203125,-62.5,-34.1796875,-29.78515625,-48.33984375,23.4375,0.0
86.0859375,-56.640625,-37.109375,-23.4375,-47.36328125,17.08984375,0.0
86.08984375,-39.0625,-37.59765625,-22.4609375,-40.52734375,-16.6015625,0.0
86.09375,-38.0859375,-41.015625,-33.69140625,-28.80859375,-72.75390625,0.0
86.09765625,-41.015625,-49.8046875,-42.96875,-18.5546875,-9.765625,0.0
86.1015625,-26.85546875,-47.8515625,-31.73828125,-16.11328125,29.296875,0.0
86.10546875,-22.4609375,-39.0625,-29.296875,-28.80859375,9.27734375,0.0
86.109375,-5.37109375,-39.0625,-29.78515625,-23.4375,-6.8359375,0.0
86.11328125,11.23046875,-42.96875,-28.80859375,-13.18359375,-17.08984375,0.0
86.1171875,5.859375,-41.9921875,-32.71484375,-6.8359375,-24.90234375,0.0
86.12109375,-0.48828125,-34.1796875,-34.1796875,-3.90625,-93.26171875,0.0
86.125,-8.7890625,-33.203125,-37.109375,-7.8125,-59.08203125,0.0
86.12890625,-13.671875,-35.64453125,-30.2734375,-6.34765625,25.87890625,0.0
86.1328125,-9.27734375,-32.71484375,-27.34375,-5.859375,0.0,0.0
86.13671875,-0.48828125,-28.80859375,-37.109375,-2.44140625,-62.5,0.0
86.140625,3.41796875,-28.80859375,-39.0625,-4.8828125,3.41796875,0.0
86.14453125,1.46484375,-28.3203125,-33.203125,-8.7890625,95.703125,0.0
86.1484375,7.32421875,-26.3671875,-33.203125,-0.48828125,41.50390625,0.0
86.15234375,7.8125,-27.34375,-39.55078125,-0.9765625,48.33984375,0.0
86.15625,-0.48828125,-33.203125,-44.43359375,-3.41796875,45.8984375,0.0
86.16015625,-3.41796875,-36.1328125,-38.57421875,3.41796875,-10.7421875,0.0
86.1640625,5.37109375,-32.2265625,-22.94921875,3.90625,-5.859375,0.0
86.16796875,4.8828125,-33.69140625,-22.94921875,-4.8828125,45.8984375,0.0
86.171875,-6.8359375,-38.57421875,-30.76171875,-9.27734375,-41.015625,0.0
86.17578125,-5.37109375,-36.1328125,-34.66796875,-6.8359375,-117.1875,0.0
86.1796875,-8.30078125,-33.203125,-29.78515625,-4.8828125,-153.80859375,0.0
86.18359375,-7.8125,-27.34375,-18.5546875,-8.7890625,-218.26171875,0.0
86.1875,1.46484375,-24.90234375,-19.04296875,-12.20703125,-177.734375,0.0
86.19140625,-6.34765625,-26.85546875,-19.53125,-13.18359375,-174.8046875,0.0
86.1953125,-6.8359375,-28.80859375,-19.53125,-3.41796875,-147.4609375,0.0
86.19921875,-4.8828125,-37.59765625,-23.4375,0.48828125,-91.30859375,0.0
86.203125,-4.8828125,-41.50390625,-17.578125,-0.9765625,-101.07421875,0.0
86.20703125,0.9765625,-37.59765625,-12.20703125,0.48828125,-159.66796875,0.0
86.2109375,-3.41796875,-33.69140625,-18.06640625,6.8359375,-211.42578125,0.0
86.21484375,-2.9296875,-35.15625,-28.3203125,10.25390625,-127.44140625,0.0
86.21875,6.8359375,-32.2265625,-28.80859375,13.671875,-128.41796875,0.0
86.22265625,16.11328125,-27.34375,-17.578125,17.578125,-146.97265625,0.0
86.2265625,15.13671875,-24.90234375,-11.23046875,16.11328125,-105.46875,0.0
86.23046875,14.6484375,-24.4140625,-17.08984375,14.16015625,40.52734375,0.0
86.234375,17.578125,-26.85546875,-28.3203125,10.25390625,96.6796875,0.0
86.23828125,16.6015625,-26.85546875,-28.80859375,8.7890625,69.82421875,0.0
86.2421875,13.18359375,-26.3671875,-21.97265625,8.7890625,59.08203125,0.0
86.24609375,5.37109375,-28.3203125,-18.5546875,-0.48828125,75.1953125,0.0
86.25,-1.46484375,-31.73828125,-20.5078125,-6.8359375,142.08984375,0.0
86.25390625,-8.7890625,-34.66796875,-30.2734375,-10.25390625,190.4296875,0.0
86.2578125,-8.7890625,-36.1328125,-36.1328125,-6.8359375,104.4921875,0.0
86.26171875,-2.44140625,-36.1328125,-24.4140625,0.0,41.9921875,0.0
86.265625,-1.953125,-34.66796875,-23.4375,-2.9296875,0.9765625,0.0
86.26953125,-4.8828125,-32.2265625,-31.25,-12.20703125,-12.6953125,0.0
86.2734375,-14.16015625,-31.73828125,-31.25,-13.18359375,-33.203125,0.0
86.27734375,-16.11328125,-33.69140625,-37.59765625,-13.18359375,-35.64453125,0.0
86.28125,-3.90625,-32.2265625,-29.296875,-13.18359375,30.2734375,0.0
86.28515625,3.90625,-22.94921875,-11.71875,-8.30078125,-16.11328125,0.0
86.2890625,-6.34765625,-24.90234375,-17.08984375,-12.6953125,-131.34765625,0.0
86.29296875,-17.578125,-36.62109375,-22.94921875,-19.04296875,-81.54296875,0.0
86.296875,-24.4140625,-40.0390625,-28.80859375,-21.97265625,-8.7890625,0.0
86.30078125,-20.99609375,-30.2734375,-21.97265625,-20.01953125,-30.76171875,0.0
86.3046875,-18.06640625,-28.3203125,-14.16015625,-16.6015625,-66.89453125,0.0
86.30859375,-22.4609375,-34.66796875,-20.99609375,-27.83203125,-36.1328125,0.0
86.3125,-18.06640625,-35.64453125,-21.484375,-30.2734375,-36.62109375,0.0
86.31640625,-22.4609375,-40.0390625,-30.2734375,-30.76171875,-82.51953125,0.0
86.3203125,-38.0859375,-38.0859375,-33.203125,-34.1796875,-96.19140625,0.0
86.32421875,-41.9921875,-36.62109375,-20.5078125,-28.80859375,-96.6796875,0.0
86.328125,-39.0625,-43.9453125,-21.97265625,-30.2734375,-39.0625,0.0
86.33203125,-45.41015625,-44.921875,-24.4140625,-38.57421875,73.73046875,0.0
86.3359375,-48.828125,-45.8984375,-33.203125,-44.921875,80.078125,0.0
86.33984375,-45.8984375,-46.38671875,-39.0625,-54.19921875,-9.765625,0.0
86.34375,-47.36328125,-37.109375,-29.296875,-53.7109375,-50.29296875,0.0
86.34765625,-53.22265625,-38.0859375,-24.4140625,-56.15234375,-73.73046875,0.0
86.3515625,-63.96484375,-44.921875,-25.390625,-61.03515625,-83.984375,0.0
86.35546875,-73.2421875,-39.0625,-31.73828125,-61.5234375,-48.828125,0.0
86.359375,-73.2421875,-34.1796875,-37.109375,-61.03515625,15.625,0.0
86.36328125,-70.80078125,-38.57421875,-33.69140625,-65.91796875,-38.57421875,0.0
86.3671875,-66.89453125,-33.69140625,-33.69140625,-67.3828125,-118.65234375,0.0
86.37109375,-66.40625,-29.296875,-35.15625,-62.5,-109.86328125,0.0
86.375,-71.2890625,-34.66796875,-31.25,-59.5703125,-19.04296875,0.0
86.37890625,-73.2421875,-38.0859375,-35.15625,-63.4765625,15.625,0.0
86.3828125,-74.21875,-41.015625,-44.43359375,-71.2890625,15.625,0.0
86.38671875,-64.94140625,-36.62109375,-35.64453125,-63.96484375,43.45703125,0.0
86.390625,-62.98828125,-32.71484375,-25.390625,-48.828125,3.90625,0.0
86.39453125,-87.40234375,-39.55078125,-34.1796875,-62.01171875,-87.890625,0.0
86.3984375,-67.3828125,-37.59765625,-38.57421875,-58.10546875,-71.77734375,0.0
86.40234375,-52.734375,-30.76171875,-27.34375,-42.48046875,17.578125,0.0
86.40625,-81.54296875,-35.15625,-28.80859375,-58.59375,0.9765625,0.0
86.41015625,-87.40234375,-41.015625,-31.73828125,-59.5703125,-58.10546875,0.0
86.4140625,-68.84765625,-39.55078125,-31.73828125,-50.29296875,-47.8515625,0.0
86.41796875,-71.77734375,-41.015625,-32.2265625,-50.78125,-31.25,0.0
86.421875,-74.21875,-49.31640625,-26.3671875,-54.6875,-31.25,0.0
86.42578125,-59.5703125,-54.19921875,-24.4140625,-46.875,-79.1015625,0.0
86.4296875,-67.87109375,-55.17578125,-32.71484375,-45.8984375,-73.73046875,0.0
86.43359375,-82.51953125,-61.03515625,-39.0625,-58.59375,-20.01953125,0.0
86.4375,-56.15234375,-62.98828125,-36.62109375,-43.9453125,6.34765625,0.0
86.44140625,-30.76171875,-57.12890625,-25.87890625,-30.2734375,-42.96875,0.0
86.4453125,-61.03515625,-51.7578125,-21.484375,-34.66796875,-60.05859375,0.0
86.44921875,-77.1484375,-52.24609375,-24.90234375,-37.109375,-18.5546875,0.0
86.453125,-55.17578125,-56.15234375,-27.34375,-28.3203125,-38.57421875,0.0
86.45703125,-36.62109375,-58.59375,-26.85546875,-16.6015625,-86.42578125,0.0
86.4609375,-31.73828125,-55.17578125,-21.484375,-20.01953125,-84.9609375,0.0
86.46484375,-25.87890625,-49.31640625,-19.04296875,-16.11328125,-66.89453125,0.0
86.46875,-36.1328125,-44.921875,-31.73828125,-25.390625,-41.015625,0.0
86.47265625,-48.828125,-50.29296875,-38.0859375,-34.1796875,-44.43359375,0.0
86.4765625,-41.015625,-51.26953125,-39.55078125,-21.484375,-3.41796875,0.0
86.48046875,-39.0625,-47.36328125,-37.109375,-21.97265625,-18.06640625,0.0
86.484375,-48.828125,-50.29296875,-28.3203125,-29.296875,-63.4765625,0.0
86.48828125,-46.875,-44.921875,-28.80859375,-27.83203125,-34.1796875,0.0
86.4921875,-32.2265625,-41.50390625,-33.203125,-22.94921875,-12.6953125,0.0
86.49609375,-22.94921875,-40.0390625,-40.0390625,-15.625,-45.8984375,0.0
86.5,-24.90234375,-37.59765625,-41.015625,-14.16015625,-50.29296875,0.0
86.50390625,-15.13671875,-41.015625,-27.83203125,-11.71875,-73.2421875,0.0
86.5078125,-13.671875,-41.9921875,-24.90234375,-6.34765625,-91.796875,0.0
86.51171875,-22.94921875,-45.41015625,-34.1796875,-5.859375,-75.1953125,0.0
86.515625,-20.5078125,-44.43359375,-40.52734375,-6.8359375,-20.01953125,0.0
86.51953125,-21.97265625,-42.48046875,-41.015625,-7.32421875,68.84765625,0.0
86.5234375,-15.13671875,-35.64453125,-25.87890625,-0.48828125,-6.34765625,0.0
86.52734375,-6.8359375,-31.73828125,-25.87890625,-0.48828125,-47.8515625,0.0
86.53125,-9.27734375,-38.0859375,-34.66796875,-6.8359375,81.54296875,0.0
86.53515625,-7.8125,-36.62109375,-42.48046875,-4.8828125,79.1015625,0.0
86.5390625,-7.8125,-35.64453125,-50.29296875,-11.23046875,7.32421875,0.0
86.54296875,-9.27734375,-35.64453125,-38.57421875,-18.06640625,37.59765625,0.0
86.546875,-6.8359375,-32.71484375,-29.78515625,-11.71875,33.69140625,0.0
86.55078125,-15.13671875,-31.25,-35.64453125,-16.11328125,-26.85546875,0.0
86.5546875,-18.06640625,-34.1796875,-40.52734375,-19.04296875,-96.6796875,0.0
86.55859375,-18.06640625,-36.62109375,-45.41015625,-15.625,-82.03125,0.0
86.5625,-18.5546875,-37.109375,-38.57421875,-14.6484375,-24.4140625,0.0
86.56640625,-5.37109375,-29.78515625,-22.94921875,-5.859375,0.9765625,0.0
86.5703125,1.953125,-26.3671875,-19.04296875,3.90625,85.9375,0.0
86.57421875,-7.8125,-31.73828125,-30.76171875,-6.34765625,138.18359375,0.0
86.578125,-15.13671875,-33.203125,-37.109375,-9.765625,111.81640625,0.0
86.58203125,-4.39453125,-28.3203125,-24.4140625,-2.44140625,72.265625,0.0
86.5859375,-3.41796875,-31.25,-25.390625,-8.30078125,123.046875,0.0
86.58984375,-15.13671875,-31.25,-27.83203125,-14.16015625,47.8515625,0.0
86.59375,-20.01953125,-36.62109375,-28.80859375,-15.13671875,-41.50390625,0.0
86.59765625,-23.4375,-41.9921875,-40.52734375,-20.99609375,-41.015625,0.0
86.6015625,-26.3671875,-40.0390625,-31.25,-28.3203125,-66.89453125,0.0
86.60546875,-31.73828125,-39.55078125,-26.3671875,-32.71484375,-55.6640625,0.0
86.609375,-39.55078125,-39.55078125,-35.15625,-30.76171875,-31.73828125,0.0
86.61328125,-31.25,-36.1328125,-33.203125,-24.90234375,-4.39453125,0.0
86.6171875,-30.2734375,-37.59765625,-38.57421875,-19.04296875,-74.21875,0.0
86.62109375,-37.109375,-41.50390625,-42.96875,-29.296875,-86.42578125,0.0
86.625,-25.87890625,-32.71484375,-37.109375,-28.3203125,-31.73828125,0.0
86.62890625,-25.87890625,-29.78515625,-33.203125,-23.4375,17.08984375,0.0
86.6328125,-37.109375,-29.78515625,-27.83203125,-25.390625,27.83203125,0.0
86.63671875,-35.15625,-28.80859375,-28.80859375,-27.34375,-46.875,0.0
86.640625,-42.96875,-39.0625,-32.2265625,-40.0390625,-122.0703125,0.0
86.64453125,-46.38671875,-41.50390625,-21.484375,-42.48046875,-92.28515625,0.0
86.6484375,-50.78125,-40.0390625,-28.3203125,-52.24609375,-86.9140625,0.0
86.65234375,-64.94140625,-36.1328125,-35.64453125,-62.5,-105.46875,0.0
86.65625,-63.96484375,-34.66796875,-42.48046875,-62.01171875,-73.73046875,0.0
86.66015625,-55.17578125,-35.15625,-39.55078125,-60.546875,-58.59375,0.0
86.6640625,-67.87109375,-38.0859375,-33.203125,-64.94140625,2.44140625,0.0
86.66796875,-78.125,-37.109375,-33.69140625,-71.2890625,19.04296875,0.0
86.671875,-74.70703125,-31.73828125,-34.1796875,-72.265625,21.484375,0.0
86.67578125,-81.0546875,-34.1796875,-40.0390625,-68.359375,8.30078125,0.0
86.6796875,-71.77734375,-39.0625,-31.25,-57.12890625,-21.484375,0.0
86.68359375,-48.828125,-40.0390625,-15.625,-43.9453125,-16.6015625,0.0
86.6875,-67.87109375,-30.2734375,-37.59765625,-72.75390625,-3.41796875,0.0
86.69140625,-94.7265625,-16.11328125,-52.24609375,-101.5625,27.83203125,0.0
86.6953125,-86.42578125,-8.30078125,-40.52734375,-88.37890625,-3.90625,0.0
86.69921875,-83.49609375,-7.8125,-48.33984375,-87.40234375,-74.70703125,0.0
86.703125,-77.63671875,-15.13671875,-41.015625,-78.61328125,-89.35546875,0.0
86.70703125,-64.453125,-20.01953125,-30.2734375,-67.87109375,-46.875,0.0
86.7109375,-68.84765625,-14.16015625,-43.45703125,-78.61328125,-83.0078125,0.0
86.71484375,-80.56640625,-1.46484375,-59.5703125,-99.12109375,-166.50390625,0.0
86.71875,-74.21875,-6.34765625,-48.33984375,-88.37890625,-137.20703125,0.0
86.72265625,-62.01171875,-13.671875,-25.87890625,-60.05859375,-106.4453125,0.0
86.7265625,-63.96484375,-3.90625,-27.34375,-65.4296875,-144.04296875,0.0
86.73046875,-74.21875,1.46484375,-40.52734375,-76.66015625,24.4140625,0.0
86.734375,-54.6875,0.48828125,-45.8984375,-63.96484375,111.81640625,0.0
86.73828125,-24.90234375,7.32421875,-38.57421875,-37.109375,44.43359375,0.0
86.7421875,-23.92578125,14.6484375,-33.203125,-29.78515625,97.16796875,0.0
86.74609375,-25.390625,11.71875,-32.71484375,-34.1796875,77.1484375,0.0
86.75,-17.578125,10.25390625,-33.69140625,-31.73828125,33.203125,0.0
86.75390625,-16.11328125,9.765625,-35.64453125,-23.92578125,108.88671875,0.0
86.7578125,-11.71875,11.71875,-45.41015625,-17.578125,22.94921875,0.0
86.76171875,2.44140625,12.20703125,-32.71484375,-4.8828125,-10.25390625,0.0
86.765625,12.20703125,9.27734375,-20.99609375,0.0,-58.10546875,0.0
86.76953125,10.7421875,11.23046875,-35.15625,-12.6953125,-136.71875,0.0
86.7734375,11.23046875,12.6953125,-36.1328125,-10.7421875,-90.33203125,0.0
86.77734375,17.08984375,9.27734375,-32.71484375,2.9296875,-91.796875,0.0
86.78125,28.80859375,-0.9765625,-24.4140625,11.23046875,-185.05859375,0.0
86.78515625,30.76171875,0.9765625,-13.671875,13.18359375,-68.359375,0.0
86.7890625,15.13671875,14.6484375,-18.06640625,4.39453125,118.1640625,0.0
86.79296875,11.23046875,15.13671875,-23.92578125,-0.48828125,111.81640625,0.0
86.796875,27.34375,5.37109375,-30.76171875,12.6953125,72.265625,0.0
86.80078125,31.25,7.32421875,-25.390625,20.99609375,78.61328125,0.0
86.8046875,20.99609375,12.20703125,-20.99609375,7.8125,42.48046875,0.0
86.80859375,29.296875,2.44140625,-24.90234375,3.90625,-6.34765625,0.0
86.8125,29.78515625,0.9765625,-31.25,4.8828125,60.05859375,0.0
86.81640625,20.5078125,0.9765625,-34.1796875,6.34765625,112.3046875,0.0
86.8203125,17.578125,0.9765625,-30.76171875,7.32421875,71.2890625,0.0
86.82421875,22.4609375,3.41796875,-20.5078125,11.71875,-17.08984375,0.0
86.828125,27.83203125,4.39453125,-22.4609375,13.18359375,-58.10546875,0.0
86.83203125,25.390625,1.46484375,-29.78515625,10.25390625,21.484375,0.0
86.8359375,27.34375,-3.90625,-28.3203125,13.18359375,141.6015625,0.0
86.83984375,30.2734375,-6.8359375,-23.4375,15.625,36.62109375,0.0
86.84375,25.87890625,-7.8125,-17.578125,9.765625,-18.5546875,0.0
86.84765625,20.5078125,-3.41796875,-13.18359375,6.8359375,47.8515625,0.0
86.8515625,17.08984375,-5.37109375,-19.53125,8.7890625,15.13671875,0.0
86.85546875,6.8359375,-13.18359375,-29.296875,6.34765625,-27.34375,0.0
86.859375,11.23046875,-7.8125,-26.3671875,5.37109375,38.0859375,0.0
86.86328125,22.4609375,-4.39453125,-20.5078125,4.8828125,104.98046875,0.0
86.8671875,15.625,-9.27734375,-19.04296875,-2.9296875,62.5,0.0
86.87109375,4.8828125,-7.8125,-19.53125,-8.30078125,-16.6015625,0.0
86.875,-4.39453125,-12.20703125,-31.25,-8.30078125,-43.9453125,0.0
86.87890625,-7.8125,-15.625,-37.59765625,-10.7421875,30.2734375,0.0
86.8828125,3.90625,-9.27734375,-20.01953125,-7.32421875,70.3125,0.0
86.88671875,9.27734375,-10.7421875,-20.99609375,-0.9765625,80.56640625,0.0
86.890625,4.8828125,-13.671875,-24.90234375,1.953125,64.94140625,0.0
86.89453125,2.44140625,-13.18359375,-19.53125,-3.41796875,-31.73828125,0.0
86.8984375,-4.8828125,-17.08984375,-25.87890625,-8.7890625,-103.02734375,0.0
86.90234375,-12.20703125,-19.53125,-19.04296875,-11.23046875,-22.94921875,0.0
86.90625,-20.5078125,-21.97265625,-15.625,-19.04296875,-45.41015625,0.0
86.91015625,-25.390625,-25.390625,-26.85546875,-24.4140625,-91.796875,0.0
86.9140625,-27.34375,-24.4140625,-30.2734375,-20.5078125,-12.6953125,0.0
86.91796875,-28.80859375,-22.94921875,-34.66796875,-15.625,-26.85546875,0.0
86.921875,-17.578125,-18.06640625,-27.34375,-17.08984375,-55.17578125,0.0
86.92578125,-10.25390625,-13.671875,-21.484375,-15.625,-23.92578125,0.0
86.9296875,-11.71875,-16.11328125,-24.90234375,-17.08984375,-17.08984375,0.0
86.93359375,-12.6953125,-19.04296875,-28.3203125,-27.83203125,-25.390625,0.0
86.9375,-23.92578125,-24.90234375,-37.109375,-33.69140625,-51.7578125,0.0
86.94140625,-24.4140625,-27.34375,-28.80859375,-32.2265625,-78.61328125,0.0
86.9453125,-8.7890625,-23.4375,-22.4609375,-26.85546875,-95.703125,0.0
86.94921875,-1.46484375,-20.5078125,-28.80859375,-15.625,-110.3515625,0.0
86.953125,-6.8359375,-23.4375,-32.2265625,-15.625,-78.61328125,0.0
86.95703125,-18.06640625,-28.80859375,-38.0859375,-28.80859375,47.8515625,0.0
86.9609375,-13.18359375,-23.92578125,-28.3203125,-27.34375,88.8671875,0.0
86.96484375,-0.9765625,-16.11328125,-17.578125,-20.01953125,-20.5078125,0.0
86.96875,-1.46484375,-14.16015625,-19.04296875,-20.99609375,-35.64453125,0.0
86.97265625,-1.953125,-16.11328125,-14.6484375,-20.99609375,6.8359375,0.0
86.9765625,-8.7890625,-20.5078125,-24.4140625,-20.99609375,-13.18359375,0.0
86.98046875,-24.90234375,-23.4375,-25.87890625,-20.5078125,-14.16015625,0.0
86.984375,-32.71484375,-22.4609375,-20.99609375,-24.4140625,-2.9296875,0.0
86.98828125,-24.90234375,-23.4375,-20.99609375,-30.76171875,-13.671875,0.0
86.9921875,-30.76171875,-34.1796875,-25.390625,-37.109375,-39.0625,0.0
86.99609375,-44.43359375,-40.52734375,-33.203125,-42.96875,-21.97265625,0.0
87.0,-53.7109375,-41.015625,-31.73828125,-53.22265625,-2.44140625,0.0
87.00390625,-55.6640625,-29.78515625,-17.578125,-52.734375,33.69140625,0.0
87.0078125,-61.03515625,-26.85546875,-14.6484375,-57.12890625,53.7109375,0.0
87.01171875,-67.87109375,-28.80859375,-22.4609375,-58.59375,27.83203125,0.0
87.015625,-79.58984375,-35.64453125,-29.296875,-54.6875,29.296875,0.0
87.01953125,-80.078125,-35.64453125,-25.87890625,-58.59375,6.8359375,0.0
87.0234375,-63.96484375,-21.97265625,-11.23046875,-57.6171875,-10.25390625,0.0
87.02734375,-60.546875,-26.3671875,-11.71875,-61.03515625,-2.9296875,0.0
87.03125,-58.59375,-26.3671875,-24.4140625,-67.3828125,89.35546875,0.0
87.03515625,-65.91796875,-28.80859375,-35.64453125,-66.40625,83.49609375,0.0
87.0390625,-89.35546875,-38.0859375,-35.15625,-68.359375,-52.734375,0.0
87.04296875,-94.7265625,-33.69140625,-28.80859375,-70.80078125,-36.1328125,0.0
87.046875,-83.984375,-30.2734375,-29.296875,-73.73046875,-26.85546875,0.0
87.05078125,-88.8671875,-29.78515625,-33.69140625,-80.078125,-60.05859375,0.0
87.0546875,-102.05078125,-33.69140625,-38.0859375,-86.9140625,-47.8515625,0.0
87.05859375,-101.5625,-36.1328125,-39.55078125,-83.984375,-81.0546875,0.0
87.0625,-107.91015625,-35.15625,-38.57421875,-83.49609375,-20.01953125,0.0
87.06640625,-117.67578125,-38.0859375,-32.71484375,-91.796875,0.9765625,0.0
87.0703125,-100.09765625,-39.55078125,-25.390625,-87.40234375,-45.8984375,0.0
87.07421875,-82.51953125,-37.109375,-27.83203125,-78.125,-121.58203125,0.0
87.078125,-103.02734375,-47.8515625,-36.62109375,-85.9375,-57.6171875,0.0
87.08203125,-107.91015625,-53.7109375,-28.3203125,-91.30859375,1.46484375,0.0
87.0859375,-88.8671875,-41.50390625,-25.390625,-87.40234375,-65.4296875,0.0
87.08984375,-91.796875,-38.0859375,-35.64453125,-89.35546875,-48.33984375,0.0
87.09375,-109.86328125,-45.8984375,-35.64453125,-98.14453125,-22.4609375,0.0
87.09765625,-118.1640625,-48.33984375,-37.109375,-102.05078125,1.46484375,0.0
87.1015625,-103.02734375,-50.29296875,-28.3203125,-91.30859375,32.2265625,0.0
87.10546875,-86.42578125,-54.19921875,-19.04296875,-76.66015625,18.5546875,0.0
87.109375,-84.47265625,-53.22265625,-24.4140625,-76.66015625,17.578125,0.0
87.11328125,-83.49609375,-45.41015625,-29.78515625,-82.51953125,-2.44140625,0.0
87.1171875,-93.26171875,-40.0390625,-34.66796875,-84.9609375,29.78515625,0.0
87.12109375,-88.8671875,-45.8984375,-25.87890625,-77.63671875,48.33984375,0.0
87.125,-69.3359375,-57.12890625,-14.6484375,-67.3828125,-27.34375,0.0
87.12890625,-69.3359375,-47.36328125,-22.94921875,-67.3828125,-70.3125,0.0
87.1328125,-75.1953125,-40.52734375,-38.57421875,-70.80078125,-26.85546875,0.0
87.13671875,-73.73046875,-48.828125,-44.921875,-67.3828125,-26.85546875,0.0
87.140625,-60.546875,-50.29296875,-37.59765625,-59.08203125,-65.4296875,0.0
87.14453125,-52.24609375,-44.43359375,-29.78515625,-58.10546875,-84.47265625,0.0
87.1484375,-55.6640625,-38.0859375,-32.71484375,-64.453125,-127.9296875,0.0
87.15234375,-54.19921875,-37.109375,-35.64453125,-56.640625,-129.39453125,0.0
87.15625,-56.640625,-42.96875,-37.59765625,-45.8984375,-119.140625,0.0
87.16015625,-57.6171875,-47.36328125,-35.15625,-48.33984375,-90.33203125,0.0
87.1640625,-37.59765625,-41.015625,-23.92578125,-44.921875,-31.25,0.0
87.16796875,-19.04296875,-39.0625,-21.484375,-34.66796875,47.8515625,0.0
87.171875,-30.76171875,-44.921875,-35.15625,-35.64453125,121.58203125,0.0
87.17578125,-40.0390625,-44.43359375,-43.45703125,-38.57421875,69.3359375,0.0
87.1796875,-31.73828125,-44.43359375,-36.62109375,-35.64453125,15.625,0.0
87.18359375,-30.2734375,-47.36328125,-27.34375,-33.69140625,45.8984375,0.0
87.1875,-26.85546875,-44.921875,-30.76171875,-33.203125,74.70703125,0.0
87.19140625,-21.484375,-43.45703125,-28.3203125,-32.71484375,79.58984375,0.0
87.1953125,-20.01953125,-46.875,-33.203125,-26.85546875,72.75390625,0.0
87.19921875,-24.4140625,-49.31640625,-41.9921875,-25.390625,37.109375,0.0
87.203125,-25.87890625,-45.41015625,-30.76171875,-23.4375,-38.0859375,0.0
87.20703125,-22.4609375,-47.36328125,-26.85546875,-17.08984375,-90.8203125,0.0
87.2109375,-19.53125,-44.43359375,-32.71484375,-23.92578125,-98.6328125,0.0
87.21484375,-13.18359375,-41.50390625,-37.59765625,-29.78515625,-73.73046875,0.0
87.21875,-10.25390625,-45.41015625,-38.0859375,-29.296875,3.90625,0.0
87.22265625,-10.25390625,-41.9921875,-31.25,-24.90234375,-8.30078125,0.0
87.2265625,-5.37109375,-39.0625,-33.69140625,-20.5078125,-69.3359375,0.0
87.23046875,-6.8359375,-44.43359375,-34.66796875,-24.90234375,-83.49609375,0.0
87.234375,-10.7421875,-43.9453125,-34.66796875,-25.87890625,-68.84765625,0.0
87.23828125,-8.7890625,-34.1796875,-38.0859375,-22.94921875,-85.9375,0.0
87.2421875,-8.7890625,-32.71484375,-32.71484375,-27.83203125,-107.91015625,0.0
87.24609375,-14.16015625,-37.59765625,-27.83203125,-33.69140625,-33.203125,0.0
87.25,-17.08984375,-35.15625,-30.2734375,-35.15625,26.85546875,0.0
87.25390625,-20.99609375,-32.71484375,-30.76171875,-31.73828125,7.32421875,0.0
87.2578125,-22.94921875,-38.0859375,-34.66796875,-26.85546875,7.8125,0.0
87.26171875,-19.04296875,-41.50390625,-37.59765625,-22.94921875,82.51953125,0.0
87.265625,-22.4609375,-42.96875,-38.0859375,-25.87890625,110.3515625,0.0
87.26953125,-20.99609375,-37.59765625,-36.62109375,-30.76171875,56.640625,0.0
87.2734375,-25.87890625,-38.57421875,-36.1328125,-29.296875,7.32421875,0.0
87.27734375,-32.71484375,-46.875,-41.015625,-27.34375,4.8828125,0.0
87.28125,-31.73828125,-47.36328125,-39.55078125,-24.90234375,39.55078125,0.0
87.28515625,-36.1328125,-45.41015625,-35.64453125,-27.34375,74.21875,0.0
87.2890625,-31.25,-39.0625,-32.2265625,-26.3671875,76.66015625,0.0
87.29296875,-31.25,-40.0390625,-32.71484375,-28.3203125,49.8046875,0.0
87.296875,-37.109375,-44.921875,-38.57421875,-35.64453125,43.9453125,0.0
87.30078125,-35.64453125,-39.0625,-36.1328125,-32.71484375,38.57421875,0.0
87.3046875,-41.50390625,-38.57421875,-27.83203125,-40.0390625,12.6953125,0.0
87.30859375,-47.8515625,-41.50390625,-30.2734375,-48.33984375,-24.4140625,0.0
87.3125,-51.7578125,-36.62109375,-37.109375,-46.38671875,-68.359375,0.0
87.31640625,-55.6640625,-39.55078125,-39.55078125,-40.52734375,-45.41015625,0.0
87.3203125,-52.734375,-48.33984375,-35.15625,-41.015625,-35.64453125,0.0
87.32421875,-51.26953125,-44.921875,-34.1796875,-44.921875,-78.61328125,0.0
87.328125,-53.7109375,-32.2265625,-41.9921875,-43.9453125,-42.96875,0.0
87.33203125,-56.15234375,-31.25,-41.015625,-47.8515625,-34.66796875,0.0
87.3359375,-65.4296875,-36.62109375,-47.36328125,-56.15234375,-62.01171875,0.0
87.33984375,-56.15234375,-30.2734375,-49.31640625,-59.08203125,-104.98046875,0.0
87.34375,-46.875,-27.34375,-39.0625,-64.453125,-161.62109375,0.0
87.34765625,-57.6171875,-34.66796875,-38.57421875,-70.3125,-136.71875,0.0
87.3515625,-64.94140625,-33.69140625,-39.0625,-70.3125,-140.13671875,0.0
87.35546875,-69.82421875,-36.62109375,-42.48046875,-69.82421875,-135.7421875,0.0
87.359375,-66.40625,-45.8984375,-35.15625,-58.10546875,-84.9609375,0.0
87.36328125,-41.9921875,-43.45703125,-11.71875,-34.1796875,-55.17578125,0.0
87.3671875,-50.29296875,-31.25,-17.578125,-39.0625,20.99609375,0.0
87.37109375,-84.47265625,-21.484375,-40.52734375,-81.54296875,-44.921875,0.0
87.375,-72.75390625,-20.01953125,-38.0859375,-66.89453125,-103.02734375,0.0
87.37890625,-41.015625,-23.4375,-24.90234375,-26.3671875,12.20703125,0.0
87.3828125,-33.203125,-23.4375,-33.203125,-41.50390625,3.41796875,0.0
87.38671875,-50.78125,-18.5546875,-42.48046875,-62.01171875,-77.1484375,0.0
87.390625,-48.828125,-14.6484375,-41.50390625,-52.24609375,-19.53125,0.0
87.39453125,-28.80859375,-11.23046875,-40.52734375,-37.59765625,-23.4375,0.0
87.3984375,-14.6484375,-10.25390625,-36.1328125,-29.78515625,2.44140625,0.0
87.40234375,-11.23046875,-3.41796875,-31.73828125,-34.66796875,81.0546875,0.0
87.40625,-12.20703125,4.8828125,-38.57421875,-43.45703125,78.61328125,0.0
87.41015625,-6.8359375,6.34765625,-39.55078125,-39.55078125,27.34375,0.0
87.4140625,-9.765625,13.18359375,-44.43359375,-35.64453125,-35.64453125,0.0
87.41796875,0.0,16.11328125,-53.7109375,-29.78515625,-108.88671875,0.0
87.421875,26.3671875,17.578125,-41.50390625,-17.578125,-77.1484375,0.0
87.42578125,16.6015625,25.87890625,-29.78515625,-19.53125,-18.5546875,0.0
87.4296875,-0.9765625,27.34375,-31.25,-24.4140625,41.50390625,0.0
87.43359375,6.34765625,22.94921875,-31.73828125,-17.08984375,120.1171875,0.0
87.4375,10.25390625,22.4609375,-39.55078125,-8.7890625,60.546875,0.0
87.44140625,13.18359375,19.04296875,-39.55078125,-10.25390625,27.34375,0.0
87.4453125,17.578125,20.5078125,-25.390625,-18.5546875,83.984375,0.0
87.44921875,24.90234375,26.85546875,-23.92578125,-13.18359375,62.01171875,0.0
87.453125,24.90234375,22.4609375,-30.2734375,-6.8359375,-44.921875,0.0
87.45703125,23.92578125,20.01953125,-31.73828125,-6.8359375,-85.9375,0.0
87.4609375,20.5078125,19.53125,-26.3671875,-6.8359375,-26.85546875,0.0
87.46484375,8.7890625,14.6484375,-23.4375,-11.71875,-32.71484375,0.0
87.46875,0.48828125,12.6953125,-27.34375,-16.6015625,-72.75390625,0.0
87.47265625,1.46484375,12.20703125,-26.85546875,-10.25390625,-119.140625,0.0
87.4765625,-6.8359375,2.9296875,-38.0859375,-17.08984375,-158.203125,0.0
87.48046875,-10.7421875,0.48828125,-39.0625,-21.97265625,-43.45703125,0.0
87.484375,-4.39453125,-0.48828125,-28.3203125,-16.11328125,16.6015625,0.0
87.48828125,-4.39453125,-3.41796875,-33.203125,-24.4140625,-10.7421875,0.0
87.4921875,-6.34765625,0.48828125,-41.015625,-32.71484375,-14.16015625,0.0
87.49609375,-7.32421875,-0.9765625,-39.55078125,-26.3671875,8.7890625,0.0
87.5,-3.41796875,-9.27734375,-38.57421875,-19.53125,4.8828125,0.0
87.50390625,0.0,-5.37109375,-29.296875,-18.06640625,-45.41015625,0.0
87.5078125,-6.34765625,-8.30078125,-28.3203125,-26.3671875,-55.6640625,0.0
87.51171875,-9.765625,-12.6953125,-31.25,-33.69140625,19.53125,0.0
87.515625,-18.06640625,-15.625,-33.203125,-30.2734375,75.68359375,0.0
87.51953125,-17.578125,-21.97265625,-34.1796875,-33.69140625,16.11328125,0.0
87.5234375,-12.6953125,-21.97265625,-28.3203125,-39.55078125,2.44140625,0.0
87.52734375,-16.11328125,-20.01953125,-27.34375,-36.1328125,22.4609375,0.0
87.53125,-20.5078125,-23.92578125,-26.3671875,-26.85546875,-62.5,0.0
87.53515625,-20.5078125,-23.4375,-34.1796875,-20.01953125,-46.875,0.0
87.5390625,-15.625,-21.97265625,-33.203125,-20.01953125,6.34765625,0.0
87.54296875,-12.6953125,-23.4375,-22.4609375,-30.2734375,-37.59765625,0.0
87.546875,-17.578125,-30.76171875,-26.3671875,-36.62109375,53.22265625,0.0
87.55078125,-25.87890625,-31.73828125,-30.2734375,-35.64453125,146.484375,0.0
87.5546875,-27.83203125,-27.83203125,-34.66796875,-33.69140625,83.0078125,0.0
87.55859375,-23.92578125,-26.85546875,-38.0859375,-33.69140625,-21.484375,0.0
87.5625,-26.3671875,-30.2734375,-30.2734375,-32.2265625,-15.625,0.0
87.56640625,-20.01953125,-26.85546875,-27.83203125,-21.484375,-169.43359375,0.0
87.5703125,-21.97265625,-24.4140625,-28.3203125,-18.06640625,-194.3359375,0.0
87.57421875,-31.73828125,-31.73828125,-30.2734375,-24.90234375,-121.58203125,0.0
87.578125,-26.3671875,-37.59765625,-32.2265625,-23.4375,-152.34375,0.0
87.58203125,-17.578125,-25.390625,-16.6015625,-23.4375,-75.1953125,0.0
87.5859375,-28.3203125,-20.5078125,-18.5546875,-30.2734375,-36.62109375,0.0
87.58984375,-31.25,-28.80859375,-23.92578125,-24.4140625,-102.5390625,0.0
87.59375,-33.203125,-30.2734375,-26.85546875,-31.73828125,-100.5859375,0.0
87.59765625,-36.62109375,-27.34375,-31.25,-44.43359375,-11.71875,0.0
87.6015625,-37.109375,-23.92578125,-21.484375,-51.7578125,52.734375,0.0
87.60546875,-40.0390625,-21.97265625,-17.08984375,-58.10546875,52.734375,0.0
87.609375,-48.828125,-22.94921875,-21.97265625,-59.5703125,18.5546875,0.0
87.61328125,-58.10546875,-28.80859375,-22.94921875,-54.6875,82.51953125,0.0
87.6171875,-50.29296875,-32.71484375,-20.5078125,-36.62109375,24.4140625,0.0
87.62109375,-63.96484375,-26.85546875,-26.3671875,-55.17578125,-65.4296875,0.0
87.625,-99.12109375,-15.625,-36.62109375,-90.33203125,-46.38671875,0.0
87.62890625,-98.14453125,-15.13671875,-29.78515625,-89.35546875,-34.66796875,0.0
87.6328125,-71.2890625,-15.625,-24.4140625,-73.2421875,-49.8046875,0.0
87.63671875,-85.44921875,-9.765625,-37.59765625,-86.42578125,-4.39453125,0.0
87.640625,-92.7734375,-2.9296875,-42.96875,-104.98046875,56.15234375,0.0
87.64453125,-80.56640625,-0.9765625,-42.48046875,-104.00390625,1.953125,0.0
87.6484375,-74.70703125,0.9765625,-32.71484375,-90.33203125,21.484375,0.0
87.65234375,-56.15234375,7.8125,-31.25,-81.54296875,68.84765625,0.0
87.65625,-68.84765625,7.32421875,-53.7109375,-102.5390625,-3.90625,0.0
87.66015625,-70.3125,6.8359375,-52.24609375,-103.515625,-66.89453125,0.0
87.6640625,-53.7109375,16.6015625,-38.0859375,-87.40234375,39.55078125,0.0
87.66796875,-60.546875,23.4375,-41.9921875,-96.19140625,18.5546875,0.0
87.671875,-69.82421875,24.4140625,-46.38671875,-101.07421875,-56.640625,0.0
87.67578125,-58.10546875,24.90234375,-47.36328125,-83.984375,-30.2734375,0.0
87.6796875,-44.43359375,31.73828125,-44.43359375,-76.66015625,-38.0859375,0.0
87.68359375,-47.36328125,38.57421875,-43.45703125,-87.40234375,-16.6015625,0.0
87.6875,-33.203125,41.50390625,-45.8984375,-84.9609375,17.578125,0.0
87.69140625,-14.6484375,46.38671875,-32.2265625,-67.87109375,3.90625,0.0
87.6953125,-11.71875,45.41015625,-28.80859375,-54.19921875,-67.3828125,0.0
87.69921875,-19.04296875,36.62109375,-38.0859375,-48.828125,-114.2578125,0.0
87.703125,-18.5546875,30.76171875,-39.0625,-49.31640625,-73.2421875,0.0
87.70703125,-17.08984375,32.2265625,-40.0390625,-47.8515625,-37.109375,0.0
87.7109375,-14.16015625,30.76171875,-45.8984375,-51.7578125,13.671875,0.0
87.71484375,-1.46484375,24.90234375,-47.36328125,-45.8984375,53.22265625,0.0
87.71875,-2.44140625,21.484375,-46.38671875,-41.50390625,61.5234375,0.0
87.72265625,-16.11328125,26.85546875,-44.43359375,-59.5703125,35.15625,0.0
87.7265625,-15.13671875,26.85546875,-37.59765625,-62.98828125,-31.73828125,0.0
87.73046875,4.8828125,21.97265625,-30.2734375,-38.57421875,-42.48046875,0.0
87.734375,-2.44140625,20.01953125,-40.52734375,-29.296875,-53.7109375,0.0
87.73828125,-16.11328125,17.08984375,-46.875,-40.0390625,9.27734375,0.0
87.7421875,7.8125,15.625,-34.66796875,-28.3203125,76.171875,0.0
87.74609375,27.34375,19.04296875,-27.34375,-11.23046875,-3.41796875,0.0
87.75,17.08984375,14.16015625,-27.34375,-14.6484375,-19.53125,0.0
87.75390625,-2.44140625,4.8828125,-34.66796875,-21.97265625,24.4140625,0.0
87.7578125,1.46484375,4.8828125,-40.0390625,-15.13671875,77.1484375,0.0
87.76171875,17.578125,8.30078125,-34.1796875,0.0,70.3125,0.0
87.765625,18.5546875,7.8125,-33.69140625,-4.39453125,64.453125,0.0
87.76953125,1.953125,5.859375,-37.109375,-19.04296875,21.97265625,0.0
87.7734375,-6.8359375,6.34765625,-39.55078125,-13.18359375,-7.32421875,0.0
87.77734375,3.41796875,0.9765625,-46.875,-2.9296875,-21.484375,0.0
87.78125,6.8359375,-0.48828125,-34.66796875,-3.90625,-22.4609375,0.0
87.78515625,8.7890625,8.7890625,-20.5078125,1.46484375,-56.15234375,0.0
87.7890625,9.765625,7.32421875,-29.296875,-0.48828125,-72.75390625,0.0
87.79296875,15.13671875,3.41796875,-35.15625,0.0,-34.1796875,0.0
87.796875,20.5078125,-0.9765625,-42.48046875,2.44140625,-38.0859375,0.0
87.80078125,20.99609375,-6.34765625,-36.62109375,3.41796875,-60.05859375,0.0
87.8046875,18.06640625,-1.953125,-31.73828125,1.46484375,-40.0390625,0.0
87.80859375,9.27734375,-5.859375,-36.1328125,-4.8828125,-89.35546875,0.0
87.8125,13.671875,-7.8125,-32.2265625,-6.8359375,-64.453125,0.0
87.81640625,12.20703125,-12.6953125,-41.9921875,-3.90625,-9.27734375,0.0
87.8203125,13.18359375,-16.6015625,-36.62109375,4.39453125,-83.49609375,0.0
87.82421875,19.53125,-11.23046875,-22.94921875,4.39453125,-154.78515625,0.0
87.828125,7.8125,-17.578125,-27.83203125,-0.48828125,-189.94140625,0.0
87.83203125,3.41796875,-17.578125,-30.76171875,0.48828125,-97.65625,0.0
87.8359375,-0.9765625,-13.671875,-30.2734375,-1.46484375,-9.27734375,0.0
87.83984375,-5.859375,-19.04296875,-27.83203125,-4.39453125,5.37109375,0.0
87.84375,-0.48828125,-21.97265625,-25.390625,-11.71875,9.27734375,0.0
87.84765625,-11.71875,-24.4140625,-22.94921875,-21.484375,-55.17578125,0.0
87.8515625,-22.4609375,-25.87890625,-20.5078125,-16.6015625,-145.01953125,0.0
87.85546875,-23.92578125,-21.97265625,-29.296875,-15.625,-104.98046875,0.0
87.859375,-18.5546875,-21.484375,-32.2265625,-15.13671875,-68.359375,0.0
87.86328125,-13.671875,-22.94921875,-26.3671875,-12.6953125,-121.58203125,0.0
87.8671875,-20.99609375,-25.87890625,-29.78515625,-23.92578125,-131.8359375,0.0
87.87109375,-24.4140625,-27.34375,-31.73828125,-27.34375,-185.05859375,0.0
87.875,-33.203125,-30.76171875,-30.76171875,-21.484375,-221.6796875,0.0
87.87890625,-37.109375,-32.2265625,-28.3203125,-20.01953125,-115.234375,0.0
87.8828125,-27.34375,-27.34375,-24.90234375,-22.4609375,-10.7421875,0.0
87.88671875,-19.53125,-27.83203125,-25.390625,-26.3671875,-62.98828125,0.0
87.890625,-17.08984375,-30.2734375,-32.2265625,-24.4140625,2.9296875,0.0
87.89453125,-21.97265625,-27.34375,-35.15625,-18.06640625,64.453125,0.0
87.8984375,-22.94921875,-29.78515625,-34.66796875,-19.04296875,108.3984375,0.0
87.90234375,-14.6484375,-26.3671875,-26.85546875,-17.08984375,118.65234375,0.0
87.90625,-9.765625,-23.4375,-26.3671875,-18.5546875,38.0859375,0.0
87.91015625,-13.671875,-25.87890625,-28.80859375,-23.4375,13.671875,0.0
87.9140625,-8.7890625,-24.90234375,-23.4375,-12.6953125,-34.1796875,0.0
87.91796875,-0.9765625,-22.94921875,-24.90234375,-6.8359375,-15.625,0.0
87.921875,-7.8125,-26.3671875,-21.97265625,-11.71875,95.21484375,0.0
87.92578125,-10.25390625,-26.3671875,-25.87890625,-16.6015625,23.92578125,0.0
87.9296875,-9.27734375,-26.3671875,-30.76171875,-20.01953125,-41.9921875,0.0
87.93359375,-14.6484375,-29.296875,-29.78515625,-20.01953125,92.7734375,0.0
87.9375,-19.53125,-31.25,-34.66796875,-25.87890625,72.75390625,0.0
87.94140625,-15.13671875,-26.85546875,-34.1796875,-24.90234375,12.20703125,0.0
87.9453125,-15.13671875,-28.80859375,-31.25,-23.4375,9.765625,0.0
87.94921875,-19.04296875,-30.76171875,-29.296875,-23.92578125,-72.265625,0.0
87.953125,-20.01953125,-34.66796875,-30.2734375,-20.99609375,-90.33203125,0.0
87.95703125,-28.80859375,-38.57421875,-35.15625,-18.5546875,-76.66015625,0.0
87.9609375,-35.15625,-34.66796875,-29.78515625,-18.06640625,-79.58984375,0.0
87.96484375,-40.0390625,-30.76171875,-22.4609375,-19.04296875,-82.51953125,0.0
87.96875,-39.0625,-33.69140625,-29.78515625,-21.97265625,20.5078125,0.0
87.97265625,-29.78515625,-31.73828125,-26.85546875,-19.04296875,41.015625,0.0
87.9765625,-26.85546875,-27.83203125,-25.87890625,-20.99609375,-23.4375,0.0
87.98046875,-31.25,-35.15625,-26.85546875,-25.390625,15.13671875,0.0
87.984375,-33.203125,-36.1328125,-22.94921875,-31.25,93.75,0.0
87.98828125,-28.80859375,-35.15625,-23.92578125,-34.1796875,124.0234375,0.0
87.9921875,-31.73828125,-35.64453125,-23.4375,-35.15625,73.2421875,0.0
87.99609375,-38.0859375,-35.64453125,-26.85546875,-31.73828125,9.27734375,0.0
88.0,-29.78515625,-34.1796875,-23.92578125,-23.92578125,-27.34375,0.0
88.00390625,-22.94921875,-30.2734375,-13.18359375,-28.3203125,-53.22265625,0.0
88.0078125,-25.390625,-29.296875,-13.18359375,-27.83203125,-35.15625,0.0
88.01171875,-22.94921875,-33.69140625,-14.16015625,-22.4609375,34.1796875,0.0
88.015625,-28.3203125,-35.15625,-27.34375,-26.85546875,42.96875,0.0
88.01953125,-31.25,-33.69140625,-24.4140625,-26.85546875,40.0390625,0.0
88.0234375,-18.5546875,-31.73828125,-11.23046875,-22.4609375,-9.27734375,0.0
88.02734375,-25.390625,-31.73828125,-20.99609375,-25.87890625,3.90625,0.0
88.03125,-30.76171875,-33.69140625,-30.76171875,-28.3203125,63.4765625,0.0
88.03515625,-27.83203125,-32.2265625,-30.76171875,-23.92578125,50.78125,0.0
88.0390625,-25.390625,-32.71484375,-27.34375,-28.80859375,-23.92578125,0.0
88.04296875,-28.80859375,-34.66796875,-27.34375,-30.2734375,-57.12890625,0.0
88.046875,-36.1328125,-33.69140625,-27.34375,-29.78515625,-67.87109375,0.0
88.05078125,-28.3203125,-30.76171875,-30.76171875,-35.64453125,-92.28515625,0.0
88.0546875,-32.2265625,-33.69140625,-38.0859375,-33.69140625,-46.875,0.0
88.05859375,-39.55078125,-41.015625,-39.0625,-32.2265625,-15.625,0.0
88.0625,-46.875,-44.43359375,-35.15625,-37.59765625,-102.05078125,0.0
88.06640625,-40.52734375,-42.96875,-28.3203125,-30.76171875,-126.953125,0.0
88.0703125,-30.76171875,-44.921875,-27.34375,-19.53125,-113.28125,0.0
88.07421875,-34.1796875,-41.50390625,-34.1796875,-25.87890625,-107.91015625,0.0
88.078125,-31.73828125,-40.52734375,-37.59765625,-34.1796875,-55.17578125,0.0
88.08203125,-34.66796875,-42.96875,-27.83203125,-31.73828125,-26.85546875,0.0
88.0859375,-36.62109375,-43.45703125,-24.90234375,-33.203125,-8.7890625,0.0
88.08984375,-33.69140625,-41.015625,-26.85546875,-35.15625,15.13671875,0.0
88.09375,-38.0859375,-40.0390625,-33.203125,-38.57421875,18.5546875,0.0
88.09765625,-39.0625,-41.50390625,-38.0859375,-39.0625,-15.625,0.0
88.1015625,-36.1328125,-34.1796875,-26.85546875,-36.62109375,-17.578125,0.0
88.10546875,-28.3203125,-32.2265625,-25.390625,-39.55078125,69.3359375,0.0
88.109375,-32.2265625,-33.69140625,-30.2734375,-37.59765625,-72.265625,0.0
88.11328125,-41.015625,-30.76171875,-31.25,-34.66796875,-202.1484375,0.0
88.1171875,-26.85546875,-28.3203125,-33.203125,-29.78515625,-110.3515625,0.0
88.12109375,-31.25,-29.78515625,-23.92578125,-27.34375,-66.89453125,0.0
88.125,-36.1328125,-33.69140625,-16.6015625,-31.73828125,-104.00390625,0.0
88.12890625,-28.3203125,-37.109375,-19.53125,-38.57421875,-50.78125,0.0
88.1328125,-20.01953125,-35.15625,-25.87890625,-34.66796875,7.32421875,0.0
88.13671875,-17.578125,-37.59765625,-27.34375,-21.484375,-55.17578125,0.0
88.140625,-32.71484375,-43.9453125,-21.97265625,-20.5078125,-11.71875,0.0
88.14453125,-39.0625,-40.0390625,-22.94921875,-26.85546875,20.01953125,0.0
88.1484375,-32.2265625,-35.64453125,-26.85546875,-28.80859375,-7.32421875,0.0
88.15234375,-41.015625,-34.66796875,-24.90234375,-26.85546875,12.6953125,0.0
88.15625,-38.57421875,-36.62109375,-36.62109375,-32.71484375,10.7421875,0.0
88.16015625,-34.1796875,-40.0390625,-37.59765625,-28.3203125,-35.15625,0.0
88.1640625,-38.57421875,-43.45703125,-32.2265625,-22.4609375,-24.90234375,0.0
88.16796875,-39.55078125,-39.0625,-30.2734375,-39.55078125,5.859375,0.0
88.171875,-40.52734375,-35.64453125,-32.71484375,-46.875,5.859375,0.0
88.17578125,-43.9453125,-39.55078125,-38.57421875,-45.8984375,-9.765625,0.0
88.1796875,-43.9453125,-42.96875,-40.0390625,-49.8046875,-58.10546875,0.0
88.18359375,-37.109375,-43.45703125,-35.64453125,-47.8515625,-129.8828125,0.0
88.1875,-42.48046875,-43.9453125,-37.59765625,-48.33984375,-99.12109375,0.0
88.19140625,-49.31640625,-45.8984375,-41.015625,-49.8046875,-54.6875,0.0
88.1953125,-40.0390625,-39.55078125,-39.55078125,-41.50390625,-53.7109375,0.0
88.19921875,-40.0390625,-41.50390625,-40.0390625,-39.0625,-39.0625,0.0
88.203125,-37.109375,-46.38671875,-31.25,-43.45703125,-80.078125,0.0
88.20703125,-26.3671875,-42.48046875,-29.78515625,-41.50390625,-103.515625,0.0
88.2109375,-27.34375,-43.45703125,-36.1328125,-38.0859375,-36.1328125,0.0
88.21484375,-31.73828125,-47.36328125,-43.9453125,-40.52734375,-94.7265625,0.0
88.21875,-30.76171875,-45.8984375,-43.9453125,-46.875,-42.48046875,0.0
88.22265625,-27.83203125,-48.828125,-37.59765625,-43.9453125,31.73828125,0.0
88.2265625,-35.64453125,-48.828125,-40.52734375,-48.33984375,-87.890625,0.0
88.23046875,-34.66796875,-46.38671875,-41.015625,-47.8515625,-194.82421875,0.0
88.234375,-31.73828125,-46.875,-42.96875,-35.64453125,-250.48828125,0.0
88.23828125,-34.1796875,-44.921875,-43.9453125,-39.0625,-262.20703125,0.0
88.2421875,-30.2734375,-38.57421875,-37.59765625,-40.52734375,-281.73828125,0.0
88.24609375,-30.76171875,-34.1796875,-32.71484375,-38.0859375,-238.76953125,0.0
88.25,-27.83203125,-37.109375,-29.78515625,-35.15625,-176.26953125,0.0
88.25390625,-24.4140625,-37.59765625,-33.203125,-28.80859375,-149.4140625,0.0
88.2578125,-29.78515625,-40.52734375,-36.62109375,-32.2265625,-100.5859375,0.0
88.26171875,-31.73828125,-38.0859375,-27.83203125,-35.64453125,-75.68359375,0.0
88.265625,-37.109375,-38.57421875,-28.3203125,-31.73828125,-120.1171875,0.0
88.26953125,-38.57421875,-43.9453125,-40.0390625,-33.69140625,-228.515625,0.0
88.2734375,-30.76171875,-41.9921875,-40.0390625,-41.015625,-143.06640625,0.0
88.27734375,-27.34375,-38.57421875,-39.0625,-33.69140625,-30.2734375,0.0
88.28125,-29.78515625,-38.0859375,-39.0625,-29.78515625,-120.1171875,0.0
88.28515625,-31.73828125,-36.1328125,-31.73828125,-39.0625,-34.66796875,0.0
88.2890625,-29.78515625,-26.3671875,-27.83203125,-42.48046875,83.49609375,0.0
88.29296875,-26.3671875,-32.71484375,-33.203125,-41.015625,119.62890625,0.0
88.296875,-25.390625,-41.015625,-42.96875,-41.9921875,105.46875,0.0
88.30078125,-24.90234375,-34.66796875,-36.62109375,-42.96875,116.2109375,0.0
88.3046875,-27.83203125,-32.71484375,-28.80859375,-39.55078125,123.046875,0.0
88.30859375,-37.59765625,-38.0859375,-39.0625,-42.48046875,93.75,0.0
88.3125,-47.8515625,-44.43359375,-43.9453125,-44.43359375,100.5859375,0.0
88.31640625,-44.43359375,-42.48046875,-44.921875,-38.0859375,108.3984375,0.0
88.3203125,-38.57421875,-40.52734375,-41.015625,-36.1328125,96.6796875,0.0
88.32421875,-40.52734375,-38.57421875,-29.296875,-32.71484375,107.421875,0.0
88.328125,-39.0625,-34.1796875,-27.83203125,-31.25,113.76953125,0.0
88.33203125,-28.3203125,-31.73828125,-27.34375,-33.69140625,7.32421875,0.0
88.3359375,-30.2734375,-30.2734375,-29.296875,-33.203125,20.99609375,0.0
88.33984375,-36.1328125,-32.2265625,-29.78515625,-31.73828125,71.2890625,0.0
88.34375,-38.0859375,-36.1328125,-32.2265625,-36.1328125,31.73828125,0.0
88.34765625,-40.0390625,-38.57421875,-39.0625,-33.69140625,-25.87890625,0.0
88.3515625,-41.9921875,-42.48046875,-40.52734375,-36.1328125,-21.484375,0.0
88.35546875,-56.15234375,-43.45703125,-49.31640625,-39.55078125,69.3359375,0.0
88.359375,-56.640625,-42.96875,-55.6640625,-36.1328125,75.68359375,0.0
88.36328125,-47.36328125,-41.015625,-44.921875,-40.0390625,-128.90625,0.0
88.3671875,-51.26953125,-40.0390625,-43.9453125,-47.8515625,-69.3359375,0.0
88.37109375,-47.36328125,-34.66796875,-45.8984375,-49.8046875,47.36328125,0.0
88.375,-41.9921875,-33.69140625,-47.8515625,-49.31640625,110.83984375,0.0
88.37890625,-38.57421875,-34.1796875,-50.78125,-41.9921875,77.1484375,0.0
88.3828125,-38.57421875,-30.2734375,-37.59765625,-41.9921875,48.828125,0.0
88.38671875,-41.9921875,-31.73828125,-36.62109375,-47.8515625,-35.15625,0.0
88.390625,-42.48046875,-37.109375,-38.57421875,-42.96875,-102.5390625,0.0
88.39453125,-44.43359375,-39.0625,-40.0390625,-39.55078125,-33.203125,0.0
88.3984375,-43.45703125,-38.0859375,-39.0625,-38.0859375,-26.3671875,0.0
88.40234375,-38.57421875,-35.15625,-31.73828125,-42.48046875,-66.40625,0.0
88.40625,-37.109375,-34.66796875,-38.0859375,-48.828125,-113.76953125,0.0
88.41015625,-36.62109375,-30.76171875,-41.50390625,-45.8984375,37.109375,0.0
88.4140625,-37.109375,-30.2734375,-41.9921875,-38.57421875,112.79296875,0.0
88.41796875,-47.8515625,-39.0625,-48.828125,-37.109375,132.32421875,0.0
88.421875,-44.921875,-40.52734375,-44.43359375,-40.52734375,34.66796875,0.0
88.42578125,-34.1796875,-35.64453125,-38.0859375,-34.1796875,-28.3203125,0.0
88.4296875,-36.62109375,-34.1796875,-32.71484375,-28.80859375,-96.19140625,0.0
88.43359375,-41.015625,-40.0390625,-37.109375,-32.2265625,-124.51171875,0.0
88.4375,-42.96875,-39.55078125,-41.50390625,-32.2265625,-75.1953125,0.0
88.44140625,-41.50390625,-35.64453125,-30.2734375,-32.2265625,-55.17578125,0.0
88.4453125,-39.55078125,-33.69140625,-20.5078125,-31.25,-40.52734375,0.0
88.44921875,-45.8984375,-34.1796875,-24.4140625,-34.66796875,-28.3203125,0.0
88.453125,-55.17578125,-40.52734375,-36.1328125,-44.43359375,-14.6484375,0.0
88.45703125,-50.78125,-39.55078125,-35.15625,-42.48046875,8.30078125,0.0
88.4609375,-44.43359375,-39.55078125,-31.73828125,-35.15625,24.90234375,0.0
88.46484375,-51.7578125,-41.015625,-36.1328125,-37.59765625,-6.34765625,0.0
88.46875,-50.29296875,-36.1328125,-35.15625,-47.8515625,-34.1796875,0.0
88.47265625,-50.78125,-34.66796875,-29.78515625,-47.36328125,-37.59765625,0.0
88.4765625,-55.6640625,-37.109375,-32.71484375,-45.8984375,-110.3515625,0.0
88.48046875,-56.15234375,-39.0625,-31.25,-43.9453125,-169.43359375,0.0
88.484375,-59.5703125,-40.0390625,-27.83203125,-45.8984375,-109.86328125,0.0
88.48828125,-62.98828125,-35.64453125,-24.4140625,-53.7109375,-14.6484375,0.0
88.4921875,-61.5234375,-39.0625,-20.5078125,-49.8046875,28.80859375,0.0
88.49609375,-45.41015625,-40.0390625,-26.85546875,-46.38671875,57.6171875,0.0
88.5,-39.0625,-34.1796875,-18.5546875,-46.38671875,56.15234375,0.0
88.50390625,-34.66796875,-24.4140625,-6.8359375,-32.71484375,67.87109375,0.0
88.5078125,-32.2265625,-29.78515625,-18.5546875,-39.55078125,28.3203125,0.0
88.51171875,-42.48046875,-36.62109375,-28.80859375,-45.41015625,-48.828125,0.0
88.515625,-37.59765625,-34.1796875,-35.64453125,-36.1328125,-43.45703125,0.0
88.51953125,-25.390625,-38.0859375,-34.1796875,-38.57421875,78.61328125,0.0
88.5234375,-13.18359375,-33.69140625,-29.78515625,-43.45703125,27.34375,0.0
88.52734375,2.44140625,-23.4375,-28.3203125,-21.484375,-102.05078125,0.0
88.53125,-1.953125,-32.71484375,-20.5078125,-0.48828125,-6.8359375,0.0
88.53515625,-9.765625,-49.8046875,-30.76171875,-8.30078125,80.078125,0.0
88.5390625,-11.23046875,-54.6875,-37.59765625,-11.71875,61.5234375,0.0
88.54296875,-13.18359375,-49.8046875,-29.296875,-9.765625,78.61328125,0.0
88.546875,-16.11328125,-55.17578125,-33.203125,-14.6484375,73.2421875,0.0
88.55078125,-4.8828125,-59.08203125,-36.1328125,-3.41796875,92.7734375,0.0
88.5546875,7.8125,-58.10546875,-31.73828125,18.06640625,10.25390625,0.0
88.55859375,-14.6484375,-64.94140625,-40.0390625,10.7421875,-16.6015625,0.0
88.5625,-28.80859375,-63.96484375,-41.015625,-4.8828125,12.6953125,0.0
88.56640625,-2.9296875,-59.08203125,-26.85546875,14.6484375,-21.484375,0.0
88.5703125,23.4375,-54.6875,-18.5546875,39.0625,-51.26953125,0.0
88.57421875,8.7890625,-52.24609375,-32.71484375,25.390625,-5.37109375,0.0
88.578125,-3.90625,-56.15234375,-37.59765625,20.5078125,-26.85546875,0.0
88.58203125,15.625,-57.12890625,-27.83203125,29.78515625,15.625,0.0
88.5859375,22.4609375,-57.6171875,-28.3203125,24.4140625,105.46875,0.0
88.58984375,20.01953125,-62.01171875,-27.83203125,34.66796875,46.38671875,0.0
88.59375,24.4140625,-63.96484375,-24.90234375,50.29296875,2.44140625,0.0
88.59765625,9.27734375,-62.98828125,-34.66796875,38.0859375,1.46484375,0.0
88.6015625,-0.9765625,-59.5703125,-35.15625,29.78515625,26.85546875,0.0
88.60546875,32.71484375,-50.78125,-23.4375,45.41015625,32.71484375,0.0
88.609375,36.62109375,-52.734375,-19.04296875,45.8984375,64.94140625,0.0
88.61328125,6.8359375,-56.640625,-25.390625,29.78515625,54.19921875,0.0
88.6171875,-3.41796875,-57.12890625,-33.203125,17.08984375,38.57421875,0.0
88.62109375,9.27734375,-54.6875,-25.87890625,19.53125,1.46484375,0.0
88.625,28.3203125,-54.6875,-16.11328125,33.69140625,9.765625,0.0
88.62890625,22.94921875,-55.17578125,-29.296875,25.390625,110.83984375,0.0
88.6328125,5.37109375,-55.6640625,-39.0625,16.11328125,121.58203125,0.0
88.63671875,10.25390625,-52.734375,-33.69140625,30.2734375,108.3984375,0.0
88.640625,26.3671875,-51.26953125,-22.4609375,41.50390625,20.01953125,0.0
88.64453125,23.92578125,-46.875,-24.90234375,35.15625,-145.5078125,0.0
88.6484375,24.90234375,-45.8984375,-26.85546875,39.0625,-155.2734375,0.0
88.65234375,43.9453125,-43.9453125,-16.6015625,55.6640625,-183.10546875,0.0
88.65625,33.203125,-48.33984375,-23.4375,50.78125,-224.12109375,0.0
88.66015625,14.16015625,-53.7109375,-31.73828125,26.3671875,-55.17578125,0.0
88.6640625,20.99609375,-39.0625,-20.5078125,33.69140625,56.640625,0.0
88.66796875,22.4609375,-39.55078125,-15.625,41.50390625,47.36328125,0.0
88.671875,24.4140625,-41.015625,-19.04296875,37.109375,-4.8828125,0.0
88.67578125,15.13671875,-38.0859375,-32.2265625,28.80859375,31.73828125,0.0
88.6796875,7.8125,-41.9921875,-37.109375,16.11328125,49.8046875,0.0
88.68359375,15.625,-33.69140625,-24.4140625,17.08984375,6.34765625,0.0
88.6875,12.20703125,-38.0859375,-26.3671875,15.625,-61.03515625,0.0
88.69140625,6.34765625,-43.45703125,-33.69140625,7.32421875,-177.24609375,0.0
88.6953125,6.8359375,-38.0859375,-32.71484375,7.8125,-210.44921875,0.0
88.69921875,2.9296875,-43.45703125,-30.2734375,5.859375,-116.2109375,0.0
88.703125,-3.41796875,-46.38671875,-29.296875,-1.46484375,4.39453125,0.0
88.70703125,-6.8359375,-41.015625,-25.87890625,-1.953125,15.625,0.0
88.7109375,-10.25390625,-38.0859375,-23.92578125,-9.765625,-33.203125,0.0
88.71484375,-13.671875,-44.43359375,-29.296875,-8.30078125,13.671875,0.0
88.71875,-18.5546875,-45.41015625,-34.1796875,-2.9296875,-6.34765625,0.0
88.72265625,-23.4375,-41.50390625,-31.73828125,-7.32421875,-130.37109375,0.0
88.7265625,-20.01953125,-38.57421875,-33.69140625,-14.16015625,-146.97265625,0.0
88.73046875,-17.08984375,-37.59765625,-34.66796875,-10.7421875,-46.38671875,0.0
88.734375,-17.578125,-40.0390625,-44.43359375,-7.32421875,32.2265625,0.0
88.73828125,-23.92578125,-42.96875,-43.45703125,-17.578125,7.32421875,0.0
88.7421875,-26.85546875,-41.015625,-29.296875,-19.04296875,-45.8984375,0.0
88.74609375,-25.390625,-38.0859375,-25.87890625,-17.578125,-42.48046875,0.0
88.75,-21.484375,-36.62109375,-32.2265625,-19.04296875,-35.64453125,0.0
88.75390625,-11.23046875,-35.64453125,-31.25,-11.23046875,-104.98046875,0.0
88.7578125,-11.23046875,-35.64453125,-24.90234375,-4.39453125,-120.1171875,0.0
88.76171875,-11.23046875,-32.71484375,-21.97265625,-5.859375,26.85546875,0.0
88.765625,-13.671875,-33.69140625,-22.94921875,-7.8125,45.8984375,0.0
88.76953125,-19.53125,-38.57421875,-25.87890625,-16.6015625,-2.9296875,0.0
88.7734375,-20.99609375,-38.57421875,-26.85546875,-20.99609375,3.41796875,0.0
88.77734375,-26.3671875,-34.66796875,-31.73828125,-13.671875,-11.71875,0.0
88.78125,-32.2265625,-33.69140625,-26.3671875,-14.16015625,-52.734375,0.0
88.78515625,-33.69140625,-35.64453125,-26.3671875,-30.76171875,-14.16015625,0.0
88.7890625,-29.296875,-34.1796875,-29.78515625,-32.2265625,10.7421875,0.0
88.79296875,-26.3671875,-32.2265625,-26.85546875,-28.3203125,14.16015625,0.0
88.796875,-33.69140625,-37.59765625,-31.73828125,-33.203125,-1.46484375,0.0
88.80078125,-33.203125,-37.109375,-27.34375,-26.3671875,-12.6953125,0.0
88.8046875,-20.5078125,-30.76171875,-14.6484375,-19.04296875,8.30078125,0.0
88.80859375,-23.92578125,-34.1796875,-18.06640625,-23.92578125,31.73828125,0.0
88.8125,-33.203125,-41.015625,-20.5078125,-24.4140625,-26.3671875,0.0
88.81640625,-25.390625,-41.9921875,-20.01953125,-21.484375,-104.98046875,0.0
88.8203125,-7.8125,-33.69140625,-15.13671875,-21.97265625,-172.36328125,0.0
88.82421875,1.953125,-21.484375,-7.8125,-25.390625,-95.703125,0.0
88.828125,-10.7421875,-26.3671875,-16.6015625,-31.73828125,-20.01953125,0.0
88.83203125,-20.99609375,-35.15625,-27.34375,-34.66796875,-43.9453125,0.0
88.8359375,-26.3671875,-35.15625,-34.66796875,-28.3203125,-76.171875,0.0
88.83984375,-27.83203125,-37.59765625,-28.80859375,-29.296875,-132.8125,0.0
88.84375,-17.08984375,-37.59765625,-21.97265625,-27.34375,-115.234375,0.0
88.84765625,-17.578125,-35.15625,-23.4375,-25.87890625,-46.875,0.0
88.8515625,-20.5078125,-40.52734375,-25.87890625,-34.1796875,-36.62109375,0.0
88.85546875,-20.5078125,-45.8984375,-33.69140625,-29.296875,-109.375,0.0
88.859375,-20.01953125,-42.48046875,-35.15625,-21.97265625,-105.46875,0.0
88.86328125,-13.671875,-39.55078125,-19.04296875,-18.5546875,-80.56640625,0.0
88.8671875,-15.625,-35.64453125,-11.71875,-18.06640625,-35.64453125,0.0
88.87109375,-27.83203125,-40.0390625,-24.90234375,-30.2734375,16.11328125,0.0
88.875,-35.64453125,-46.875,-37.109375,-39.0625,-31.25,0.0
88.87890625,-43.9453125,-49.8046875,-36.62109375,-42.48046875,-87.890625,0.0
88.8828125,-37.59765625,-43.9453125,-24.90234375,-39.55078125,-53.22265625,0.0
88.88671875,-30.76171875,-37.109375,-27.83203125,-36.62109375,-19.53125,0.0
88.890625,-37.109375,-39.0625,-32.71484375,-36.62109375,46.875,0.0
88.89453125,-43.45703125,-37.59765625,-34.1796875,-34.66796875,71.77734375,0.0
88.8984375,-41.50390625,-35.15625,-36.1328125,-30.76171875,39.55078125,0.0
88.90234375,-33.203125,-34.1796875,-28.3203125,-27.34375,-14.16015625,0.0
88.90625,-33.69140625,-29.296875,-27.34375,-29.296875,-141.6015625,0.0
88.91015625,-34.66796875,-27.34375,-22.94921875,-25.390625,-156.25,0.0
88.9140625,-39.0625,-30.2734375,-25.390625,-28.3203125,-87.40234375,0.0
88.91796875,-40.52734375,-37.59765625,-37.59765625,-33.69140625,-32.71484375,0.0
88.921875,-40.0390625,-43.45703125,-34.1796875,-29.296875,20.5078125,0.0
88.92578125,-41.50390625,-41.015625,-27.34375,-25.87890625,41.50390625,0.0
88.9296875,-45.8984375,-41.50390625,-32.2265625,-33.69140625,-106.93359375,0.0
88.93359375,-45.41015625,-44.43359375,-40.0390625,-37.59765625,-250.9765625,0.0
88.9375,-46.38671875,-46.875,-41.50390625,-35.64453125,-208.0078125,0.0
88.94140625,-49.31640625,-45.41015625,-34.1796875,-39.55078125,-144.04296875,0.0
88.9453125,-41.9921875,-37.59765625,-26.3671875,-36.62109375,-138.18359375,0.0
88.94921875,-39.55078125,-34.66796875,-33.203125,-37.59765625,-115.72265625,0.0
88.953125,-38.57421875,-42.48046875,-40.52734375,-37.59765625,-139.6484375,0.0
88.95703125,-46.875,-47.36328125,-45.41015625,-35.15625,-20.99609375,0.0
88.9609375,-48.828125,-42.96875,-33.203125,-34.66796875,135.25390625,0.0
88.96484375,-34.1796875,-35.15625,-25.87890625,-35.64453125,112.3046875,0.0
88.96875,-31.25,-34.66796875,-29.78515625,-34.1796875,65.91796875,0.0
88.97265625,-39.55078125,-32.2265625,-31.73828125,-33.69140625,45.41015625,0.0
88.9765625,-40.52734375,-33.69140625,-43.45703125,-37.59765625,91.30859375,0.0
88.98046875,-34.66796875,-36.1328125,-32.71484375,-39.55078125,56.640625,0.0
88.984375,-32.2265625,-31.73828125,-24.90234375,-35.64453125,96.6796875,0.0
88.98828125,-32.71484375,-31.73828125,-30.76171875,-28.80859375,113.76953125,0.0
88.9921875,-30.2734375,-32.71484375,-28.3203125,-28.3203125,6.34765625,0.0
88.99609375,-30.76171875,-33.203125,-36.1328125,-32.2265625,-37.59765625,0.0
89.0,-26.85546875,-37.59765625,-28.80859375,-28.3203125,18.5546875,0.0
89.00390625,-29.296875,-39.0625,-19.04296875,-29.296875,90.33203125,0.0
89.0078125,-35.15625,-32.2265625,-28.3203125,-31.73828125,94.7265625,0.0
89.01171875,-41.015625,-39.0625,-34.1796875,-33.203125,75.1953125,0.0
89.015625,-44.921875,-46.38671875,-37.59765625,-30.2734375,6.8359375,0.0
89.01953125,-41.9921875,-41.015625,-30.2734375,-29.78515625,-42.96875,0.0
89.0234375,-39.0625,-38.0859375,-22.94921875,-34.1796875,85.9375,0.0
89.02734375,-37.59765625,-38.0859375,-25.390625,-36.1328125,111.328125,0.0
89.03125,-42.48046875,-37.59765625,-32.2265625,-38.0859375,-12.20703125,0.0
89.03515625,-41.015625,-38.0859375,-38.57421875,-38.57421875,-50.78125,0.0
89.0390625,-42.48046875,-38.57421875,-33.69140625,-40.52734375,-88.37890625,0.0
89.04296875,-38.0859375,-36.1328125,-22.4609375,-40.0390625,-109.86328125,0.0
89.046875,-32.2265625,-34.66796875,-24.90234375,-37.109375,-66.89453125,0.0
89.05078125,-34.66796875,-36.1328125,-30.76171875,-37.59765625,-70.3125,0.0
89.0546875,-36.62109375,-37.109375,-31.73828125,-37.109375,-114.2578125,0.0
89.05859375,-34.66796875,-36.1328125,-33.203125,-34.66796875,-195.80078125,0.0
89.0625,-32.71484375,-35.64453125,-31.73828125,-32.2265625,-236.328125,0.0
89.06640625,-34.66796875,-37.109375,-35.15625,-33.203125,-25.87890625,0.0
89.0703125,-34.1796875,-33.203125,-38.57421875,-30.2734375,65.91796875,0.0
89.07421875,-34.66796875,-39.0625,-43.9453125,-34.1796875,5.859375,0.0
89.078125,-32.71484375,-42.96875,-47.8515625,-37.59765625,-74.21875,0.0
89.08203125,-29.296875,-34.66796875,-39.55078125,-33.69140625,-53.7109375,0.0
89.0859375,-28.80859375,-32.71484375,-34.1796875,-31.73828125,7.32421875,0.0
89.08984375,-25.87890625,-32.2265625,-34.1796875,-29.78515625,0.9765625,0.0
89.09375,-27.34375,-37.109375,-43.45703125,-29.78515625,14.16015625,0.0
89.09765625,-38.57421875,-39.55078125,-49.8046875,-34.66796875,30.2734375,0.0
89.1015625,-37.109375,-32.2265625,-41.015625,-31.73828125,50.78125,0.0
89.10546875,-40.0390625,-33.203125,-37.109375,-32.2265625,81.0546875,0.0
89.109375,-49.31640625,-37.59765625,-46.875,-41.9921875,53.22265625,0.0
89.11328125,-23.4375,-30.2734375,-42.96875,-25.87890625,-16.6015625,0.0
89.1171875,-0.48828125,-29.296875,-31.25,5.859375,-2.9296875,0.0
89.12109375,-14.16015625,-39.0625,-21.484375,5.37109375,55.17578125,0.0
89.125,-23.92578125,-47.8515625,-20.99609375,-2.44140625,58.10546875,0.0
89.12890625,-33.203125,-48.828125,-30.2734375,-4.39453125,40.0390625,0.0
89.1328125,-65.4296875,-46.875,-41.015625,-34.66796875,-28.3203125,0.0
89.13671875,-78.125,-57.6171875,-49.8046875,-56.15234375,-11.23046875,0.0
89.140625,-62.5,-65.4296875,-48.33984375,-50.29296875,50.29296875,0.0
89.14453125,-55.6640625,-62.5,-41.50390625,-42.96875,11.71875,0.0
89.1484375,-57.12890625,-52.24609375,-28.3203125,-38.57421875,1.46484375,0.0
89.15234375,-54.6875,-47.8515625,-26.85546875,-41.015625,47.8515625,0.0
89.15625,-64.94140625,-53.22265625,-41.50390625,-50.29296875,41.50390625,0.0
89.16015625,-84.9609375,-53.22265625,-41.9921875,-58.59375,29.78515625,0.0
89.1640625,-88.37890625,-52.24609375,-35.15625,-64.94140625,15.13671875,0.0
89.16796875,-76.171875,-57.12890625,-34.66796875,-61.03515625,-6.34765625,0.0
89.171875,-76.66015625,-63.96484375,-39.0625,-60.05859375,-32.2265625,0.0
89.17578125,-86.42578125,-64.94140625,-45.41015625,-68.359375,-104.00390625,0.0
89.1796875,-88.8671875,-62.01171875,-39.55078125,-63.4765625,-122.0703125,0.0
89.18359375,-84.9609375,-62.98828125,-28.3203125,-61.03515625,-43.45703125,0.0
89.1875,-91.796875,-62.98828125,-35.15625,-78.125,-55.6640625,0.0
89.19140625,-85.9375,-59.5703125,-35.64453125,-78.125,-103.02734375,0.0
89.1953125,-78.125,-54.19921875,-29.296875,-64.94140625,-78.125,0.0
89.19921875,-80.56640625,-55.17578125,-37.109375,-74.21875,-22.94921875,0.0
89.203125,-84.9609375,-57.6171875,-39.55078125,-85.9375,47.8515625,0.0
89.20703125,-89.35546875,-57.12890625,-32.2265625,-84.47265625,41.9921875,0.0
89.2109375,-90.33203125,-60.05859375,-32.2265625,-81.54296875,46.875,0.0
89.21484375,-100.5859375,-61.03515625,-43.45703125,-84.9609375,49.31640625,0.0
89.21875,-105.95703125,-61.03515625,-41.50390625,-92.28515625,25.87890625,0.0
89.22265625,-97.16796875,-63.4765625,-29.296875,-86.9140625,-27.34375,0.0
89.2265625,-90.8203125,-62.01171875,-28.3203125,-81.0546875,-135.7421875,0.0
89.23046875,-87.40234375,-61.03515625,-30.76171875,-83.49609375,-195.80078125,0.0
89.234375,-84.9609375,-60.546875,-34.66796875,-78.61328125,-176.7578125,0.0
89.23828125,-84.9609375,-54.6875,-32.71484375,-70.3125,-164.0625,0.0
89.2421875,-83.0078125,-49.31640625,-24.4140625,-71.77734375,-191.89453125,0.0
89.24609375,-83.0078125,-56.15234375,-29.78515625,-77.63671875,-138.671875,0.0
89.25,-77.1484375,-54.6875,-36.62109375,-66.89453125,-70.80078125,0.0
89.25390625,-70.3125,-49.8046875,-34.66796875,-58.10546875,-142.08984375,0.0
89.2578125,-73.73046875,-51.26953125,-37.109375,-63.96484375,-67.87109375,0.0
89.26171875,-77.63671875,-52.24609375,-34.1796875,-62.5,-35.64453125,0.0
89.265625,-74.70703125,-49.31640625,-31.25,-57.6171875,-62.01171875,0.0
89.26953125,-67.3828125,-44.43359375,-34.66796875,-60.05859375,-28.3203125,0.0
89.2734375,-63.4765625,-45.41015625,-39.0625,-64.453125,-37.109375,0.0
89.27734375,-63.96484375,-51.7578125,-44.921875,-60.546875,-26.3671875,0.0
89.28125,-65.4296875,-52.734375,-43.9453125,-58.10546875,29.296875,0.0
89.28515625,-50.78125,-42.96875,-30.2734375,-51.7578125,19.53125,0.0
89.2890625,-47.8515625,-41.015625,-34.66796875,-53.7109375,-0.9765625,0.0
89.29296875,-50.78125,-43.9453125,-44.43359375,-57.6171875,54.19921875,0.0
89.296875,-48.828125,-47.36328125,-46.38671875,-49.8046875,95.703125,0.0
89.30078125,-50.78125,-44.921875,-41.015625,-43.45703125,50.29296875,0.0
89.3046875,-42.96875,-35.64453125,-29.78515625,-47.8515625,1.46484375,0.0
89.30859375,-37.109375,-33.69140625,-28.3203125,-44.43359375,47.8515625,0.0
89.3125,-42.96875,-37.109375,-36.62109375,-41.9921875,-18.5546875,0.0
89.31640625,-50.78125,-43.9453125,-46.875,-48.33984375,-21.97265625,0.0
89.3203125,-52.24609375,-41.015625,-39.0625,-43.9453125,41.015625,0.0
89.32421875,-52.24609375,-37.59765625,-32.2265625,-40.0390625,26.85546875,0.0
89.328125,-51.7578125,-39.55078125,-34.1796875,-41.50390625,86.42578125,0.0
89.33203125,-55.17578125,-42.96875,-34.1796875,-35.15625,101.07421875,0.0
89.3359375,-56.640625,-45.41015625,-41.015625,-32.71484375,37.59765625,0.0
89.33984375,-51.7578125,-38.57421875,-41.9921875,-39.55078125,-49.8046875,0.0
89.34375,-50.78125,-41.015625,-37.109375,-44.43359375,-23.92578125,0.0
89.34765625,-56.15234375,-46.38671875,-36.62109375,-42.96875,20.5078125,0.0
89.3515625,-57.12890625,-44.921875,-34.66796875,-44.43359375,11.71875,0.0
89.35546875,-49.31640625,-43.45703125,-38.0859375,-38.0859375,98.6328125,0.0
89.359375,-50.29296875,-41.50390625,-33.69140625,-40.52734375,124.0234375,0.0
89.36328125,-51.7578125,-41.50390625,-24.90234375,-45.8984375,119.62890625,0.0
89.3671875,-43.9453125,-37.59765625,-26.85546875,-41.9921875,103.02734375,0.0
89.37109375,-44.43359375,-39.0625,-28.80859375,-39.0625,106.4453125,0.0
89.375,-46.875,-46.875,-28.80859375,-41.50390625,70.3125,0.0
89.37890625,-37.59765625,-45.8984375,-31.73828125,-45.41015625,8.7890625,0.0
89.3828125,-42.48046875,-42.48046875,-29.78515625,-44.921875,37.109375,0.0
89.38671875,-47.36328125,-37.109375,-25.87890625,-40.0390625,108.3984375,0.0
89.390625,-39.55078125,-35.15625,-28.80859375,-36.62109375,27.34375,0.0
89.39453125,-39.55078125,-39.0625,-37.109375,-42.48046875,-28.3203125,0.0
89.3984375,-43.9453125,-44.43359375,-40.0390625,-41.015625,19.04296875,0.0
89.40234375,-43.45703125,-41.50390625,-31.25,-35.64453125,30.76171875,0.0
89.40625,-41.9921875,-38.0859375,-29.296875,-43.45703125,19.53125,0.0
89.41015625,-41.50390625,-41.9921875,-30.76171875,-42.96875,5.859375,0.0
89.4140625,-45.8984375,-41.9921875,-34.66796875,-38.57421875,1.46484375,0.0
89.41796875,-45.41015625,-37.109375,-31.73828125,-36.1328125,15.13671875,0.0
89.421875,-37.109375,-33.69140625,-23.4375,-32.71484375,39.0625,0.0
89.42578125,-31.25,-30.2734375,-29.78515625,-33.203125,13.18359375,0.0
89.4296875,-33.69140625,-31.25,-32.71484375,-33.203125,-17.578125,0.0
89.43359375,-36.62109375,-31.73828125,-31.25,-38.57421875,64.94140625,0.0
89.4375,-51.7578125,-35.64453125,-41.9921875,-41.015625,82.51953125,0.0
89.44140625,-52.734375,-35.15625,-31.73828125,-41.015625,79.1015625,0.0
89.4453125,-46.38671875,-29.296875,-24.4140625,-52.734375,123.046875,0.0
89.44921875,-59.5703125,-28.80859375,-28.80859375,-62.01171875,49.31640625,0.0
89.453125,-70.80078125,-37.59765625,-29.296875,-63.96484375,0.0,0.0
89.45703125,-74.70703125,-41.015625,-41.50390625,-69.82421875,9.765625,0.0
89.4609375,-67.3828125,-34.66796875,-30.76171875,-60.546875,88.37890625,0.0
89.46484375,-59.08203125,-33.203125,-12.20703125,-51.26953125,73.2421875,0.0
89.46875,-56.640625,-32.2265625,-19.53125,-64.94140625,55.6640625,0.0
89.47265625,-52.734375,-23.92578125,-28.80859375,-64.453125,86.9140625,0.0
89.4765625,-52.734375,-24.90234375,-22.4609375,-45.8984375,-27.34375,0.0
89.48046875,-56.640625,-38.0859375,-10.7421875,-40.52734375,-37.109375,0.0
89.484375,-42.96875,-37.109375,-18.06640625,-38.0859375,-6.34765625,0.0
89.48828125,-34.66796875,-27.34375,-27.34375,-33.69140625,13.18359375,0.0
89.4921875,-51.26953125,-35.15625,-26.85546875,-41.015625,123.046875,0.0
89.49609375,-56.15234375,-44.43359375,-26.85546875,-43.45703125,183.59375,0.0
89.5,-40.52734375,-43.45703125,-15.625,-32.2265625,128.90625,0.0
89.50390625,-36.1328125,-45.8984375,-12.6953125,-26.85546875,144.04296875,0.0
89.5078125,-26.3671875,-40.0390625,-18.06640625,-23.4375,180.17578125,0.0
89.51171875,-21.484375,-39.0625,-19.53125,-21.484375,180.6640625,0.0
89.515625,-27.83203125,-48.828125,-27.34375,-20.99609375,191.40625,0.0
89.51953125,-28.3203125,-51.7578125,-26.85546875,-19.04296875,184.08203125,0.0
89.5234375,-13.671875,-56.640625,-12.6953125,0.0,207.03125,0.0
89.52734375,-11.23046875,-61.03515625,-15.13671875,9.765625,217.28515625,0.0
89.53125,-15.625,-64.94140625,-23.4375,1.953125,204.1015625,0.0
89.53515625,-15.625,-67.3828125,-26.85546875,7.32421875,223.14453125,0.0
89.5390625,-19.04296875,-65.91796875,-28.3203125,3.90625,178.22265625,0.0
89.54296875,-16.11328125,-62.5,-23.92578125,-6.8359375,150.87890625,0.0
89.546875,-0.9765625,-59.5703125,-20.99609375,2.9296875,191.89453125,0.0
89.55078125,5.859375,-53.7109375,-21.97265625,11.23046875,165.0390625,0.0
89.5546875,-5.37109375,-51.26953125,-28.3203125,5.37109375,29.78515625,0.0
89.55859375,-19.53125,-53.7109375,-34.1796875,-6.34765625,49.31640625,0.0
89.5625,-27.34375,-56.640625,-30.76171875,-19.53125,83.984375,0.0
89.56640625,-26.85546875,-50.78125,-27.83203125,-20.5078125,21.484375,0.0
89.5703125,-14.16015625,-46.875,-23.92578125,-4.39453125,2.44140625,0.0
89.57421875,-10.25390625,-52.24609375,-35.15625,0.48828125,81.54296875,0.0
89.578125,-13.671875,-53.22265625,-38.57421875,1.46484375,62.01171875,0.0
89.58203125,-19.53125,-50.29296875,-20.99609375,8.30078125,-9.765625,0.0
89.5859375,-25.390625,-48.33984375,-21.484375,6.34765625,35.15625,0.0
89.58984375,-25.390625,-49.8046875,-25.390625,-2.44140625,26.85546875,0.0
89.59375,-20.5078125,-55.6640625,-27.83203125,-7.8125,74.21875,0.0
89.59765625,-13.18359375,-53.7109375,-28.80859375,-3.41796875,86.9140625,0.0
89.6015625,-11.23046875,-43.9453125,-21.484375,3.41796875,-21.97265625,0.0
89.60546875,-2.9296875,-39.0625,-18.5546875,2.9296875,-30.2734375,0.0
89.609375,0.48828125,-41.9921875,-26.85546875,-2.44140625,-49.31640625,0.0
89.61328125,-6.8359375,-44.921875,-36.62109375,-8.7890625,-47.8515625,0.0
89.6171875,-10.25390625,-41.50390625,-40.0390625,-12.6953125,-53.22265625,0.0
89.62109375,-13.18359375,-36.1328125,-35.64453125,-15.625,-30.2734375,0.0
89.625,-8.7890625,-37.109375,-30.2734375,-13.671875,-44.921875,0.0
89.62890625,-9.27734375,-38.57421875,-32.2265625,-16.6015625,-85.9375,0.0
89.6328125,-2.9296875,-36.1328125,-36.1328125,-15.625,-39.0625,0.0
89.63671875,-8.7890625,-37.59765625,-38.57421875,-13.671875,-62.98828125,0.0
89.640625,-16.6015625,-36.62109375,-33.203125,-13.18359375,-68.84765625,0.0
89.64453125,-4.39453125,-30.76171875,-26.85546875,-10.7421875,40.52734375,0.0
89.6484375,-9.765625,-25.87890625,-23.92578125,-18.5546875,41.9921875,0.0
89.65234375,-26.85546875,-29.78515625,-29.78515625,-26.85546875,-43.45703125,0.0
89.65625,-26.85546875,-33.203125,-39.0625,-25.87890625,-66.40625,0.0
89.66015625,-17.578125,-29.296875,-27.83203125,-20.01953125,-64.94140625,0.0
89.6640625,-16.11328125,-32.71484375,-25.87890625,-24.90234375,-96.19140625,0.0
89.66796875,-20.5078125,-36.62109375,-33.203125,-29.296875,-99.609375,0.0
89.671875,-27.34375,-37.109375,-34.1796875,-27.83203125,-47.36328125,0.0
89.67578125,-40.0390625,-38.57421875,-43.9453125,-30.2734375,0.48828125,0.0
89.6796875,-53.7109375,-43.9453125,-42.48046875,-34.66796875,-79.58984375,0.0
89.68359375,-52.734375,-40.52734375,-31.73828125,-35.64453125,-83.984375,0.0
89.6875,-52.734375,-38.57421875,-36.1328125,-34.66796875,-6.34765625,0.0
89.69140625,-46.38671875,-38.57421875,-31.73828125,-31.73828125,-98.14453125,0.0
89.6953125,-45.41015625,-35.15625,-29.78515625,-27.34375,-160.64453125,0.0
89.69921875,-46.38671875,-33.69140625,-30.2734375,-23.92578125,-20.99609375,0.0
89.703125,-32.71484375,-31.73828125,-18.06640625,-15.625,-28.3203125,0.0
89.70703125,-27.83203125,-37.59765625,-17.578125,-14.16015625,-121.09375,0.0
89.7109375,-34.1796875,-34.66796875,-24.4140625,-18.5546875,-149.4140625,0.0
89.71484375,-30.76171875,-29.296875,-31.25,-19.53125,-226.07421875,0.0
89.71875,-25.390625,-32.2265625,-29.296875,-19.04296875,-153.3203125,0.0
89.72265625,-19.53125,-33.203125,-22.94921875,-16.6015625,-19.04296875,0.0
89.7265625,-20.5078125,-33.203125,-24.90234375,-30.76171875,-54.6875,0.0
89.73046875,-23.4375,-34.66796875,-25.87890625,-37.109375,-97.16796875,0.0
89.734375,-25.390625,-38.57421875,-34.66796875,-32.2265625,-91.30859375,0.0
89.73828125,-35.15625,-44.921875,-41.015625,-37.109375,-39.0625,0.0
89.7421875,-29.78515625,-40.52734375,-33.69140625,-37.59765625,-53.7109375,0.0
89.74609375,-20.5078125,-30.76171875,-30.76171875,-29.78515625,-148.4375,0.0
89.75,-5.859375,-25.87890625,-24.90234375,-18.06640625,-86.9140625,0.0
89.75390625,-6.34765625,-30.76171875,-33.69140625,-28.3203125,-80.078125,0.0
89.7578125,-17.578125,-34.66796875,-45.8984375,-35.64453125,-123.53515625,0.0
89.76171875,-13.18359375,-29.296875,-28.80859375,-25.390625,-30.2734375,0.0
89.765625,-14.16015625,-25.87890625,-18.06640625,-22.94921875,-14.16015625,0.0
89.76953125,-22.4609375,-29.296875,-25.87890625,-35.15625,-52.734375,0.0
89.7734375,-27.34375,-35.15625,-32.2265625,-36.62109375,-98.6328125,0.0
89.77734375,-29.78515625,-41.9921875,-35.64453125,-28.80859375,-68.359375,0.0
89.78125,-34.1796875,-36.62109375,-33.69140625,-25.390625,28.80859375,0.0
89.78515625,-42.96875,-34.66796875,-30.76171875,-27.34375,3.41796875,0.0
89.7890625,-35.15625,-30.76171875,-24.4140625,-24.4140625,-39.55078125,0.0
89.79296875,-28.80859375,-24.90234375,-22.4609375,-25.390625,-70.80078125,0.0
89.796875,-31.73828125,-30.76171875,-31.25,-29.78515625,-112.79296875,0.0
89.80078125,-35.15625,-34.1796875,-32.2265625,-33.203125,-125.48828125,0.0
89.8046875,-39.0625,-29.296875,-26.3671875,-35.64453125,-141.11328125,0.0
89.80859375,-39.55078125,-32.2265625,-30.2734375,-38.57421875,-125.9765625,0.0
89.8125,-36.62109375,-38.0859375,-38.57421875,-44.43359375,-102.05078125,0.0
89.81640625,-35.64453125,-30.2734375,-42.48046875,-41.9921875,-75.68359375,0.0
89.8203125,-32.2265625,-26.3671875,-32.71484375,-30.2734375,-75.68359375,0.0
89.82421875,-28.3203125,-27.83203125,-28.80859375,-36.1328125,-111.81640625,0.0
89.828125,-28.80859375,-22.4609375,-36.1328125,-36.1328125,-44.921875,0.0
89.83203125,-27.34375,-21.97265625,-35.64453125,-31.25,-22.94921875,0.0
89.8359375,-29.78515625,-28.80859375,-37.109375,-31.25,-96.6796875,0.0
89.83984375,-33.203125,-29.296875,-28.80859375,-26.85546875,-145.01953125,0.0
89.84375,-24.4140625,-25.87890625,-29.296875,-35.15625,-150.87890625,0.0
89.84765625,-19.04296875,-27.34375,-34.66796875,-35.64453125,-87.890625,0.0
89.8515625,-21.97265625,-31.25,-27.34375,-26.3671875,-120.1171875,0.0
89.85546875,-28.3203125,-33.69140625,-33.69140625,-31.25,-125.9765625,0.0
89.859375,-33.203125,-31.73828125,-36.1328125,-36.1328125,-98.14453125,0.0
89.86328125,-34.1796875,-29.78515625,-23.4375,-34.66796875,-152.83203125,0.0
89.8671875,-40.52734375,-33.203125,-23.4375,-36.1328125,-144.53125,0.0
89.87109375,-48.33984375,-40.52734375,-29.78515625,-39.55078125,-47.8515625,0.0
89.875,-57.12890625,-44.921875,-39.55078125,-43.9453125,-65.4296875,0.0
89.87890625,-50.78125,-41.015625,-39.55078125,-43.45703125,-190.4296875,0.0
89.8828125,-32.2265625,-33.69140625,-22.94921875,-34.1796875,-206.0546875,0.0
89.88671875,-43.9453125,-36.1328125,-23.92578125,-34.66796875,-124.0234375,0.0
89.890625,-61.5234375,-46.875,-32.2265625,-38.0859375,-113.28125,0.0
89.89453125,-54.19921875,-49.31640625,-31.25,-35.15625,-132.32421875,0.0
89.8984375,-45.41015625,-43.45703125,-29.296875,-36.62109375,-192.87109375,0.0
89.90234375,-49.31640625,-41.015625,-28.80859375,-40.52734375,-183.10546875,0.0
89.90625,-50.78125,-39.55078125,-29.296875,-37.59765625,-148.4375,0.0
89.91015625,-54.6875,-40.0390625,-33.203125,-42.48046875,-153.80859375,0.0
89.9140625,-49.31640625,-42.96875,-37.109375,-44.921875,-124.51171875,0.0
89.91796875,-41.9921875,-40.52734375,-34.1796875,-38.57421875,-168.45703125,0.0
89.921875,-48.33984375,-39.55078125,-26.3671875,-39.55078125,-191.89453125,0.0
89.92578125,-38.0859375,-36.1328125,-25.390625,-43.45703125,-150.390625,0.0
89.9296875,-34.1796875,-30.76171875,-25.87890625,-41.015625,-167.48046875,0.0
89.93359375,-43.45703125,-34.66796875,-29.78515625,-38.0859375,-115.234375,0.0
89.9375,-47.36328125,-40.0390625,-38.0859375,-36.62109375,-37.59765625,0.0
89.94140625,-34.66796875,-31.73828125,-27.34375,-30.2734375,-146.484375,0.0
89.9453125,-24.90234375,-32.71484375,-22.94921875,-28.3203125,-275.87890625,0.0
89.94921875,-26.3671875,-36.62109375,-29.78515625,-31.25,-222.65625,0.0
89.953125,-25.390625,-32.71484375,-34.1796875,-30.2734375,-215.33203125,0.0
89.95703125,-36.1328125,-38.0859375,-43.45703125,-36.1328125,-209.47265625,0.0
89.9609375,-38.0859375,-35.64453125,-37.59765625,-39.55078125,-143.06640625,0.0
89.96484375,-27.34375,-25.87890625,-27.83203125,-35.15625,-104.00390625,0.0
89.96875,-22.94921875,-28.3203125,-34.66796875,-33.203125,-75.1953125,0.0
89.97265625,-29.78515625,-29.78515625,-29.296875,-27.83203125,-70.3125,0.0
89.9765625,-29.296875,-29.78515625,-29.78515625,-24.4140625,-89.35546875,0.0
89.98046875,-23.4375,-31.73828125,-32.71484375,-23.4375,-84.9609375,0.0
89.984375,-16.6015625,-31.25,-30.76171875,-20.99609375,-68.84765625,0.0
89.98828125,-13.18359375,-27.83203125,-28.80859375,-20.01953125,-56.15234375,0.0
89.9921875,-22.94921875,-29.296875,-28.3203125,-18.5546875,-57.12890625,0.0
89.99609375,-36.62109375,-34.1796875,-40.52734375,-25.390625,-82.03125,0.0
90.0,-34.1796875,-31.73828125,-35.64453125,-26.85546875,-64.453125,0.0
90.00390625,-28.80859375,-30.2734375,-22.4609375,-23.92578125,-43.45703125,1.0
90.0078125,-35.64453125,-32.2265625,-28.3203125,-27.34375,-83.49609375,1.0
90.01171875,-36.1328125,-36.62109375,-30.76171875,-28.80859375,-36.62109375,1.0
90.015625,-41.015625,-36.62109375,-36.1328125,-28.80859375,-0.9765625,1.0
90.01953125,-42.96875,-34.1796875,-33.203125,-36.1328125,3.90625,1.0
90.0234375,-37.109375,-34.1796875,-25.87890625,-41.50390625,32.2265625,1.0
90.02734375,-41.50390625,-41.50390625,-32.2265625,-41.015625,42.48046875,1.0
90.03125,-50.29296875,-42.96875,-34.66796875,-48.828125,60.05859375,1.0
90.03515625,-47.8515625,-41.015625,-34.66796875,-51.7578125,41.9921875,1.0
90.0390625,-43.45703125,-41.50390625,-31.25,-45.41015625,-14.6484375,1.0
90.04296875,-45.8984375,-43.9453125,-28.3203125,-43.45703125,-98.6328125,1.0
90.046875,-47.8515625,-43.45703125,-36.62109375,-49.31640625,-86.42578125,1.0
90.05078125,-43.9453125,-38.0859375,-29.78515625,-52.734375,-28.80859375,1.0
90.0546875,-47.36328125,-38.0859375,-28.80859375,-47.8515625,-57.12890625,1.0
90.05859375,-47.36328125,-41.9921875,-36.1328125,-45.8984375,-71.77734375,1.0
90.0625,-46.875,-39.0625,-32.2265625,-45.41015625,-87.890625,1.0
90.06640625,-52.24609375,-38.57421875,-27.83203125,-48.828125,-97.16796875,1.0
90.0703125,-42.48046875,-36.62109375,-27.83203125,-42.48046875,-99.12109375,1.0
90.07421875,-39.0625,-35.15625,-32.2265625,-35.15625,-81.54296875,1.0
90.078125,-36.62109375,-35.15625,-32.71484375,-36.1328125,-30.76171875,1.0
90.08203125,-30.76171875,-27.34375,-22.94921875,-32.2265625,-42.48046875,1.0
90.0859375,-35.64453125,-23.92578125,-22.94921875,-32.2265625,35.64453125,1.0
90.08984375,-44.43359375,-29.296875,-29.78515625,-35.15625,74.21875,1.0
90.09375,-37.109375,-34.1796875,-31.25,-31.73828125,-22.94921875,1.0
90.09765625,-30.2734375,-31.25,-35.64453125,-24.90234375,-48.33984375,1.0
90.1015625,-27.34375,-35.15625,-30.2734375,-25.390625,-26.3671875,1.0
90.10546875,-24.90234375,-33.69140625,-25.87890625,-32.71484375,0.9765625,1.0
90.109375,-24.90234375,-30.2734375,-29.78515625,-27.34375,15.625,1.0
90.11328125,-27.83203125,-33.203125,-33.203125,-21.97265625,43.9453125,1.0
90.1171875,-33.69140625,-31.25,-40.52734375,-27.83203125,-46.38671875,1.0
90.12109375,-31.73828125,-27.83203125,-33.203125,-25.87890625,-93.26171875,1.0
90.125,-25.87890625,-26.85546875,-24.4140625,-23.4375,-35.64453125,1.0
90.12890625,-34.1796875,-26.85546875,-28.80859375,-35.15625,-11.71875,1.0
90.1328125,-42.96875,-32.2265625,-38.0859375,-47.8515625,-96.6796875,1.0
90.13671875,-43.9453125,-35.64453125,-42.96875,-45.8984375,-27.83203125,1.0
90.140625,-37.109375,-36.62109375,-38.0859375,-34.66796875,103.02734375,1.0
90.14453125,-40.0390625,-41.015625,-34.1796875,-40.0390625,73.2421875,1.0
90.1484375,-39.0625,-42.48046875,-30.2734375,-47.8515625,51.7578125,1.0
90.15234375,-38.57421875,-36.1328125,-28.80859375,-38.0859375,92.28515625,1.0
90.15625,-44.43359375,-38.57421875,-41.015625,-30.76171875,-6.34765625,1.0
90.16015625,-44.43359375,-40.52734375,-37.59765625,-34.1796875,-28.3203125,1.0
90.1640625,-40.52734375,-33.203125,-26.3671875,-34.66796875,11.71875,1.0
90.16796875,-25.390625,-29.78515625,-23.92578125,-27.34375,-8.30078125,1.0
90.171875,-26.85546875,-36.62109375,-29.296875,-33.69140625,84.9609375,1.0
90.17578125,-41.50390625,-39.55078125,-41.015625,-47.36328125,107.421875,1.0
90.1796875,-36.62109375,-38.0859375,-35.15625,-44.43359375,1.46484375,1.0
90.18359375,-37.109375,-41.9921875,-29.78515625,-42.48046875,89.35546875,1.0
90.1875,-39.55078125,-39.55078125,-36.1328125,-43.45703125,114.74609375,1.0
90.19140625,-42.48046875,-37.109375,-32.71484375,-48.828125,32.2265625,1.0
90.1953125,-44.921875,-37.109375,-35.64453125,-46.38671875,10.25390625,1.0
90.19921875,-39.55078125,-38.0859375,-36.1328125,-37.109375,-29.296875,1.0
90.203125,-41.9921875,-38.57421875,-29.296875,-40.0390625,-11.23046875,1.0
90.20703125,-44.921875,-33.203125,-32.2265625,-40.0390625,-45.41015625,1.0
90.2109375,-47.8515625,-33.203125,-33.69140625,-41.9921875,-116.2109375,1.0
90.21484375,-46.875,-32.2265625,-32.71484375,-40.52734375,-19.04296875,1.0
90.21875,-43.45703125,-37.109375,-36.62109375,-39.0625,109.86328125,1.0
90.22265625,-39.0625,-36.1328125,-30.2734375,-41.015625,45.8984375,1.0
90.2265625,-41.015625,-33.203125,-29.78515625,-41.9921875,-59.5703125,1.0
90.23046875,-48.33984375,-33.69140625,-29.78515625,-36.62109375,-86.42578125,1.0
90.234375,-57.6171875,-39.55078125,-35.15625,-43.9453125,-31.25,1.0
90.23828125,-51.26953125,-39.55078125,-39.55078125,-51.26953125,24.90234375,1.0
90.2421875,-44.43359375,-34.66796875,-34.1796875,-40.52734375,-0.48828125,1.0
90.24609375,-52.24609375,-35.64453125,-38.57421875,-46.38671875,-29.296875,1.0
90.25,-49.8046875,-38.0859375,-37.59765625,-49.8046875,-16.11328125,1.0
90.25390625,-35.64453125,-37.59765625,-36.1328125,-38.57421875,-7.8125,1.0
90.2578125,-32.2265625,-37.59765625,-33.203125,-30.76171875,-86.42578125,1.0
90.26171875,-33.203125,-37.59765625,-24.4140625,-30.76171875,-214.35546875,1.0
90.265625,-28.3203125,-40.52734375,-29.78515625,-32.2265625,-262.6953125,1.0
90.26953125,-26.3671875,-40.52734375,-31.73828125,-32.2265625,-251.953125,1.0
90.2734375,-33.69140625,-43.9453125,-35.15625,-37.59765625,-161.62109375,1.0
90.27734375,-41.50390625,-47.36328125,-42.96875,-39.0625,-138.18359375,1.0
90.28125,-40.52734375,-45.41015625,-34.1796875,-35.15625,-121.09375,1.0
90.28515625,-42.48046875,-44.43359375,-24.4140625,-36.62109375,7.8125,1.0
90.2890625,-45.41015625,-41.9921875,-26.85546875,-36.1328125,62.5,1.0
90.29296875,-48.828125,-43.9453125,-35.64453125,-36.62109375,61.5234375,1.0
90.296875,-54.19921875,-49.31640625,-43.9453125,-45.8984375,26.3671875,1.0
90.30078125,-51.26953125,-46.875,-36.62109375,-50.29296875,12.6953125,1.0
90.3046875,-44.43359375,-43.45703125,-31.25,-48.828125,-35.15625,1.0
90.30859375,-47.36328125,-41.50390625,-31.73828125,-45.8984375,-5.37109375,1.0
90.3125,-54.19921875,-44.921875,-33.203125,-45.41015625,102.05078125,1.0
90.31640625,-53.22265625,-43.9453125,-39.0625,-46.38671875,99.12109375,1.0
