timestamp,TP9,AF7,AF8,TP10,AUX,Marker,
578.00390625,-523.4375,-35.64453125,-20.01953125,-692.3828125,-11.71875,0.0
578.0078125,-1000.0,-37.59765625,-19.53125,-1000.0,-15.13671875,0.0
578.01171875,-872.0703125,-43.9453125,-25.390625,-979.00390625,-11.23046875,0.0
578.015625,455.078125,-34.1796875,-27.34375,143.5546875,1.46484375,0.0
578.01953125,-903.80859375,-17.08984375,-21.97265625,-917.96875,-0.9765625,0.0
578.0234375,893.5546875,-16.11328125,-25.390625,896.97265625,-69.82421875,0.0
578.02734375,996.58203125,-28.3203125,-36.1328125,947.265625,-40.52734375,0.0
578.03125,909.66796875,-32.2265625,-42.96875,912.109375,-51.7578125,0.0
578.03515625,-979.00390625,-29.296875,-41.015625,-958.49609375,-81.0546875,0.0
578.0390625,857.91015625,-25.390625,-33.69140625,742.1875,-83.49609375,0.0
578.04296875,-597.65625,-26.85546875,-20.99609375,-698.73046875,-26.3671875,0.0
578.046875,-1000.0,-29.78515625,-11.23046875,-1000.0,78.125,0.0
578.05078125,-925.78125,-30.2734375,-5.859375,-932.6171875,38.0859375,0.0
578.0546875,-1000.0,-38.0859375,-8.7890625,-1000.0,-30.2734375,0.0
578.05859375,-1000.0,-38.57421875,-27.83203125,-1000.0,-10.25390625,0.0
578.0625,-936.5234375,-35.15625,-39.0625,-943.84765625,-3.90625,0.0
578.06640625,-1000.0,-36.1328125,-35.15625,-1000.0,-31.25,0.0
578.0703125,-396.484375,-27.34375,-27.83203125,-371.58203125,-26.85546875,0.0
578.07421875,937.98828125,-19.53125,-21.484375,924.8046875,40.0390625,0.0
578.078125,987.79296875,-24.4140625,-30.76171875,988.76953125,66.40625,0.0
578.08203125,925.29296875,-28.80859375,-47.36328125,927.24609375,35.15625,0.0
578.0859375,991.2109375,-23.4375,-53.22265625,993.1640625,6.8359375,0.0
578.08984375,924.8046875,-15.13671875,-42.48046875,918.45703125,13.18359375,0.0
578.09375,983.88671875,-21.484375,-24.90234375,-998.046875,63.4765625,0.0
578.09765625,962.40234375,-38.0859375,-18.5546875,914.55078125,47.36328125,0.0
578.1015625,-409.66796875,-41.50390625,-20.5078125,-496.09375,-11.71875,0.0
578.10546875,-1000.0,-44.921875,-30.76171875,-1000.0,-72.75390625,0.0
578.109375,-928.7109375,-40.0390625,-28.80859375,-927.24609375,-73.73046875,0.0
578.11328125,-1000.0,-35.64453125,-22.4609375,-1000.0,-30.2734375,0.0
578.1171875,-1000.0,-45.8984375,-30.76171875,-1000.0,-62.98828125,0.0
578.12109375,-939.94140625,-40.0390625,-28.80859375,-937.98828125,-56.640625,0.0
578.125,-1000.0,-20.01953125,-16.6015625,-1000.0,-26.85546875,0.0
578.12890625,-858.88671875,-13.18359375,-12.20703125,-761.23046875,36.62109375,0.0
578.1328125,604.98046875,-18.06640625,-17.08984375,683.10546875,95.703125,0.0
578.13671875,-920.8984375,-21.97265625,-17.08984375,-939.94140625,53.22265625,0.0
578.140625,893.5546875,-21.97265625,-12.20703125,900.87890625,0.48828125,0.0
578.14453125,983.88671875,-28.3203125,-21.97265625,983.3984375,-10.7421875,0.0
578.1484375,984.86328125,-29.296875,-35.15625,976.5625,-9.27734375,0.0
578.15234375,896.97265625,-22.4609375,-31.73828125,907.71484375,-88.8671875,0.0
578.15625,-936.03515625,-19.53125,-20.01953125,-937.98828125,-104.4921875,0.0
578.16015625,684.5703125,-23.92578125,-14.16015625,508.7890625,17.578125,0.0
578.1640625,-790.0390625,-27.83203125,-21.484375,-860.3515625,-21.484375,0.0
578.16796875,-1000.0,-26.85546875,-41.015625,-1000.0,-88.8671875,0.0
578.171875,-934.5703125,-23.92578125,-53.22265625,-947.75390625,-94.7265625,0.0
578.17578125,-1000.0,-28.80859375,-48.33984375,-1000.0,-82.51953125,0.0
578.1796875,-960.9375,-29.296875,-41.50390625,-952.63671875,-64.94140625,0.0
578.18359375,-1000.0,-21.484375,-43.45703125,-1000.0,-61.03515625,0.0
578.1875,-1000.0,-17.08984375,-32.2265625,-958.984375,-41.015625,0.0
578.19140625,353.02734375,-21.97265625,-9.27734375,454.58984375,-83.984375,0.0
578.1953125,-942.87109375,-36.62109375,-10.7421875,-952.63671875,-173.828125,0.0
578.19921875,926.26953125,-36.1328125,-25.87890625,937.5,-158.203125,0.0
578.203125,935.05859375,-29.296875,-24.4140625,864.2578125,-89.84375,0.0
578.20703125,-479.00390625,-36.1328125,-35.64453125,-541.015625,-94.23828125,0.0
578.2109375,-1000.0,-46.38671875,-41.9921875,-1000.0,-78.125,0.0
578.21484375,-929.6875,-42.96875,-23.4375,-937.98828125,-107.91015625,0.0
578.21875,-1000.0,-29.78515625,-12.6953125,-992.1875,-62.01171875,0.0
578.22265625,-953.61328125,-20.5078125,-16.11328125,-978.02734375,5.37109375,0.0
578.2265625,-1000.0,-18.5546875,-18.06640625,-1000.0,-61.5234375,0.0
578.23046875,-145.01953125,-24.4140625,-15.13671875,42.48046875,-134.27734375,0.0
578.234375,-976.07421875,-27.83203125,-19.53125,-955.56640625,-28.80859375,0.0
578.23828125,948.73046875,-25.390625,-20.99609375,936.5234375,3.41796875,0.0
578.2421875,944.3359375,-20.99609375,-19.53125,950.68359375,-20.01953125,0.0
578.24609375,990.234375,-18.5546875,-24.4140625,920.41015625,-24.90234375,0.0
578.25,909.66796875,-23.4375,-29.296875,883.7890625,-20.5078125,0.0
578.25390625,-979.4921875,-27.34375,-24.90234375,-966.796875,14.6484375,0.0
578.2578125,860.83984375,-28.80859375,-20.5078125,845.21484375,62.01171875,0.0
578.26171875,-593.75,-30.76171875,-40.52734375,-603.02734375,102.05078125,0.0
578.265625,-1000.0,-21.484375,-51.7578125,-1000.0,111.81640625,0.0
578.26953125,-925.78125,-17.578125,-38.0859375,-926.7578125,95.703125,0.0
578.2734375,-1000.0,-28.3203125,-28.80859375,-1000.0,-33.203125,0.0
578.27734375,-1000.0,-34.66796875,-33.203125,-1000.0,-56.15234375,0.0
578.28125,-939.94140625,-34.1796875,-39.55078125,-938.96484375,-13.18359375,0.0
578.28515625,-1000.0,-32.71484375,-37.59765625,-1000.0,12.6953125,0.0
578.2890625,-858.3984375,-29.78515625,-28.3203125,-672.36328125,41.015625,0.0
578.29296875,622.0703125,-24.90234375,-23.92578125,733.88671875,73.2421875,0.0
578.296875,-990.234375,-21.484375,-31.73828125,-996.58203125,84.9609375,0.0
578.30078125,990.72265625,-21.484375,-41.50390625,968.26171875,64.94140625,0.0
578.3046875,683.59375,-19.53125,-40.52734375,331.54296875,23.4375,0.0
578.30859375,-797.36328125,-22.94921875,-41.015625,-902.83203125,0.9765625,0.0
578.3125,-1000.0,-24.4140625,-37.59765625,-1000.0,-5.859375,0.0
578.31640625,-952.1484375,-25.390625,-24.4140625,-976.5625,21.484375,0.0
578.3203125,-959.9609375,-32.2265625,-18.06640625,-951.66015625,-54.6875,0.0
578.32421875,-1000.0,-34.1796875,-26.3671875,-1000.0,-71.77734375,0.0
578.328125,-894.04296875,-31.73828125,-29.78515625,-863.76953125,-57.6171875,0.0
578.33203125,560.546875,-30.2734375,-29.296875,594.23828125,22.94921875,0.0
578.3359375,-913.0859375,-26.3671875,-36.1328125,-922.8515625,65.4296875,0.0
578.33984375,892.578125,-20.01953125,-38.0859375,909.66796875,-55.17578125,0.0
578.34375,983.3984375,-24.4140625,-31.25,896.97265625,-104.00390625,0.0
578.34765625,984.375,-34.1796875,-22.4609375,878.41796875,-90.8203125,0.0
578.3515625,896.484375,-32.71484375,-20.01953125,917.96875,-104.00390625,0.0
578.35546875,-933.10546875,-24.4140625,-20.99609375,-938.4765625,-120.1171875,0.0
578.359375,661.62109375,-25.87890625,-24.4140625,507.8125,-105.95703125,0.0
578.36328125,-800.78125,-30.2734375,-31.73828125,-831.0546875,-65.91796875,0.0
578.3671875,-1000.0,-28.80859375,-38.0859375,-1000.0,-99.12109375,0.0
578.37109375,-1000.0,-26.85546875,-36.1328125,-969.23828125,-19.53125,0.0
578.375,-196.2890625,-32.71484375,-32.2265625,107.91015625,62.98828125,0.0
578.37890625,-988.28125,-33.203125,-24.90234375,-953.125,15.625,0.0
578.3828125,954.1015625,-28.3203125,-20.01953125,925.29296875,12.6953125,0.0
578.38671875,958.984375,-26.85546875,-22.94921875,944.3359375,-59.5703125,0.0
578.390625,908.69140625,-31.25,-31.25,903.3203125,-102.5390625,0.0
578.39453125,-953.125,-32.71484375,-37.59765625,-944.82421875,-133.30078125,0.0
578.3984375,760.7421875,-31.25,-38.57421875,646.97265625,-147.94921875,0.0
578.40234375,-730.95703125,-37.59765625,-42.96875,-771.97265625,-66.40625,0.0
578.40625,-1000.0,-41.9921875,-49.8046875,-1000.0,-88.8671875,0.0
578.41015625,-1000.0,-39.55078125,-42.96875,-1000.0,-60.546875,0.0
578.4140625,-833.0078125,-31.73828125,-31.73828125,-520.5078125,3.41796875,0.0
578.41796875,654.78515625,-28.3203125,-33.69140625,812.5,-13.671875,0.0
578.421875,-930.17578125,-25.87890625,-44.921875,-982.91015625,-41.015625,0.0
578.42578125,912.109375,-20.5078125,-41.50390625,933.10546875,-89.84375,0.0
578.4296875,926.26953125,-21.97265625,-29.296875,921.38671875,-54.6875,0.0
578.43359375,-979.00390625,-27.83203125,-21.484375,-972.65625,-25.87890625,0.0
578.4375,857.91015625,-42.96875,-19.04296875,834.47265625,-146.97265625,0.0
578.44140625,-614.2578125,-46.875,-18.06640625,-632.8125,-193.84765625,0.0
578.4453125,-1000.0,-39.0625,-14.16015625,-1000.0,-19.04296875,0.0
578.44921875,-979.98046875,-31.73828125,-14.6484375,-1000.0,109.86328125,0.0
578.453125,-906.25,-28.80859375,-20.99609375,-679.6875,59.5703125,0.0
578.45703125,565.91796875,-20.99609375,-22.4609375,720.703125,-5.37109375,0.0
578.4609375,-913.57421875,-20.99609375,-22.94921875,-955.56640625,60.05859375,0.0
578.46484375,898.92578125,-25.87890625,-27.34375,915.52734375,67.3828125,0.0
578.46875,960.44921875,-25.87890625,-23.92578125,954.58984375,85.44921875,0.0
578.47265625,944.3359375,-27.34375,-34.66796875,957.51953125,129.8828125,0.0
578.4765625,-956.0546875,-30.2734375,-56.640625,-989.74609375,138.18359375,0.0
578.48046875,-140.625,-37.59765625,-46.875,-194.82421875,138.18359375,0.0
578.484375,-1000.0,-43.9453125,-30.2734375,-1000.0,46.875,0.0
578.48828125,-949.21875,-48.33984375,-26.85546875,-960.9375,-30.76171875,0.0
578.4921875,-995.1171875,-47.8515625,-20.5078125,-983.3984375,15.13671875,0.0
578.49609375,-1000.0,-39.0625,-16.6015625,-871.58203125,45.8984375,0.0
578.5,-942.3828125,-27.83203125,-18.5546875,-884.765625,40.0390625,0.0
578.50390625,-1000.0,-20.01953125,-18.5546875,-1000.0,55.17578125,0.0
578.5078125,-885.25390625,-13.671875,-15.625,-756.34765625,58.59375,0.0
578.51171875,580.078125,-13.671875,-14.16015625,681.15234375,14.16015625,0.0
578.515625,-943.359375,-16.11328125,-24.90234375,-962.40234375,2.9296875,0.0
578.51953125,881.8359375,-19.04296875,-32.71484375,896.484375,-11.71875,0.0
578.5234375,-965.33203125,-20.01953125,-34.1796875,902.83203125,-54.6875,0.0
578.52734375,-225.5859375,-23.92578125,-45.41015625,-199.21875,-76.66015625,0.0
578.53125,-1000.0,-28.3203125,-47.8515625,-1000.0,-46.38671875,0.0
578.53515625,-951.171875,-26.85546875,-27.34375,-982.91015625,56.15234375,0.0
578.5390625,-967.7734375,-24.4140625,-17.578125,-948.2421875,39.0625,0.0
578.54296875,-995.60546875,-28.80859375,-20.01953125,-1000.0,22.4609375,0.0
578.546875,-1000.0,-27.83203125,-31.73828125,-994.140625,9.27734375,0.0
578.55078125,246.09375,-21.484375,-38.0859375,354.4921875,-4.8828125,0.0
578.5546875,-895.01953125,-18.5546875,-25.87890625,-902.34375,-22.4609375,0.0
578.55859375,901.3671875,-27.34375,-26.85546875,899.90234375,-82.51953125,0.0
578.5625,970.703125,-29.296875,-34.66796875,975.5859375,-62.5,0.0
578.56640625,983.88671875,-31.73828125,-26.3671875,983.88671875,-26.85546875,0.0
578.5703125,908.69140625,-38.57421875,-19.04296875,906.25,-26.3671875,0.0
578.57421875,-976.5625,-39.55078125,-15.13671875,-960.44921875,10.25390625,0.0
578.578125,850.09765625,-33.203125,-20.99609375,765.625,15.625,0.0
578.58203125,-608.3984375,-19.04296875,-26.3671875,-687.5,-25.87890625,0.0
578.5859375,-1000.0,-16.6015625,-35.15625,-1000.0,-36.1328125,0.0
578.58984375,-926.26953125,-26.85546875,-41.50390625,-962.890625,12.6953125,0.0
578.59375,-1000.0,-39.55078125,-23.4375,-924.8046875,33.69140625,0.0
578.59765625,-1000.0,-47.8515625,-16.6015625,-709.9609375,50.29296875,0.0
578.6015625,-937.98828125,-40.52734375,-18.5546875,-881.34765625,49.31640625,0.0
578.60546875,-1000.0,-31.25,-18.5546875,-1000.0,12.6953125,0.0
578.609375,-820.80078125,-33.203125,-30.2734375,-610.3515625,4.39453125,0.0
578.61328125,582.03125,-25.390625,-45.41015625,693.84765625,38.57421875,0.0
578.6171875,-890.13671875,-20.01953125,-41.015625,-903.3203125,23.92578125,0.0
578.62109375,838.37890625,-29.296875,-38.0859375,770.01953125,-61.5234375,0.0
578.625,-493.65234375,-37.109375,-40.0390625,-601.07421875,-71.2890625,0.0
578.62890625,-1000.0,-34.66796875,-36.1328125,-1000.0,-32.2265625,0.0
578.6328125,-926.26953125,-27.34375,-27.34375,-928.7109375,-31.73828125,0.0
578.63671875,-1000.0,-26.3671875,-22.4609375,-1000.0,6.34765625,0.0
578.640625,-980.95703125,-27.83203125,-24.4140625,-992.1875,41.50390625,0.0
578.64453125,-973.14453125,-22.94921875,-28.3203125,-959.47265625,-79.1015625,0.0
578.6484375,-1000.0,-25.87890625,-40.0390625,-1000.0,-153.3203125,0.0
578.65234375,11.71875,-24.4140625,-49.8046875,-212.40234375,-65.4296875,0.0
578.65625,-904.78515625,-20.99609375,-43.9453125,-941.89453125,-76.171875,0.0
578.66015625,898.92578125,-29.296875,-20.5078125,823.2421875,-127.44140625,0.0
578.6640625,-458.0078125,-32.71484375,-2.9296875,-645.01953125,-102.5390625,0.0
578.66796875,-1000.0,-23.4375,-15.625,-1000.0,-19.53125,0.0
578.671875,-927.24609375,-25.390625,-38.0859375,-927.24609375,21.97265625,0.0
578.67578125,-1000.0,-32.2265625,-36.62109375,-1000.0,37.109375,0.0
578.6796875,-943.84765625,-32.71484375,-28.80859375,-946.77734375,0.0,0.0
578.68359375,-1000.0,-30.76171875,-24.90234375,-1000.0,-18.06640625,0.0
578.6875,-899.90234375,-27.83203125,-20.99609375,-918.45703125,49.31640625,0.0
578.69140625,559.08203125,-28.3203125,-20.01953125,526.3671875,28.3203125,0.0
578.6953125,-942.3828125,-31.25,-17.578125,-953.125,-70.80078125,0.0
578.69921875,884.765625,-29.78515625,-15.625,931.640625,-91.796875,0.0
578.703125,-969.23828125,-23.92578125,-16.11328125,813.4765625,-66.89453125,0.0
578.70703125,-254.39453125,-21.484375,-24.4140625,-532.2265625,-13.671875,0.0
578.7109375,-1000.0,-21.97265625,-33.69140625,-1000.0,-22.4609375,0.0
578.71484375,-950.1953125,-22.4609375,-29.296875,-952.1484375,-109.86328125,0.0
578.71875,-961.42578125,-24.4140625,-25.87890625,-964.84375,-135.7421875,0.0
578.72265625,-1000.0,-21.97265625,-24.4140625,-1000.0,-34.66796875,0.0
578.7265625,-1000.0,-24.90234375,-29.78515625,-980.95703125,65.91796875,0.0
578.73046875,351.07421875,-24.4140625,-37.109375,394.04296875,-31.25,0.0
578.734375,-895.5078125,-23.92578125,-27.83203125,-900.390625,-61.5234375,0.0
578.73828125,895.99609375,-25.87890625,-21.97265625,896.97265625,-8.30078125,0.0
578.7421875,976.07421875,-21.484375,-23.92578125,977.5390625,-64.94140625,0.0
578.74609375,983.3984375,-22.4609375,-22.94921875,983.88671875,-48.828125,0.0
578.75,909.66796875,-25.87890625,-21.484375,906.25,-65.4296875,0.0
578.75390625,-979.00390625,-22.94921875,-13.671875,-961.9140625,-32.71484375,0.0
578.7578125,857.91015625,-23.92578125,-10.7421875,778.80859375,32.71484375,0.0
578.76171875,-611.328125,-23.4375,-17.08984375,-684.08203125,-17.08984375,0.0
578.765625,-1000.0,-21.97265625,-22.94921875,-1000.0,-71.2890625,0.0
578.76953125,-953.61328125,-21.484375,-22.94921875,-962.40234375,-69.3359375,0.0
578.7734375,-980.95703125,-27.83203125,-17.578125,-872.0703125,1.953125,0.0
578.77734375,434.5703125,-33.203125,-20.99609375,465.8203125,29.296875,0.0
578.78125,-901.3671875,-30.2734375,-21.97265625,-929.19921875,8.30078125,0.0
578.78515625,906.73828125,-24.90234375,-19.53125,921.38671875,-8.30078125,0.0
578.7890625,934.5703125,-22.4609375,-19.04296875,926.26953125,-8.30078125,0.0
578.79296875,988.28125,-26.85546875,-21.484375,-999.0234375,60.546875,0.0
578.796875,950.1953125,-25.390625,-22.4609375,918.45703125,75.1953125,0.0
578.80078125,-438.4765625,-16.6015625,-15.13671875,-497.55859375,71.77734375,0.0
578.8046875,-1000.0,-20.5078125,-14.16015625,-1000.0,-2.44140625,0.0
578.80859375,-891.11328125,-27.83203125,-15.13671875,-922.36328125,-93.75,0.0
578.8125,-1000.0,-27.34375,-16.11328125,-1000.0,8.7890625,0.0
578.81640625,-39.0625,-19.04296875,-20.5078125,119.62890625,62.5,0.0
578.8203125,-951.66015625,-11.23046875,-22.4609375,-967.7734375,-40.0390625,0.0
578.82421875,935.546875,-12.6953125,-29.78515625,934.08203125,-40.52734375,0.0
578.828125,967.7734375,-16.6015625,-30.2734375,967.28515625,7.8125,0.0
578.83203125,900.87890625,-17.578125,-23.4375,911.62109375,72.265625,0.0
578.8359375,-929.6875,-16.11328125,-25.390625,-945.80078125,35.64453125,0.0
578.83984375,629.8828125,-19.04296875,-27.83203125,491.2109375,4.39453125,0.0
578.84375,-780.2734375,-21.484375,-27.83203125,-806.640625,85.44921875,0.0
578.84765625,-1000.0,-20.99609375,-26.3671875,-1000.0,114.74609375,0.0
578.8515625,-933.10546875,-17.08984375,-26.3671875,-843.26171875,84.9609375,0.0
578.85546875,357.91015625,-14.6484375,-36.62109375,514.16015625,72.75390625,0.0
578.859375,-896.97265625,-18.5546875,-30.2734375,-914.0625,63.96484375,0.0
578.86328125,895.5078125,-23.92578125,-20.01953125,896.484375,0.48828125,0.0
578.8671875,993.65234375,-20.99609375,-18.06640625,996.58203125,-2.44140625,0.0
578.87109375,904.296875,-18.5546875,-22.94921875,905.76171875,24.4140625,0.0
578.875,-961.9140625,-20.01953125,-31.73828125,-956.0546875,-34.66796875,0.0
578.87890625,793.9453125,-19.53125,-37.109375,728.02734375,2.9296875,0.0
578.8828125,-691.89453125,-23.92578125,-41.015625,-710.44921875,42.48046875,0.0
578.88671875,-1000.0,-33.203125,-35.64453125,-1000.0,-43.45703125,0.0
578.890625,-998.046875,-41.015625,-26.85546875,-993.1640625,-57.12890625,0.0
578.89453125,-850.09765625,-41.015625,-24.90234375,-442.3828125,29.78515625,0.0
578.8984375,634.27734375,-35.64453125,-26.3671875,821.77734375,48.828125,0.0
578.90234375,-926.26953125,-24.90234375,-40.52734375,-989.74609375,91.30859375,0.0
578.90625,911.62109375,-13.671875,-46.38671875,937.98828125,55.6640625,0.0
578.91015625,923.33984375,-21.484375,-56.640625,916.9921875,-72.265625,0.0
578.9140625,-970.703125,-27.83203125,-51.7578125,-955.078125,-60.546875,0.0
578.91796875,828.125,-34.1796875,-30.76171875,718.26171875,-80.56640625,0.0
578.921875,-648.92578125,-44.43359375,-19.04296875,-709.9609375,-43.45703125,0.0
578.92578125,-1000.0,-48.828125,-17.578125,-1000.0,-16.11328125,0.0
578.9296875,-1000.0,-49.31640625,-24.90234375,-1000.0,-64.453125,0.0
578.93359375,-575.1953125,-41.015625,-32.71484375,-220.703125,-32.71484375,0.0
578.9375,792.96875,-30.2734375,-34.66796875,916.50390625,-28.80859375,0.0
578.94140625,-913.57421875,-29.296875,-21.97265625,-994.140625,-53.22265625,0.0
578.9453125,750.0,-31.25,-20.01953125,534.66796875,-46.875,0.0
578.94921875,-641.6015625,-32.71484375,-25.87890625,-705.078125,-3.41796875,0.0
578.953125,-1000.0,-42.96875,-23.92578125,-1000.0,53.7109375,0.0
578.95703125,-945.80078125,-46.875,-30.76171875,-954.1015625,-8.7890625,0.0
578.9609375,-949.21875,-42.96875,-41.015625,-952.1484375,-22.4609375,0.0
578.96484375,-1000.0,-41.9921875,-38.0859375,-1000.0,8.7890625,0.0
578.96875,-764.16015625,-41.50390625,-28.80859375,-531.25,-54.19921875,0.0
578.97265625,712.890625,-41.50390625,-16.11328125,832.03125,-54.19921875,0.0
578.9765625,-941.89453125,-36.1328125,-16.6015625,-981.93359375,-58.10546875,0.0
578.98046875,898.4375,-32.2265625,-26.85546875,916.015625,-68.84765625,0.0
578.984375,988.76953125,-37.59765625,-22.94921875,987.79296875,14.16015625,0.0
578.98828125,954.1015625,-40.52734375,-15.625,948.73046875,16.6015625,0.0
578.9921875,929.6875,-38.57421875,-16.6015625,944.3359375,12.20703125,0.0
578.99609375,-935.546875,-38.57421875,-24.4140625,-968.26171875,1.953125,0.0
579.0,-7.32421875,-38.0859375,-29.296875,-82.03125,-16.11328125,0.0
579.00390625,-1000.0,-41.015625,-24.90234375,-1000.0,-23.92578125,0.0
579.0078125,-1000.0,-40.52734375,-12.6953125,-1000.0,-90.8203125,0.0
579.01171875,-937.98828125,-45.41015625,-5.37109375,-877.44140625,-27.83203125,0.0
579.015625,455.56640625,-43.9453125,-9.765625,535.15625,-2.44140625,0.0
579.01953125,-902.83203125,-32.71484375,-21.97265625,-915.0390625,-44.43359375,0.0
579.0234375,893.5546875,-33.69140625,-20.01953125,898.4375,26.85546875,0.0
579.02734375,991.69921875,-38.0859375,-14.16015625,982.91015625,1.46484375,0.0
579.03125,897.94921875,-39.0625,-18.5546875,915.0390625,3.41796875,0.0
579.03515625,-916.50390625,-41.015625,-22.94921875,-935.05859375,29.78515625,0.0
579.0390625,488.76953125,-40.0390625,-24.90234375,297.36328125,23.4375,0.0
579.04296875,-925.29296875,-37.109375,-25.390625,-949.70703125,-23.92578125,0.0
579.046875,-975.09765625,-41.015625,-26.85546875,-993.1640625,-58.59375,0.0
579.05078125,-1000.0,-43.9453125,-26.3671875,-1000.0,17.08984375,0.0
579.0546875,-498.53515625,-43.45703125,-28.3203125,-94.7265625,-9.27734375,0.0
579.05859375,896.97265625,-39.55078125,-33.203125,982.421875,-65.4296875,0.0
579.0625,-997.0703125,-41.50390625,-31.25,947.265625,-54.19921875,0.0
579.06640625,935.546875,-45.41015625,-29.296875,945.3125,-35.15625,0.0
579.0703125,917.96875,-43.9453125,-30.2734375,916.015625,-40.0390625,0.0
579.07421875,-961.9140625,-37.59765625,-27.34375,-950.68359375,35.15625,0.0
579.078125,795.8984375,-35.15625,-24.4140625,662.59765625,111.81640625,0.0
579.08203125,-690.4296875,-31.73828125,-25.87890625,-755.859375,44.43359375,0.0
579.0859375,-1000.0,-30.76171875,-40.0390625,-1000.0,-21.97265625,0.0
579.08984375,-1000.0,-31.73828125,-40.0390625,-995.1171875,-35.64453125,0.0
579.09375,-831.0546875,-28.80859375,-23.92578125,-463.37890625,-41.50390625,0.0
579.09765625,655.2734375,-33.203125,-12.6953125,806.640625,-48.828125,0.0
579.1015625,-930.6640625,-38.0859375,-12.6953125,-985.83984375,-47.8515625,0.0
579.10546875,912.59765625,-40.0390625,-22.4609375,937.98828125,-38.57421875,0.0
579.109375,926.7578125,-41.50390625,-29.78515625,921.38671875,-81.54296875,0.0
579.11328125,-979.00390625,-32.2265625,-27.34375,-976.5625,-74.21875,0.0
579.1171875,857.91015625,-25.390625,-26.3671875,849.609375,-79.58984375,0.0
579.12109375,-614.2578125,-26.85546875,-38.0859375,-615.234375,-96.6796875,0.0
579.125,-1000.0,-22.94921875,-45.41015625,-1000.0,-55.6640625,0.0
579.12890625,-980.95703125,-23.92578125,-38.57421875,-999.51171875,-31.25,0.0
579.1328125,-903.3203125,-35.15625,-30.76171875,-702.63671875,-8.7890625,0.0
579.13671875,569.82421875,-33.69140625,-22.94921875,706.54296875,35.15625,0.0
579.140625,-914.0625,-32.71484375,-16.6015625,-951.171875,74.21875,0.0
579.14453125,898.92578125,-39.0625,-18.5546875,913.57421875,59.5703125,0.0
579.1484375,961.42578125,-40.52734375,-29.78515625,957.03125,16.11328125,0.0
579.15234375,943.359375,-33.69140625,-30.76171875,953.61328125,-6.34765625,0.0
579.15625,-954.58984375,-30.76171875,-20.99609375,-981.93359375,-55.17578125,0.0
579.16015625,-131.34765625,-38.0859375,-20.01953125,-164.55078125,-109.86328125,0.0
579.1640625,-1000.0,-40.0390625,-22.94921875,-1000.0,-85.44921875,0.0
579.16796875,-888.671875,-39.55078125,-25.87890625,-920.41015625,-78.61328125,0.0
579.171875,-1000.0,-39.0625,-25.87890625,-1000.0,-103.515625,0.0
579.17578125,-840.33203125,-31.73828125,-20.99609375,-428.7109375,-6.8359375,0.0
579.1796875,625.0,-19.53125,-32.2265625,779.296875,35.64453125,0.0
579.18359375,-923.33984375,-23.92578125,-45.8984375,-978.515625,28.80859375,0.0
579.1875,894.04296875,-33.69140625,-44.921875,911.1328125,20.99609375,0.0
579.19140625,928.7109375,-31.73828125,-32.2265625,942.3828125,-44.43359375,0.0
579.1953125,-918.45703125,-29.296875,-30.2734375,-949.21875,-29.78515625,0.0
579.19921875,198.73046875,-36.1328125,-43.45703125,45.41015625,-112.79296875,0.0
579.203125,-967.7734375,-41.50390625,-47.8515625,-988.76953125,-256.34765625,0.0
579.20703125,-1000.0,-35.15625,-33.203125,-1000.0,-247.55859375,0.0
579.2109375,-844.23828125,-26.85546875,-24.4140625,-768.5546875,-82.51953125,0.0
579.21484375,499.0234375,-20.99609375,-25.390625,583.49609375,-46.38671875,0.0
579.21875,-860.83984375,-18.06640625,-28.3203125,-871.58203125,-82.03125,0.0
579.22265625,788.0859375,-26.3671875,-38.0859375,686.5234375,-25.390625,0.0
579.2265625,-575.1953125,-33.69140625,-51.7578125,-637.6953125,-114.74609375,0.0
579.23046875,-1000.0,-36.62109375,-53.22265625,-1000.0,-178.22265625,0.0
579.234375,-937.01171875,-37.109375,-37.109375,-947.265625,-84.9609375,0.0
579.23828125,-975.5859375,-32.2265625,-27.83203125,-965.8203125,-125.0,0.0
579.2421875,-1000.0,-37.109375,-36.1328125,-1000.0,-229.00390625,0.0
579.24609375,-1000.0,-43.9453125,-37.109375,-952.1484375,-141.6015625,0.0
579.25,354.00390625,-43.9453125,-32.2265625,455.56640625,-61.03515625,0.0
579.25390625,-895.5078125,-37.59765625,-27.83203125,-903.3203125,-61.03515625,0.0
579.2578125,895.99609375,-34.1796875,-25.87890625,895.01953125,-38.0859375,0.0
579.26171875,976.07421875,-31.73828125,-28.3203125,979.98046875,-2.44140625,0.0
579.265625,980.46875,-35.15625,-27.83203125,981.4453125,-3.41796875,0.0
579.26953125,920.8984375,-39.0625,-33.69140625,919.43359375,-31.73828125,0.0
579.2734375,993.1640625,-37.59765625,-53.22265625,999.0234375,-82.51953125,0.0
579.27734375,938.4765625,-44.43359375,-58.59375,919.921875,-54.6875,0.0
579.28125,-475.09765625,-40.52734375,-34.66796875,-487.3046875,28.80859375,0.0
579.28515625,-1000.0,-25.390625,-28.80859375,-1000.0,8.7890625,0.0
579.2890625,-1000.0,-19.04296875,-41.015625,-1000.0,26.85546875,0.0
579.29296875,-815.4296875,-21.484375,-41.50390625,-531.73828125,105.95703125,0.0
579.296875,666.9921875,-32.2265625,-33.69140625,799.31640625,68.359375,0.0
579.30078125,-932.6171875,-42.48046875,-23.92578125,-979.00390625,36.1328125,0.0
579.3046875,912.109375,-46.38671875,-23.4375,933.10546875,109.375,0.0
579.30859375,928.22265625,-48.33984375,-33.69140625,923.828125,138.671875,0.0
579.3125,-982.421875,-43.9453125,-36.1328125,-980.46875,84.9609375,0.0
579.31640625,870.1171875,-41.015625,-38.57421875,864.2578125,55.6640625,0.0
579.3203125,-579.1015625,-44.43359375,-38.57421875,-585.44921875,51.26953125,0.0
579.32421875,-1000.0,-36.62109375,-24.4140625,-1000.0,24.90234375,0.0
579.328125,-925.78125,-29.78515625,-23.4375,-926.26953125,-30.2734375,0.0
579.33203125,-1000.0,-30.76171875,-30.2734375,-1000.0,-56.15234375,0.0
579.3359375,-1000.0,-28.80859375,-26.3671875,-1000.0,-15.13671875,0.0
579.33984375,-950.1953125,-31.73828125,-20.01953125,-950.1953125,70.80078125,0.0
579.34375,-1000.0,-35.64453125,-21.97265625,-1000.0,72.265625,0.0
579.34765625,-932.12890625,-29.78515625,-27.34375,-929.19921875,17.578125,0.0
579.3515625,411.62109375,-23.4375,-27.34375,410.64453125,48.828125,0.0
579.35546875,-849.12109375,-28.3203125,-30.76171875,-825.68359375,100.5859375,0.0
579.359375,783.69140625,-35.15625,-25.87890625,625.9765625,45.41015625,0.0
579.36328125,-584.9609375,-36.62109375,-18.5546875,-719.23828125,-1.953125,0.0
579.3671875,-1000.0,-28.3203125,-21.484375,-1000.0,79.1015625,0.0
579.37109375,-925.78125,-23.4375,-19.04296875,-935.546875,83.0078125,0.0
579.375,-1000.0,-30.76171875,-25.87890625,-1000.0,36.62109375,0.0
579.37890625,-978.515625,-32.2265625,-30.2734375,-982.421875,93.26171875,0.0
579.3828125,-977.05078125,-27.34375,-18.06640625,-973.6328125,110.83984375,0.0
579.38671875,-1000.0,-31.25,-14.16015625,-1000.0,57.12890625,0.0
579.390625,115.72265625,-32.71484375,-18.06640625,12.6953125,40.0390625,0.0
579.39453125,-977.5390625,-24.4140625,-21.484375,996.58203125,45.8984375,0.0
579.3984375,975.5859375,-22.4609375,-26.3671875,-996.09375,-1.46484375,0.0
579.40234375,835.44921875,-20.99609375,-33.203125,416.9921875,12.6953125,0.0
579.40625,-616.2109375,-24.90234375,-29.296875,-845.703125,42.96875,0.0
579.41015625,-1000.0,-35.15625,-36.1328125,-1000.0,10.7421875,0.0
579.4140625,-932.6171875,-41.015625,-42.96875,-960.9375,12.6953125,0.0
579.41796875,-992.67578125,-35.64453125,-43.45703125,-985.83984375,-26.85546875,0.0
579.421875,-979.4921875,-34.1796875,-44.921875,-988.28125,-52.24609375,0.0
579.42578125,-1000.0,-44.43359375,-41.015625,-1000.0,-84.9609375,0.0
579.4296875,127.9296875,-42.48046875,-29.296875,154.78515625,-71.2890625,0.0
579.43359375,-911.62109375,-33.203125,-18.5546875,-929.6875,21.97265625,0.0
579.4375,913.57421875,-33.203125,-19.53125,928.22265625,25.390625,0.0
579.44140625,963.37890625,-28.80859375,-17.578125,938.96484375,-34.66796875,0.0
579.4453125,985.3515625,-26.3671875,-22.4609375,910.15625,-90.8203125,0.0
579.44921875,909.66796875,-23.4375,-25.390625,900.87890625,-20.99609375,0.0
579.453125,-979.00390625,-24.4140625,-24.4140625,-963.37890625,60.546875,0.0
579.45703125,857.91015625,-30.76171875,-23.92578125,817.87109375,24.90234375,0.0
579.4609375,-603.515625,-34.66796875,-22.4609375,-643.06640625,13.18359375,0.0
579.46484375,-1000.0,-34.1796875,-21.484375,-1000.0,-2.44140625,0.0
579.46875,-898.4375,-28.80859375,-21.97265625,-919.921875,-0.9765625,0.0
579.47265625,-1000.0,-30.2734375,-32.2265625,-971.19140625,25.87890625,0.0
579.4765625,39.55078125,-35.64453125,-38.57421875,50.29296875,6.34765625,0.0
579.48046875,-938.4765625,-37.109375,-30.76171875,983.88671875,-59.5703125,0.0
579.484375,936.03515625,-32.71484375,-16.11328125,964.84375,-20.5078125,0.0
579.48828125,922.36328125,-20.99609375,-14.6484375,907.71484375,80.56640625,0.0
579.4921875,968.75,-12.20703125,-20.01953125,989.74609375,86.9140625,0.0
579.49609375,-993.1640625,-14.16015625,-20.01953125,961.42578125,2.44140625,0.0
579.5,-307.12890625,-26.3671875,-34.66796875,-402.34375,-121.09375,0.0
579.50390625,-1000.0,-28.3203125,-43.9453125,-1000.0,-109.86328125,0.0
579.5078125,-876.953125,-22.94921875,-34.1796875,-912.109375,-46.875,0.0
579.51171875,-1000.0,-26.85546875,-24.90234375,-1000.0,-7.8125,0.0
579.515625,-297.8515625,-27.83203125,-20.5078125,-100.09765625,17.08984375,0.0
579.51953125,967.7734375,-24.90234375,-26.3671875,947.75390625,-49.31640625,0.0
579.5234375,974.609375,-28.80859375,-37.59765625,972.16796875,-53.7109375,0.0
579.52734375,934.5703125,-28.80859375,-41.50390625,930.6640625,-6.8359375,0.0
579.53125,917.48046875,-25.390625,-38.57421875,941.40625,1.46484375,0.0
579.53515625,-916.015625,-28.80859375,-34.1796875,-957.03125,-23.4375,0.0
579.5390625,285.64453125,-28.3203125,-25.390625,71.2890625,27.83203125,0.0
579.54296875,-1000.0,-24.90234375,-19.04296875,-1000.0,109.375,0.0
579.546875,-1000.0,-26.85546875,-18.5546875,-1000.0,81.0546875,0.0
579.55078125,-964.35546875,-37.109375,-17.578125,-951.66015625,60.05859375,0.0
579.5546875,-1000.0,-41.015625,-22.94921875,-704.1015625,3.41796875,0.0
579.55859375,-949.21875,-43.45703125,-35.15625,-818.359375,-86.9140625,0.0
579.5625,-1000.0,-37.59765625,-33.203125,-1000.0,-62.98828125,0.0
579.56640625,-939.94140625,-25.390625,-27.34375,-887.20703125,-77.63671875,0.0
579.5703125,484.375,-20.5078125,-30.2734375,530.76171875,-99.609375,0.0
579.57421875,-904.78515625,-18.06640625,-31.73828125,-910.15625,-32.71484375,0.0
579.578125,893.06640625,-22.4609375,-32.71484375,893.5546875,-12.6953125,0.0
579.58203125,980.95703125,-19.53125,-27.34375,982.91015625,-64.94140625,0.0
579.5859375,983.3984375,-11.71875,-28.80859375,984.375,-5.37109375,0.0
579.58984375,909.66796875,-19.53125,-45.41015625,909.1796875,-56.15234375,0.0
579.59375,-979.00390625,-27.83203125,-48.828125,-974.12109375,-145.5078125,0.0
579.59765625,857.91015625,-27.34375,-38.0859375,836.42578125,-102.5390625,0.0
579.6015625,-614.74609375,-27.83203125,-29.78515625,-618.65234375,-123.53515625,0.0
579.60546875,-1000.0,-27.83203125,-28.80859375,-1000.0,-27.83203125,0.0
579.609375,-992.1875,-31.73828125,-35.15625,-997.0703125,48.33984375,0.0
579.61328125,-860.83984375,-32.71484375,-28.3203125,-493.1640625,-39.55078125,0.0
579.6171875,620.60546875,-29.296875,-15.13671875,810.546875,-74.70703125,0.0
579.62109375,-923.828125,-35.64453125,-10.25390625,-984.375,-58.59375,0.0
579.625,910.64453125,-41.015625,-10.7421875,936.5234375,12.20703125,0.0
579.62890625,926.26953125,-35.64453125,-21.484375,920.8984375,14.16015625,0.0
579.6328125,-978.515625,-29.78515625,-31.25,-974.609375,-60.546875,0.0
579.63671875,857.91015625,-29.296875,-33.203125,843.75,-82.03125,0.0
579.640625,-611.328125,-25.87890625,-31.73828125,-624.51171875,-62.5,0.0
579.64453125,-1000.0,-27.83203125,-31.25,-1000.0,-54.6875,0.0
579.6484375,-954.58984375,-32.2265625,-34.1796875,-971.19140625,-26.85546875,0.0
579.65234375,-979.00390625,-30.2734375,-26.85546875,-858.3984375,-7.8125,0.0
579.65625,439.453125,-28.80859375,-21.484375,533.69140625,-43.45703125,0.0
579.66015625,-901.3671875,-30.2734375,-31.73828125,-925.29296875,-14.6484375,0.0
579.6640625,903.3203125,-34.66796875,-39.0625,913.57421875,12.20703125,0.0
579.66796875,944.82421875,-30.76171875,-34.1796875,938.96484375,-16.6015625,0.0
579.671875,966.30859375,-22.4609375,-28.80859375,981.4453125,53.7109375,0.0
579.67578125,-995.1171875,-25.390625,-27.83203125,964.35546875,53.7109375,0.0
579.6796875,-324.70703125,-35.15625,-29.78515625,-390.625,1.46484375,0.0
579.68359375,-1000.0,-43.9453125,-44.921875,-1000.0,-1.953125,0.0
579.6875,-969.23828125,-48.33984375,-46.875,-986.81640625,-11.71875,0.0
579.69140625,-947.265625,-47.36328125,-31.73828125,-856.93359375,-68.359375,0.0
579.6953125,479.00390625,-40.52734375,-31.25,567.3828125,-74.21875,0.0
579.69921875,-904.296875,-33.69140625,-34.1796875,-922.36328125,26.85546875,0.0
579.703125,894.53125,-22.4609375,-22.4609375,903.3203125,35.64453125,0.0
579.70703125,981.4453125,-13.18359375,-16.11328125,970.703125,-21.97265625,0.0
579.7109375,909.66796875,-20.01953125,-20.01953125,931.15234375,43.9453125,0.0
579.71484375,-916.50390625,-30.2734375,-21.97265625,-951.66015625,14.6484375,0.0
579.71875,242.67578125,-33.69140625,-19.04296875,74.21875,53.7109375,0.0
579.72265625,-976.5625,-31.73828125,-21.484375,-989.2578125,8.30078125,0.0
579.7265625,-1000.0,-25.390625,-32.2265625,-1000.0,-96.6796875,0.0
579.73046875,-991.2109375,-29.296875,-39.55078125,-918.9453125,-22.4609375,0.0
579.734375,295.8984375,-34.66796875,-46.875,437.98828125,-4.8828125,0.0
579.73828125,-895.5078125,-30.76171875,-49.31640625,-905.2734375,-27.34375,0.0
579.7421875,898.4375,-27.34375,-40.52734375,878.90625,-30.76171875,0.0
579.74609375,990.72265625,-24.4140625,-25.87890625,973.6328125,28.80859375,0.0
579.75,897.94921875,-25.390625,-15.625,908.69140625,68.359375,0.0
579.75390625,-939.94140625,-27.83203125,-17.578125,-940.4296875,54.6875,0.0
579.7578125,703.125,-26.3671875,-22.4609375,583.984375,14.6484375,0.0
579.76171875,-789.55078125,-30.76171875,-28.80859375,-818.84765625,-56.15234375,0.0
579.765625,-1000.0,-36.62109375,-30.76171875,-1000.0,-59.08203125,0.0
579.76953125,-1000.0,-37.59765625,-32.2265625,-1000.0,-94.23828125,0.0
579.7734375,-814.453125,-31.73828125,-33.69140625,-420.8984375,-196.2890625,0.0
579.77734375,674.31640625,-28.3203125,-34.1796875,835.44921875,-132.8125,0.0
579.78125,-934.5703125,-32.2265625,-30.76171875,-994.140625,-41.9921875,0.0
579.78515625,913.0859375,-32.2265625,-25.87890625,940.91796875,-79.58984375,0.0
579.7890625,926.7578125,-30.2734375,-20.99609375,917.96875,-55.6640625,0.0
579.79296875,-979.00390625,-27.34375,-18.5546875,-965.8203125,-11.71875,0.0
579.796875,857.91015625,-22.4609375,-26.3671875,800.29296875,-13.671875,0.0
579.80078125,-614.74609375,-27.34375,-36.62109375,-654.78515625,-22.94921875,0.0
579.8046875,-1000.0,-32.71484375,-42.48046875,-1000.0,-78.61328125,0.0
579.80859375,-1000.0,-39.0625,-35.15625,-995.1171875,-82.03125,0.0
579.8125,-813.4765625,-41.9921875,-24.90234375,-412.59765625,-52.734375,0.0
579.81640625,675.29296875,-36.62109375,-25.390625,851.07421875,-67.3828125,0.0
579.8203125,-934.08203125,-31.25,-40.52734375,-997.55859375,-111.328125,0.0
579.82421875,911.1328125,-24.4140625,-35.15625,938.96484375,-72.265625,0.0
579.828125,933.59375,-26.85546875,-31.73828125,926.7578125,-31.73828125,0.0
579.83203125,-997.0703125,-30.76171875,-44.921875,-990.72265625,68.84765625,0.0
579.8359375,911.1328125,-25.390625,-42.96875,893.06640625,105.46875,0.0
579.83984375,-525.87890625,-29.296875,-39.55078125,-547.36328125,63.96484375,0.0
579.84375,-1000.0,-39.55078125,-44.921875,-1000.0,-4.8828125,0.0
579.84765625,-980.46875,-41.9921875,-47.8515625,-996.09375,-16.11328125,0.0
579.8515625,-887.20703125,-35.64453125,-40.0390625,-736.81640625,45.8984375,0.0
579.85546875,505.859375,-30.76171875,-28.80859375,640.625,100.09765625,0.0
579.859375,-853.515625,-35.64453125,-25.87890625,-893.06640625,23.4375,0.0
579.86328125,759.765625,-41.015625,-32.71484375,479.4921875,-27.34375,0.0
579.8671875,-610.83984375,-39.0625,-33.203125,-744.140625,8.7890625,0.0
579.87109375,-1000.0,-35.64453125,-29.296875,-1000.0,-33.69140625,0.0
579.875,-942.87109375,-32.71484375,-23.92578125,-962.40234375,-48.828125,0.0
579.87890625,-958.984375,-26.85546875,-25.390625,-951.171875,-26.3671875,0.0
579.8828125,-1000.0,-25.87890625,-35.64453125,-1000.0,52.24609375,0.0
579.88671875,-888.671875,-31.25,-37.59765625,-808.59375,59.08203125,0.0
579.890625,567.87109375,-41.015625,-31.73828125,645.99609375,-2.44140625,0.0
579.89453125,-914.0625,-54.19921875,-31.73828125,-936.5234375,-67.87109375,0.0
579.8984375,892.578125,-48.828125,-41.50390625,916.50390625,-67.3828125,0.0
579.90234375,983.3984375,-27.83203125,-44.43359375,895.01953125,-88.8671875,0.0
579.90625,984.375,-24.90234375,-37.109375,848.6328125,-90.8203125,0.0
579.91015625,897.4609375,-27.83203125,-29.296875,913.0859375,15.13671875,0.0
579.9140625,-937.98828125,-29.78515625,-32.71484375,-936.03515625,-50.29296875,0.0
579.91796875,689.94140625,-33.69140625,-44.43359375,490.72265625,-161.62109375,0.0
579.921875,-773.92578125,-25.87890625,-50.78125,-838.8671875,-71.2890625,0.0
579.92578125,-1000.0,-22.94921875,-45.41015625,-1000.0,86.9140625,0.0
579.9296875,-1000.0,-31.73828125,-32.71484375,-976.07421875,113.76953125,0.0
579.93359375,-192.3828125,-35.15625,-27.34375,18.5546875,28.80859375,0.0
579.9375,-961.9140625,-40.52734375,-48.828125,-923.33984375,17.08984375,0.0
579.94140625,949.21875,-44.921875,-65.91796875,815.4296875,68.84765625,0.0
579.9453125,-414.0625,-40.52734375,-50.78125,-515.13671875,81.0546875,0.0
579.94921875,-1000.0,-41.9921875,-30.76171875,-1000.0,63.96484375,0.0
579.953125,-935.05859375,-40.52734375,-24.4140625,-944.82421875,23.92578125,0.0
579.95703125,-988.28125,-33.203125,-24.90234375,-977.05078125,-2.44140625,0.0
579.9609375,-974.609375,-33.69140625,-22.4609375,-999.51171875,49.8046875,0.0
579.96484375,-1000.0,-42.48046875,-19.53125,-1000.0,-4.39453125,0.0
579.96875,83.0078125,-40.52734375,-21.484375,238.28125,-29.78515625,0.0
579.97265625,-902.83203125,-34.66796875,-27.83203125,-913.57421875,37.109375,0.0
579.9765625,857.91015625,-40.0390625,-32.2265625,869.140625,17.578125,0.0
579.98046875,-975.5859375,-38.57421875,-41.50390625,-986.81640625,-29.296875,0.0
579.984375,821.77734375,-32.2265625,-42.96875,520.99609375,-46.38671875,0.0
579.98828125,-643.06640625,-31.73828125,-37.109375,-758.7890625,-62.01171875,0.0
579.9921875,-1000.0,-36.1328125,-37.59765625,-1000.0,-136.71875,0.0
579.99609375,-944.3359375,-41.50390625,-35.64453125,-952.63671875,-125.9765625,0.0
580.0,-945.80078125,-38.0859375,-33.69140625,-955.078125,-53.7109375,0.0
580.00390625,-1000.0,-34.66796875,-33.203125,-1000.0,24.90234375,0.0
580.0078125,-686.03515625,-39.0625,-37.59765625,-430.6640625,-28.80859375,0.0
580.01171875,783.69140625,-46.38671875,-49.31640625,888.671875,-143.5546875,0.0
580.015625,-958.984375,-42.96875,-49.31640625,-1000.0,-63.4765625,0.0
580.01953125,903.3203125,-32.71484375,-32.71484375,922.8515625,32.2265625,0.0
580.0234375,987.3046875,-24.4140625,-27.34375,986.328125,0.48828125,0.0
580.02734375,961.42578125,-20.99609375,-21.97265625,949.70703125,-10.25390625,0.0
580.03125,918.9453125,-28.80859375,-17.578125,942.87109375,108.88671875,0.0
580.03515625,-924.31640625,-33.203125,-20.5078125,-968.26171875,110.3515625,0.0
580.0390625,132.8125,-30.2734375,-29.78515625,-46.38671875,60.546875,0.0
580.04296875,-1000.0,-31.73828125,-41.50390625,-1000.0,74.70703125,0.0
580.046875,-985.3515625,-41.015625,-36.1328125,-973.6328125,-16.6015625,0.0
580.05078125,-975.5859375,-55.17578125,-25.390625,-980.95703125,-71.2890625,0.0
580.0546875,-1000.0,-56.640625,-25.87890625,-947.265625,-17.08984375,0.0
580.05859375,-951.171875,-42.96875,-36.1328125,-923.828125,29.78515625,0.0
580.0625,-1000.0,-35.64453125,-39.0625,-1000.0,8.7890625,0.0
580.06640625,-954.1015625,-36.1328125,-33.203125,-922.8515625,-19.53125,0.0
580.0703125,465.33203125,-33.203125,-36.1328125,463.37890625,-4.8828125,0.0
580.07421875,-967.7734375,-29.78515625,-32.2265625,-926.26953125,0.0,0.0
580.078125,-987.79296875,-32.71484375,-22.94921875,946.77734375,-40.52734375,0.0
580.08203125,396.97265625,-36.62109375,-28.80859375,-62.01171875,-101.5625,0.0
580.0859375,-963.8671875,-36.62109375,-33.203125,-1000.0,-114.2578125,0.0
580.08984375,-1000.0,-36.62109375,-29.296875,-966.796875,-63.4765625,0.0
580.09375,-956.54296875,-36.62109375,-24.4140625,-987.79296875,46.875,0.0
580.09765625,-1000.0,-37.109375,-26.85546875,-1000.0,90.33203125,0.0
580.1015625,-942.3828125,-34.66796875,-30.2734375,-943.84765625,38.57421875,0.0
580.10546875,-1000.0,-33.203125,-35.64453125,-1000.0,71.2890625,0.0
580.109375,-871.09375,-35.64453125,-41.9921875,-890.625,49.31640625,0.0
580.11328125,511.71875,-39.0625,-49.31640625,494.140625,-21.97265625,0.0
580.1171875,-859.375,-37.59765625,-49.31640625,-830.078125,19.53125,0.0
580.12109375,779.296875,-36.1328125,-38.0859375,443.359375,90.8203125,0.0
580.125,-587.40234375,-39.0625,-30.2734375,-813.4765625,71.2890625,0.0
580.12890625,-1000.0,-29.296875,-20.5078125,-1000.0,38.0859375,0.0
580.1328125,-926.26953125,-18.5546875,-17.578125,-949.21875,-9.27734375,0.0
580.13671875,-1000.0,-22.4609375,-28.3203125,-1000.0,-38.0859375,0.0
580.140625,-930.6640625,-28.3203125,-36.1328125,-942.3828125,-76.171875,0.0
580.14453125,-1000.0,-27.83203125,-32.2265625,-1000.0,-113.28125,0.0
580.1484375,-520.99609375,-21.97265625,-26.85546875,-410.15625,-65.4296875,0.0
580.15234375,883.7890625,-19.04296875,-24.4140625,902.34375,-56.640625,0.0
580.15625,-991.2109375,-28.80859375,-25.390625,999.0234375,-19.53125,0.0
580.16015625,915.52734375,-31.73828125,-31.25,923.33984375,32.71484375,0.0
580.1640625,988.76953125,-25.87890625,-30.76171875,923.33984375,-20.5078125,0.0
580.16796875,940.91796875,-20.01953125,-26.85546875,897.94921875,-48.33984375,0.0
580.171875,951.171875,-20.01953125,-24.4140625,986.81640625,-30.2734375,0.0
580.17578125,-966.30859375,-23.92578125,-18.06640625,969.7265625,-21.97265625,0.0
580.1796875,-197.75390625,-27.83203125,-26.85546875,-338.37890625,-22.94921875,0.0
580.18359375,-1000.0,-27.34375,-42.96875,-1000.0,-45.8984375,0.0
580.1875,-942.87109375,-20.01953125,-32.71484375,-936.5234375,-88.8671875,0.0
580.19140625,-999.0234375,-20.99609375,-14.6484375,-1000.0,-83.49609375,0.0
580.1953125,-1000.0,-25.87890625,-8.7890625,-1000.0,-35.15625,0.0
580.19921875,-942.87109375,-24.90234375,-18.06640625,-941.40625,-74.21875,0.0
580.203125,-1000.0,-22.4609375,-39.0625,-1000.0,-119.62890625,0.0
580.20703125,-891.11328125,-16.6015625,-40.52734375,-870.60546875,-71.77734375,0.0
580.2109375,564.453125,-15.13671875,-24.4140625,586.42578125,-53.22265625,0.0
580.21484375,-913.57421875,-22.4609375,-16.11328125,-917.48046875,-47.36328125,0.0
580.21875,892.578125,-25.390625,-20.99609375,894.53125,6.8359375,0.0
580.22265625,983.88671875,-26.3671875,-28.80859375,987.3046875,10.25390625,0.0
580.2265625,976.5625,-32.2265625,-25.87890625,962.40234375,2.9296875,0.0
580.23046875,899.90234375,-30.76171875,-20.5078125,923.828125,-21.484375,0.0
580.234375,-913.57421875,-28.3203125,-21.484375,-946.2890625,-12.20703125,0.0
580.23828125,422.8515625,-25.390625,-20.99609375,187.98828125,66.40625,0.0
580.2421875,-948.73046875,-23.4375,-18.5546875,-1000.0,71.77734375,0.0
580.24609375,-1000.0,-23.92578125,-18.06640625,-1000.0,-13.18359375,0.0
580.25,-953.61328125,-25.390625,-20.01953125,-969.7265625,-62.01171875,0.0
580.25390625,-1000.0,-27.83203125,-21.484375,-1000.0,-62.98828125,0.0
580.2578125,-958.0078125,-26.3671875,-25.390625,-951.171875,-72.265625,0.0
580.26171875,-1000.0,-23.4375,-29.78515625,-1000.0,15.13671875,0.0
580.265625,-996.09375,-29.296875,-25.87890625,-948.2421875,81.0546875,0.0
580.26953125,376.953125,-35.64453125,-31.73828125,462.890625,46.875,0.0
580.2734375,-896.97265625,-31.73828125,-41.50390625,-903.80859375,13.18359375,0.0
580.27734375,895.01953125,-21.97265625,-34.1796875,894.53125,-21.484375,0.0
580.28125,977.05078125,-21.97265625,-27.83203125,980.46875,19.53125,0.0
580.28515625,983.88671875,-24.90234375,-34.66796875,983.88671875,48.828125,0.0
580.2890625,909.1796875,-25.87890625,-34.1796875,906.73828125,-28.3203125,0.0
580.29296875,-977.5390625,-33.69140625,-25.390625,-962.40234375,-47.8515625,0.0
580.296875,852.05078125,-35.64453125,-22.4609375,766.11328125,-35.15625,0.0
580.30078125,-600.5859375,-29.78515625,-21.484375,-650.87890625,-62.5,0.0
580.3046875,-1000.0,-34.1796875,-36.62109375,-1000.0,-25.87890625,0.0
580.30859375,-1000.0,-35.64453125,-47.36328125,-966.30859375,30.2734375,0.0
580.3125,-236.81640625,-36.1328125,-41.9921875,97.65625,26.3671875,0.0
580.31640625,-1000.0,-41.50390625,-42.48046875,-949.21875,26.3671875,0.0
580.3203125,959.9609375,-36.1328125,-38.57421875,927.24609375,50.29296875,0.0
580.32421875,948.73046875,-28.80859375,-24.4140625,970.21484375,41.015625,0.0
580.328125,938.4765625,-30.76171875,-20.99609375,934.08203125,-27.34375,0.0
580.33203125,971.6796875,-30.76171875,-29.78515625,976.07421875,5.37109375,0.0
580.3359375,992.1875,-27.83203125,-29.78515625,976.07421875,111.81640625,0.0
580.33984375,-341.30859375,-30.76171875,-29.78515625,-344.23828125,-4.39453125,0.0
580.34375,-1000.0,-34.66796875,-36.1328125,-1000.0,-40.0390625,0.0
580.34765625,-931.640625,-37.109375,-30.2734375,-935.05859375,7.8125,0.0
580.3515625,-1000.0,-39.0625,-21.97265625,-1000.0,10.7421875,0.0
580.35546875,-1000.0,-37.109375,-25.390625,-1000.0,-12.6953125,0.0
580.359375,-941.40625,-34.66796875,-31.73828125,-937.98828125,-108.88671875,0.0
580.36328125,-1000.0,-33.69140625,-33.203125,-1000.0,-182.6171875,0.0
580.3671875,-875.9765625,-29.78515625,-35.64453125,-746.09375,-146.484375,0.0
580.37109375,584.47265625,-20.99609375,-33.69140625,693.84765625,-59.08203125,0.0
580.375,-916.9921875,-23.92578125,-29.78515625,-942.87109375,-1.46484375,0.0
580.37890625,893.06640625,-29.78515625,-23.4375,901.85546875,-64.94140625,0.0
580.3828125,985.83984375,-31.25,-22.4609375,989.2578125,-126.46484375,0.0
580.38671875,963.8671875,-36.1328125,-37.109375,952.1484375,-53.22265625,0.0
580.390625,916.015625,-38.57421875,-36.62109375,938.96484375,-33.69140625,0.0
580.39453125,-921.875,-33.203125,-29.78515625,-962.40234375,-107.91015625,0.0
580.3984375,164.0625,-27.83203125,-33.203125,-14.6484375,-136.71875,0.0
580.40234375,-1000.0,-25.87890625,-28.80859375,-1000.0,-102.05078125,0.0
580.40625,-948.73046875,-30.76171875,-25.390625,-963.37890625,-69.82421875,0.0
580.41015625,-1000.0,-32.71484375,-23.92578125,-1000.0,-106.4453125,0.0
580.4140625,-92.7734375,-29.296875,-23.92578125,109.375,-50.78125,0.0
580.41796875,-961.42578125,-28.80859375,-27.83203125,-954.1015625,11.71875,0.0
580.421875,940.91796875,-26.3671875,-31.73828125,929.6875,39.55078125,0.0
580.42578125,965.8203125,-22.94921875,-29.296875,970.703125,59.08203125,0.0
580.4296875,903.80859375,-23.4375,-22.94921875,909.1796875,-3.90625,0.0
580.43359375,-943.359375,-22.4609375,-21.484375,-939.94140625,-25.390625,0.0
580.4375,717.7734375,-26.3671875,-20.99609375,579.1015625,-26.85546875,0.0
580.44140625,-758.30078125,-33.203125,-34.1796875,-818.84765625,-49.31640625,0.0
580.4453125,-1000.0,-36.1328125,-50.78125,-1000.0,-17.08984375,0.0
580.44921875,-932.12890625,-36.1328125,-41.015625,-962.40234375,-33.69140625,0.0
580.453125,-1000.0,-41.50390625,-23.4375,-855.46875,0.0,0.0
580.45703125,-974.609375,-39.55078125,-24.90234375,-778.3203125,16.11328125,0.0
580.4609375,-983.3984375,-23.92578125,-31.25,-1000.0,-26.85546875,0.0
580.46484375,-1000.0,-25.390625,-29.296875,-997.0703125,52.734375,0.0
580.46875,160.15625,-28.3203125,-27.34375,337.40234375,6.34765625,0.0
580.47265625,-906.73828125,-26.3671875,-20.99609375,-906.25,-109.86328125,0.0
580.4765625,910.15625,-28.3203125,-13.671875,901.85546875,-87.40234375,0.0
580.48046875,965.33203125,-23.4375,-17.08984375,974.12109375,-52.734375,0.0
580.484375,984.375,-21.97265625,-30.76171875,984.375,-57.12890625,0.0
580.48828125,912.109375,-24.4140625,-33.69140625,912.59765625,-10.7421875,0.0
580.4921875,-985.3515625,-27.34375,-22.94921875,-983.3984375,72.75390625,0.0
580.49609375,877.44140625,-27.83203125,-17.578125,871.09375,70.80078125,0.0
580.5,-581.0546875,-29.296875,-20.01953125,-584.47265625,87.890625,0.0
580.50390625,-1000.0,-33.69140625,-22.94921875,-1000.0,94.7265625,0.0
580.5078125,-954.58984375,-33.203125,-21.484375,-976.07421875,17.08984375,0.0
580.51171875,-977.5390625,-28.3203125,-18.5546875,-864.2578125,-21.97265625,0.0
580.515625,441.40625,-29.78515625,-24.4140625,553.22265625,-47.36328125,0.0
580.51953125,-901.3671875,-34.1796875,-28.80859375,-922.8515625,-69.3359375,0.0
580.5234375,895.01953125,-33.69140625,-26.3671875,903.3203125,28.3203125,0.0
580.52734375,984.375,-35.15625,-30.76171875,975.5859375,12.20703125,0.0
580.53125,904.78515625,-34.1796875,-34.66796875,922.8515625,-14.6484375,0.0
580.53515625,-915.52734375,-31.25,-37.59765625,-943.84765625,-12.6953125,0.0
580.5390625,336.9140625,-27.34375,-34.66796875,187.5,20.99609375,0.0
580.54296875,-997.0703125,-24.4140625,-32.71484375,-992.67578125,19.53125,0.0
580.546875,-957.03125,-24.90234375,-29.78515625,-990.72265625,-110.3515625,0.0
580.55078125,-1000.0,-25.390625,-23.4375,-951.66015625,-24.4140625,0.0
580.5546875,-864.2578125,-28.3203125,-24.90234375,-504.39453125,119.140625,0.0
580.55859375,602.05078125,-29.78515625,-26.3671875,530.2734375,25.87890625,0.0
580.5625,-921.875,-28.3203125,-25.390625,-993.65234375,-150.390625,0.0
580.56640625,910.15625,-27.34375,-22.94921875,943.359375,-141.11328125,0.0
580.5703125,911.62109375,-28.80859375,-27.83203125,909.66796875,7.32421875,0.0
580.57421875,-921.38671875,-32.71484375,-44.43359375,-931.640625,-7.8125,0.0
580.578125,577.63671875,-35.64453125,-53.22265625,372.0703125,-20.99609375,0.0
580.58203125,-873.046875,-31.25,-40.52734375,-917.48046875,13.671875,0.0
580.5859375,-997.55859375,-27.34375,-30.76171875,-1000.0,-15.13671875,0.0
580.58984375,-1000.0,-33.203125,-30.76171875,-997.0703125,36.62109375,0.0
580.59375,-390.13671875,-43.45703125,-22.4609375,-127.44140625,91.796875,0.0
580.59765625,943.359375,-44.43359375,-19.53125,961.9140625,60.546875,0.0
580.6015625,984.86328125,-37.59765625,-19.04296875,964.35546875,-13.18359375,0.0
580.60546875,943.359375,-25.390625,-24.4140625,956.54296875,-73.73046875,0.0
580.609375,916.50390625,-20.99609375,-35.64453125,914.0625,-118.65234375,0.0
580.61328125,-964.84375,-21.484375,-35.15625,-952.63671875,16.11328125,0.0
580.6171875,807.12890625,-20.01953125,-28.3203125,698.2421875,70.3125,0.0
580.62109375,-660.15625,-27.34375,-30.2734375,-734.375,-33.203125,0.0
580.625,-1000.0,-32.2265625,-40.0390625,-1000.0,-6.8359375,0.0
580.62890625,-927.734375,-30.2734375,-38.57421875,-935.546875,3.41796875,0.0
580.6328125,-1000.0,-27.83203125,-39.55078125,-1000.0,-55.6640625,0.0
580.63671875,-978.02734375,-24.4140625,-42.96875,-967.7734375,-37.59765625,0.0
580.640625,-977.5390625,-23.92578125,-43.45703125,-999.51171875,25.390625,0.0
580.64453125,-1000.0,-29.78515625,-31.73828125,-1000.0,31.73828125,0.0
580.6484375,111.328125,-22.94921875,-12.6953125,240.72265625,53.22265625,0.0
580.65234375,-914.0625,-16.6015625,-14.6484375,-913.57421875,45.8984375,0.0
580.65625,915.0390625,-22.94921875,-24.90234375,909.1796875,76.66015625,0.0
580.66015625,962.40234375,-25.390625,-32.2265625,969.23828125,81.54296875,0.0
580.6640625,985.3515625,-24.90234375,-36.62109375,985.83984375,42.96875,0.0
580.66796875,909.66796875,-30.76171875,-37.59765625,906.73828125,4.8828125,0.0
580.671875,-979.00390625,-40.52734375,-38.57421875,-965.33203125,-7.8125,0.0
580.67578125,858.3984375,-36.62109375,-36.1328125,802.24609375,-22.94921875,0.0
580.6796875,-610.83984375,-33.69140625,-34.66796875,-667.96875,-61.03515625,0.0
580.68359375,-1000.0,-32.71484375,-34.1796875,-1000.0,-58.59375,0.0
580.6875,-950.1953125,-28.80859375,-29.296875,-972.65625,9.765625,0.0
580.69140625,-990.72265625,-25.390625,-27.83203125,-881.8359375,36.1328125,0.0
580.6953125,416.50390625,-26.85546875,-38.0859375,520.5078125,-64.453125,0.0
580.69921875,-899.90234375,-34.1796875,-41.9921875,-921.38671875,-80.078125,0.0
580.703125,902.83203125,-37.109375,-32.2265625,911.62109375,79.58984375,0.0
580.70703125,947.265625,-37.59765625,-28.3203125,940.4296875,44.43359375,0.0
580.7109375,959.47265625,-30.76171875,-23.4375,978.515625,-6.34765625,0.0
580.71484375,-981.93359375,-21.484375,-19.04296875,970.21484375,-95.703125,0.0
580.71875,-267.578125,-25.87890625,-29.78515625,-357.91015625,-93.26171875,0.0
580.72265625,-1000.0,-31.73828125,-42.48046875,-1000.0,-6.8359375,0.0
580.7265625,-936.03515625,-33.69140625,-34.66796875,-934.5703125,-27.34375,0.0
580.73046875,-1000.0,-38.0859375,-28.3203125,-1000.0,-76.66015625,0.0
580.734375,-1000.0,-36.62109375,-31.73828125,-1000.0,-73.2421875,0.0
580.73828125,-942.87109375,-34.1796875,-31.73828125,-939.453125,43.45703125,0.0
580.7421875,-1000.0,-35.15625,-33.203125,-1000.0,41.50390625,0.0
580.74609375,-891.11328125,-32.71484375,-34.66796875,-835.44921875,-12.6953125,0.0
580.75,564.453125,-32.2265625,-28.3203125,623.046875,22.4609375,0.0
580.75390625,-913.57421875,-31.25,-33.203125,-924.8046875,65.4296875,0.0
580.7578125,892.578125,-35.15625,-46.38671875,895.99609375,-20.99609375,0.0
580.76171875,983.3984375,-38.0859375,-44.921875,986.81640625,-118.65234375,0.0
580.765625,981.4453125,-43.45703125,-34.66796875,968.75,-199.21875,0.0
580.76953125,895.99609375,-47.8515625,-31.25,916.015625,-210.9375,0.0
580.7734375,-918.9453125,-42.96875,-30.76171875,-939.94140625,-166.015625,0.0
580.77734375,549.31640625,-42.96875,-23.92578125,312.98828125,-122.0703125,0.0
580.78125,-893.06640625,-45.8984375,-26.85546875,-951.66015625,-54.19921875,0.0
580.78515625,-1000.0,-51.26953125,-35.64453125,-1000.0,-84.9609375,0.0
580.7890625,-936.03515625,-60.05859375,-34.1796875,-946.77734375,-108.3984375,0.0
580.79296875,-1000.0,-59.5703125,-19.53125,-828.61328125,-66.89453125,0.0
580.796875,180.6640625,-49.8046875,-8.30078125,40.0390625,-38.0859375,0.0
580.80078125,-924.31640625,-38.0859375,-14.16015625,921.38671875,-36.62109375,0.0
580.8046875,931.640625,-33.203125,-20.01953125,988.76953125,-5.859375,0.0
580.80859375,903.3203125,-35.64453125,-16.11328125,879.8828125,20.99609375,0.0
580.8125,-965.8203125,-40.0390625,-20.5078125,-939.453125,10.7421875,0.0
580.81640625,819.3359375,-44.43359375,-29.296875,655.76171875,5.859375,0.0
580.8203125,-645.99609375,-46.38671875,-29.296875,-768.5546875,5.37109375,0.0
580.82421875,-1000.0,-37.59765625,-21.97265625,-1000.0,-30.2734375,0.0
580.828125,-927.24609375,-36.1328125,-19.53125,-937.98828125,-74.21875,0.0
580.83203125,-1000.0,-41.015625,-27.34375,-1000.0,-53.7109375,0.0
580.8359375,-1000.0,-32.71484375,-31.73828125,-1000.0,15.13671875,0.0
580.83984375,-975.5859375,-20.01953125,-18.5546875,-987.79296875,41.50390625,0.0
580.84375,-982.421875,-23.92578125,-13.671875,-965.33203125,16.11328125,0.0
580.84765625,-1000.0,-34.66796875,-20.01953125,-1000.0,-6.8359375,0.0
580.8515625,94.7265625,-41.9921875,-21.484375,-138.18359375,-24.4140625,0.0
580.85546875,-877.9296875,-40.52734375,-21.484375,-912.109375,40.52734375,0.0
580.859375,863.28125,-30.2734375,-21.97265625,745.1171875,83.984375,0.0
580.86328125,-500.9765625,-31.73828125,-30.2734375,-691.40625,49.8046875,0.0
580.8671875,-1000.0,-35.64453125,-25.87890625,-1000.0,-32.2265625,0.0
580.87109375,-926.26953125,-34.1796875,-9.765625,-932.12890625,8.30078125,0.0
580.875,-1000.0,-32.71484375,-8.7890625,-1000.0,69.3359375,0.0
580.87890625,-937.01171875,-30.2734375,-17.578125,-937.5,-20.99609375,0.0
580.8828125,-1000.0,-30.2734375,-22.4609375,-1000.0,-61.5234375,0.0
580.88671875,-825.1953125,-32.2265625,-21.97265625,-737.79296875,-6.34765625,0.0
580.890625,644.04296875,-33.203125,-21.97265625,700.1953125,-8.30078125,0.0
580.89453125,-927.734375,-31.73828125,-22.94921875,-944.3359375,13.18359375,0.0
580.8984375,895.5078125,-32.2265625,-14.16015625,902.34375,-4.39453125,0.0
580.90234375,988.76953125,-35.15625,-6.8359375,992.67578125,-48.828125,0.0
580.90625,951.66015625,-32.2265625,-10.7421875,936.03515625,10.25390625,0.0
580.91015625,933.59375,-26.85546875,-19.04296875,965.8203125,-22.4609375,0.0
580.9140625,-939.94140625,-28.3203125,-25.87890625,994.140625,-68.84765625,0.0
580.91796875,-35.64453125,-35.64453125,-25.87890625,-258.7890625,-38.0859375,0.0
580.921875,-1000.0,-37.109375,-23.92578125,-1000.0,-16.6015625,0.0
580.92578125,-961.9140625,-30.76171875,-23.4375,-958.0078125,0.9765625,0.0
580.9296875,-987.79296875,-27.83203125,-25.87890625,-985.3515625,-3.90625,0.0
580.93359375,-1000.0,-31.73828125,-30.76171875,-802.24609375,2.44140625,0.0
580.9375,-944.82421875,-41.50390625,-35.64453125,-854.98046875,23.92578125,0.0
580.94140625,-1000.0,-43.9453125,-31.25,-1000.0,4.39453125,0.0
580.9453125,-909.1796875,-31.73828125,-21.484375,-883.7890625,-18.5546875,0.0
580.94921875,536.62109375,-22.94921875,-25.390625,547.8515625,-32.2265625,0.0
580.953125,-910.15625,-26.85546875,-28.80859375,-912.109375,-70.80078125,0.0
580.95703125,892.578125,-26.85546875,-27.83203125,893.5546875,9.765625,0.0
580.9609375,982.421875,-34.1796875,-24.4140625,983.88671875,72.265625,0.0
580.96484375,983.88671875,-41.9921875,-24.90234375,981.4453125,9.27734375,0.0
580.96875,907.2265625,-34.66796875,-28.80859375,906.73828125,4.39453125,0.0
580.97265625,-971.6796875,-33.203125,-28.3203125,-955.56640625,50.78125,0.0
580.9765625,830.56640625,-31.73828125,-30.76171875,691.89453125,47.8515625,0.0
580.98046875,-643.06640625,-31.73828125,-49.8046875,-718.75,12.20703125,0.0
580.984375,-1000.0,-31.73828125,-50.29296875,-1000.0,30.2734375,0.0
580.98828125,-1000.0,-26.85546875,-26.3671875,-1000.0,69.82421875,0.0
580.9921875,-534.66796875,-22.94921875,-23.92578125,-191.89453125,58.10546875,0.0
580.99609375,882.8125,-25.390625,-32.71484375,975.5859375,40.52734375,0.0
581.0,-991.2109375,-27.83203125,-33.203125,944.3359375,3.90625,0.0
581.00390625,932.12890625,-24.90234375,-21.97265625,887.20703125,37.59765625,0.0
581.0078125,923.828125,-22.94921875,-13.18359375,908.69140625,-2.44140625,0.0
581.01171875,-978.515625,-26.3671875,-30.76171875,-959.9609375,-63.96484375,0.0
581.015625,858.3984375,-29.296875,-36.62109375,795.8984375,-18.06640625,0.0
581.01953125,-614.2578125,-23.92578125,-29.78515625,-660.64453125,16.6015625,0.0
581.0234375,-1000.0,-24.4140625,-38.0859375,-1000.0,-12.6953125,0.0
581.02734375,-985.83984375,-28.80859375,-38.0859375,-999.51171875,-80.078125,0.0
581.03125,-885.7421875,-31.25,-22.94921875,-558.59375,-108.88671875,0.0
581.03515625,591.30859375,-29.296875,-12.20703125,778.80859375,-96.19140625,0.0
581.0390625,-917.96875,-31.25,-14.16015625,-974.12109375,-40.0390625,0.0
581.04296875,898.4375,-31.73828125,-17.08984375,922.8515625,-67.3828125,0.0
581.046875,965.33203125,-28.80859375,-18.5546875,958.0078125,-50.78125,0.0
581.05078125,937.5,-26.85546875,-22.4609375,949.70703125,-11.23046875,0.0
581.0546875,-946.2890625,-31.25,-20.5078125,-977.05078125,-33.69140625,0.0
581.05859375,-83.49609375,-30.2734375,-21.97265625,-132.8125,-21.97265625,0.0
581.0625,-1000.0,-25.390625,-31.25,-1000.0,3.41796875,0.0
581.06640625,-939.94140625,-25.87890625,-35.64453125,-974.12109375,-56.15234375,0.0
581.0703125,-1000.0,-26.85546875,-42.96875,-964.84375,-134.765625,0.0
581.07421875,150.87890625,-23.4375,-41.015625,317.3828125,-62.98828125,0.0
581.078125,-910.15625,-23.92578125,-30.2734375,-923.828125,51.7578125,0.0
581.08203125,912.59765625,-25.87890625,-23.4375,913.0859375,-42.96875,0.0
581.0859375,971.6796875,-25.390625,-17.08984375,966.796875,-130.37109375,0.0
581.08984375,904.296875,-27.83203125,-20.01953125,924.31640625,-27.34375,0.0
581.09375,-914.55078125,-32.2265625,-22.94921875,-945.80078125,35.15625,0.0
581.09765625,374.51171875,-30.2734375,-19.04296875,208.49609375,79.1015625,0.0
581.1015625,-966.796875,-26.3671875,-23.4375,-987.79296875,76.66015625,0.0
581.10546875,-1000.0,-24.90234375,-31.73828125,-1000.0,-18.5546875,0.0
581.109375,-957.51953125,-19.53125,-29.78515625,-959.9609375,-7.32421875,0.0
581.11328125,-1000.0,-20.01953125,-27.83203125,-916.50390625,34.66796875,0.0
581.1171875,-956.0546875,-18.5546875,-38.57421875,-910.15625,-30.76171875,0.0
581.12109375,-1000.0,-20.5078125,-54.19921875,-1000.0,-38.0859375,0.0
581.125,-984.86328125,-29.78515625,-46.875,-937.01171875,-34.66796875,0.0
581.12890625,399.90234375,-32.2265625,-27.34375,468.75,-51.26953125,0.0
581.1328125,-897.94921875,-29.78515625,-20.5078125,-904.296875,-97.65625,0.0
581.13671875,894.53125,-29.296875,-21.97265625,894.53125,-109.375,0.0
581.140625,977.5390625,-31.25,-25.390625,980.95703125,6.34765625,0.0
581.14453125,983.88671875,-32.2265625,-28.80859375,982.91015625,42.48046875,0.0
581.1484375,908.69140625,-28.3203125,-29.296875,906.25,-18.5546875,0.0
581.15234375,-976.07421875,-25.87890625,-31.73828125,-957.51953125,-26.85546875,0.0
581.15625,848.14453125,-24.90234375,-37.59765625,734.375,6.8359375,0.0
581.16015625,-626.46484375,-27.83203125,-45.41015625,-697.265625,55.17578125,0.0
581.1640625,-1000.0,-36.62109375,-46.875,-1000.0,13.18359375,0.0
581.16796875,-1000.0,-40.52734375,-39.0625,-991.69921875,41.9921875,0.0
581.171875,-684.08203125,-34.66796875,-35.64453125,-266.6015625,125.9765625,0.0
581.17578125,792.96875,-24.4140625,-27.34375,916.50390625,55.17578125,0.0
581.1796875,-962.40234375,-25.390625,-27.34375,981.4453125,5.859375,0.0
581.18359375,920.8984375,-26.85546875,-28.80859375,949.70703125,67.87109375,0.0
581.1875,924.8046875,-20.5078125,-11.71875,916.015625,92.28515625,0.0
581.19140625,-974.12109375,-20.5078125,-8.30078125,-958.49609375,-20.5078125,0.0
581.1953125,841.796875,-30.2734375,-25.390625,753.90625,-75.1953125,0.0
581.19921875,-635.25390625,-31.25,-25.87890625,-704.58984375,-82.51953125,0.0
581.203125,-1000.0,-25.390625,-20.99609375,-1000.0,-99.12109375,0.0
581.20703125,-980.46875,-23.4375,-19.04296875,-1000.0,-78.61328125,0.0
581.2109375,-906.25,-24.4140625,-24.4140625,-704.1015625,-54.19921875,0.0
581.21484375,566.40625,-22.94921875,-34.1796875,698.73046875,-106.93359375,0.0
581.21875,-913.57421875,-24.4140625,-41.9921875,-950.1953125,-73.2421875,0.0
581.22265625,907.71484375,-35.15625,-37.59765625,921.38671875,-31.25,0.0
581.2265625,931.15234375,-37.59765625,-26.3671875,928.7109375,-41.015625,0.0
581.23046875,-993.1640625,-33.69140625,-23.92578125,-989.74609375,-28.3203125,0.0
581.234375,900.87890625,-27.34375,-30.2734375,890.13671875,-67.3828125,0.0
581.23828125,-538.0859375,-26.85546875,-37.59765625,-553.7109375,-83.984375,0.0
581.2421875,-1000.0,-25.87890625,-32.71484375,-1000.0,-3.90625,0.0
581.24609375,-932.12890625,-25.390625,-31.25,-958.49609375,7.32421875,0.0
581.25,-1000.0,-28.3203125,-27.83203125,-947.265625,-25.87890625,0.0
581.25390625,317.3828125,-27.83203125,-24.4140625,444.3359375,-35.64453125,0.0
581.2578125,-895.5078125,-33.69140625,-36.1328125,-911.62109375,-2.9296875,0.0
581.26171875,897.94921875,-37.109375,-36.1328125,901.3671875,47.36328125,0.0
581.265625,988.76953125,-33.203125,-30.2734375,983.3984375,57.12890625,0.0
581.26953125,895.99609375,-29.78515625,-33.203125,910.15625,26.85546875,0.0
581.2734375,-921.38671875,-29.296875,-34.1796875,-934.5703125,34.1796875,0.0
581.27734375,567.87109375,-32.71484375,-32.2265625,403.80859375,0.0,0.0
581.28125,-873.046875,-32.71484375,-33.69140625,-893.5546875,-64.453125,0.0
581.28515625,-1000.0,-34.66796875,-44.43359375,-1000.0,-75.1953125,0.0
581.2890625,-1000.0,-41.015625,-48.33984375,-990.234375,-33.69140625,0.0
581.29296875,-307.12890625,-40.0390625,-41.50390625,20.99609375,38.57421875,0.0
581.296875,975.09765625,-37.109375,-36.62109375,-979.00390625,35.15625,0.0
581.30078125,971.19140625,-49.8046875,-38.0859375,941.89453125,20.99609375,0.0
581.3046875,949.70703125,-55.17578125,-35.15625,959.9609375,-12.20703125,0.0
581.30859375,905.76171875,-42.48046875,-24.90234375,915.0390625,-9.27734375,0.0
581.3125,-930.6640625,-37.59765625,-33.203125,-936.5234375,-39.0625,0.0
581.31640625,647.94921875,-35.64453125,-41.9921875,447.75390625,-74.70703125,0.0
581.3203125,-833.984375,-34.66796875,-31.25,-880.859375,-55.6640625,0.0
581.32421875,-1000.0,-38.0859375,-23.92578125,-1000.0,-55.17578125,0.0
581.328125,-1000.0,-39.55078125,-32.71484375,-1000.0,0.0,0.0
581.33203125,-653.80859375,-43.9453125,-40.0390625,-235.3515625,-9.765625,0.0
581.3359375,808.59375,-45.41015625,-35.64453125,959.47265625,-25.87890625,0.0
581.33984375,-953.61328125,-47.36328125,-31.73828125,944.3359375,-20.99609375,0.0
581.34375,865.72265625,-41.9921875,-31.25,586.9140625,-35.15625,0.0
581.34765625,858.88671875,-27.83203125,-32.71484375,767.578125,-46.875,0.0
581.3515625,-973.14453125,-24.90234375,-32.71484375,-930.17578125,-24.90234375,0.0
581.35546875,874.0234375,-29.296875,-31.73828125,838.8671875,37.59765625,0.0
581.359375,-581.54296875,-29.78515625,-33.203125,-567.3828125,33.203125,0.0
581.36328125,-1000.0,-22.4609375,-39.0625,-1000.0,19.53125,0.0
581.3671875,-1000.0,-17.08984375,-41.9921875,-996.09375,-19.53125,0.0
581.37109375,-540.0390625,-21.484375,-46.38671875,-200.68359375,-10.25390625,0.0
581.375,879.8828125,-30.76171875,-50.78125,977.05078125,-42.96875,0.0
581.37890625,-990.234375,-28.80859375,-40.52734375,954.58984375,-84.9609375,0.0
581.3828125,931.640625,-22.4609375,-31.25,844.23828125,-17.08984375,0.0
581.38671875,923.828125,-24.90234375,-35.15625,881.34765625,-27.34375,0.0
581.390625,-979.00390625,-29.296875,-48.33984375,-961.9140625,-82.03125,0.0
581.39453125,858.3984375,-25.87890625,-45.41015625,844.23828125,-25.87890625,0.0
581.3984375,-608.88671875,-27.83203125,-41.50390625,-611.328125,-30.76171875,0.0
581.40234375,-1000.0,-28.80859375,-47.36328125,-1000.0,-124.0234375,0.0
581.40625,-942.3828125,-28.3203125,-45.8984375,-960.9375,-68.84765625,0.0
581.41015625,-1000.0,-31.25,-41.015625,-911.62109375,-8.30078125,0.0
581.4140625,375.48828125,-32.2265625,-36.1328125,462.890625,-97.16796875,0.0
581.41796875,-897.94921875,-40.52734375,-29.296875,-917.96875,-19.04296875,0.0
581.421875,898.92578125,-45.8984375,-32.71484375,893.5546875,-24.4140625,0.0
581.42578125,967.7734375,-30.76171875,-32.2265625,948.2421875,-63.4765625,0.0
581.4296875,923.33984375,-20.01953125,-29.78515625,945.3125,61.03515625,0.0
581.43359375,-927.734375,-24.4140625,-28.3203125,-966.796875,31.73828125,0.0
581.4375,62.01171875,-26.85546875,-27.83203125,-58.10546875,-20.5078125,0.0
581.44140625,-1000.0,-25.390625,-41.015625,-1000.0,19.04296875,0.0
581.4453125,-986.328125,-27.34375,-42.96875,-1000.0,82.51953125,0.0
581.44921875,-990.234375,-30.2734375,-36.1328125,-918.45703125,108.3984375,0.0
581.453125,335.44921875,-35.15625,-27.83203125,458.984375,92.28515625,0.0
581.45703125,-895.99609375,-41.50390625,-22.4609375,-909.1796875,57.12890625,0.0
581.4609375,896.97265625,-50.78125,-23.92578125,899.4140625,40.0390625,0.0
581.46484375,990.72265625,-42.96875,-23.92578125,982.91015625,14.16015625,0.0
581.46875,895.5078125,-36.1328125,-23.92578125,912.109375,21.484375,0.0
581.47265625,-922.36328125,-32.2265625,-22.4609375,-934.08203125,11.23046875,0.0
581.4765625,588.8671875,-39.0625,-29.296875,368.65234375,36.1328125,0.0
581.48046875,-877.9296875,-51.7578125,-45.41015625,-937.98828125,-5.859375,0.0
581.484375,-1000.0,-43.45703125,-46.38671875,-985.3515625,-64.94140625,0.0
581.48828125,-996.09375,-40.0390625,-48.828125,-1000.0,-104.00390625,0.0
581.4921875,-904.296875,-40.0390625,-47.36328125,-657.71484375,-205.56640625,0.0
581.49609375,568.359375,-35.64453125,-33.203125,656.73828125,-186.5234375,0.0
581.5,-914.0625,-41.9921875,-20.99609375,-953.125,-61.03515625,0.0
581.50390625,909.1796875,-45.41015625,-15.13671875,927.24609375,4.39453125,0.0
581.5078125,924.8046875,-44.43359375,-21.97265625,917.48046875,-38.0859375,0.0
581.51171875,-977.5390625,-35.15625,-20.99609375,-959.9609375,-46.875,0.0
581.515625,853.515625,-28.80859375,-19.53125,759.765625,15.625,0.0
581.51953125,-603.515625,-38.0859375,-23.4375,-686.03515625,-39.0625,0.0
581.5234375,-1000.0,-45.8984375,-31.25,-1000.0,-27.34375,0.0
581.52734375,-925.78125,-45.8984375,-31.73828125,-952.63671875,90.8203125,0.0
581.53125,-1000.0,-44.43359375,-36.62109375,-858.88671875,2.44140625,0.0
581.53515625,-1000.0,-37.59765625,-40.52734375,-818.359375,-20.5078125,0.0
581.5390625,-929.19921875,-29.296875,-37.59765625,-959.47265625,76.171875,0.0
581.54296875,-1000.0,-31.73828125,-38.57421875,-1000.0,98.14453125,0.0
581.546875,-562.01171875,-32.71484375,-30.76171875,-358.3984375,61.5234375,0.0
581.55078125,794.43359375,-31.73828125,-30.2734375,850.5859375,-18.5546875,0.0
581.5546875,-921.38671875,-31.73828125,-37.109375,-924.31640625,-104.4921875,0.0
581.55859375,784.1796875,-33.69140625,-36.62109375,575.68359375,-173.828125,0.0
581.5625,-604.98046875,-45.8984375,-33.69140625,-771.97265625,-236.328125,0.0
581.56640625,-1000.0,-41.9921875,-30.2734375,-1000.0,-205.078125,0.0
581.5703125,-926.26953125,-28.3203125,-31.25,-940.91796875,-128.41796875,0.0
581.57421875,-1000.0,-26.3671875,-27.83203125,-1000.0,-66.89453125,0.0
581.578125,-963.8671875,-24.90234375,-28.80859375,-981.4453125,-52.24609375,0.0
581.58203125,-1000.0,-24.4140625,-30.76171875,-974.609375,-83.984375,0.0
581.5859375,-1000.0,-27.34375,-28.80859375,-1000.0,-22.94921875,0.0
581.58984375,265.13671875,-22.94921875,-25.390625,-22.4609375,48.828125,0.0
581.59375,-879.39453125,-22.94921875,-24.90234375,-891.11328125,93.75,0.0
581.59765625,790.52734375,-25.390625,-24.4140625,696.77734375,36.1328125,0.0
581.6015625,-445.80078125,-24.90234375,-28.3203125,-666.015625,-75.68359375,0.0
581.60546875,-1000.0,-25.390625,-30.76171875,-1000.0,-45.8984375,0.0
581.609375,-936.03515625,-27.83203125,-19.53125,-931.640625,46.38671875,0.0
581.61328125,-1000.0,-30.76171875,-17.578125,-1000.0,-19.53125,0.0
581.6171875,-942.87109375,-26.3671875,-25.390625,-942.3828125,-80.56640625,0.0
581.62109375,-1000.0,-28.80859375,-33.69140625,-1000.0,-12.6953125,0.0
581.625,-891.11328125,-30.76171875,-35.15625,-876.953125,30.76171875,0.0
581.62890625,576.171875,-23.92578125,-34.1796875,589.84375,12.20703125,0.0
581.6328125,-955.078125,-24.4140625,-32.2265625,-963.37890625,59.08203125,0.0
581.63671875,906.73828125,-27.34375,-24.90234375,937.01171875,70.3125,0.0
581.640625,982.421875,-23.92578125,-18.5546875,790.52734375,31.73828125,0.0
581.64453125,-395.99609375,-29.78515625,-21.97265625,-586.9140625,64.453125,0.0
581.6484375,-1000.0,-38.0859375,-29.78515625,-1000.0,112.79296875,0.0
581.65234375,-937.5,-35.64453125,-31.25,-867.67578125,76.171875,0.0
581.65625,-978.515625,-38.57421875,-24.4140625,-945.3125,41.50390625,0.0
581.66015625,-991.69921875,-45.8984375,-30.2734375,-1000.0,6.8359375,0.0
581.6640625,-1000.0,-39.0625,-35.64453125,-1000.0,-43.9453125,0.0
581.66796875,225.5859375,-27.83203125,-31.73828125,301.7578125,-12.20703125,0.0
581.671875,-897.4609375,-32.2265625,-38.0859375,-916.015625,-90.33203125,0.0
581.67578125,903.3203125,-33.69140625,-37.109375,921.38671875,-102.5390625,0.0
581.6796875,969.7265625,-29.78515625,-26.3671875,941.89453125,-50.29296875,0.0
581.68359375,983.88671875,-37.109375,-21.97265625,796.38671875,-85.44921875,0.0
581.6875,909.66796875,-34.66796875,-19.53125,856.93359375,-83.49609375,0.0
581.69140625,-978.515625,-23.4375,-18.5546875,-947.265625,38.0859375,0.0
581.6953125,858.3984375,-21.97265625,-28.3203125,808.10546875,37.59765625,0.0
581.69921875,-613.76953125,-25.87890625,-34.1796875,-642.08984375,48.33984375,0.0
581.703125,-1000.0,-30.2734375,-34.1796875,-1000.0,68.84765625,0.0
581.70703125,-978.02734375,-35.64453125,-27.83203125,-985.83984375,95.21484375,0.0
581.7109375,-913.0859375,-37.109375,-22.4609375,-747.55859375,103.02734375,0.0
581.71484375,555.6640625,-32.71484375,-26.3671875,643.06640625,18.5546875,0.0
581.71875,-912.59765625,-38.57421875,-34.66796875,-941.89453125,-15.625,0.0
581.72265625,908.69140625,-39.0625,-24.4140625,921.38671875,-50.29296875,0.0
581.7265625,926.26953125,-27.83203125,-16.11328125,923.33984375,-27.34375,0.0
581.73046875,-981.93359375,-17.08984375,-30.76171875,-977.5390625,25.390625,0.0
581.734375,867.1875,-20.01953125,-30.2734375,852.05078125,-4.8828125,0.0
581.73828125,-600.09765625,-39.0625,-27.83203125,-607.91015625,-72.265625,0.0
581.7421875,-1000.0,-41.50390625,-26.85546875,-1000.0,-129.8828125,0.0
581.74609375,-983.3984375,-32.71484375,-20.01953125,-996.58203125,-46.38671875,0.0
581.75,-879.8828125,-32.2265625,-24.4140625,-645.99609375,-21.484375,0.0
581.75390625,511.71875,-26.85546875,-28.80859375,703.61328125,-40.0390625,0.0
581.7578125,-811.03515625,-27.83203125,-29.78515625,-908.203125,-15.13671875,0.0
581.76171875,488.28125,-30.2734375,-21.484375,222.16796875,-128.41796875,0.0
581.765625,-845.21484375,-29.296875,-11.23046875,-944.82421875,-232.421875,0.0
581.76953125,-1000.0,-28.3203125,-14.6484375,-999.0234375,-223.6328125,0.0
581.7734375,151.85546875,-19.53125,-26.3671875,327.63671875,-176.7578125,0.0
581.77734375,-936.03515625,-18.06640625,-28.3203125,-937.5,-113.76953125,0.0
581.78125,917.96875,-26.85546875,-25.390625,912.59765625,-95.21484375,0.0
581.78515625,978.515625,-26.3671875,-28.80859375,981.93359375,-184.5703125,0.0
581.7890625,902.34375,-25.87890625,-24.90234375,908.203125,-117.1875,0.0
581.79296875,-947.75390625,-32.71484375,-25.87890625,-947.75390625,110.83984375,0.0
581.796875,723.14453125,-34.1796875,-30.76171875,617.1875,159.66796875,0.0
581.80078125,-680.17578125,-35.64453125,-34.1796875,-717.28515625,115.234375,0.0
581.8046875,-1000.0,-30.76171875,-41.015625,-1000.0,117.67578125,0.0
581.80859375,-827.1484375,-16.6015625,-39.55078125,-749.0234375,103.02734375,0.0
581.8125,538.57421875,-13.671875,-33.203125,623.046875,50.78125,0.0
581.81640625,-912.59765625,-19.53125,-35.15625,-930.17578125,19.53125,0.0
581.8203125,892.578125,-19.53125,-29.78515625,899.4140625,62.01171875,0.0
581.82421875,999.0234375,-27.34375,-22.94921875,991.2109375,61.5234375,0.0
581.828125,895.99609375,-36.1328125,-24.90234375,908.69140625,39.0625,0.0
581.83203125,-926.7578125,-37.109375,-23.4375,-937.5,-88.8671875,0.0
581.8359375,618.1640625,-36.1328125,-26.85546875,460.44921875,-118.1640625,0.0
581.83984375,-853.02734375,-35.15625,-33.203125,-871.09375,-58.10546875,0.0
581.84375,-996.58203125,-36.1328125,-32.2265625,-1000.0,-10.7421875,0.0
581.84765625,-1000.0,-32.2265625,-24.4140625,-999.0234375,84.47265625,0.0
581.8515625,-585.44921875,-26.3671875,-21.97265625,-184.5703125,22.94921875,0.0
581.85546875,854.00390625,-25.87890625,-33.69140625,979.4921875,1.46484375,0.0
581.859375,-972.16796875,-29.78515625,-37.59765625,934.5703125,68.359375,0.0
581.86328125,894.53125,-39.0625,-28.80859375,570.3125,34.66796875,0.0
581.8671875,880.859375,-38.57421875,-22.94921875,750.0,41.50390625,0.0
581.87109375,-971.6796875,-33.203125,-21.97265625,-922.8515625,107.91015625,0.0
581.875,856.93359375,-33.203125,-22.4609375,822.75390625,119.62890625,0.0
581.87890625,-614.2578125,-36.62109375,-20.5078125,-590.8203125,-6.8359375,0.0
581.8828125,-1000.0,-31.73828125,-24.4140625,-1000.0,-83.0078125,0.0
581.88671875,-1000.0,-22.4609375,-31.25,-988.28125,18.06640625,0.0
581.890625,-645.5078125,-27.34375,-23.92578125,-217.7734375,62.01171875,0.0
581.89453125,749.51171875,-35.64453125,-17.578125,922.36328125,95.21484375,0.0
581.8984375,-852.5390625,-29.296875,-26.85546875,-977.5390625,55.6640625,0.0
581.90234375,354.98046875,-23.92578125,-27.34375,145.01953125,-10.7421875,0.0
581.90625,-929.19921875,-35.15625,-23.4375,-961.42578125,-35.15625,0.0
581.91015625,-1000.0,-37.59765625,-27.34375,-1000.0,-29.296875,0.0
581.9140625,-971.19140625,-31.73828125,-33.69140625,-962.890625,-42.48046875,0.0
581.91796875,-941.89453125,-24.90234375,-34.1796875,-954.58984375,-71.77734375,0.0
581.921875,-1000.0,-18.06640625,-27.34375,-1000.0,-15.625,0.0
581.92578125,-681.15234375,-18.06640625,-20.01953125,-398.92578125,-19.53125,0.0
581.9296875,787.59765625,-22.94921875,-16.6015625,904.78515625,-34.66796875,0.0
581.93359375,-959.9609375,-21.484375,-17.08984375,994.62890625,-31.73828125,0.0
581.9375,903.80859375,-23.92578125,-19.53125,925.29296875,-99.609375,0.0
581.94140625,986.328125,-31.25,-14.16015625,984.375,-150.390625,0.0
581.9453125,966.30859375,-31.25,-15.13671875,956.54296875,-126.953125,0.0
581.94921875,911.62109375,-29.296875,-26.3671875,932.6171875,-77.1484375,0.0
581.953125,-917.96875,-28.3203125,-26.3671875,-955.56640625,-12.6953125,0.0
581.95703125,211.42578125,-30.76171875,-22.94921875,56.15234375,-4.39453125,0.0
581.9609375,-980.46875,-31.73828125,-27.34375,-990.72265625,42.96875,0.0
581.96484375,-1000.0,-29.296875,-31.25,-1000.0,62.98828125,0.0
581.96875,-962.40234375,-28.80859375,-32.2265625,-907.2265625,20.99609375,0.0
581.97265625,370.60546875,-24.4140625,-25.87890625,465.8203125,-60.546875,0.0
581.9765625,-897.4609375,-16.11328125,-20.01953125,-909.1796875,-126.46484375,0.0
581.98046875,895.5078125,-15.625,-30.2734375,897.94921875,-47.8515625,0.0
581.984375,994.140625,-19.53125,-32.2265625,990.234375,2.9296875,0.0
581.98828125,896.97265625,-23.92578125,-24.4140625,905.76171875,26.85546875,0.0
581.9921875,-936.03515625,-28.80859375,-28.80859375,-938.4765625,4.39453125,0.0
581.99609375,685.05859375,-30.2734375,-32.2265625,542.96875,5.859375,0.0
582.0,-806.15234375,-30.76171875,-26.85546875,-839.84375,-9.765625,0.0
582.00390625,-1000.0,-28.80859375,-24.90234375,-1000.0,-9.765625,0.0
582.0078125,-1000.0,-30.76171875,-23.4375,-1000.0,-48.33984375,0.0
582.01171875,-731.93359375,-30.76171875,-22.94921875,-413.0859375,-79.1015625,0.0
582.015625,752.44140625,-30.2734375,-38.0859375,843.26171875,-55.6640625,0.0
582.01953125,-952.1484375,-35.15625,-39.55078125,-995.1171875,-89.84375,0.0
582.0234375,917.96875,-38.57421875,-29.296875,940.91796875,-136.71875,0.0
582.02734375,926.26953125,-41.9921875,-22.4609375,918.45703125,-111.328125,0.0
582.03125,-978.02734375,-41.015625,-25.87890625,-966.796875,-145.01953125,0.0
582.03515625,854.00390625,-36.62109375,-34.1796875,803.22265625,-179.19921875,0.0
582.0390625,-615.72265625,-35.64453125,-35.64453125,-638.671875,-155.2734375,0.0
582.04296875,-1000.0,-35.15625,-30.76171875,-1000.0,-111.328125,0.0
582.046875,-1000.0,-33.69140625,-28.3203125,-988.76953125,-62.5,0.0
582.05078125,-556.640625,-29.296875,-34.1796875,-151.3671875,7.8125,0.0
582.0546875,797.36328125,-32.71484375,-35.15625,932.6171875,19.04296875,0.0
582.05859375,-898.4375,-35.15625,-27.34375,-987.3046875,-12.6953125,0.0
582.0625,662.109375,-31.25,-25.87890625,478.02734375,-62.5,0.0
582.06640625,-730.95703125,-34.1796875,-26.85546875,-776.3671875,-28.80859375,0.0
582.0703125,-1000.0,-34.66796875,-29.296875,-1000.0,-32.71484375,0.0
582.07421875,-947.75390625,-34.1796875,-32.2265625,-946.2890625,-63.4765625,0.0
582.078125,-945.3125,-32.2265625,-32.2265625,-963.37890625,43.9453125,0.0
582.08203125,-1000.0,-31.25,-27.83203125,-1000.0,138.18359375,0.0
582.0859375,-596.6796875,-31.73828125,-28.3203125,-281.25,119.62890625,0.0
582.08984375,845.21484375,-26.3671875,-35.64453125,951.66015625,122.0703125,0.0
582.09375,-977.05078125,-34.1796875,-42.48046875,976.5625,92.7734375,0.0
582.09765625,909.66796875,-37.109375,-36.1328125,933.59375,56.15234375,0.0
582.1015625,986.81640625,-24.90234375,-23.4375,984.375,127.44140625,0.0
582.10546875,957.03125,-24.90234375,-28.80859375,943.84765625,63.96484375,0.0
582.109375,925.29296875,-34.66796875,-34.66796875,951.171875,-69.82421875,0.0
582.11328125,-930.6640625,-42.48046875,-31.25,-977.05078125,28.3203125,0.0
582.1171875,52.734375,-45.41015625,-33.203125,-152.34375,59.5703125,0.0
582.12109375,-1000.0,-41.50390625,-34.1796875,-1000.0,30.2734375,0.0
582.125,-915.0390625,-32.71484375,-28.3203125,-935.546875,73.2421875,0.0
582.12890625,-1000.0,-28.3203125,-28.80859375,-1000.0,15.625,0.0
582.1328125,-332.51953125,-23.4375,-27.83203125,-64.453125,-15.13671875,0.0
582.13671875,959.9609375,-20.99609375,-21.484375,973.14453125,-6.34765625,0.0
582.140625,977.5390625,-24.90234375,-23.92578125,961.42578125,8.30078125,0.0
582.14453125,943.359375,-25.390625,-22.4609375,948.2421875,42.48046875,0.0
582.1484375,907.2265625,-23.92578125,-19.04296875,919.921875,15.625,0.0
582.15234375,-918.45703125,-25.87890625,-29.296875,-933.59375,-5.37109375,0.0
582.15625,525.87890625,-27.34375,-30.76171875,346.19140625,-36.62109375,0.0
582.16015625,-911.1328125,-21.97265625,-26.85546875,-932.6171875,-41.9921875,0.0
582.1640625,-979.4921875,-17.08984375,-26.85546875,-999.0234375,-17.08984375,0.0
582.16796875,-1000.0,-18.06640625,-25.87890625,-990.234375,1.953125,0.0
582.171875,-636.71875,-20.01953125,-36.62109375,-217.7734375,2.44140625,0.0
582.17578125,819.82421875,-24.4140625,-43.45703125,906.73828125,39.55078125,0.0
582.1796875,-971.19140625,-32.2265625,-42.96875,981.93359375,41.9921875,0.0
582.18359375,925.29296875,-32.2265625,-35.15625,949.21875,23.4375,0.0
582.1875,919.43359375,-28.80859375,-27.83203125,915.52734375,-17.578125,0.0
582.19140625,-959.47265625,-23.92578125,-33.69140625,-949.70703125,106.4453125,0.0
582.1953125,786.1328125,-22.4609375,-34.1796875,656.25,125.0,0.0
582.19921875,-701.66015625,-30.76171875,-22.4609375,-764.16015625,29.296875,0.0
582.203125,-1000.0,-34.1796875,-19.53125,-1000.0,63.96484375,0.0
582.20703125,-1000.0,-26.3671875,-21.97265625,-1000.0,56.15234375,0.0
582.2109375,-792.96875,-34.66796875,-25.390625,-505.859375,36.1328125,0.0
582.21484375,626.46484375,-47.36328125,-31.25,794.43359375,18.5546875,0.0
582.21875,-889.6484375,-37.109375,-25.87890625,997.55859375,-57.6171875,0.0
582.22265625,809.08203125,-26.85546875,-20.5078125,512.20703125,-92.28515625,0.0
582.2265625,-541.015625,-26.85546875,-32.2265625,-454.58984375,-100.5859375,0.0
582.23046875,-1000.0,-30.76171875,-42.96875,-1000.0,-147.94921875,0.0
582.234375,-943.84765625,-27.83203125,-37.59765625,-977.05078125,-118.1640625,0.0
582.23828125,-943.84765625,-24.90234375,-37.59765625,-938.96484375,-130.37109375,0.0
582.2421875,-1000.0,-28.3203125,-38.0859375,-1000.0,-70.80078125,0.0
582.24609375,-699.21875,-28.3203125,-35.64453125,-426.7578125,25.87890625,0.0
582.25,774.90234375,-24.4140625,-26.85546875,890.13671875,41.9921875,0.0
582.25390625,-956.0546875,-28.80859375,-15.13671875,999.51171875,-27.34375,0.0
582.2578125,902.34375,-40.52734375,-11.71875,923.33984375,-117.1875,0.0
582.26171875,995.60546875,-44.43359375,-20.5078125,992.67578125,-105.95703125,0.0
582.265625,928.22265625,-37.59765625,-24.4140625,923.33984375,-91.30859375,0.0
582.26953125,975.5859375,-30.2734375,-20.99609375,990.234375,-117.67578125,0.0
582.2734375,981.93359375,-33.69140625,-23.92578125,944.3359375,-104.00390625,0.0
582.27734375,-367.67578125,-34.66796875,-33.69140625,-438.4765625,-41.50390625,0.0
582.28125,-1000.0,-36.62109375,-36.62109375,-1000.0,-9.765625,0.0
582.28515625,-866.69921875,-41.9921875,-28.3203125,-898.92578125,-4.39453125,0.0
582.2890625,-1000.0,-36.1328125,-29.78515625,-1000.0,-11.23046875,0.0
582.29296875,-422.36328125,-22.94921875,-21.484375,-240.234375,-27.34375,0.0
582.296875,919.921875,-20.01953125,-14.16015625,903.80859375,-26.3671875,0.0
582.30078125,993.1640625,-21.97265625,-19.53125,985.3515625,13.671875,0.0
582.3046875,939.453125,-25.87890625,-26.3671875,948.2421875,25.390625,0.0
582.30859375,920.41015625,-31.73828125,-25.87890625,916.9921875,24.4140625,0.0
582.3125,-974.12109375,-26.85546875,-18.5546875,-958.984375,-10.7421875,0.0
582.31640625,841.30859375,-27.34375,-22.4609375,742.67578125,1.953125,0.0
582.3203125,-619.140625,-39.55078125,-34.66796875,-698.73046875,59.08203125,0.0
582.32421875,-1000.0,-40.0390625,-29.78515625,-1000.0,58.59375,0.0
582.328125,-926.26953125,-33.203125,-27.34375,-932.6171875,-5.37109375,0.0
582.33203125,-1000.0,-31.73828125,-25.87890625,-1000.0,-17.578125,0.0
582.3359375,-1000.0,-34.66796875,-21.484375,-1000.0,15.13671875,0.0
582.33984375,-930.17578125,-37.109375,-33.69140625,-943.84765625,-66.89453125,0.0
582.34375,-1000.0,-35.15625,-42.48046875,-1000.0,-41.9921875,0.0
582.34765625,-562.98828125,-25.390625,-33.69140625,-464.35546875,49.31640625,0.0
582.3515625,826.66015625,-25.390625,-24.90234375,901.85546875,87.890625,0.0
582.35546875,-883.7890625,-22.4609375,-19.53125,996.58203125,39.55078125,0.0
582.359375,-24.4140625,-24.4140625,-17.08984375,-410.64453125,-10.7421875,0.0
582.36328125,-1000.0,-33.203125,-23.92578125,-1000.0,-44.43359375,0.0
582.3671875,-970.21484375,-25.390625,-30.76171875,-934.5703125,-75.1953125,0.0
582.37109375,-983.3984375,-23.4375,-27.83203125,-1000.0,-124.0234375,0.0
582.375,-1000.0,-32.71484375,-35.15625,-1000.0,-128.41796875,0.0
582.37890625,-942.87109375,-25.390625,-43.9453125,-946.77734375,-63.4765625,0.0
582.3828125,-1000.0,-24.4140625,-42.48046875,-1000.0,-68.84765625,0.0
582.38671875,-878.41796875,-35.15625,-36.62109375,-906.25,-73.73046875,0.0
582.390625,518.5546875,-31.25,-24.90234375,456.0546875,16.6015625,0.0
582.39453125,-888.671875,-20.99609375,-23.4375,-842.28515625,-42.48046875,0.0
582.3984375,866.2109375,-20.01953125,-27.34375,698.2421875,-87.890625,0.0
582.40234375,-437.01171875,-22.4609375,-22.4609375,-646.97265625,-81.0546875,0.0
582.40625,-1000.0,-18.5546875,-15.625,-1000.0,-47.8515625,0.0
582.41015625,-927.734375,-16.11328125,-22.94921875,-933.10546875,-38.0859375,0.0
582.4140625,-1000.0,-21.484375,-32.71484375,-1000.0,-120.1171875,0.0
582.41796875,-928.7109375,-20.01953125,-29.78515625,-939.453125,-142.578125,0.0
582.421875,-1000.0,-18.5546875,-28.80859375,-1000.0,-23.4375,0.0
582.42578125,-629.8828125,-17.08984375,-27.83203125,-498.046875,39.55078125,0.0
582.4296875,822.265625,-10.7421875,-31.73828125,853.515625,95.703125,0.0
582.43359375,-970.21484375,-14.16015625,-37.59765625,-981.93359375,146.97265625,0.0
582.4375,907.2265625,-17.578125,-30.2734375,913.0859375,83.49609375,0.0
582.44140625,999.51171875,-14.16015625,-19.04296875,860.3515625,49.31640625,0.0
582.4453125,911.1328125,-19.53125,-15.625,846.19140625,73.73046875,0.0
582.44921875,-983.3984375,-27.83203125,-20.01953125,-954.58984375,61.03515625,0.0
582.453125,871.58203125,-30.76171875,-22.94921875,837.890625,-42.96875,0.0
582.45703125,-576.66015625,-30.76171875,-29.296875,-605.95703125,-139.16015625,0.0
582.4609375,-1000.0,-26.3671875,-29.296875,-1000.0,-119.140625,0.0
582.46484375,-925.78125,-27.34375,-25.87890625,-926.7578125,-89.84375,0.0
582.46875,-1000.0,-27.34375,-22.94921875,-1000.0,-136.71875,0.0
582.47265625,-1000.0,-31.73828125,-21.484375,-1000.0,-173.828125,0.0
582.4765625,-941.89453125,-34.1796875,-24.4140625,-938.4765625,-175.78125,0.0
582.48046875,-1000.0,-27.34375,-23.4375,-1000.0,-156.25,0.0
582.484375,-883.30078125,-30.2734375,-28.80859375,-796.38671875,-18.5546875,0.0
582.48828125,575.1953125,-32.2265625,-36.1328125,655.76171875,19.53125,0.0
582.4921875,-915.52734375,-28.3203125,-35.64453125,-933.10546875,7.8125,0.0
582.49609375,893.06640625,-24.90234375,-36.1328125,898.4375,27.34375,0.0
582.5,983.3984375,-26.3671875,-41.50390625,985.3515625,53.7109375,0.0
582.50390625,983.88671875,-22.94921875,-41.9921875,974.609375,36.62109375,0.0
582.5078125,895.99609375,-13.18359375,-27.83203125,908.69140625,47.8515625,0.0
582.51171875,-929.6875,-16.6015625,-23.92578125,-933.10546875,46.875,0.0
582.515625,643.06640625,-32.2265625,-30.2734375,425.78125,9.765625,0.0
582.51953125,-831.0546875,-35.15625,-29.78515625,-892.08984375,45.41015625,0.0
582.5234375,-1000.0,-26.85546875,-28.80859375,-1000.0,47.8515625,0.0
582.52734375,-1000.0,-20.99609375,-33.69140625,-999.51171875,41.015625,0.0
582.53125,-474.12109375,-23.4375,-36.62109375,-100.09765625,30.76171875,0.0
582.53515625,910.64453125,-23.4375,-34.1796875,981.4453125,-6.8359375,0.0
582.5390625,998.046875,-22.4609375,-23.92578125,958.0078125,69.82421875,0.0
582.54296875,937.5,-31.25,-24.90234375,958.0078125,89.35546875,0.0
582.546875,918.45703125,-32.2265625,-31.73828125,914.0625,40.52734375,0.0
582.55078125,-966.30859375,-27.83203125,-25.87890625,-952.63671875,50.78125,0.0
582.5546875,810.546875,-37.59765625,-33.69140625,676.7578125,8.7890625,0.0
582.55859375,-671.875,-41.015625,-40.0390625,-750.9765625,-18.5546875,0.0
582.5625,-1000.0,-38.0859375,-26.85546875,-1000.0,-1.46484375,0.0
582.56640625,-985.3515625,-38.0859375,-25.87890625,-1000.0,1.953125,0.0
582.5703125,-895.01953125,-40.0390625,-29.296875,-629.8828125,-67.3828125,0.0
582.57421875,580.56640625,-34.66796875,-25.390625,728.02734375,-90.33203125,0.0
582.578125,-916.50390625,-26.3671875,-33.203125,-960.9375,-63.96484375,0.0
582.58203125,904.296875,-26.3671875,-32.71484375,922.36328125,-84.9609375,0.0
582.5859375,943.359375,-27.34375,-22.94921875,940.91796875,-51.7578125,0.0
582.58984375,978.515625,-34.1796875,-27.34375,980.95703125,-74.70703125,0.0
582.59375,975.09765625,-34.66796875,-27.34375,963.37890625,-133.7890625,0.0
582.59765625,-396.97265625,-32.2265625,-24.4140625,-381.8359375,-96.19140625,0.0
582.6015625,-1000.0,-39.0625,-24.90234375,-1000.0,-58.59375,0.0
582.60546875,-989.2578125,-45.8984375,-28.3203125,-1000.0,-12.6953125,0.0
582.609375,-880.37109375,-39.0625,-36.1328125,-567.3828125,38.0859375,0.0
582.61328125,588.8671875,-27.83203125,-40.52734375,779.78515625,57.6171875,0.0
582.6171875,-917.96875,-29.296875,-42.96875,-972.65625,51.7578125,0.0
582.62109375,900.390625,-30.76171875,-34.1796875,922.8515625,42.48046875,0.0
582.625,957.51953125,-25.87890625,-19.53125,952.1484375,26.85546875,0.0
582.62890625,950.1953125,-28.3203125,-19.53125,960.44921875,-91.796875,0.0
582.6328125,-966.30859375,-38.0859375,-25.87890625,-995.1171875,-179.19921875,0.0
582.63671875,-190.4296875,-41.50390625,-26.3671875,-214.35546875,-125.9765625,0.0
582.640625,-1000.0,-36.62109375,-29.296875,-1000.0,-160.64453125,0.0
582.64453125,-944.3359375,-32.2265625,-27.34375,-948.2421875,-210.44921875,0.0
582.6484375,-998.53515625,-33.69140625,-35.64453125,-997.55859375,-218.26171875,0.0
582.65234375,-1000.0,-32.2265625,-33.69140625,-1000.0,-239.74609375,0.0
582.65625,-942.87109375,-27.34375,-23.4375,-938.96484375,-154.296875,0.0
582.66015625,-1000.0,-31.73828125,-41.9921875,-1000.0,-24.90234375,0.0
582.6640625,-891.11328125,-47.36328125,-59.08203125,-833.0078125,-10.25390625,0.0
582.66796875,564.453125,-52.24609375,-54.19921875,626.46484375,20.01953125,0.0
582.671875,-913.57421875,-40.0390625,-48.828125,-925.78125,-14.6484375,0.0
582.67578125,892.578125,-28.3203125,-39.55078125,895.99609375,-45.41015625,0.0
582.6796875,983.3984375,-24.4140625,-29.296875,985.3515625,-4.8828125,0.0
582.68359375,984.86328125,-25.390625,-25.87890625,977.05078125,-33.69140625,0.0
582.6875,898.92578125,-23.92578125,-24.4140625,907.71484375,-20.01953125,0.0
582.69140625,-944.3359375,-24.90234375,-24.4140625,-941.40625,17.578125,0.0
582.6953125,722.65625,-34.1796875,-32.2265625,526.3671875,-1.953125,0.0
582.69921875,-758.7890625,-37.109375,-36.62109375,-825.68359375,-3.41796875,0.0
582.703125,-1000.0,-37.109375,-33.69140625,-1000.0,88.8671875,0.0
582.70703125,-1000.0,-30.76171875,-32.2265625,-994.140625,114.74609375,0.0
582.7109375,-416.50390625,-24.4140625,-32.71484375,-87.890625,13.671875,0.0
582.71484375,936.03515625,-19.04296875,-30.2734375,988.28125,11.23046875,0.0
582.71875,988.28125,-25.390625,-32.2265625,955.56640625,81.0546875,0.0
582.72265625,941.40625,-35.64453125,-36.62109375,961.42578125,38.57421875,0.0
582.7265625,919.921875,-35.15625,-32.2265625,914.0625,56.15234375,0.0
582.73046875,-974.609375,-35.64453125,-35.64453125,-959.9609375,96.19140625,0.0
582.734375,842.7734375,-39.0625,-40.52734375,752.9296875,68.359375,0.0
582.73828125,-616.69921875,-38.57421875,-40.52734375,-691.89453125,48.828125,0.0
582.7421875,-1000.0,-30.76171875,-40.52734375,-1000.0,47.8515625,0.0
582.74609375,-926.26953125,-29.296875,-40.52734375,-937.5,3.41796875,0.0
582.75,-1000.0,-31.25,-38.0859375,-1000.0,-136.23046875,0.0
582.75390625,-990.234375,-24.90234375,-26.85546875,-942.3828125,-70.80078125,0.0
582.7578125,-958.0078125,-21.97265625,-27.34375,-984.86328125,22.94921875,0.0
582.76171875,-1000.0,-26.85546875,-32.71484375,-1000.0,-35.15625,0.0
582.765625,-87.40234375,-29.78515625,-33.203125,116.69921875,2.9296875,0.0
582.76953125,-958.49609375,-32.71484375,-27.83203125,-935.546875,20.5078125,0.0
582.7734375,939.94140625,-29.78515625,-21.484375,922.8515625,40.0390625,0.0
582.77734375,948.2421875,-29.78515625,-24.4140625,960.9375,-6.8359375,0.0
582.78125,975.09765625,-35.15625,-27.34375,976.07421875,33.203125,0.0
582.78515625,961.42578125,-38.0859375,-18.06640625,954.1015625,80.56640625,0.0
582.7890625,918.9453125,-37.59765625,-13.671875,935.05859375,30.76171875,0.0
582.79296875,-924.31640625,-32.2265625,-9.765625,-957.03125,47.8515625,0.0
582.796875,129.39453125,-36.62109375,-4.39453125,30.2734375,41.50390625,0.0
582.80078125,-1000.0,-42.96875,-12.20703125,-1000.0,-14.6484375,0.0
582.8046875,-984.375,-37.109375,-12.20703125,-1000.0,-31.25,0.0
582.80859375,-976.07421875,-34.66796875,-19.53125,-937.5,66.40625,0.0
582.8125,-1000.0,-38.57421875,-31.25,-710.44921875,85.9375,0.0
582.81640625,-942.87109375,-39.0625,-23.4375,-839.84375,58.59375,0.0
582.8203125,-1000.0,-35.15625,-16.11328125,-1000.0,69.82421875,0.0
582.82421875,-891.11328125,-33.69140625,-11.23046875,-807.12890625,34.1796875,0.0
582.828125,582.03125,-49.8046875,-14.6484375,627.44140625,-9.765625,0.0
582.83203125,-981.93359375,-54.19921875,-27.34375,-974.609375,87.890625,0.0
582.8359375,981.93359375,-41.9921875,-30.2734375,964.84375,85.44921875,0.0
582.83984375,732.91015625,-43.9453125,-33.203125,458.0078125,-38.57421875,0.0
582.84375,-757.8125,-47.8515625,-38.57421875,-866.2109375,-44.921875,0.0
582.84765625,-1000.0,-44.921875,-42.48046875,-1000.0,32.71484375,0.0
582.8515625,-945.80078125,-43.45703125,-37.109375,-710.44921875,26.85546875,0.0
582.85546875,-970.21484375,-46.875,-31.73828125,-832.03125,58.10546875,0.0
582.859375,-1000.0,-47.8515625,-31.25,-1000.0,60.05859375,0.0
582.86328125,-966.30859375,-40.0390625,-27.83203125,-917.96875,-48.33984375,0.0
582.8671875,437.5,-33.69140625,-22.94921875,488.28125,-40.0390625,0.0
582.87109375,-900.390625,-35.15625,-29.78515625,-905.76171875,-66.89453125,0.0
582.875,893.5546875,-34.1796875,-39.0625,894.04296875,-102.5390625,0.0
582.87890625,979.4921875,-23.92578125,-30.2734375,981.4453125,-61.5234375,0.0
582.8828125,983.88671875,-25.390625,-24.90234375,983.88671875,-90.33203125,0.0
582.88671875,908.69140625,-43.9453125,-21.97265625,906.25,-129.39453125,0.0
582.890625,-977.05078125,-45.8984375,-17.578125,-962.40234375,-58.10546875,0.0
582.89453125,851.5625,-39.0625,-19.53125,776.85546875,53.7109375,0.0
582.8984375,-606.4453125,-45.8984375,-19.04296875,-674.8046875,-19.04296875,0.0
582.90234375,-1000.0,-49.31640625,-15.625,-1000.0,-22.4609375,0.0
582.90625,-926.26953125,-44.921875,-17.578125,-930.17578125,-51.26953125,0.0
582.91015625,-1000.0,-49.31640625,-22.4609375,-1000.0,-90.33203125,0.0
582.9140625,-1000.0,-51.7578125,-30.2734375,-995.60546875,-25.390625,0.0
582.91796875,-932.12890625,-40.0390625,-33.69140625,-955.078125,-8.7890625,0.0
582.921875,-1000.0,-37.109375,-33.203125,-1000.0,-31.25,0.0
582.92578125,-469.7265625,-39.0625,-36.1328125,-215.8203125,-11.23046875,0.0
582.9296875,911.1328125,-40.0390625,-31.25,977.5390625,-24.90234375,0.0
582.93359375,999.51171875,-48.33984375,-23.4375,966.30859375,-52.734375,0.0
582.9375,919.43359375,-48.33984375,-24.90234375,937.98828125,8.7890625,0.0
582.94140625,996.09375,-33.203125,-25.390625,992.1875,-34.66796875,0.0
582.9453125,912.109375,-24.90234375,-27.34375,912.59765625,-46.875,0.0
582.94921875,-985.83984375,-23.92578125,-31.73828125,-983.3984375,77.63671875,0.0
582.953125,879.39453125,-22.94921875,-29.78515625,871.09375,66.89453125,0.0
582.95703125,-564.453125,-33.69140625,-29.296875,-571.2890625,40.0390625,0.0
582.9609375,-1000.0,-43.9453125,-34.66796875,-1000.0,67.3828125,0.0
582.96484375,-925.78125,-45.41015625,-43.45703125,-926.7578125,2.44140625,0.0
582.96875,-1000.0,-38.0859375,-42.96875,-1000.0,-76.66015625,0.0
582.97265625,-1000.0,-33.203125,-42.96875,-1000.0,-88.8671875,0.0
582.9765625,-942.87109375,-41.015625,-53.7109375,-938.4765625,-41.50390625,0.0
582.98046875,-1000.0,-47.8515625,-53.7109375,-1000.0,-72.265625,0.0
582.984375,-891.11328125,-45.41015625,-32.71484375,-811.03515625,-68.84765625,0.0
582.98828125,564.453125,-35.15625,-21.97265625,645.5078125,-55.17578125,0.0
582.9921875,-913.57421875,-33.69140625,-25.390625,-930.17578125,-29.296875,0.0
582.99609375,892.578125,-39.0625,-28.80859375,897.94921875,23.4375,0.0
583.0,986.328125,-37.59765625,-29.296875,987.79296875,-48.828125,0.0
583.00390625,958.984375,-34.1796875,-32.2265625,948.73046875,-102.5390625,0.0
583.0078125,921.875,-30.2734375,-30.76171875,940.4296875,-59.5703125,0.0
583.01171875,-926.7578125,-33.69140625,-25.87890625,-960.9375,-12.6953125,0.0
583.015625,89.35546875,-44.921875,-26.3671875,-30.76171875,-4.8828125,0.0
583.01953125,-1000.0,-42.48046875,-30.2734375,-1000.0,-2.9296875,0.0
583.0234375,-978.515625,-33.69140625,-32.2265625,-968.75,27.34375,0.0
583.02734375,-979.00390625,-26.85546875,-36.62109375,-985.83984375,-31.73828125,0.0
583.03125,-1000.0,-20.5078125,-37.109375,-1000.0,16.6015625,0.0
583.03515625,-953.61328125,-20.01953125,-29.296875,-949.70703125,77.63671875,0.0
583.0390625,-1000.0,-27.83203125,-29.296875,-1000.0,-5.859375,0.0
583.04296875,-969.7265625,-38.0859375,-26.3671875,-939.453125,20.5078125,0.0
583.046875,441.89453125,-38.0859375,-18.5546875,491.69921875,55.6640625,0.0
583.05078125,-945.3125,-35.64453125,-26.85546875,-949.70703125,41.015625,0.0
583.0546875,916.50390625,-39.0625,-36.1328125,921.38671875,38.57421875,0.0
583.05859375,956.54296875,-33.203125,-27.34375,926.26953125,31.73828125,0.0
583.0625,-442.3828125,-20.5078125,-23.4375,-447.75390625,68.359375,0.0
583.06640625,-1000.0,-23.4375,-25.390625,-1000.0,61.03515625,0.0
583.0703125,-928.22265625,-28.80859375,-24.4140625,-936.5234375,6.8359375,0.0
583.07421875,-1000.0,-26.3671875,-30.2734375,-1000.0,-18.06640625,0.0
583.078125,-928.7109375,-26.85546875,-40.0390625,-949.70703125,2.9296875,0.0
583.08203125,-1000.0,-28.3203125,-41.50390625,-1000.0,-16.11328125,0.0
583.0859375,-580.078125,-23.4375,-33.203125,-302.24609375,-35.15625,0.0
583.08984375,854.98046875,-15.625,-30.2734375,937.98828125,25.87890625,0.0
583.09375,-980.46875,-16.11328125,-38.57421875,990.234375,16.11328125,0.0
583.09765625,911.1328125,-13.671875,-42.48046875,914.55078125,-27.34375,0.0
583.1015625,999.51171875,-14.16015625,-42.48046875,889.16015625,6.8359375,0.0
583.10546875,909.1796875,-20.99609375,-36.1328125,880.37109375,13.671875,0.0
583.109375,-977.5390625,-23.4375,-32.2265625,-953.61328125,1.953125,0.0
583.11328125,854.00390625,-30.2734375,-44.43359375,794.921875,-41.015625,0.0
583.1171875,-603.02734375,-35.64453125,-50.29296875,-655.2734375,-67.3828125,0.0
583.12109375,-1000.0,-33.69140625,-41.9921875,-1000.0,-64.94140625,0.0
583.125,-925.78125,-31.25,-29.78515625,-944.82421875,-83.0078125,0.0
583.12890625,-1000.0,-28.80859375,-25.390625,-982.91015625,-96.6796875,0.0
583.1328125,-1000.0,-27.34375,-28.3203125,-887.6953125,18.5546875,0.0
583.13671875,-942.87109375,-27.34375,-32.2265625,-919.921875,34.66796875,0.0
583.140625,-1000.0,-39.55078125,-40.0390625,-1000.0,-52.24609375,0.0
583.14453125,-882.8125,-41.9921875,-39.0625,-797.8515625,-58.59375,0.0
583.1484375,533.203125,-25.87890625,-35.64453125,592.7734375,-118.65234375,0.0
583.15234375,-919.921875,-17.08984375,-39.0625,-905.76171875,-109.86328125,0.0
583.15625,939.453125,-15.625,-34.66796875,861.81640625,-63.96484375,0.0
583.16015625,-253.41796875,-23.4375,-32.2265625,-405.2734375,-24.90234375,0.0
583.1640625,-1000.0,-28.80859375,-33.69140625,-1000.0,-68.359375,0.0
583.16796875,-937.01171875,-25.87890625,-32.71484375,-933.59375,-106.93359375,0.0
583.171875,-1000.0,-18.5546875,-39.0625,-1000.0,-55.17578125,0.0
583.17578125,-1000.0,-18.06640625,-39.55078125,-1000.0,-13.671875,0.0
583.1796875,-939.94140625,-28.80859375,-33.69140625,-948.73046875,-22.4609375,0.0
583.18359375,-1000.0,-33.69140625,-34.66796875,-1000.0,-31.25,0.0
583.1875,-840.8203125,-27.34375,-38.0859375,-946.77734375,-17.578125,0.0
583.19140625,532.2265625,-19.53125,-37.109375,462.40234375,-93.26171875,0.0
583.1953125,-814.453125,-19.53125,-36.62109375,-844.7265625,-59.08203125,0.0
583.19921875,545.41015625,-21.484375,-34.66796875,-33.203125,-26.85546875,0.0
583.203125,-824.70703125,-25.87890625,-34.66796875,-1000.0,-143.5546875,0.0
583.20703125,-1000.0,-26.3671875,-27.34375,-983.88671875,-81.0546875,0.0
583.2109375,-943.84765625,-21.484375,-23.92578125,-984.375,-48.33984375,0.0
583.21484375,-999.51171875,-21.484375,-29.296875,-993.1640625,-109.86328125,0.0
583.21875,-969.7265625,-25.390625,-31.73828125,-966.796875,-85.9375,0.0
583.22265625,-1000.0,-29.78515625,-39.55078125,-1000.0,-0.9765625,0.0
583.2265625,30.2734375,-17.578125,-31.73828125,-47.8515625,31.25,0.0
583.23046875,-932.6171875,-13.18359375,-15.13671875,-965.8203125,6.34765625,0.0
583.234375,925.29296875,-31.73828125,-24.4140625,940.91796875,63.4765625,0.0
583.23828125,956.54296875,-37.109375,-29.78515625,950.68359375,125.9765625,0.0
583.2421875,986.81640625,-30.76171875,-22.4609375,989.74609375,67.3828125,0.0
583.24609375,909.66796875,-34.66796875,-24.4140625,907.71484375,-33.69140625,0.0
583.25,-979.00390625,-37.109375,-30.2734375,-969.7265625,-50.29296875,0.0
583.25390625,857.91015625,-28.80859375,-31.25,821.2890625,-34.66796875,0.0
583.2578125,-597.65625,-24.4140625,-32.2265625,-640.13671875,-26.3671875,0.0
583.26171875,-1000.0,-21.97265625,-29.296875,-1000.0,-142.08984375,0.0
583.265625,-925.78125,-27.34375,-30.76171875,-950.68359375,-285.15625,0.0
583.26953125,-1000.0,-27.34375,-28.80859375,-970.703125,-134.27734375,0.0
583.2734375,-1000.0,-23.4375,-26.3671875,-818.84765625,-41.015625,0.0
583.27734375,-929.19921875,-23.4375,-30.2734375,-909.66796875,-21.97265625,0.0
583.28125,-1000.0,-21.97265625,-34.1796875,-1000.0,127.9296875,0.0
583.28515625,-666.50390625,-21.97265625,-29.296875,-459.47265625,115.72265625,0.0
583.2890625,797.36328125,-16.11328125,-23.92578125,871.09375,10.7421875,0.0
583.29296875,-962.890625,-20.99609375,-26.3671875,-993.65234375,-19.53125,0.0
583.296875,904.78515625,-25.87890625,-26.85546875,919.921875,-59.08203125,0.0
583.30078125,989.2578125,-26.85546875,-28.3203125,989.74609375,-8.7890625,0.0
583.3046875,948.2421875,-23.92578125,-30.2734375,937.5,24.4140625,0.0
583.30859375,938.96484375,-23.4375,-38.0859375,963.37890625,57.12890625,0.0
583.3125,-947.265625,-29.78515625,-43.45703125,998.53515625,115.72265625,0.0
583.31640625,-94.23828125,-40.52734375,-35.15625,-245.1171875,56.640625,0.0
583.3203125,-1000.0,-44.921875,-31.73828125,-1000.0,-34.1796875,0.0
583.32421875,-928.7109375,-46.38671875,-30.76171875,-931.15234375,-82.03125,0.0
583.328125,-1000.0,-45.8984375,-22.94921875,-1000.0,-80.078125,0.0
583.33203125,58.59375,-42.48046875,-18.06640625,45.8984375,-5.859375,0.0
583.3359375,-930.17578125,-45.41015625,-19.04296875,-974.12109375,44.43359375,0.0
583.33984375,922.8515625,-52.24609375,-22.94921875,939.94140625,-1.46484375,0.0
583.34375,975.5859375,-50.78125,-22.94921875,963.8671875,-41.50390625,0.0
583.34765625,901.85546875,-42.48046875,-19.53125,912.59765625,-17.08984375,0.0
583.3515625,-942.87109375,-45.41015625,-20.5078125,-942.87109375,10.25390625,0.0
583.35546875,715.8203125,-46.38671875,-21.97265625,555.6640625,-6.8359375,0.0
583.359375,-776.3671875,-35.15625,-22.4609375,-828.61328125,2.9296875,0.0
583.36328125,-1000.0,-28.3203125,-21.97265625,-1000.0,37.109375,0.0
583.3671875,-989.74609375,-27.34375,-21.97265625,-986.328125,17.578125,0.0
583.37109375,-896.97265625,-31.73828125,-34.1796875,-609.375,-69.3359375,0.0
583.375,579.1015625,-31.25,-34.1796875,687.98828125,-103.02734375,0.0
583.37890625,-916.015625,-33.203125,-31.73828125,-959.47265625,-22.4609375,0.0
583.3828125,909.1796875,-41.015625,-36.62109375,929.6875,-5.37109375,0.0
583.38671875,927.24609375,-38.0859375,-31.73828125,924.31640625,-2.9296875,0.0
583.390625,-983.3984375,-39.55078125,-29.78515625,-984.86328125,3.90625,0.0
583.39453125,868.1640625,-41.015625,-27.34375,867.1875,16.11328125,0.0
583.3984375,-561.5234375,-38.0859375,-35.64453125,-533.203125,-32.2265625,0.0
583.40234375,-1000.0,-44.43359375,-43.45703125,-1000.0,-51.7578125,0.0
583.40625,-1000.0,-44.921875,-33.69140625,-950.68359375,12.20703125,0.0
583.41015625,-45.41015625,-33.203125,-25.390625,187.5,41.015625,0.0
583.4140625,-945.80078125,-28.80859375,-22.4609375,-927.24609375,55.6640625,0.0
583.41796875,933.10546875,-29.78515625,-22.4609375,916.015625,-37.109375,0.0
583.421875,968.26171875,-27.34375,-21.484375,981.4453125,-177.734375,0.0
583.42578125,916.015625,-27.34375,-21.484375,914.55078125,-169.921875,0.0
583.4296875,-984.86328125,-28.3203125,-18.5546875,-982.91015625,-109.86328125,0.0
583.43359375,875.9765625,-27.83203125,-16.6015625,871.09375,-149.4140625,0.0
583.4375,-569.3359375,-27.83203125,-17.578125,-572.265625,-155.76171875,0.0
583.44140625,-1000.0,-27.83203125,-20.99609375,-1000.0,-121.09375,0.0
583.4453125,-925.78125,-41.50390625,-33.69140625,-926.26953125,-111.81640625,0.0
583.44921875,-1000.0,-47.8515625,-33.203125,-1000.0,-146.97265625,0.0
583.453125,-1000.0,-37.59765625,-19.04296875,-993.1640625,-100.09765625,0.0
583.45703125,-933.59375,-35.15625,-18.5546875,-958.49609375,-44.43359375,0.0
583.4609375,-1000.0,-35.15625,-30.76171875,-1000.0,-31.73828125,0.0
583.46484375,-442.3828125,-33.69140625,-37.59765625,-173.828125,45.8984375,0.0
583.46875,921.38671875,-31.73828125,-30.76171875,990.72265625,76.66015625,0.0
583.47265625,994.62890625,-33.69140625,-21.484375,960.44921875,99.12109375,0.0
583.4765625,921.38671875,-38.0859375,-27.34375,940.91796875,87.890625,0.0
583.48046875,981.4453125,-40.0390625,-31.73828125,980.46875,85.44921875,0.0
583.484375,972.16796875,-35.64453125,-31.25,959.47265625,114.2578125,0.0
583.48828125,905.2734375,-29.296875,-30.76171875,927.734375,90.33203125,0.0
583.4921875,-915.0390625,-32.71484375,-30.2734375,-948.73046875,70.3125,0.0
583.49609375,328.125,-33.69140625,-26.3671875,123.046875,85.9375,0.0
583.5,-975.5859375,-33.203125,-25.390625,-1000.0,52.734375,0.0
583.50390625,-971.19140625,-30.76171875,-33.69140625,-969.7265625,0.9765625,0.0
583.5078125,-1000.0,-24.90234375,-38.57421875,-1000.0,72.75390625,0.0
583.51171875,-143.06640625,-23.92578125,-38.0859375,-54.19921875,46.875,0.0
583.515625,-978.02734375,-27.34375,-38.0859375,996.09375,2.9296875,0.0
583.51953125,948.2421875,-30.76171875,-34.66796875,952.1484375,87.40234375,0.0
583.5234375,961.42578125,-33.203125,-25.87890625,961.9140625,57.12890625,0.0
583.52734375,912.109375,-32.71484375,-16.6015625,913.0859375,24.4140625,0.0
583.53125,-967.28515625,-31.25,-20.99609375,-954.58984375,59.08203125,0.0
583.53515625,815.91796875,-34.1796875,-33.203125,708.0078125,58.10546875,0.0
583.5390625,-664.0625,-33.203125,-31.73828125,-719.7265625,39.0625,0.0
583.54296875,-1000.0,-25.87890625,-26.3671875,-1000.0,-22.94921875,0.0
583.546875,-1000.0,-28.80859375,-34.66796875,-1000.0,-70.80078125,0.0
583.55078125,-622.55859375,-40.0390625,-36.1328125,-326.66015625,15.625,0.0
583.5546875,831.0546875,-44.43359375,-23.4375,898.92578125,29.296875,0.0
583.55859375,-974.12109375,-38.57421875,-21.97265625,989.2578125,-10.25390625,0.0
583.5625,925.29296875,-21.97265625,-20.01953125,946.77734375,-46.38671875,0.0
583.56640625,925.29296875,-16.11328125,-18.06640625,917.96875,-138.671875,0.0
583.5703125,-979.00390625,-17.08984375,-21.97265625,-968.26171875,-163.0859375,0.0
583.57421875,857.91015625,-19.04296875,-29.78515625,817.3828125,-111.328125,0.0
583.578125,-614.2578125,-24.90234375,-32.71484375,-646.484375,-86.9140625,0.0
583.58203125,-1000.0,-22.94921875,-30.2734375,-1000.0,18.06640625,0.0
583.5859375,-987.79296875,-23.92578125,-31.25,-990.72265625,58.10546875,0.0
583.58984375,-877.44140625,-26.3671875,-29.78515625,-583.49609375,20.5078125,0.0
583.59375,601.07421875,-27.34375,-26.85546875,750.9765625,35.15625,0.0
583.59765625,-920.41015625,-27.83203125,-26.3671875,-968.26171875,104.4921875,0.0
583.6015625,909.66796875,-23.4375,-23.92578125,930.17578125,88.8671875,0.0
583.60546875,926.7578125,-23.92578125,-18.5546875,922.8515625,87.40234375,0.0
583.609375,-980.95703125,-23.92578125,-20.01953125,-976.5625,26.85546875,0.0
583.61328125,863.76953125,-24.90234375,-25.390625,847.16796875,-32.71484375,0.0
583.6171875,-605.46875,-28.3203125,-23.4375,-614.2578125,0.0,0.0
583.62109375,-1000.0,-28.80859375,-21.97265625,-1000.0,-40.0390625,0.0
583.625,-984.86328125,-33.69140625,-30.76171875,-998.53515625,-128.41796875,0.0
583.62890625,-888.671875,-32.2265625,-30.2734375,-686.5234375,-29.296875,0.0
583.6328125,587.890625,-28.80859375,-23.92578125,713.37890625,114.74609375,0.0
583.63671875,-917.48046875,-29.78515625,-29.296875,-953.61328125,72.265625,0.0
583.640625,902.34375,-29.78515625,-36.62109375,916.50390625,-66.40625,0.0
583.64453125,949.70703125,-25.390625,-34.66796875,945.80078125,-49.31640625,0.0
583.6484375,964.35546875,-25.390625,-34.1796875,972.65625,-56.15234375,0.0
583.65234375,-991.2109375,-31.73828125,-41.9921875,981.93359375,-42.96875,0.0
583.65625,-315.91796875,-36.1328125,-49.8046875,-333.984375,6.34765625,0.0
583.66015625,-1000.0,-32.2265625,-52.734375,-1000.0,-59.08203125,0.0
583.6640625,-986.81640625,-25.87890625,-39.55078125,-1000.0,-104.4921875,0.0
583.66796875,-896.97265625,-29.78515625,-32.2265625,-786.62109375,-30.2734375,0.0
583.671875,562.5,-29.296875,-31.25,638.18359375,-21.484375,0.0
583.67578125,-913.0859375,-28.3203125,-18.06640625,-934.08203125,-16.6015625,0.0
583.6796875,893.06640625,-30.2734375,-18.06640625,902.34375,-39.55078125,0.0
583.68359375,997.55859375,-33.69140625,-18.06640625,988.28125,-68.359375,0.0
583.6875,895.99609375,-30.2734375,-18.06640625,910.15625,52.734375,0.0
583.69140625,-919.921875,-29.78515625,-33.203125,-935.05859375,116.2109375,0.0
583.6953125,556.15234375,-29.296875,-37.59765625,412.109375,106.93359375,0.0
583.69921875,-880.859375,-21.97265625,-30.76171875,-909.1796875,48.828125,0.0
583.703125,-1000.0,-22.4609375,-29.78515625,-1000.0,-1.953125,0.0
583.70703125,-943.359375,-30.76171875,-30.2734375,-958.0078125,-25.390625,0.0
583.7109375,-1000.0,-36.62109375,-35.15625,-887.6953125,-81.54296875,0.0
583.71484375,-950.1953125,-38.57421875,-41.015625,-864.2578125,-117.67578125,0.0
583.71875,-1000.0,-35.15625,-42.96875,-1000.0,-102.05078125,0.0
583.72265625,-947.75390625,-25.87890625,-37.59765625,-909.1796875,-61.5234375,0.0
583.7265625,470.21484375,-29.78515625,-36.1328125,515.625,-20.01953125,0.0
583.73046875,-903.3203125,-39.55078125,-35.64453125,-908.69140625,1.46484375,0.0
583.734375,893.06640625,-33.69140625,-32.2265625,894.04296875,-29.296875,0.0
583.73828125,980.46875,-29.78515625,-28.80859375,982.421875,-25.390625,0.0
583.7421875,983.88671875,-31.73828125,-28.3203125,982.91015625,24.4140625,0.0
583.74609375,909.1796875,-36.1328125,-32.71484375,906.25,40.0390625,0.0
583.75,-977.05078125,-40.52734375,-35.15625,-958.0078125,31.73828125,0.0
583.75390625,851.07421875,-35.64453125,-29.78515625,737.3046875,10.25390625,0.0
583.7578125,-606.93359375,-36.1328125,-33.203125,-703.61328125,50.78125,0.0
583.76171875,-1000.0,-36.1328125,-39.0625,-1000.0,34.1796875,0.0
583.765625,-926.26953125,-31.25,-36.62109375,-933.10546875,-52.734375,0.0
583.76953125,-1000.0,-23.92578125,-28.3203125,-1000.0,-42.96875,0.0
583.7734375,-1000.0,-24.90234375,-35.15625,-991.2109375,-103.515625,0.0
583.77734375,-937.01171875,-30.2734375,-41.50390625,-961.42578125,-123.53515625,0.0
583.78125,-1000.0,-33.69140625,-34.66796875,-1000.0,9.27734375,0.0
583.78515625,-382.32421875,-29.296875,-34.66796875,-149.4140625,-112.3046875,0.0
583.7890625,943.84765625,-27.83203125,-33.203125,994.140625,-204.1015625,0.0
583.79296875,985.3515625,-29.78515625,-32.71484375,958.0078125,-17.08984375,0.0
583.796875,926.26953125,-27.34375,-37.59765625,942.3828125,62.5,0.0
583.80078125,992.67578125,-33.203125,-31.25,990.234375,-2.9296875,0.0
583.8046875,918.45703125,-40.52734375,-24.90234375,914.55078125,-61.03515625,0.0
583.80859375,998.53515625,-43.45703125,-30.76171875,-987.79296875,-109.86328125,0.0
583.8125,923.828125,-40.52734375,-34.66796875,878.90625,-118.1640625,0.0
583.81640625,-486.81640625,-36.62109375,-37.59765625,-549.8046875,21.97265625,0.0
583.8203125,-1000.0,-40.52734375,-41.015625,-1000.0,76.66015625,0.0
583.82421875,-926.7578125,-34.1796875,-34.66796875,-948.73046875,-8.30078125,0.0
583.828125,-1000.0,-30.2734375,-33.69140625,-979.4921875,-48.828125,0.0
583.83203125,-1000.0,-38.0859375,-31.73828125,-797.8515625,-57.12890625,0.0
583.8359375,-942.87109375,-30.2734375,-24.4140625,-881.34765625,-75.68359375,0.0
583.83984375,-1000.0,-25.390625,-25.390625,-1000.0,-20.5078125,0.0
583.84375,-891.11328125,-30.2734375,-27.34375,-817.87109375,-55.17578125,0.0
583.84765625,564.453125,-24.4140625,-29.78515625,621.58203125,-82.03125,0.0
583.8515625,-913.57421875,-13.671875,-33.69140625,-925.78125,37.59765625,0.0
583.85546875,892.578125,-15.625,-33.69140625,897.4609375,67.3828125,0.0
583.859375,983.3984375,-23.4375,-36.62109375,979.98046875,20.5078125,0.0
583.86328125,984.375,-27.83203125,-35.64453125,976.5625,-19.04296875,0.0
583.8671875,906.25,-29.296875,-27.83203125,907.2265625,-28.3203125,0.0
583.87109375,-968.75,-28.3203125,-22.94921875,-952.1484375,12.20703125,0.0
583.875,822.265625,-28.80859375,-19.04296875,680.6640625,9.765625,0.0
583.87890625,-642.578125,-31.25,-24.90234375,-744.140625,18.06640625,0.0
583.8828125,-1000.0,-30.2734375,-29.78515625,-1000.0,16.11328125,0.0
583.88671875,-927.24609375,-28.3203125,-28.80859375,-936.5234375,-28.3203125,0.0
583.890625,-1000.0,-36.1328125,-34.66796875,-1000.0,-63.96484375,0.0
583.89453125,-961.9140625,-39.0625,-37.59765625,-955.56640625,-39.55078125,0.0
583.8984375,-1000.0,-36.1328125,-36.62109375,-1000.0,53.7109375,0.0
583.90234375,-1000.0,-41.9921875,-38.57421875,-973.6328125,45.41015625,0.0
583.90625,344.23828125,-41.9921875,-37.59765625,419.921875,19.04296875,0.0
583.91015625,-952.63671875,-48.33984375,-42.48046875,-959.47265625,58.10546875,0.0
583.9140625,951.171875,-45.8984375,-53.7109375,962.40234375,47.8515625,0.0
583.91796875,865.72265625,-30.76171875,-48.828125,753.90625,30.2734375,0.0
583.921875,-597.65625,-30.2734375,-39.55078125,-676.7578125,12.6953125,0.0
583.92578125,-1000.0,-30.76171875,-38.57421875,-1000.0,-19.04296875,0.0
583.9296875,-925.78125,-27.83203125,-38.57421875,-933.59375,-43.9453125,0.0
583.93359375,-1000.0,-24.4140625,-42.96875,-1000.0,-49.8046875,0.0
583.9375,-941.40625,-24.4140625,-37.109375,-940.91796875,-113.28125,0.0
583.94140625,-1000.0,-27.83203125,-26.85546875,-1000.0,-33.69140625,0.0
583.9453125,-862.3046875,-23.92578125,-28.80859375,-874.0234375,34.66796875,0.0
583.94921875,508.30078125,-20.5078125,-23.4375,555.6640625,-42.96875,0.0
583.953125,-812.01171875,-35.64453125,-25.87890625,-840.8203125,-36.62109375,0.0
583.95703125,567.87109375,-46.38671875,-34.1796875,55.6640625,-11.71875,0.0
583.9609375,-809.08203125,-39.55078125,-37.109375,-999.51171875,-62.98828125,0.0
583.96484375,-1000.0,-33.203125,-36.62109375,-993.65234375,-14.6484375,0.0
583.96875,-937.01171875,-31.25,-31.25,-974.12109375,38.57421875,0.0
583.97265625,-1000.0,-31.25,-20.01953125,-1000.0,16.11328125,0.0
583.9765625,-950.1953125,-34.1796875,-13.18359375,-966.30859375,47.8515625,0.0
583.98046875,-1000.0,-36.62109375,-21.97265625,-1000.0,50.29296875,0.0
583.984375,-947.265625,-36.62109375,-35.15625,-1000.0,-44.921875,0.0
583.98828125,488.28125,-30.76171875,-35.64453125,262.20703125,7.8125,0.0
583.9921875,-971.6796875,-25.87890625,-29.78515625,-948.2421875,29.78515625,0.0
583.99609375,980.46875,-31.73828125,-26.3671875,976.5625,-84.47265625,0.0
584.0,741.69921875,-40.0390625,-30.2734375,272.94921875,-148.4375,0.0
584.00390625,-747.0703125,-33.69140625,-24.90234375,-938.96484375,-113.28125,0.0
584.0078125,-1000.0,-29.78515625,-17.578125,-1000.0,-3.41796875,0.0
584.01171875,-948.2421875,-29.78515625,-10.7421875,-980.46875,10.7421875,0.0
584.015625,-959.9609375,-27.34375,-10.7421875,-950.68359375,-23.92578125,0.0
584.01953125,-1000.0,-25.390625,-20.5078125,-1000.0,-28.80859375,0.0
584.0234375,-889.6484375,-22.4609375,-32.2265625,-860.83984375,-2.44140625,0.0
584.02734375,566.40625,-25.87890625,-37.109375,599.609375,13.671875,0.0
584.03125,-914.0625,-31.25,-33.69140625,-919.43359375,-17.578125,0.0
584.03515625,892.578125,-30.2734375,-30.76171875,894.53125,51.26953125,0.0
584.0390625,983.3984375,-23.4375,-32.71484375,985.3515625,75.1953125,0.0
584.04296875,984.86328125,-28.80859375,-38.0859375,975.5859375,-41.50390625,0.0
584.046875,898.4375,-40.52734375,-36.1328125,909.66796875,21.484375,0.0
584.05078125,-940.91796875,-31.73828125,-21.97265625,-940.4296875,144.53125,0.0
584.0546875,708.984375,-18.5546875,-20.99609375,482.91015625,129.8828125,0.0
584.05859375,-766.6015625,-15.13671875,-25.87890625,-868.1640625,107.421875,0.0
584.0625,-1000.0,-15.625,-21.97265625,-1000.0,43.9453125,0.0
584.06640625,-933.10546875,-21.97265625,-18.5546875,-949.70703125,-3.90625,0.0
584.0703125,-1000.0,-26.85546875,-17.08984375,-1000.0,-26.3671875,0.0
584.07421875,-974.609375,-25.87890625,-18.5546875,-966.30859375,-127.9296875,0.0
584.078125,-992.67578125,-31.25,-20.01953125,-1000.0,-167.96875,0.0
584.08203125,-950.68359375,-30.2734375,-17.578125,-910.64453125,-197.75390625,0.0
584.0859375,281.73828125,-21.97265625,-16.11328125,366.69921875,-209.9609375,0.0
584.08984375,-910.15625,-25.390625,-24.4140625,-917.96875,-125.9765625,0.0
584.09375,909.1796875,-30.2734375,-16.11328125,908.203125,-78.61328125,0.0
584.09765625,968.26171875,-30.2734375,-7.32421875,972.16796875,-77.1484375,0.0
584.1015625,983.88671875,-32.71484375,-18.06640625,984.375,-30.2734375,0.0
584.10546875,908.69140625,-27.83203125,-21.97265625,906.25,31.25,0.0
584.109375,-976.07421875,-25.87890625,-18.5546875,-961.42578125,40.52734375,0.0
584.11328125,848.6328125,-23.92578125,-18.06640625,773.4375,40.0390625,0.0
584.1171875,-609.86328125,-31.25,-21.484375,-681.640625,4.8828125,0.0
584.12109375,-1000.0,-39.55078125,-33.69140625,-1000.0,-21.484375,0.0
584.125,-926.26953125,-33.69140625,-41.015625,-941.40625,-40.0390625,0.0
584.12890625,-1000.0,-26.85546875,-43.45703125,-1000.0,-38.0859375,0.0
584.1328125,-1000.0,-27.83203125,-34.1796875,-791.015625,53.7109375,0.0
584.13671875,-935.546875,-33.203125,-20.01953125,-870.1171875,85.44921875,0.0
584.140625,-1000.0,-34.66796875,-5.37109375,-1000.0,-4.39453125,0.0
584.14453125,-408.69140625,-28.80859375,-6.8359375,-126.46484375,-47.36328125,0.0
584.1484375,934.5703125,-21.97265625,-22.4609375,996.58203125,8.7890625,0.0
584.15234375,989.2578125,-18.5546875,-25.87890625,956.0546875,75.1953125,0.0
584.15625,924.31640625,-28.3203125,-19.53125,943.359375,98.14453125,0.0
584.16015625,985.83984375,-37.109375,-20.5078125,982.91015625,-27.83203125,0.0
584.1640625,942.87109375,-41.015625,-33.203125,941.40625,-23.92578125,0.0
584.16796875,947.265625,-38.57421875,-29.296875,955.56640625,22.94921875,0.0
584.171875,-960.44921875,-31.73828125,-20.5078125,-986.81640625,-32.2265625,0.0
584.17578125,-172.8515625,-34.1796875,-23.92578125,-189.453125,-52.24609375,0.0
584.1796875,-1000.0,-36.62109375,-29.78515625,-1000.0,-46.875,0.0
584.18359375,-936.5234375,-31.25,-34.1796875,-969.7265625,-41.9921875,0.0
584.1875,-1000.0,-24.4140625,-30.76171875,-964.35546875,-3.41796875,0.0
584.19140625,206.0546875,-23.92578125,-23.4375,351.07421875,21.97265625,0.0
584.1953125,-902.83203125,-35.15625,-26.3671875,-915.0390625,21.97265625,0.0
584.19921875,907.2265625,-32.2265625,-24.90234375,907.71484375,-26.3671875,0.0
584.203125,975.5859375,-30.2734375,-24.90234375,972.16796875,-80.56640625,0.0
584.20703125,902.34375,-33.203125,-29.296875,918.45703125,-84.47265625,0.0
584.2109375,-914.0625,-24.4140625,-20.99609375,-937.01171875,-47.8515625,0.0
584.21484375,392.08984375,-24.90234375,-20.99609375,259.27734375,-27.83203125,0.0
584.21875,-960.44921875,-32.71484375,-31.25,-980.46875,-5.37109375,0.0
584.22265625,-1000.0,-37.109375,-28.80859375,-1000.0,8.7890625,0.0
584.2265625,-956.0546875,-36.1328125,-26.85546875,-962.40234375,-54.19921875,0.0
584.23046875,-1000.0,-33.203125,-34.66796875,-1000.0,-80.078125,0.0
584.234375,-960.44921875,-35.64453125,-31.25,-951.66015625,-45.8984375,0.0
584.23828125,-1000.0,-43.9453125,-25.87890625,-1000.0,-54.19921875,0.0
584.2421875,-1000.0,-45.8984375,-33.203125,-963.8671875,-108.88671875,0.0
584.24609375,346.19140625,-35.64453125,-29.296875,426.7578125,-141.11328125,0.0
584.25,-895.01953125,-30.76171875,-21.97265625,-902.34375,-85.44921875,0.0
