timestamp,TP9,AF7,AF8,TP10,AUX,Marker,
540.00390625,-597.65625,-28.80859375,-44.43359375,-614.74609375,-78.61328125,0.0
540.0078125,-1000.0,-32.71484375,-44.43359375,-1000.0,91.796875,0.0
540.01171875,-925.78125,-32.2265625,-35.64453125,-927.24609375,125.9765625,0.0
540.015625,-1000.0,-32.71484375,-37.109375,-1000.0,54.6875,0.0
540.01953125,-1000.0,-32.2265625,-34.1796875,-984.86328125,-5.37109375,0.0
540.0234375,-937.01171875,-31.73828125,-24.90234375,-971.6796875,-12.20703125,0.0
540.02734375,-1000.0,-28.80859375,-30.2734375,-1000.0,-19.53125,0.0
540.03125,-381.8359375,-28.3203125,-43.9453125,-39.0625,-19.53125,0.0
540.03515625,944.3359375,-19.53125,-39.0625,-977.5390625,58.10546875,0.0
540.0390625,985.3515625,-12.20703125,-25.390625,943.84765625,93.75,0.0
540.04296875,926.26953125,-18.5546875,-16.6015625,950.1953125,47.8515625,0.0
540.046875,993.1640625,-16.11328125,-17.08984375,988.76953125,-51.7578125,0.0
540.05078125,916.50390625,-19.53125,-18.5546875,915.52734375,-69.82421875,0.0
540.0546875,-997.0703125,-35.15625,-20.01953125,-990.72265625,23.4375,0.0
540.05859375,911.1328125,-36.1328125,-23.4375,893.06640625,11.23046875,0.0
540.0625,-509.765625,-30.2734375,-28.80859375,-536.1328125,16.11328125,0.0
540.06640625,-1000.0,-29.78515625,-30.76171875,-1000.0,16.11328125,0.0
540.0703125,-926.26953125,-26.85546875,-21.484375,-961.42578125,-55.17578125,0.0
540.07421875,-1000.0,-29.296875,-18.5546875,-887.20703125,-43.45703125,0.0
540.078125,-1000.0,-38.57421875,-29.78515625,-729.98046875,-101.5625,0.0
540.08203125,-940.4296875,-47.8515625,-35.64453125,-912.59765625,-112.3046875,0.0
540.0859375,-1000.0,-43.9453125,-24.4140625,-1000.0,-98.14453125,0.0
540.08984375,-865.234375,-36.1328125,-20.01953125,-681.15234375,-56.15234375,0.0
540.09375,597.16796875,-27.34375,-26.85546875,724.12109375,-12.6953125,0.0
540.09765625,-919.43359375,-26.3671875,-24.90234375,-952.63671875,-41.015625,0.0
540.1015625,893.5546875,-38.57421875,-14.6484375,905.2734375,-48.33984375,0.0
540.10546875,983.88671875,-42.96875,-17.578125,983.88671875,-8.7890625,0.0
540.109375,984.375,-27.83203125,-23.4375,976.07421875,19.53125,0.0
540.11328125,896.484375,-24.90234375,-24.90234375,907.71484375,-3.90625,0.0
540.1171875,-931.640625,-33.203125,-39.55078125,-936.5234375,-7.8125,0.0
540.12109375,655.2734375,-29.296875,-43.45703125,488.76953125,41.50390625,0.0
540.125,-812.98828125,-26.3671875,-38.57421875,-872.55859375,7.8125,0.0
540.12890625,-1000.0,-25.87890625,-38.0859375,-1000.0,18.06640625,0.0
540.1328125,-936.5234375,-30.76171875,-31.73828125,-949.21875,21.484375,0.0
540.13671875,-1000.0,-31.73828125,-29.78515625,-1000.0,1.46484375,0.0
540.140625,-957.03125,-23.92578125,-31.73828125,-952.1484375,21.97265625,0.0
540.14453125,-1000.0,-33.203125,-31.73828125,-1000.0,40.52734375,0.0
540.1484375,-991.69921875,-39.0625,-30.76171875,-956.0546875,1.46484375,0.0
540.15234375,385.25390625,-30.2734375,-29.296875,447.265625,3.90625,0.0
540.15625,-897.4609375,-22.4609375,-27.34375,-902.83203125,22.94921875,0.0
540.16015625,895.01953125,-20.01953125,-23.92578125,895.01953125,5.37109375,0.0
540.1640625,977.05078125,-17.578125,-29.78515625,979.98046875,-67.87109375,0.0
540.16796875,983.3984375,-17.578125,-29.78515625,983.3984375,-95.703125,0.0
540.171875,909.1796875,-21.484375,-26.85546875,906.25,-27.34375,0.0
540.17578125,-977.5390625,-16.11328125,-33.69140625,-959.9609375,-24.4140625,0.0
540.1796875,853.515625,-16.6015625,-28.3203125,758.30078125,-61.5234375,0.0
540.18359375,-603.515625,-26.3671875,-22.4609375,-688.96484375,-60.05859375,0.0
540.1875,-1000.0,-29.78515625,-25.87890625,-1000.0,-46.875,0.0
540.19140625,-925.78125,-23.4375,-20.99609375,-931.640625,-21.484375,0.0
540.1953125,-1000.0,-21.97265625,-20.5078125,-1000.0,-78.61328125,0.0
540.19921875,-1000.0,-26.3671875,-30.76171875,-1000.0,-141.11328125,0.0
540.203125,-928.7109375,-23.4375,-31.25,-945.3125,-168.45703125,0.0
540.20703125,-1000.0,-21.484375,-18.06640625,-1000.0,-212.890625,0.0
540.2109375,-664.55078125,-28.80859375,-17.08984375,-397.4609375,-276.85546875,0.0
540.21484375,798.828125,-29.78515625,-16.11328125,900.87890625,-137.6953125,0.0
540.21875,-963.37890625,-26.3671875,-24.4140625,995.60546875,11.71875,0.0
540.22265625,904.78515625,-25.87890625,-39.0625,924.8046875,40.0390625,0.0
540.2265625,998.53515625,-28.80859375,-24.90234375,994.62890625,66.40625,0.0
540.23046875,916.50390625,-28.80859375,-19.53125,914.55078125,68.359375,0.0
540.234375,-996.58203125,-45.41015625,-36.62109375,-988.76953125,55.6640625,0.0
540.23828125,910.64453125,-52.24609375,-41.015625,887.20703125,42.48046875,0.0
540.2421875,-510.7421875,-39.0625,-28.80859375,-545.8984375,5.859375,0.0
540.24609375,-1000.0,-27.83203125,-20.99609375,-1000.0,-14.16015625,0.0
540.25,-926.26953125,-28.80859375,-19.53125,-926.7578125,-3.90625,0.0
540.25390625,-1000.0,-33.69140625,-20.01953125,-1000.0,14.16015625,0.0
540.2578125,-1000.0,-28.3203125,-23.4375,-1000.0,-6.8359375,0.0
540.26171875,-941.40625,-22.94921875,-20.99609375,-938.4765625,-7.8125,0.0
540.265625,-1000.0,-25.87890625,-17.08984375,-1000.0,-43.9453125,0.0
540.26953125,-877.44140625,-32.2265625,-18.06640625,-752.44140625,-27.34375,0.0
540.2734375,582.51953125,-37.109375,-32.2265625,685.546875,31.73828125,0.0
540.27734375,-916.50390625,-41.9921875,-34.1796875,-941.40625,40.52734375,0.0
540.28125,893.06640625,-40.0390625,-27.34375,901.3671875,-75.68359375,0.0
540.28515625,983.3984375,-34.66796875,-31.73828125,984.86328125,-111.81640625,0.0
540.2890625,984.375,-27.34375,-33.203125,975.09765625,28.3203125,0.0
540.29296875,897.94921875,-21.484375,-30.76171875,910.15625,25.390625,0.0
540.296875,-938.4765625,-14.6484375,-24.90234375,-941.40625,-14.16015625,0.0
540.30078125,696.77734375,-15.13671875,-21.484375,478.515625,112.79296875,0.0
540.3046875,-778.3203125,-29.296875,-24.90234375,-868.1640625,55.17578125,0.0
540.30859375,-1000.0,-33.203125,-35.15625,-1000.0,0.0,0.0
540.3125,-933.59375,-38.0859375,-38.57421875,-949.70703125,-25.390625,0.0
540.31640625,-1000.0,-38.57421875,-21.484375,-1000.0,-80.56640625,0.0
540.3203125,-1000.0,-27.83203125,-19.04296875,-1000.0,-62.98828125,0.0
540.32421875,-939.94140625,-26.85546875,-21.97265625,-940.4296875,-36.1328125,0.0
540.328125,-1000.0,-25.390625,-18.06640625,-1000.0,27.34375,0.0
540.33203125,-839.84375,-24.90234375,-16.11328125,-774.4140625,25.390625,0.0
540.3359375,536.1328125,-20.01953125,-12.6953125,623.046875,53.7109375,0.0
540.33984375,-823.73046875,-20.01953125,-10.7421875,-854.98046875,67.87109375,0.0
540.34375,608.3984375,-28.3203125,-20.99609375,108.88671875,24.4140625,0.0
540.34765625,-776.85546875,-32.71484375,-39.55078125,-985.3515625,-38.0859375,0.0
540.3515625,-1000.0,-27.34375,-44.921875,-1000.0,-47.36328125,0.0
540.35546875,-934.5703125,-28.3203125,-28.3203125,-970.703125,-40.52734375,0.0
540.359375,-1000.0,-37.109375,-12.20703125,-1000.0,-98.14453125,0.0
540.36328125,-941.89453125,-28.80859375,-9.765625,-940.4296875,-54.6875,0.0
540.3671875,-1000.0,-18.5546875,-15.13671875,-1000.0,40.0390625,0.0
540.37109375,-881.34765625,-15.625,-13.671875,-854.98046875,34.66796875,0.0
540.375,593.26171875,-15.13671875,-17.578125,600.09765625,-1.46484375,0.0
540.37890625,-971.6796875,-17.578125,-33.69140625,-957.03125,21.97265625,0.0
540.3828125,941.40625,-21.484375,-26.85546875,933.10546875,26.3671875,0.0
540.38671875,890.625,-21.97265625,-16.11328125,489.2578125,-45.8984375,0.0
540.390625,-572.265625,-18.5546875,-19.04296875,-768.06640625,-85.44921875,0.0
540.39453125,-1000.0,-20.99609375,-27.34375,-1000.0,-65.91796875,0.0
540.3984375,-942.87109375,-24.4140625,-29.78515625,-964.84375,-47.36328125,0.0
540.40234375,-952.63671875,-22.94921875,-23.4375,-951.171875,-84.47265625,0.0
540.40625,-1000.0,-25.87890625,-26.85546875,-1000.0,-16.6015625,0.0
540.41015625,-830.078125,-31.25,-33.69140625,-698.2421875,62.5,0.0
540.4140625,638.18359375,-35.15625,-25.390625,711.9140625,3.90625,0.0
540.41796875,-927.24609375,-38.0859375,-14.6484375,-949.21875,-23.92578125,0.0
540.421875,895.01953125,-37.59765625,-25.390625,904.78515625,18.06640625,0.0
540.42578125,991.69921875,-28.3203125,-20.99609375,993.1640625,34.66796875,0.0
540.4296875,938.96484375,-22.94921875,-10.25390625,930.6640625,5.37109375,0.0
540.43359375,954.1015625,-19.04296875,-14.16015625,976.07421875,14.16015625,0.0
540.4375,-972.65625,-5.37109375,-11.71875,974.609375,46.875,0.0
540.44140625,-222.16796875,-5.859375,-16.11328125,-338.37890625,43.45703125,0.0
540.4453125,-1000.0,-14.16015625,-26.85546875,-1000.0,-29.78515625,0.0
540.44921875,-940.91796875,-13.671875,-29.78515625,-936.5234375,-70.80078125,0.0
540.453125,-1000.0,-23.4375,-31.73828125,-1000.0,-43.45703125,0.0
540.45703125,-1000.0,-38.0859375,-28.80859375,-1000.0,-13.18359375,0.0
540.4609375,-946.77734375,-40.0390625,-27.83203125,-945.3125,19.53125,0.0
540.46484375,-1000.0,-38.0859375,-27.83203125,-1000.0,-32.71484375,0.0
540.46875,-923.828125,-41.50390625,-24.4140625,-907.2265625,-88.8671875,0.0
540.47265625,512.6953125,-39.55078125,-36.1328125,533.69140625,-84.47265625,0.0
540.4765625,-907.71484375,-24.90234375,-34.1796875,-910.64453125,-12.20703125,0.0
540.48046875,892.578125,-16.6015625,-16.11328125,894.04296875,2.9296875,0.0
540.484375,981.93359375,-18.5546875,-12.6953125,984.375,3.90625,0.0
540.48828125,983.88671875,-18.5546875,-19.53125,973.14453125,-5.37109375,0.0
540.4921875,896.97265625,-19.53125,-18.06640625,911.1328125,-39.0625,0.0
540.49609375,-934.08203125,-23.92578125,-16.6015625,-939.94140625,-41.015625,0.0
540.5,668.45703125,-28.3203125,-21.484375,433.10546875,-46.875,0.0
540.50390625,-801.26953125,-13.18359375,-14.16015625,-893.06640625,-49.31640625,0.0
540.5078125,-1000.0,-8.30078125,-12.20703125,-1000.0,-72.75390625,0.0
540.51171875,-935.546875,-20.5078125,-21.484375,-952.63671875,-74.70703125,0.0
540.515625,-1000.0,-26.3671875,-23.4375,-1000.0,-3.90625,0.0
540.51953125,-953.125,-28.3203125,-20.99609375,-947.265625,41.015625,0.0
540.5234375,-1000.0,-25.390625,-22.94921875,-1000.0,23.4375,0.0
540.52734375,-965.8203125,-19.04296875,-17.578125,-925.29296875,11.71875,0.0
540.53125,437.5,-20.01953125,-7.32421875,505.37109375,0.0,0.0
540.53515625,-900.87890625,-26.85546875,-9.765625,-907.2265625,-5.859375,0.0
540.5390625,893.5546875,-27.83203125,-16.6015625,894.04296875,-13.18359375,0.0
540.54296875,979.4921875,-30.76171875,-14.6484375,981.93359375,-54.19921875,0.0
540.546875,971.19140625,-34.1796875,-13.671875,973.14453125,-65.4296875,0.0
540.55078125,955.078125,-31.25,-26.85546875,953.61328125,-43.45703125,0.0
540.5546875,928.22265625,-24.90234375,-37.59765625,936.03515625,0.48828125,0.0
540.55859375,-934.08203125,-15.625,-33.203125,-958.984375,-3.90625,0.0
540.5625,22.94921875,-12.6953125,-21.97265625,16.11328125,43.9453125,0.0
540.56640625,-1000.0,-12.20703125,-11.71875,-1000.0,86.9140625,0.0
540.5703125,-921.875,-16.6015625,-19.04296875,-984.86328125,53.22265625,0.0
540.57421875,-1000.0,-16.11328125,-28.3203125,-943.359375,-3.90625,0.0
540.578125,-178.22265625,-12.20703125,-25.87890625,213.37890625,-48.828125,0.0
540.58203125,-987.79296875,-15.625,-22.4609375,-958.0078125,-4.39453125,0.0
540.5859375,954.1015625,-17.08984375,-21.484375,928.22265625,67.87109375,0.0
540.58984375,956.54296875,-20.99609375,-27.34375,970.21484375,27.34375,0.0
540.59375,903.3203125,-26.85546875,-30.76171875,912.109375,-2.44140625,0.0
540.59765625,-923.828125,-32.2265625,-29.78515625,-937.5,52.24609375,0.0
540.6015625,583.49609375,-43.9453125,-28.80859375,473.6328125,49.31640625,0.0
540.60546875,-860.3515625,-41.015625,-28.80859375,-878.90625,13.18359375,0.0
540.609375,-1000.0,-22.4609375,-25.390625,-1000.0,-18.5546875,0.0
540.61328125,-941.89453125,-12.20703125,-21.97265625,-950.1953125,-47.36328125,0.0
540.6171875,-1000.0,-12.20703125,-15.625,-1000.0,-71.77734375,0.0
540.62109375,-949.21875,-11.23046875,-6.34765625,-945.3125,-109.375,0.0
540.625,-1000.0,-13.671875,-13.18359375,-1000.0,-133.7890625,0.0
540.62890625,-791.9921875,-24.4140625,-16.6015625,-715.8203125,-109.375,0.0
540.6328125,598.6328125,-28.80859375,-16.6015625,673.828125,-65.4296875,0.0
540.63671875,-929.6875,-25.390625,-14.16015625,-945.3125,-16.6015625,0.0
540.640625,900.390625,-30.76171875,-17.08984375,905.2734375,2.9296875,0.0
540.64453125,980.46875,-31.25,-38.0859375,983.3984375,12.20703125,0.0
540.6484375,982.91015625,-18.5546875,-43.9453125,971.6796875,66.89453125,0.0
540.65234375,895.5078125,-11.23046875,-28.3203125,912.109375,25.390625,0.0
540.65625,-925.29296875,-12.6953125,-12.6953125,-936.5234375,-18.06640625,0.0
540.66015625,609.86328125,-20.5078125,-4.8828125,378.41796875,27.83203125,0.0
540.6640625,-846.19140625,-25.87890625,-8.30078125,-926.26953125,35.15625,0.0
540.66796875,-1000.0,-21.97265625,-15.625,-1000.0,-11.71875,0.0
540.671875,-939.453125,-16.6015625,-12.20703125,-956.54296875,9.765625,0.0
540.67578125,-1000.0,-20.5078125,-20.01953125,-1000.0,3.41796875,0.0
540.6796875,-968.26171875,-26.3671875,-26.3671875,-958.0078125,-71.2890625,0.0
540.68359375,-994.62890625,-26.85546875,-27.83203125,-1000.0,-74.21875,0.0
540.6875,-1000.0,-28.80859375,-28.80859375,-988.28125,-80.078125,0.0
540.69140625,249.0234375,-25.87890625,-20.5078125,372.0703125,-147.4609375,0.0
540.6953125,-894.53125,-16.11328125,-25.87890625,-901.3671875,-79.58984375,0.0
540.69921875,901.3671875,-17.578125,-37.109375,898.4375,-73.73046875,0.0
540.703125,971.19140625,-23.4375,-35.64453125,976.5625,-110.83984375,0.0
540.70703125,983.88671875,-25.390625,-29.78515625,983.88671875,-49.8046875,0.0
540.7109375,909.66796875,-29.296875,-26.3671875,907.2265625,-33.203125,0.0
540.71484375,-979.00390625,-22.94921875,-17.578125,-963.8671875,-6.34765625,0.0
540.71875,857.91015625,-19.53125,-18.5546875,778.80859375,34.1796875,0.0
540.72265625,-597.65625,-23.92578125,-31.25,-669.921875,22.94921875,0.0
540.7265625,-1000.0,-18.5546875,-34.1796875,-1000.0,6.34765625,0.0
540.73046875,-925.78125,-14.6484375,-30.76171875,-930.6640625,20.5078125,0.0
540.734375,-1000.0,-14.6484375,-30.2734375,-1000.0,25.87890625,0.0
540.73828125,-1000.0,-18.06640625,-29.78515625,-1000.0,-119.140625,0.0
540.7421875,-928.22265625,-18.5546875,-22.4609375,-948.2421875,-194.82421875,0.0
540.74609375,-1000.0,-20.01953125,-30.76171875,-1000.0,-127.44140625,0.0
540.75,-604.00390625,-28.3203125,-44.921875,-338.37890625,-52.734375,0.0
540.75390625,841.796875,-26.3671875,-38.57421875,926.26953125,3.41796875,0.0
540.7578125,-975.5859375,-25.87890625,-30.76171875,985.83984375,0.48828125,0.0
540.76171875,909.1796875,-29.78515625,-26.3671875,929.19921875,12.6953125,0.0
540.765625,984.86328125,-30.2734375,-25.390625,983.88671875,27.34375,0.0
540.76953125,969.23828125,-30.76171875,-25.390625,954.58984375,44.43359375,0.0
540.7734375,908.203125,-25.390625,-30.76171875,936.03515625,79.58984375,0.0
540.77734375,-916.015625,-17.578125,-31.73828125,-961.9140625,27.83203125,0.0
540.78125,277.34375,-16.6015625,-24.90234375,47.8515625,-6.34765625,0.0
540.78515625,-1000.0,-20.99609375,-18.5546875,-1000.0,22.94921875,0.0
540.7890625,-1000.0,-28.3203125,-14.6484375,-982.421875,21.484375,0.0
540.79296875,-964.84375,-28.3203125,-15.13671875,-979.4921875,13.671875,0.0
540.796875,-1000.0,-28.80859375,-20.5078125,-1000.0,18.06640625,0.0
540.80078125,-944.82421875,-31.73828125,-27.83203125,-941.89453125,-62.01171875,0.0
540.8046875,-1000.0,-31.73828125,-39.55078125,-1000.0,-145.01953125,0.0
540.80859375,-908.203125,-28.80859375,-39.0625,-870.60546875,-109.86328125,0.0
540.8125,538.0859375,-14.16015625,-23.4375,583.49609375,-152.83203125,0.0
540.81640625,-910.15625,-7.32421875,-19.53125,-917.48046875,-157.71484375,0.0
540.8203125,892.578125,-15.13671875,-29.296875,894.53125,-135.7421875,0.0
540.82421875,983.3984375,-28.3203125,-42.96875,987.79296875,-60.05859375,0.0
540.828125,973.14453125,-35.64453125,-38.57421875,958.984375,22.4609375,0.0
540.83203125,904.296875,-32.2265625,-27.34375,928.7109375,70.3125,0.0
540.8359375,-914.55078125,-25.390625,-23.92578125,-948.73046875,46.38671875,0.0
540.83984375,346.19140625,-21.97265625,-27.83203125,112.3046875,-54.6875,0.0
540.84375,-978.515625,-20.99609375,-30.2734375,-1000.0,12.20703125,0.0
540.84765625,-1000.0,-24.4140625,-29.78515625,-989.2578125,115.72265625,0.0
540.8515625,-959.47265625,-31.73828125,-38.57421875,-975.5859375,115.234375,0.0
540.85546875,-1000.0,-36.1328125,-53.22265625,-1000.0,135.25390625,0.0
540.859375,-949.21875,-32.2265625,-45.41015625,-946.2890625,166.9921875,0.0
540.86328125,-1000.0,-30.2734375,-30.76171875,-1000.0,86.42578125,0.0
540.8671875,-939.453125,-27.83203125,-22.4609375,-914.0625,38.0859375,0.0
540.87109375,484.86328125,-31.73828125,-22.94921875,521.97265625,-2.9296875,0.0
540.875,-904.78515625,-26.3671875,-29.296875,-909.1796875,-65.91796875,0.0
540.87890625,892.578125,-18.5546875,-32.71484375,894.04296875,-69.82421875,0.0
540.8828125,980.46875,-19.04296875,-35.15625,982.421875,-34.66796875,0.0
540.88671875,983.3984375,-19.04296875,-32.71484375,983.88671875,0.9765625,0.0
540.890625,909.66796875,-25.390625,-23.4375,906.73828125,-46.875,0.0
540.89453125,-979.00390625,-29.296875,-20.99609375,-964.35546875,-48.33984375,0.0
540.8984375,857.91015625,-35.15625,-17.08984375,789.0625,-17.578125,0.0
540.90234375,-597.65625,-42.48046875,-20.01953125,-666.015625,4.39453125,0.0
540.90625,-1000.0,-40.52734375,-37.109375,-1000.0,38.0859375,0.0
540.91015625,-925.78125,-47.8515625,-38.57421875,-942.3828125,30.2734375,0.0
540.9140625,-1000.0,-56.15234375,-25.87890625,-982.421875,13.671875,0.0
540.91796875,-1000.0,-54.19921875,-14.6484375,-918.45703125,-23.4375,0.0
540.921875,-929.19921875,-51.26953125,-9.765625,-938.4765625,-65.91796875,0.0
540.92578125,-1000.0,-50.29296875,-14.16015625,-1000.0,-49.31640625,0.0
540.9296875,-681.640625,-47.8515625,-22.4609375,-440.4296875,-31.25,0.0
540.93359375,786.1328125,-40.52734375,-19.53125,876.46484375,-43.9453125,0.0
540.9375,-959.47265625,-36.1328125,-10.25390625,-996.58203125,-49.8046875,0.0
540.94140625,903.80859375,-36.1328125,-2.9296875,921.875,-45.41015625,0.0
540.9453125,988.28125,-41.9921875,-2.9296875,987.79296875,-25.87890625,0.0
540.94921875,954.1015625,-44.43359375,-4.8828125,942.87109375,-35.15625,0.0
540.953125,929.19921875,-44.43359375,-5.859375,954.58984375,-79.1015625,0.0
540.95703125,-935.546875,-44.921875,-7.32421875,-987.79296875,-105.46875,0.0
540.9609375,6.34765625,-45.41015625,-18.5546875,-154.296875,-72.75390625,0.0
540.96484375,-1000.0,-42.48046875,-29.78515625,-1000.0,-20.99609375,0.0
540.96875,-967.28515625,-41.9921875,-20.5078125,-982.421875,-2.9296875,0.0
540.97265625,-984.86328125,-47.36328125,-17.08984375,-952.1484375,49.8046875,0.0
540.9765625,-1000.0,-53.22265625,-27.83203125,-701.171875,17.578125,0.0
540.98046875,-942.87109375,-41.9921875,-29.296875,-831.54296875,56.640625,0.0
540.984375,-1000.0,-32.2265625,-24.4140625,-1000.0,57.12890625,0.0
540.98828125,-891.11328125,-32.2265625,-19.04296875,-825.1953125,-9.27734375,0.0
540.9921875,564.453125,-30.2734375,-16.11328125,610.3515625,24.90234375,0.0
540.99609375,-913.57421875,-32.71484375,-21.484375,-922.8515625,29.296875,0.0
541.0,892.578125,-38.57421875,-23.4375,895.5078125,0.48828125,0.0
541.00390625,983.3984375,-45.41015625,-21.97265625,985.83984375,-18.5546875,0.0
541.0078125,982.91015625,-43.45703125,-28.3203125,972.16796875,-21.97265625,0.0
541.01171875,895.99609375,-34.1796875,-43.9453125,911.62109375,-5.37109375,0.0
541.015625,-924.8046875,-29.296875,-46.38671875,-935.546875,15.625,0.0
541.01953125,605.95703125,-32.2265625,-33.69140625,391.11328125,23.4375,0.0
541.0234375,-848.6328125,-33.203125,-18.06640625,-921.38671875,35.64453125,0.0
541.02734375,-1000.0,-39.55078125,-19.53125,-1000.0,-3.90625,0.0
541.03125,-939.94140625,-37.59765625,-20.99609375,-955.56640625,-36.62109375,0.0
541.03515625,-1000.0,-30.2734375,-11.23046875,-1000.0,-50.78125,0.0
541.0390625,-967.28515625,-27.34375,-25.390625,-957.03125,-149.4140625,0.0
541.04296875,-996.58203125,-27.83203125,-34.1796875,-1000.0,-63.96484375,0.0
541.046875,-1000.0,-32.2265625,-20.5078125,-993.1640625,16.11328125,0.0
541.05078125,261.23046875,-35.15625,-15.13671875,361.328125,-9.27734375,0.0
541.0546875,-894.04296875,-38.57421875,-17.578125,-900.390625,35.15625,0.0
541.05859375,900.390625,-36.62109375,-18.06640625,898.4375,30.2734375,0.0
541.0625,971.6796875,-37.109375,-20.99609375,976.07421875,-5.37109375,0.0
541.06640625,983.88671875,-46.875,-30.2734375,984.375,-19.04296875,0.0
541.0703125,909.66796875,-41.50390625,-27.34375,908.203125,16.6015625,0.0
541.07421875,-979.00390625,-26.3671875,-18.5546875,-970.703125,95.703125,0.0
541.078125,858.3984375,-22.94921875,-21.97265625,827.1484375,128.90625,0.0
541.08203125,-613.76953125,-31.73828125,-26.3671875,-641.6015625,39.0625,0.0
541.0859375,-1000.0,-37.109375,-29.296875,-1000.0,-9.27734375,0.0
541.08984375,-977.5390625,-39.0625,-31.73828125,-988.28125,41.9921875,0.0
541.09375,-913.0859375,-39.0625,-33.69140625,-736.328125,67.87109375,0.0
541.09765625,554.6875,-26.3671875,-26.85546875,658.69140625,23.92578125,0.0
541.1015625,-912.59765625,-14.6484375,-15.625,-943.84765625,-15.625,0.0
541.10546875,908.203125,-22.4609375,-18.5546875,921.38671875,-18.06640625,0.0
541.109375,927.734375,-34.66796875,-27.83203125,924.31640625,-19.53125,0.0
541.11328125,-985.3515625,-34.1796875,-22.94921875,-979.98046875,-88.37890625,0.0
541.1171875,877.44140625,-31.25,-15.625,861.81640625,-151.85546875,0.0
541.12109375,-567.3828125,-29.78515625,-18.06640625,-588.37890625,-152.34375,0.0
541.125,-1000.0,-28.3203125,-21.484375,-1000.0,-95.21484375,0.0
541.12890625,-925.78125,-27.83203125,-22.94921875,-926.26953125,-17.578125,0.0
541.1328125,-1000.0,-21.484375,-19.04296875,-1000.0,-25.87890625,0.0
541.13671875,-1000.0,-17.08984375,-9.765625,-1000.0,-1.46484375,0.0
541.140625,-987.79296875,-25.87890625,-11.23046875,-996.09375,32.2265625,0.0
541.14453125,-961.9140625,-28.80859375,-20.5078125,-954.1015625,-59.5703125,0.0
541.1484375,-1000.0,-19.53125,-21.484375,-1000.0,-82.51953125,0.0
541.15234375,-103.02734375,-29.78515625,-28.80859375,-287.59765625,-29.78515625,0.0
541.15625,-919.43359375,-44.921875,-35.64453125,-964.84375,7.8125,0.0
541.16015625,887.6953125,-32.2265625,-30.76171875,823.2421875,4.39453125,0.0
541.1640625,-513.671875,-20.01953125,-28.3203125,-662.59765625,22.4609375,0.0
541.16796875,-1000.0,-20.99609375,-30.76171875,-1000.0,30.2734375,0.0
541.171875,-926.26953125,-23.4375,-20.5078125,-927.734375,18.06640625,0.0
541.17578125,-1000.0,-19.04296875,-4.8828125,-1000.0,-21.97265625,0.0
541.1796875,-994.140625,-16.11328125,-2.9296875,-997.55859375,-46.38671875,0.0
541.18359375,-953.125,-19.04296875,-10.25390625,-951.171875,7.8125,0.0
541.1875,-1000.0,-20.01953125,-12.6953125,-1000.0,-20.5078125,0.0
541.19140625,-139.16015625,-16.11328125,-11.71875,-241.69921875,-47.8515625,0.0
541.1953125,961.42578125,-13.671875,-13.671875,914.55078125,8.30078125,0.0
541.19921875,-995.60546875,-15.625,-24.4140625,-953.61328125,41.50390625,0.0
541.203125,833.984375,-17.08984375,-17.08984375,550.78125,12.20703125,0.0
541.20703125,-590.8203125,-21.484375,-7.32421875,-774.4140625,-20.99609375,0.0
541.2109375,-1000.0,-19.53125,-10.25390625,-1000.0,-61.5234375,0.0
541.21484375,-935.05859375,-12.20703125,-11.23046875,-949.70703125,-24.90234375,0.0
541.21875,-981.4453125,-15.625,-17.578125,-973.6328125,-18.06640625,0.0
541.22265625,-1000.0,-27.83203125,-18.06640625,-1000.0,-84.9609375,0.0
541.2265625,-1000.0,-40.0390625,-12.20703125,-1000.0,-68.84765625,0.0
541.23046875,280.2734375,-37.109375,-14.6484375,328.61328125,10.7421875,0.0
541.234375,-894.53125,-23.4375,-19.04296875,-912.109375,31.25,0.0
541.23828125,899.4140625,-14.16015625,-19.53125,914.55078125,87.890625,0.0
541.2421875,972.65625,-12.20703125,-17.578125,955.56640625,52.24609375,0.0
541.24609375,983.3984375,-21.97265625,-18.06640625,809.5703125,14.16015625,0.0
541.25,909.66796875,-28.80859375,-17.578125,847.16796875,-10.7421875,0.0
541.25390625,-979.00390625,-25.87890625,-14.6484375,-939.94140625,-49.31640625,0.0
541.2578125,857.91015625,-27.83203125,-9.765625,779.78515625,-31.73828125,0.0
541.26171875,-597.65625,-32.2265625,-9.765625,-665.0390625,-22.94921875,0.0
541.265625,-1000.0,-23.92578125,-9.27734375,-1000.0,22.94921875,0.0
541.26953125,-925.78125,-20.5078125,-6.34765625,-941.89453125,-60.546875,0.0
541.2734375,-1000.0,-22.94921875,-9.27734375,-986.328125,-90.8203125,0.0
541.27734375,-1000.0,-25.390625,-21.484375,-925.29296875,63.4765625,0.0
541.28125,-930.17578125,-32.2265625,-31.25,-936.5234375,15.625,0.0
541.28515625,-1000.0,-35.15625,-40.52734375,-1000.0,-72.75390625,0.0
541.2890625,-721.19140625,-40.0390625,-42.48046875,-494.140625,-61.5234375,0.0
541.29296875,767.08984375,-34.1796875,-23.4375,854.4921875,-43.45703125,0.0
541.296875,-996.09375,-23.4375,-12.20703125,982.91015625,-5.859375,0.0
541.30078125,923.828125,-20.5078125,-11.71875,929.6875,13.18359375,0.0
541.3046875,960.9375,-20.99609375,-19.53125,774.4140625,-43.9453125,0.0
541.30859375,-439.453125,-25.390625,-20.01953125,-404.296875,-44.921875,0.0
541.3125,-1000.0,-27.83203125,-12.20703125,-1000.0,8.30078125,0.0
541.31640625,-944.82421875,-23.92578125,-12.20703125,-976.5625,18.06640625,0.0
541.3203125,-953.125,-28.3203125,-11.71875,-938.96484375,-64.453125,0.0
541.32421875,-1000.0,-26.85546875,-3.90625,-1000.0,-133.30078125,0.0
541.328125,-891.11328125,-20.99609375,-10.25390625,-868.1640625,-78.61328125,0.0
541.33203125,564.453125,-21.97265625,-31.25,592.28515625,-4.8828125,0.0
541.3359375,-913.57421875,-25.87890625,-34.1796875,-917.96875,-74.21875,0.0
541.33984375,892.578125,-27.34375,-18.06640625,894.53125,-112.3046875,0.0
541.34375,983.3984375,-27.83203125,-12.6953125,985.3515625,17.578125,0.0
541.34765625,983.88671875,-28.80859375,-18.5546875,977.5390625,-71.2890625,0.0
541.3515625,895.99609375,-31.25,-22.94921875,906.73828125,-163.0859375,0.0
541.35546875,-931.15234375,-30.76171875,-21.97265625,-937.5,76.66015625,0.0
541.359375,637.6953125,-33.203125,-17.578125,505.859375,62.5,0.0
541.36328125,-771.484375,-31.73828125,-16.6015625,-800.29296875,20.99609375,0.0
541.3671875,-1000.0,-22.94921875,-27.83203125,-1000.0,114.2578125,0.0
541.37109375,-915.52734375,-21.484375,-29.78515625,-835.44921875,120.1171875,0.0
541.375,392.08984375,-17.578125,-26.3671875,530.76171875,-1.46484375,0.0
541.37890625,-898.92578125,-19.53125,-24.90234375,-915.0390625,-80.56640625,0.0
541.3828125,894.53125,-31.73828125,-17.08984375,895.5078125,-50.78125,0.0
541.38671875,994.140625,-32.71484375,-9.27734375,998.046875,12.6953125,0.0
541.390625,908.69140625,-37.109375,-12.20703125,906.25,15.625,0.0
541.39453125,-976.5625,-46.38671875,-27.34375,-961.9140625,62.98828125,0.0
541.3984375,849.12109375,-41.015625,-24.90234375,775.390625,126.953125,0.0
541.40234375,-625.48828125,-29.296875,-22.94921875,-684.08203125,130.859375,0.0
541.40625,-1000.0,-27.83203125,-27.83203125,-1000.0,33.203125,0.0
541.41015625,-979.98046875,-32.71484375,-23.92578125,-997.55859375,-48.828125,0.0
541.4140625,-907.2265625,-28.80859375,-21.484375,-656.25,36.62109375,0.0
541.41796875,564.453125,-19.53125,-24.90234375,716.796875,26.3671875,0.0
541.421875,-913.57421875,-20.01953125,-31.25,-957.51953125,-68.359375,0.0
541.42578125,907.71484375,-22.94921875,-26.85546875,924.8046875,-66.40625,0.0
541.4296875,930.6640625,-20.99609375,-22.4609375,927.734375,-113.28125,0.0
541.43359375,-992.1875,-27.34375,-26.3671875,-988.76953125,-101.07421875,0.0
541.4375,897.94921875,-31.73828125,-13.671875,887.6953125,-16.11328125,0.0
541.44140625,-532.71484375,-34.1796875,-1.953125,-545.41015625,14.6484375,0.0
541.4453125,-1000.0,-30.2734375,-10.25390625,-1000.0,-7.8125,0.0
541.44921875,-925.78125,-15.13671875,-15.13671875,-926.7578125,-88.8671875,0.0
541.453125,-1000.0,-14.6484375,-20.5078125,-1000.0,-120.1171875,0.0
541.45703125,-1000.0,-21.484375,-22.94921875,-1000.0,-99.12109375,0.0
541.4609375,-929.6875,-27.83203125,-10.25390625,-942.3828125,-32.2265625,0.0
541.46484375,-1000.0,-39.55078125,-0.48828125,-1000.0,-9.27734375,0.0
541.46875,-709.9609375,-34.66796875,-0.9765625,-467.7734375,-67.87109375,0.0
541.47265625,765.13671875,-21.97265625,-16.6015625,867.1875,-100.09765625,0.0
541.4765625,-953.61328125,-20.99609375,-32.71484375,-993.1640625,-78.61328125,0.0
541.48046875,901.3671875,-17.08984375,-32.2265625,919.921875,-31.73828125,0.0
541.484375,985.83984375,-21.97265625,-36.1328125,984.375,-52.24609375,0.0
541.48828125,969.7265625,-27.83203125,-32.71484375,961.9140625,-20.99609375,0.0
541.4921875,907.2265625,-25.87890625,-22.94921875,923.828125,21.97265625,0.0
541.49609375,-916.015625,-25.87890625,-23.92578125,-941.40625,66.40625,0.0
541.5,278.3203125,-32.2265625,-28.80859375,145.5078125,87.40234375,0.0
541.50390625,-956.0546875,-44.43359375,-25.390625,-967.28515625,37.109375,0.0
541.5078125,-1000.0,-48.828125,-15.13671875,-1000.0,12.20703125,0.0
541.51171875,-953.61328125,-43.9453125,-13.18359375,-885.25390625,-1.953125,0.0
541.515625,375.9765625,-36.1328125,-19.53125,495.1171875,29.78515625,0.0
541.51953125,-897.94921875,-29.78515625,-19.04296875,-911.1328125,28.3203125,0.0
541.5234375,895.01953125,-19.04296875,-16.11328125,896.97265625,12.6953125,0.0
541.52734375,994.62890625,-19.53125,-22.94921875,991.69921875,-24.4140625,0.0
541.53125,897.94921875,-23.4375,-25.87890625,905.2734375,-72.75390625,0.0
541.53515625,-940.4296875,-17.08984375,-22.4609375,-937.5,-17.08984375,0.0
541.5390625,705.56640625,-28.80859375,-32.2265625,551.26953125,85.9375,0.0
541.54296875,-783.69140625,-40.52734375,-43.45703125,-827.1484375,11.23046875,0.0
541.546875,-1000.0,-27.83203125,-34.66796875,-1000.0,-58.59375,0.0
541.55078125,-1000.0,-21.97265625,-24.4140625,-998.046875,26.85546875,0.0
541.5546875,-610.3515625,-24.4140625,-19.53125,-176.26953125,0.48828125,0.0
541.55859375,842.28515625,-19.53125,-17.578125,954.58984375,34.66796875,0.0
541.5625,-977.05078125,-20.5078125,-27.34375,968.75,94.7265625,0.0
541.56640625,927.24609375,-19.04296875,-34.66796875,953.125,38.0859375,0.0
541.5703125,918.45703125,-8.7890625,-30.2734375,914.55078125,-8.7890625,0.0
541.57421875,-958.49609375,-20.01953125,-28.3203125,-949.21875,-33.69140625,0.0
541.578125,782.2265625,-38.57421875,-30.76171875,659.66796875,6.34765625,0.0
541.58203125,-697.75390625,-42.96875,-24.90234375,-766.6015625,-3.90625,0.0
541.5859375,-1000.0,-42.96875,-33.69140625,-1000.0,-61.03515625,0.0
541.58984375,-924.31640625,-38.57421875,-48.828125,-946.77734375,-61.03515625,0.0
541.59375,-1000.0,-26.3671875,-39.55078125,-883.7890625,-51.26953125,0.0
541.59765625,231.93359375,-22.94921875,-19.53125,282.2265625,-108.88671875,0.0
541.6015625,-907.2265625,-31.25,-10.25390625,-969.23828125,-177.734375,0.0
541.60546875,914.0625,-26.85546875,-14.6484375,939.94140625,-138.18359375,0.0
541.609375,940.91796875,-20.01953125,-16.6015625,929.19921875,-19.04296875,0.0
541.61328125,955.078125,-20.5078125,-13.671875,970.703125,52.24609375,0.0
541.6171875,-971.6796875,-20.5078125,-22.94921875,991.69921875,30.76171875,0.0
541.62109375,-236.328125,-25.87890625,-33.203125,-291.015625,-41.015625,0.0
541.625,-1000.0,-31.73828125,-33.69140625,-1000.0,-90.8203125,0.0
541.62890625,-987.79296875,-31.73828125,-31.25,-1000.0,-10.25390625,0.0
541.6328125,-911.62109375,-31.25,-34.1796875,-760.25390625,62.5,0.0
541.63671875,531.25,-33.203125,-31.73828125,628.90625,42.96875,0.0
541.640625,-909.66796875,-29.78515625,-25.390625,-937.5,42.48046875,0.0
541.64453125,901.85546875,-28.3203125,-29.296875,913.57421875,65.4296875,0.0
541.6484375,948.2421875,-33.69140625,-32.2265625,944.82421875,33.69140625,0.0
541.65234375,964.84375,-35.64453125,-24.90234375,973.6328125,81.0546875,0.0
541.65625,-993.1640625,-32.71484375,-15.13671875,981.4453125,95.703125,0.0
541.66015625,-307.6171875,-27.83203125,-14.16015625,-333.984375,10.7421875,0.0
541.6640625,-1000.0,-28.3203125,-20.99609375,-1000.0,11.23046875,0.0
541.66796875,-893.06640625,-38.57421875,-30.2734375,-940.4296875,37.59765625,0.0
541.671875,-1000.0,-40.52734375,-33.203125,-994.140625,-5.37109375,0.0
541.67578125,-77.63671875,-31.25,-33.203125,203.125,-95.703125,0.0
541.6796875,-961.42578125,-38.57421875,-33.203125,-950.1953125,-124.51171875,0.0
541.68359375,941.40625,-37.109375,-30.2734375,928.22265625,-64.453125,0.0
541.6875,952.1484375,-28.3203125,-27.83203125,955.078125,-67.87109375,0.0
541.69140625,912.109375,-25.87890625,-23.4375,930.17578125,-5.37109375,0.0
541.6953125,-915.52734375,-23.4375,-17.08984375,-945.3125,68.359375,0.0
541.69921875,299.31640625,-28.80859375,-22.4609375,116.2109375,-22.94921875,0.0
541.703125,-979.98046875,-35.15625,-26.3671875,-995.1171875,-86.42578125,0.0
541.70703125,-975.5859375,-35.15625,-25.390625,-993.65234375,-94.7265625,0.0
541.7109375,-1000.0,-30.76171875,-29.78515625,-978.02734375,-102.5390625,0.0
541.71484375,-27.34375,-19.53125,-37.109375,216.796875,-64.453125,0.0
541.71875,-943.84765625,-8.7890625,-31.73828125,-904.296875,-9.27734375,0.0
541.72265625,931.640625,-15.625,-26.85546875,866.2109375,-32.71484375,0.0
541.7265625,967.7734375,-35.15625,-27.34375,764.16015625,-48.33984375,0.0
541.73046875,899.90234375,-40.0390625,-24.4140625,877.9296875,23.4375,0.0
541.734375,-919.43359375,-24.90234375,-26.85546875,-912.59765625,27.34375,0.0
541.73828125,556.15234375,-20.99609375,-32.71484375,351.5625,-62.01171875,0.0
541.7421875,-895.99609375,-28.80859375,-39.0625,-944.3359375,-27.34375,0.0
541.74609375,-1000.0,-24.90234375,-41.50390625,-982.421875,41.50390625,0.0
541.75,-979.00390625,-18.06640625,-37.59765625,-996.09375,-34.66796875,0.0
541.75390625,-960.44921875,-25.87890625,-25.390625,-808.59375,-32.71484375,0.0
541.7578125,474.12109375,-33.69140625,-9.27734375,537.59765625,62.5,0.0
541.76171875,-904.296875,-32.71484375,-4.8828125,-932.12890625,39.55078125,0.0
541.765625,907.71484375,-29.78515625,-10.25390625,920.8984375,-49.8046875,0.0
541.76953125,929.6875,-32.71484375,-25.390625,925.78125,-82.51953125,0.0
541.7734375,-996.58203125,-23.4375,-41.50390625,-992.1875,-4.8828125,0.0
541.77734375,909.66796875,-13.671875,-42.96875,897.94921875,84.9609375,0.0
541.78125,-511.71875,-18.5546875,-36.1328125,-529.296875,19.53125,0.0
541.78515625,-1000.0,-21.97265625,-35.15625,-1000.0,-59.5703125,0.0
541.7890625,-926.26953125,-25.390625,-35.15625,-959.9609375,-11.23046875,0.0
541.79296875,-1000.0,-21.484375,-34.1796875,-917.48046875,48.828125,0.0
541.796875,-1000.0,-21.484375,-36.62109375,-738.76953125,21.484375,0.0
541.80078125,-928.7109375,-26.85546875,-42.48046875,-910.64453125,27.34375,0.0
541.8046875,-1000.0,-22.94921875,-35.15625,-1000.0,28.80859375,0.0
541.80859375,-655.2734375,-31.73828125,-31.73828125,-399.90234375,30.2734375,0.0
541.8125,782.2265625,-48.33984375,-35.15625,856.93359375,27.34375,0.0
541.81640625,-991.2109375,-50.29296875,-35.15625,-998.046875,2.44140625,0.0
541.8203125,972.65625,-36.62109375,-41.015625,918.45703125,-13.18359375,0.0
541.82421875,-27.34375,-30.2734375,-39.55078125,-212.40234375,-67.87109375,0.0
541.828125,-1000.0,-33.203125,-25.390625,-1000.0,-155.76171875,0.0
541.83203125,-909.1796875,-17.578125,-13.18359375,-849.12109375,-164.55078125,0.0
541.8359375,466.796875,-8.30078125,-14.6484375,513.18359375,-89.35546875,0.0
541.83984375,-905.2734375,-26.85546875,-33.69140625,-914.55078125,-31.73828125,0.0
541.84375,895.5078125,-43.9453125,-49.8046875,902.34375,-53.22265625,0.0
541.84765625,977.5390625,-36.1328125,-43.45703125,963.8671875,-40.52734375,0.0
541.8515625,914.0625,-21.484375,-21.97265625,940.91796875,-62.01171875,0.0
541.85546875,-919.921875,-20.01953125,-15.13671875,-963.8671875,-96.19140625,0.0
541.859375,190.4296875,-25.390625,-19.53125,-30.76171875,-2.9296875,0.0
541.86328125,-1000.0,-24.90234375,-22.4609375,-1000.0,88.37890625,0.0
541.8671875,-993.65234375,-26.3671875,-28.80859375,-969.7265625,14.6484375,0.0
541.87109375,-971.6796875,-28.3203125,-25.87890625,-985.83984375,-108.3984375,0.0
541.875,-1000.0,-22.94921875,-20.99609375,-1000.0,-165.52734375,0.0
541.87890625,-1000.0,-23.92578125,-25.87890625,-1000.0,-75.1953125,0.0
541.8828125,-929.19921875,-25.390625,-31.25,-940.4296875,14.16015625,0.0
541.88671875,-1000.0,-28.80859375,-32.71484375,-1000.0,-61.03515625,0.0
541.890625,-645.99609375,-29.78515625,-30.2734375,-572.75390625,-100.09765625,0.0
541.89453125,753.41796875,-26.85546875,-25.390625,824.21875,-73.73046875,0.0
541.8984375,-851.07421875,-28.80859375,-38.0859375,-956.0546875,-45.8984375,0.0
541.90234375,177.24609375,-34.66796875,-42.96875,-299.31640625,-39.55078125,0.0
541.90625,-1000.0,-48.33984375,-33.203125,-1000.0,-55.6640625,0.0
541.91015625,-1000.0,-45.41015625,-24.4140625,-946.77734375,6.34765625,0.0
541.9140625,-967.7734375,-35.15625,-23.4375,-999.51171875,31.25,0.0
541.91796875,-1000.0,-33.203125,-24.4140625,-1000.0,-7.32421875,0.0
541.921875,-930.17578125,-24.4140625,-20.01953125,-936.5234375,-7.8125,0.0
541.92578125,-1000.0,-21.484375,-20.01953125,-1000.0,29.296875,0.0
541.9296875,-691.89453125,-22.4609375,-23.92578125,-726.07421875,14.16015625,0.0
541.93359375,707.03125,-26.85546875,-20.5078125,646.484375,12.20703125,0.0
541.9375,-905.2734375,-33.203125,-23.4375,-874.0234375,-1.953125,0.0
541.94140625,791.50390625,-33.69140625,-30.76171875,642.08984375,-49.31640625,0.0
541.9453125,-498.53515625,-32.2265625,-25.390625,-633.30078125,-97.65625,0.0
541.94921875,-1000.0,-24.90234375,-25.87890625,-1000.0,-114.74609375,0.0
541.953125,-807.6171875,-17.578125,-33.69140625,-680.6640625,-69.3359375,0.0
541.95703125,561.03515625,-17.578125,-24.90234375,632.8125,-46.875,0.0
541.9609375,-915.52734375,-22.4609375,-17.578125,-938.4765625,-70.80078125,0.0
541.96484375,905.76171875,-29.78515625,-19.53125,917.48046875,-86.9140625,0.0
541.96875,937.5,-23.4375,-18.5546875,931.640625,19.53125,0.0
541.97265625,991.2109375,-22.94921875,-15.625,-995.60546875,105.46875,0.0
541.9765625,942.87109375,-37.59765625,-19.04296875,906.73828125,-16.11328125,0.0
541.98046875,-465.8203125,-39.55078125,-26.3671875,-520.99609375,26.85546875,0.0
541.984375,-1000.0,-28.80859375,-26.85546875,-1000.0,120.60546875,0.0
541.98828125,-983.88671875,-22.94921875,-20.01953125,-1000.0,54.6875,0.0
541.9921875,-893.5546875,-19.53125,-16.11328125,-724.12109375,-30.76171875,0.0
541.99609375,575.68359375,-9.27734375,-23.92578125,701.66015625,-138.671875,0.0
542.0,-915.52734375,-12.20703125,-26.85546875,-947.75390625,-159.66796875,0.0
542.00390625,901.3671875,-17.08984375,-20.5078125,915.52734375,-92.7734375,0.0
542.0078125,952.1484375,-20.5078125,-20.5078125,943.84765625,-74.70703125,0.0
542.01171875,960.44921875,-26.85546875,-20.01953125,978.02734375,2.9296875,0.0
542.015625,-982.91015625,-30.2734375,-21.97265625,971.19140625,51.26953125,0.0
542.01953125,-275.390625,-29.78515625,-26.3671875,-361.328125,-3.41796875,0.0
542.0234375,-1000.0,-24.90234375,-42.48046875,-1000.0,30.2734375,0.0
542.02734375,-885.25390625,-22.4609375,-45.8984375,-912.59765625,7.8125,0.0
542.03125,-1000.0,-20.99609375,-24.90234375,-1000.0,-43.45703125,0.0
542.03515625,-196.77734375,-18.06640625,-7.32421875,-35.64453125,-30.2734375,0.0
542.0390625,-994.140625,-10.25390625,0.0,-999.0234375,-41.9921875,0.0
542.04296875,957.03125,-8.7890625,0.9765625,951.66015625,-29.78515625,0.0
542.046875,955.56640625,-19.53125,-5.37109375,952.63671875,-46.875,0.0
542.05078125,903.3203125,-34.1796875,-10.25390625,917.96875,-68.359375,0.0
542.0546875,-922.36328125,-34.66796875,-23.4375,-934.08203125,-43.9453125,0.0
542.05859375,583.49609375,-25.390625,-37.109375,377.9296875,9.765625,0.0
542.0625,-878.90625,-24.4140625,-37.109375,-919.921875,-31.73828125,0.0
542.06640625,-989.2578125,-23.92578125,-37.109375,-994.62890625,-16.11328125,0.0
542.0703125,-1000.0,-20.99609375,-36.1328125,-1000.0,-20.5078125,0.0
542.07421875,-620.1171875,-19.53125,-34.66796875,-222.65625,-29.296875,0.0
542.078125,834.9609375,-19.04296875,-27.34375,941.89453125,43.45703125,0.0
542.08203125,-975.09765625,-23.4375,-22.94921875,974.12109375,-3.90625,0.0
542.0859375,925.78125,-26.85546875,-19.53125,953.125,19.04296875,0.0
542.08984375,925.29296875,-20.99609375,-17.08984375,918.45703125,93.75,0.0
542.09375,-979.00390625,-19.53125,-19.53125,-974.12109375,30.2734375,0.0
542.09765625,853.02734375,-20.5078125,-22.94921875,832.51953125,-41.015625,0.0
542.1015625,-579.58984375,-24.4140625,-29.78515625,-574.21875,20.5078125,0.0
542.10546875,-1000.0,-25.87890625,-36.1328125,-1000.0,85.44921875,0.0
542.109375,-1000.0,-21.97265625,-24.90234375,-916.9921875,89.35546875,0.0
542.11328125,22.94921875,-22.94921875,-17.578125,325.1953125,37.59765625,0.0
542.1171875,-929.6875,-25.390625,-21.97265625,-908.203125,-9.765625,0.0
542.12109375,924.31640625,-27.34375,-20.01953125,902.34375,62.01171875,0.0
542.125,964.84375,-30.2734375,-23.4375,982.421875,87.40234375,0.0
542.12890625,941.40625,-31.73828125,-25.87890625,938.96484375,16.11328125,0.0
542.1328125,955.078125,-36.1328125,-26.85546875,961.42578125,-87.890625,0.0
542.13671875,-974.12109375,-35.15625,-22.4609375,-994.62890625,1.953125,0.0
542.140625,-230.95703125,-29.296875,-25.87890625,-233.3984375,81.54296875,0.0
542.14453125,-1000.0,-20.01953125,-33.69140625,-1000.0,34.66796875,0.0
542.1484375,-939.94140625,-10.25390625,-34.66796875,-944.82421875,-44.921875,0.0
542.15234375,-1000.0,-9.27734375,-26.3671875,-1000.0,-183.59375,0.0
542.15625,-1000.0,-16.11328125,-16.6015625,-1000.0,-230.46875,0.0
542.16015625,-935.546875,-21.484375,-14.6484375,-937.01171875,-200.1953125,0.0
542.1640625,-1000.0,-30.76171875,-18.5546875,-1000.0,-252.9296875,0.0
542.16796875,-808.59375,-29.78515625,-23.92578125,-621.58203125,-189.94140625,0.0
542.171875,664.55078125,-29.296875,-20.99609375,784.66796875,-43.9453125,0.0
542.17578125,-931.640625,-36.62109375,-1.46484375,-966.796875,-18.06640625,0.0
542.1796875,895.99609375,-30.76171875,0.9765625,909.66796875,55.6640625,0.0
542.18359375,990.234375,-20.01953125,-20.99609375,991.2109375,145.01953125,0.0
542.1875,944.3359375,-20.01953125,-25.390625,937.5,42.96875,0.0
542.19140625,944.82421875,-25.87890625,-16.11328125,961.9140625,-8.7890625,0.0
542.1953125,-955.56640625,-28.3203125,-11.71875,-997.0703125,128.90625,0.0
542.19921875,-145.99609375,-32.71484375,-12.20703125,-239.74609375,46.875,0.0
542.203125,-1000.0,-30.76171875,-17.578125,-1000.0,-68.84765625,0.0
542.20703125,-878.90625,-20.5078125,-24.4140625,-909.66796875,-43.9453125,0.0
542.2109375,-1000.0,-20.5078125,-29.296875,-1000.0,-48.33984375,0.0
542.21484375,-704.1015625,-16.11328125,-32.71484375,-363.76953125,10.7421875,0.0
542.21875,760.7421875,-15.625,-38.57421875,838.37890625,52.734375,0.0
542.22265625,-954.58984375,-28.3203125,-49.31640625,-995.60546875,-5.859375,0.0
542.2265625,919.43359375,-36.1328125,-41.50390625,935.05859375,-11.71875,0.0
542.23046875,913.57421875,-37.59765625,-22.4609375,918.45703125,83.49609375,0.0
542.234375,-932.6171875,-41.015625,-13.671875,-937.5,77.63671875,0.0
542.23828125,661.62109375,-43.45703125,-14.6484375,493.1640625,39.55078125,0.0
542.2421875,-824.21875,-36.1328125,-18.5546875,-862.3046875,20.01953125,0.0
542.24609375,-1000.0,-30.76171875,-21.484375,-1000.0,-19.04296875,0.0
542.25,-1000.0,-31.25,-23.4375,-1000.0,-3.90625,0.0
542.25390625,-695.80078125,-23.4375,-19.04296875,-322.75390625,14.6484375,0.0
542.2578125,785.15625,-21.484375,-14.6484375,894.53125,18.06640625,0.0
542.26171875,-959.9609375,-25.87890625,-21.484375,989.74609375,18.5546875,0.0
542.265625,920.41015625,-26.3671875,-20.5078125,946.77734375,1.953125,0.0
542.26953125,925.78125,-28.80859375,-14.6484375,917.48046875,-41.015625,0.0
542.2734375,-977.5390625,-31.25,-12.6953125,-965.8203125,9.27734375,0.0
542.27734375,853.515625,-35.15625,-17.578125,804.19921875,44.43359375,0.0
542.28125,-620.1171875,-35.15625,-23.92578125,-661.62109375,-2.9296875,0.0
542.28515625,-1000.0,-32.71484375,-25.390625,-1000.0,-4.39453125,0.0
542.2890625,-979.98046875,-33.203125,-24.90234375,-991.69921875,-47.8515625,0.0
542.29296875,-907.2265625,-41.50390625,-22.94921875,-646.97265625,-23.4375,0.0
542.296875,564.453125,-47.36328125,-27.83203125,716.30859375,4.39453125,0.0
542.30078125,-913.57421875,-36.1328125,-24.4140625,-958.0078125,-15.625,0.0
542.3046875,903.80859375,-31.25,-20.01953125,922.36328125,5.37109375,0.0
542.30859375,942.3828125,-36.1328125,-24.90234375,936.5234375,38.0859375,0.0
542.3125,979.4921875,-35.15625,-25.87890625,990.234375,48.33984375,0.0
542.31640625,973.6328125,-30.2734375,-20.5078125,943.359375,92.28515625,0.0
542.3203125,-385.7421875,-22.4609375,-6.34765625,-435.546875,104.4921875,0.0
542.32421875,-1000.0,-21.97265625,-15.625,-1000.0,62.98828125,0.0
542.328125,-929.19921875,-32.71484375,-26.85546875,-942.87109375,41.9921875,0.0
542.33203125,-1000.0,-26.85546875,-23.92578125,-971.6796875,2.9296875,0.0
542.3359375,-1000.0,-19.53125,-33.69140625,-932.6171875,-60.05859375,0.0
542.33984375,-937.5,-31.73828125,-39.0625,-938.4765625,-63.4765625,0.0
542.34375,-1000.0,-41.9921875,-30.76171875,-1000.0,-63.4765625,0.0
542.34765625,-831.54296875,-39.0625,-30.2734375,-644.53125,-85.44921875,0.0
542.3515625,637.20703125,-33.203125,-46.38671875,762.20703125,-32.2265625,0.0
542.35546875,-926.7578125,-35.64453125,-50.29296875,-961.42578125,43.9453125,0.0
542.359375,895.01953125,-40.52734375,-24.90234375,908.203125,41.50390625,0.0
542.36328125,987.79296875,-31.25,-8.7890625,989.2578125,-15.625,0.0
542.3671875,956.54296875,-29.296875,-13.18359375,947.265625,-97.16796875,0.0
542.37109375,925.78125,-34.66796875,-13.671875,946.2890625,-56.15234375,0.0
542.375,-931.15234375,-28.80859375,-12.20703125,-973.6328125,-9.765625,0.0
542.37890625,42.48046875,-23.4375,-19.04296875,-89.84375,-57.6171875,0.0
542.3828125,-1000.0,-28.3203125,-23.4375,-1000.0,-104.98046875,0.0
542.38671875,-937.01171875,-26.3671875,-32.2265625,-961.42578125,-83.49609375,0.0
542.390625,-1000.0,-20.5078125,-33.69140625,-1000.0,-13.671875,0.0
542.39453125,-27.34375,-20.01953125,-26.85546875,192.87109375,-7.32421875,0.0
542.3984375,-944.82421875,-34.66796875,-27.83203125,-930.6640625,-24.90234375,0.0
542.40234375,932.12890625,-46.38671875,-28.80859375,917.96875,45.8984375,0.0
542.40625,970.21484375,-35.64453125,-32.2265625,977.05078125,-39.55078125,0.0
542.41015625,903.80859375,-27.83203125,-37.109375,907.71484375,-110.83984375,0.0
542.4140625,-946.2890625,-23.4375,-42.48046875,-942.3828125,19.04296875,0.0
542.41796875,731.93359375,-24.4140625,-47.36328125,600.5859375,49.31640625,0.0
542.421875,-744.140625,-29.78515625,-33.69140625,-801.26953125,50.78125,0.0
542.42578125,-1000.0,-27.34375,-17.578125,-1000.0,82.03125,0.0
542.4296875,-931.640625,-28.3203125,-16.6015625,-941.40625,58.10546875,0.0
542.43359375,-1000.0,-27.34375,-13.671875,-920.41015625,-6.34765625,0.0
542.4375,-977.05078125,-17.578125,-20.5078125,-914.0625,-22.4609375,0.0
542.44140625,-979.00390625,-21.484375,-29.296875,-1000.0,-29.296875,0.0
542.4453125,-1000.0,-31.73828125,-23.92578125,-1000.0,-49.8046875,0.0
542.44921875,123.53515625,-29.78515625,-23.4375,264.6484375,-35.64453125,0.0
542.453125,-911.62109375,-24.4140625,-31.25,-908.69140625,-25.87890625,0.0
542.45703125,913.57421875,-16.6015625,-27.83203125,906.25,-65.4296875,0.0
542.4609375,963.37890625,-19.04296875,-19.04296875,970.703125,-50.29296875,0.0
542.46484375,985.3515625,-20.99609375,-20.99609375,985.3515625,-10.7421875,0.0
542.46875,909.66796875,-15.625,-23.4375,906.73828125,-48.33984375,0.0
542.47265625,-978.515625,-13.671875,-24.4140625,-965.8203125,-83.984375,0.0
542.4765625,858.3984375,-18.5546875,-28.80859375,801.26953125,-86.9140625,0.0
542.48046875,-614.2578125,-17.578125,-29.296875,-664.55078125,-8.7890625,0.0
542.484375,-1000.0,-17.08984375,-33.203125,-1000.0,40.52734375,0.0
542.48828125,-987.79296875,-22.4609375,-34.1796875,-1000.0,-25.390625,0.0
542.4921875,-878.41796875,-20.5078125,-25.87890625,-631.34765625,-33.69140625,0.0
542.49609375,600.09765625,-21.484375,-18.5546875,747.55859375,-18.06640625,0.0
542.5,-919.921875,-25.87890625,-24.4140625,-963.37890625,9.765625,0.0
542.50390625,907.71484375,-24.90234375,-32.71484375,925.78125,-21.484375,0.0
542.5078125,934.5703125,-21.97265625,-44.921875,929.6875,-87.40234375,0.0
542.51171875,-1000.0,-20.5078125,-50.29296875,-993.1640625,-42.96875,0.0
542.515625,919.921875,-24.4140625,-41.50390625,901.3671875,-40.0390625,0.0
542.51953125,-509.765625,-28.80859375,-32.71484375,-538.57421875,-93.75,0.0
542.5234375,-1000.0,-36.1328125,-22.4609375,-1000.0,-73.2421875,0.0
542.52734375,-971.6796875,-43.9453125,-8.30078125,-980.46875,-41.9921875,0.0
542.53125,-930.17578125,-40.52734375,-4.39453125,-891.6015625,-30.2734375,0.0
542.53515625,523.4375,-32.2265625,-7.8125,562.98828125,107.91015625,0.0
542.5390625,-908.203125,-23.4375,-5.859375,-916.9921875,43.9453125,0.0
542.54296875,895.01953125,-18.06640625,-9.27734375,900.87890625,-19.53125,0.0
542.546875,976.5625,-20.99609375,-25.390625,967.28515625,-19.53125,0.0
542.55078125,917.96875,-16.11328125,-28.80859375,937.98828125,-41.50390625,0.0
542.5546875,-923.33984375,-19.53125,-33.203125,-959.9609375,-20.01953125,0.0
542.55859375,140.625,-26.3671875,-34.66796875,-4.39453125,-46.38671875,0.0
542.5625,-1000.0,-27.34375,-23.4375,-1000.0,-124.0234375,0.0
542.56640625,-986.328125,-32.71484375,-28.3203125,-973.14453125,-149.4140625,0.0
542.5703125,-975.09765625,-25.390625,-27.83203125,-983.88671875,-73.73046875,0.0
542.57421875,-1000.0,-23.4375,-16.11328125,-1000.0,39.55078125,0.0
542.578125,-1000.0,-30.76171875,-27.34375,-1000.0,-2.9296875,0.0
542.58203125,-932.12890625,-20.01953125,-50.29296875,-937.98828125,6.34765625,0.0
542.5859375,-1000.0,-25.390625,-42.48046875,-1000.0,-2.9296875,0.0
542.58984375,-767.578125,-47.8515625,-19.04296875,-770.01953125,14.16015625,0.0
542.59375,685.546875,-43.9453125,-16.6015625,731.4453125,44.921875,0.0
542.59765625,-848.14453125,-20.5078125,-19.53125,-978.515625,38.57421875,0.0
542.6015625,-77.63671875,-14.6484375,-20.01953125,-506.34765625,96.6796875,0.0
542.60546875,-1000.0,-20.99609375,-31.25,-1000.0,51.26953125,0.0
542.609375,-965.33203125,-21.97265625,-32.71484375,-930.17578125,49.8046875,0.0
542.61328125,-986.328125,-21.97265625,-19.53125,-1000.0,166.9921875,0.0
542.6171875,-1000.0,-25.87890625,-23.4375,-1000.0,140.625,0.0
542.62109375,-930.17578125,-27.83203125,-30.2734375,-938.4765625,107.91015625,0.0
542.625,-1000.0,-34.1796875,-26.3671875,-1000.0,41.9921875,0.0
542.62890625,-563.96484375,-28.3203125,-29.78515625,-533.69140625,-57.12890625,0.0
542.6328125,859.86328125,-22.94921875,-30.76171875,833.984375,-118.1640625,0.0
542.63671875,-982.91015625,-21.97265625,-21.97265625,-971.6796875,-107.421875,0.0
542.640625,912.59765625,-16.6015625,-9.27734375,895.99609375,-86.42578125,0.0
542.64453125,998.53515625,-23.4375,-13.671875,895.5078125,-52.24609375,0.0
542.6484375,909.66796875,-27.34375,-17.08984375,884.27734375,-26.85546875,0.0
542.65234375,-979.00390625,-24.4140625,-16.6015625,-946.2890625,-4.8828125,0.0
542.65625,857.91015625,-24.4140625,-20.01953125,740.72265625,-41.015625,0.0
542.66015625,-607.91015625,-31.25,-21.97265625,-708.0078125,-28.80859375,0.0
542.6640625,-1000.0,-31.25,-32.2265625,-1000.0,31.73828125,0.0
542.66796875,-931.640625,-33.203125,-40.0390625,-948.2421875,44.43359375,0.0
542.671875,-1000.0,-32.2265625,-24.4140625,-974.609375,-4.39453125,0.0
542.67578125,314.94140625,-26.3671875,-16.6015625,326.171875,-15.625,0.0
542.6796875,-895.99609375,-19.53125,-21.97265625,-926.7578125,-47.8515625,0.0
542.68359375,900.87890625,-13.671875,-16.6015625,916.50390625,-37.109375,0.0
542.6875,970.21484375,-9.27734375,-9.27734375,954.1015625,-5.37109375,0.0
542.69140625,916.015625,-12.6953125,-12.20703125,941.40625,-47.36328125,0.0
542.6953125,-921.38671875,-18.5546875,-18.06640625,-964.35546875,-28.80859375,0.0
542.69921875,170.8984375,-25.390625,-22.4609375,-18.5546875,29.78515625,0.0
542.703125,-1000.0,-29.78515625,-19.53125,-1000.0,60.05859375,0.0
542.70703125,-990.72265625,-23.4375,-8.7890625,-971.6796875,44.921875,0.0
542.7109375,-972.65625,-14.6484375,-6.34765625,-984.86328125,29.296875,0.0
542.71484375,-1000.0,-16.6015625,-21.97265625,-1000.0,-6.34765625,0.0
542.71875,-942.3828125,-26.3671875,-23.92578125,-938.4765625,-7.32421875,0.0
542.72265625,-1000.0,-27.34375,-16.6015625,-1000.0,-0.48828125,0.0
542.7265625,-888.18359375,-23.4375,-21.484375,-819.3359375,1.953125,0.0
542.73046875,577.1484375,-19.04296875,-29.78515625,639.6484375,12.20703125,0.0
542.734375,-958.49609375,-15.13671875,-31.25,-966.796875,-0.9765625,0.0
542.73828125,926.26953125,-17.578125,-21.484375,936.5234375,-18.06640625,0.0
542.7421875,828.125,-29.78515625,-20.5078125,640.625,-51.26953125,0.0
542.74609375,-541.50390625,-36.1328125,-25.390625,-639.16015625,-53.7109375,0.0
542.75,-1000.0,-34.1796875,-27.34375,-1000.0,-36.62109375,0.0
542.75390625,-949.21875,-33.203125,-30.2734375,-963.8671875,-74.21875,0.0
542.7578125,-958.984375,-33.203125,-31.73828125,-952.63671875,-71.77734375,0.0
542.76171875,-1000.0,-29.296875,-23.92578125,-1000.0,11.23046875,0.0
542.765625,-934.5703125,-28.3203125,-19.53125,-906.25,58.10546875,0.0
542.76953125,494.140625,-25.87890625,-22.94921875,535.64453125,-4.39453125,0.0
542.7734375,-905.76171875,-16.11328125,-22.4609375,-910.64453125,-4.39453125,0.0
542.77734375,892.578125,-13.671875,-19.53125,893.5546875,-23.4375,0.0
542.78125,981.4453125,-16.6015625,-20.01953125,982.91015625,58.10546875,0.0
542.78515625,983.88671875,-27.83203125,-35.15625,982.421875,98.14453125,0.0
542.7890625,906.25,-40.0390625,-39.55078125,905.76171875,11.71875,0.0
542.79296875,-968.75,-41.9921875,-34.1796875,-954.1015625,11.23046875,0.0
542.796875,817.3828125,-32.71484375,-33.203125,705.56640625,-52.734375,0.0
542.80078125,-631.34765625,-25.87890625,-25.390625,-690.91796875,-61.03515625,0.0
542.8046875,-1000.0,-22.4609375,-25.87890625,-1000.0,-3.90625,0.0
542.80859375,-1000.0,-25.87890625,-27.34375,-953.61328125,-57.6171875,0.0
542.8125,-68.359375,-28.3203125,-30.76171875,206.54296875,-78.61328125,0.0
542.81640625,-950.68359375,-20.5078125,-33.69140625,-924.31640625,-17.578125,0.0
542.8203125,936.03515625,-14.16015625,-32.2265625,914.0625,19.04296875,0.0
542.82421875,965.8203125,-21.484375,-26.3671875,981.4453125,25.390625,0.0
542.828125,918.9453125,-34.66796875,-14.6484375,919.43359375,-28.80859375,0.0
542.83203125,-991.69921875,-35.15625,-18.06640625,-995.1171875,-80.078125,0.0
542.8359375,896.484375,-32.71484375,-28.3203125,907.2265625,-17.578125,0.0
542.83984375,-535.64453125,-37.109375,-28.3203125,-514.6484375,-26.3671875,0.0
542.84375,-1000.0,-45.8984375,-25.390625,-1000.0,28.3203125,0.0
542.84765625,-925.78125,-46.875,-26.3671875,-954.58984375,69.3359375,0.0
542.8515625,-1000.0,-42.96875,-24.4140625,-941.89453125,-41.9921875,0.0
542.85546875,-1000.0,-36.62109375,-18.06640625,-797.36328125,-129.39453125,0.0
542.859375,-933.10546875,-27.34375,-16.11328125,-911.62109375,-100.5859375,0.0
542.86328125,-1000.0,-24.4140625,-10.25390625,-1000.0,-55.6640625,0.0
542.8671875,-777.34375,-17.578125,-6.8359375,-583.0078125,-41.015625,0.0
542.87109375,700.1953125,-16.11328125,-15.13671875,798.33984375,5.37109375,0.0
542.875,-938.96484375,-25.87890625,-21.484375,-968.26171875,-33.69140625,0.0
542.87890625,897.4609375,-23.4375,-24.90234375,909.66796875,-54.6875,0.0
542.8828125,989.2578125,-15.625,-30.76171875,926.7578125,-33.203125,0.0
542.88671875,951.66015625,-20.01953125,-35.15625,916.015625,-74.70703125,0.0
542.890625,932.6171875,-33.203125,-38.57421875,962.40234375,-126.953125,0.0
542.89453125,-939.453125,-35.15625,-43.45703125,-985.83984375,-51.7578125,0.0
542.8984375,-28.3203125,-26.85546875,-41.50390625,-154.296875,52.24609375,0.0
542.90234375,-1000.0,-21.484375,-30.76171875,-1000.0,36.1328125,0.0
542.90625,-897.94921875,-24.90234375,-19.04296875,-931.640625,1.953125,0.0
542.91015625,-1000.0,-33.203125,-9.27734375,-1000.0,-43.45703125,0.0
542.9140625,-444.82421875,-23.4375,-24.4140625,-97.65625,-67.87109375,0.0
542.91796875,915.52734375,-9.27734375,-28.3203125,970.21484375,-61.5234375,0.0
542.921875,996.09375,-11.71875,-15.625,963.8671875,4.8828125,0.0
542.92578125,932.6171875,-20.01953125,-12.20703125,942.3828125,-3.90625,0.0
542.9296875,910.64453125,-22.94921875,-18.06640625,925.78125,-23.4375,0.0
542.93359375,-915.0390625,-27.83203125,-25.390625,-937.5,-67.87109375,0.0
542.9375,462.40234375,-30.2734375,-30.2734375,251.46484375,-191.89453125,0.0
542.94140625,-930.17578125,-33.203125,-29.78515625,-960.9375,-193.84765625,0.0
542.9453125,-980.46875,-37.109375,-28.80859375,-992.1875,-105.95703125,0.0
542.94921875,-1000.0,-39.55078125,-32.2265625,-1000.0,-137.20703125,0.0
542.953125,-314.94140625,-39.0625,-40.52734375,3.90625,-169.921875,0.0
542.95703125,970.703125,-33.203125,-46.875,-982.91015625,-33.203125,0.0
542.9609375,972.65625,-25.390625,-38.0859375,942.3828125,30.2734375,0.0
542.96484375,948.73046875,-20.01953125,-22.4609375,968.26171875,69.82421875,0.0
542.96875,919.43359375,-16.6015625,-23.4375,915.0390625,113.28125,0.0
542.97265625,-979.00390625,-15.13671875,-29.296875,-973.14453125,94.7265625,0.0
542.9765625,857.91015625,-19.53125,-22.94921875,833.984375,54.19921875,0.0
542.98046875,-615.234375,-25.390625,-23.92578125,-619.62890625,15.13671875,0.0
542.984375,-1000.0,-26.85546875,-31.73828125,-1000.0,-68.84765625,0.0
542.98828125,-1000.0,-30.2734375,-18.06640625,-1000.0,-57.12890625,0.0
542.9921875,-784.66796875,-32.71484375,-18.5546875,-416.015625,18.06640625,0.0
542.99609375,707.51953125,-29.296875,-35.64453125,865.72265625,13.671875,0.0
543.0,-940.91796875,-27.83203125,-38.0859375,-999.0234375,-13.18359375,0.0
543.00390625,914.0625,-25.87890625,-34.1796875,940.91796875,-65.4296875,0.0
543.0078125,927.24609375,-15.13671875,-25.390625,922.36328125,-84.9609375,0.0
543.01171875,-979.98046875,-15.13671875,-20.01953125,-979.4921875,-74.21875,0.0
543.015625,861.81640625,-27.83203125,-27.83203125,858.3984375,-66.89453125,0.0
543.01953125,-608.88671875,-34.1796875,-33.203125,-595.21484375,-48.33984375,0.0
543.0234375,-1000.0,-31.73828125,-34.66796875,-1000.0,-24.90234375,0.0
543.02734375,-994.62890625,-24.4140625,-34.66796875,-1000.0,13.671875,0.0
543.03125,-851.07421875,-25.390625,-36.62109375,-530.2734375,79.1015625,0.0
543.03515625,632.8125,-20.99609375,-26.3671875,813.96484375,145.5078125,0.0
543.0390625,-925.78125,-20.01953125,-34.66796875,-962.890625,141.11328125,0.0
543.04296875,900.390625,-20.5078125,-48.828125,717.28515625,20.99609375,0.0
543.046875,963.37890625,-19.04296875,-31.73828125,765.625,10.7421875,0.0
543.05078125,940.91796875,-22.94921875,-21.484375,986.328125,70.80078125,0.0
543.0546875,-950.68359375,-25.390625,-18.5546875,-997.55859375,118.65234375,0.0
543.05859375,-127.9296875,-27.34375,-11.71875,-218.75,90.33203125,0.0
543.0625,-1000.0,-26.3671875,-15.625,-1000.0,-46.38671875,0.0
543.06640625,-1000.0,-22.94921875,-18.06640625,-1000.0,-55.6640625,0.0
543.0703125,-866.69921875,-24.90234375,-16.6015625,-759.765625,-26.85546875,0.0
543.07421875,494.62890625,-27.83203125,-21.484375,618.65234375,-56.640625,0.0
543.078125,-826.66015625,-27.83203125,-20.99609375,-873.53515625,-59.5703125,0.0
543.08203125,637.20703125,-27.34375,-19.04296875,367.67578125,-33.203125,0.0
543.0859375,-671.38671875,-33.69140625,-32.2265625,-791.015625,-6.34765625,0.0
543.08984375,-1000.0,-37.109375,-42.48046875,-1000.0,1.953125,0.0
543.09375,-808.10546875,-41.50390625,-44.43359375,-498.046875,23.4375,0.0
543.09765625,565.4296875,-31.25,-39.0625,715.8203125,96.19140625,0.0
543.1015625,-916.50390625,-20.99609375,-29.78515625,-966.796875,81.54296875,0.0
543.10546875,909.66796875,-23.4375,-24.90234375,931.640625,6.8359375,0.0
543.109375,925.78125,-20.99609375,-22.94921875,919.43359375,-1.953125,0.0
543.11328125,-978.515625,-18.06640625,-21.484375,-967.28515625,35.64453125,0.0
543.1171875,858.3984375,-28.3203125,-27.34375,803.22265625,-31.73828125,0.0
543.12109375,-597.65625,-33.69140625,-33.69140625,-649.4140625,-59.08203125,0.0
543.125,-1000.0,-22.94921875,-27.34375,-1000.0,15.13671875,0.0
543.12890625,-925.78125,-24.90234375,-27.34375,-928.22265625,-44.921875,0.0
543.1328125,-1000.0,-42.48046875,-33.203125,-1000.0,-124.51171875,0.0
543.13671875,-970.703125,-38.57421875,-31.73828125,-955.078125,-102.5390625,0.0
543.140625,-990.234375,-22.94921875,-18.06640625,-1000.0,-96.6796875,0.0
543.14453125,-1000.0,-20.01953125,-16.11328125,-1000.0,-40.52734375,0.0
543.1484375,214.35546875,-14.16015625,-24.4140625,310.546875,-29.78515625,0.0
543.15234375,-899.4140625,-11.71875,-21.97265625,-905.2734375,-61.03515625,0.0
543.15625,904.78515625,-19.53125,-22.94921875,902.83203125,-32.2265625,0.0
543.16015625,969.23828125,-24.90234375,-22.94921875,973.14453125,6.8359375,0.0
543.1640625,984.375,-22.4609375,-21.97265625,984.375,-23.92578125,0.0
543.16796875,909.1796875,-23.4375,-23.92578125,906.73828125,-104.98046875,0.0
543.171875,-977.05078125,-25.390625,-32.71484375,-963.8671875,-68.84765625,0.0
543.17578125,853.515625,-20.99609375,-30.76171875,790.0390625,-75.1953125,0.0
543.1796875,-619.62890625,-28.3203125,-28.80859375,-677.24609375,-62.01171875,0.0
543.18359375,-1000.0,-26.3671875,-38.0859375,-1000.0,0.9765625,0.0
543.1875,-973.14453125,-20.5078125,-32.2265625,-989.74609375,33.69140625,0.0
543.19140625,-927.24609375,-30.76171875,-29.78515625,-776.3671875,-6.8359375,0.0
543.1953125,533.203125,-33.203125,-31.73828125,633.30078125,-23.4375,0.0
543.19921875,-909.66796875,-33.69140625,-31.73828125,-937.5,27.34375,0.0
543.203125,898.92578125,-35.15625,-36.1328125,911.62109375,35.15625,0.0
543.20703125,958.0078125,-27.83203125,-29.78515625,951.66015625,62.01171875,0.0
543.2109375,947.265625,-18.5546875,-21.484375,961.42578125,102.5390625,0.0
543.21484375,-960.44921875,-18.06640625,-23.4375,-996.09375,48.828125,0.0
543.21875,-166.015625,-28.3203125,-15.625,-227.05078125,61.03515625,0.0
543.22265625,-1000.0,-27.83203125,-23.4375,-1000.0,110.3515625,0.0
543.2265625,-946.2890625,-30.76171875,-46.875,-946.2890625,14.6484375,0.0
543.23046875,-997.0703125,-33.203125,-44.43359375,-998.53515625,-3.90625,0.0
543.234375,-1000.0,-29.78515625,-31.73828125,-1000.0,-5.37109375,0.0
543.23828125,-946.2890625,-26.3671875,-23.4375,-942.87109375,-5.37109375,0.0
543.2421875,-1000.0,-26.85546875,-19.53125,-1000.0,-5.859375,0.0
543.24609375,-919.43359375,-28.3203125,-16.11328125,-881.8359375,-75.1953125,0.0
543.25,532.71484375,-26.85546875,-16.6015625,567.3828125,-88.37890625,0.0
543.25390625,-977.5390625,-30.76171875,-23.4375,-961.42578125,-46.38671875,0.0
543.2578125,-993.1640625,-31.73828125,-30.76171875,972.16796875,-34.1796875,0.0
543.26171875,525.87890625,-23.92578125,-29.296875,328.61328125,-74.21875,0.0
543.265625,-902.34375,-18.5546875,-25.87890625,-934.08203125,-83.49609375,0.0
543.26953125,-1000.0,-22.4609375,-25.390625,-1000.0,-75.1953125,0.0
543.2734375,-946.77734375,-26.85546875,-26.85546875,-960.9375,-50.78125,0.0
543.27734375,-1000.0,-27.83203125,-26.85546875,-1000.0,-90.33203125,0.0
543.28125,-941.40625,-28.80859375,-28.3203125,-940.4296875,-75.1953125,0.0
543.28515625,-1000.0,-26.3671875,-21.97265625,-1000.0,9.765625,0.0
543.2890625,-922.8515625,-21.484375,-23.4375,-808.59375,33.69140625,0.0
543.29296875,611.81640625,-20.99609375,-36.1328125,720.703125,-8.30078125,0.0
543.296875,-949.70703125,-25.87890625,-37.59765625,966.796875,-90.8203125,0.0
543.30078125,-541.015625,-30.76171875,-25.390625,-631.34765625,-118.1640625,0.0
543.3046875,-1000.0,-25.390625,-21.97265625,-1000.0,-70.3125,0.0
543.30859375,-926.7578125,-15.13671875,-22.94921875,-926.7578125,-46.38671875,0.0
543.3125,-1000.0,-16.6015625,-21.484375,-1000.0,-54.6875,0.0
543.31640625,-1000.0,-20.99609375,-22.4609375,-1000.0,-25.390625,0.0
543.3203125,-950.1953125,-7.8125,-26.3671875,-952.63671875,7.8125,0.0
543.32421875,-1000.0,-4.8828125,-22.94921875,-1000.0,51.7578125,0.0
543.328125,-947.75390625,-11.71875,-18.5546875,-955.078125,20.99609375,0.0
543.33203125,469.7265625,-16.11328125,-16.11328125,433.59375,-25.390625,0.0
543.3359375,-903.3203125,-14.6484375,-13.671875,-898.4375,9.765625,0.0
543.33984375,893.06640625,-11.71875,-19.04296875,909.1796875,27.83203125,0.0
543.34375,996.58203125,-21.97265625,-22.94921875,675.29296875,11.23046875,0.0
543.34765625,909.66796875,-24.4140625,-19.04296875,667.48046875,73.73046875,0.0
543.3515625,-978.515625,-34.1796875,-17.578125,-922.36328125,52.734375,0.0
543.35546875,857.91015625,-46.38671875,-20.5078125,805.17578125,-23.92578125,0.0
543.359375,-597.65625,-46.875,-34.1796875,-643.5546875,-2.9296875,0.0
543.36328125,-1000.0,-37.59765625,-35.15625,-1000.0,-61.5234375,0.0
543.3671875,-925.78125,-28.3203125,-24.4140625,-927.734375,-141.11328125,0.0
543.37109375,-1000.0,-27.83203125,-12.6953125,-1000.0,-119.140625,0.0
543.375,-1000.0,-28.3203125,-14.16015625,-1000.0,-150.87890625,0.0
543.37890625,-930.6640625,-23.4375,-23.92578125,-937.98828125,-138.18359375,0.0
543.3828125,-1000.0,-19.04296875,-27.83203125,-1000.0,-161.1328125,0.0
543.38671875,-731.93359375,-20.01953125,-31.25,-520.5078125,-114.2578125,0.0
543.390625,744.140625,-29.296875,-29.296875,849.609375,-7.32421875,0.0
543.39453125,-949.21875,-35.64453125,-20.01953125,-985.83984375,-42.48046875,0.0
543.3984375,900.390625,-32.71484375,-12.20703125,916.50390625,-36.62109375,0.0
543.40234375,989.2578125,-38.0859375,-17.08984375,989.2578125,19.53125,0.0
543.40625,951.66015625,-39.55078125,-25.390625,940.91796875,57.12890625,0.0
543.41015625,933.59375,-32.2265625,-24.90234375,956.54296875,66.89453125,0.0
543.4140625,-939.94140625,-25.390625,-22.4609375,-989.74609375,7.8125,0.0
543.41796875,-50.78125,-21.97265625,-20.01953125,-196.77734375,3.90625,0.0
543.421875,-1000.0,-15.13671875,-24.4140625,-1000.0,8.30078125,0.0
543.42578125,-1000.0,-21.484375,-32.2265625,-1000.0,-13.18359375,0.0
543.4296875,-891.11328125,-34.1796875,-26.3671875,-825.68359375,-4.8828125,0.0
543.43359375,541.015625,-28.80859375,-24.4140625,608.88671875,-67.3828125,0.0
543.4375,-911.1328125,-30.2734375,-30.76171875,-925.78125,-85.44921875,0.0
543.44140625,892.578125,-33.69140625,-25.87890625,898.4375,-36.1328125,0.0
543.4453125,-1000.0,-29.78515625,-23.92578125,992.67578125,14.16015625,0.0
543.44921875,897.94921875,-25.390625,-25.390625,906.73828125,13.18359375,0.0
543.453125,-938.96484375,-22.4609375,-24.90234375,-938.4765625,34.66796875,0.0
543.45703125,688.96484375,-22.4609375,-24.4140625,517.578125,79.58984375,0.0
543.4609375,-736.328125,-23.4375,-19.04296875,-802.734375,40.52734375,0.0
543.46484375,-1000.0,-18.5546875,-14.6484375,-1000.0,45.8984375,0.0
543.46875,-946.77734375,-12.6953125,-18.5546875,-905.76171875,151.3671875,0.0
543.47265625,316.89453125,-19.04296875,-26.3671875,408.69140625,122.0703125,0.0
543.4765625,-895.5078125,-22.94921875,-32.71484375,-904.78515625,25.390625,0.0
543.48046875,896.97265625,-19.04296875,-26.85546875,897.4609375,34.66796875,0.0
543.484375,991.2109375,-19.04296875,-21.484375,994.62890625,84.47265625,0.0
543.48828125,909.66796875,-20.01953125,-21.97265625,907.71484375,2.9296875,0.0
543.4921875,-979.00390625,-19.53125,-17.578125,-970.21484375,-13.671875,0.0
543.49609375,855.46875,-21.484375,-16.6015625,818.84765625,6.34765625,0.0
543.5,-593.26171875,-21.97265625,-21.484375,-609.86328125,-33.69140625,0.0
543.50390625,-1000.0,-24.4140625,-20.99609375,-1000.0,-24.4140625,0.0
543.5078125,-1000.0,-28.3203125,-17.08984375,-968.26171875,-88.8671875,0.0
543.51171875,-208.984375,-31.73828125,-23.4375,82.03125,-77.63671875,0.0
543.515625,-991.2109375,-27.34375,-22.4609375,-949.70703125,-0.9765625,0.0
543.51953125,955.56640625,-18.06640625,-17.08984375,928.22265625,12.6953125,0.0
543.5234375,947.75390625,-11.23046875,-8.7890625,967.7734375,-21.97265625,0.0
543.52734375,948.2421875,-15.13671875,-11.71875,938.96484375,-7.32421875,0.0
543.53125,951.66015625,-22.4609375,-25.87890625,967.7734375,7.8125,0.0
543.53515625,-968.26171875,-28.80859375,-26.85546875,987.3046875,-10.25390625,0.0
543.5390625,-219.7265625,-28.3203125,-20.01953125,-274.4140625,-53.22265625,0.0
543.54296875,-1000.0,-24.90234375,-14.16015625,-1000.0,-9.27734375,0.0
543.546875,-1000.0,-28.3203125,-15.625,-1000.0,7.8125,0.0
543.55078125,-765.13671875,-29.78515625,-18.5546875,-452.1484375,-98.14453125,0.0
543.5546875,708.49609375,-28.3203125,-27.83203125,839.84375,-32.71484375,0.0
543.55859375,-941.40625,-23.4375,-31.25,-990.234375,63.4765625,0.0
543.5625,904.296875,-17.578125,-19.53125,930.6640625,-19.04296875,0.0
543.56640625,962.890625,-22.4609375,-30.76171875,947.265625,-44.921875,0.0
543.5703125,942.87109375,-27.34375,-49.31640625,967.7734375,-106.4453125,0.0
543.57421875,-953.125,-22.4609375,-41.50390625,988.76953125,-84.9609375,0.0
543.578125,-147.94921875,-29.296875,-28.3203125,-279.296875,-15.625,0.0
543.58203125,-1000.0,-31.73828125,-15.13671875,-1000.0,30.2734375,0.0
543.5859375,-1000.0,-25.87890625,-11.71875,-1000.0,43.9453125,0.0
543.58984375,-666.50390625,-25.390625,-18.06640625,-438.4765625,40.52734375,0.0
543.59375,789.55078125,-22.4609375,-22.94921875,870.1171875,51.26953125,0.0
543.59765625,-961.42578125,-25.87890625,-31.25,-996.58203125,2.44140625,0.0
543.6015625,904.296875,-32.2265625,-37.109375,924.31640625,-14.16015625,0.0
543.60546875,-998.53515625,-23.4375,-27.34375,981.93359375,-2.44140625,0.0
543.609375,896.484375,-19.04296875,-24.90234375,915.0390625,11.23046875,0.0
543.61328125,-934.08203125,-22.94921875,-32.71484375,-939.94140625,16.11328125,0.0
543.6171875,659.66796875,-23.4375,-32.71484375,328.61328125,-24.90234375,0.0
543.62109375,-748.53515625,-27.34375,-33.69140625,-887.20703125,23.92578125,0.0
543.625,-1000.0,-29.296875,-34.1796875,-1000.0,2.9296875,0.0
543.62890625,-874.0234375,-24.90234375,-34.66796875,-891.6015625,-24.90234375,0.0
543.6328125,480.95703125,-20.5078125,-35.64453125,445.3125,12.20703125,0.0
543.63671875,-971.6796875,-25.87890625,-33.69140625,-913.57421875,-0.9765625,0.0
543.640625,988.76953125,-32.71484375,-32.2265625,868.1640625,1.46484375,0.0
543.64453125,644.04296875,-35.15625,-30.2734375,87.40234375,-60.546875,0.0
543.6484375,-808.59375,-34.1796875,-20.01953125,-923.33984375,-7.32421875,0.0
543.65234375,-1000.0,-26.85546875,-13.671875,-1000.0,36.62109375,0.0
543.65625,-904.78515625,-29.296875,-19.53125,-934.08203125,-12.6953125,0.0
543.66015625,-1000.0,-34.1796875,-20.99609375,-1000.0,79.58984375,0.0
543.6640625,-1000.0,-24.4140625,-20.5078125,-1000.0,83.984375,0.0
543.66796875,272.94921875,-13.18359375,-21.484375,326.171875,-31.25,0.0
543.671875,-894.04296875,-16.11328125,-27.83203125,-903.3203125,-30.76171875,0.0
543.67578125,899.90234375,-23.92578125,-31.73828125,901.3671875,-27.83203125,0.0
543.6796875,972.16796875,-25.390625,-29.296875,974.12109375,-40.0390625,0.0
543.68359375,983.3984375,-23.92578125,-30.76171875,984.86328125,-104.00390625,0.0
543.6875,909.66796875,-33.69140625,-33.69140625,908.203125,-62.5,0.0
543.69140625,-978.515625,-48.33984375,-35.64453125,-970.21484375,27.34375,0.0
543.6953125,857.91015625,-49.31640625,-37.109375,824.21875,29.78515625,0.0
543.69921875,-615.234375,-47.8515625,-34.1796875,-638.18359375,10.25390625,0.0
543.703125,-1000.0,-41.015625,-32.71484375,-1000.0,-77.63671875,0.0
543.70703125,-1000.0,-29.78515625,-31.73828125,-1000.0,-88.37890625,0.0
543.7109375,-770.5078125,-24.90234375,-28.80859375,-536.62109375,-22.94921875,0.0
543.71484375,720.21484375,-20.99609375,-26.85546875,799.8046875,-37.59765625,0.0
543.71875,-943.84765625,-24.4140625,-24.90234375,-981.4453125,-71.2890625,0.0
543.72265625,912.109375,-35.64453125,-26.3671875,914.0625,-124.0234375,0.0
543.7265625,937.5,-34.66796875,-24.90234375,926.26953125,-135.25390625,0.0
543.73046875,993.65234375,-31.73828125,-22.4609375,-995.1171875,-45.41015625,0.0
543.734375,936.03515625,-39.0625,-16.11328125,910.15625,-20.5078125,0.0
543.73828125,-475.5859375,-34.66796875,-10.7421875,-515.13671875,-23.4375,0.0
543.7421875,-1000.0,-31.25,-15.625,-1000.0,5.37109375,0.0
543.74609375,-950.1953125,-33.203125,-21.484375,-958.984375,-86.42578125,0.0
543.75,-989.74609375,-21.484375,-21.97265625,-952.63671875,-63.96484375,0.0
543.75390625,409.66796875,-14.6484375,-18.5546875,447.265625,60.546875,0.0
543.7578125,-899.4140625,-15.13671875,-22.4609375,-908.203125,13.671875,0.0
543.76171875,895.01953125,-21.97265625,-32.2265625,900.390625,-110.3515625,0.0
543.765625,991.2109375,-24.4140625,-25.87890625,979.00390625,-139.16015625,0.0
543.76953125,896.97265625,-18.06640625,-21.484375,916.50390625,-42.96875,0.0
543.7734375,-917.96875,-20.99609375,-23.92578125,-939.94140625,6.34765625,0.0
543.77734375,518.06640625,-32.2265625,-21.484375,300.78125,13.18359375,0.0
543.78125,-916.9921875,-41.9921875,-27.83203125,-951.171875,-22.4609375,0.0
543.78515625,-979.4921875,-33.69140625,-23.92578125,-985.83984375,-37.109375,0.0
543.7890625,-1000.0,-26.85546875,-18.5546875,-1000.0,-9.765625,0.0
543.79296875,-735.83984375,-27.83203125,-26.3671875,-356.4453125,31.73828125,0.0
543.796875,744.140625,-27.34375,-35.64453125,837.40234375,61.03515625,0.0
543.80078125,-950.68359375,-22.94921875,-30.76171875,-997.55859375,52.24609375,0.0
543.8046875,918.45703125,-27.83203125,-22.4609375,939.453125,-8.30078125,0.0
543.80859375,920.41015625,-30.2734375,-24.90234375,917.96875,-12.6953125,0.0
543.8125,-959.47265625,-22.4609375,-27.34375,-948.73046875,9.27734375,0.0
543.81640625,785.15625,-15.625,-29.78515625,623.046875,20.99609375,0.0
543.8203125,-702.1484375,-20.99609375,-46.38671875,-780.76171875,11.71875,0.0
543.82421875,-1000.0,-34.66796875,-54.19921875,-1000.0,15.625,0.0
543.828125,-988.28125,-41.015625,-26.85546875,-993.65234375,83.0078125,0.0
543.83203125,-888.671875,-30.76171875,-15.13671875,-538.57421875,99.609375,0.0
543.8359375,588.8671875,-20.01953125,-21.484375,757.32421875,-11.71875,0.0
543.83984375,-917.96875,-20.99609375,-16.11328125,-972.65625,-85.44921875,0.0
543.84375,909.66796875,-23.4375,-19.53125,933.10546875,-60.546875,0.0
543.84765625,925.78125,-25.390625,-23.92578125,918.9453125,-26.3671875,0.0
543.8515625,-979.00390625,-24.90234375,-20.5078125,-965.33203125,-3.41796875,0.0
543.85546875,857.91015625,-24.4140625,-18.5546875,799.8046875,30.76171875,0.0
543.859375,-597.65625,-28.80859375,-29.296875,-657.2265625,45.8984375,0.0
543.86328125,-1000.0,-28.80859375,-30.2734375,-1000.0,-1.46484375,0.0
543.8671875,-925.78125,-27.83203125,-18.06640625,-954.1015625,-26.85546875,0.0
543.87109375,-1000.0,-28.80859375,-21.97265625,-899.4140625,-28.80859375,0.0
543.875,-1000.0,-36.1328125,-37.109375,-830.078125,-0.48828125,0.0
543.87890625,-930.6640625,-47.8515625,-51.7578125,-962.40234375,-14.6484375,0.0
543.8828125,-1000.0,-48.828125,-53.22265625,-1000.0,6.34765625,0.0
543.88671875,-526.85546875,-40.0390625,-42.96875,-262.6953125,84.47265625,0.0
543.890625,896.484375,-24.4140625,-25.390625,949.70703125,-72.75390625,0.0
543.89453125,939.94140625,-12.20703125,-19.53125,936.5234375,-153.3203125,0.0
543.8984375,-980.46875,-18.06640625,-23.4375,990.234375,-20.5078125,0.0
543.90234375,625.0,-21.484375,-19.04296875,325.1953125,-54.6875,0.0
543.90625,-837.890625,-19.53125,-19.04296875,-895.01953125,-60.05859375,0.0
543.91015625,-1000.0,-19.53125,-20.99609375,-1000.0,-42.48046875,0.0
543.9140625,-956.54296875,-11.71875,-24.4140625,-974.12109375,-86.42578125,0.0
543.91796875,-954.1015625,-14.16015625,-30.76171875,-947.75390625,-97.65625,0.0
543.921875,-1000.0,-25.87890625,-34.66796875,-1000.0,-24.90234375,0.0
543.92578125,-836.42578125,-28.80859375,-30.2734375,-701.66015625,-6.8359375,0.0
543.9296875,631.8359375,-33.69140625,-28.3203125,729.00390625,-22.94921875,0.0
543.93359375,-925.78125,-29.296875,-24.4140625,-951.66015625,74.21875,0.0
543.9375,894.53125,-20.01953125,-20.5078125,904.78515625,59.08203125,0.0
543.94140625,986.328125,-22.94921875,-26.85546875,988.28125,-13.18359375,0.0
543.9453125,963.8671875,-23.4375,-35.15625,953.61328125,11.71875,0.0
543.94921875,915.52734375,-20.5078125,-30.76171875,936.03515625,-5.37109375,0.0
543.953125,-921.38671875,-23.4375,-18.06640625,-957.03125,-32.71484375,0.0
543.95703125,175.29296875,-28.3203125,-17.08984375,17.578125,-31.25,0.0
543.9609375,-1000.0,-26.85546875,-17.578125,-1000.0,-42.96875,0.0
543.96484375,-931.640625,-25.87890625,-17.578125,-931.15234375,-56.640625,0.0
543.96875,-1000.0,-33.203125,-31.73828125,-1000.0,-72.75390625,0.0
543.97265625,-875.0,-46.875,-34.66796875,-560.05859375,-30.76171875,0.0
543.9765625,593.75,-52.24609375,-32.2265625,742.1875,25.87890625,0.0
543.98046875,-918.45703125,-36.62109375,-24.90234375,-964.84375,20.01953125,0.0
543.984375,908.69140625,-20.99609375,-20.99609375,914.0625,-67.3828125,0.0
543.98828125,911.62109375,-22.4609375,-25.390625,930.17578125,-57.6171875,0.0
543.9921875,-919.43359375,-24.4140625,-25.390625,-937.98828125,32.71484375,0.0
543.99609375,567.3828125,-21.97265625,-21.97265625,265.625,71.2890625,0.0
544.0,-877.44140625,-24.90234375,-19.04296875,-977.05078125,66.40625,0.0
544.00390625,-1000.0,-27.83203125,-26.85546875,-1000.0,86.42578125,0.0
544.0078125,-942.87109375,-28.3203125,-31.73828125,-964.84375,16.11328125,0.0
544.01171875,-1000.0,-24.90234375,-25.87890625,-1000.0,5.859375,0.0
544.015625,-1000.0,-28.3203125,-23.4375,-1000.0,2.9296875,0.0
544.01953125,-998.046875,-30.2734375,-20.01953125,-1000.0,-41.9921875,0.0
544.0234375,-951.66015625,-28.80859375,-21.484375,-938.4765625,-15.13671875,0.0
544.02734375,-1000.0,-28.80859375,-32.2265625,-1000.0,1.953125,0.0
544.03125,-319.3359375,-26.3671875,-28.3203125,-837.890625,27.83203125,0.0
544.03515625,-989.74609375,-20.99609375,-23.92578125,743.1640625,159.1796875,0.0
544.0390625,877.9296875,-24.4140625,-22.94921875,823.73046875,155.2734375,0.0
544.04296875,-608.3984375,-30.2734375,-15.13671875,-776.3671875,18.5546875,0.0
544.046875,-1000.0,-31.25,-10.7421875,-1000.0,14.16015625,0.0
544.05078125,-925.78125,-35.15625,-12.20703125,-934.5703125,42.96875,0.0
544.0546875,-1000.0,-36.62109375,-14.16015625,-1000.0,-34.1796875,0.0
544.05859375,-929.6875,-37.59765625,-11.23046875,-937.5,-52.24609375,0.0
544.0625,-1000.0,-41.015625,-8.30078125,-1000.0,13.18359375,0.0
544.06640625,-656.73828125,-41.9921875,-21.484375,-596.19140625,-4.8828125,0.0
544.0703125,773.92578125,-36.1328125,-30.76171875,747.55859375,-62.01171875,0.0
544.07421875,-984.86328125,-21.97265625,-21.97265625,-942.3828125,-44.43359375,0.0
544.078125,963.8671875,-16.6015625,-17.08984375,851.07421875,-55.6640625,0.0
544.08203125,-77.1484375,-28.3203125,-12.20703125,-371.09375,-65.4296875,0.0
544.0859375,-1000.0,-31.73828125,-5.859375,-1000.0,-33.203125,0.0
544.08984375,-867.67578125,-30.76171875,-12.6953125,-803.7109375,16.6015625,0.0
544.09375,524.4140625,-28.3203125,-16.11328125,527.83203125,-1.46484375,0.0
544.09765625,-910.64453125,-27.34375,-12.20703125,-919.43359375,-93.75,0.0
544.1015625,896.97265625,-27.34375,-19.04296875,906.25,-168.9453125,0.0
544.10546875,966.796875,-29.296875,-21.484375,953.61328125,-115.72265625,0.0
544.109375,932.12890625,-35.15625,-19.53125,956.54296875,28.3203125,0.0
544.11328125,-938.4765625,-32.71484375,-16.6015625,-988.76953125,58.59375,0.0
544.1171875,-35.15625,-33.203125,-17.578125,-203.125,7.32421875,0.0
544.12109375,-1000.0,-35.64453125,-23.4375,-1000.0,46.38671875,0.0
544.125,-988.28125,-30.76171875,-19.53125,-994.62890625,20.5078125,0.0
544.12890625,-955.56640625,-23.92578125,-12.6953125,-894.53125,56.15234375,0.0
544.1328125,395.01953125,-22.4609375,-9.765625,492.1875,48.828125,0.0
544.13671875,-927.24609375,-20.99609375,-10.25390625,-919.43359375,-65.91796875,0.0
544.140625,969.23828125,-20.01953125,-15.13671875,844.7265625,6.34765625,0.0
544.14453125,-51.26953125,-20.5078125,-28.80859375,-41.9921875,-9.27734375,0.0
544.1484375,-1000.0,-28.3203125,-40.0390625,-998.046875,-130.37109375,0.0
544.15234375,-971.6796875,-33.69140625,-30.2734375,-1000.0,-99.12109375,0.0
544.15625,-955.078125,-29.78515625,-15.625,-936.03515625,-35.15625,0.0
544.16015625,-1000.0,-25.390625,-13.18359375,-1000.0,1.46484375,0.0
544.1640625,-1000.0,-18.06640625,-18.06640625,-983.88671875,-31.73828125,0.0
544.16796875,263.671875,-28.3203125,-21.97265625,385.7421875,-101.5625,0.0
544.171875,-894.04296875,-34.66796875,-20.99609375,-900.390625,-48.828125,0.0
544.17578125,900.390625,-13.18359375,-16.6015625,897.4609375,-14.6484375,0.0
544.1796875,971.6796875,-11.23046875,-17.08984375,977.5390625,-70.80078125,0.0
544.18359375,983.88671875,-20.5078125,-20.5078125,984.375,-51.7578125,0.0
544.1875,909.1796875,-20.01953125,-16.6015625,907.2265625,-29.78515625,0.0
544.19140625,-978.02734375,-16.11328125,-12.6953125,-966.30859375,-82.51953125,0.0
544.1953125,855.46875,-12.20703125,-13.18359375,799.31640625,-126.953125,0.0
544.19921875,-618.65234375,-17.08984375,-18.5546875,-654.296875,-71.77734375,0.0
544.203125,-1000.0,-25.87890625,-13.671875,-1000.0,-12.6953125,0.0
544.20703125,-1000.0,-31.25,-7.32421875,-993.1640625,-0.9765625,0.0
544.2109375,-791.50390625,-28.3203125,-10.7421875,-429.6875,7.32421875,0.0
544.21484375,698.73046875,-24.90234375,-16.6015625,838.8671875,-40.0390625,0.0
544.21875,-938.96484375,-22.4609375,-25.87890625,-993.1640625,-62.5,0.0
544.22265625,912.109375,-20.99609375,-28.80859375,937.5,32.2265625,0.0
544.2265625,933.59375,-25.390625,-22.4609375,930.17578125,104.98046875,0.0
544.23046875,-996.58203125,-26.85546875,-23.92578125,-999.51171875,79.58984375,0.0
544.234375,909.66796875,-23.4375,-24.90234375,915.52734375,68.359375,0.0
544.23828125,-528.80859375,-21.484375,-17.08984375,-493.65234375,37.59765625,0.0
544.2421875,-1000.0,-22.4609375,-14.6484375,-1000.0,15.13671875,0.0
544.24609375,-995.60546875,-31.25,-24.90234375,-1000.0,7.32421875,0.0
544.25,-848.14453125,-35.15625,-26.85546875,-474.609375,42.96875,0.0
544.25390625,633.30078125,-31.73828125,-22.4609375,836.42578125,0.9765625,0.0
544.2578125,-925.78125,-27.34375,-21.97265625,-991.2109375,-137.6953125,0.0
544.26171875,906.73828125,-25.390625,-22.94921875,923.828125,-95.703125,0.0
544.265625,942.3828125,-25.87890625,-24.90234375,936.5234375,52.24609375,0.0
544.26953125,981.93359375,-20.5078125,-13.18359375,986.81640625,40.52734375,0.0
544.2734375,966.796875,-20.01953125,-8.30078125,953.125,-22.94921875,0.0
544.27734375,-418.45703125,-23.92578125,-18.5546875,-417.48046875,-83.49609375,0.0
544.28125,-1000.0,-28.80859375,-18.5546875,-1000.0,-49.8046875,0.0
544.28515625,-1000.0,-26.85546875,-17.08984375,-1000.0,15.13671875,0.0
544.2890625,-830.56640625,-26.85546875,-23.4375,-510.7421875,40.52734375,0.0
544.29296875,618.1640625,-29.78515625,-22.94921875,819.82421875,36.62109375,0.0
544.296875,-832.51953125,-28.3203125,-15.13671875,-940.4296875,30.2734375,0.0
544.30078125,1.46484375,-33.203125,-9.27734375,-38.0859375,23.4375,0.0
544.3046875,-1000.0,-36.62109375,-20.99609375,-1000.0,-15.13671875,0.0
544.30859375,-1000.0,-33.69140625,-34.1796875,-984.375,1.46484375,0.0
544.3125,-145.01953125,-24.90234375,-33.203125,161.1328125,14.16015625,0.0
544.31640625,-990.72265625,-18.06640625,-28.80859375,-964.35546875,-5.859375,0.0
544.3203125,952.63671875,-19.53125,-30.2734375,930.6640625,27.34375,0.0
544.32421875,957.51953125,-23.92578125,-32.2265625,965.8203125,-27.83203125,0.0
544.328125,902.34375,-22.94921875,-21.97265625,913.57421875,17.08984375,0.0
544.33203125,-922.36328125,-22.94921875,-14.6484375,-935.05859375,38.0859375,0.0
544.3359375,587.890625,-23.92578125,-20.5078125,424.31640625,-89.84375,0.0
544.33984375,-874.0234375,-28.80859375,-25.87890625,-892.578125,-90.33203125,0.0
544.34375,-991.69921875,-29.78515625,-28.80859375,-1000.0,-63.96484375,0.0
544.34765625,-1000.0,-28.3203125,-37.59765625,-998.53515625,-48.33984375,0.0
544.3515625,-568.84765625,-36.62109375,-44.921875,-164.55078125,-27.34375,0.0
544.35546875,863.28125,-29.78515625,-32.71484375,962.890625,-12.20703125,0.0
544.359375,-984.375,-21.97265625,-20.01953125,943.359375,-10.25390625,0.0
544.36328125,930.6640625,-24.90234375,-16.11328125,881.8359375,-27.83203125,0.0
544.3671875,916.015625,-19.53125,-16.11328125,907.2265625,-12.20703125,0.0
544.37109375,-951.171875,-21.97265625,-29.78515625,-941.40625,-21.484375,0.0
544.375,752.44140625,-26.85546875,-36.62109375,655.2734375,23.4375,0.0
544.37890625,-738.76953125,-27.34375,-25.390625,-771.97265625,25.87890625,0.0
544.3828125,-1000.0,-34.1796875,-20.5078125,-1000.0,-87.40234375,0.0
544.38671875,-984.86328125,-40.0390625,-23.4375,-999.0234375,-145.01953125,0.0
544.390625,-906.73828125,-45.41015625,-20.01953125,-602.5390625,-92.7734375,0.0
544.39453125,567.3828125,-49.31640625,-17.578125,736.81640625,-29.78515625,0.0
544.3984375,-914.0625,-41.50390625,-27.83203125,-964.35546875,-32.2265625,0.0
544.40234375,908.203125,-34.66796875,-39.55078125,928.7109375,-54.19921875,0.0
544.40625,928.22265625,-30.76171875,-45.8984375,925.78125,-35.64453125,0.0
544.41015625,-986.328125,-25.87890625,-36.62109375,-984.86328125,-55.6640625,0.0
544.4140625,880.37109375,-22.4609375,-23.4375,875.9765625,-104.98046875,0.0
544.41796875,-579.58984375,-23.92578125,-22.94921875,-568.84765625,-138.18359375,0.0
544.421875,-1000.0,-23.92578125,-13.18359375,-1000.0,-216.30859375,0.0
544.42578125,-1000.0,-18.5546875,-9.765625,-1000.0,-307.6171875,0.0
544.4296875,-820.80078125,-15.625,-19.04296875,-512.6953125,-229.98046875,0.0
544.43359375,666.9921875,-18.06640625,-25.87890625,834.47265625,-155.2734375,0.0
544.4375,-932.6171875,-27.34375,-29.78515625,-985.83984375,-189.453125,0.0
544.44140625,900.390625,-29.78515625,-34.66796875,924.8046875,-184.08203125,0.0
544.4453125,969.7265625,-28.80859375,-36.1328125,959.47265625,-205.078125,0.0
544.44921875,931.640625,-25.390625,-30.76171875,947.265625,-118.65234375,0.0
544.453125,-938.4765625,-26.3671875,-28.80859375,-974.609375,41.015625,0.0
544.45703125,-27.34375,-30.76171875,-26.85546875,-112.3046875,113.28125,0.0
544.4609375,-1000.0,-35.64453125,-27.34375,-1000.0,53.7109375,0.0
544.46484375,-992.67578125,-38.57421875,-28.80859375,-1000.0,5.37109375,0.0
544.46875,-951.66015625,-34.1796875,-28.80859375,-858.3984375,62.5,0.0
544.47265625,430.6640625,-37.59765625,-29.296875,541.50390625,11.71875,0.0
544.4765625,-900.87890625,-44.43359375,-26.85546875,-918.9453125,-155.2734375,0.0
544.48046875,895.99609375,-41.015625,-27.83203125,901.85546875,-81.0546875,0.0
544.484375,977.5390625,-33.203125,-38.0859375,973.14453125,24.4140625,0.0
544.48828125,912.59765625,-26.3671875,-45.41015625,926.26953125,34.1796875,0.0
544.4921875,-918.9453125,-19.53125,-33.69140625,-944.3359375,60.05859375,0.0
544.49609375,202.1484375,-21.484375,-23.4375,116.69921875,9.765625,0.0
544.5,-995.1171875,-28.80859375,-24.4140625,-982.91015625,-75.1953125,0.0
544.50390625,-989.74609375,-27.83203125,-23.92578125,-1000.0,-13.671875,0.0
544.5078125,-1000.0,-23.92578125,-26.85546875,-932.6171875,-14.6484375,0.0
544.51171875,226.07421875,-17.08984375,-26.3671875,402.83203125,-66.89453125,0.0
544.515625,-899.4140625,-14.6484375,-25.87890625,-908.69140625,-47.36328125,0.0
544.51953125,903.80859375,-14.16015625,-33.69140625,900.390625,41.9921875,0.0
544.5234375,986.81640625,-14.6484375,-36.1328125,988.76953125,44.921875,0.0
544.52734375,897.94921875,-26.3671875,-30.76171875,905.2734375,-14.6484375,0.0
544.53125,-938.96484375,-32.71484375,-28.3203125,-938.96484375,4.8828125,0.0
544.53515625,698.73046875,-33.69140625,-29.78515625,575.68359375,17.578125,0.0
544.5390625,-776.85546875,-45.8984375,-35.64453125,-823.73046875,-2.9296875,0.0
544.54296875,-1000.0,-39.55078125,-32.71484375,-1000.0,-15.625,0.0
544.546875,-933.59375,-32.71484375,-38.57421875,-967.7734375,12.20703125,0.0
544.55078125,-1000.0,-36.1328125,-39.55078125,-853.515625,-36.62109375,0.0
544.5546875,-990.234375,-30.2734375,-29.296875,-771.484375,-74.70703125,0.0
544.55859375,-957.51953125,-24.90234375,-32.71484375,-997.0703125,-101.07421875,0.0
544.5625,-1000.0,-26.85546875,-38.0859375,-1000.0,-134.765625,0.0
544.56640625,-88.37890625,-26.3671875,-27.83203125,121.58203125,-62.01171875,0.0
544.5703125,-958.49609375,-16.11328125,-20.01953125,-936.5234375,-12.6953125,0.0
544.57421875,939.94140625,-21.97265625,-20.99609375,926.26953125,-20.5078125,0.0
544.578125,948.2421875,-37.59765625,-20.5078125,951.66015625,33.203125,0.0
544.58203125,988.28125,-41.50390625,-24.4140625,958.984375,80.56640625,0.0
544.5859375,912.109375,-33.203125,-25.87890625,909.1796875,44.43359375,0.0
544.58984375,-985.3515625,-31.73828125,-25.87890625,-977.5390625,-25.87890625,0.0
544.59375,877.9296875,-28.80859375,-25.390625,856.4453125,58.10546875,0.0
544.59765625,-582.51953125,-27.83203125,-24.90234375,-604.00390625,147.4609375,0.0
544.6015625,-1000.0,-27.83203125,-24.90234375,-1000.0,34.66796875,0.0
544.60546875,-979.4921875,-26.3671875,-25.390625,-995.60546875,-12.6953125,0.0
544.609375,-906.25,-30.2734375,-25.87890625,-777.34375,6.34765625,0.0
544.61328125,564.453125,-32.2265625,-20.01953125,661.1328125,18.06640625,0.0
544.6171875,-913.57421875,-35.64453125,-22.94921875,-937.98828125,-30.76171875,0.0
544.62109375,899.90234375,-40.0390625,-35.15625,911.62109375,-12.6953125,0.0
544.625,956.0546875,-36.1328125,-40.52734375,947.265625,65.4296875,0.0
544.62890625,952.63671875,-26.3671875,-37.59765625,972.16796875,-104.98046875,0.0
544.6328125,-969.23828125,-22.4609375,-39.55078125,983.3984375,-120.60546875,0.0
544.63671875,-208.984375,-33.203125,-36.1328125,-318.359375,68.84765625,0.0
544.640625,-1000.0,-35.64453125,-31.25,-1000.0,195.80078125,0.0
544.64453125,-903.80859375,-30.76171875,-37.109375,-943.359375,179.6875,0.0
544.6484375,-1000.0,-25.390625,-39.55078125,-971.19140625,83.49609375,0.0
544.65234375,-990.72265625,-20.5078125,-39.55078125,-581.0546875,44.43359375,0.0
544.65625,301.7578125,-16.6015625,-36.62109375,19.04296875,62.01171875,0.0
544.66015625,-921.38671875,-23.92578125,-26.3671875,795.41015625,99.609375,0.0
544.6640625,925.78125,-35.15625,-15.13671875,-980.95703125,13.18359375,0.0
544.66796875,901.3671875,-32.2265625,-10.7421875,875.48828125,37.109375,0.0
544.671875,-940.91796875,-24.90234375,-13.671875,-934.08203125,57.12890625,0.0
544.67578125,713.37890625,-20.5078125,-16.6015625,517.08984375,26.85546875,0.0
544.6796875,-762.20703125,-29.296875,-29.78515625,-848.6328125,82.51953125,0.0
544.68359375,-1000.0,-34.66796875,-34.66796875,-1000.0,93.75,0.0
544.6875,-932.6171875,-37.109375,-29.296875,-947.265625,-19.53125,0.0
544.69140625,-1000.0,-36.62109375,-26.85546875,-1000.0,-191.40625,0.0
544.6953125,-959.9609375,-31.25,-26.85546875,-955.56640625,-214.84375,0.0
544.69921875,-1000.0,-30.76171875,-29.296875,-1000.0,-281.73828125,0.0
544.703125,-1000.0,-29.296875,-29.78515625,-974.609375,-312.5,0.0
544.70703125,364.74609375,-21.97265625,-26.85546875,417.96875,-151.85546875,0.0
544.7109375,-938.4765625,-20.99609375,-20.5078125,-951.171875,-36.62109375,0.0
544.71484375,914.55078125,-26.3671875,-22.94921875,945.80078125,-30.2734375,0.0
544.71875,964.35546875,-32.2265625,-23.4375,779.78515625,-35.64453125,0.0
544.72265625,-420.8984375,-36.62109375,-21.97265625,-604.4921875,27.83203125,0.0
544.7265625,-1000.0,-41.50390625,-29.78515625,-1000.0,72.265625,0.0
544.73046875,-928.7109375,-36.62109375,-29.296875,-936.03515625,83.49609375,0.0
544.734375,-1000.0,-30.76171875,-27.83203125,-1000.0,92.7734375,0.0
544.73828125,-945.3125,-27.83203125,-36.1328125,-953.61328125,41.9921875,0.0
544.7421875,-1000.0,-27.34375,-41.015625,-1000.0,0.9765625,0.0
544.74609375,-895.01953125,-28.80859375,-28.80859375,-978.515625,22.4609375,0.0
544.75,461.42578125,-26.85546875,-22.4609375,403.3203125,-2.9296875,0.0
544.75390625,-806.15234375,-22.94921875,-20.5078125,-839.35546875,-24.90234375,0.0
544.7578125,567.3828125,-22.4609375,-17.578125,-69.3359375,-67.3828125,0.0
544.76171875,-809.08203125,-24.4140625,-23.92578125,-1000.0,-77.1484375,0.0
544.765625,-1000.0,-30.2734375,-27.83203125,-976.5625,-110.3515625,0.0
544.76953125,-937.5,-30.76171875,-34.1796875,-982.421875,-143.5546875,0.0
544.7734375,-1000.0,-33.203125,-43.45703125,-1000.0,-94.7265625,0.0
544.77734375,-941.40625,-38.0859375,-38.0859375,-940.4296875,-25.390625,0.0
544.78125,-1000.0,-35.64453125,-30.2734375,-1000.0,-118.65234375,0.0
544.78515625,-863.76953125,-29.78515625,-23.4375,-846.6796875,-181.640625,0.0
544.7890625,541.015625,-23.4375,-25.390625,541.9921875,-92.28515625,0.0
544.79296875,-898.4375,-18.06640625,-33.69140625,-865.72265625,-87.40234375,0.0
544.796875,866.69921875,-17.578125,-37.59765625,755.859375,-127.9296875,0.0
544.80078125,-336.42578125,-28.80859375,-33.203125,-520.5078125,-64.94140625,0.0
544.8046875,-1000.0,-39.0625,-22.94921875,-1000.0,1.953125,0.0
544.80859375,-693.84765625,-37.109375,-9.27734375,-590.8203125,59.5703125,0.0
544.8125,624.0234375,-31.73828125,-7.32421875,672.8515625,108.3984375,0.0
544.81640625,-883.7890625,-28.80859375,-13.671875,-895.01953125,69.82421875,0.0
544.8203125,788.0859375,-25.390625,-14.6484375,476.5625,45.8984375,0.0
544.82421875,-580.56640625,-21.484375,-21.97265625,-764.6484375,62.01171875,0.0
544.828125,-1000.0,-19.53125,-22.94921875,-1000.0,92.7734375,0.0
544.83203125,-941.89453125,-18.06640625,-14.16015625,-962.890625,52.24609375,0.0
544.8359375,-959.47265625,-19.53125,-12.6953125,-956.0546875,-11.71875,0.0
544.83984375,-1000.0,-23.4375,-20.01953125,-1000.0,-5.859375,0.0
544.84375,-896.97265625,-23.92578125,-31.73828125,-890.625,14.6484375,0.0
544.84765625,571.77734375,-15.625,-24.90234375,570.80078125,54.19921875,0.0
544.8515625,-970.21484375,-8.7890625,-10.7421875,-969.7265625,77.63671875,0.0
544.85546875,946.2890625,-8.30078125,-12.6953125,963.37890625,56.640625,0.0
544.859375,874.0234375,-16.11328125,-14.16015625,668.9453125,50.78125,0.0
544.86328125,-597.65625,-25.87890625,-13.18359375,-739.74609375,69.82421875,0.0
544.8671875,-1000.0,-25.87890625,-24.90234375,-1000.0,68.84765625,0.0
544.87109375,-935.05859375,-22.94921875,-34.66796875,-741.69921875,94.7265625,0.0
544.875,-981.4453125,-26.85546875,-31.73828125,-808.59375,141.6015625,0.0
544.87890625,-1000.0,-32.71484375,-20.01953125,-1000.0,129.8828125,0.0
544.8828125,-1000.0,-34.66796875,-14.6484375,-976.07421875,83.49609375,0.0
544.88671875,282.71484375,-37.59765625,-16.6015625,385.25390625,-22.4609375,0.0
544.890625,-894.04296875,-36.1328125,-17.578125,-900.390625,-31.25,0.0
544.89453125,899.4140625,-29.296875,-18.06640625,897.4609375,-44.43359375,0.0
544.8984375,972.65625,-24.4140625,-13.671875,977.5390625,-12.6953125,0.0
544.90234375,984.375,-25.390625,-18.06640625,982.421875,1.46484375,0.0
544.90625,905.76171875,-24.4140625,-25.87890625,905.2734375,-43.45703125,0.0
544.91015625,-967.28515625,-14.6484375,-30.2734375,-951.66015625,-2.9296875,0.0
544.9140625,815.91796875,-22.94921875,-32.71484375,694.82421875,-34.1796875,0.0
544.91796875,-665.52734375,-32.2265625,-21.484375,-734.86328125,-35.64453125,0.0
544.921875,-1000.0,-26.3671875,-16.6015625,-1000.0,20.5078125,0.0
544.92578125,-1000.0,-25.87890625,-18.5546875,-1000.0,-19.04296875,0.0
544.9296875,-662.109375,-29.78515625,-20.5078125,-329.1015625,-35.64453125,0.0
544.93359375,807.6171875,-26.85546875,-27.34375,905.76171875,-100.5859375,0.0
544.9375,-966.796875,-28.80859375,-25.87890625,988.28125,-58.59375,0.0
544.94140625,919.921875,-28.3203125,-28.3203125,943.359375,0.48828125,0.0
544.9453125,936.5234375,-23.4375,-39.0625,931.640625,14.6484375,0.0
544.94921875,995.1171875,-25.390625,-36.1328125,995.1171875,50.78125,0.0
544.953125,933.10546875,-28.3203125,-27.34375,931.15234375,44.43359375,0.0
544.95703125,-485.3515625,-30.2734375,-28.80859375,-464.35546875,9.27734375,0.0
544.9609375,-1000.0,-28.80859375,-20.99609375,-1000.0,-43.45703125,0.0
544.96484375,-1000.0,-31.73828125,-10.25390625,-1000.0,-26.3671875,0.0
544.96875,-832.51953125,-31.73828125,-9.765625,-474.609375,-24.90234375,0.0
544.97265625,649.90234375,-26.3671875,-13.18359375,841.796875,-7.8125,0.0
544.9765625,-929.19921875,-23.4375,-15.625,-989.74609375,-21.97265625,0.0
544.98046875,895.5078125,-22.94921875,-23.4375,921.38671875,-34.1796875,0.0
544.984375,-999.51171875,-27.34375,-30.2734375,991.2109375,-65.91796875,0.0
544.98828125,895.99609375,-27.83203125,-30.76171875,904.78515625,-59.08203125,0.0
544.9921875,-927.734375,-26.3671875,-28.80859375,-937.98828125,5.37109375,0.0
544.99609375,618.65234375,-28.3203125,-23.4375,546.38671875,61.03515625,0.0
545.0,-804.19921875,-28.80859375,-23.92578125,-788.57421875,41.9921875,0.0
545.00390625,-1000.0,-17.578125,-27.83203125,-1000.0,1.46484375,0.0
545.0078125,-993.65234375,-17.08984375,-26.3671875,-845.21484375,2.9296875,0.0
545.01171875,185.05859375,-29.296875,-28.3203125,464.35546875,-18.5546875,0.0
545.015625,-903.3203125,-27.83203125,-32.2265625,-907.2265625,68.84765625,0.0
545.01953125,908.69140625,-26.3671875,-37.59765625,843.26171875,120.1171875,0.0
545.0234375,966.30859375,-22.4609375,-24.4140625,905.2734375,72.75390625,0.0
545.02734375,913.57421875,-18.5546875,-13.18359375,939.453125,52.24609375,0.0
545.03125,-918.9453125,-21.97265625,-14.6484375,-950.68359375,-62.01171875,0.0
545.03515625,211.9140625,-28.3203125,-23.4375,86.9140625,-82.51953125,0.0
545.0390625,-1000.0,-29.296875,-31.25,-1000.0,30.2734375,0.0
545.04296875,-937.01171875,-21.97265625,-29.78515625,-971.6796875,-40.0390625,0.0
545.046875,-1000.0,-16.6015625,-29.296875,-1000.0,-108.3984375,0.0
545.05078125,-342.28515625,-18.06640625,-29.296875,55.17578125,13.18359375,0.0
545.0546875,960.9375,-28.3203125,-23.92578125,-968.75,55.6640625,0.0
545.05859375,977.5390625,-23.92578125,-15.625,936.03515625,65.91796875,0.0
545.0625,946.2890625,-19.04296875,-20.99609375,971.19140625,24.90234375,0.0
545.06640625,917.96875,-23.92578125,-30.76171875,910.64453125,-19.04296875,0.0
545.0703125,-973.14453125,-21.97265625,-33.69140625,-958.984375,37.109375,0.0
545.07421875,837.890625,-22.4609375,-40.52734375,755.37109375,110.3515625,0.0
545.078125,-639.16015625,-30.76171875,-38.0859375,-685.05859375,66.40625,0.0
545.08203125,-1000.0,-30.2734375,-25.87890625,-1000.0,-6.8359375,0.0
545.0859375,-1000.0,-27.83203125,-29.78515625,-998.53515625,-21.484375,0.0
545.08984375,-670.8984375,-29.296875,-31.73828125,-271.97265625,-47.8515625,0.0
545.09375,802.734375,-29.78515625,-28.80859375,946.2890625,-28.3203125,0.0
545.09765625,-964.84375,-25.390625,-33.69140625,962.40234375,-62.01171875,0.0
545.1015625,921.875,-17.08984375,-32.71484375,764.6484375,-79.1015625,0.0
545.10546875,925.78125,-12.20703125,-25.390625,848.14453125,-35.64453125,0.0
545.109375,-979.00390625,-12.20703125,-21.484375,-947.265625,-59.5703125,0.0
545.11328125,858.3984375,-19.53125,-25.390625,828.125,-124.51171875,0.0
545.1171875,-614.2578125,-20.5078125,-30.76171875,-624.0234375,-73.2421875,0.0
545.12109375,-1000.0,-17.08984375,-36.1328125,-1000.0,50.78125,0.0
545.125,-987.3046875,-21.484375,-41.015625,-1000.0,15.13671875,0.0
545.12890625,-880.37109375,-34.1796875,-41.9921875,-617.67578125,-17.08984375,0.0
545.1328125,598.14453125,-37.109375,-32.71484375,764.16015625,66.89453125,0.0
545.13671875,-919.43359375,-34.66796875,-26.3671875,-966.796875,89.35546875,0.0
545.140625,896.97265625,-32.2265625,-27.83203125,916.50390625,49.31640625,0.0
545.14453125,973.14453125,-30.2734375,-27.34375,968.26171875,-22.4609375,0.0
545.1484375,925.78125,-30.76171875,-33.203125,933.59375,-24.4140625,0.0
545.15234375,-931.640625,-27.34375,-38.0859375,-953.125,43.9453125,0.0
545.15625,33.69140625,-30.2734375,-30.76171875,21.484375,-16.11328125,0.0
545.16015625,-1000.0,-37.109375,-23.4375,-996.09375,-8.7890625,0.0
545.1640625,-1000.0,-32.2265625,-27.34375,-1000.0,50.29296875,0.0
545.16796875,-861.328125,-26.85546875,-34.1796875,-765.625,49.8046875,0.0
545.171875,492.67578125,-22.4609375,-26.85546875,588.8671875,41.9921875,0.0
545.17578125,-855.46875,-17.578125,-20.5078125,-873.046875,-59.5703125,0.0
545.1796875,754.39453125,-20.01953125,-23.4375,543.45703125,-154.78515625,0.0
545.18359375,-538.0859375,-21.484375,-21.97265625,-685.05859375,-150.390625,0.0
545.1875,-1000.0,-19.04296875,-20.01953125,-1000.0,-117.1875,0.0
545.19140625,-800.29296875,-24.90234375,-24.90234375,-430.17578125,-55.17578125,0.0
545.1953125,569.3359375,-26.85546875,-35.64453125,756.34765625,-51.26953125,0.0
545.19921875,-916.9921875,-21.484375,-38.57421875,-976.5625,-101.5625,0.0
545.203125,910.15625,-18.06640625,-35.15625,928.22265625,-40.0390625,0.0
545.20703125,912.59765625,-24.4140625,-29.78515625,918.45703125,-1.46484375,0.0
545.2109375,-932.12890625,-31.73828125,-28.80859375,-935.546875,-13.671875,0.0
545.21484375,651.85546875,-26.85546875,-32.71484375,486.81640625,7.8125,0.0
545.21875,-778.80859375,-31.73828125,-26.3671875,-828.125,-68.84765625,0.0
545.22265625,-1000.0,-39.55078125,-18.06640625,-1000.0,-58.59375,0.0
545.2265625,-968.26171875,-31.25,-20.5078125,-911.62109375,-40.0390625,0.0
545.23046875,154.78515625,-19.04296875,-24.4140625,294.43359375,-68.359375,0.0
545.234375,-837.40234375,-23.4375,-27.83203125,-840.33203125,-62.5,0.0
545.23828125,753.41796875,-36.1328125,-33.69140625,602.5390625,-46.38671875,0.0
545.2421875,-563.4765625,-41.015625,-29.78515625,-703.61328125,-20.99609375,0.0
545.24609375,-1000.0,-38.57421875,-23.4375,-1000.0,-6.8359375,0.0
545.25,-439.94140625,-31.25,-34.66796875,-63.96484375,-23.92578125,0.0
545.25390625,869.140625,-23.4375,-46.38671875,967.28515625,-94.7265625,0.0
545.2578125,-992.1875,-17.08984375,-41.015625,959.47265625,-63.4765625,0.0
545.26171875,932.12890625,-14.6484375,-28.3203125,958.984375,-58.59375,0.0
545.265625,925.29296875,-22.94921875,-21.484375,919.43359375,-85.44921875,0.0
545.26953125,-983.3984375,-31.73828125,-18.5546875,-980.46875,-0.48828125,0.0
545.2734375,871.58203125,-36.62109375,-15.625,862.3046875,53.22265625,0.0
545.27734375,-592.28515625,-45.41015625,-16.6015625,-595.703125,43.45703125,0.0
545.28125,-1000.0,-39.55078125,-21.484375,-1000.0,2.9296875,0.0
545.28515625,-975.09765625,-23.92578125,-16.11328125,-988.76953125,-21.97265625,0.0
545.2890625,-920.41015625,-20.01953125,-21.484375,-751.46484375,-1.953125,0.0
545.29296875,542.96875,-18.06640625,-37.59765625,666.015625,11.71875,0.0
545.296875,-910.64453125,-21.484375,-38.0859375,-950.68359375,-11.71875,0.0
545.30078125,907.71484375,-22.94921875,-32.2265625,776.85546875,87.40234375,0.0
545.3046875,929.6875,-20.5078125,-33.69140625,866.2109375,95.703125,0.0
545.30859375,-991.2109375,-20.5078125,-31.73828125,-966.796875,22.4609375,0.0
545.3125,895.01953125,-24.4140625,-26.3671875,877.9296875,6.34765625,0.0
545.31640625,-538.0859375,-26.3671875,-27.34375,-546.38671875,-37.109375,0.0
545.3203125,-1000.0,-27.83203125,-33.203125,-1000.0,-62.5,0.0
545.32421875,-925.78125,-28.80859375,-37.109375,-940.91796875,-41.9921875,0.0
545.328125,-1000.0,-27.34375,-36.62109375,-997.0703125,-32.71484375,0.0
545.33203125,-1000.0,-30.76171875,-37.59765625,-813.96484375,-26.85546875,0.0
545.3359375,-939.453125,-29.78515625,-42.96875,-863.76953125,-39.55078125,0.0
545.33984375,-1000.0,-32.71484375,-37.59765625,-1000.0,-17.578125,0.0
545.34375,-852.5390625,-35.64453125,-31.25,-679.19921875,15.625,0.0
545.34765625,629.39453125,-30.2734375,-33.203125,733.3984375,75.68359375,0.0
545.3515625,-981.4453125,-30.2734375,-34.66796875,997.0703125,114.2578125,0.0
545.35546875,952.1484375,-31.25,-33.69140625,963.8671875,19.53125,0.0
545.359375,844.7265625,-28.80859375,-29.296875,583.984375,-26.3671875,0.0
545.36328125,-551.26953125,-26.85546875,-25.390625,-735.83984375,14.6484375,0.0
545.3671875,-1000.0,-28.3203125,-25.390625,-1000.0,-50.29296875,0.0
545.37109375,-465.8203125,-29.296875,-34.1796875,-217.7734375,-60.546875,0.0
545.375,851.07421875,-24.4140625,-40.52734375,882.8125,-1.953125,0.0
545.37890625,-986.328125,-21.97265625,-38.57421875,989.2578125,-21.97265625,0.0
545.3828125,930.17578125,-22.94921875,-34.1796875,937.98828125,-44.43359375,0.0
545.38671875,910.15625,-29.296875,-30.2734375,919.921875,-17.08984375,0.0
545.390625,-927.734375,-37.59765625,-27.83203125,-935.05859375,-14.6484375,0.0
545.39453125,627.44140625,-42.96875,-19.53125,426.7578125,53.7109375,0.0
545.3984375,-833.49609375,-46.38671875,-13.18359375,-899.4140625,91.30859375,0.0
545.40234375,-1000.0,-41.50390625,-15.13671875,-1000.0,79.1015625,0.0
545.40625,-938.4765625,-32.71484375,-19.53125,-950.68359375,6.8359375,0.0
545.41015625,-1000.0,-19.53125,-22.4609375,-880.859375,-55.17578125,0.0
545.4140625,-980.46875,-11.23046875,-20.5078125,-903.80859375,-56.640625,0.0
545.41796875,-973.14453125,-16.6015625,-20.99609375,-1000.0,-34.1796875,0.0
545.421875,-1000.0,-20.99609375,-22.94921875,-1000.0,-36.1328125,0.0
545.42578125,79.1015625,-18.06640625,-21.484375,186.5234375,37.59765625,0.0
545.4296875,-951.171875,-20.99609375,-23.4375,-966.30859375,16.11328125,0.0
545.43359375,909.1796875,-22.94921875,-25.87890625,942.87109375,-20.01953125,0.0
545.4375,-987.3046875,-15.625,-22.94921875,899.4140625,42.48046875,0.0
545.44140625,-234.375,-20.5078125,-28.80859375,-435.546875,41.015625,0.0
545.4453125,-1000.0,-27.34375,-44.43359375,-1000.0,-96.19140625,0.0
545.44921875,-940.4296875,-23.92578125,-40.52734375,-937.5,-47.8515625,0.0
545.453125,-1000.0,-28.3203125,-22.94921875,-1000.0,106.4453125,0.0
545.45703125,-938.96484375,-31.73828125,-15.13671875,-939.453125,142.08984375,0.0
545.4609375,-1000.0,-29.78515625,-20.99609375,-1000.0,45.41015625,0.0
545.46484375,-815.91796875,-27.83203125,-28.80859375,-751.953125,-10.25390625,0.0
545.46875,566.40625,-21.97265625,-29.78515625,638.671875,10.25390625,0.0
545.47265625,-837.890625,-20.5078125,-17.08984375,-851.07421875,-41.9921875,0.0
545.4765625,652.34375,-36.1328125,-6.34765625,181.15234375,-59.08203125,0.0
545.48046875,-735.3515625,-39.55078125,-11.71875,-963.37890625,48.828125,0.0
545.484375,-1000.0,-32.2265625,-26.3671875,-1000.0,31.25,0.0
545.48828125,-932.12890625,-22.4609375,-28.3203125,-966.30859375,-49.8046875,0.0
545.4921875,-1000.0,-24.90234375,-22.4609375,-1000.0,9.27734375,0.0
545.49609375,-967.7734375,-39.0625,-15.625,-977.5390625,18.06640625,0.0
545.5,-1000.0,-33.203125,-11.71875,-986.81640625,5.859375,0.0
545.50390625,-908.203125,-21.484375,-17.578125,-978.02734375,-79.58984375,0.0
545.5078125,342.28515625,-18.5546875,-20.99609375,124.51171875,-131.34765625,0.0
545.51171875,-932.12890625,-20.01953125,-31.25,-898.92578125,-136.71875,0.0
545.515625,977.5390625,-34.66796875,-40.0390625,864.74609375,-117.67578125,0.0
545.51953125,-164.0625,-50.78125,-31.25,-497.0703125,-11.23046875,0.0
545.5234375,-1000.0,-54.19921875,-15.13671875,-1000.0,60.546875,0.0
545.52734375,-945.80078125,-45.8984375,-12.6953125,-928.7109375,31.25,0.0
545.53125,-1000.0,-40.52734375,-15.625,-1000.0,-49.8046875,0.0
545.53515625,-944.3359375,-41.50390625,-12.6953125,-940.4296875,-37.109375,0.0
545.5390625,-1000.0,-43.45703125,-10.7421875,-1000.0,-28.3203125,0.0
545.54296875,-891.11328125,-44.43359375,-9.765625,-860.3515625,-24.4140625,0.0
545.546875,564.453125,-46.875,-2.44140625,600.09765625,-9.765625,0.0
545.55078125,-913.57421875,-52.24609375,-5.859375,-919.921875,23.92578125,0.0
545.5546875,892.578125,-51.7578125,-14.16015625,894.53125,35.64453125,0.0
545.55859375,983.3984375,-38.0859375,-5.37109375,985.83984375,-10.7421875,0.0
545.5625,983.88671875,-34.66796875,2.9296875,972.65625,-48.828125,0.0
545.56640625,895.99609375,-45.41015625,-0.48828125,910.64453125,-40.52734375,0.0
545.5703125,-929.19921875,-44.921875,-17.578125,-934.08203125,12.6953125,0.0
545.57421875,640.625,-42.96875,-23.92578125,393.06640625,50.78125,0.0
545.578125,-841.796875,-50.29296875,-10.25390625,-929.6875,3.90625,0.0
545.58203125,-1000.0,-50.29296875,-2.44140625,-985.3515625,-4.8828125,0.0
545.5859375,-993.1640625,-48.828125,-5.859375,-1000.0,27.83203125,0.0
545.58984375,-901.3671875,-46.875,-8.30078125,-690.91796875,6.8359375,0.0
545.59375,573.2421875,-43.9453125,-14.16015625,656.25,-34.1796875,0.0
545.59765625,-915.0390625,-41.015625,-14.16015625,-948.2421875,-29.296875,0.0
545.6015625,909.1796875,-37.59765625,-9.765625,924.8046875,-36.62109375,0.0
545.60546875,925.29296875,-40.0390625,-14.16015625,918.45703125,-28.3203125,0.0
545.609375,-977.5390625,-39.0625,-17.08984375,-962.40234375,-43.45703125,0.0
545.61328125,853.515625,-41.50390625,-12.20703125,784.66796875,-31.25,0.0
545.6171875,-620.60546875,-49.8046875,-9.765625,-676.26953125,-36.62109375,0.0
545.62109375,-1000.0,-49.8046875,-18.06640625,-1000.0,-57.6171875,0.0
545.625,-987.3046875,-50.29296875,-26.3671875,-999.51171875,-15.13671875,0.0
545.62890625,-879.8828125,-47.8515625,-22.94921875,-577.63671875,-56.15234375,0.0
545.6328125,598.6328125,-39.55078125,-13.671875,765.625,-48.33984375,0.0
545.63671875,-919.921875,-43.9453125,-17.578125,-970.703125,53.22265625,0.0
545.640625,900.87890625,-44.921875,-33.69140625,923.828125,27.34375,0.0
545.64453125,956.54296875,-39.0625,-26.85546875,947.75390625,9.27734375,0.0
545.6484375,952.1484375,-39.0625,-9.27734375,967.28515625,4.39453125,0.0
545.65234375,-968.75,-40.52734375,2.44140625,992.1875,-4.39453125,0.0
545.65625,-221.6796875,-39.55078125,3.90625,-283.203125,16.11328125,0.0
545.66015625,-1000.0,-36.1328125,-2.44140625,-1000.0,6.8359375,0.0
545.6640625,-999.51171875,-36.1328125,-5.859375,-1000.0,36.1328125,0.0
545.66796875,-878.90625,-34.66796875,-10.25390625,-655.76171875,32.71484375,0.0
545.671875,577.63671875,-31.25,-13.18359375,731.93359375,-0.9765625,0.0
545.67578125,-916.015625,-34.1796875,-20.99609375,-959.47265625,35.15625,0.0
545.6796875,893.5546875,-36.1328125,-26.85546875,876.46484375,-10.7421875,0.0
545.68359375,994.62890625,-30.2734375,-19.53125,970.21484375,-97.16796875,0.0
545.6875,898.4375,-22.94921875,-15.625,920.8984375,-111.328125,0.0
545.69140625,-916.015625,-23.92578125,-16.6015625,-940.91796875,-73.2421875,0.0
545.6953125,457.03125,-25.390625,-22.94921875,298.828125,-66.40625,0.0
545.69921875,-869.140625,-20.5078125,-36.62109375,-896.484375,-144.04296875,0.0
545.703125,-1000.0,-28.3203125,-38.57421875,-1000.0,-134.27734375,0.0
545.70703125,-864.2578125,-36.62109375,-28.3203125,-781.25,-83.984375,0.0
545.7109375,513.18359375,-29.78515625,-23.4375,611.328125,-119.62890625,0.0
545.71484375,-909.1796875,-23.92578125,-24.90234375,-927.734375,-12.20703125,0.0
545.71875,892.578125,-19.53125,-23.92578125,898.92578125,20.5078125,0.0
545.72265625,998.046875,-17.578125,-20.99609375,993.1640625,-54.6875,0.0
545.7265625,895.5078125,-26.3671875,-18.5546875,905.2734375,-4.8828125,0.0
545.73046875,-925.29296875,-29.78515625,-22.4609375,-933.10546875,15.13671875,0.0
545.734375,605.46875,-27.34375,-25.390625,502.44140625,32.2265625,0.0
545.73828125,-825.68359375,-29.296875,-20.99609375,-828.61328125,37.59765625,0.0
545.7421875,-1000.0,-27.34375,-22.94921875,-1000.0,43.45703125,0.0
545.74609375,-1000.0,-22.94921875,-22.94921875,-912.59765625,81.0546875,0.0
545.75,-9.765625,-20.5078125,-16.6015625,254.8828125,34.66796875,0.0
545.75390625,-869.140625,-17.578125,-12.20703125,-847.16796875,-44.921875,0.0
545.7578125,784.1796875,-21.484375,-17.578125,625.0,-108.3984375,0.0
545.76171875,-562.98828125,-24.4140625,-19.04296875,-669.43359375,-146.484375,0.0
545.765625,-1000.0,-20.99609375,-17.578125,-1000.0,-129.39453125,0.0
545.76953125,-813.96484375,-20.99609375,-24.4140625,-529.78515625,-121.09375,0.0
545.7734375,552.24609375,-22.94921875,-28.80859375,719.7265625,-135.7421875,0.0
545.77734375,-914.0625,-23.4375,-18.06640625,-963.8671875,-34.66796875,0.0
545.78125,908.69140625,-28.80859375,-7.8125,928.7109375,-0.9765625,0.0
545.78515625,926.7578125,-34.66796875,-15.13671875,923.33984375,-84.47265625,0.0
545.7890625,-982.421875,-30.2734375,-27.83203125,-978.02734375,-75.68359375,0.0
545.79296875,869.62890625,-22.94921875,-26.85546875,853.02734375,-73.2421875,0.0
545.796875,-596.6796875,-27.34375,-22.94921875,-603.515625,-10.7421875,0.0
545.80078125,-1000.0,-25.87890625,-30.2734375,-1000.0,58.10546875,0.0
545.8046875,-987.3046875,-19.53125,-35.64453125,-999.0234375,-7.32421875,0.0
545.80859375,-879.39453125,-18.5546875,-32.2265625,-576.66015625,-50.78125,0.0
545.8125,598.6328125,-22.4609375,-30.2734375,771.484375,-48.828125,0.0
545.81640625,-919.43359375,-30.2734375,-23.4375,-971.6796875,-36.62109375,0.0
545.8203125,903.80859375,-29.296875,-20.5078125,926.7578125,-7.32421875,0.0
545.82421875,946.2890625,-23.4375,-21.484375,937.5,-80.078125,0.0
545.828125,972.16796875,-20.99609375,-17.578125,987.3046875,-86.42578125,0.0
545.83203125,989.74609375,-22.94921875,-23.92578125,950.1953125,-25.87890625,0.0
545.8359375,-363.28125,-19.53125,-29.78515625,-431.15234375,-27.34375,0.0
545.83984375,-1000.0,-25.390625,-35.64453125,-1000.0,-135.7421875,0.0
545.84375,-984.86328125,-33.69140625,-35.15625,-1000.0,-165.52734375,0.0
545.84765625,-897.94921875,-30.76171875,-27.34375,-749.51171875,-124.51171875,0.0
545.8515625,564.453125,-23.92578125,-23.92578125,679.6875,-83.49609375,0.0
545.85546875,-913.57421875,-21.484375,-24.90234375,-940.4296875,-29.296875,0.0
545.859375,897.94921875,-22.94921875,-28.3203125,884.765625,-35.15625,0.0
545.86328125,963.37890625,-24.90234375,-33.69140625,941.89453125,-85.44921875,0.0
545.8671875,939.453125,-30.76171875,-34.66796875,957.03125,-27.34375,0.0
545.87109375,-948.73046875,-29.78515625,-28.3203125,-981.93359375,28.3203125,0.0
545.875,-112.79296875,-25.390625,-18.5546875,-166.50390625,-30.76171875,0.0
545.87890625,-1000.0,-23.92578125,-17.578125,-1000.0,10.7421875,0.0
545.8828125,-1000.0,-24.4140625,-26.85546875,-1000.0,-15.13671875,0.0
545.88671875,-882.8125,-23.92578125,-32.2265625,-781.73828125,0.48828125,0.0
545.890625,562.01171875,-23.4375,-29.78515625,650.390625,10.25390625,0.0
545.89453125,-913.57421875,-30.2734375,-26.85546875,-925.29296875,-58.10546875,0.0
545.8984375,892.578125,-36.1328125,-36.62109375,864.74609375,13.671875,0.0
545.90234375,999.51171875,-34.66796875,-41.015625,945.80078125,81.54296875,0.0
545.90625,896.484375,-37.109375,-33.203125,911.1328125,75.1953125,0.0
545.91015625,-929.19921875,-38.57421875,-37.109375,-936.5234375,87.890625,0.0
545.9140625,636.71875,-33.69140625,-40.52734375,517.08984375,83.0078125,0.0
545.91796875,-819.3359375,-35.64453125,-32.2265625,-830.56640625,24.4140625,0.0
545.921875,-1000.0,-39.55078125,-18.06640625,-1000.0,0.0,0.0
545.92578125,-1000.0,-33.203125,-12.20703125,-968.26171875,-7.32421875,0.0
545.9296875,-249.51171875,-24.90234375,-22.94921875,42.48046875,-16.6015625,0.0
545.93359375,-933.59375,-25.87890625,-31.25,-888.671875,-30.2734375,0.0
545.9375,842.28515625,-36.62109375,-36.1328125,723.6328125,-55.17578125,0.0
545.94140625,-564.453125,-45.8984375,-35.15625,-666.9921875,-51.26953125,0.0
545.9453125,-1000.0,-37.109375,-23.4375,-1000.0,38.57421875,0.0
545.94921875,-236.328125,-27.83203125,-15.625,87.890625,115.234375,0.0
545.953125,953.61328125,-29.78515625,-20.01953125,-971.6796875,82.51953125,0.0
545.95703125,974.12109375,-31.73828125,-27.83203125,916.015625,78.125,0.0
545.9609375,947.75390625,-32.2265625,-37.59765625,845.703125,86.9140625,0.0
545.96484375,919.43359375,-31.73828125,-41.9921875,885.7421875,-10.7421875,0.0
545.96875,-978.515625,-23.4375,-28.3203125,-962.40234375,-75.1953125,0.0
545.97265625,857.91015625,-25.390625,-23.4375,844.23828125,16.11328125,0.0
545.9765625,-613.28125,-33.69140625,-31.25,-614.2578125,55.17578125,0.0
545.98046875,-1000.0,-34.1796875,-37.59765625,-1000.0,50.78125,0.0
545.984375,-973.6328125,-41.9921875,-35.15625,-987.79296875,-8.7890625,0.0
545.98828125,-925.29296875,-39.0625,-23.4375,-827.1484375,-32.2265625,0.0
545.9921875,536.1328125,-21.97265625,-22.94921875,613.28125,63.4765625,0.0
545.99609375,-910.15625,-14.16015625,-22.4609375,-929.19921875,73.73046875,0.0
546.0,903.80859375,-18.06640625,-14.6484375,911.1328125,66.89453125,0.0
546.00390625,942.3828125,-25.87890625,-18.06640625,939.453125,41.50390625,0.0
546.0078125,977.5390625,-27.83203125,-19.04296875,986.328125,58.10546875,0.0
546.01171875,978.515625,-30.2734375,-13.18359375,953.61328125,29.296875,0.0
546.015625,-392.578125,-30.2734375,-17.08984375,-423.828125,-41.50390625,0.0
546.01953125,-1000.0,-22.4609375,-26.3671875,-1000.0,11.71875,0.0
546.0234375,-996.09375,-21.484375,-25.87890625,-1000.0,-26.85546875,0.0
546.02734375,-837.40234375,-27.83203125,-21.97265625,-627.9296875,-46.875,0.0
546.03125,567.3828125,-36.1328125,-24.4140625,709.9609375,31.73828125,0.0
546.03515625,-879.39453125,-29.296875,-18.5546875,-918.45703125,47.8515625,0.0
546.0390625,812.98828125,-16.6015625,-17.08984375,699.21875,41.50390625,0.0
546.04296875,-536.1328125,-21.97265625,-18.5546875,-588.37890625,-48.33984375,0.0
546.046875,-1000.0,-30.2734375,-28.3203125,-1000.0,-79.1015625,0.0
546.05078125,-942.3828125,-32.2265625,-40.0390625,-953.61328125,-49.31640625,0.0
546.0546875,-957.51953125,-25.390625,-25.87890625,-951.66015625,31.73828125,0.0
546.05859375,-1000.0,-19.53125,-20.01953125,-1000.0,68.359375,0.0
546.0625,-891.11328125,-21.97265625,-29.78515625,-854.4921875,59.08203125,0.0
546.06640625,582.03125,-21.484375,-36.1328125,605.46875,77.63671875,0.0
546.0703125,-979.00390625,-23.4375,-34.66796875,-966.796875,15.625,0.0
546.07421875,966.30859375,-33.203125,-31.73828125,953.61328125,-89.35546875,0.0
546.078125,795.8984375,-36.62109375,-32.2265625,470.21484375,-19.04296875,0.0
546.08203125,-695.80078125,-26.85546875,-28.3203125,-858.3984375,53.22265625,0.0
546.0859375,-1000.0,-23.92578125,-28.80859375,-1000.0,-44.921875,0.0
546.08984375,201.171875,-22.94921875,-28.3203125,302.734375,19.04296875,0.0
546.09375,-929.19921875,-26.85546875,-19.53125,-931.15234375,55.17578125,0.0
546.09765625,913.57421875,-27.34375,-15.625,910.64453125,73.73046875,0.0
546.1015625,980.95703125,-20.01953125,-14.6484375,979.4921875,67.3828125,0.0
546.10546875,900.87890625,-21.97265625,-16.11328125,906.73828125,-14.16015625,0.0
546.109375,-945.3125,-18.5546875,-17.578125,-937.98828125,-39.55078125,0.0
546.11328125,727.5390625,-15.625,-23.92578125,561.5234375,-44.921875,0.0
546.1171875,-751.953125,-20.99609375,-32.2265625,-819.3359375,-141.6015625,0.0
546.12109375,-1000.0,-21.484375,-36.62109375,-1000.0,-227.05078125,0.0
546.125,-1000.0,-28.80859375,-34.1796875,-999.0234375,-122.55859375,0.0
546.12890625,-395.01953125,-28.80859375,-31.73828125,-154.296875,-26.85546875,0.0
546.1328125,936.03515625,-30.2734375,-37.109375,993.65234375,-79.1015625,0.0
546.13671875,-954.58984375,-40.0390625,-39.55078125,956.54296875,-89.35546875,0.0
546.140625,-218.26171875,-34.1796875,-33.69140625,-263.671875,43.9453125,0.0
546.14453125,-1000.0,-31.25,-36.1328125,-1000.0,83.984375,0.0
546.1484375,-948.2421875,-37.109375,-23.4375,-958.49609375,-23.92578125,0.0
546.15234375,-994.62890625,-42.48046875,-17.578125,-982.421875,12.20703125,0.0
546.15625,-949.21875,-42.48046875,-20.01953125,-971.6796875,-23.4375,0.0
546.16015625,-1000.0,-45.41015625,-16.6015625,-1000.0,-56.640625,0.0
546.1640625,-221.6796875,-47.8515625,-18.06640625,-38.57421875,-16.11328125,0.0
546.16796875,-990.234375,-41.015625,-20.5078125,-983.88671875,-64.453125,0.0
546.171875,893.5546875,-27.34375,-23.92578125,914.0625,-76.171875,0.0
546.17578125,-945.3125,-17.578125,-29.296875,-997.55859375,-20.5078125,0.0
546.1796875,430.6640625,-23.92578125,-37.109375,79.1015625,-10.7421875,0.0
546.18359375,-943.359375,-33.203125,-38.57421875,-1000.0,-57.6171875,0.0
546.1875,-1000.0,-26.85546875,-30.2734375,-991.69921875,-60.546875,0.0
546.19140625,-955.56640625,-26.85546875,-26.85546875,-978.515625,-40.0390625,0.0
546.1953125,-1000.0,-29.296875,-27.83203125,-1000.0,-9.27734375,0.0
546.19921875,-946.2890625,-30.76171875,-24.90234375,-943.84765625,8.30078125,0.0
546.203125,-1000.0,-30.2734375,-26.3671875,-1000.0,20.01953125,0.0
546.20703125,-300.29296875,-27.83203125,-19.04296875,-457.51953125,-18.06640625,0.0
546.2109375,-971.19140625,-28.80859375,-15.625,973.14453125,-53.7109375,0.0
546.21484375,897.94921875,-27.83203125,-16.6015625,830.56640625,2.9296875,0.0
546.21875,-558.59375,-26.3671875,-11.71875,-696.77734375,-4.39453125,0.0
546.22265625,-1000.0,-25.87890625,-20.5078125,-1000.0,-46.38671875,0.0
546.2265625,-926.26953125,-26.3671875,-33.203125,-928.7109375,-25.87890625,0.0
546.23046875,-1000.0,-23.92578125,-30.2734375,-1000.0,-3.41796875,0.0
546.234375,-968.75,-17.08984375,-22.4609375,-976.5625,-24.4140625,0.0
546.23828125,-994.140625,-14.6484375,-24.4140625,-982.91015625,-11.71875,0.0
546.2421875,-1000.0,-17.08984375,-26.85546875,-1000.0,-3.90625,0.0
546.24609375,255.37109375,-16.6015625,-33.203125,112.79296875,-34.66796875,0.0
546.25,-957.03125,-17.08984375,-38.57421875,-979.98046875,-21.484375,0.0
546.25390625,958.0078125,-14.16015625,-28.3203125,990.72265625,-7.8125,0.0
546.2578125,844.23828125,-18.06640625,-13.671875,436.5234375,-49.8046875,0.0
546.26171875,-533.69140625,-25.87890625,-8.30078125,-795.8984375,-92.28515625,0.0
