timestamp,TP9,AF7,AF8,TP10,AUX,Marker,
205.00390625,-66.89453125,-1000.0,-31.25,-43.9453125,-110.3515625,0.0
205.0078125,-60.546875,-1000.0,-31.25,-42.48046875,-134.765625,0.0
205.01171875,-52.24609375,-1000.0,-27.34375,-40.52734375,-137.6953125,0.0
205.015625,-52.734375,-1000.0,-27.34375,-43.45703125,-131.8359375,0.0
205.01953125,-60.546875,-1000.0,-19.53125,-37.109375,-125.48828125,0.0
205.0234375,-67.87109375,-1000.0,-13.671875,-24.4140625,-153.80859375,0.0
205.02734375,-58.59375,-1000.0,-17.08984375,-29.296875,-139.16015625,0.0
205.03125,-58.59375,-1000.0,-24.90234375,-35.15625,-103.02734375,0.0
205.03515625,-57.6171875,-1000.0,-29.296875,-25.390625,-124.0234375,0.0
205.0390625,-41.50390625,-1000.0,-28.80859375,-23.92578125,-139.16015625,0.0
205.04296875,-46.38671875,-948.2421875,-32.71484375,-39.0625,-95.21484375,0.0
205.046875,-49.31640625,-1000.0,-37.59765625,-40.0390625,-106.93359375,0.0
205.05078125,-27.34375,-932.12890625,-39.55078125,-24.4140625,-91.30859375,0.0
205.0546875,-16.6015625,498.53515625,-38.0859375,-29.296875,-8.7890625,0.0
205.05859375,-22.94921875,-900.390625,-37.109375,-32.71484375,-0.48828125,0.0
205.0625,-30.76171875,874.0234375,-43.9453125,-24.4140625,52.734375,0.0
205.06640625,-25.87890625,952.63671875,-42.96875,-15.625,40.0390625,0.0
205.0703125,-17.08984375,-943.359375,-42.96875,-17.578125,25.390625,0.0
205.07421875,-24.90234375,-96.19140625,-43.9453125,-17.08984375,39.0625,0.0
205.078125,-42.96875,-1000.0,-48.33984375,-25.390625,15.13671875,0.0
205.08203125,-42.96875,-953.125,-57.6171875,-41.015625,-32.2265625,0.0
205.0859375,-39.0625,-992.67578125,-57.12890625,-39.0625,-41.50390625,0.0
205.08984375,-27.34375,-1000.0,-48.828125,-27.83203125,-15.13671875,0.0
205.09375,-28.80859375,-1000.0,-39.0625,-37.59765625,-23.4375,0.0
205.09765625,-49.8046875,-1000.0,-49.31640625,-62.01171875,7.8125,0.0
205.1015625,-33.69140625,-1000.0,-46.875,-41.50390625,-7.32421875,0.0
205.10546875,-22.94921875,-1000.0,-37.59765625,-18.06640625,43.9453125,0.0
205.109375,-23.92578125,-1000.0,-44.43359375,-27.34375,54.19921875,0.0
205.11328125,-18.5546875,-1000.0,-45.8984375,-30.76171875,-4.39453125,0.0
205.1171875,-22.94921875,-1000.0,-42.48046875,-42.96875,36.1328125,0.0
205.12109375,-25.87890625,-942.3828125,-45.8984375,-43.9453125,55.17578125,0.0
205.125,-23.4375,-1000.0,-43.45703125,-39.0625,40.52734375,0.0
205.12890625,-21.97265625,-888.18359375,-40.52734375,-39.0625,-8.7890625,0.0
205.1328125,-24.90234375,568.84765625,-43.9453125,-40.52734375,19.53125,0.0
205.13671875,-22.4609375,-913.57421875,-50.29296875,-56.15234375,129.39453125,0.0
205.140625,-37.109375,893.5546875,-52.734375,-51.7578125,158.203125,0.0
205.14453125,-43.45703125,983.88671875,-39.55078125,-37.59765625,123.53515625,0.0
205.1484375,-27.83203125,968.26171875,-44.921875,-36.1328125,-16.6015625,0.0
205.15234375,-28.3203125,968.26171875,-55.17578125,-49.8046875,-141.6015625,0.0
205.15625,-38.57421875,968.26171875,-55.6640625,-57.6171875,-202.1484375,0.0
205.16015625,-32.71484375,968.26171875,-56.640625,-44.43359375,-162.109375,0.0
205.1640625,-21.97265625,968.26171875,-59.08203125,-50.29296875,49.31640625,0.0
205.16796875,-21.97265625,968.26171875,-59.5703125,-46.38671875,94.7265625,0.0
205.171875,-20.5078125,968.26171875,-56.15234375,-22.4609375,0.0,0.0
205.17578125,-15.625,968.26171875,-52.734375,-36.62109375,29.78515625,0.0
205.1796875,-29.296875,968.26171875,-47.36328125,-57.6171875,30.76171875,0.0
205.18359375,-41.50390625,968.26171875,-52.24609375,-52.734375,-25.87890625,0.0
205.1875,-26.3671875,968.26171875,-51.7578125,-41.9921875,-46.875,0.0
205.19140625,-20.01953125,968.26171875,-41.9921875,-39.55078125,-94.23828125,0.0
205.1953125,-22.94921875,983.3984375,-44.43359375,-33.69140625,-167.48046875,0.0
205.19921875,-24.90234375,905.76171875,-48.828125,-26.85546875,-109.86328125,0.0
205.203125,-29.78515625,-957.03125,-48.828125,-33.69140625,-187.5,0.0
205.20703125,-7.32421875,741.2109375,-51.7578125,-25.87890625,-201.66015625,0.0
205.2109375,16.11328125,-705.078125,-54.6875,-10.25390625,-97.65625,0.0
205.21484375,-1.953125,-1000.0,-47.8515625,-24.4140625,-151.3671875,0.0
205.21875,-39.0625,-949.21875,-35.15625,-50.29296875,-169.43359375,0.0
205.22265625,-47.36328125,-956.54296875,-24.4140625,-68.84765625,-159.66796875,0.0
205.2265625,-45.41015625,-1000.0,-24.90234375,-63.4765625,-132.32421875,0.0
205.23046875,-48.33984375,-866.69921875,-27.34375,-42.96875,15.625,0.0
205.234375,-45.41015625,594.7265625,-23.92578125,-48.33984375,18.06640625,0.0
205.23828125,-29.78515625,-918.45703125,-31.25,-52.734375,-28.80859375,0.0
205.2421875,-13.18359375,894.04296875,-41.50390625,-33.203125,19.53125,0.0
205.24609375,-10.7421875,984.375,-35.15625,-26.85546875,13.671875,0.0
205.25,-22.94921875,974.609375,-30.76171875,-41.015625,-5.37109375,0.0
205.25390625,-32.2265625,943.359375,-33.203125,-37.59765625,44.921875,0.0
205.2578125,-25.390625,949.21875,-23.4375,-45.8984375,35.64453125,0.0
205.26171875,-27.83203125,-961.42578125,-21.97265625,-57.12890625,-7.32421875,0.0
205.265625,-23.92578125,-174.31640625,-27.83203125,-40.52734375,10.7421875,0.0
205.26953125,-1.953125,-1000.0,-33.69140625,-28.3203125,-29.78515625,0.0
205.2734375,-0.48828125,-945.3125,-34.1796875,-27.34375,-10.7421875,0.0
205.27734375,-12.6953125,-997.55859375,-31.25,-35.64453125,0.9765625,0.0
205.28125,-17.578125,-1000.0,-27.83203125,-41.9921875,-29.78515625,0.0
205.28515625,-26.85546875,-1000.0,-13.671875,-33.203125,-50.29296875,0.0
205.2890625,-41.50390625,-1000.0,-20.5078125,-37.59765625,-91.30859375,0.0
205.29296875,-38.57421875,-1000.0,-36.62109375,-48.33984375,-75.1953125,0.0
205.296875,-22.94921875,-1000.0,-36.1328125,-42.48046875,-10.25390625,0.0
205.30078125,-20.01953125,-1000.0,-37.59765625,-44.43359375,-2.9296875,0.0
205.3046875,-28.3203125,-1000.0,-28.80859375,-52.734375,75.68359375,0.0
205.30859375,-25.390625,-1000.0,-14.6484375,-39.0625,55.17578125,0.0
205.3125,-21.97265625,-1000.0,-15.625,-37.59765625,-51.7578125,0.0
205.31640625,-24.4140625,-1000.0,-12.6953125,-46.875,-32.2265625,0.0
205.3203125,-28.3203125,-1000.0,-6.8359375,-29.78515625,-38.57421875,0.0
205.32421875,-43.45703125,-1000.0,-9.765625,-36.62109375,-66.89453125,0.0
205.328125,-41.9921875,-1000.0,-14.6484375,-35.64453125,28.3203125,0.0
205.33203125,-39.0625,-1000.0,-17.578125,-35.64453125,84.47265625,0.0
205.3359375,-31.73828125,-1000.0,-24.4140625,-44.921875,-7.32421875,0.0
205.33984375,-15.13671875,-1000.0,-36.62109375,-32.2265625,4.8828125,0.0
205.34375,-25.390625,-1000.0,-32.2265625,-33.69140625,46.875,0.0
205.34765625,-39.55078125,-1000.0,-20.99609375,-52.24609375,47.36328125,0.0
205.3515625,-39.55078125,-1000.0,-26.85546875,-62.01171875,43.9453125,0.0
205.35546875,-35.15625,-1000.0,-26.85546875,-52.734375,94.23828125,0.0
205.359375,-32.2265625,-1000.0,-19.53125,-41.50390625,133.30078125,0.0
205.36328125,-20.5078125,-1000.0,-14.6484375,-37.109375,128.90625,0.0
205.3671875,-21.484375,-1000.0,-10.25390625,-41.9921875,100.5859375,0.0
205.37109375,-25.87890625,-1000.0,-16.11328125,-41.015625,65.4296875,0.0
205.375,-22.94921875,-1000.0,-27.34375,-31.25,67.87109375,0.0
205.37890625,-21.97265625,-1000.0,-36.62109375,-29.296875,41.015625,0.0
205.3828125,-22.94921875,-1000.0,-35.64453125,-24.4140625,42.48046875,0.0
205.38671875,-35.64453125,-1000.0,-38.57421875,-34.66796875,14.16015625,0.0
205.390625,-53.7109375,-1000.0,-40.0390625,-44.921875,41.9921875,0.0
205.39453125,-52.734375,-1000.0,-31.73828125,-39.0625,208.0078125,0.0
205.3984375,-38.0859375,-1000.0,-20.99609375,-23.92578125,181.15234375,0.0
205.40234375,-40.0390625,-1000.0,-16.6015625,-46.38671875,63.96484375,0.0
205.40625,-37.109375,-1000.0,-27.34375,-53.22265625,90.33203125,0.0
205.41015625,-20.5078125,-1000.0,-32.2265625,-25.390625,150.390625,0.0
205.4140625,-23.92578125,-1000.0,-37.59765625,-20.01953125,149.90234375,0.0
205.41796875,-39.0625,-1000.0,-34.66796875,-26.3671875,114.2578125,0.0
205.421875,-42.96875,-1000.0,-35.64453125,-41.50390625,73.2421875,0.0
205.42578125,-44.43359375,-1000.0,-34.66796875,-49.8046875,29.78515625,0.0
205.4296875,-32.2265625,-1000.0,-29.78515625,-42.48046875,32.71484375,0.0
205.43359375,-31.73828125,-1000.0,-30.76171875,-36.1328125,97.65625,0.0
205.4375,-44.43359375,-1000.0,-36.62109375,-34.1796875,106.93359375,0.0
205.44140625,-38.57421875,-1000.0,-35.15625,-35.15625,137.6953125,0.0
205.4453125,-26.3671875,-960.44921875,-35.15625,-37.59765625,111.328125,0.0
205.44921875,-16.6015625,-1000.0,-41.50390625,-25.390625,103.02734375,0.0
205.453125,-21.484375,-993.1640625,-48.33984375,-12.20703125,155.76171875,0.0
205.45703125,-27.34375,276.85546875,-43.45703125,-14.6484375,44.921875,0.0
205.4609375,-20.5078125,-823.73046875,-35.64453125,-20.5078125,-103.02734375,0.0
205.46484375,-15.625,705.078125,-38.0859375,-17.08984375,-82.03125,0.0
205.46875,-19.04296875,-774.90234375,-45.41015625,-26.85546875,-60.05859375,0.0
205.47265625,-25.87890625,-1000.0,-47.8515625,-28.80859375,-19.04296875,0.0
205.4765625,-33.203125,494.140625,-46.875,-31.73828125,93.26171875,0.0
205.48046875,-37.109375,-833.49609375,-45.8984375,-47.8515625,138.18359375,0.0
205.484375,-36.62109375,610.3515625,-47.36328125,-55.6640625,129.8828125,0.0
205.48828125,-33.69140625,-752.44140625,-39.0625,-28.3203125,114.74609375,0.0
205.4921875,-22.94921875,-1000.0,-32.71484375,-15.625,128.90625,0.0
205.49609375,-26.3671875,-935.05859375,-37.59765625,-25.87890625,105.95703125,0.0
205.5,-39.0625,-1000.0,-39.55078125,-34.66796875,84.47265625,0.0
205.50390625,-33.69140625,-939.453125,-30.76171875,-25.390625,91.796875,0.0
205.5078125,-18.5546875,-1000.0,-35.64453125,-11.23046875,91.796875,0.0
205.51171875,-12.6953125,-852.5390625,-40.52734375,-4.8828125,24.90234375,0.0
205.515625,-17.578125,611.81640625,-36.1328125,-18.06640625,74.21875,0.0
205.51953125,-41.015625,-921.38671875,-28.80859375,-43.9453125,75.68359375,0.0
205.5234375,-52.734375,895.01953125,-16.11328125,-45.41015625,-37.109375,0.0
205.52734375,-36.62109375,984.86328125,-8.7890625,-26.85546875,-24.4140625,0.0
205.53125,-47.8515625,984.86328125,-16.6015625,-31.73828125,-75.68359375,0.0
205.53515625,-47.8515625,905.2734375,-26.85546875,-39.0625,-62.5,0.0
205.5390625,-37.109375,-961.42578125,-34.1796875,-31.73828125,41.9921875,0.0
205.54296875,-47.36328125,794.43359375,-31.25,-39.55078125,-5.859375,0.0
205.546875,-51.7578125,-689.453125,-31.73828125,-43.9453125,-28.80859375,0.0
205.55078125,-48.33984375,-1000.0,-28.3203125,-43.45703125,2.44140625,0.0
205.5546875,-55.17578125,-1000.0,-20.5078125,-46.875,-18.5546875,0.0
205.55859375,-51.7578125,-829.1015625,-16.11328125,-36.1328125,41.9921875,0.0
205.5625,-44.43359375,651.3671875,-17.08984375,-34.1796875,89.84375,0.0
205.56640625,-35.64453125,-930.17578125,-26.3671875,-38.57421875,31.73828125,0.0
205.5703125,-27.83203125,897.4609375,-36.1328125,-40.0390625,34.1796875,0.0
205.57421875,-24.4140625,984.86328125,-42.48046875,-33.69140625,27.34375,0.0
205.578125,-25.87890625,968.26171875,-37.109375,-32.2265625,-19.04296875,0.0
205.58203125,-23.92578125,968.26171875,-27.83203125,-25.87890625,-55.6640625,0.0
205.5859375,-9.765625,968.26171875,-25.87890625,-19.53125,-49.31640625,0.0
205.58984375,-15.13671875,968.26171875,-25.390625,-27.83203125,-71.2890625,0.0
205.59375,-19.53125,969.23828125,-26.3671875,-30.76171875,-103.02734375,0.0
205.59765625,-19.53125,976.5625,-28.3203125,-32.71484375,-124.0234375,0.0
205.6015625,-23.4375,892.578125,-30.2734375,-20.01953125,-89.35546875,0.0
205.60546875,-9.27734375,-881.8359375,-30.76171875,-3.41796875,-67.87109375,0.0
205.609375,-6.8359375,431.640625,-40.52734375,-13.18359375,-85.9375,0.0
205.61328125,-22.94921875,-939.94140625,-39.55078125,-20.99609375,-147.4609375,0.0
205.6171875,-43.9453125,297.8515625,-32.2265625,-40.0390625,-119.62890625,0.0
205.62109375,-48.828125,-846.6796875,-39.55078125,-42.96875,-63.96484375,0.0
205.625,-40.52734375,884.765625,-40.52734375,-27.83203125,-71.77734375,0.0
205.62890625,-37.59765625,975.5859375,-38.57421875,-25.87890625,-84.47265625,0.0
205.6328125,-41.015625,984.375,-41.9921875,-38.57421875,-40.52734375,0.0
205.63671875,-31.25,908.69140625,-50.78125,-44.43359375,3.41796875,0.0
205.640625,-30.76171875,-973.6328125,-48.828125,-38.0859375,-4.8828125,0.0
205.64453125,-40.0390625,825.1953125,-38.0859375,-40.0390625,-93.26171875,0.0
205.6484375,-36.62109375,-555.17578125,-41.015625,-50.29296875,-146.484375,0.0
205.65234375,-26.3671875,-1000.0,-40.0390625,-41.9921875,-161.1328125,0.0
205.65625,-20.01953125,-756.34765625,-32.71484375,-29.78515625,-155.76171875,0.0
205.66015625,-20.99609375,622.55859375,-37.109375,-27.83203125,-115.234375,0.0
205.6640625,-16.11328125,-926.26953125,-35.15625,-23.4375,-144.53125,0.0
205.66796875,-7.8125,895.99609375,-38.57421875,-17.08984375,-206.0546875,0.0
205.671875,-9.765625,-998.046875,-38.57421875,-23.92578125,-160.64453125,0.0
205.67578125,-9.765625,899.4140625,-39.0625,-38.57421875,-145.01953125,0.0
205.6796875,-14.16015625,-941.89453125,-35.64453125,-38.0859375,-55.17578125,0.0
205.68359375,-17.08984375,715.8203125,-27.34375,-32.71484375,65.4296875,0.0
205.6875,-8.30078125,-759.765625,-30.2734375,-21.97265625,-13.18359375,0.0
205.69140625,-2.9296875,-1000.0,-33.69140625,-31.25,6.34765625,0.0
205.6953125,-7.8125,-932.6171875,-35.15625,-30.2734375,64.453125,0.0
205.69921875,-13.671875,-1000.0,-35.15625,-16.11328125,5.859375,0.0
205.703125,-5.859375,-1000.0,-29.296875,-21.97265625,7.8125,0.0
205.70703125,-8.30078125,-1000.0,-30.2734375,-30.76171875,0.0,0.0
205.7109375,-9.27734375,-1000.0,-28.3203125,-21.97265625,3.41796875,0.0
205.71484375,-10.25390625,-1000.0,-23.92578125,-24.90234375,13.671875,0.0
205.71875,-12.20703125,-1000.0,-28.3203125,-32.71484375,69.3359375,0.0
205.72265625,1.953125,-1000.0,-27.83203125,-16.6015625,37.59765625,0.0
205.7265625,13.671875,-1000.0,-25.390625,-9.27734375,11.23046875,0.0
205.73046875,9.27734375,-1000.0,-31.73828125,-19.04296875,36.62109375,0.0
205.734375,1.953125,-1000.0,-41.015625,-32.2265625,5.37109375,0.0
205.73828125,13.18359375,-1000.0,-46.875,-26.3671875,72.75390625,0.0
205.7421875,10.7421875,-976.5625,-41.015625,-18.06640625,73.2421875,0.0
205.74609375,-15.13671875,-987.3046875,-25.390625,-27.34375,36.1328125,0.0
205.75,-18.5546875,-979.00390625,-20.5078125,-32.2265625,-3.41796875,0.0
205.75390625,-19.04296875,227.05078125,-29.296875,-42.96875,-67.3828125,0.0
205.7578125,-23.92578125,-914.55078125,-25.390625,-51.26953125,-35.64453125,0.0
205.76171875,-8.7890625,913.57421875,-15.13671875,-38.0859375,48.828125,0.0
205.765625,2.44140625,966.30859375,-23.92578125,-31.73828125,32.71484375,0.0
205.76953125,-2.9296875,968.75,-29.78515625,-23.92578125,-26.3671875,0.0
205.7734375,-4.8828125,968.26171875,-29.78515625,-22.94921875,4.39453125,0.0
205.77734375,-5.859375,968.26171875,-34.1796875,-31.25,60.05859375,0.0
205.78125,1.46484375,968.26171875,-27.34375,-25.87890625,-10.25390625,0.0
205.78515625,12.20703125,968.26171875,-26.85546875,-10.25390625,-80.078125,0.0
205.7890625,14.6484375,968.26171875,-31.73828125,-10.7421875,-63.4765625,0.0
205.79296875,14.6484375,968.26171875,-34.66796875,-8.7890625,10.7421875,0.0
205.796875,15.625,968.26171875,-32.2265625,-6.8359375,36.62109375,0.0
205.80078125,11.23046875,967.7734375,-36.62109375,-9.27734375,8.7890625,0.0
205.8046875,6.34765625,967.7734375,-42.48046875,-12.6953125,-103.02734375,0.0
205.80859375,-0.9765625,968.26171875,-40.0390625,-15.625,-83.49609375,0.0
205.8125,-8.7890625,968.26171875,-36.62109375,-27.34375,-44.921875,0.0
205.81640625,-19.53125,968.26171875,-41.9921875,-34.1796875,-162.109375,0.0
205.8203125,-23.92578125,968.26171875,-55.17578125,-43.9453125,-142.578125,0.0
205.82421875,-5.37109375,968.26171875,-59.08203125,-39.0625,-119.62890625,0.0
205.828125,12.6953125,968.26171875,-49.31640625,-10.7421875,-213.8671875,0.0
205.83203125,-3.90625,968.26171875,-39.55078125,-20.01953125,-166.015625,0.0
205.8359375,-26.3671875,968.26171875,-32.2265625,-31.25,-62.01171875,0.0
205.83984375,-32.2265625,968.26171875,-22.94921875,-26.3671875,-58.10546875,0.0
205.84375,-26.3671875,968.26171875,-20.01953125,-23.92578125,-184.08203125,0.0
205.84765625,-23.4375,968.26171875,-17.578125,-28.3203125,-232.421875,0.0
205.8515625,-25.390625,968.26171875,-20.5078125,-43.9453125,-108.88671875,0.0
205.85546875,-27.34375,968.26171875,-32.2265625,-45.41015625,-104.00390625,0.0
205.859375,-43.9453125,967.7734375,-34.66796875,-38.57421875,-164.55078125,0.0
205.86328125,-49.31640625,968.26171875,-26.3671875,-42.48046875,-121.09375,0.0
205.8671875,-52.734375,968.26171875,-20.01953125,-46.38671875,-94.23828125,0.0
205.87109375,-54.6875,968.26171875,-14.16015625,-48.828125,-155.76171875,0.0
205.875,-45.41015625,968.26171875,-17.08984375,-58.10546875,-175.78125,0.0
205.87890625,-45.41015625,968.26171875,-21.484375,-41.9921875,-149.90234375,0.0
205.8828125,-36.1328125,968.26171875,-20.99609375,-20.5078125,-179.6875,0.0
205.88671875,-43.45703125,968.26171875,-23.4375,-37.109375,-222.65625,0.0
205.890625,-51.26953125,968.26171875,-20.5078125,-43.45703125,-184.08203125,0.0
205.89453125,-29.78515625,968.26171875,-15.625,-31.73828125,-84.9609375,0.0
205.8984375,-23.4375,968.26171875,-28.3203125,-27.83203125,-109.86328125,0.0
205.90234375,-33.69140625,968.26171875,-39.0625,-37.59765625,-189.453125,0.0
205.90625,-29.78515625,967.7734375,-39.0625,-33.203125,-179.6875,0.0
205.91015625,-19.04296875,968.26171875,-44.921875,-27.34375,-216.796875,0.0
205.9140625,-25.390625,968.26171875,-39.0625,-37.109375,-198.73046875,0.0
205.91796875,-25.390625,968.26171875,-36.1328125,-50.29296875,-77.1484375,0.0
205.921875,-21.484375,968.26171875,-35.15625,-41.015625,8.30078125,0.0
205.92578125,-34.1796875,968.26171875,-39.55078125,-31.25,-62.5,0.0
205.9296875,-33.203125,967.7734375,-41.50390625,-47.8515625,-131.34765625,0.0
205.93359375,-30.76171875,967.7734375,-36.1328125,-44.43359375,-83.0078125,0.0
205.9375,-19.04296875,973.14453125,-32.71484375,-39.55078125,-134.27734375,0.0
205.94140625,-1.46484375,949.70703125,-35.15625,-23.92578125,-100.09765625,0.0
205.9453125,3.90625,938.4765625,-40.52734375,-11.71875,-113.76953125,0.0
205.94921875,-12.6953125,-947.75390625,-28.80859375,-29.296875,-211.42578125,0.0
205.953125,-31.73828125,-70.80078125,-20.99609375,-54.19921875,-223.14453125,0.0
205.95703125,-30.76171875,-1000.0,-24.4140625,-52.24609375,-224.12109375,0.0
205.9609375,-20.99609375,-958.49609375,-24.90234375,-31.73828125,-184.5703125,0.0
205.96484375,-16.11328125,-990.234375,-16.11328125,-29.78515625,-145.99609375,0.0
205.96875,-15.13671875,-1000.0,-14.6484375,-27.34375,-145.01953125,0.0
205.97265625,-9.27734375,-1000.0,-17.578125,-29.78515625,-127.44140625,0.0
205.9765625,-23.4375,-1000.0,-15.13671875,-35.15625,-111.81640625,0.0
205.98046875,-30.76171875,-1000.0,-14.6484375,-38.0859375,-138.18359375,0.0
205.984375,-23.4375,-1000.0,-17.08984375,-35.15625,-129.39453125,0.0
205.98828125,-25.390625,-1000.0,-13.18359375,-29.296875,-127.44140625,0.0
205.9921875,-18.06640625,-1000.0,-11.23046875,-25.390625,-111.328125,0.0
205.99609375,-21.484375,-1000.0,-11.23046875,-20.5078125,-78.125,0.0
206.0,-30.2734375,-1000.0,-7.8125,-18.06640625,-39.0625,0.0
206.00390625,-27.34375,-1000.0,-14.16015625,-26.85546875,86.9140625,0.0
206.0078125,-16.6015625,-1000.0,-13.671875,-25.390625,117.67578125,0.0
206.01171875,-10.25390625,-1000.0,-9.765625,-23.4375,101.07421875,0.0
206.015625,-20.5078125,-1000.0,-15.625,-31.25,89.84375,0.0
206.01953125,-11.23046875,-1000.0,-22.94921875,-31.25,119.62890625,0.0
206.0234375,-0.9765625,-1000.0,-21.484375,-29.78515625,138.671875,0.0
206.02734375,-5.859375,-1000.0,-23.4375,-31.25,61.5234375,0.0
206.03125,-5.37109375,-1000.0,-32.71484375,-33.69140625,47.36328125,0.0
206.03515625,-11.71875,-1000.0,-37.109375,-36.1328125,26.3671875,0.0
206.0390625,-20.01953125,-1000.0,-33.69140625,-30.76171875,-17.08984375,0.0
206.04296875,-17.08984375,-1000.0,-33.69140625,-31.73828125,-12.20703125,0.0
206.046875,-16.11328125,-1000.0,-40.52734375,-38.0859375,69.82421875,0.0
206.05078125,-13.18359375,-1000.0,-36.62109375,-31.73828125,94.7265625,0.0
206.0546875,-13.18359375,-1000.0,-31.25,-29.78515625,155.2734375,0.0
206.05859375,-9.27734375,-1000.0,-29.296875,-20.5078125,213.37890625,0.0
206.0625,-10.7421875,-1000.0,-36.1328125,-15.625,184.5703125,0.0
206.06640625,-11.23046875,-1000.0,-35.15625,-18.5546875,72.265625,0.0
206.0703125,-14.16015625,-1000.0,-27.34375,-19.04296875,-37.109375,0.0
206.07421875,-27.34375,-1000.0,-26.3671875,-26.85546875,2.9296875,0.0
206.078125,-33.69140625,-1000.0,-29.296875,-30.76171875,33.69140625,0.0
206.08203125,-33.203125,-1000.0,-29.78515625,-28.80859375,12.6953125,0.0
206.0859375,-27.34375,-1000.0,-31.73828125,-25.390625,11.23046875,0.0
206.08984375,-15.625,-1000.0,-32.71484375,-26.3671875,6.34765625,0.0
206.09375,-1.953125,-942.87109375,-35.64453125,-30.2734375,82.03125,0.0
206.09765625,-17.578125,-1000.0,-32.71484375,-28.80859375,0.0,0.0
206.1015625,-19.04296875,-891.11328125,-27.83203125,-21.484375,-121.09375,0.0
206.10546875,-7.8125,564.94140625,-29.78515625,-21.97265625,-47.8515625,0.0
206.109375,-6.34765625,-912.59765625,-26.3671875,-23.4375,58.10546875,0.0
206.11328125,-14.6484375,-29.78515625,-29.296875,-20.99609375,39.55078125,0.0
206.1171875,-19.04296875,-27.34375,-38.0859375,-25.87890625,6.34765625,0.0
206.12109375,-16.6015625,-31.73828125,-32.71484375,-29.296875,61.03515625,0.0
206.125,-10.7421875,-28.3203125,-25.390625,-20.99609375,30.2734375,0.0
206.12890625,-13.671875,-27.83203125,-24.90234375,-23.92578125,-21.97265625,0.0
206.1328125,-10.7421875,-28.80859375,-22.94921875,-28.3203125,-55.17578125,0.0
206.13671875,-13.18359375,-25.87890625,-29.78515625,-35.64453125,-68.359375,0.0
206.140625,-24.4140625,-35.64453125,-33.69140625,-41.50390625,-102.5390625,0.0
206.14453125,-23.4375,-30.76171875,-24.90234375,-24.90234375,-65.4296875,0.0
206.1484375,-24.90234375,-27.34375,-20.5078125,-33.203125,-10.7421875,0.0
206.15234375,-32.2265625,-30.2734375,-27.34375,-50.78125,-29.78515625,0.0
206.15625,-36.1328125,-31.73828125,-30.76171875,-45.8984375,-26.85546875,0.0
206.16015625,-40.0390625,968.26171875,-29.296875,-50.29296875,-52.734375,0.0
206.1640625,-35.15625,968.26171875,-26.85546875,-41.9921875,-118.65234375,0.0
206.16796875,-26.85546875,967.7734375,-28.80859375,-33.69140625,-133.30078125,0.0
206.171875,-33.203125,968.26171875,-29.296875,-36.1328125,-26.85546875,0.0
206.17578125,-37.109375,968.26171875,-23.4375,-33.69140625,-8.30078125,0.0
206.1796875,-43.45703125,968.26171875,-23.92578125,-34.66796875,-47.8515625,0.0
206.18359375,-46.38671875,968.26171875,-26.85546875,-29.78515625,-82.03125,0.0
206.1875,-46.875,968.26171875,-30.2734375,-41.50390625,-129.8828125,0.0
206.19140625,-41.50390625,967.7734375,-30.2734375,-39.0625,-109.86328125,0.0
206.1953125,-43.9453125,968.26171875,-37.59765625,-36.62109375,-76.66015625,0.0
206.19921875,-55.6640625,967.7734375,-36.1328125,-45.8984375,-95.21484375,0.0
206.203125,-55.17578125,967.7734375,-22.94921875,-41.50390625,-68.359375,0.0
206.20703125,-48.33984375,967.7734375,-27.83203125,-38.0859375,-15.13671875,0.0
206.2109375,-39.0625,967.7734375,-35.15625,-45.41015625,-73.2421875,0.0
206.21484375,-42.96875,968.26171875,-25.87890625,-42.48046875,-122.55859375,0.0
206.21875,-55.6640625,968.26171875,-20.01953125,-53.7109375,-110.83984375,0.0
206.22265625,-43.45703125,968.26171875,-25.390625,-52.24609375,-84.9609375,0.0
206.2265625,-32.71484375,967.7734375,-26.3671875,-23.92578125,-106.93359375,0.0
206.23046875,-37.59765625,969.23828125,-28.3203125,-21.97265625,-139.16015625,0.0
206.234375,-55.17578125,972.65625,-27.83203125,-37.59765625,-125.48828125,0.0
206.23828125,-62.98828125,906.73828125,-18.06640625,-44.43359375,-130.37109375,0.0
206.2421875,-54.19921875,-916.50390625,-16.6015625,-40.52734375,-123.53515625,0.0
206.24609375,-43.45703125,331.54296875,-23.4375,-53.7109375,-88.8671875,0.0
206.25,-46.875,-980.46875,-27.83203125,-55.17578125,-96.19140625,0.0
206.25390625,-43.45703125,-1000.0,-31.25,-47.8515625,-131.8359375,0.0
206.2578125,-38.57421875,-960.44921875,-40.0390625,-48.828125,-74.70703125,0.0
206.26171875,-50.29296875,-1000.0,-48.33984375,-40.0390625,33.69140625,0.0
206.265625,-39.0625,-1000.0,-41.50390625,-27.83203125,-22.4609375,0.0
206.26953125,-36.62109375,-1000.0,-29.296875,-37.59765625,-108.88671875,0.0
206.2734375,-51.7578125,-1000.0,-28.80859375,-53.22265625,-32.71484375,0.0
206.27734375,-39.0625,-1000.0,-42.96875,-52.24609375,-26.3671875,0.0
206.28125,-35.15625,-1000.0,-46.38671875,-45.41015625,-15.13671875,0.0
206.28515625,-43.9453125,-1000.0,-31.73828125,-49.8046875,-47.8515625,0.0
206.2890625,-28.80859375,-1000.0,-28.3203125,-39.55078125,-74.70703125,0.0
206.29296875,-28.80859375,-1000.0,-35.64453125,-32.2265625,-39.0625,0.0
206.296875,-47.8515625,-1000.0,-38.57421875,-50.78125,-119.62890625,0.0
206.30078125,-42.96875,-1000.0,-44.921875,-46.38671875,-101.5625,0.0
206.3046875,-31.25,-1000.0,-42.48046875,-35.64453125,-20.99609375,0.0
206.30859375,-31.73828125,-1000.0,-35.15625,-41.015625,8.30078125,0.0
206.3125,-35.64453125,-1000.0,-35.64453125,-45.8984375,-62.01171875,0.0
206.31640625,-38.0859375,-1000.0,-36.62109375,-46.38671875,-169.921875,0.0
206.3203125,-50.29296875,-1000.0,-42.96875,-47.36328125,-170.8984375,0.0
206.32421875,-48.33984375,-1000.0,-45.41015625,-34.66796875,-239.74609375,0.0
206.328125,-36.62109375,-1000.0,-37.59765625,-33.203125,-255.37109375,0.0
206.33203125,-45.41015625,-1000.0,-28.3203125,-39.55078125,-82.03125,0.0
206.3359375,-47.8515625,-1000.0,-32.2265625,-45.41015625,-35.15625,0.0
206.33984375,-47.36328125,-1000.0,-34.1796875,-39.0625,-92.28515625,0.0
206.34375,-32.71484375,-1000.0,-26.85546875,-27.83203125,-110.3515625,0.0
206.34765625,-29.296875,-1000.0,-29.78515625,-19.53125,-79.58984375,0.0
206.3515625,-36.62109375,-1000.0,-30.76171875,-21.97265625,-44.43359375,0.0
206.35546875,-34.66796875,-1000.0,-29.78515625,-28.80859375,-13.671875,0.0
206.359375,-40.0390625,-1000.0,-27.34375,-27.34375,5.37109375,0.0
206.36328125,-32.71484375,-1000.0,-25.390625,-19.53125,33.69140625,0.0
206.3671875,-23.4375,-930.17578125,-31.73828125,-11.71875,38.0859375,0.0
206.37109375,-23.92578125,-1000.0,-33.69140625,-13.671875,82.03125,0.0
206.375,-22.94921875,-596.6796875,-30.2734375,-20.5078125,79.1015625,0.0
206.37890625,-33.203125,838.8671875,-29.78515625,-30.2734375,80.078125,0.0
206.3828125,-27.83203125,-975.5859375,-33.69140625,-16.11328125,120.60546875,0.0
206.38671875,-16.6015625,910.64453125,-33.69140625,-2.9296875,120.1171875,0.0
206.390625,-15.625,983.88671875,-27.83203125,-20.01953125,161.62109375,0.0
206.39453125,-23.92578125,968.26171875,-24.4140625,-20.5078125,230.46875,0.0
206.3984375,-27.83203125,968.26171875,-26.3671875,-18.5546875,333.984375,0.0
206.40234375,-22.94921875,968.26171875,-30.2734375,-17.08984375,270.99609375,0.0
206.40625,-14.16015625,968.26171875,-26.85546875,-21.484375,241.69921875,0.0
206.41015625,-15.13671875,968.26171875,-23.4375,-18.06640625,292.48046875,0.0
206.4140625,-14.6484375,968.26171875,-24.90234375,-10.7421875,285.64453125,0.0
206.41796875,-0.9765625,968.26171875,-24.90234375,-12.20703125,221.19140625,0.0
206.421875,-7.32421875,968.26171875,-30.76171875,-15.625,207.51953125,0.0
206.42578125,-18.5546875,968.26171875,-28.3203125,-26.85546875,208.0078125,0.0
206.4296875,-21.97265625,968.26171875,-35.64453125,-35.15625,248.046875,0.0
206.43359375,-20.99609375,968.26171875,-44.43359375,-42.96875,225.09765625,0.0
206.4375,-22.94921875,968.26171875,-38.0859375,-40.0390625,170.41015625,0.0
206.44140625,-29.296875,968.26171875,-33.69140625,-31.25,234.375,0.0
206.4453125,-23.92578125,968.26171875,-30.76171875,-24.4140625,295.8984375,0.0
206.44921875,-18.5546875,968.26171875,-38.0859375,-23.92578125,236.81640625,0.0
206.453125,-23.92578125,968.26171875,-41.50390625,-34.1796875,141.6015625,0.0
206.45703125,-27.83203125,968.26171875,-33.69140625,-39.0625,83.49609375,0.0
206.4609375,-37.109375,968.26171875,-34.66796875,-44.43359375,45.8984375,0.0
206.46484375,-32.2265625,968.26171875,-32.71484375,-44.921875,69.3359375,0.0
206.46875,-20.01953125,968.26171875,-30.2734375,-25.87890625,135.25390625,0.0
206.47265625,-18.5546875,968.26171875,-37.59765625,-19.04296875,145.99609375,0.0
206.4765625,-21.484375,968.26171875,-39.0625,-41.015625,125.9765625,0.0
206.48046875,-24.4140625,968.26171875,-32.71484375,-39.0625,99.609375,0.0
206.484375,-18.5546875,968.26171875,-35.15625,-37.109375,144.53125,0.0
206.48828125,-21.97265625,968.26171875,-33.69140625,-37.109375,104.98046875,0.0
206.4921875,-29.78515625,968.26171875,-28.3203125,-39.0625,-4.8828125,0.0
206.49609375,-33.69140625,967.7734375,-33.203125,-48.33984375,-20.5078125,0.0
206.5,-36.62109375,968.26171875,-28.3203125,-35.15625,-25.390625,0.0
206.50390625,-28.3203125,968.26171875,-19.04296875,-25.87890625,-48.828125,0.0
206.5078125,-13.18359375,968.26171875,-25.390625,-23.4375,-32.71484375,0.0
206.51171875,-13.671875,967.7734375,-33.203125,-20.99609375,-11.23046875,0.0
206.515625,-20.01953125,967.7734375,-30.76171875,-20.99609375,-59.5703125,0.0
206.51953125,-28.3203125,967.7734375,-34.1796875,-27.83203125,-122.55859375,0.0
206.5234375,-27.83203125,967.7734375,-27.83203125,-37.59765625,-117.1875,0.0
206.52734375,-20.5078125,968.26171875,-24.90234375,-38.57421875,-98.6328125,0.0
206.53125,-32.71484375,968.26171875,-31.25,-25.390625,-115.72265625,0.0
206.53515625,-34.66796875,968.26171875,-30.76171875,-32.71484375,-147.94921875,0.0
206.5390625,-24.90234375,968.26171875,-35.64453125,-51.26953125,-201.66015625,0.0
206.54296875,-20.5078125,968.26171875,-42.48046875,-24.90234375,-210.9375,0.0
206.546875,-15.625,968.26171875,-31.25,-11.23046875,-183.59375,0.0
206.55078125,-12.6953125,968.26171875,-24.4140625,-20.01953125,-208.984375,0.0
206.5546875,-17.08984375,968.26171875,-36.62109375,-23.92578125,-251.953125,0.0
206.55859375,-31.25,967.7734375,-38.0859375,-31.25,-183.10546875,0.0
206.5625,-30.2734375,968.26171875,-31.73828125,-30.2734375,-114.74609375,0.0
206.56640625,-17.08984375,968.26171875,-23.92578125,-26.85546875,-103.02734375,0.0
206.5703125,-24.90234375,967.7734375,-20.5078125,-25.390625,-53.7109375,0.0
206.57421875,-30.2734375,968.26171875,-24.4140625,-30.76171875,-96.6796875,0.0
206.578125,-32.2265625,968.26171875,-29.78515625,-35.15625,-162.59765625,0.0
206.58203125,-32.2265625,968.26171875,-23.92578125,-31.25,-188.4765625,0.0
206.5859375,-25.390625,968.26171875,-16.6015625,-18.5546875,-197.75390625,0.0
206.58984375,-25.87890625,968.26171875,-20.5078125,-6.8359375,-160.64453125,0.0
206.59375,-27.83203125,968.26171875,-25.87890625,-23.4375,-132.8125,0.0
206.59765625,-28.80859375,968.26171875,-27.83203125,-36.1328125,-166.50390625,0.0
206.6015625,-27.83203125,968.26171875,-15.13671875,-32.2265625,-193.84765625,0.0
206.60546875,-17.578125,968.26171875,-19.04296875,-20.5078125,-181.640625,0.0
206.609375,-21.484375,968.26171875,-31.73828125,-20.01953125,-137.6953125,0.0
206.61328125,-27.83203125,968.26171875,-33.69140625,-32.71484375,-168.45703125,0.0
206.6171875,-26.3671875,967.7734375,-40.52734375,-21.484375,-130.37109375,0.0
206.62109375,-35.15625,968.26171875,-36.62109375,-26.85546875,-63.96484375,0.0
206.625,-39.0625,968.26171875,-35.15625,-38.57421875,-150.390625,0.0
206.62890625,-30.2734375,968.26171875,-33.69140625,-24.90234375,-233.3984375,0.0
206.6328125,-26.3671875,968.26171875,-32.71484375,-29.296875,-235.3515625,0.0
206.63671875,-33.203125,968.26171875,-37.59765625,-39.0625,-214.84375,0.0
206.640625,-29.78515625,968.26171875,-38.57421875,-33.203125,-197.265625,0.0
206.64453125,-24.90234375,968.26171875,-28.80859375,-26.3671875,-226.07421875,0.0
206.6484375,-19.53125,968.26171875,-22.94921875,-27.83203125,-210.9375,0.0
206.65234375,-13.18359375,968.26171875,-29.296875,-25.390625,-160.64453125,0.0
206.65625,-23.92578125,967.7734375,-28.3203125,-23.4375,-138.671875,0.0
206.66015625,-26.3671875,968.26171875,-20.01953125,-38.57421875,-161.62109375,0.0
206.6640625,-17.08984375,968.26171875,-15.625,-31.73828125,-124.51171875,0.0
206.66796875,-17.08984375,968.26171875,-23.92578125,-24.4140625,-162.59765625,0.0
206.671875,-15.625,968.26171875,-29.296875,-21.97265625,-170.41015625,0.0
206.67578125,-18.06640625,967.7734375,-28.3203125,-25.87890625,-101.07421875,0.0
206.6796875,-21.97265625,967.7734375,-24.90234375,-20.99609375,-91.796875,0.0
206.68359375,-33.69140625,968.26171875,-20.99609375,-13.18359375,-99.12109375,0.0
206.6875,-31.25,968.26171875,-24.4140625,-25.390625,-140.625,0.0
206.69140625,-26.3671875,968.26171875,-23.4375,-37.59765625,-118.65234375,0.0
206.6953125,-38.57421875,967.7734375,-16.11328125,-37.59765625,-9.27734375,0.0
206.69921875,-44.43359375,967.7734375,-21.484375,-36.62109375,-30.76171875,0.0
206.703125,-44.43359375,967.7734375,-24.90234375,-37.59765625,-102.5390625,0.0
206.70703125,-44.43359375,968.26171875,-22.94921875,-33.69140625,-103.02734375,0.0
206.7109375,-47.8515625,968.26171875,-28.80859375,-39.0625,12.20703125,0.0
206.71484375,-55.17578125,968.26171875,-30.2734375,-55.6640625,80.56640625,0.0
206.71875,-53.7109375,968.26171875,-28.80859375,-54.19921875,24.4140625,0.0
206.72265625,-64.453125,968.26171875,-33.69140625,-52.24609375,-46.38671875,0.0
206.7265625,-70.3125,967.7734375,-33.69140625,-52.734375,-105.95703125,0.0
206.73046875,-58.59375,967.7734375,-37.109375,-49.31640625,-217.28515625,0.0
206.734375,-71.2890625,968.26171875,-44.43359375,-68.84765625,-171.875,0.0
206.73828125,-81.54296875,968.26171875,-42.48046875,-60.05859375,-67.3828125,0.0
206.7421875,-63.4765625,967.7734375,-45.41015625,-53.22265625,-92.28515625,0.0
206.74609375,-57.6171875,967.7734375,-44.43359375,-52.24609375,-160.15625,0.0
206.75,-62.5,967.7734375,-41.9921875,-51.26953125,-204.58984375,0.0
206.75390625,-52.734375,968.26171875,-42.48046875,-52.734375,-108.88671875,0.0
206.7578125,-61.03515625,968.26171875,-41.9921875,-42.96875,28.80859375,0.0
206.76171875,-67.3828125,967.7734375,-31.25,-30.2734375,41.9921875,0.0
206.765625,-64.453125,967.7734375,-30.2734375,-28.80859375,33.69140625,0.0
206.76953125,-59.08203125,968.26171875,-28.80859375,-34.66796875,-51.7578125,0.0
206.7734375,-41.50390625,967.7734375,-21.484375,-25.390625,-90.33203125,0.0
206.77734375,-44.921875,967.7734375,-29.78515625,-24.90234375,-111.328125,0.0
206.78125,-53.7109375,968.26171875,-32.2265625,-48.33984375,-129.39453125,0.0
206.78515625,-49.31640625,968.26171875,-27.83203125,-58.10546875,-34.66796875,0.0
206.7890625,-42.96875,968.26171875,-24.90234375,-47.8515625,-53.7109375,0.0
206.79296875,-47.8515625,967.7734375,-25.87890625,-43.45703125,-164.55078125,0.0
206.796875,-46.875,967.7734375,-27.83203125,-32.2265625,-132.32421875,0.0
206.80078125,-43.45703125,968.26171875,-23.4375,-32.71484375,-54.6875,0.0
206.8046875,-39.55078125,967.7734375,-25.390625,-34.1796875,-53.22265625,0.0
206.80859375,-41.015625,967.7734375,-27.83203125,-23.92578125,-23.92578125,0.0
206.8125,-42.48046875,968.26171875,-33.203125,-25.390625,-46.875,0.0
206.81640625,-44.43359375,968.26171875,-35.15625,-30.2734375,-104.4921875,0.0
206.8203125,-56.15234375,967.7734375,-22.4609375,-49.31640625,-139.16015625,0.0
206.82421875,-53.22265625,968.26171875,-25.390625,-55.6640625,-99.12109375,0.0
206.828125,-40.52734375,967.7734375,-34.1796875,-41.50390625,-48.828125,0.0
206.83203125,-36.62109375,967.7734375,-31.73828125,-33.69140625,-97.16796875,0.0
206.8359375,-40.52734375,967.7734375,-28.80859375,-36.1328125,-199.21875,0.0
206.83984375,-46.875,968.26171875,-29.78515625,-37.109375,-145.99609375,0.0
206.84375,-44.43359375,967.7734375,-28.3203125,-28.80859375,-168.9453125,0.0
206.84765625,-45.41015625,967.7734375,-26.3671875,-25.87890625,-250.48828125,0.0
206.8515625,-40.52734375,968.26171875,-33.203125,-31.73828125,-132.8125,0.0
206.85546875,-43.9453125,968.26171875,-35.64453125,-37.59765625,-125.48828125,0.0
206.859375,-47.8515625,968.26171875,-33.69140625,-30.76171875,-166.015625,0.0
206.86328125,-44.921875,967.7734375,-32.2265625,-21.484375,-108.3984375,0.0
206.8671875,-39.0625,967.7734375,-30.76171875,-14.16015625,-90.33203125,0.0
206.87109375,-32.2265625,968.26171875,-23.92578125,-11.71875,-63.96484375,0.0
206.875,-42.96875,968.26171875,-29.296875,-27.83203125,-19.53125,0.0
206.87890625,-40.52734375,968.26171875,-35.64453125,-32.71484375,-41.015625,0.0
206.8828125,-33.203125,968.26171875,-31.25,-21.484375,-155.2734375,0.0
206.88671875,-43.45703125,967.7734375,-34.66796875,-27.83203125,-217.7734375,0.0
206.890625,-46.875,968.75,-27.34375,-32.2265625,-134.765625,0.0
206.89453125,-48.33984375,978.515625,-25.390625,-32.71484375,-92.7734375,0.0
206.8984375,-38.57421875,900.87890625,-25.87890625,-24.90234375,-96.6796875,0.0
206.90234375,-29.296875,-933.10546875,-19.04296875,-15.625,-100.5859375,0.0
206.90625,-22.4609375,516.6015625,-19.53125,-23.92578125,-97.16796875,0.0
206.91015625,-25.87890625,-970.703125,-23.4375,-15.625,-180.17578125,0.0
206.9140625,-40.0390625,-949.70703125,-25.390625,-29.296875,-195.80078125,0.0
206.91796875,-45.41015625,582.51953125,-26.85546875,-48.828125,-145.5078125,0.0
206.921875,-37.109375,-922.8515625,-21.97265625,-35.64453125,-38.57421875,0.0
206.92578125,-27.83203125,893.06640625,-18.06640625,-25.87890625,-20.5078125,0.0
206.9296875,-25.390625,983.3984375,-22.4609375,-24.90234375,-74.70703125,0.0
206.93359375,-30.2734375,967.7734375,-25.87890625,-32.71484375,-9.765625,0.0
206.9375,-37.109375,967.7734375,-33.69140625,-34.1796875,3.41796875,0.0
206.94140625,-35.15625,967.7734375,-36.1328125,-32.2265625,-51.26953125,0.0
206.9453125,-32.2265625,968.26171875,-27.34375,-26.85546875,-36.1328125,0.0
206.94921875,-21.484375,968.26171875,-25.87890625,-18.06640625,-23.92578125,0.0
206.953125,-21.484375,967.7734375,-33.69140625,-29.296875,-91.30859375,0.0
206.95703125,-30.76171875,968.26171875,-32.2265625,-31.25,-71.2890625,0.0
206.9609375,-20.5078125,968.26171875,-26.3671875,-21.484375,-7.32421875,0.0
206.96484375,-14.16015625,968.26171875,-32.71484375,-14.16015625,-16.6015625,0.0
206.96875,-15.13671875,967.7734375,-33.203125,-11.71875,1.46484375,0.0
206.97265625,-9.27734375,967.7734375,-31.73828125,-17.578125,89.35546875,0.0
206.9765625,-9.27734375,967.7734375,-40.52734375,-32.2265625,34.66796875,0.0
206.98046875,-24.4140625,967.7734375,-37.59765625,-32.2265625,-23.4375,0.0
206.984375,-20.99609375,967.7734375,-29.296875,-11.71875,-14.6484375,0.0
206.98828125,-7.8125,967.7734375,-25.87890625,-7.32421875,-62.5,0.0
206.9921875,-3.41796875,967.7734375,-36.62109375,-16.11328125,-104.4921875,0.0
206.99609375,-7.8125,968.26171875,-49.31640625,-30.2734375,-119.140625,0.0
207.0,-8.7890625,968.26171875,-39.0625,-19.53125,-83.984375,0.0
207.00390625,-3.90625,968.26171875,-28.80859375,-7.32421875,-46.875,0.0
207.0078125,-4.8828125,968.26171875,-23.92578125,-4.39453125,-48.828125,0.0
207.01171875,-16.6015625,969.7265625,-28.80859375,-12.6953125,-88.8671875,0.0
207.015625,-31.25,968.75,-35.15625,-22.94921875,-116.69921875,0.0
207.01953125,-22.4609375,911.1328125,-29.296875,-20.99609375,-30.2734375,0.0
207.0234375,-28.80859375,-918.9453125,-22.4609375,-27.34375,-13.671875,0.0
207.02734375,-33.69140625,263.18359375,-28.3203125,-26.3671875,-97.65625,0.0
207.03125,-19.53125,-1000.0,-41.50390625,-11.71875,-140.13671875,0.0
207.03515625,-20.99609375,-1000.0,-35.15625,-18.5546875,-68.359375,0.0
207.0390625,-25.87890625,-965.8203125,-20.5078125,-31.25,0.48828125,0.0
207.04296875,-24.4140625,-1000.0,-23.92578125,-32.71484375,21.97265625,0.0
207.046875,-23.4375,-942.87109375,-28.80859375,-33.69140625,50.78125,0.0
207.05078125,-18.5546875,-1000.0,-32.71484375,-26.85546875,60.546875,0.0
207.0546875,-20.99609375,-891.11328125,-35.64453125,-21.484375,43.9453125,0.0
207.05859375,-25.87890625,564.94140625,-34.66796875,-29.296875,31.73828125,0.0
207.0625,-21.484375,-912.59765625,-31.73828125,-44.921875,-7.8125,0.0
207.06640625,-20.5078125,893.5546875,-28.3203125,-43.9453125,-44.43359375,0.0
207.0703125,-31.25,983.88671875,-29.296875,-40.52734375,-86.9140625,0.0
207.07421875,-37.109375,982.421875,-34.1796875,-52.24609375,-132.32421875,0.0
207.078125,-41.50390625,897.94921875,-32.71484375,-49.8046875,-87.890625,0.0
207.08203125,-45.41015625,-926.7578125,-21.97265625,-49.31640625,-92.28515625,0.0
207.0859375,-36.1328125,581.54296875,-25.390625,-38.57421875,-63.4765625,0.0
207.08984375,-30.2734375,-812.5,-27.34375,-27.34375,-17.578125,0.0
207.09375,-32.2265625,-1000.0,-22.94921875,-38.57421875,29.296875,0.0
207.09765625,-40.0390625,-121.09375,-22.4609375,-33.69140625,17.578125,0.0
207.1015625,-44.43359375,996.58203125,-23.4375,-35.15625,-41.50390625,0.0
207.10546875,-37.109375,954.58984375,-23.92578125,-41.015625,-52.24609375,0.0
207.109375,-27.34375,942.3828125,-17.08984375,-36.1328125,-0.9765625,0.0
207.11328125,-29.296875,975.09765625,-17.08984375,-47.36328125,-37.109375,0.0
207.1171875,-33.203125,967.7734375,-24.90234375,-54.6875,-83.0078125,0.0
207.12109375,-39.0625,967.7734375,-28.80859375,-47.36328125,-38.57421875,0.0
207.125,-41.015625,967.7734375,-22.4609375,-32.2265625,-16.11328125,0.0
207.12890625,-27.83203125,967.7734375,-20.01953125,-25.87890625,-39.55078125,0.0
207.1328125,-25.87890625,968.26171875,-19.53125,-40.52734375,-24.4140625,0.0
207.13671875,-27.83203125,968.26171875,-16.11328125,-37.59765625,-62.98828125,0.0
207.140625,-29.78515625,968.26171875,-20.5078125,-44.921875,-65.91796875,0.0
207.14453125,-25.390625,967.7734375,-20.99609375,-51.26953125,-66.40625,0.0
207.1484375,-28.3203125,967.7734375,-19.53125,-40.0390625,-121.58203125,0.0
207.15234375,-31.25,968.26171875,-21.97265625,-48.33984375,-87.890625,0.0
207.15625,-42.48046875,968.26171875,-22.94921875,-53.7109375,-52.24609375,0.0
207.16015625,-48.828125,968.26171875,-21.97265625,-38.0859375,-78.125,0.0
207.1640625,-32.2265625,968.26171875,-13.18359375,-23.92578125,-79.1015625,0.0
207.16796875,-14.16015625,967.7734375,-10.25390625,-20.01953125,-13.671875,0.0
207.171875,-13.18359375,967.7734375,-15.13671875,-18.5546875,-14.6484375,0.0
207.17578125,-20.01953125,967.7734375,-18.5546875,-32.2265625,-38.57421875,0.0
207.1796875,-29.78515625,967.7734375,-15.13671875,-45.41015625,-70.80078125,0.0
207.18359375,-23.4375,967.7734375,-18.5546875,-39.0625,-87.40234375,0.0
207.1875,-7.8125,967.7734375,-24.4140625,-21.97265625,-64.94140625,0.0
207.19140625,-6.34765625,967.7734375,-20.5078125,-24.90234375,-5.859375,0.0
207.1953125,-11.23046875,984.86328125,-24.4140625,-32.71484375,-52.24609375,0.0
207.19921875,-13.671875,905.76171875,-20.5078125,-15.625,-61.03515625,0.0
207.203125,-8.30078125,-977.5390625,-9.765625,-9.765625,0.48828125,0.0
207.20703125,-0.48828125,854.00390625,-10.25390625,-10.25390625,-98.14453125,0.0
207.2109375,0.0,-686.03515625,-9.765625,-20.99609375,-166.50390625,0.0
207.21484375,-3.90625,-1000.0,-15.625,-23.92578125,-127.44140625,0.0
207.21875,-22.94921875,439.94140625,-25.87890625,-15.625,-92.28515625,0.0
207.22265625,-10.7421875,-859.375,-20.99609375,-16.11328125,-43.9453125,0.0
207.2265625,15.13671875,759.27734375,-2.44140625,8.7890625,-70.3125,0.0
207.23046875,2.9296875,-728.515625,-13.671875,6.8359375,-146.97265625,0.0
207.234375,-11.23046875,-983.3984375,-31.73828125,-22.94921875,-111.328125,0.0
207.23828125,-20.99609375,561.5234375,-34.66796875,-32.71484375,-66.89453125,0.0
207.2421875,-31.25,-879.39453125,-33.69140625,-32.2265625,-65.4296875,0.0
207.24609375,-21.484375,801.26953125,-26.85546875,-24.90234375,-92.7734375,0.0
207.25,-11.23046875,-691.40625,-12.6953125,-17.08984375,-128.90625,0.0
207.25390625,-22.4609375,-965.33203125,-12.6953125,-22.94921875,-111.81640625,0.0
207.2578125,-37.109375,594.7265625,-26.3671875,-48.33984375,-1.46484375,0.0
207.26171875,-28.80859375,-863.28125,-36.1328125,-47.8515625,40.52734375,0.0
207.265625,-18.5546875,719.7265625,-41.9921875,-35.64453125,-30.2734375,0.0
207.26953125,-30.76171875,-833.984375,-32.2265625,-40.52734375,-74.21875,0.0
207.2734375,-44.921875,-948.2421875,-21.484375,-41.50390625,-26.3671875,0.0
207.27734375,-43.45703125,626.953125,-22.94921875,-41.50390625,32.71484375,0.0
207.28125,-44.921875,-484.375,-28.3203125,-47.36328125,13.671875,0.0
207.28515625,-47.36328125,-351.07421875,-32.2265625,-49.31640625,-18.06640625,0.0
207.2890625,-50.78125,-890.625,-33.69140625,-45.8984375,3.41796875,0.0
207.29296875,-50.29296875,949.21875,-35.15625,-37.109375,110.83984375,0.0
207.296875,-47.36328125,905.76171875,-34.1796875,-54.6875,73.73046875,0.0
207.30078125,-58.10546875,983.3984375,-35.64453125,-62.01171875,-68.359375,0.0
207.3046875,-46.875,964.84375,-37.109375,-49.8046875,-36.62109375,0.0
207.30859375,-39.0625,-304.19921875,-40.0390625,-55.17578125,-108.3984375,0.0
207.3125,-56.15234375,-1000.0,-41.50390625,-69.82421875,-123.53515625,0.0
207.31640625,-68.359375,-783.69140625,-34.1796875,-69.82421875,-52.734375,0.0
207.3203125,-60.05859375,508.7890625,-28.3203125,-43.45703125,-37.109375,0.0
207.32421875,-41.015625,-793.9453125,-25.87890625,-28.3203125,-14.6484375,0.0
207.328125,-36.62109375,643.06640625,-25.87890625,-47.8515625,-6.8359375,0.0
207.33203125,-38.57421875,-639.6484375,-28.80859375,-47.36328125,18.06640625,0.0
207.3359375,-39.55078125,361.328125,-42.96875,-44.921875,95.21484375,0.0
207.33984375,-43.9453125,-833.0078125,-50.29296875,-55.17578125,50.29296875,0.0
207.34375,-41.50390625,877.9296875,-43.45703125,-46.38671875,19.04296875,0.0
207.34765625,-38.57421875,980.95703125,-39.0625,-48.33984375,-43.9453125,0.0
207.3515625,-33.203125,968.26171875,-35.15625,-54.19921875,-158.69140625,0.0
207.35546875,-31.25,968.26171875,-45.41015625,-56.640625,-176.26953125,0.0
207.359375,-39.55078125,968.26171875,-45.8984375,-60.05859375,-76.171875,0.0
207.36328125,-35.64453125,968.26171875,-32.2265625,-45.41015625,-2.9296875,0.0
207.3671875,-33.203125,967.7734375,-26.3671875,-32.71484375,-52.24609375,0.0
207.37109375,-35.15625,967.7734375,-24.90234375,-41.015625,-109.375,0.0
207.375,-20.5078125,968.26171875,-32.2265625,-43.9453125,-115.72265625,0.0
207.37890625,-20.01953125,967.7734375,-36.62109375,-39.0625,-42.48046875,0.0
207.3828125,-19.04296875,968.26171875,-31.25,-34.66796875,64.94140625,0.0
207.38671875,-17.578125,968.26171875,-20.5078125,-24.4140625,42.48046875,0.0
207.390625,-30.2734375,968.26171875,-11.71875,-19.04296875,-41.015625,0.0
207.39453125,-31.73828125,968.26171875,-13.671875,-35.15625,-133.30078125,0.0
207.3984375,-36.1328125,968.26171875,-21.97265625,-57.12890625,-146.484375,0.0
207.40234375,-42.48046875,968.26171875,-29.296875,-49.8046875,-104.4921875,0.0
207.40625,-47.36328125,967.7734375,-28.3203125,-42.96875,-85.9375,0.0
207.41015625,-29.78515625,967.7734375,-25.390625,-40.52734375,-103.515625,0.0
207.4140625,-16.6015625,968.26171875,-22.4609375,-23.4375,-93.26171875,0.0
207.41796875,-26.85546875,967.7734375,-18.5546875,-22.94921875,-36.1328125,0.0
207.421875,-38.0859375,968.26171875,-22.4609375,-39.55078125,-41.50390625,0.0
207.42578125,-28.80859375,-37.59765625,-29.296875,-28.80859375,-57.12890625,0.0
207.4296875,-17.08984375,-36.62109375,-33.69140625,-18.06640625,-69.82421875,0.0
207.43359375,-9.765625,-37.59765625,-43.45703125,-18.06640625,-69.3359375,0.0
207.4375,-13.671875,-40.52734375,-35.64453125,-25.87890625,-151.3671875,0.0
207.44140625,-27.83203125,-41.015625,-36.1328125,-37.59765625,-142.578125,0.0
207.4453125,-26.3671875,-35.15625,-39.55078125,-30.76171875,-64.453125,0.0
207.44921875,-19.53125,-38.0859375,-29.296875,-24.4140625,-32.2265625,0.0
207.453125,-13.18359375,-39.0625,-28.80859375,-23.4375,-11.71875,0.0
207.45703125,-21.97265625,-39.55078125,-31.25,-30.2734375,17.08984375,0.0
207.4609375,-29.296875,-42.96875,-26.85546875,-29.296875,-40.0390625,0.0
207.46484375,-20.01953125,-41.015625,-27.34375,-23.92578125,-22.4609375,0.0
207.46875,-20.01953125,-41.015625,-24.90234375,-15.625,26.3671875,0.0
207.47265625,-21.97265625,-41.9921875,-25.87890625,-8.30078125,-32.71484375,0.0
207.4765625,-25.390625,-43.45703125,-32.71484375,-8.7890625,-62.98828125,0.0
207.48046875,-28.80859375,-47.36328125,-34.1796875,-16.11328125,-59.5703125,0.0
207.484375,-23.4375,-41.015625,-36.1328125,-13.18359375,4.8828125,0.0
207.48828125,-22.4609375,-39.0625,-36.62109375,-8.30078125,-3.41796875,0.0
207.4921875,-26.3671875,-42.96875,-33.69140625,-17.08984375,-148.4375,0.0
207.49609375,-18.06640625,-39.55078125,-31.73828125,-11.71875,-141.6015625,0.0
207.5,-22.94921875,-42.96875,-30.76171875,-11.71875,-16.11328125,0.0
207.50390625,-34.1796875,-38.57421875,-33.203125,-21.484375,17.08984375,0.0
207.5078125,-32.2265625,-32.71484375,-35.64453125,-24.90234375,26.85546875,0.0
207.51171875,-19.04296875,-34.66796875,-32.71484375,-18.5546875,95.703125,0.0
207.515625,-16.6015625,-33.69140625,-34.66796875,-25.390625,73.2421875,0.0
207.51953125,-26.85546875,968.26171875,-41.9921875,-23.92578125,-161.62109375,0.0
207.5234375,-34.66796875,968.26171875,-28.3203125,-16.6015625,-148.92578125,0.0
207.52734375,-25.87890625,968.26171875,-19.04296875,-27.34375,-178.7109375,0.0
207.53125,-33.203125,968.26171875,-35.15625,-33.69140625,-135.25390625,0.0
207.53515625,-43.9453125,968.26171875,-35.64453125,-42.96875,-71.77734375,0.0
207.5390625,-49.8046875,968.26171875,-23.4375,-53.7109375,44.43359375,0.0
207.54296875,-54.19921875,968.26171875,-21.484375,-50.78125,52.734375,0.0
207.546875,-55.17578125,968.26171875,-29.296875,-52.734375,-79.1015625,0.0
207.55078125,-65.91796875,968.26171875,-45.8984375,-62.01171875,-118.65234375,0.0
207.5546875,-59.5703125,968.26171875,-49.8046875,-55.6640625,-54.6875,0.0
207.55859375,-53.22265625,968.26171875,-35.64453125,-43.45703125,-54.19921875,0.0
207.5625,-62.01171875,968.26171875,-29.296875,-50.78125,17.578125,0.0
207.56640625,-56.640625,-30.76171875,-30.2734375,-50.78125,-75.1953125,0.0
207.5703125,-44.921875,-32.71484375,-27.83203125,-56.640625,0.9765625,0.0
207.57421875,-61.03515625,-30.2734375,-26.85546875,-58.59375,0.48828125,0.0
207.578125,-74.70703125,-28.3203125,-29.296875,-58.10546875,-66.40625,0.0
207.58203125,-58.10546875,-24.90234375,-25.390625,-49.31640625,-8.7890625,0.0
207.5859375,-57.12890625,-28.80859375,-19.53125,-30.76171875,8.7890625,0.0
207.58984375,-62.01171875,-39.0625,-21.97265625,-33.203125,-77.1484375,0.0
207.59375,-64.453125,-49.31640625,-23.4375,-56.15234375,-162.109375,0.0
207.59765625,-64.94140625,-40.0390625,-29.296875,-60.05859375,-142.08984375,0.0
207.6015625,-61.5234375,-30.2734375,-31.73828125,-49.8046875,-75.68359375,0.0
207.60546875,-66.89453125,-35.15625,-25.87890625,-52.24609375,5.37109375,0.0
207.609375,-63.4765625,-34.66796875,-27.83203125,-47.8515625,51.26953125,0.0
207.61328125,-41.9921875,967.7734375,-26.85546875,-40.0390625,-37.59765625,0.0
207.6171875,-33.69140625,967.7734375,-35.15625,-36.62109375,7.32421875,0.0
207.62109375,-38.57421875,967.7734375,-36.1328125,-40.0390625,-64.453125,0.0
207.625,-35.64453125,968.26171875,-15.625,-31.25,-111.328125,0.0
207.62890625,-34.66796875,968.26171875,-9.27734375,-31.25,-114.2578125,0.0
207.6328125,-28.80859375,968.26171875,-8.30078125,-42.48046875,-149.4140625,0.0
207.63671875,-43.9453125,968.26171875,-6.34765625,-43.9453125,-96.19140625,0.0
207.640625,-59.08203125,968.26171875,-14.6484375,-44.43359375,-59.08203125,0.0
207.64453125,-46.38671875,968.26171875,-15.13671875,-28.3203125,-55.17578125,0.0
207.6484375,-29.78515625,968.26171875,-12.20703125,-16.11328125,-82.03125,0.0
207.65234375,-19.53125,968.26171875,-20.01953125,-26.85546875,-90.33203125,0.0
207.65625,-23.4375,968.26171875,-23.92578125,-36.1328125,-165.0390625,0.0
207.66015625,-28.3203125,968.26171875,-22.4609375,-25.87890625,-161.1328125,0.0
207.6640625,-36.62109375,968.26171875,-16.6015625,-24.90234375,-202.63671875,0.0
207.66796875,-27.34375,968.26171875,-19.53125,-24.90234375,-262.20703125,0.0
207.671875,-20.01953125,968.26171875,-15.625,-19.53125,-324.70703125,0.0
207.67578125,-26.85546875,968.26171875,-12.6953125,-23.92578125,-447.265625,0.0
207.6796875,-30.2734375,968.26171875,-23.92578125,-36.62109375,-331.54296875,0.0
207.68359375,-25.390625,967.7734375,-25.390625,-21.97265625,-99.609375,0.0
207.6875,-19.04296875,967.7734375,-20.99609375,-17.578125,-121.58203125,0.0
207.69140625,-22.94921875,968.26171875,-14.16015625,-28.3203125,-223.14453125,0.0
207.6953125,-24.90234375,967.7734375,-15.625,-20.01953125,-185.546875,0.0
207.69921875,-19.04296875,967.7734375,-17.08984375,-10.7421875,-95.703125,0.0
207.703125,-6.8359375,967.7734375,-19.04296875,-11.23046875,-127.9296875,0.0
207.70703125,-2.44140625,968.26171875,-20.5078125,-5.859375,-233.88671875,0.0
207.7109375,-6.8359375,967.7734375,-17.08984375,-19.04296875,-161.62109375,0.0
207.71484375,-14.6484375,967.7734375,-8.30078125,-27.34375,-69.82421875,0.0
207.71875,-19.04296875,967.7734375,-7.32421875,-10.7421875,-99.12109375,0.0
207.72265625,-17.578125,967.7734375,-8.30078125,-10.25390625,-118.1640625,0.0
207.7265625,-5.859375,967.7734375,-1.46484375,-9.765625,-126.46484375,0.0
207.73046875,-4.8828125,968.26171875,-0.48828125,3.90625,-165.52734375,0.0
207.734375,-17.08984375,980.46875,-5.37109375,2.44140625,-153.3203125,0.0
207.73828125,-17.578125,922.8515625,-10.25390625,-20.5078125,-46.38671875,0.0
207.7421875,-20.5078125,990.72265625,-10.25390625,-27.34375,-82.51953125,0.0
207.74609375,-23.4375,946.2890625,-6.34765625,-15.13671875,-177.734375,0.0
207.75,-17.08984375,-441.89453125,-10.7421875,-12.6953125,-189.94140625,0.0
207.75390625,-15.625,-1000.0,-17.578125,-10.7421875,-166.50390625,0.0
207.7578125,-23.4375,-927.734375,-15.13671875,-7.8125,-125.0,0.0
207.76171875,-23.92578125,-1000.0,-14.16015625,-16.6015625,-60.05859375,0.0
207.765625,-24.90234375,-1000.0,-15.13671875,-17.578125,-19.53125,0.0
207.76953125,-24.4140625,-1000.0,-17.578125,-5.859375,-27.34375,0.0
207.7734375,-28.80859375,-1000.0,-18.06640625,-20.01953125,-149.4140625,0.0
207.77734375,-41.9921875,-1000.0,-18.06640625,-35.15625,-311.5234375,0.0
207.78125,-42.48046875,-1000.0,-23.92578125,-25.390625,-315.4296875,0.0
207.78515625,-26.85546875,-1000.0,-19.04296875,-16.11328125,-325.68359375,0.0
207.7890625,-28.3203125,-1000.0,-12.20703125,-21.484375,-290.0390625,0.0
207.79296875,-43.45703125,-1000.0,-25.87890625,-27.34375,-248.046875,0.0
207.796875,-50.29296875,-1000.0,-27.83203125,-33.203125,-218.75,0.0
207.80078125,-37.59765625,-1000.0,-25.390625,-25.87890625,-173.33984375,0.0
207.8046875,-29.78515625,-1000.0,-29.296875,-15.625,-228.02734375,0.0
207.80859375,-39.0625,-1000.0,-30.76171875,-23.4375,-359.86328125,0.0
207.8125,-37.109375,-1000.0,-31.73828125,-42.48046875,-418.9453125,0.0
207.81640625,-38.0859375,-1000.0,-34.66796875,-46.875,-370.60546875,0.0
207.8203125,-42.48046875,-1000.0,-36.1328125,-35.64453125,-263.671875,0.0
207.82421875,-38.0859375,-1000.0,-26.85546875,-30.76171875,-277.34375,0.0
207.828125,-35.15625,-1000.0,-29.78515625,-39.0625,-218.26171875,0.0
207.83203125,-31.73828125,-1000.0,-35.64453125,-45.8984375,-118.65234375,0.0
207.8359375,-29.296875,-1000.0,-36.1328125,-51.26953125,-159.1796875,0.0
207.83984375,-26.3671875,-1000.0,-38.57421875,-44.43359375,-105.95703125,0.0
207.84375,-36.62109375,-1000.0,-27.34375,-45.41015625,39.0625,0.0
207.84765625,-40.52734375,-1000.0,-16.6015625,-50.29296875,66.40625,0.0
207.8515625,-38.57421875,-1000.0,-19.04296875,-50.78125,82.51953125,0.0
207.85546875,-43.45703125,-1000.0,-23.92578125,-47.36328125,53.7109375,0.0
207.859375,-41.9921875,-1000.0,-23.4375,-53.7109375,61.03515625,0.0
207.86328125,-58.59375,-1000.0,-17.578125,-52.734375,91.30859375,0.0
207.8671875,-62.5,-1000.0,-3.41796875,-44.921875,24.90234375,0.0
207.87109375,-48.828125,-1000.0,-3.90625,-43.45703125,33.69140625,0.0
207.875,-50.29296875,-1000.0,-17.578125,-47.36328125,17.08984375,0.0
207.87890625,-52.24609375,-1000.0,-20.01953125,-48.33984375,78.125,0.0
207.8828125,-52.734375,-1000.0,-13.18359375,-50.29296875,154.78515625,0.0
207.88671875,-43.9453125,-1000.0,-14.6484375,-46.875,108.3984375,0.0
207.890625,-26.3671875,-1000.0,-21.484375,-35.15625,141.11328125,0.0
207.89453125,-38.57421875,-1000.0,-12.6953125,-52.24609375,170.41015625,0.0
207.8984375,-48.33984375,-1000.0,-6.8359375,-61.03515625,71.77734375,0.0
207.90234375,-51.7578125,-1000.0,-8.7890625,-46.875,88.8671875,0.0
207.90625,-50.29296875,-1000.0,-4.39453125,-43.9453125,129.8828125,0.0
207.91015625,-36.62109375,-1000.0,-4.8828125,-38.57421875,29.296875,0.0
207.9140625,-26.85546875,-1000.0,-6.8359375,-29.78515625,34.66796875,0.0
207.91796875,-22.94921875,-1000.0,-15.625,-29.296875,144.53125,0.0
207.921875,-25.390625,-1000.0,-24.4140625,-25.87890625,180.6640625,0.0
207.92578125,-21.484375,-1000.0,-22.4609375,-33.203125,109.86328125,0.0
207.9296875,-13.671875,-1000.0,-18.5546875,-37.109375,54.19921875,0.0
207.93359375,-17.578125,-1000.0,-24.4140625,-35.15625,89.84375,0.0
207.9375,-19.04296875,-1000.0,-32.71484375,-36.62109375,128.90625,0.0
207.94140625,-20.99609375,-28.80859375,-36.62109375,-36.1328125,-149.90234375,0.0
207.9453125,-6.34765625,-26.85546875,-43.45703125,-34.66796875,-104.98046875,0.0
207.94921875,1.46484375,-35.64453125,-48.33984375,-24.90234375,-120.1171875,0.0
207.953125,-10.7421875,-36.1328125,-46.875,-22.94921875,-167.96875,0.0
207.95703125,-9.27734375,-30.76171875,-53.22265625,-18.06640625,-59.08203125,0.0
207.9609375,-17.578125,-36.1328125,-47.36328125,-24.4140625,62.5,0.0
207.96484375,-17.08984375,-37.59765625,-41.9921875,-19.53125,78.61328125,0.0
207.96875,-3.41796875,-40.0390625,-49.8046875,-8.7890625,120.1171875,0.0
207.97265625,-8.30078125,-42.48046875,-48.33984375,-16.11328125,115.72265625,0.0
207.9765625,-18.5546875,-41.015625,-50.78125,-27.34375,96.6796875,0.0
207.98046875,-26.3671875,-44.921875,-51.26953125,-29.296875,69.82421875,0.0
207.984375,-22.94921875,-41.015625,-40.0390625,-21.484375,39.0625,0.0
207.98828125,-14.6484375,-1000.0,-40.52734375,-10.7421875,14.16015625,0.0
207.9921875,-12.20703125,-1000.0,-35.15625,-18.5546875,-39.55078125,0.0
207.99609375,-20.5078125,-1000.0,-30.76171875,-19.53125,-20.5078125,0.0
208.0,-25.87890625,-1000.0,-37.59765625,-15.625,-36.62109375,0.0
208.00390625,-10.25390625,-1000.0,-35.64453125,-20.01953125,-94.7265625,0.0
208.0078125,-11.23046875,-1000.0,-41.50390625,-16.6015625,-80.56640625,0.0
208.01171875,-20.5078125,-1000.0,-49.31640625,-17.08984375,-50.78125,0.0
208.015625,-24.90234375,-1000.0,-45.8984375,-23.4375,-20.01953125,0.0
208.01953125,-24.4140625,-1000.0,-42.96875,-26.3671875,-49.8046875,0.0
208.0234375,-18.5546875,-1000.0,-41.50390625,-20.01953125,-49.31640625,0.0
208.02734375,-9.27734375,-942.3828125,-42.48046875,-12.6953125,-64.453125,0.0
208.03125,-6.34765625,-1000.0,-46.38671875,-26.85546875,-88.8671875,0.0
208.03515625,-9.27734375,-889.6484375,-37.59765625,-22.4609375,-47.36328125,0.0
208.0390625,-8.30078125,566.89453125,-36.1328125,-24.90234375,-82.03125,0.0
208.04296875,-12.20703125,-913.0859375,-44.921875,-30.2734375,-135.25390625,0.0
208.046875,-12.6953125,893.5546875,-40.52734375,-9.27734375,-114.2578125,0.0
208.05078125,-13.18359375,983.88671875,-40.0390625,-15.13671875,-190.91796875,0.0
208.0546875,-14.6484375,968.26171875,-38.57421875,-23.4375,-284.1796875,0.0
208.05859375,-27.34375,968.26171875,-31.25,-21.484375,-269.04296875,0.0
208.0625,-43.45703125,968.26171875,-35.15625,-44.43359375,-217.7734375,0.0
208.06640625,-36.1328125,968.26171875,-36.1328125,-43.45703125,-257.8125,0.0
208.0703125,-28.3203125,968.26171875,-37.109375,-36.1328125,-258.7890625,0.0
208.07421875,-36.62109375,968.26171875,-41.015625,-56.15234375,-112.3046875,0.0
208.078125,-47.36328125,968.26171875,-37.59765625,-54.19921875,-88.37890625,0.0
208.08203125,-52.734375,968.26171875,-34.1796875,-34.1796875,-103.515625,0.0
208.0859375,-50.29296875,968.26171875,-31.25,-35.15625,-137.20703125,0.0
208.08984375,-44.43359375,968.26171875,-37.59765625,-45.8984375,-201.66015625,0.0
208.09375,-47.36328125,968.26171875,-53.7109375,-41.9921875,-226.07421875,0.0
208.09765625,-49.31640625,968.26171875,-52.24609375,-28.80859375,-137.20703125,0.0
208.1015625,-55.17578125,968.26171875,-35.64453125,-22.94921875,-132.32421875,0.0
208.10546875,-68.84765625,968.26171875,-31.73828125,-41.015625,-218.75,0.0
208.109375,-55.6640625,968.26171875,-32.71484375,-48.828125,-213.37890625,0.0
208.11328125,-43.45703125,968.26171875,-26.85546875,-43.45703125,-236.81640625,0.0
208.1171875,-58.10546875,968.26171875,-27.83203125,-49.8046875,-169.921875,0.0
208.12109375,-65.91796875,968.26171875,-25.87890625,-52.24609375,-169.43359375,0.0
208.125,-63.96484375,967.7734375,-26.3671875,-41.015625,-248.046875,0.0
208.12890625,-50.78125,968.26171875,-34.66796875,-45.41015625,-270.5078125,0.0
208.1328125,-39.55078125,968.26171875,-35.64453125,-42.96875,-300.29296875,0.0
208.13671875,-45.41015625,967.7734375,-30.76171875,-35.64453125,-321.77734375,0.0
208.140625,-62.01171875,967.7734375,-21.97265625,-36.62109375,-354.4921875,0.0
208.14453125,-62.5,968.26171875,-15.625,-41.50390625,-293.45703125,0.0
208.1484375,-48.33984375,967.7734375,-20.01953125,-42.96875,-300.29296875,0.0
208.15234375,-50.78125,967.7734375,-24.4140625,-28.80859375,-207.51953125,0.0
208.15625,-57.6171875,968.26171875,-22.94921875,-53.22265625,-126.953125,0.0
208.16015625,-54.6875,967.7734375,-29.78515625,-60.05859375,-149.4140625,0.0
208.1640625,-43.9453125,967.7734375,-43.9453125,-40.0390625,-103.515625,0.0
208.16796875,-38.0859375,968.26171875,-38.57421875,-40.0390625,-119.140625,0.0
208.171875,-40.52734375,968.26171875,-37.59765625,-45.41015625,-152.83203125,0.0
208.17578125,-41.015625,968.26171875,-47.8515625,-54.6875,-191.89453125,0.0
208.1796875,-46.875,979.4921875,-39.0625,-41.9921875,-145.01953125,0.0
208.18359375,-61.03515625,926.7578125,-29.296875,-46.38671875,-90.8203125,0.0
208.1875,-60.05859375,981.93359375,-25.87890625,-56.640625,-80.078125,0.0
208.19140625,-55.6640625,969.23828125,-29.78515625,-54.19921875,-71.77734375,0.0
208.1953125,-61.03515625,-394.53125,-35.15625,-51.7578125,-3.41796875,0.0
208.19921875,-56.640625,-1000.0,-29.296875,-36.62109375,38.57421875,0.0
208.203125,-37.59765625,-929.19921875,-23.92578125,-33.69140625,35.64453125,0.0
208.20703125,-28.3203125,-1000.0,-20.99609375,-34.66796875,-6.8359375,0.0
208.2109375,-24.4140625,-1000.0,-28.80859375,-34.66796875,-40.0390625,0.0
208.21484375,-34.66796875,-1000.0,-34.66796875,-48.828125,-49.8046875,0.0
208.21875,-53.22265625,-1000.0,-30.2734375,-62.5,-7.8125,0.0
208.22265625,-47.36328125,-1000.0,-34.66796875,-61.03515625,66.89453125,0.0
208.2265625,-34.66796875,-1000.0,-36.62109375,-36.1328125,55.6640625,0.0
208.23046875,-36.62109375,-1000.0,-28.80859375,-21.97265625,-5.37109375,0.0
208.234375,-61.03515625,-1000.0,-23.92578125,-50.29296875,-48.33984375,0.0
208.23828125,-62.01171875,-1000.0,-30.2734375,-64.453125,31.73828125,0.0
208.2421875,-48.33984375,-1000.0,-32.2265625,-41.9921875,60.05859375,0.0
208.24609375,-46.875,-1000.0,-27.83203125,-25.390625,22.4609375,0.0
208.25,-41.015625,-1000.0,-33.203125,-36.1328125,58.10546875,0.0
208.25390625,-43.9453125,-1000.0,-33.69140625,-56.640625,126.46484375,0.0
208.2578125,-51.26953125,-1000.0,-32.2265625,-54.6875,157.71484375,0.0
208.26171875,-46.875,-1000.0,-35.15625,-51.26953125,207.51953125,0.0
208.265625,-38.57421875,-1000.0,-33.203125,-39.0625,173.33984375,0.0
208.26953125,-35.15625,-1000.0,-29.78515625,-28.3203125,142.08984375,0.0
208.2734375,-37.59765625,-1000.0,-31.25,-35.64453125,130.859375,0.0
208.27734375,-43.45703125,-1000.0,-33.69140625,-36.1328125,105.95703125,0.0
208.28125,-37.109375,-935.546875,-31.73828125,-33.203125,93.75,0.0
208.28515625,-42.96875,-1000.0,-34.66796875,-42.48046875,91.30859375,0.0
208.2890625,-51.7578125,-793.45703125,-37.109375,-45.41015625,104.4921875,0.0
208.29296875,-38.0859375,674.8046875,-33.69140625,-26.3671875,109.86328125,0.0
208.296875,-36.62109375,-934.08203125,-41.9921875,-26.3671875,163.0859375,0.0
208.30078125,-34.66796875,897.94921875,-42.96875,-47.36328125,120.1171875,0.0
208.3046875,-35.64453125,984.86328125,-28.3203125,-49.31640625,100.09765625,0.0
208.30859375,-42.96875,967.7734375,-36.1328125,-41.50390625,107.421875,0.0
208.3125,-36.62109375,967.7734375,-47.36328125,-30.2734375,104.00390625,0.0
208.31640625,-42.96875,968.26171875,-38.0859375,-30.2734375,44.43359375,0.0
208.3203125,-49.31640625,968.26171875,-37.109375,-34.1796875,-13.671875,0.0
208.32421875,-38.0859375,968.26171875,-32.2265625,-34.66796875,42.48046875,0.0
208.328125,-17.578125,968.26171875,-24.4140625,-18.5546875,8.30078125,0.0
208.33203125,-27.34375,968.26171875,-22.4609375,-24.4140625,46.875,0.0
208.3359375,-49.31640625,968.26171875,-21.484375,-34.66796875,59.5703125,0.0
208.33984375,-50.29296875,968.26171875,-22.4609375,-20.5078125,-36.62109375,0.0
208.34375,-45.8984375,968.26171875,-20.99609375,-28.80859375,7.32421875,0.0
208.34765625,-26.3671875,967.7734375,-17.578125,-24.90234375,42.96875,0.0
208.3515625,-17.08984375,968.26171875,-22.94921875,-15.13671875,5.859375,0.0
208.35546875,-19.53125,968.26171875,-33.69140625,-27.34375,12.6953125,0.0
208.359375,-24.4140625,968.26171875,-39.55078125,-35.64453125,-28.80859375,0.0
208.36328125,-33.69140625,968.26171875,-32.2265625,-33.69140625,35.15625,0.0
208.3671875,-32.71484375,968.26171875,-20.99609375,-43.9453125,49.8046875,0.0
208.37109375,-32.2265625,967.7734375,-20.01953125,-42.48046875,-90.33203125,0.0
208.375,-36.1328125,968.26171875,-26.3671875,-34.66796875,-110.3515625,0.0
208.37890625,-24.4140625,968.26171875,-36.62109375,-29.78515625,-31.73828125,0.0
208.3828125,-10.7421875,968.26171875,-35.15625,-33.203125,-19.53125,0.0
208.38671875,-24.4140625,968.26171875,-31.25,-32.71484375,-146.97265625,0.0
208.390625,-25.87890625,968.26171875,-41.50390625,-29.296875,-221.19140625,0.0
208.39453125,-13.18359375,968.26171875,-44.43359375,-29.78515625,-166.015625,0.0
208.3984375,-19.53125,967.7734375,-35.64453125,-37.109375,-41.9921875,0.0
208.40234375,-26.85546875,967.7734375,-28.3203125,-31.25,-44.43359375,0.0
208.40625,-26.85546875,967.7734375,-25.390625,-10.25390625,-223.6328125,0.0
208.41015625,-17.08984375,-25.87890625,-27.34375,-10.25390625,-273.4375,0.0
208.4140625,-17.08984375,-29.296875,-30.76171875,-21.97265625,-277.34375,0.0
208.41796875,-22.94921875,-30.2734375,-31.73828125,-13.671875,-326.171875,0.0
208.421875,-29.78515625,-31.73828125,-29.296875,-15.13671875,-319.82421875,0.0
208.42578125,-32.71484375,-33.69140625,-32.2265625,-19.04296875,-274.4140625,0.0
208.4296875,-26.3671875,-35.15625,-33.203125,-6.8359375,-147.94921875,0.0
208.43359375,-33.203125,-35.64453125,-31.25,-20.5078125,-61.03515625,0.0
208.4375,-41.9921875,-46.875,-31.73828125,-29.78515625,5.37109375,0.0
208.44140625,-34.66796875,-41.50390625,-28.3203125,-16.6015625,3.41796875,0.0
208.4453125,-32.2265625,-26.3671875,-25.390625,-8.7890625,-87.40234375,0.0
208.44921875,-32.71484375,-25.87890625,-28.3203125,-13.671875,-88.37890625,0.0
208.453125,-20.99609375,-30.76171875,-35.15625,-20.5078125,-145.5078125,0.0
208.45703125,-21.484375,968.26171875,-32.2265625,-11.23046875,-107.91015625,0.0
208.4609375,-34.66796875,968.26171875,-20.01953125,0.48828125,16.6015625,0.0
208.46484375,-30.2734375,968.26171875,-19.53125,-3.90625,-0.9765625,0.0
208.46875,-7.8125,968.26171875,-31.73828125,-8.30078125,-50.78125,0.0
208.47265625,-12.6953125,968.26171875,-27.83203125,-12.20703125,-24.4140625,0.0
208.4765625,-37.109375,968.26171875,-20.01953125,-29.296875,-25.390625,0.0
208.48046875,-48.828125,968.26171875,-19.04296875,-33.69140625,-5.37109375,0.0
208.484375,-43.45703125,967.7734375,-20.99609375,-33.69140625,34.66796875,0.0
208.48828125,-24.90234375,968.26171875,-15.625,-30.2734375,-30.2734375,0.0
208.4921875,-19.04296875,968.26171875,-7.32421875,-21.97265625,-1.46484375,0.0
208.49609375,-21.484375,969.7265625,-10.7421875,-29.296875,112.3046875,0.0
208.5,-17.08984375,971.19140625,-18.06640625,-31.25,168.9453125,0.0
208.50390625,-5.859375,908.69140625,-28.80859375,-16.6015625,178.22265625,0.0
208.5078125,-18.06640625,-917.96875,-31.73828125,-28.80859375,179.19921875,0.0
208.51171875,-49.31640625,302.24609375,-30.2734375,-46.38671875,140.13671875,0.0
208.515625,-58.10546875,-990.234375,-27.34375,-58.10546875,119.140625,0.0
208.51953125,-53.22265625,-1000.0,-21.484375,-59.08203125,165.52734375,0.0
208.5234375,-42.48046875,-962.890625,-20.99609375,-41.015625,98.14453125,0.0
208.52734375,-29.78515625,-1000.0,-26.3671875,-31.73828125,42.48046875,0.0
208.53125,-30.76171875,-1000.0,-29.78515625,-31.25,32.71484375,0.0
208.53515625,-46.38671875,-1000.0,-32.2265625,-33.69140625,32.71484375,0.0
208.5390625,-56.640625,-1000.0,-32.71484375,-44.43359375,89.35546875,0.0
208.54296875,-53.7109375,-1000.0,-27.34375,-44.43359375,144.53125,0.0
208.546875,-40.52734375,-1000.0,-29.296875,-41.9921875,169.921875,0.0
208.55078125,-37.59765625,-1000.0,-38.0859375,-43.9453125,151.3671875,0.0
208.5546875,-40.0390625,-1000.0,-36.1328125,-41.50390625,107.421875,0.0
208.55859375,-42.48046875,-1000.0,-31.73828125,-41.015625,192.87109375,0.0
208.5625,-48.828125,-1000.0,-32.71484375,-46.875,206.0546875,0.0
208.56640625,-43.9453125,-1000.0,-27.83203125,-36.1328125,103.02734375,0.0
208.5703125,-37.109375,-1000.0,-33.203125,-28.3203125,67.87109375,0.0
208.57421875,-49.31640625,-1000.0,-35.15625,-37.109375,-15.13671875,0.0
208.578125,-66.40625,-1000.0,-31.73828125,-55.6640625,7.32421875,0.0
208.58203125,-62.01171875,-1000.0,-33.69140625,-56.15234375,50.29296875,0.0
208.5859375,-53.7109375,-1000.0,-38.0859375,-46.38671875,17.08984375,0.0
208.58984375,-49.8046875,-1000.0,-23.4375,-41.9921875,-22.4609375,0.0
208.59375,-44.43359375,-1000.0,-13.18359375,-30.76171875,-96.19140625,0.0
208.59765625,-58.10546875,-1000.0,-22.4609375,-48.33984375,-34.1796875,0.0
208.6015625,-66.89453125,-1000.0,-30.76171875,-74.70703125,81.54296875,0.0
208.60546875,-53.7109375,-1000.0,-29.296875,-61.5234375,128.90625,0.0
208.609375,-32.71484375,-1000.0,-26.85546875,-43.9453125,175.78125,0.0
208.61328125,-26.3671875,-1000.0,-34.66796875,-45.41015625,227.05078125,0.0
208.6171875,-33.69140625,-1000.0,-40.0390625,-46.38671875,217.28515625,0.0
208.62109375,-36.1328125,-1000.0,-38.57421875,-37.109375,239.74609375,0.0
208.625,-36.62109375,-1000.0,-38.57421875,-30.76171875,284.1796875,0.0
208.62890625,-23.4375,-1000.0,-32.71484375,-24.90234375,259.27734375,0.0
208.6328125,-24.4140625,-1000.0,-31.25,-22.94921875,213.8671875,0.0
208.63671875,-44.43359375,-1000.0,-27.83203125,-58.59375,133.30078125,0.0
208.640625,-46.875,-1000.0,-31.25,-72.265625,59.5703125,0.0
208.64453125,-17.578125,-1000.0,-35.64453125,-39.55078125,42.96875,0.0
208.6484375,-11.23046875,-966.30859375,-33.69140625,-22.94921875,21.484375,0.0
208.65234375,-24.4140625,-999.0234375,-31.25,-31.73828125,24.90234375,0.0
208.65625,-29.78515625,-1000.0,-30.76171875,-40.0390625,25.390625,0.0
208.66015625,-40.0390625,275.87890625,-33.69140625,-57.12890625,45.8984375,0.0
208.6640625,-38.57421875,-893.5546875,-26.85546875,-61.03515625,34.66796875,0.0
208.66796875,-28.3203125,900.390625,-16.11328125,-39.0625,-77.63671875,0.0
208.671875,-28.80859375,973.14453125,-17.578125,-41.9921875,-158.203125,0.0
208.67578125,-20.01953125,968.26171875,-24.90234375,-42.48046875,-113.28125,0.0
208.6796875,-25.87890625,967.7734375,-19.53125,-42.96875,-146.484375,0.0
208.68359375,-25.390625,967.7734375,-32.2265625,-44.43359375,-137.6953125,0.0
208.6875,-2.44140625,968.26171875,-37.59765625,-17.08984375,-159.1796875,0.0
208.69140625,-10.7421875,968.26171875,-21.97265625,-8.7890625,-238.76953125,0.0
208.6953125,-35.64453125,968.26171875,-24.90234375,-42.96875,-257.32421875,0.0
208.69921875,-44.921875,968.26171875,-30.76171875,-60.05859375,-157.2265625,0.0
208.703125,-39.0625,967.7734375,-26.85546875,-53.22265625,-98.6328125,0.0
208.70703125,-26.85546875,968.26171875,-22.94921875,-43.45703125,-150.390625,0.0
208.7109375,-19.53125,968.26171875,-24.90234375,-28.3203125,-167.96875,0.0
208.71484375,-27.34375,968.26171875,-35.15625,-21.97265625,-292.96875,0.0
208.71875,-38.57421875,968.26171875,-36.62109375,-33.203125,-355.46875,0.0
208.72265625,-31.25,968.26171875,-23.4375,-45.8984375,-310.05859375,0.0
208.7265625,-31.73828125,968.26171875,-22.4609375,-31.25,-290.52734375,0.0
208.73046875,-28.3203125,968.26171875,-26.3671875,-20.01953125,-205.078125,0.0
208.734375,-35.64453125,968.26171875,-25.390625,-37.59765625,-225.09765625,0.0
208.73828125,-45.41015625,968.26171875,-20.5078125,-34.1796875,-234.375,0.0
208.7421875,-37.109375,968.26171875,-22.4609375,-22.4609375,-207.51953125,0.0
208.74609375,-37.109375,968.26171875,-24.90234375,-35.64453125,-218.26171875,0.0
208.75,-28.80859375,968.26171875,-16.11328125,-17.578125,-257.8125,0.0
208.75390625,-25.390625,968.26171875,-16.11328125,-12.20703125,-294.43359375,0.0
208.7578125,-42.96875,968.26171875,-19.53125,-26.3671875,-258.30078125,0.0
208.76171875,-53.7109375,968.26171875,-26.3671875,-29.296875,-283.69140625,0.0
208.765625,-42.48046875,968.26171875,-24.4140625,-24.4140625,-344.7265625,0.0
208.76953125,-33.203125,968.26171875,-15.13671875,-9.765625,-303.7109375,0.0
208.7734375,-37.109375,968.26171875,-20.5078125,-7.8125,-261.71875,0.0
208.77734375,-46.875,968.26171875,-27.83203125,-14.16015625,-256.8359375,0.0
208.78125,-43.45703125,967.7734375,-25.390625,-5.859375,-230.95703125,0.0
208.78515625,-40.0390625,-24.90234375,-20.5078125,-3.90625,-151.85546875,0.0
208.7890625,-48.33984375,-21.484375,-24.4140625,-11.71875,-31.25,0.0
208.79296875,-60.546875,-27.83203125,-29.78515625,-9.27734375,-52.734375,0.0
208.796875,-63.96484375,-29.296875,-28.80859375,-12.6953125,-123.046875,0.0
208.80078125,-61.5234375,-27.83203125,-32.71484375,-15.13671875,-52.24609375,0.0
208.8046875,-61.03515625,-26.3671875,-29.78515625,-18.06640625,-28.80859375,0.0
208.80859375,-50.78125,-26.3671875,-27.83203125,-17.08984375,-80.078125,0.0
208.8125,-50.78125,-34.1796875,-32.2265625,-18.5546875,-40.52734375,0.0
208.81640625,-63.96484375,-33.203125,-33.203125,-41.50390625,40.0390625,0.0
208.8203125,-82.51953125,-32.71484375,-38.57421875,-41.50390625,1.953125,0.0
208.82421875,-86.42578125,-33.203125,-30.2734375,-9.27734375,-25.390625,0.0
208.828125,-84.47265625,-28.80859375,-26.85546875,-6.8359375,28.3203125,0.0
208.83203125,-74.70703125,968.26171875,-32.2265625,-11.23046875,-177.24609375,0.0
208.8359375,-68.359375,968.26171875,-34.66796875,-12.6953125,-198.73046875,0.0
208.83984375,-86.42578125,968.26171875,-32.2265625,-26.85546875,-139.6484375,0.0
208.84375,-110.3515625,968.26171875,-31.25,-38.57421875,-117.1875,0.0
208.84765625,-111.328125,968.26171875,-34.1796875,-51.26953125,-163.0859375,0.0
208.8515625,-92.7734375,968.26171875,-24.4140625,-44.921875,-159.1796875,0.0
208.85546875,-102.05078125,968.26171875,-21.484375,-50.78125,-204.1015625,0.0
208.859375,-104.98046875,968.26171875,-29.296875,-56.15234375,-204.1015625,0.0
208.86328125,-97.65625,968.26171875,-32.71484375,-53.7109375,-169.921875,0.0
208.8671875,-90.33203125,968.26171875,-34.66796875,-55.6640625,-160.64453125,0.0
208.87109375,-86.9140625,968.26171875,-32.71484375,-41.015625,-152.83203125,0.0
208.875,-91.30859375,968.26171875,-28.80859375,-43.45703125,-162.59765625,0.0
208.87890625,-100.09765625,-20.99609375,-31.25,-43.45703125,-50.78125,0.0
208.8828125,-93.75,-26.85546875,-33.69140625,-49.31640625,-56.15234375,0.0
208.88671875,-80.56640625,-24.90234375,-30.76171875,-44.43359375,-21.97265625,0.0
208.890625,-90.33203125,-18.06640625,-22.94921875,-41.015625,-39.0625,0.0
208.89453125,-87.40234375,-20.99609375,-20.01953125,-40.0390625,-35.15625,0.0
208.8984375,-72.75390625,-21.484375,-23.92578125,-35.15625,33.203125,0.0
208.90234375,-70.3125,-27.34375,-25.390625,-41.015625,-16.11328125,0.0
208.90625,-64.94140625,-30.2734375,-30.2734375,-44.921875,-51.7578125,0.0
208.91015625,-45.8984375,-16.6015625,-28.80859375,-39.55078125,-49.8046875,0.0
208.9140625,-46.38671875,-13.671875,-25.87890625,-33.203125,-6.34765625,0.0
208.91796875,-68.84765625,-19.53125,-26.3671875,-42.96875,100.09765625,0.0
208.921875,-92.28515625,-20.01953125,-24.90234375,-53.22265625,59.5703125,0.0
208.92578125,-88.8671875,-1000.0,-23.4375,-52.734375,-49.31640625,0.0
208.9296875,-65.4296875,-1000.0,-15.625,-38.0859375,-92.28515625,0.0
208.93359375,-61.5234375,-1000.0,-10.25390625,-35.64453125,-84.47265625,0.0
208.9375,-67.3828125,-1000.0,-17.08984375,-53.22265625,-69.3359375,0.0
208.94140625,-51.26953125,-1000.0,-23.92578125,-44.921875,-6.8359375,0.0
208.9453125,-40.0390625,-1000.0,-16.11328125,-26.3671875,-90.33203125,0.0
208.94921875,-52.24609375,-1000.0,-12.6953125,-23.4375,-141.11328125,0.0
208.953125,-68.84765625,-1000.0,-14.6484375,-31.25,-16.11328125,0.0
208.95703125,-76.171875,-1000.0,-17.578125,-41.9921875,3.41796875,0.0
208.9609375,-74.21875,-1000.0,-23.4375,-46.875,8.30078125,0.0
208.96484375,-61.5234375,-1000.0,-23.92578125,-53.7109375,6.8359375,0.0
208.96875,-54.19921875,-1000.0,-20.01953125,-49.8046875,-139.16015625,0.0
208.97265625,-56.640625,-1000.0,-20.5078125,-42.48046875,-220.21484375,0.0
208.9765625,-43.9453125,-1000.0,-39.0625,-39.55078125,-150.87890625,0.0
208.98046875,-34.1796875,-1000.0,-35.15625,-33.69140625,-22.4609375,0.0
208.984375,-45.8984375,-1000.0,-15.625,-35.15625,23.92578125,0.0
208.98828125,-58.59375,-1000.0,-19.04296875,-38.0859375,-10.7421875,0.0
208.9921875,-56.15234375,-1000.0,-23.92578125,-38.57421875,-2.9296875,0.0
208.99609375,-57.6171875,-1000.0,-24.4140625,-34.66796875,0.9765625,0.0
209.0,-68.359375,-942.3828125,-17.578125,-26.85546875,7.32421875,0.0
209.00390625,-66.40625,-1000.0,-17.08984375,-27.34375,11.71875,0.0
209.0078125,-56.15234375,-890.13671875,-24.4140625,-31.73828125,1.953125,0.0
209.01171875,-55.6640625,566.40625,-30.76171875,-44.43359375,-114.2578125,0.0
209.015625,-60.05859375,-913.0859375,-37.109375,-48.33984375,-110.83984375,0.0
209.01953125,-69.82421875,893.5546875,-31.25,-46.38671875,-32.2265625,0.0
209.0234375,-63.96484375,983.88671875,-28.3203125,-39.55078125,-58.10546875,0.0
209.02734375,-50.78125,968.26171875,-25.87890625,-21.97265625,-82.51953125,0.0
209.03125,-59.08203125,968.26171875,-28.3203125,-20.5078125,-95.21484375,0.0
209.03515625,-62.98828125,968.26171875,-29.78515625,-31.25,-260.7421875,0.0
209.0390625,-64.453125,968.26171875,-24.90234375,-36.1328125,-217.7734375,0.0
209.04296875,-58.59375,968.26171875,-30.76171875,-27.34375,-44.921875,0.0
209.046875,-42.96875,968.26171875,-27.34375,-26.85546875,-60.05859375,0.0
209.05078125,-36.1328125,968.26171875,-22.94921875,-21.484375,-132.8125,0.0
209.0546875,-32.2265625,968.26171875,-31.25,-23.4375,-197.265625,0.0
209.05859375,-40.0390625,968.26171875,-37.109375,-35.64453125,-114.2578125,0.0
209.0625,-51.7578125,968.26171875,-32.2265625,-34.66796875,-2.44140625,0.0
209.06640625,-43.9453125,968.26171875,-23.92578125,-37.109375,17.08984375,0.0
209.0703125,-32.2265625,968.26171875,-23.92578125,-35.15625,-58.59375,0.0
209.07421875,-31.73828125,968.26171875,-24.4140625,-33.69140625,-107.91015625,0.0
209.078125,-34.66796875,968.26171875,-22.4609375,-29.296875,13.671875,0.0
209.08203125,-43.45703125,967.7734375,-24.4140625,-22.94921875,100.5859375,0.0
209.0859375,-47.8515625,968.26171875,-29.296875,-33.69140625,26.85546875,0.0
209.08984375,-42.96875,968.26171875,-39.55078125,-36.62109375,35.15625,0.0
209.09375,-45.41015625,968.26171875,-49.31640625,-30.76171875,64.94140625,0.0
209.09765625,-51.7578125,968.26171875,-51.26953125,-33.69140625,30.76171875,0.0
209.1015625,-53.7109375,967.7734375,-51.7578125,-43.9453125,7.8125,0.0
209.10546875,-48.33984375,967.7734375,-44.43359375,-38.57421875,32.71484375,0.0
209.109375,-36.62109375,968.26171875,-38.57421875,-19.04296875,-23.4375,0.0
209.11328125,-35.15625,968.26171875,-36.1328125,-25.390625,-28.80859375,0.0
209.1171875,-41.50390625,968.26171875,-29.78515625,-41.015625,-8.7890625,0.0
209.12109375,-34.1796875,968.26171875,-32.2265625,-28.80859375,-24.90234375,0.0
209.125,-25.390625,968.26171875,-34.66796875,-28.3203125,-54.19921875,0.0
209.12890625,-20.01953125,968.26171875,-31.73828125,-30.2734375,-66.89453125,0.0
209.1328125,-31.73828125,967.7734375,-20.01953125,-24.90234375,110.83984375,0.0
209.13671875,-45.41015625,968.26171875,-11.71875,-28.80859375,211.42578125,0.0
209.140625,-37.59765625,968.26171875,-21.484375,-46.875,282.71484375,0.0
209.14453125,-34.1796875,968.26171875,-23.92578125,-53.7109375,301.26953125,0.0
209.1484375,-29.296875,968.26171875,-15.625,-13.671875,205.56640625,0.0
209.15234375,-20.99609375,968.26171875,-20.5078125,-11.71875,196.77734375,0.0
209.15625,-20.5078125,967.7734375,-33.69140625,-39.0625,200.68359375,0.0
209.16015625,-26.85546875,968.26171875,-28.80859375,-39.55078125,184.5703125,0.0
209.1640625,-22.94921875,967.7734375,-20.01953125,-41.50390625,242.1875,0.0
209.16796875,-9.27734375,978.515625,-24.4140625,-34.1796875,144.04296875,0.0
209.171875,-9.27734375,928.7109375,-26.3671875,-22.94921875,99.12109375,0.0
209.17578125,-14.6484375,977.05078125,-27.34375,-28.80859375,150.390625,0.0
209.1796875,-22.4609375,980.95703125,-25.87890625,-28.80859375,203.61328125,0.0
209.18359375,-27.34375,-368.1640625,-27.83203125,-30.76171875,224.609375,0.0
209.1875,-24.4140625,-1000.0,-27.34375,-29.78515625,94.7265625,0.0
209.19140625,-18.5546875,-930.17578125,-28.80859375,-20.99609375,14.16015625,0.0
209.1953125,-18.5546875,-1000.0,-32.2265625,-27.83203125,-26.85546875,0.0
209.19921875,-23.4375,-1000.0,-26.85546875,-29.296875,14.6484375,0.0
209.203125,-17.578125,-1000.0,-21.97265625,-20.5078125,30.76171875,0.0
209.20703125,-13.671875,-1000.0,-22.94921875,-18.5546875,-137.6953125,0.0
209.2109375,-11.71875,-1000.0,-20.5078125,-12.6953125,-186.03515625,0.0
209.21484375,-12.20703125,-1000.0,-17.08984375,-19.53125,-121.58203125,0.0
209.21875,-17.08984375,-1000.0,-18.5546875,-11.71875,-149.4140625,0.0
209.22265625,-14.16015625,-1000.0,-13.18359375,-5.859375,-120.60546875,0.0
209.2265625,-8.7890625,-1000.0,-11.23046875,-15.625,-142.08984375,0.0
209.23046875,3.90625,-1000.0,-18.06640625,-15.625,-169.921875,0.0
209.234375,7.32421875,-1000.0,-27.34375,-16.6015625,-146.484375,0.0
209.23828125,14.6484375,-1000.0,-24.90234375,0.48828125,-153.80859375,0.0
209.2421875,9.765625,-1000.0,-8.7890625,6.8359375,-134.765625,0.0
209.24609375,-10.7421875,-1000.0,-3.41796875,-19.04296875,-148.92578125,0.0
209.25,-3.41796875,-1000.0,1.46484375,-15.625,-211.9140625,0.0
209.25390625,3.41796875,-1000.0,2.44140625,-13.671875,-222.16796875,0.0
209.2578125,-16.6015625,-1000.0,-0.9765625,-37.109375,-175.78125,0.0
209.26171875,-30.2734375,-1000.0,-7.32421875,-53.7109375,-183.59375,0.0
209.265625,-19.53125,-1000.0,-21.484375,-50.29296875,-223.14453125,0.0
209.26953125,0.0,-1000.0,-21.97265625,-30.76171875,-180.6640625,0.0
209.2734375,4.8828125,-1000.0,-19.53125,-18.5546875,-196.77734375,0.0
209.27734375,-15.625,-1000.0,-29.296875,-34.1796875,-231.4453125,0.0
209.28125,-26.85546875,-1000.0,-36.1328125,-50.78125,-183.10546875,0.0
209.28515625,-22.4609375,-1000.0,-24.90234375,-42.96875,-168.9453125,0.0
209.2890625,-16.11328125,-1000.0,-28.80859375,-29.78515625,-202.1484375,0.0
209.29296875,-13.671875,-1000.0,-37.109375,-29.78515625,-153.3203125,0.0
209.296875,-33.203125,-1000.0,-24.4140625,-39.0625,-123.53515625,0.0
209.30078125,-61.5234375,-1000.0,-23.4375,-49.8046875,-153.3203125,0.0
209.3046875,-60.05859375,-1000.0,-23.92578125,-52.24609375,-68.359375,0.0
209.30859375,-35.15625,-1000.0,-20.5078125,-48.828125,-73.2421875,0.0
209.3125,-39.55078125,-1000.0,-23.4375,-56.15234375,-121.58203125,0.0
209.31640625,-49.31640625,-1000.0,-35.64453125,-62.01171875,-60.05859375,0.0
209.3203125,-39.0625,-1000.0,-39.55078125,-45.8984375,36.62109375,0.0
209.32421875,-28.3203125,-1000.0,-29.296875,-22.94921875,130.37109375,0.0
209.328125,-26.85546875,-1000.0,-24.4140625,-20.01953125,120.1171875,0.0
209.33203125,-46.38671875,-1000.0,-23.4375,-35.64453125,36.62109375,0.0
209.3359375,-58.59375,-1000.0,-29.296875,-40.52734375,79.1015625,0.0
209.33984375,-52.24609375,-1000.0,-35.15625,-44.43359375,248.53515625,0.0
209.34375,-40.52734375,-1000.0,-29.296875,-37.59765625,380.859375,0.0
209.34765625,-28.80859375,-1000.0,-28.80859375,-31.25,380.37109375,0.0
209.3515625,-37.59765625,-1000.0,-40.52734375,-38.57421875,419.43359375,0.0
209.35546875,-45.41015625,-1000.0,-39.0625,-47.8515625,479.00390625,0.0
209.359375,-43.45703125,-1000.0,-39.0625,-44.921875,469.7265625,0.0
209.36328125,-38.0859375,-1000.0,-43.45703125,-40.52734375,477.05078125,0.0
209.3671875,-28.80859375,-1000.0,-33.203125,-40.52734375,527.83203125,0.0
209.37109375,-31.25,-1000.0,-24.90234375,-28.3203125,470.703125,0.0
209.375,-41.9921875,-1000.0,-30.2734375,-36.1328125,375.0,0.0
209.37890625,-41.9921875,-1000.0,-36.62109375,-50.78125,474.12109375,0.0
209.3828125,-42.48046875,-1000.0,-32.71484375,-24.90234375,488.76953125,0.0
209.38671875,-42.96875,-1000.0,-26.85546875,-17.578125,400.390625,0.0
209.390625,-34.66796875,-1000.0,-32.2265625,-32.71484375,376.953125,0.0
209.39453125,-35.64453125,-1000.0,-38.0859375,-43.9453125,375.0,0.0
209.3984375,-41.015625,-1000.0,-34.1796875,-47.36328125,395.5078125,0.0
209.40234375,-48.828125,-932.12890625,-32.2265625,-44.43359375,437.5,0.0
209.40625,-44.43359375,-1000.0,-35.64453125,-40.0390625,536.1328125,0.0
209.41015625,-36.62109375,-736.328125,-28.80859375,-34.66796875,479.4921875,0.0
209.4140625,-31.73828125,735.3515625,-24.4140625,-40.0390625,399.4140625,0.0
209.41796875,-36.1328125,-946.77734375,-26.3671875,-38.57421875,431.15234375,0.0
209.421875,-32.2265625,900.87890625,-24.4140625,-21.97265625,426.26953125,0.0
209.42578125,-27.83203125,985.3515625,-28.80859375,-15.625,392.08984375,0.0
209.4296875,-31.73828125,968.26171875,-35.15625,-34.1796875,333.984375,0.0
209.43359375,-25.87890625,968.26171875,-29.78515625,-35.64453125,317.3828125,0.0
209.4375,-22.94921875,968.26171875,-29.296875,-32.71484375,379.8828125,0.0
209.44140625,-25.390625,-38.0859375,-34.1796875,-46.875,-47.8515625,0.0
209.4453125,-30.76171875,-34.1796875,-30.76171875,-44.921875,-128.41796875,0.0
209.44921875,-28.80859375,-25.390625,-25.87890625,-33.69140625,-80.078125,0.0
209.453125,-16.11328125,-23.92578125,-33.69140625,-30.76171875,-8.30078125,0.0
209.45703125,-23.92578125,-33.69140625,-37.109375,-23.4375,-36.1328125,0.0
209.4609375,-33.203125,-37.59765625,-28.3203125,-31.73828125,-40.0390625,0.0
209.46484375,-33.69140625,-42.48046875,-25.87890625,-46.38671875,-30.76171875,0.0
209.46875,-40.0390625,-57.6171875,-27.34375,-43.9453125,-168.9453125,0.0
209.47265625,-39.0625,-52.734375,-30.76171875,-38.57421875,-198.2421875,0.0
209.4765625,-45.8984375,-47.36328125,-39.55078125,-62.98828125,-138.18359375,0.0
209.48046875,-47.36328125,-46.38671875,-39.0625,-63.96484375,-140.13671875,0.0
209.484375,-41.50390625,-37.59765625,-40.0390625,-45.41015625,-163.57421875,0.0
209.48828125,-42.48046875,968.26171875,-45.8984375,-48.33984375,-89.35546875,0.0
209.4921875,-29.296875,968.26171875,-42.96875,-42.48046875,-178.7109375,0.0
209.49609375,-25.390625,968.26171875,-37.109375,-32.71484375,-226.5625,0.0
209.5,-41.9921875,967.7734375,-29.296875,-37.59765625,-242.67578125,0.0
209.50390625,-57.6171875,968.26171875,-16.6015625,-47.8515625,-262.20703125,0.0
209.5078125,-52.734375,968.26171875,-8.30078125,-39.0625,-294.43359375,0.0
209.51171875,-49.8046875,968.26171875,-21.97265625,-37.59765625,-415.0390625,0.0
209.515625,-60.546875,968.26171875,-40.0390625,-58.10546875,-501.953125,0.0
209.51953125,-54.6875,968.26171875,-32.71484375,-47.8515625,-481.4453125,0.0
209.5234375,-47.8515625,968.26171875,-28.80859375,-40.52734375,-507.32421875,0.0
209.52734375,-39.55078125,968.26171875,-31.25,-37.109375,-526.3671875,0.0
209.53125,-36.62109375,968.26171875,-32.71484375,-36.62109375,-491.2109375,0.0
209.53515625,-37.109375,968.26171875,-34.66796875,-29.296875,-556.15234375,0.0
209.5390625,-46.38671875,967.7734375,-29.296875,-32.71484375,-577.1484375,0.0
209.54296875,-46.875,968.26171875,-30.76171875,-36.62109375,-548.828125,0.0
209.546875,-35.64453125,968.26171875,-24.90234375,-24.4140625,-506.34765625,0.0
209.55078125,-37.59765625,968.26171875,-18.5546875,-27.34375,-553.7109375,0.0
209.5546875,-47.36328125,968.26171875,-22.94921875,-35.15625,-590.33203125,0.0
209.55859375,-52.24609375,968.26171875,-29.296875,-33.203125,-519.04296875,0.0
209.5625,-46.875,968.26171875,-31.73828125,-27.34375,-557.6171875,0.0
209.56640625,-47.36328125,968.26171875,-25.87890625,-39.0625,-650.390625,0.0
209.5703125,-40.0390625,968.26171875,-28.3203125,-37.59765625,-710.44921875,0.0
209.57421875,-41.015625,968.26171875,-26.3671875,-36.1328125,-769.04296875,0.0
209.578125,-52.734375,968.26171875,-17.08984375,-35.64453125,-761.71875,0.0
209.58203125,-42.96875,968.26171875,-20.01953125,-38.0859375,-716.796875,0.0
209.5859375,-39.0625,968.26171875,-24.90234375,-38.57421875,-764.6484375,0.0
209.58984375,-29.296875,968.26171875,-32.71484375,-25.390625,-738.76953125,0.0
209.59375,-19.53125,968.26171875,-36.1328125,-25.87890625,-633.7890625,0.0
209.59765625,-31.73828125,968.26171875,-27.83203125,-19.53125,-611.328125,0.0
209.6015625,-45.8984375,968.26171875,-22.4609375,-18.5546875,-561.5234375,0.0
209.60546875,-43.9453125,968.26171875,-22.94921875,-33.69140625,-585.9375,0.0
209.609375,-36.62109375,968.26171875,-23.92578125,-34.66796875,-658.69140625,0.0
209.61328125,-29.296875,968.26171875,-35.64453125,-37.59765625,-667.48046875,0.0
209.6171875,-31.25,968.26171875,-43.45703125,-33.203125,-718.75,0.0
209.62109375,-45.8984375,968.26171875,-37.109375,-45.8984375,-639.16015625,0.0
209.625,-40.52734375,968.26171875,-29.296875,-44.43359375,-500.0,0.0
209.62890625,-29.296875,968.26171875,-30.76171875,-25.390625,-433.10546875,0.0
209.6328125,-24.90234375,968.26171875,-37.59765625,-22.4609375,-435.05859375,0.0
209.63671875,-28.80859375,968.26171875,-38.0859375,-17.08984375,-474.609375,0.0
209.640625,-28.80859375,968.26171875,-28.3203125,-32.71484375,-386.71875,0.0
209.64453125,-37.59765625,968.26171875,-16.6015625,-48.828125,-376.46484375,0.0
209.6484375,-37.59765625,968.26171875,-16.6015625,-32.71484375,-490.234375,0.0
209.65234375,-31.25,968.26171875,-28.3203125,-25.87890625,-440.4296875,0.0
209.65625,-43.45703125,967.7734375,-33.203125,-38.57421875,-386.71875,0.0
209.66015625,-37.59765625,968.26171875,-33.203125,-46.875,-437.01171875,0.0
209.6640625,-24.90234375,968.26171875,-36.62109375,-43.45703125,-395.5078125,0.0
209.66796875,-10.7421875,968.26171875,-28.3203125,-31.73828125,-305.6640625,0.0
209.671875,-11.71875,968.26171875,-14.6484375,-28.3203125,-302.24609375,0.0
209.67578125,-26.3671875,968.26171875,-22.4609375,-48.33984375,-334.47265625,0.0
209.6796875,-27.34375,967.7734375,-30.2734375,-52.24609375,-320.3125,0.0
209.68359375,-7.8125,968.26171875,-16.6015625,-29.78515625,-242.67578125,0.0
209.6875,0.48828125,968.26171875,-4.8828125,-15.13671875,-217.28515625,0.0
209.69140625,-14.16015625,968.26171875,-14.16015625,-18.06640625,-255.859375,0.0
209.6953125,-19.04296875,968.26171875,-20.99609375,-30.2734375,-192.87109375,0.0
209.69921875,-9.765625,968.26171875,-31.25,-18.5546875,-122.0703125,0.0
209.703125,-2.9296875,968.26171875,-30.2734375,-1.46484375,-127.44140625,0.0
209.70703125,-30.76171875,968.26171875,-14.16015625,-17.578125,-139.16015625,0.0
209.7109375,-46.38671875,968.26171875,-11.71875,-24.90234375,-122.55859375,0.0
209.71484375,-37.109375,968.26171875,-5.859375,-27.34375,-53.22265625,0.0
209.71875,-42.48046875,968.26171875,-5.37109375,-32.71484375,99.609375,0.0
209.72265625,-38.57421875,-35.64453125,-9.765625,-40.0390625,-76.171875,0.0
209.7265625,-14.6484375,-22.94921875,-18.06640625,-21.97265625,-56.15234375,0.0
209.73046875,-5.37109375,-26.85546875,-20.01953125,-3.41796875,-72.75390625,0.0
209.734375,-15.625,-39.0625,-10.25390625,-16.6015625,-62.98828125,0.0
209.73828125,-35.64453125,-46.875,-12.20703125,-21.97265625,-97.65625,0.0
209.7421875,-50.78125,-43.9453125,-20.01953125,-26.3671875,-181.15234375,0.0
209.74609375,-29.296875,-28.3203125,-17.08984375,-25.87890625,-113.28125,0.0
209.75,-15.13671875,-29.296875,-5.859375,-12.6953125,-57.12890625,0.0
209.75390625,-13.18359375,-29.78515625,-6.34765625,-13.18359375,-54.19921875,0.0
209.7578125,-17.578125,-26.3671875,-18.5546875,-19.04296875,-53.7109375,0.0
209.76171875,-30.76171875,-27.83203125,-18.06640625,-15.625,-56.15234375,0.0
209.765625,-18.06640625,-24.90234375,-16.11328125,-13.18359375,-79.1015625,0.0
209.76953125,-14.6484375,967.7734375,-17.578125,-16.6015625,202.63671875,0.0
209.7734375,-16.11328125,968.26171875,-18.5546875,-22.94921875,92.28515625,0.0
209.77734375,-21.484375,968.26171875,-22.94921875,-28.3203125,46.875,0.0
209.78125,-32.2265625,967.7734375,-27.34375,-22.4609375,67.87109375,0.0
209.78515625,-22.94921875,983.3984375,-23.4375,-24.90234375,-16.6015625,0.0
209.7890625,-11.23046875,913.0859375,-18.5546875,-21.97265625,-58.10546875,0.0
209.79296875,-17.578125,-985.3515625,-14.6484375,-13.671875,-22.4609375,0.0
209.796875,-20.5078125,880.859375,-17.08984375,-28.3203125,76.66015625,0.0
209.80078125,-13.671875,-562.5,-31.25,-21.484375,227.5390625,0.0
209.8046875,-18.5546875,-1000.0,-41.015625,-19.53125,208.0078125,0.0
209.80859375,-12.20703125,-925.78125,-34.1796875,-24.4140625,64.94140625,0.0
209.8125,-11.23046875,-1000.0,-24.4140625,-13.671875,47.8515625,0.0
209.81640625,-16.11328125,-1000.0,-31.25,-17.578125,48.33984375,0.0
209.8203125,-9.27734375,-1000.0,-33.69140625,-25.87890625,83.984375,0.0
209.82421875,-11.23046875,-1000.0,-26.3671875,-25.87890625,165.0390625,0.0
209.828125,-17.08984375,-1000.0,-34.1796875,-22.4609375,95.21484375,0.0
209.83203125,-12.20703125,-1000.0,-42.48046875,-22.4609375,28.80859375,0.0
209.8359375,-25.390625,-1000.0,-32.2265625,-31.25,42.48046875,0.0
209.83984375,-41.015625,-1000.0,-28.80859375,-34.1796875,32.2265625,0.0
209.84375,-35.64453125,-1000.0,-31.73828125,-24.90234375,-4.8828125,0.0
209.84765625,-26.85546875,-1000.0,-26.3671875,-16.6015625,-79.58984375,0.0
209.8515625,-20.01953125,-1000.0,-29.296875,-27.83203125,-85.9375,0.0
209.85546875,-32.2265625,-1000.0,-40.0390625,-40.0390625,-137.20703125,0.0
209.859375,-49.31640625,-1000.0,-36.1328125,-44.921875,-125.48828125,0.0
209.86328125,-47.36328125,-1000.0,-37.109375,-43.9453125,-67.87109375,0.0
209.8671875,-40.52734375,-1000.0,-42.96875,-31.73828125,-190.91796875,0.0
209.87109375,-42.96875,-1000.0,-41.50390625,-36.62109375,-250.0,0.0
209.875,-46.38671875,-1000.0,-40.0390625,-47.8515625,-262.20703125,0.0
209.87890625,-53.7109375,-1000.0,-41.015625,-53.7109375,-227.05078125,0.0
209.8828125,-61.5234375,-1000.0,-38.0859375,-58.10546875,-229.98046875,0.0
209.88671875,-62.5,-1000.0,-39.0625,-51.7578125,-298.33984375,0.0
209.890625,-58.10546875,-1000.0,-42.96875,-53.7109375,-294.921875,0.0
209.89453125,-65.4296875,-1000.0,-46.875,-60.546875,-289.0625,0.0
209.8984375,-68.84765625,-1000.0,-54.19921875,-64.453125,-258.7890625,0.0
209.90234375,-64.94140625,-1000.0,-65.4296875,-62.98828125,-252.9296875,0.0
209.90625,-56.15234375,-1000.0,-59.5703125,-51.26953125,-272.94921875,0.0
209.91015625,-56.15234375,-1000.0,-51.26953125,-54.19921875,-271.97265625,0.0
209.9140625,-62.5,-1000.0,-58.10546875,-64.453125,-275.390625,0.0
209.91796875,-67.87109375,-1000.0,-55.6640625,-62.5,-212.40234375,0.0
209.921875,-70.3125,-1000.0,-47.36328125,-64.453125,-152.83203125,0.0
209.92578125,-65.4296875,-1000.0,-47.36328125,-70.3125,-177.734375,0.0
209.9296875,-59.5703125,-1000.0,-52.24609375,-65.91796875,-210.9375,0.0
209.93359375,-66.89453125,-1000.0,-58.59375,-70.3125,-267.578125,0.0
209.9375,-66.40625,-1000.0,-60.546875,-68.359375,-296.875,0.0
209.94140625,-53.22265625,-1000.0,-56.640625,-50.29296875,-329.58984375,0.0
209.9453125,-44.43359375,-1000.0,-53.22265625,-34.1796875,-243.1640625,0.0
209.94921875,-46.38671875,-1000.0,-41.015625,-41.9921875,-212.40234375,0.0
209.953125,-53.22265625,-1000.0,-36.1328125,-58.10546875,-313.96484375,0.0
209.95703125,-66.89453125,-1000.0,-36.62109375,-56.640625,-370.1171875,0.0
209.9609375,-74.21875,-1000.0,-32.2265625,-48.33984375,-402.83203125,0.0
209.96484375,-52.734375,-1000.0,-24.4140625,-41.015625,-485.3515625,0.0
209.96875,-40.0390625,-1000.0,-25.87890625,-39.0625,-511.71875,0.0
209.97265625,-42.48046875,-1000.0,-28.80859375,-43.9453125,-477.5390625,0.0
209.9765625,-51.7578125,-1000.0,-28.3203125,-42.96875,-439.453125,0.0
209.98046875,-57.12890625,-1000.0,-37.59765625,-46.875,-389.6484375,0.0
209.984375,-50.78125,-1000.0,-40.0390625,-51.7578125,-296.875,0.0
209.98828125,-34.1796875,-1000.0,-39.0625,-36.1328125,-321.2890625,0.0
209.9921875,-22.94921875,-1000.0,-45.41015625,-23.4375,-337.890625,0.0
209.99609375,-22.4609375,-1000.0,-38.57421875,-16.11328125,-264.6484375,0.0
210.0,-23.92578125,-1000.0,-34.1796875,-31.25,-235.83984375,0.0
210.00390625,-37.109375,-1000.0,-32.71484375,-51.26953125,-219.23828125,0.0
210.0078125,-40.0390625,-1000.0,-35.64453125,-43.9453125,-264.6484375,0.0
210.01171875,-27.34375,-1000.0,-36.62109375,-32.2265625,-347.16796875,0.0
210.015625,-25.87890625,-1000.0,-34.1796875,-42.96875,-377.44140625,0.0
210.01953125,-20.5078125,-1000.0,-35.15625,-35.64453125,-302.24609375,0.0
210.0234375,-24.4140625,-1000.0,-45.8984375,-31.25,-246.58203125,0.0
210.02734375,-30.2734375,-1000.0,-55.17578125,-40.52734375,-288.0859375,0.0
210.03125,-23.92578125,-1000.0,-48.33984375,-27.83203125,-357.421875,0.0
210.03515625,-31.25,-1000.0,-43.45703125,-41.50390625,-340.33203125,0.0
210.0390625,-48.828125,-1000.0,-41.9921875,-49.31640625,-254.8828125,0.0
210.04296875,-48.828125,-1000.0,-40.52734375,-33.203125,-266.11328125,0.0
210.046875,-37.109375,-1000.0,-40.0390625,-36.62109375,-332.03125,0.0
210.05078125,-27.83203125,-1000.0,-36.1328125,-40.0390625,-362.79296875,0.0
210.0546875,-22.94921875,-1000.0,-45.8984375,-39.55078125,-405.2734375,0.0
210.05859375,-35.64453125,-1000.0,-44.43359375,-54.19921875,-363.28125,0.0
210.0625,-34.66796875,-1000.0,-36.62109375,-52.734375,-334.9609375,0.0
210.06640625,-25.87890625,-1000.0,-36.62109375,-30.2734375,-334.9609375,0.0
210.0703125,-20.01953125,-1000.0,-33.203125,-22.94921875,-374.51171875,0.0
210.07421875,-23.4375,-941.89453125,-36.62109375,-26.3671875,-340.8203125,0.0
210.078125,-35.15625,-1000.0,-40.0390625,-40.0390625,-315.4296875,0.0
210.08203125,-32.71484375,-879.8828125,-40.52734375,-41.50390625,-271.484375,0.0
210.0859375,-22.94921875,579.1015625,-40.0390625,-26.85546875,-298.33984375,0.0
210.08984375,-5.859375,-915.0390625,-41.9921875,-14.16015625,-450.68359375,0.0
210.09375,1.953125,894.04296875,-45.41015625,-2.44140625,-497.0703125,0.0
210.09765625,-10.25390625,-17.08984375,-34.1796875,-1.953125,-461.42578125,0.0
210.1015625,-39.0625,-29.296875,-31.25,-32.71484375,-414.55078125,0.0
210.10546875,-48.33984375,-39.0625,-41.9921875,-49.31640625,-399.90234375,0.0
210.109375,-31.73828125,-37.59765625,-36.62109375,-29.296875,-404.78515625,0.0
210.11328125,-7.32421875,-23.4375,-33.69140625,-13.671875,-442.87109375,0.0
210.1171875,-4.39453125,-16.11328125,-35.64453125,-10.7421875,-430.17578125,0.0
210.12109375,-38.57421875,-32.2265625,-30.2734375,-31.25,-408.203125,0.0
210.125,-57.6171875,-42.48046875,-31.25,-38.0859375,-375.48828125,0.0
210.12890625,-45.8984375,-47.36328125,-31.73828125,-30.2734375,-343.26171875,0.0
210.1328125,-34.1796875,-50.78125,-21.97265625,-40.0390625,-292.96875,0.0
210.13671875,-48.33984375,-46.38671875,-22.4609375,-59.08203125,-284.66796875,0.0
210.140625,-63.4765625,-40.0390625,-26.3671875,-61.5234375,-252.9296875,0.0
210.14453125,-38.0859375,968.26171875,-34.1796875,-50.78125,-241.69921875,0.0
210.1484375,-15.13671875,968.26171875,-37.109375,-19.04296875,-265.625,0.0
210.15234375,-22.4609375,968.26171875,-27.83203125,-9.27734375,-269.04296875,0.0
210.15625,-52.24609375,968.26171875,-19.04296875,-47.36328125,-312.98828125,0.0
210.16015625,-65.4296875,967.7734375,-14.16015625,-64.453125,-345.21484375,0.0
210.1640625,-54.6875,968.26171875,-29.296875,-49.8046875,-253.41796875,0.0
210.16796875,-42.48046875,968.26171875,-27.83203125,-33.203125,-243.1640625,0.0
210.171875,-25.390625,968.26171875,-21.97265625,-24.4140625,-361.81640625,0.0
210.17578125,-38.0859375,968.26171875,-31.73828125,-33.203125,-383.30078125,0.0
210.1796875,-44.921875,968.26171875,-24.4140625,-42.48046875,-289.55078125,0.0
210.18359375,-41.015625,968.26171875,-24.90234375,-40.0390625,-270.99609375,0.0
210.1875,-32.71484375,968.26171875,-35.15625,-25.87890625,-270.01953125,0.0
210.19140625,-37.109375,968.26171875,-26.85546875,-31.25,-256.8359375,0.0
210.1953125,-62.98828125,968.26171875,-20.01953125,-60.546875,-268.06640625,0.0
210.19921875,-65.91796875,968.26171875,-20.5078125,-56.640625,-295.41015625,0.0
210.203125,-56.640625,968.26171875,-20.99609375,-45.8984375,-186.03515625,0.0
210.20703125,-32.2265625,967.7734375,-22.94921875,-27.83203125,-49.31640625,0.0
210.2109375,-15.13671875,967.7734375,-29.78515625,-22.94921875,-142.578125,0.0
210.21484375,-20.99609375,968.26171875,-31.25,-32.2265625,-159.66796875,0.0
210.21875,-29.296875,968.26171875,-23.4375,-20.5078125,-62.5,0.0
210.22265625,-22.4609375,968.26171875,-15.625,-23.92578125,30.2734375,0.0
210.2265625,-19.04296875,968.26171875,-12.20703125,-36.1328125,63.96484375,0.0
210.23046875,-27.34375,968.26171875,-16.11328125,-38.0859375,-15.625,0.0
210.234375,-27.83203125,968.26171875,-29.296875,-44.921875,34.1796875,0.0
210.23828125,-40.52734375,968.26171875,-33.69140625,-59.08203125,132.32421875,0.0
210.2421875,-47.36328125,968.26171875,-29.78515625,-41.50390625,205.56640625,0.0
210.24609375,-33.203125,968.26171875,-25.390625,-20.99609375,193.359375,0.0
210.25,-25.87890625,968.26171875,-24.4140625,-19.53125,102.5390625,0.0
210.25390625,-39.0625,968.26171875,-33.69140625,-29.78515625,134.27734375,0.0
210.2578125,-47.8515625,968.26171875,-35.64453125,-46.38671875,182.12890625,0.0
210.26171875,-53.22265625,968.26171875,-36.62109375,-37.109375,227.5390625,0.0
210.265625,-54.6875,968.26171875,-41.50390625,-37.59765625,196.2890625,0.0
210.26953125,-35.15625,968.26171875,-36.62109375,-39.0625,233.88671875,0.0
210.2734375,-26.3671875,968.26171875,-36.62109375,-35.15625,283.203125,0.0
210.27734375,-45.41015625,968.26171875,-35.64453125,-44.921875,327.63671875,0.0
210.28125,-61.03515625,968.26171875,-30.2734375,-38.57421875,397.4609375,0.0
210.28515625,-51.7578125,968.26171875,-27.83203125,-28.3203125,434.5703125,0.0
210.2890625,-40.52734375,968.26171875,-29.78515625,-41.50390625,395.01953125,0.0
210.29296875,-35.15625,967.7734375,-33.203125,-37.59765625,392.08984375,0.0
210.296875,-26.3671875,968.26171875,-35.15625,-23.4375,397.4609375,0.0
210.30078125,-25.87890625,968.26171875,-33.69140625,-22.94921875,480.95703125,0.0
210.3046875,-33.203125,968.26171875,-18.06640625,-22.4609375,558.10546875,0.0
210.30859375,-35.15625,968.26171875,-17.578125,-29.296875,527.34375,0.0
210.3125,-31.73828125,968.26171875,-38.0859375,-39.55078125,443.359375,0.0
210.31640625,-43.9453125,968.26171875,-30.2734375,-37.59765625,417.48046875,0.0
210.3203125,-71.2890625,968.26171875,-12.20703125,-46.875,438.96484375,0.0
210.32421875,-74.21875,968.26171875,-14.16015625,-41.015625,483.88671875,0.0
210.328125,-49.8046875,968.26171875,-16.6015625,-29.78515625,469.23828125,0.0
210.33203125,-48.828125,968.26171875,-4.8828125,-33.69140625,344.7265625,0.0
210.3359375,-58.59375,967.7734375,-13.18359375,-51.26953125,388.18359375,0.0
210.33984375,-55.6640625,968.26171875,-33.69140625,-67.3828125,423.828125,0.0
210.34375,-43.9453125,968.26171875,-34.66796875,-55.6640625,425.78125,0.0
210.34765625,-32.71484375,967.7734375,-33.203125,-29.296875,417.48046875,0.0
210.3515625,-43.45703125,967.7734375,-28.80859375,-16.6015625,339.84375,0.0
210.35546875,-40.0390625,968.26171875,-25.390625,-16.6015625,291.9921875,0.0
210.359375,-36.1328125,968.26171875,-22.4609375,-40.52734375,341.796875,0.0
210.36328125,-49.8046875,968.26171875,-20.5078125,-58.59375,276.85546875,0.0
210.3671875,-42.48046875,968.26171875,-19.53125,-39.0625,204.1015625,0.0
210.37109375,-39.0625,968.26171875,-25.87890625,-23.4375,237.3046875,0.0
210.375,-30.2734375,968.26171875,-38.0859375,-30.76171875,148.92578125,0.0
210.37890625,-22.94921875,983.88671875,-35.64453125,-25.390625,108.88671875,0.0
210.3828125,-41.50390625,898.92578125,-28.80859375,-20.5078125,154.296875,0.0
210.38671875,-55.17578125,-935.05859375,-28.3203125,-41.50390625,109.86328125,0.0
210.390625,-50.78125,656.25,-30.2734375,-50.78125,95.703125,0.0
210.39453125,-46.875,-801.7578125,-31.25,-50.29296875,90.8203125,0.0
210.3984375,-55.6640625,-1000.0,-31.73828125,-50.78125,60.05859375,0.0
210.40234375,-55.6640625,-936.5234375,-28.80859375,-52.24609375,57.12890625,0.0
210.40625,-48.33984375,-1000.0,-32.71484375,-54.19921875,64.94140625,0.0
210.41015625,-37.59765625,-1000.0,-36.62109375,-53.22265625,78.61328125,0.0
210.4140625,-36.1328125,-1000.0,-36.1328125,-43.9453125,46.38671875,0.0
210.41796875,-52.24609375,-1000.0,-36.1328125,-51.7578125,0.0,0.0
210.421875,-66.40625,-1000.0,-24.4140625,-68.84765625,61.03515625,0.0
210.42578125,-65.4296875,-1000.0,-21.484375,-65.4296875,109.375,0.0
210.4296875,-55.6640625,-1000.0,-23.92578125,-56.15234375,47.36328125,0.0
210.43359375,-51.26953125,-1000.0,-23.92578125,-48.33984375,-7.8125,0.0
210.4375,-50.78125,-1000.0,-31.73828125,-42.96875,4.39453125,0.0
210.44140625,-45.41015625,-1000.0,-31.73828125,-43.9453125,-50.78125,0.0
210.4453125,-31.25,-1000.0,-24.4140625,-28.3203125,-61.5234375,0.0
210.44921875,-24.90234375,-1000.0,-30.76171875,-24.90234375,-154.78515625,0.0
210.453125,-38.57421875,-1000.0,-34.66796875,-43.9453125,-139.16015625,0.0
210.45703125,-52.24609375,-1000.0,-30.76171875,-51.7578125,-110.83984375,0.0
210.4609375,-49.31640625,-1000.0,-41.9921875,-46.38671875,-169.43359375,0.0
210.46484375,-39.0625,-1000.0,-41.50390625,-39.55078125,-117.1875,0.0
210.46875,-36.62109375,-1000.0,-34.1796875,-35.15625,-215.8203125,0.0
210.47265625,-47.8515625,-1000.0,-31.73828125,-46.38671875,-245.60546875,0.0
210.4765625,-68.84765625,-1000.0,-26.3671875,-61.5234375,-226.5625,0.0
210.48046875,-82.51953125,-1000.0,-32.71484375,-57.6171875,-254.39453125,0.0
210.484375,-74.21875,-1000.0,-35.15625,-46.38671875,-194.82421875,0.0
210.48828125,-59.5703125,-1000.0,-30.2734375,-41.9921875,-264.16015625,0.0
210.4921875,-45.41015625,-1000.0,-35.15625,-40.52734375,-316.40625,0.0
210.49609375,-39.0625,-1000.0,-34.66796875,-30.76171875,-264.16015625,0.0
210.5,-41.50390625,-1000.0,-34.1796875,-28.80859375,-303.22265625,0.0
210.50390625,-36.1328125,-1000.0,-40.52734375,-33.69140625,-261.71875,0.0
210.5078125,-23.4375,-1000.0,-41.015625,-33.203125,-205.078125,0.0
210.51171875,-26.85546875,-1000.0,-37.109375,-26.3671875,-262.20703125,0.0
210.515625,-42.48046875,-1000.0,-41.9921875,-24.4140625,-250.0,0.0
210.51953125,-44.921875,-1000.0,-37.109375,-33.69140625,-147.4609375,0.0
210.5234375,-36.62109375,-1000.0,-41.50390625,-35.15625,-144.53125,0.0
210.52734375,-19.53125,-1000.0,-48.33984375,-15.13671875,-240.234375,0.0
210.53125,-11.71875,-1000.0,-34.1796875,-3.90625,-245.1171875,0.0
210.53515625,-19.04296875,-1000.0,-31.25,-13.18359375,-198.73046875,0.0
210.5390625,-42.48046875,-1000.0,-32.71484375,-27.83203125,-121.58203125,0.0
210.54296875,-47.36328125,-1000.0,-36.62109375,-22.4609375,43.45703125,0.0
210.546875,-25.390625,-1000.0,-43.45703125,-15.13671875,-22.94921875,0.0
210.55078125,-32.71484375,-1000.0,-53.22265625,-28.3203125,-100.09765625,0.0
210.5546875,-42.96875,-1000.0,-58.10546875,-26.85546875,-17.08984375,0.0
210.55859375,-42.96875,-1000.0,-49.8046875,-30.2734375,-28.3203125,0.0
210.5625,-48.828125,-1000.0,-39.55078125,-27.83203125,-41.9921875,0.0
210.56640625,-48.33984375,-1000.0,-33.203125,-27.83203125,18.06640625,0.0
210.5703125,-42.48046875,-1000.0,-36.62109375,-29.78515625,3.90625,0.0
210.57421875,-39.0625,-1000.0,-41.015625,-39.0625,-65.4296875,0.0
210.578125,-40.0390625,-1000.0,-40.52734375,-40.0390625,-156.73828125,0.0
210.58203125,-46.38671875,-1000.0,-44.43359375,-45.41015625,-141.11328125,0.0
210.5859375,-29.78515625,-1000.0,-43.45703125,-43.9453125,-65.4296875,0.0
210.58984375,-15.625,-1000.0,-37.59765625,-27.83203125,-162.109375,0.0
210.59375,-14.6484375,-1000.0,-40.0390625,-29.78515625,-218.75,0.0
210.59765625,-18.06640625,-1000.0,-37.109375,-33.203125,-204.58984375,0.0
210.6015625,-24.90234375,-1000.0,-34.66796875,-33.203125,-308.10546875,0.0
210.60546875,-13.671875,-1000.0,-29.78515625,-6.34765625,-350.09765625,0.0
210.609375,-7.8125,-1000.0,-39.55078125,-6.8359375,-331.54296875,0.0
210.61328125,-12.6953125,-1000.0,-38.57421875,-25.87890625,-327.63671875,0.0
210.6171875,-16.11328125,-1000.0,-24.90234375,-29.78515625,-224.609375,0.0
210.62109375,-18.5546875,-932.6171875,-30.2734375,-32.2265625,-201.66015625,0.0
210.625,-19.04296875,-1000.0,-31.25,-22.94921875,-195.80078125,0.0
210.62890625,-18.06640625,-529.78515625,-36.62109375,-23.4375,-201.171875,0.0
210.6328125,-15.13671875,869.62890625,-43.45703125,-20.99609375,-240.234375,0.0
210.63671875,-21.97265625,-969.7265625,-42.96875,-30.76171875,-258.7890625,0.0
210.640625,-34.1796875,847.16796875,-45.41015625,-39.55078125,-305.17578125,0.0
210.64453125,-22.94921875,-929.19921875,-36.62109375,-23.4375,-273.92578125,0.0
210.6484375,-4.8828125,708.0078125,-29.296875,-18.06640625,-277.34375,0.0
210.65234375,-5.37109375,-696.2890625,-29.296875,-20.99609375,-297.8515625,0.0
210.65625,-16.11328125,-1000.0,-33.203125,-31.73828125,-317.87109375,0.0
210.66015625,-24.90234375,-386.23046875,-37.109375,-28.3203125,-324.21875,0.0
210.6640625,-27.34375,977.5390625,-31.25,-18.5546875,-308.59375,0.0
210.66796875,-32.2265625,868.1640625,-34.1796875,-25.390625,-297.36328125,0.0
210.671875,-34.1796875,-748.53515625,-33.69140625,-27.34375,-358.88671875,0.0
210.67578125,-30.76171875,-1000.0,-29.78515625,-24.4140625,-429.6875,0.0
210.6796875,-34.1796875,484.375,-33.69140625,-26.3671875,-474.12109375,0.0
210.68359375,-38.0859375,-835.9375,-39.0625,-28.3203125,-419.921875,0.0
210.6875,-25.390625,652.34375,-41.50390625,-18.5546875,-273.4375,0.0
210.69140625,-14.6484375,-659.1796875,-42.48046875,-28.80859375,-298.828125,0.0
210.6953125,-22.94921875,-1000.0,-45.8984375,-32.71484375,-378.41796875,0.0
210.69921875,-25.390625,-859.375,-43.45703125,-25.87890625,-375.0,0.0
210.703125,-18.06640625,671.38671875,-35.64453125,-10.25390625,-435.05859375,0.0
210.70703125,-12.20703125,261.23046875,-32.71484375,-1.46484375,-406.73828125,0.0
210.7109375,0.9765625,-1000.0,-24.4140625,-15.625,-351.07421875,0.0
210.71484375,-14.6484375,-1000.0,-33.203125,-32.2265625,-389.6484375,0.0
210.71875,-32.2265625,-943.359375,-45.8984375,-41.015625,-410.15625,0.0
210.72265625,-36.1328125,559.5703125,-30.76171875,-39.55078125,-428.7109375,0.0
210.7265625,-27.34375,-988.76953125,-24.90234375,-33.69140625,-379.8828125,0.0
210.73046875,-4.8828125,-590.8203125,-41.015625,-23.4375,-369.140625,0.0
210.734375,-10.25390625,-1000.0,-41.9921875,-23.92578125,-459.47265625,0.0
210.73828125,-28.3203125,-1000.0,-25.390625,-42.96875,-473.6328125,0.0
210.7421875,-40.52734375,208.49609375,-17.08984375,-41.9921875,-438.96484375,0.0
210.74609375,-56.640625,825.1953125,-11.23046875,-32.2265625,-435.05859375,0.0
210.75,-54.19921875,-833.0078125,-7.8125,-36.1328125,-528.80859375,0.0
210.75390625,-44.921875,-1000.0,-11.71875,-50.29296875,-684.5703125,0.0
210.7578125,-51.7578125,-1000.0,-25.390625,-56.15234375,-708.0078125,0.0
210.76171875,-47.8515625,-749.0234375,-31.73828125,-60.05859375,-688.4765625,0.0
210.765625,-32.71484375,841.30859375,-28.80859375,-58.10546875,-676.26953125,0.0
210.76953125,-32.2265625,916.9921875,-23.92578125,-45.8984375,-781.25,0.0
210.7734375,-50.78125,-803.7109375,-20.5078125,-49.8046875,-955.56640625,0.0
210.77734375,-64.94140625,-954.58984375,-15.625,-52.24609375,-999.51171875,0.0
210.78125,-62.5,665.52734375,-22.94921875,-54.19921875,-978.515625,0.0
210.78515625,-41.50390625,-934.5703125,-24.90234375,-41.9921875,-991.69921875,0.0
210.7890625,-24.90234375,894.04296875,-18.5546875,-37.109375,-1000.0,0.0
210.79296875,-38.0859375,984.375,-15.625,-47.36328125,-999.0234375,0.0
210.796875,-40.0390625,968.26171875,-18.06640625,-44.921875,-1000.0,0.0
210.80078125,-39.0625,968.26171875,-16.6015625,-53.22265625,-1000.0,0.0
210.8046875,-50.29296875,968.26171875,-18.5546875,-66.89453125,-1000.0,0.0
210.80859375,-53.7109375,968.26171875,-19.53125,-61.03515625,-1000.0,0.0
210.8125,-31.73828125,968.26171875,-16.6015625,-43.9453125,-1000.0,0.0
210.81640625,-37.109375,968.26171875,-15.13671875,-51.26953125,-1000.0,0.0
210.8203125,-48.828125,968.26171875,-11.23046875,-58.59375,-1000.0,0.0
210.82421875,-35.64453125,968.26171875,-8.7890625,-40.52734375,-1000.0,0.0
210.828125,-36.1328125,968.26171875,-6.34765625,-36.62109375,-1000.0,0.0
210.83203125,-47.8515625,967.7734375,-10.25390625,-41.015625,-1000.0,0.0
210.8359375,-42.48046875,968.26171875,-17.08984375,-41.015625,-1000.0,0.0
210.83984375,-42.96875,968.26171875,-12.20703125,-51.7578125,-1000.0,0.0
210.84375,-49.8046875,971.19140625,-11.23046875,-50.78125,-1000.0,0.0
210.84765625,-28.80859375,958.984375,-13.671875,-33.203125,-1000.0,0.0
210.8515625,-22.4609375,923.828125,-21.484375,-29.296875,-996.58203125,0.0
210.85546875,-47.36328125,-925.78125,-30.2734375,-35.64453125,-1000.0,0.0
210.859375,-61.5234375,70.80078125,-12.20703125,-36.62109375,-986.328125,0.0
210.86328125,-57.6171875,-1000.0,-2.9296875,-27.34375,-829.58984375,0.0
210.8671875,-41.015625,-975.09765625,-7.8125,-33.69140625,-619.140625,0.0
210.87109375,-28.80859375,-980.46875,-3.90625,-36.62109375,-477.5390625,0.0
210.875,-31.73828125,-1000.0,-10.25390625,-40.52734375,-376.953125,0.0
210.87890625,-39.55078125,-1000.0,-15.13671875,-44.43359375,-383.30078125,0.0
210.8828125,-56.640625,-1000.0,-14.6484375,-51.7578125,-372.55859375,0.0
210.88671875,-47.36328125,-1000.0,-20.99609375,-57.12890625,-313.96484375,0.0
210.890625,-20.5078125,-1000.0,-27.34375,-34.1796875,-285.64453125,0.0
210.89453125,-18.5546875,-941.40625,-34.1796875,-25.390625,-277.34375,0.0
210.8984375,-30.76171875,-1000.0,-29.296875,-35.15625,-257.8125,0.0
210.90234375,-50.29296875,-876.953125,-25.390625,-28.80859375,-218.26171875,0.0
210.90625,-19.04296875,582.51953125,-27.83203125,-24.4140625,-122.0703125,0.0
210.91015625,-5.859375,-916.015625,-29.78515625,-55.6640625,-46.38671875,0.0
210.9140625,-36.1328125,894.04296875,-28.80859375,-36.62109375,-106.4453125,0.0
210.91796875,-29.296875,983.88671875,-14.16015625,-2.44140625,-57.12890625,0.0
210.921875,-28.80859375,967.7734375,-12.20703125,-12.6953125,54.6875,0.0
210.92578125,-45.8984375,968.26171875,-20.5078125,-45.8984375,61.5234375,0.0
210.9296875,-71.77734375,967.7734375,-12.6953125,-40.0390625,53.22265625,0.0
210.93359375,-70.3125,968.26171875,-11.71875,-0.48828125,-1.46484375,0.0
210.9375,-56.15234375,968.26171875,-22.4609375,-22.4609375,-52.734375,0.0
210.94140625,-70.3125,968.26171875,-34.1796875,-40.52734375,12.6953125,0.0
210.9453125,-56.15234375,968.26171875,-36.1328125,-17.578125,12.20703125,0.0
210.94921875,-55.17578125,968.26171875,-37.109375,-19.53125,-24.4140625,0.0
210.953125,-75.68359375,968.26171875,-37.59765625,-47.36328125,1.46484375,0.0
210.95703125,-70.80078125,967.7734375,-39.0625,-37.109375,42.96875,0.0
210.9609375,-66.89453125,968.26171875,-34.66796875,-23.4375,-3.90625,0.0
210.96484375,-64.94140625,968.26171875,-22.94921875,-27.83203125,-15.625,0.0
210.96875,-75.68359375,967.7734375,-25.390625,-35.64453125,-12.20703125,0.0
210.97265625,-85.44921875,968.26171875,-30.76171875,-37.109375,-104.98046875,0.0
210.9765625,-76.66015625,968.26171875,-26.85546875,-21.484375,-153.80859375,0.0
210.98046875,-71.77734375,968.26171875,-22.94921875,-37.59765625,-40.0390625,0.0
210.984375,-72.265625,968.26171875,-23.92578125,-53.22265625,64.453125,0.0
210.98828125,-64.94140625,968.26171875,-29.296875,-27.83203125,43.45703125,0.0
210.9921875,-58.10546875,967.7734375,-31.25,-22.94921875,-25.390625,0.0
210.99609375,-65.91796875,968.26171875,-34.66796875,-36.62109375,-35.15625,0.0
211.0,-73.2421875,968.26171875,-28.80859375,-46.875,-17.08984375,0.0
211.00390625,-73.2421875,968.26171875,-20.99609375,-42.48046875,-35.15625,0.0
211.0078125,-70.3125,968.26171875,-17.08984375,-30.2734375,-76.171875,0.0
211.01171875,-59.5703125,968.26171875,-21.484375,-30.76171875,-84.47265625,0.0
211.015625,-49.8046875,968.26171875,-37.59765625,-44.43359375,-122.0703125,0.0
211.01953125,-40.0390625,968.26171875,-26.85546875,-29.78515625,-126.46484375,0.0
211.0234375,-34.66796875,968.26171875,-13.18359375,-12.6953125,-72.75390625,0.0
211.02734375,-43.9453125,967.7734375,-10.25390625,-14.16015625,-99.609375,0.0
211.03125,-52.734375,968.26171875,-8.7890625,-22.4609375,-149.4140625,0.0
211.03515625,-61.03515625,968.26171875,-10.25390625,-26.85546875,-119.62890625,0.0
211.0390625,-59.08203125,968.26171875,-17.08984375,-45.8984375,-178.22265625,0.0
211.04296875,-33.203125,968.26171875,-33.69140625,-49.8046875,-202.63671875,0.0
211.046875,-16.6015625,968.26171875,-20.01953125,-20.99609375,-186.03515625,0.0
211.05078125,-36.1328125,968.26171875,-1.953125,-34.66796875,-199.70703125,0.0
211.0546875,-60.05859375,968.26171875,-13.671875,-56.640625,-122.0703125,0.0
211.05859375,-52.734375,968.26171875,-17.578125,-36.1328125,-28.80859375,0.0
211.0625,-35.64453125,968.26171875,-12.20703125,-23.4375,-4.8828125,0.0
211.06640625,-23.92578125,968.26171875,-16.6015625,-30.76171875,-9.765625,0.0
211.0703125,-22.4609375,968.26171875,-21.97265625,-36.62109375,4.39453125,0.0
211.07421875,-23.92578125,968.26171875,-33.203125,-46.875,66.89453125,0.0
211.078125,-22.94921875,968.26171875,-22.94921875,-35.15625,64.94140625,0.0
211.08203125,-10.7421875,968.26171875,-15.625,-20.01953125,55.6640625,0.0
211.0859375,-4.8828125,968.26171875,-26.85546875,-41.50390625,122.55859375,0.0
211.08984375,-21.97265625,968.26171875,-30.2734375,-56.15234375,82.51953125,0.0
211.09375,-34.66796875,968.26171875,-32.71484375,-40.0390625,71.2890625,0.0
211.09765625,-40.0390625,968.26171875,-42.48046875,-51.7578125,225.5859375,0.0
211.1015625,-20.99609375,967.7734375,-44.43359375,-41.015625,230.95703125,0.0
211.10546875,-18.06640625,968.26171875,-34.66796875,-22.4609375,187.01171875,0.0
211.109375,-29.296875,968.26171875,-30.76171875,-27.83203125,209.47265625,0.0
211.11328125,-15.13671875,968.26171875,-27.34375,-37.59765625,122.55859375,0.0
211.1171875,-17.578125,969.23828125,-21.97265625,-46.38671875,108.88671875,0.0
211.12109375,-31.25,977.05078125,-25.390625,-41.50390625,201.171875,0.0
211.125,-31.25,903.80859375,-29.78515625,-32.71484375,189.94140625,0.0
211.12890625,-24.4140625,-936.5234375,-25.390625,-21.484375,93.75,0.0
211.1328125,-16.6015625,495.60546875,-32.2265625,-33.203125,99.609375,0.0
211.13671875,-26.85546875,-953.125,-26.3671875,-33.203125,153.80859375,0.0
211.140625,-21.97265625,-986.328125,-25.390625,-23.4375,136.23046875,0.0
211.14453125,-21.484375,493.1640625,-42.48046875,-39.55078125,197.75390625,0.0
211.1484375,2.9296875,-951.66015625,-32.2265625,-20.01953125,127.9296875,0.0
211.15234375,20.99609375,989.2578125,-14.16015625,2.9296875,50.78125,0.0
211.15625,-20.01953125,8.30078125,-18.5546875,-18.5546875,126.953125,0.0
211.16015625,-43.9453125,-1000.0,-18.5546875,-41.9921875,139.6484375,0.0
211.1640625,-47.8515625,-966.30859375,-20.5078125,-34.66796875,160.64453125,0.0
211.16796875,-42.48046875,-985.83984375,-26.85546875,-22.94921875,164.55078125,0.0
211.171875,-18.06640625,-1000.0,-24.4140625,-35.15625,117.67578125,0.0
211.17578125,-6.8359375,-1000.0,-27.34375,-45.41015625,115.234375,0.0
211.1796875,-18.06640625,-1000.0,-39.55078125,-45.41015625,154.78515625,0.0
211.18359375,-22.4609375,-1000.0,-36.62109375,-33.69140625,168.45703125,0.0
211.1875,-14.6484375,-942.87109375,-22.4609375,-25.390625,138.18359375,0.0
211.19140625,3.41796875,-1000.0,-21.97265625,-20.99609375,106.4453125,0.0
211.1953125,-6.8359375,-890.625,-29.78515625,-24.90234375,111.328125,0.0
211.19921875,-30.2734375,565.91796875,-39.0625,-29.78515625,131.34765625,0.0
211.203125,-26.85546875,-912.59765625,-48.33984375,-34.66796875,118.65234375,0.0
211.20703125,-21.484375,893.5546875,-36.62109375,-43.45703125,81.0546875,0.0
211.2109375,-35.15625,983.88671875,-21.484375,-35.15625,71.77734375,0.0
211.21484375,-36.62109375,968.26171875,-47.8515625,-40.0390625,98.14453125,0.0
211.21875,-22.94921875,968.26171875,-49.31640625,-35.15625,162.109375,0.0
211.22265625,-23.4375,968.26171875,-27.34375,-22.94921875,252.44140625,0.0
211.2265625,-30.76171875,968.26171875,-31.73828125,-26.85546875,229.98046875,0.0
211.23046875,-41.015625,968.26171875,-34.1796875,-35.64453125,162.109375,0.0
211.234375,-55.17578125,968.26171875,-40.0390625,-42.48046875,160.64453125,0.0
211.23828125,-53.22265625,968.26171875,-36.1328125,-58.10546875,92.28515625,0.0
