timestamp,TP9,AF7,AF8,TP10,AUX,Marker,
145.00390625,-71.77734375,-39.0625,-19.04296875,-40.0390625,60.546875,0.0
145.0078125,-58.59375,-36.1328125,-16.11328125,-17.578125,9.765625,0.0
145.01171875,-45.41015625,-33.203125,-17.578125,-15.13671875,-18.06640625,0.0
145.015625,-40.0390625,-34.1796875,-26.3671875,-28.80859375,-25.390625,0.0
145.01953125,-45.41015625,-35.64453125,-33.203125,-40.52734375,30.2734375,0.0
145.0234375,-64.453125,-40.0390625,-34.1796875,-43.9453125,-12.6953125,0.0
145.02734375,-56.640625,-44.43359375,-35.15625,-30.76171875,-126.953125,0.0
145.03125,-28.3203125,-37.59765625,-22.94921875,-20.01953125,-134.27734375,0.0
145.03515625,-24.4140625,-36.1328125,-17.578125,-26.3671875,-112.3046875,0.0
145.0390625,-50.29296875,-38.0859375,-30.76171875,-39.0625,-78.61328125,0.0
145.04296875,-63.4765625,-40.0390625,-33.69140625,-33.69140625,-18.5546875,0.0
145.046875,-44.921875,-43.9453125,-30.2734375,-12.6953125,31.73828125,0.0
145.05078125,-39.55078125,-49.8046875,-30.2734375,-7.8125,-96.19140625,0.0
145.0546875,-32.71484375,-41.9921875,-25.390625,-12.6953125,-177.24609375,0.0
145.05859375,-19.53125,-27.34375,-21.484375,-21.97265625,-151.3671875,0.0
145.0625,-33.203125,-32.71484375,-27.34375,-37.109375,-113.76953125,0.0
145.06640625,-45.8984375,-32.2265625,-30.76171875,-30.76171875,-11.71875,0.0
145.0703125,-33.203125,-29.78515625,-32.2265625,-26.85546875,68.84765625,0.0
145.07421875,-32.71484375,-43.9453125,-38.57421875,-41.015625,94.23828125,0.0
145.078125,-43.9453125,-46.38671875,-43.45703125,-49.31640625,37.59765625,0.0
145.08203125,-47.36328125,-45.41015625,-40.0390625,-45.41015625,39.55078125,0.0
145.0859375,-46.38671875,-48.828125,-32.2265625,-26.85546875,47.8515625,0.0
145.08984375,-38.0859375,-42.96875,-34.1796875,-12.20703125,4.39453125,0.0
145.09375,-18.06640625,-33.203125,-37.109375,-16.11328125,0.48828125,0.0
145.09765625,-24.90234375,-32.2265625,-33.203125,-30.76171875,-5.37109375,0.0
145.1015625,-31.25,-36.1328125,-27.83203125,-23.92578125,-18.06640625,0.0
145.10546875,-26.85546875,-41.9921875,-24.4140625,-8.7890625,-8.30078125,0.0
145.109375,-32.71484375,-40.52734375,-26.3671875,0.0,11.23046875,0.0
145.11328125,-34.66796875,-47.36328125,-37.109375,-12.20703125,19.04296875,0.0
145.1171875,-41.50390625,-55.17578125,-40.52734375,-45.41015625,-7.32421875,0.0
145.12109375,-48.33984375,-50.78125,-30.76171875,-47.8515625,-20.01953125,0.0
145.125,-49.8046875,-53.22265625,-26.3671875,-37.59765625,-41.015625,0.0
145.12890625,-33.69140625,-57.6171875,-29.296875,-25.87890625,-7.8125,0.0
145.1328125,-19.04296875,-52.734375,-24.4140625,-26.85546875,-1.46484375,0.0
145.13671875,-9.27734375,-41.015625,-24.4140625,-41.50390625,13.18359375,0.0
145.140625,-18.5546875,-43.45703125,-28.3203125,-33.69140625,-4.39453125,0.0
145.14453125,-26.3671875,-46.38671875,-22.4609375,-20.99609375,-48.33984375,0.0
145.1484375,-25.390625,-42.48046875,-15.625,-18.06640625,-1.953125,0.0
145.15234375,-25.390625,-42.48046875,-20.5078125,-22.4609375,0.9765625,0.0
145.15625,-26.3671875,-44.43359375,-34.1796875,-29.296875,11.23046875,0.0
145.16015625,-30.76171875,-50.29296875,-36.62109375,-48.33984375,-51.26953125,0.0
145.1640625,-33.203125,-43.9453125,-29.296875,-42.48046875,-108.88671875,0.0
145.16796875,-28.80859375,-30.2734375,-21.97265625,-13.671875,-28.3203125,0.0
145.171875,-25.87890625,-29.296875,-24.90234375,-18.5546875,-26.85546875,0.0
145.17578125,-22.94921875,-27.83203125,-27.83203125,-44.43359375,-98.6328125,0.0
145.1796875,-37.109375,-25.390625,-20.99609375,-48.828125,-105.95703125,0.0
145.18359375,-45.41015625,-23.92578125,-20.99609375,-31.25,19.53125,0.0
145.1875,-30.76171875,-20.99609375,-20.5078125,-9.765625,29.296875,0.0
145.19140625,-15.625,-19.53125,-13.18359375,0.48828125,-23.4375,0.0
145.1953125,-10.7421875,-20.5078125,-11.71875,-7.32421875,-35.15625,0.0
145.19921875,-19.53125,-25.87890625,-22.4609375,-22.94921875,-38.0859375,0.0
145.203125,-40.52734375,-34.66796875,-31.73828125,-35.15625,-46.38671875,0.0
145.20703125,-44.921875,-37.109375,-40.0390625,-26.85546875,-89.35546875,0.0
145.2109375,-21.484375,-30.2734375,-37.59765625,-10.7421875,-9.765625,0.0
145.21484375,-4.39453125,-28.80859375,-22.4609375,-25.390625,-13.671875,0.0
145.21875,-21.484375,-35.64453125,-22.94921875,-44.43359375,-14.16015625,0.0
145.22265625,-42.96875,-41.50390625,-22.94921875,-44.43359375,36.1328125,0.0
145.2265625,-41.50390625,-29.78515625,-22.94921875,-27.34375,54.6875,0.0
145.23046875,-26.85546875,-20.5078125,-25.87890625,-12.6953125,45.8984375,0.0
145.234375,-31.25,-29.78515625,-30.2734375,-21.97265625,4.39453125,0.0
145.23828125,-41.9921875,-31.73828125,-33.203125,-36.1328125,55.17578125,0.0
145.2421875,-39.55078125,-23.4375,-24.90234375,-38.0859375,68.84765625,0.0
145.24609375,-46.38671875,-24.4140625,-21.484375,-24.90234375,13.671875,0.0
145.25,-44.921875,-34.66796875,-21.97265625,-15.625,-7.32421875,0.0
145.25390625,-32.71484375,-39.55078125,-33.69140625,-25.390625,-40.0390625,0.0
145.2578125,-37.59765625,-36.1328125,-35.64453125,-35.64453125,-4.39453125,0.0
145.26171875,-28.80859375,-32.2265625,-25.87890625,-35.64453125,13.671875,0.0
145.265625,-25.87890625,-31.73828125,-27.83203125,-36.62109375,-50.29296875,0.0
145.26953125,-43.9453125,-37.109375,-28.3203125,-34.66796875,-11.23046875,0.0
145.2734375,-39.55078125,-43.9453125,-32.71484375,-34.66796875,-30.2734375,0.0
145.27734375,-31.25,-36.1328125,-36.1328125,-39.55078125,-20.99609375,0.0
145.28125,-39.0625,-26.3671875,-39.0625,-40.0390625,75.68359375,0.0
145.28515625,-43.45703125,-31.25,-43.45703125,-35.15625,95.21484375,0.0
145.2890625,-39.0625,-35.64453125,-44.43359375,-20.5078125,26.85546875,0.0
145.29296875,-24.90234375,-31.25,-39.55078125,-11.71875,21.484375,0.0
145.296875,-21.484375,-29.296875,-35.15625,-24.4140625,37.59765625,0.0
145.30078125,-30.76171875,-33.203125,-37.59765625,-34.1796875,64.453125,0.0
145.3046875,-39.0625,-35.15625,-38.0859375,-27.83203125,73.73046875,0.0
145.30859375,-39.55078125,-33.203125,-40.52734375,-16.6015625,62.01171875,0.0
145.3125,-31.73828125,-33.69140625,-30.2734375,-12.20703125,63.4765625,0.0
145.31640625,-22.94921875,-31.73828125,-21.97265625,-20.5078125,67.3828125,0.0
145.3203125,-6.34765625,-27.34375,-23.92578125,-28.3203125,45.8984375,0.0
145.32421875,-22.94921875,-28.3203125,-23.92578125,-21.97265625,-20.99609375,0.0
145.328125,-43.9453125,-31.25,-30.76171875,-13.18359375,16.6015625,0.0
145.33203125,-26.3671875,-30.2734375,-37.109375,-14.16015625,16.11328125,0.0
145.3359375,-17.08984375,-24.4140625,-31.25,-20.5078125,-17.578125,0.0
145.33984375,-14.6484375,-20.01953125,-26.3671875,-31.25,1.46484375,0.0
145.34375,-28.80859375,-21.97265625,-36.1328125,-34.66796875,-76.66015625,0.0
145.34765625,-45.41015625,-30.2734375,-41.015625,-21.484375,-13.671875,0.0
145.3515625,-37.59765625,-35.15625,-38.0859375,-24.4140625,59.08203125,0.0
145.35546875,-29.78515625,-38.0859375,-32.2265625,-44.921875,-81.54296875,0.0
145.359375,-35.15625,-37.109375,-26.3671875,-58.10546875,-174.31640625,0.0
145.36328125,-30.76171875,-29.296875,-26.85546875,-36.1328125,-190.91796875,0.0
145.3671875,-17.578125,-26.3671875,-23.4375,-15.625,-186.03515625,0.0
145.37109375,-10.7421875,-29.78515625,-26.85546875,-30.2734375,-214.35546875,0.0
145.375,-7.32421875,-32.71484375,-35.64453125,-43.45703125,-217.7734375,0.0
145.37890625,-22.94921875,-39.55078125,-39.0625,-53.22265625,-101.5625,0.0
145.3828125,-33.203125,-39.0625,-35.64453125,-42.96875,20.99609375,0.0
145.38671875,-17.08984375,-33.69140625,-27.83203125,-18.5546875,36.62109375,0.0
145.390625,-5.37109375,-46.38671875,-31.25,-12.6953125,13.18359375,0.0
145.39453125,-5.37109375,-57.12890625,-33.69140625,-23.92578125,86.42578125,0.0
145.3984375,-7.32421875,-46.38671875,-31.25,-39.0625,171.875,0.0
145.40234375,-15.13671875,-38.0859375,-29.78515625,-40.52734375,166.015625,0.0
145.40625,-34.1796875,-43.45703125,-35.64453125,-33.203125,129.8828125,0.0
145.41015625,-35.15625,-47.36328125,-40.52734375,-32.2265625,114.2578125,0.0
145.4140625,-11.71875,-41.50390625,-41.015625,-45.8984375,101.5625,0.0
145.41796875,-11.71875,-36.62109375,-46.875,-54.19921875,92.28515625,0.0
145.421875,-21.484375,-41.50390625,-45.8984375,-46.38671875,63.4765625,0.0
145.42578125,-31.73828125,-37.109375,-40.0390625,-23.92578125,63.4765625,0.0
145.4296875,-19.04296875,-33.203125,-36.1328125,-16.6015625,67.3828125,0.0
145.43359375,-7.32421875,-36.62109375,-36.1328125,-33.203125,48.33984375,0.0
145.4375,-21.484375,-34.1796875,-40.52734375,-59.5703125,13.18359375,0.0
145.44140625,-40.52734375,-36.62109375,-40.0390625,-62.01171875,-57.6171875,0.0
145.4453125,-49.8046875,-40.52734375,-35.15625,-50.78125,-66.89453125,0.0
145.44921875,-31.25,-31.73828125,-34.66796875,-46.38671875,45.41015625,0.0
145.453125,-20.5078125,-29.78515625,-33.203125,-36.1328125,120.60546875,0.0
145.45703125,-29.296875,-38.0859375,-33.69140625,-44.43359375,31.73828125,0.0
145.4609375,-22.94921875,-33.69140625,-26.3671875,-49.31640625,18.06640625,0.0
145.46484375,-26.3671875,-28.80859375,-12.6953125,-36.1328125,76.171875,0.0
145.46875,-30.76171875,-29.296875,-11.71875,-20.01953125,72.75390625,0.0
145.47265625,-19.04296875,-29.296875,-27.34375,-15.625,29.78515625,0.0
145.4765625,-18.5546875,-29.296875,-31.73828125,-29.78515625,-27.83203125,0.0
145.48046875,-31.25,-28.3203125,-28.3203125,-50.29296875,-62.98828125,0.0
145.484375,-35.64453125,-29.78515625,-26.85546875,-41.50390625,10.25390625,0.0
145.48828125,-25.87890625,-30.2734375,-29.296875,-22.4609375,95.703125,0.0
145.4921875,-17.08984375,-33.203125,-30.2734375,-22.4609375,12.6953125,0.0
145.49609375,-14.16015625,-31.25,-27.34375,-27.34375,-92.28515625,0.0
145.5,-33.69140625,-26.85546875,-24.90234375,-43.9453125,-86.42578125,0.0
145.50390625,-52.734375,-30.2734375,-19.53125,-47.8515625,22.94921875,0.0
145.5078125,-44.43359375,-40.0390625,-24.90234375,-29.78515625,67.87109375,0.0
145.51171875,-33.203125,-39.55078125,-29.296875,-26.85546875,-24.90234375,0.0
145.515625,-33.69140625,-34.66796875,-18.5546875,-36.62109375,-69.3359375,0.0
145.51953125,-34.1796875,-33.203125,-17.08984375,-39.0625,-98.14453125,0.0
145.5234375,-44.43359375,-31.25,-28.3203125,-39.0625,-140.625,0.0
145.52734375,-52.734375,-33.203125,-34.66796875,-32.2265625,-147.4609375,0.0
145.53125,-40.0390625,-32.71484375,-30.76171875,-23.4375,-25.390625,0.0
145.53515625,-35.15625,-39.0625,-29.78515625,-30.2734375,92.7734375,0.0
145.5390625,-40.0390625,-44.43359375,-29.296875,-48.828125,100.09765625,0.0
145.54296875,-37.59765625,-41.50390625,-25.87890625,-43.9453125,31.73828125,0.0
145.546875,-35.15625,-37.59765625,-23.4375,-13.18359375,-15.13671875,0.0
145.55078125,-25.390625,-38.0859375,-21.97265625,-9.765625,14.6484375,0.0
145.5546875,-20.99609375,-38.0859375,-23.92578125,-34.1796875,15.13671875,0.0
145.55859375,-24.90234375,-44.921875,-32.71484375,-53.7109375,-28.3203125,0.0
145.5625,-22.94921875,-48.828125,-44.921875,-52.24609375,-79.58984375,0.0
145.56640625,-46.875,-44.43359375,-47.8515625,-32.2265625,-90.33203125,0.0
145.5703125,-52.734375,-36.1328125,-35.64453125,-21.484375,-53.7109375,0.0
145.57421875,-26.3671875,-28.80859375,-22.4609375,-25.390625,-150.390625,0.0
145.578125,-26.85546875,-28.3203125,-20.5078125,-42.96875,-206.54296875,0.0
145.58203125,-46.875,-29.78515625,-25.87890625,-62.01171875,-149.4140625,0.0
145.5859375,-35.15625,-32.2265625,-31.25,-42.48046875,-165.0390625,0.0
145.58984375,-19.04296875,-28.3203125,-28.80859375,-17.08984375,-168.45703125,0.0
145.59375,-17.08984375,-24.90234375,-24.4140625,-30.76171875,-156.25,0.0
145.59765625,-15.13671875,-24.90234375,-24.4140625,-45.41015625,-136.71875,0.0
145.6015625,-29.78515625,-27.34375,-30.76171875,-50.78125,-31.25,0.0
145.60546875,-43.45703125,-34.66796875,-32.2265625,-52.734375,7.32421875,0.0
145.609375,-39.55078125,-34.66796875,-21.484375,-40.0390625,46.38671875,0.0
145.61328125,-29.78515625,-35.64453125,-30.2734375,-35.64453125,119.140625,0.0
145.6171875,-34.66796875,-42.48046875,-42.48046875,-46.875,86.42578125,0.0
145.62109375,-41.50390625,-37.59765625,-27.83203125,-52.24609375,71.77734375,0.0
145.625,-35.15625,-31.25,-13.671875,-35.15625,45.41015625,0.0
145.62890625,-34.66796875,-33.203125,-19.53125,-21.484375,-8.30078125,0.0
145.6328125,-32.71484375,-42.48046875,-31.73828125,-26.85546875,18.06640625,0.0
145.63671875,-25.87890625,-41.50390625,-29.78515625,-30.2734375,-8.30078125,0.0
145.640625,-19.04296875,-32.71484375,-26.3671875,-26.3671875,-31.73828125,0.0
145.64453125,-15.625,-36.62109375,-32.71484375,-21.484375,28.80859375,0.0
145.6484375,-18.06640625,-34.66796875,-37.109375,-13.671875,140.13671875,0.0
145.65234375,-1.46484375,-25.390625,-35.15625,-10.25390625,125.9765625,0.0
145.65625,-11.23046875,-31.25,-33.69140625,-17.578125,37.109375,0.0
145.66015625,-39.0625,-38.57421875,-41.9921875,-35.64453125,38.0859375,0.0
145.6640625,-33.69140625,-34.1796875,-45.8984375,-33.203125,-1.46484375,0.0
145.66796875,-26.85546875,-30.76171875,-38.57421875,-6.8359375,0.0,0.0
145.671875,-25.87890625,-34.1796875,-28.80859375,-11.23046875,3.41796875,0.0
145.67578125,-20.5078125,-32.2265625,-30.76171875,-21.97265625,-3.41796875,0.0
145.6796875,-11.71875,-26.3671875,-35.64453125,-26.85546875,64.453125,0.0
145.68359375,-27.83203125,-34.66796875,-41.50390625,-35.64453125,3.90625,0.0
145.6875,-54.6875,-39.55078125,-46.38671875,-33.203125,-38.0859375,0.0
145.69140625,-54.19921875,-41.015625,-42.48046875,-35.64453125,8.7890625,0.0
145.6953125,-44.921875,-41.015625,-38.57421875,-41.50390625,44.43359375,0.0
145.69921875,-47.36328125,-41.015625,-36.62109375,-47.36328125,27.34375,0.0
145.703125,-49.31640625,-47.8515625,-32.2265625,-47.36328125,62.01171875,0.0
145.70703125,-49.8046875,-54.6875,-35.15625,-44.43359375,8.7890625,0.0
145.7109375,-33.69140625,-45.8984375,-37.59765625,-24.90234375,-116.2109375,0.0
145.71484375,-19.04296875,-27.34375,-35.15625,-16.11328125,-35.15625,0.0
145.71875,-22.4609375,-31.25,-40.52734375,-38.0859375,45.41015625,0.0
145.72265625,-31.25,-44.43359375,-49.8046875,-47.36328125,33.69140625,0.0
145.7265625,-47.8515625,-39.0625,-48.33984375,-29.296875,-41.50390625,0.0
145.73046875,-37.59765625,-34.1796875,-43.45703125,-4.8828125,-4.39453125,0.0
145.734375,-4.39453125,-32.2265625,-41.50390625,-16.11328125,50.29296875,0.0
145.73828125,-16.11328125,-29.296875,-50.78125,-41.9921875,-55.17578125,0.0
145.7421875,-44.43359375,-24.4140625,-49.8046875,-39.55078125,-103.02734375,0.0
145.74609375,-39.0625,-26.85546875,-34.1796875,-21.97265625,-54.6875,0.0
145.75,-32.2265625,-37.59765625,-22.94921875,-13.671875,16.6015625,0.0
145.75390625,-26.85546875,-36.1328125,-20.01953125,-29.78515625,66.40625,0.0
145.7578125,-25.87890625,-25.390625,-26.85546875,-40.52734375,78.125,0.0
145.76171875,-26.85546875,-23.92578125,-31.25,-34.1796875,16.6015625,0.0
145.765625,-43.45703125,-31.25,-37.109375,-27.83203125,-41.9921875,0.0
145.76953125,-42.48046875,-31.25,-32.71484375,-21.97265625,14.6484375,0.0
145.7734375,-17.578125,-32.71484375,-29.78515625,-33.203125,44.43359375,0.0
145.77734375,-15.625,-36.62109375,-35.64453125,-52.734375,35.15625,0.0
145.78125,-29.296875,-41.015625,-31.25,-57.12890625,12.20703125,0.0
145.78515625,-34.1796875,-45.41015625,-34.1796875,-45.8984375,56.15234375,0.0
145.7890625,-28.3203125,-42.96875,-36.62109375,-29.296875,27.34375,0.0
145.79296875,-16.6015625,-42.96875,-34.1796875,-28.3203125,-58.59375,0.0
145.796875,-18.06640625,-46.38671875,-30.76171875,-43.45703125,6.34765625,0.0
145.80078125,-25.87890625,-41.9921875,-22.4609375,-46.875,25.87890625,0.0
145.8046875,-36.62109375,-37.59765625,-21.97265625,-39.55078125,1.46484375,0.0
145.80859375,-27.34375,-30.2734375,-22.94921875,-17.578125,-4.39453125,0.0
145.8125,-20.99609375,-27.34375,-23.92578125,-15.13671875,3.41796875,0.0
145.81640625,-33.69140625,-37.59765625,-32.2265625,-45.41015625,6.8359375,0.0
145.8203125,-36.1328125,-43.45703125,-36.1328125,-64.453125,-46.38671875,0.0
145.82421875,-51.26953125,-38.0859375,-35.64453125,-55.17578125,-31.73828125,0.0
145.828125,-53.22265625,-36.1328125,-48.33984375,-34.66796875,4.39453125,0.0
145.83203125,-34.1796875,-36.62109375,-50.78125,-30.76171875,24.4140625,0.0
145.8359375,-37.109375,-37.59765625,-36.62109375,-37.59765625,35.15625,0.0
145.83984375,-43.45703125,-41.50390625,-31.25,-48.33984375,70.80078125,0.0
145.84375,-48.33984375,-43.9453125,-34.1796875,-48.33984375,19.53125,0.0
145.84765625,-55.17578125,-43.9453125,-31.25,-36.1328125,-47.8515625,0.0
145.8515625,-50.29296875,-41.50390625,-30.2734375,-26.3671875,-21.484375,0.0
145.85546875,-28.3203125,-33.203125,-32.2265625,-33.69140625,-20.01953125,0.0
145.859375,-20.99609375,-25.87890625,-29.78515625,-45.41015625,-52.734375,0.0
145.86328125,-24.90234375,-28.3203125,-26.85546875,-29.78515625,-156.25,0.0
145.8671875,-25.390625,-32.2265625,-21.484375,-5.859375,-54.6875,0.0
145.87109375,-16.6015625,-30.76171875,-25.390625,-9.27734375,12.20703125,0.0
145.875,-14.6484375,-32.2265625,-31.73828125,-23.92578125,-11.71875,0.0
145.87890625,-17.08984375,-30.76171875,-23.92578125,-23.92578125,85.9375,0.0
145.8828125,-20.99609375,-25.87890625,-15.13671875,-13.671875,101.07421875,0.0
145.88671875,-31.25,-34.66796875,-20.5078125,-12.6953125,36.1328125,0.0
145.890625,-20.01953125,-39.0625,-35.15625,-16.11328125,28.80859375,0.0
145.89453125,-13.18359375,-35.15625,-41.015625,-20.99609375,55.17578125,0.0
145.8984375,-39.0625,-34.1796875,-40.0390625,-40.52734375,-22.94921875,0.0
145.90234375,-49.31640625,-26.3671875,-35.64453125,-37.59765625,-40.52734375,0.0
145.90625,-34.1796875,-25.390625,-28.3203125,-11.71875,-2.9296875,0.0
145.91015625,-31.25,-32.2265625,-24.90234375,-2.44140625,3.90625,0.0
145.9140625,-27.83203125,-33.203125,-20.01953125,-20.01953125,33.203125,0.0
145.91796875,-32.71484375,-37.109375,-21.97265625,-33.69140625,62.5,0.0
145.921875,-50.78125,-36.1328125,-30.76171875,-32.71484375,7.32421875,0.0
145.92578125,-53.7109375,-26.85546875,-28.80859375,-22.4609375,-18.5546875,0.0
145.9296875,-44.921875,-34.66796875,-33.203125,-20.5078125,-36.62109375,0.0
145.93359375,-31.73828125,-45.41015625,-43.9453125,-28.3203125,9.765625,0.0
145.9375,-46.38671875,-42.96875,-40.52734375,-39.55078125,86.9140625,0.0
145.94140625,-68.359375,-41.015625,-36.62109375,-49.31640625,49.31640625,0.0
145.9453125,-60.05859375,-31.73828125,-41.015625,-28.3203125,66.89453125,0.0
145.94921875,-53.7109375,-25.390625,-39.0625,-6.8359375,-14.16015625,0.0
145.953125,-41.015625,-34.1796875,-22.94921875,-14.6484375,-216.30859375,0.0
145.95703125,-33.203125,-35.64453125,-21.484375,-32.71484375,-233.3984375,0.0
145.9609375,-46.38671875,-38.0859375,-30.76171875,-28.3203125,-194.82421875,0.0
145.96484375,-44.921875,-41.015625,-25.87890625,-12.20703125,-109.375,0.0
145.96875,-41.9921875,-42.96875,-28.3203125,-8.30078125,-12.6953125,0.0
145.97265625,-35.15625,-49.31640625,-34.66796875,-21.97265625,-43.9453125,0.0
145.9765625,-39.55078125,-53.22265625,-37.59765625,-38.57421875,-26.3671875,0.0
145.98046875,-52.24609375,-49.8046875,-39.0625,-41.015625,-63.96484375,0.0
145.984375,-52.24609375,-42.96875,-38.57421875,-29.78515625,-146.484375,0.0
145.98828125,-51.26953125,-41.015625,-38.57421875,-20.99609375,-95.21484375,0.0
145.9921875,-49.31640625,-42.48046875,-39.55078125,-24.4140625,-87.890625,0.0
145.99609375,-48.828125,-40.0390625,-32.2265625,-30.2734375,-109.86328125,0.0
146.0,-45.8984375,-35.64453125,-25.87890625,-42.96875,-35.15625,0.0
146.00390625,-50.29296875,-35.64453125,-35.15625,-42.96875,-38.0859375,0.0
146.0078125,-52.24609375,-35.64453125,-45.8984375,-32.71484375,-42.96875,0.0
146.01171875,-39.55078125,-31.25,-44.921875,-27.83203125,-14.16015625,0.0
146.015625,-28.3203125,-31.73828125,-31.25,-25.390625,15.13671875,0.0
146.01953125,-41.50390625,-39.55078125,-25.390625,-34.1796875,92.28515625,0.0
146.0234375,-58.59375,-41.50390625,-29.296875,-45.8984375,96.6796875,0.0
146.02734375,-48.828125,-36.62109375,-32.71484375,-28.80859375,134.765625,0.0
146.03125,-48.33984375,-32.2265625,-35.15625,-15.625,142.578125,0.0
146.03515625,-36.62109375,-33.69140625,-34.1796875,-24.90234375,25.390625,0.0
146.0390625,-32.2265625,-34.66796875,-39.55078125,-29.296875,-79.1015625,0.0
146.04296875,-45.41015625,-29.78515625,-40.52734375,-26.85546875,-74.70703125,0.0
146.046875,-49.31640625,-32.2265625,-35.64453125,-19.04296875,-44.921875,0.0
146.05078125,-36.1328125,-35.64453125,-35.64453125,-19.04296875,15.625,0.0
146.0546875,-33.69140625,-40.52734375,-37.59765625,-29.296875,53.7109375,0.0
146.05859375,-37.59765625,-42.96875,-40.52734375,-27.34375,80.56640625,0.0
146.0625,-52.24609375,-40.52734375,-35.64453125,-27.83203125,46.38671875,0.0
146.06640625,-56.640625,-40.0390625,-25.87890625,-29.78515625,56.640625,0.0
146.0703125,-35.64453125,-36.62109375,-22.4609375,-36.62109375,89.35546875,0.0
146.07421875,-44.43359375,-38.0859375,-25.87890625,-40.52734375,69.3359375,0.0
146.078125,-57.12890625,-33.69140625,-26.3671875,-35.15625,117.67578125,0.0
146.08203125,-60.546875,-26.3671875,-31.25,-42.96875,124.0234375,0.0
146.0859375,-61.03515625,-32.2265625,-27.34375,-34.1796875,110.3515625,0.0
146.08984375,-60.05859375,-38.0859375,-21.484375,-23.92578125,166.9921875,0.0
146.09375,-51.26953125,-40.52734375,-21.97265625,-35.64453125,101.07421875,0.0
146.09765625,-44.921875,-46.38671875,-24.4140625,-44.43359375,21.484375,0.0
146.1015625,-51.26953125,-44.43359375,-26.85546875,-46.875,-3.41796875,0.0
146.10546875,-52.24609375,-38.57421875,-31.25,-33.69140625,-0.9765625,0.0
146.109375,-43.9453125,-38.0859375,-38.57421875,-27.34375,11.23046875,0.0
146.11328125,-25.87890625,-30.2734375,-29.78515625,-34.1796875,-1.953125,0.0
146.1171875,-22.94921875,-27.34375,-24.90234375,-39.55078125,-10.25390625,0.0
146.12109375,-23.4375,-26.3671875,-22.94921875,-34.66796875,-79.1015625,0.0
146.125,-13.671875,-24.90234375,-20.99609375,-16.6015625,-50.29296875,0.0
146.12890625,-18.06640625,-28.80859375,-22.94921875,1.46484375,3.41796875,0.0
146.1328125,-20.01953125,-28.3203125,-30.76171875,-12.20703125,-36.62109375,0.0
146.13671875,-25.390625,-19.04296875,-42.96875,-29.296875,-13.18359375,0.0
146.140625,-25.87890625,-20.01953125,-37.59765625,-35.15625,-7.32421875,0.0
146.14453125,-18.06640625,-33.69140625,-37.59765625,-31.73828125,33.203125,0.0
146.1484375,-16.6015625,-37.59765625,-42.48046875,-19.53125,53.22265625,0.0
146.15234375,-12.6953125,-31.73828125,-36.62109375,-24.90234375,41.015625,0.0
146.15625,-15.625,-35.64453125,-32.2265625,-40.52734375,102.05078125,0.0
146.16015625,-11.71875,-37.59765625,-22.4609375,-33.69140625,34.1796875,0.0
146.1640625,8.7890625,-31.73828125,-14.6484375,-3.90625,-60.546875,0.0
146.16796875,-9.765625,-21.97265625,-25.390625,-13.18359375,-39.0625,0.0
146.171875,-35.64453125,-15.625,-30.2734375,-42.96875,-9.27734375,0.0
146.17578125,-27.83203125,-27.83203125,-23.92578125,-46.38671875,-9.765625,0.0
146.1796875,-15.625,-35.64453125,-24.4140625,-50.78125,-26.3671875,0.0
146.18359375,-42.48046875,-36.1328125,-34.66796875,-57.6171875,-66.40625,0.0
146.1875,-55.17578125,-37.59765625,-34.1796875,-40.0390625,-96.19140625,0.0
146.19140625,-39.0625,-41.50390625,-37.109375,-46.38671875,11.23046875,0.0
146.1953125,-46.38671875,-42.48046875,-42.96875,-77.1484375,16.6015625,0.0
146.19921875,-46.38671875,-36.1328125,-35.15625,-84.9609375,-64.453125,0.0
146.203125,-51.26953125,-29.296875,-33.69140625,-89.84375,45.8984375,0.0
146.20703125,-43.45703125,-29.296875,-36.1328125,-72.75390625,60.05859375,0.0
146.2109375,-33.69140625,-26.85546875,-27.34375,-65.4296875,-17.578125,0.0
146.21484375,-34.1796875,-19.04296875,-22.94921875,-70.80078125,36.1328125,0.0
146.21875,-42.48046875,-19.04296875,-36.1328125,-86.42578125,84.47265625,0.0
146.22265625,-51.7578125,-23.92578125,-36.62109375,-93.75,98.6328125,0.0
146.2265625,-41.50390625,-22.94921875,-30.2734375,-65.4296875,72.265625,0.0
146.23046875,-25.87890625,-31.25,-33.69140625,-55.17578125,-10.25390625,0.0
146.234375,-16.11328125,-34.1796875,-35.15625,-58.59375,-23.4375,0.0
146.23828125,-14.6484375,-27.34375,-35.15625,-46.38671875,-42.48046875,0.0
146.2421875,-31.25,-30.2734375,-41.50390625,-49.8046875,-51.26953125,0.0
146.24609375,-38.0859375,-30.76171875,-33.203125,-44.43359375,-10.7421875,0.0
146.25,-20.5078125,-24.4140625,-24.90234375,-29.78515625,49.31640625,0.0
146.25390625,-14.16015625,-25.87890625,-33.69140625,-41.50390625,-22.4609375,0.0
146.2578125,-21.97265625,-31.25,-38.57421875,-55.6640625,-83.49609375,0.0
146.26171875,-39.0625,-32.2265625,-40.0390625,-62.01171875,-63.96484375,0.0
146.265625,-39.55078125,-28.80859375,-38.0859375,-54.19921875,-86.9140625,0.0
146.26953125,-19.53125,-28.3203125,-41.50390625,-42.48046875,-56.15234375,0.0
146.2734375,-10.7421875,-27.83203125,-40.0390625,-44.921875,-113.76953125,0.0
146.27734375,-17.578125,-22.4609375,-35.15625,-60.05859375,-169.921875,0.0
146.28125,-19.53125,-25.390625,-36.1328125,-57.6171875,-88.37890625,0.0
146.28515625,-16.6015625,-30.2734375,-28.80859375,-33.203125,-54.6875,0.0
146.2890625,-17.578125,-33.69140625,-23.92578125,-20.99609375,-89.84375,0.0
146.29296875,-19.53125,-26.3671875,-23.92578125,-28.80859375,-102.05078125,0.0
146.296875,-22.4609375,-17.578125,-18.5546875,-38.57421875,-94.23828125,0.0
146.30078125,-31.73828125,-28.80859375,-25.87890625,-41.50390625,-104.00390625,0.0
146.3046875,-32.71484375,-34.1796875,-40.0390625,-34.66796875,-102.5390625,0.0
146.30859375,-25.390625,-32.2265625,-36.62109375,-17.578125,45.41015625,0.0
146.3125,1.46484375,-28.80859375,-19.53125,-19.53125,91.796875,0.0
146.31640625,7.8125,-28.80859375,-15.13671875,-37.109375,100.5859375,0.0
146.3203125,-26.85546875,-32.71484375,-20.5078125,-43.45703125,119.140625,0.0
146.32421875,-33.203125,-38.0859375,-19.04296875,-25.390625,80.56640625,0.0
146.328125,-23.92578125,-41.50390625,-24.4140625,-14.16015625,5.37109375,0.0
146.33203125,-14.6484375,-36.62109375,-32.71484375,-16.6015625,-74.70703125,0.0
146.3359375,-15.625,-33.69140625,-32.71484375,-29.296875,-20.5078125,0.0
146.33984375,-22.4609375,-24.4140625,-27.83203125,-41.9921875,26.3671875,0.0
146.34375,-19.04296875,-16.6015625,-22.94921875,-24.4140625,13.671875,0.0
146.34765625,-12.6953125,-24.4140625,-27.34375,-10.7421875,37.59765625,0.0
146.3515625,-6.8359375,-38.0859375,-40.52734375,-23.92578125,31.25,0.0
146.35546875,-10.7421875,-35.15625,-45.8984375,-31.73828125,49.31640625,0.0
146.359375,-21.97265625,-36.62109375,-38.57421875,-44.921875,26.3671875,0.0
146.36328125,-17.578125,-41.50390625,-32.71484375,-43.9453125,-7.8125,0.0
146.3671875,-11.23046875,-32.71484375,-39.55078125,-16.6015625,-24.4140625,0.0
146.37109375,-7.8125,-34.1796875,-42.48046875,-8.30078125,-55.17578125,0.0
146.375,-0.9765625,-37.109375,-36.1328125,-22.94921875,26.3671875,0.0
146.37890625,-1.953125,-36.1328125,-30.76171875,-39.0625,66.89453125,0.0
146.3828125,-19.04296875,-35.15625,-27.83203125,-35.15625,23.4375,0.0
146.38671875,-13.671875,-28.80859375,-22.94921875,-16.11328125,31.73828125,0.0
146.390625,6.8359375,-26.85546875,-27.83203125,-13.671875,60.05859375,0.0
146.39453125,0.48828125,-28.3203125,-32.2265625,-16.11328125,48.33984375,0.0
146.3984375,-12.20703125,-23.92578125,-27.83203125,-18.5546875,31.25,0.0
146.40234375,-27.83203125,-24.90234375,-21.484375,-21.484375,-4.8828125,0.0
146.40625,-24.4140625,-28.80859375,-24.90234375,-15.625,-6.34765625,0.0
146.41015625,-18.5546875,-31.73828125,-28.80859375,-13.18359375,-66.40625,0.0
146.4140625,-28.80859375,-33.203125,-25.87890625,-17.578125,-65.91796875,0.0
146.41796875,-35.64453125,-33.69140625,-31.25,-24.4140625,3.90625,0.0
146.421875,-45.8984375,-36.62109375,-39.0625,-31.25,-46.875,0.0
146.42578125,-43.9453125,-30.2734375,-39.55078125,-24.4140625,-43.45703125,0.0
146.4296875,-27.34375,-26.85546875,-35.15625,-14.16015625,1.46484375,0.0
146.43359375,-20.01953125,-27.34375,-33.203125,-18.5546875,-15.625,0.0
146.4375,-34.66796875,-26.85546875,-40.0390625,-36.62109375,-36.1328125,0.0
146.44140625,-50.78125,-34.66796875,-40.0390625,-47.36328125,18.5546875,0.0
146.4453125,-53.22265625,-34.1796875,-32.71484375,-41.015625,22.4609375,0.0
146.44921875,-37.109375,-27.34375,-30.76171875,-21.484375,6.8359375,0.0
146.453125,-15.625,-29.296875,-36.1328125,-10.25390625,-0.9765625,0.0
146.45703125,-22.4609375,-30.2734375,-43.45703125,-22.4609375,-32.71484375,0.0
146.4609375,-29.296875,-38.0859375,-36.1328125,-27.34375,20.5078125,0.0
146.46484375,1.46484375,-45.41015625,-26.3671875,8.7890625,-16.11328125,0.0
146.46875,2.9296875,-32.71484375,-32.71484375,7.8125,-89.35546875,0.0
146.47265625,-34.66796875,-23.92578125,-43.45703125,-47.36328125,5.859375,0.0
146.4765625,-41.50390625,-27.83203125,-49.31640625,-66.40625,10.7421875,0.0
146.48046875,-33.203125,-27.83203125,-47.36328125,-58.10546875,-38.0859375,0.0
146.484375,-45.41015625,-26.85546875,-41.015625,-52.734375,10.7421875,0.0
146.48828125,-46.38671875,-23.4375,-34.66796875,-56.15234375,4.8828125,0.0
146.4921875,-30.76171875,-21.484375,-29.78515625,-51.7578125,-47.8515625,0.0
146.49609375,-39.55078125,-29.78515625,-29.296875,-49.31640625,16.6015625,0.0
146.5,-62.01171875,-39.55078125,-30.2734375,-64.453125,44.43359375,0.0
146.50390625,-66.89453125,-43.45703125,-39.0625,-74.21875,0.0,0.0
146.5078125,-64.94140625,-36.1328125,-42.48046875,-61.03515625,34.1796875,0.0
146.51171875,-51.7578125,-24.90234375,-39.0625,-41.015625,21.484375,0.0
146.515625,-38.57421875,-26.3671875,-42.48046875,-48.33984375,-60.05859375,0.0
146.51953125,-37.109375,-32.71484375,-37.59765625,-63.96484375,-23.4375,0.0
146.5234375,-44.43359375,-34.1796875,-36.62109375,-48.828125,-18.06640625,0.0
146.52734375,-40.52734375,-36.1328125,-39.0625,-34.1796875,-96.6796875,0.0
146.53125,-42.96875,-41.9921875,-35.64453125,-47.8515625,-25.87890625,0.0
146.53515625,-53.7109375,-42.96875,-42.96875,-49.8046875,30.2734375,0.0
146.5390625,-46.875,-37.109375,-40.52734375,-48.828125,2.44140625,0.0
146.54296875,-41.015625,-37.59765625,-38.0859375,-64.94140625,-35.64453125,0.0
146.546875,-51.7578125,-46.38671875,-47.36328125,-49.31640625,-30.2734375,0.0
146.55078125,-47.8515625,-45.41015625,-49.8046875,-33.69140625,3.41796875,0.0
146.5546875,-29.78515625,-41.9921875,-53.22265625,-42.96875,-30.76171875,0.0
146.55859375,-32.2265625,-39.0625,-45.8984375,-47.8515625,0.9765625,0.0
146.5625,-37.109375,-37.109375,-29.78515625,-36.1328125,65.4296875,0.0
146.56640625,-46.875,-43.9453125,-29.78515625,-25.390625,31.25,0.0
146.5703125,-57.6171875,-49.31640625,-44.43359375,-24.90234375,-53.22265625,0.0
146.57421875,-31.73828125,-47.8515625,-45.41015625,-28.80859375,21.97265625,0.0
146.578125,-24.4140625,-49.31640625,-33.69140625,-45.8984375,102.05078125,0.0
146.58203125,-36.1328125,-45.8984375,-29.296875,-41.9921875,99.12109375,0.0
146.5859375,-31.73828125,-41.015625,-32.2265625,-24.4140625,51.26953125,0.0
146.58984375,-28.80859375,-39.0625,-25.87890625,-18.06640625,16.6015625,0.0
146.59375,-18.06640625,-39.0625,-16.6015625,-17.578125,107.91015625,0.0
146.59765625,-11.23046875,-36.1328125,-21.484375,-16.11328125,174.31640625,0.0
146.6015625,-5.37109375,-39.0625,-20.5078125,-13.18359375,165.0390625,0.0
146.60546875,-17.08984375,-43.9453125,-26.3671875,-9.765625,113.76953125,0.0
146.609375,-36.62109375,-41.9921875,-36.62109375,-9.27734375,-25.390625,0.0
146.61328125,-31.73828125,-49.8046875,-35.15625,-24.90234375,-33.69140625,0.0
146.6171875,-30.2734375,-52.734375,-36.1328125,-53.22265625,-38.57421875,0.0
146.62109375,-38.57421875,-45.8984375,-37.59765625,-56.640625,-83.984375,0.0
146.625,-48.828125,-42.48046875,-30.2734375,-45.8984375,-13.671875,0.0
146.62890625,-50.78125,-47.36328125,-29.78515625,-36.1328125,42.48046875,0.0
146.6328125,-36.62109375,-38.0859375,-27.83203125,-31.25,-24.90234375,0.0
146.63671875,-21.484375,-25.87890625,-17.578125,-42.96875,-42.48046875,0.0
146.640625,-30.2734375,-29.296875,-19.53125,-52.734375,-38.0859375,0.0
146.64453125,-34.66796875,-28.80859375,-26.3671875,-36.62109375,-6.34765625,0.0
146.6484375,-28.3203125,-32.71484375,-37.109375,-27.83203125,-20.01953125,0.0
146.65234375,-17.578125,-35.15625,-48.33984375,-28.3203125,-50.29296875,0.0
146.65625,-14.16015625,-29.78515625,-44.921875,-25.390625,31.25,0.0
146.66015625,-38.0859375,-29.78515625,-40.52734375,-34.1796875,43.9453125,0.0
146.6640625,-49.31640625,-34.66796875,-40.52734375,-39.55078125,54.19921875,0.0
146.66796875,-40.0390625,-43.45703125,-36.62109375,-30.76171875,118.65234375,0.0
146.671875,-35.15625,-47.36328125,-28.80859375,-21.484375,88.37890625,0.0
146.67578125,-35.64453125,-40.52734375,-27.34375,-21.97265625,46.38671875,0.0
146.6796875,-45.41015625,-35.15625,-33.203125,-36.1328125,20.5078125,0.0
146.68359375,-43.9453125,-35.64453125,-32.2265625,-37.59765625,-20.01953125,0.0
146.6875,-30.2734375,-29.296875,-29.78515625,-24.90234375,7.32421875,0.0
146.69140625,-46.38671875,-28.80859375,-36.1328125,-22.94921875,32.71484375,0.0
146.6953125,-50.78125,-41.50390625,-39.55078125,-43.9453125,-56.15234375,0.0
146.69921875,-42.48046875,-41.50390625,-43.45703125,-55.6640625,-30.76171875,0.0
146.703125,-45.41015625,-33.203125,-43.45703125,-53.22265625,14.6484375,0.0
146.70703125,-36.62109375,-32.71484375,-46.38671875,-48.33984375,-0.9765625,0.0
146.7109375,-41.50390625,-39.55078125,-42.96875,-33.203125,-25.87890625,0.0
146.71484375,-40.52734375,-34.66796875,-32.2265625,-31.73828125,-76.171875,0.0
146.71875,-40.0390625,-34.66796875,-31.25,-53.22265625,-67.3828125,0.0
146.72265625,-45.8984375,-33.203125,-32.71484375,-45.8984375,-9.27734375,0.0
146.7265625,-49.8046875,-28.80859375,-29.78515625,-28.3203125,-3.90625,0.0
146.73046875,-42.48046875,-26.85546875,-33.69140625,-36.1328125,-10.25390625,0.0
146.734375,-30.2734375,-30.76171875,-37.109375,-45.8984375,-3.90625,0.0
146.73828125,-37.109375,-35.15625,-34.1796875,-63.96484375,-56.640625,0.0
146.7421875,-44.921875,-29.78515625,-35.64453125,-61.03515625,-30.76171875,0.0
146.74609375,-45.41015625,-25.390625,-37.109375,-37.109375,-27.34375,0.0
146.75,-41.015625,-28.80859375,-33.69140625,-30.76171875,-58.10546875,0.0
146.75390625,-31.73828125,-27.34375,-30.76171875,-35.64453125,25.390625,0.0
146.7578125,-36.1328125,-27.83203125,-41.9921875,-39.55078125,35.15625,0.0
146.76171875,-51.7578125,-34.1796875,-47.36328125,-44.43359375,-23.4375,0.0
146.765625,-55.17578125,-34.66796875,-40.52734375,-45.8984375,-84.47265625,0.0
146.76953125,-35.15625,-30.76171875,-38.57421875,-30.76171875,-78.61328125,0.0
146.7734375,-23.92578125,-31.25,-29.78515625,-22.4609375,-18.5546875,0.0
146.77734375,-27.83203125,-36.62109375,-23.4375,-41.9921875,-40.52734375,0.0
146.78125,-41.015625,-34.1796875,-29.296875,-60.546875,-31.73828125,0.0
146.78515625,-46.875,-34.1796875,-37.59765625,-53.7109375,23.4375,0.0
146.7890625,-40.0390625,-33.203125,-42.48046875,-38.0859375,40.52734375,0.0
146.79296875,-27.34375,-23.4375,-35.15625,-17.578125,32.71484375,0.0
146.796875,-29.296875,-26.85546875,-32.71484375,-33.203125,0.48828125,0.0
146.80078125,-50.78125,-41.50390625,-48.33984375,-61.03515625,27.34375,0.0
146.8046875,-54.6875,-41.50390625,-45.8984375,-60.05859375,55.17578125,0.0
146.80859375,-44.43359375,-40.52734375,-34.66796875,-39.0625,10.25390625,0.0
146.8125,-40.0390625,-46.38671875,-38.57421875,-25.87890625,-34.1796875,0.0
146.81640625,-32.71484375,-48.828125,-44.921875,-43.9453125,-8.30078125,0.0
146.8203125,-35.64453125,-42.48046875,-49.31640625,-57.12890625,58.10546875,0.0
146.82421875,-37.59765625,-35.64453125,-40.0390625,-47.8515625,7.8125,0.0
146.828125,-30.76171875,-33.69140625,-26.3671875,-20.5078125,-37.59765625,0.0
146.83203125,-23.92578125,-33.203125,-28.3203125,-18.5546875,-6.34765625,0.0
146.8359375,-21.97265625,-43.45703125,-37.59765625,-40.52734375,-31.73828125,0.0
146.83984375,-34.66796875,-54.19921875,-42.96875,-54.19921875,-107.421875,0.0
146.84375,-39.0625,-37.109375,-41.015625,-47.8515625,-41.015625,0.0
146.84765625,-30.76171875,-15.625,-27.83203125,-17.578125,36.1328125,0.0
146.8515625,-28.80859375,-23.4375,-40.0390625,-14.16015625,10.25390625,0.0
146.85546875,-44.43359375,-36.62109375,-52.734375,-37.59765625,-15.13671875,0.0
146.859375,-60.05859375,-41.50390625,-48.828125,-46.38671875,10.7421875,0.0
146.86328125,-65.91796875,-42.96875,-42.96875,-39.55078125,30.2734375,0.0
146.8671875,-63.96484375,-41.50390625,-34.1796875,-40.52734375,35.64453125,0.0
146.87109375,-45.8984375,-40.0390625,-36.1328125,-36.1328125,-17.08984375,0.0
146.875,-44.921875,-42.96875,-36.62109375,-37.59765625,-63.4765625,0.0
146.87890625,-54.6875,-42.48046875,-39.55078125,-50.78125,-63.4765625,0.0
146.8828125,-53.22265625,-39.55078125,-40.52734375,-52.24609375,-77.63671875,0.0
146.88671875,-53.22265625,-31.25,-39.55078125,-28.3203125,-30.76171875,0.0
146.890625,-46.875,-32.2265625,-44.43359375,-22.4609375,38.57421875,0.0
146.89453125,-40.0390625,-40.0390625,-43.9453125,-43.45703125,57.6171875,0.0
146.8984375,-34.1796875,-43.45703125,-41.50390625,-59.08203125,11.23046875,0.0
146.90234375,-40.52734375,-36.62109375,-38.57421875,-51.7578125,-10.7421875,0.0
146.90625,-62.5,-33.69140625,-40.0390625,-38.57421875,-32.71484375,0.0
146.91015625,-57.6171875,-40.0390625,-35.64453125,-33.69140625,-34.1796875,0.0
146.9140625,-44.921875,-46.875,-31.25,-41.9921875,21.484375,0.0
146.91796875,-39.55078125,-44.43359375,-29.296875,-52.734375,35.15625,0.0
146.921875,-40.52734375,-35.15625,-29.78515625,-48.33984375,22.4609375,0.0
146.92578125,-38.57421875,-38.0859375,-39.55078125,-37.59765625,9.27734375,0.0
146.9296875,-7.8125,-36.1328125,-30.2734375,-15.13671875,39.55078125,0.0
146.93359375,-0.48828125,-26.3671875,-18.5546875,-11.23046875,91.30859375,0.0
146.9375,-2.9296875,-30.2734375,-24.4140625,-24.4140625,78.61328125,0.0
146.94140625,-11.71875,-44.921875,-30.2734375,-40.52734375,37.109375,0.0
146.9453125,-31.25,-51.26953125,-43.45703125,-52.734375,-4.8828125,0.0
146.94921875,-20.01953125,-41.9921875,-48.828125,-36.62109375,-55.17578125,0.0
146.953125,-3.90625,-30.76171875,-34.1796875,-25.87890625,-35.64453125,0.0
146.95703125,-1.46484375,-24.90234375,-24.4140625,-39.0625,4.8828125,0.0
146.9609375,-1.953125,-31.25,-32.2265625,-45.41015625,17.08984375,0.0
146.96484375,-11.23046875,-39.0625,-34.1796875,-36.62109375,54.6875,0.0
146.96875,-15.13671875,-41.50390625,-28.3203125,-19.04296875,76.66015625,0.0
146.97265625,-12.6953125,-41.50390625,-23.92578125,-14.6484375,24.4140625,0.0
146.9765625,-11.71875,-30.2734375,-20.01953125,-27.34375,-26.85546875,0.0
146.98046875,-22.94921875,-28.80859375,-23.4375,-41.9921875,-51.26953125,0.0
146.984375,-34.66796875,-35.64453125,-21.484375,-43.45703125,0.9765625,0.0
146.98828125,-40.52734375,-34.1796875,-22.4609375,-33.69140625,53.22265625,0.0
146.9921875,-34.1796875,-32.2265625,-27.34375,-30.2734375,41.9921875,0.0
146.99609375,-37.109375,-40.0390625,-24.4140625,-45.41015625,-13.671875,0.0
147.0,-36.62109375,-41.9921875,-24.90234375,-55.6640625,-53.7109375,0.0
147.00390625,-36.62109375,-33.203125,-28.80859375,-50.29296875,-25.390625,0.0
147.0078125,-47.8515625,-27.83203125,-29.78515625,-33.69140625,38.0859375,0.0
147.01171875,-43.9453125,-27.83203125,-34.1796875,-30.76171875,8.7890625,0.0
147.015625,-36.62109375,-28.80859375,-35.64453125,-36.62109375,-27.83203125,0.0
147.01953125,-38.57421875,-33.203125,-29.296875,-34.66796875,22.94921875,0.0
147.0234375,-50.78125,-38.57421875,-25.87890625,-42.96875,-29.296875,0.0
147.02734375,-44.43359375,-36.1328125,-24.90234375,-38.57421875,-95.21484375,0.0
147.03125,-22.4609375,-31.73828125,-36.1328125,-16.6015625,-97.16796875,0.0
147.03515625,-13.18359375,-31.25,-38.57421875,-18.5546875,-140.625,0.0
147.0390625,-14.6484375,-30.2734375,-29.78515625,-38.57421875,-90.8203125,0.0
147.04296875,-24.90234375,-29.296875,-24.4140625,-36.62109375,13.671875,0.0
147.046875,-20.01953125,-29.296875,-30.2734375,-19.04296875,-37.109375,0.0
147.05078125,-18.5546875,-36.62109375,-44.921875,-27.34375,-8.30078125,0.0
147.0546875,-21.484375,-44.921875,-37.59765625,-44.43359375,25.390625,0.0
147.05859375,-24.90234375,-41.9921875,-32.2265625,-47.36328125,-29.296875,0.0
147.0625,-36.1328125,-33.69140625,-32.2265625,-40.52734375,-1.46484375,0.0
147.06640625,-41.50390625,-28.3203125,-35.64453125,-28.80859375,0.48828125,0.0
147.0703125,-36.1328125,-27.83203125,-33.69140625,-17.578125,-40.52734375,0.0
147.07421875,-25.390625,-29.78515625,-32.2265625,-17.578125,-61.03515625,0.0
147.078125,-36.62109375,-38.57421875,-36.1328125,-33.69140625,-59.5703125,0.0
147.08203125,-56.15234375,-41.9921875,-23.4375,-43.9453125,-37.109375,0.0
147.0859375,-56.15234375,-36.62109375,-20.5078125,-21.97265625,-23.92578125,0.0
147.08984375,-45.8984375,-27.83203125,-27.83203125,-14.16015625,-57.6171875,0.0
147.09375,-26.85546875,-25.87890625,-24.4140625,-15.13671875,-10.25390625,0.0
147.09765625,-29.78515625,-34.66796875,-21.484375,-18.06640625,9.27734375,0.0
147.1015625,-56.15234375,-33.203125,-22.94921875,-38.57421875,-17.578125,0.0
147.10546875,-57.6171875,-20.5078125,-19.04296875,-30.2734375,76.66015625,0.0
147.109375,-44.43359375,-13.18359375,-18.5546875,-23.92578125,78.61328125,0.0
147.11328125,-34.66796875,-14.16015625,-24.90234375,-35.64453125,-41.50390625,0.0
147.1171875,-30.76171875,-20.01953125,-24.4140625,-46.875,-23.92578125,0.0
147.12109375,-24.4140625,-23.4375,-20.99609375,-41.50390625,95.21484375,0.0
147.125,-21.97265625,-24.90234375,-21.484375,-30.2734375,83.984375,0.0
147.12890625,-22.4609375,-28.3203125,-28.3203125,-28.80859375,-4.39453125,0.0
147.1328125,-22.4609375,-34.1796875,-27.34375,-29.78515625,-16.6015625,0.0
147.13671875,-36.1328125,-30.76171875,-20.5078125,-42.48046875,13.18359375,0.0
147.140625,-43.45703125,-31.73828125,-25.87890625,-48.828125,-7.32421875,0.0
147.14453125,-42.96875,-32.2265625,-28.3203125,-34.1796875,-5.37109375,0.0
147.1484375,-38.0859375,-26.3671875,-24.4140625,-12.20703125,26.85546875,0.0
147.15234375,-21.97265625,-14.6484375,-16.11328125,5.37109375,24.90234375,0.0
147.15625,-20.5078125,-17.08984375,-24.4140625,-23.4375,-9.765625,0.0
147.16015625,-33.203125,-33.203125,-39.55078125,-50.29296875,-75.1953125,0.0
147.1640625,-35.64453125,-34.66796875,-46.38671875,-38.57421875,-65.91796875,0.0
147.16796875,-28.80859375,-29.296875,-38.57421875,-27.34375,-5.859375,0.0
147.171875,-21.484375,-32.2265625,-36.1328125,-24.4140625,14.6484375,0.0
147.17578125,-21.484375,-41.50390625,-40.0390625,-34.1796875,67.3828125,0.0
147.1796875,-36.62109375,-37.109375,-24.4140625,-47.36328125,9.27734375,0.0
147.18359375,-44.921875,-29.78515625,-13.671875,-44.921875,-33.203125,0.0
147.1875,-36.1328125,-27.83203125,-21.484375,-36.62109375,70.80078125,0.0
147.19140625,-39.55078125,-30.76171875,-27.34375,-26.3671875,40.0390625,0.0
147.1953125,-43.45703125,-33.69140625,-33.203125,-31.73828125,-0.48828125,0.0
147.19921875,-45.41015625,-31.73828125,-41.50390625,-54.19921875,45.8984375,0.0
147.203125,-52.734375,-27.83203125,-44.921875,-68.359375,55.17578125,0.0
147.20703125,-56.640625,-30.2734375,-37.109375,-57.12890625,24.90234375,0.0
147.2109375,-50.29296875,-38.0859375,-31.73828125,-38.0859375,2.44140625,0.0
147.21484375,-34.1796875,-37.109375,-38.57421875,-34.66796875,-60.05859375,0.0
147.21875,-25.390625,-42.96875,-35.15625,-49.31640625,-29.296875,0.0
147.22265625,-27.34375,-49.31640625,-29.78515625,-43.9453125,42.48046875,0.0
147.2265625,-18.5546875,-41.9921875,-42.48046875,-23.92578125,-126.46484375,0.0
147.23046875,-15.13671875,-33.69140625,-42.96875,-18.06640625,-170.8984375,0.0
147.234375,-11.71875,-24.90234375,-26.85546875,-22.4609375,-92.28515625,0.0
147.23828125,3.90625,-18.06640625,-16.6015625,-22.94921875,-73.2421875,0.0
147.2421875,-28.3203125,-35.64453125,-26.85546875,-31.73828125,5.859375,0.0
147.24609375,-53.22265625,-53.22265625,-40.0390625,-41.9921875,9.27734375,0.0
147.25,-35.15625,-49.8046875,-38.57421875,-35.15625,12.6953125,0.0
147.25390625,-18.06640625,-50.29296875,-34.1796875,-35.15625,-14.6484375,0.0
147.2578125,-22.4609375,-45.8984375,-34.1796875,-40.52734375,-130.37109375,0.0
147.26171875,-29.296875,-36.1328125,-34.1796875,-44.921875,-72.265625,0.0
147.265625,-24.4140625,-41.9921875,-34.66796875,-32.71484375,-12.20703125,0.0
147.26953125,-32.71484375,-43.9453125,-30.2734375,-22.94921875,31.25,0.0
147.2734375,-21.97265625,-38.57421875,-25.390625,-25.390625,28.3203125,0.0
147.27734375,-17.578125,-35.64453125,-33.203125,-31.25,21.97265625,0.0
147.28125,-52.734375,-37.109375,-38.57421875,-45.8984375,69.3359375,0.0
147.28515625,-63.4765625,-42.48046875,-42.96875,-37.59765625,22.4609375,0.0
147.2890625,-42.48046875,-36.62109375,-32.71484375,-17.578125,17.578125,0.0
147.29296875,-28.80859375,-35.15625,-24.4140625,-11.23046875,70.80078125,0.0
147.296875,-37.59765625,-40.52734375,-30.76171875,-35.15625,76.66015625,0.0
147.30078125,-50.29296875,-50.29296875,-32.71484375,-57.12890625,12.6953125,0.0
147.3046875,-52.24609375,-46.38671875,-30.76171875,-40.0390625,57.12890625,0.0
147.30859375,-43.9453125,-34.66796875,-29.78515625,-24.4140625,92.28515625,0.0
147.3125,-42.48046875,-34.66796875,-34.1796875,-32.71484375,44.921875,0.0
147.31640625,-25.390625,-33.69140625,-35.64453125,-37.59765625,26.85546875,0.0
147.3203125,-30.76171875,-33.203125,-37.59765625,-46.38671875,-27.83203125,0.0
147.32421875,-61.5234375,-31.73828125,-36.1328125,-45.41015625,-56.15234375,0.0
147.328125,-40.52734375,-30.76171875,-29.296875,-25.390625,-55.6640625,0.0
147.33203125,-19.53125,-27.83203125,-33.203125,-15.13671875,-52.734375,0.0
147.3359375,-27.34375,-35.15625,-36.1328125,-31.25,27.34375,0.0
147.33984375,-44.921875,-41.9921875,-37.109375,-57.12890625,72.75390625,0.0
147.34375,-52.24609375,-37.109375,-37.59765625,-48.828125,44.921875,0.0
147.34765625,-45.41015625,-34.66796875,-40.52734375,-31.73828125,-20.5078125,0.0
147.3515625,-41.9921875,-30.2734375,-34.1796875,-25.87890625,-17.08984375,0.0
147.35546875,-44.921875,-24.90234375,-23.4375,-26.3671875,50.78125,0.0
147.359375,-48.33984375,-30.2734375,-24.90234375,-36.62109375,31.73828125,0.0
147.36328125,-51.26953125,-33.69140625,-20.01953125,-39.55078125,-91.30859375,0.0
147.3671875,-59.5703125,-28.80859375,-24.4140625,-25.390625,-98.14453125,0.0
147.37109375,-57.12890625,-28.3203125,-33.69140625,-14.6484375,-31.25,0.0
147.375,-39.0625,-24.4140625,-25.390625,-10.7421875,32.71484375,0.0
147.37890625,-35.15625,-24.4140625,-21.484375,-20.99609375,65.4296875,0.0
147.3828125,-57.6171875,-33.69140625,-29.296875,-36.62109375,-20.01953125,0.0
147.38671875,-65.4296875,-38.0859375,-36.62109375,-26.3671875,-2.44140625,0.0
147.390625,-48.828125,-35.64453125,-35.15625,-3.90625,17.08984375,0.0
147.39453125,-37.59765625,-33.203125,-28.80859375,-11.71875,-23.4375,0.0
147.3984375,-45.8984375,-33.69140625,-30.76171875,-38.0859375,-9.765625,0.0
147.40234375,-42.48046875,-34.1796875,-35.15625,-41.015625,-4.39453125,0.0
147.40625,-36.62109375,-38.57421875,-27.34375,-16.11328125,17.578125,0.0
147.41015625,-43.45703125,-48.33984375,-25.390625,-1.953125,-29.78515625,0.0
147.4140625,-30.2734375,-47.8515625,-25.390625,-12.20703125,-60.05859375,0.0
147.41796875,-23.92578125,-37.59765625,-24.4140625,-21.97265625,-57.6171875,0.0
147.421875,-36.62109375,-28.3203125,-24.90234375,-27.83203125,-24.90234375,0.0
147.42578125,-41.9921875,-37.109375,-21.97265625,-20.5078125,-8.30078125,0.0
147.4296875,-38.57421875,-45.8984375,-18.5546875,-18.06640625,-62.01171875,0.0
147.43359375,-33.203125,-43.9453125,-18.5546875,-15.625,-63.96484375,0.0
147.4375,-32.71484375,-38.0859375,-22.94921875,-24.90234375,-23.4375,0.0
147.44140625,-33.203125,-30.76171875,-25.87890625,-29.296875,-17.578125,0.0
147.4453125,-35.64453125,-25.87890625,-25.390625,-15.625,-12.6953125,0.0
147.44921875,-21.484375,-21.97265625,-28.3203125,-9.765625,-16.6015625,0.0
147.453125,-1.46484375,-20.5078125,-37.59765625,-6.8359375,8.30078125,0.0
147.45703125,-16.6015625,-28.3203125,-34.66796875,-12.6953125,13.671875,0.0
147.4609375,-40.0390625,-29.296875,-24.90234375,-28.3203125,-4.39453125,0.0
147.46484375,-39.0625,-22.4609375,-21.97265625,-27.83203125,25.390625,0.0
147.46875,-35.64453125,-20.5078125,-22.94921875,-19.04296875,-40.0390625,0.0
147.47265625,-32.2265625,-19.04296875,-27.83203125,-24.90234375,-110.83984375,0.0
147.4765625,-36.62109375,-22.4609375,-25.87890625,-39.55078125,-0.48828125,0.0
147.48046875,-49.8046875,-29.78515625,-27.83203125,-48.828125,84.47265625,0.0
147.484375,-52.24609375,-36.1328125,-33.69140625,-36.1328125,41.015625,0.0
147.48828125,-48.828125,-36.1328125,-36.1328125,-23.92578125,-14.16015625,0.0
147.4921875,-37.109375,-20.99609375,-36.1328125,-27.83203125,-21.484375,0.0
147.49609375,-25.390625,-18.5546875,-34.66796875,-28.80859375,2.9296875,0.0
147.5,-39.55078125,-38.57421875,-33.69140625,-44.43359375,-65.91796875,0.0
147.50390625,-46.875,-46.875,-34.1796875,-50.29296875,-47.36328125,0.0
147.5078125,-43.45703125,-36.1328125,-28.3203125,-32.2265625,25.390625,0.0
147.51171875,-33.69140625,-30.76171875,-27.34375,-28.3203125,32.2265625,0.0
147.515625,-26.3671875,-39.0625,-37.109375,-41.50390625,-1.953125,0.0
147.51953125,-46.875,-45.8984375,-44.921875,-50.78125,-31.25,0.0
147.5234375,-56.15234375,-47.36328125,-40.52734375,-50.29296875,48.33984375,0.0
147.52734375,-51.7578125,-45.41015625,-34.1796875,-37.59765625,16.6015625,0.0
147.53125,-36.62109375,-39.0625,-36.62109375,-21.97265625,-4.39453125,0.0
147.53515625,-37.59765625,-46.875,-36.62109375,-41.015625,46.38671875,0.0
147.5390625,-48.828125,-53.7109375,-29.78515625,-58.59375,28.3203125,0.0
147.54296875,-42.96875,-45.41015625,-26.3671875,-45.8984375,45.8984375,0.0
147.546875,-39.55078125,-38.57421875,-22.94921875,-33.69140625,84.9609375,0.0
147.55078125,-33.69140625,-35.64453125,-23.92578125,-27.83203125,41.9921875,0.0
147.5546875,-26.3671875,-34.66796875,-24.4140625,-32.71484375,78.125,0.0
147.55859375,-22.94921875,-33.69140625,-20.01953125,-46.875,34.1796875,0.0
147.5625,-28.3203125,-33.203125,-25.390625,-49.8046875,-18.06640625,0.0
147.56640625,-44.921875,-35.15625,-30.76171875,-34.66796875,57.12890625,0.0
147.5703125,-37.59765625,-35.64453125,-23.92578125,-18.06640625,92.28515625,0.0
147.57421875,-20.01953125,-31.25,-32.71484375,-10.25390625,69.3359375,0.0
147.578125,-14.6484375,-33.203125,-37.109375,-18.5546875,28.80859375,0.0
147.58203125,-33.203125,-40.52734375,-30.76171875,-35.15625,32.71484375,0.0
147.5859375,-43.45703125,-38.57421875,-34.66796875,-23.92578125,-10.25390625,0.0
147.58984375,-30.2734375,-28.80859375,-32.2265625,2.9296875,13.671875,0.0
147.59375,-22.94921875,-23.92578125,-23.4375,0.0,59.08203125,0.0
147.59765625,-30.76171875,-29.78515625,-26.3671875,-30.76171875,34.66796875,0.0
147.6015625,-47.36328125,-38.0859375,-35.64453125,-40.52734375,-6.34765625,0.0
147.60546875,-59.5703125,-32.71484375,-30.2734375,-25.390625,-20.5078125,0.0
147.609375,-42.96875,-24.90234375,-24.90234375,-8.30078125,25.390625,0.0
147.61328125,-31.73828125,-31.73828125,-33.69140625,-11.23046875,-1.953125,0.0
147.6171875,-38.57421875,-40.0390625,-40.0390625,-41.015625,-65.4296875,0.0
147.62109375,-41.9921875,-33.203125,-39.55078125,-46.875,-44.921875,0.0
147.625,-43.45703125,-26.3671875,-40.0390625,-34.1796875,-2.9296875,0.0
147.62890625,-34.1796875,-22.94921875,-30.76171875,-14.6484375,-13.671875,0.0
147.6328125,-23.4375,-21.484375,-29.296875,-10.25390625,-56.15234375,0.0
147.63671875,-16.6015625,-24.90234375,-38.0859375,-34.1796875,-77.1484375,0.0
147.640625,-25.390625,-35.15625,-40.52734375,-46.875,14.16015625,0.0
147.64453125,-42.48046875,-33.203125,-38.57421875,-41.015625,24.4140625,0.0
147.6484375,-35.15625,-26.85546875,-36.62109375,-31.73828125,-44.43359375,0.0
147.65234375,-20.5078125,-28.80859375,-27.83203125,-30.2734375,-44.43359375,0.0
147.65625,-17.08984375,-32.71484375,-29.78515625,-38.57421875,-49.8046875,0.0
147.66015625,-28.80859375,-34.1796875,-38.57421875,-50.78125,9.27734375,0.0
147.6640625,-20.01953125,-31.25,-33.203125,-39.0625,0.9765625,0.0
147.66796875,0.0,-26.85546875,-23.4375,-5.859375,-101.07421875,0.0
147.671875,-27.83203125,-24.90234375,-23.4375,-21.484375,-56.640625,0.0
147.67578125,-49.8046875,-26.3671875,-27.83203125,-62.5,-65.4296875,0.0
147.6796875,-41.50390625,-28.3203125,-24.4140625,-60.546875,-79.58984375,0.0
147.68359375,-48.33984375,-29.78515625,-28.80859375,-44.921875,-54.6875,0.0
147.6875,-49.31640625,-35.15625,-37.109375,-52.734375,-113.76953125,0.0
147.69140625,-38.57421875,-42.48046875,-42.48046875,-60.546875,-62.98828125,0.0
147.6953125,-49.8046875,-45.41015625,-43.9453125,-79.58984375,-13.18359375,0.0
147.69921875,-53.22265625,-43.45703125,-34.66796875,-82.51953125,-117.67578125,0.0
147.703125,-47.36328125,-35.64453125,-26.3671875,-62.98828125,-72.265625,0.0
147.70703125,-45.41015625,-37.109375,-19.53125,-61.03515625,44.921875,0.0
147.7109375,-36.62109375,-41.9921875,-26.85546875,-55.6640625,11.71875,0.0
147.71484375,-34.1796875,-41.015625,-36.62109375,-52.734375,-27.34375,0.0
147.71875,-36.62109375,-39.0625,-26.85546875,-66.40625,-13.671875,0.0
147.72265625,-39.55078125,-34.66796875,-21.97265625,-66.40625,13.671875,0.0
147.7265625,-34.66796875,-37.59765625,-30.2734375,-41.015625,18.06640625,0.0
147.73046875,-23.4375,-43.45703125,-40.52734375,-37.109375,11.23046875,0.0
147.734375,-5.859375,-38.0859375,-40.52734375,-43.9453125,-5.37109375,0.0
147.73828125,-9.765625,-35.15625,-38.57421875,-40.0390625,-21.484375,0.0
147.7421875,-24.90234375,-45.41015625,-51.7578125,-47.36328125,-64.453125,0.0
147.74609375,-28.3203125,-44.921875,-55.17578125,-48.33984375,-137.6953125,0.0
147.75,-21.484375,-38.0859375,-43.45703125,-27.34375,-77.1484375,0.0
147.75390625,-2.44140625,-27.34375,-31.73828125,-20.01953125,-40.0390625,0.0
147.7578125,-6.34765625,-23.4375,-25.390625,-44.921875,-32.2265625,0.0
147.76171875,-32.71484375,-36.62109375,-30.2734375,-61.03515625,17.578125,0.0
147.765625,-45.8984375,-44.921875,-42.48046875,-53.7109375,28.80859375,0.0
147.76953125,-43.45703125,-40.0390625,-43.45703125,-41.9921875,1.46484375,0.0
147.7734375,-19.04296875,-38.57421875,-42.96875,-42.48046875,26.3671875,0.0
147.77734375,-12.20703125,-40.52734375,-47.36328125,-54.19921875,57.6171875,0.0
147.78125,-32.71484375,-44.921875,-43.45703125,-55.17578125,59.08203125,0.0
147.78515625,-48.33984375,-51.26953125,-37.109375,-44.921875,0.0,0.0
147.7890625,-40.52734375,-46.38671875,-33.203125,-34.1796875,-63.96484375,0.0
147.79296875,-24.90234375,-33.203125,-30.76171875,-30.2734375,-34.66796875,0.0
147.796875,-24.4140625,-25.87890625,-27.83203125,-35.64453125,79.1015625,0.0
147.80078125,-30.76171875,-24.90234375,-32.71484375,-31.25,101.07421875,0.0
147.8046875,-43.45703125,-31.25,-37.59765625,-28.80859375,69.82421875,0.0
147.80859375,-38.57421875,-35.64453125,-38.0859375,-24.4140625,59.5703125,0.0
147.8125,-22.94921875,-35.15625,-37.109375,-21.484375,-29.78515625,0.0
147.81640625,-20.5078125,-32.71484375,-33.69140625,-31.73828125,-56.640625,0.0
147.8203125,-27.83203125,-33.203125,-33.203125,-51.7578125,-22.94921875,0.0
147.82421875,-37.109375,-38.57421875,-42.48046875,-45.8984375,-29.78515625,0.0
147.828125,-35.64453125,-36.62109375,-44.921875,-30.2734375,-21.484375,0.0
147.83203125,-34.1796875,-35.15625,-41.50390625,-41.9921875,-15.13671875,0.0
147.8359375,-35.64453125,-36.1328125,-46.38671875,-49.31640625,1.953125,0.0
147.83984375,-46.875,-35.15625,-43.9453125,-51.7578125,-6.34765625,0.0
147.84375,-52.734375,-38.0859375,-39.55078125,-41.015625,-56.640625,0.0
147.84765625,-41.50390625,-41.50390625,-35.64453125,-20.99609375,-28.80859375,0.0
147.8515625,-32.2265625,-45.41015625,-37.109375,-29.78515625,25.390625,0.0
147.85546875,-29.296875,-43.45703125,-52.24609375,-41.50390625,50.78125,0.0
147.859375,-38.57421875,-45.8984375,-55.6640625,-44.43359375,55.6640625,0.0
147.86328125,-43.45703125,-44.921875,-40.52734375,-40.52734375,56.15234375,0.0
147.8671875,-40.52734375,-40.0390625,-38.0859375,-28.80859375,30.2734375,0.0
147.87109375,-30.76171875,-40.0390625,-34.1796875,-13.18359375,54.6875,0.0
147.875,-20.01953125,-37.109375,-24.4140625,-28.80859375,38.0859375,0.0
147.87890625,-34.66796875,-39.55078125,-30.76171875,-60.546875,-52.24609375,0.0
147.8828125,-47.36328125,-38.0859375,-29.296875,-44.921875,-36.1328125,0.0
147.88671875,-44.921875,-31.73828125,-19.53125,-26.3671875,17.578125,0.0
147.890625,-34.66796875,-26.85546875,-19.53125,-19.04296875,31.25,0.0
147.89453125,-28.3203125,-26.85546875,-23.92578125,-28.3203125,25.390625,0.0
147.8984375,-35.15625,-27.83203125,-30.2734375,-48.33984375,31.25,0.0
147.90234375,-45.41015625,-26.3671875,-30.2734375,-40.0390625,61.03515625,0.0
147.90625,-41.9921875,-25.87890625,-30.76171875,-22.94921875,76.171875,0.0
147.91015625,-35.15625,-28.3203125,-35.15625,-13.18359375,82.51953125,0.0
147.9140625,-28.80859375,-25.87890625,-28.80859375,-13.671875,51.26953125,0.0
147.91796875,-20.5078125,-19.04296875,-24.4140625,-28.3203125,-10.25390625,0.0
147.921875,-28.80859375,-23.92578125,-23.92578125,-34.66796875,-52.734375,0.0
147.92578125,-41.9921875,-31.73828125,-23.4375,-28.80859375,-36.62109375,0.0
147.9296875,-37.109375,-26.3671875,-29.78515625,-16.6015625,-13.18359375,0.0
147.93359375,-21.97265625,-22.94921875,-37.109375,-18.5546875,0.48828125,0.0
147.9375,-11.23046875,-25.390625,-33.203125,-39.55078125,41.9921875,0.0
147.94140625,-19.04296875,-27.83203125,-30.2734375,-41.9921875,82.51953125,0.0
147.9453125,-34.66796875,-38.0859375,-36.1328125,-29.78515625,82.51953125,0.0
147.94921875,-36.62109375,-39.55078125,-37.109375,-11.23046875,12.6953125,0.0
147.953125,-29.296875,-37.59765625,-31.25,-8.30078125,-7.8125,0.0
147.95703125,-30.2734375,-44.43359375,-35.15625,-35.64453125,5.859375,0.0
147.9609375,-42.96875,-40.52734375,-34.1796875,-44.921875,-9.765625,0.0
147.96484375,-37.109375,-30.2734375,-36.1328125,-27.34375,-51.26953125,0.0
147.96875,-17.08984375,-29.78515625,-32.71484375,-2.44140625,-102.5390625,0.0
147.97265625,-16.11328125,-25.390625,-20.01953125,0.0,-91.30859375,0.0
147.9765625,-22.4609375,-19.04296875,-22.94921875,-17.578125,6.34765625,0.0
147.98046875,-27.34375,-25.390625,-27.34375,-25.390625,80.078125,0.0
147.984375,-37.59765625,-34.1796875,-27.83203125,-25.87890625,64.94140625,0.0
147.98828125,-39.55078125,-38.57421875,-31.25,-23.4375,-10.7421875,0.0
147.9921875,-24.90234375,-42.48046875,-31.25,-25.87890625,-76.171875,0.0
147.99609375,-25.390625,-41.9921875,-26.85546875,-40.52734375,-71.77734375,0.0
148.0,-33.69140625,-39.0625,-33.203125,-46.38671875,-18.5546875,0.0
148.00390625,-33.69140625,-36.62109375,-28.80859375,-28.80859375,-12.20703125,0.0
148.0078125,-25.87890625,-36.62109375,-14.6484375,-8.30078125,-20.01953125,0.0
148.01171875,-9.27734375,-32.71484375,-10.7421875,-9.765625,27.34375,0.0
148.015625,-11.23046875,-31.25,-9.27734375,-28.3203125,23.4375,0.0
148.01953125,-26.85546875,-39.0625,-18.06640625,-38.0859375,-67.3828125,0.0
148.0234375,-32.71484375,-36.62109375,-22.94921875,-39.55078125,-46.38671875,0.0
148.02734375,-22.4609375,-25.87890625,-12.20703125,-20.01953125,-3.90625,0.0
148.03125,-16.11328125,-27.34375,-18.5546875,-14.6484375,-44.43359375,0.0
148.03515625,-14.6484375,-33.203125,-23.4375,-30.2734375,2.9296875,0.0
148.0390625,-29.296875,-38.57421875,-23.4375,-43.9453125,14.6484375,0.0
148.04296875,-45.41015625,-35.64453125,-24.90234375,-41.015625,-34.66796875,0.0
148.046875,-48.33984375,-30.2734375,-19.53125,-24.4140625,-32.71484375,0.0
148.05078125,-42.48046875,-25.390625,-23.4375,-22.94921875,-62.01171875,0.0
148.0546875,-29.78515625,-28.80859375,-33.203125,-31.25,-36.1328125,0.0
148.05859375,-39.55078125,-35.64453125,-37.109375,-33.69140625,52.24609375,0.0
148.0625,-42.96875,-34.1796875,-29.296875,-25.87890625,63.4765625,0.0
148.06640625,-39.55078125,-29.296875,-24.4140625,-13.18359375,25.87890625,0.0
148.0703125,-39.55078125,-32.71484375,-28.80859375,-8.30078125,12.6953125,0.0
148.07421875,-45.8984375,-41.015625,-37.109375,-28.80859375,9.27734375,0.0
148.078125,-51.7578125,-39.55078125,-49.8046875,-57.6171875,-25.390625,0.0
148.08203125,-47.36328125,-32.71484375,-36.62109375,-55.17578125,21.97265625,0.0
148.0859375,-43.9453125,-26.3671875,-26.3671875,-36.1328125,39.0625,0.0
148.08984375,-29.296875,-23.4375,-32.2265625,-15.13671875,-9.765625,0.0
148.09375,-5.37109375,-25.87890625,-33.203125,-13.671875,45.8984375,0.0
148.09765625,-20.99609375,-25.390625,-33.203125,-34.66796875,46.875,0.0
148.1015625,-33.203125,-28.3203125,-39.0625,-41.9921875,-7.32421875,0.0
148.10546875,-27.34375,-28.3203125,-41.50390625,-34.66796875,-20.99609375,0.0
148.109375,-18.5546875,-22.4609375,-35.64453125,-12.6953125,-102.5390625,0.0
148.11328125,2.9296875,-17.08984375,-28.3203125,2.44140625,-114.2578125,0.0
148.1171875,2.44140625,-20.99609375,-26.3671875,-14.16015625,-43.45703125,0.0
148.12109375,-17.08984375,-29.78515625,-29.78515625,-32.71484375,22.94921875,0.0
148.125,-31.73828125,-29.78515625,-28.80859375,-35.15625,20.5078125,0.0
148.12890625,-32.71484375,-28.80859375,-34.66796875,-27.34375,9.765625,0.0
148.1328125,-26.3671875,-29.78515625,-40.0390625,-24.4140625,-7.8125,0.0
148.13671875,-28.3203125,-28.3203125,-38.57421875,-36.1328125,21.484375,0.0
148.140625,-29.78515625,-30.76171875,-29.296875,-41.015625,43.9453125,0.0
148.14453125,-32.2265625,-36.1328125,-20.01953125,-28.3203125,14.16015625,0.0
148.1484375,-34.66796875,-38.57421875,-26.85546875,-0.9765625,-12.20703125,0.0
148.15234375,-29.78515625,-29.78515625,-29.78515625,7.32421875,-42.96875,0.0
148.15625,-33.203125,-23.4375,-26.85546875,-10.25390625,-20.99609375,0.0
148.16015625,-46.38671875,-27.83203125,-28.80859375,-29.296875,-8.30078125,0.0
148.1640625,-51.7578125,-35.15625,-30.76171875,-37.109375,-9.765625,0.0
148.16796875,-41.015625,-36.1328125,-34.66796875,-28.3203125,-47.36328125,0.0
148.171875,-25.390625,-32.2265625,-33.69140625,-16.11328125,-55.17578125,0.0
148.17578125,-14.6484375,-33.69140625,-32.71484375,-24.90234375,-68.84765625,0.0
148.1796875,-24.90234375,-35.64453125,-35.64453125,-36.1328125,-41.9921875,0.0
148.18359375,-47.36328125,-35.64453125,-39.0625,-27.34375,-1.953125,0.0
148.1875,-43.45703125,-41.50390625,-36.62109375,-17.578125,-7.32421875,0.0
148.19140625,-33.69140625,-41.50390625,-33.69140625,-25.390625,-42.48046875,0.0
148.1953125,-29.78515625,-32.71484375,-42.48046875,-37.109375,-97.16796875,0.0
148.19921875,-33.203125,-28.80859375,-43.9453125,-41.9921875,-35.64453125,0.0
148.203125,-35.64453125,-40.52734375,-42.48046875,-41.9921875,11.71875,0.0
148.20703125,-34.1796875,-51.7578125,-39.55078125,-37.109375,-0.9765625,0.0
148.2109375,-42.96875,-44.921875,-36.62109375,-35.64453125,44.921875,0.0
148.21484375,-35.64453125,-43.9453125,-33.203125,-40.0390625,13.671875,0.0
148.21875,-36.62109375,-40.0390625,-30.76171875,-51.7578125,-28.80859375,0.0
148.22265625,-41.9921875,-37.59765625,-35.15625,-54.6875,25.87890625,0.0
148.2265625,-44.43359375,-42.48046875,-36.1328125,-38.57421875,61.03515625,0.0
148.23046875,-34.1796875,-35.15625,-33.69140625,-19.53125,36.1328125,0.0
148.234375,-20.01953125,-33.203125,-29.78515625,-23.4375,-16.11328125,0.0
148.23828125,-30.76171875,-36.1328125,-34.66796875,-31.73828125,-19.53125,0.0
148.2421875,-34.1796875,-33.69140625,-41.50390625,-28.80859375,-47.36328125,0.0
148.24609375,-39.0625,-31.73828125,-37.59765625,-20.01953125,-16.11328125,0.0
148.25,-50.29296875,-35.64453125,-33.69140625,-15.625,22.94921875,0.0
148.25390625,-45.41015625,-44.921875,-38.57421875,-28.3203125,40.52734375,0.0
148.2578125,-44.921875,-47.36328125,-46.38671875,-49.8046875,75.68359375,0.0
148.26171875,-47.8515625,-45.8984375,-39.0625,-55.17578125,14.6484375,0.0
148.265625,-46.875,-49.8046875,-34.66796875,-38.57421875,14.6484375,0.0
148.26953125,-48.33984375,-37.59765625,-33.203125,-21.484375,18.06640625,0.0
148.2734375,-36.62109375,-29.296875,-28.3203125,-16.11328125,-13.18359375,0.0
148.27734375,-33.69140625,-37.109375,-31.25,-38.57421875,40.0390625,0.0
148.28125,-47.36328125,-42.48046875,-47.36328125,-56.15234375,97.65625,0.0
148.28515625,-44.43359375,-44.921875,-42.48046875,-44.43359375,11.23046875,0.0
148.2890625,-36.62109375,-39.0625,-30.2734375,-29.296875,47.36328125,0.0
148.29296875,-37.109375,-41.015625,-30.76171875,-28.80859375,81.54296875,0.0
148.296875,-51.26953125,-53.7109375,-31.25,-43.9453125,-61.03515625,0.0
148.30078125,-60.546875,-51.7578125,-34.1796875,-50.78125,-143.5546875,0.0
148.3046875,-48.33984375,-39.55078125,-23.92578125,-38.57421875,-119.62890625,0.0
148.30859375,-46.875,-39.55078125,-18.06640625,-21.97265625,5.37109375,0.0
148.3125,-39.0625,-36.62109375,-20.01953125,-17.578125,17.578125,0.0
148.31640625,-32.2265625,-29.296875,-25.390625,-38.57421875,-10.25390625,0.0
148.3203125,-47.8515625,-36.1328125,-28.3203125,-59.5703125,-5.859375,0.0
148.32421875,-33.203125,-35.64453125,-26.3671875,-44.921875,-27.83203125,0.0
148.328125,-11.71875,-28.80859375,-21.484375,-20.5078125,-18.5546875,0.0
148.33203125,-14.16015625,-32.2265625,-25.390625,-20.99609375,-11.23046875,0.0
148.3359375,-13.18359375,-35.64453125,-27.34375,-31.25,-17.578125,0.0
148.33984375,-16.6015625,-37.109375,-37.109375,-40.52734375,-42.96875,0.0
148.34375,-26.85546875,-41.015625,-49.31640625,-37.109375,-2.9296875,0.0
148.34765625,-34.1796875,-39.0625,-33.69140625,-28.80859375,116.69921875,0.0
148.3515625,-20.99609375,-33.203125,-21.484375,-25.87890625,81.54296875,0.0
148.35546875,-23.4375,-42.96875,-32.2265625,-37.109375,-36.1328125,0.0
148.359375,-44.43359375,-52.24609375,-39.55078125,-54.19921875,-4.8828125,0.0
148.36328125,-55.6640625,-43.45703125,-36.1328125,-54.6875,22.94921875,0.0
148.3671875,-69.82421875,-41.9921875,-38.0859375,-53.22265625,-85.9375,0.0
148.37109375,-67.87109375,-44.921875,-38.0859375,-44.43359375,-69.3359375,0.0
148.375,-60.05859375,-40.0390625,-38.57421875,-42.96875,-1.46484375,0.0
148.37890625,-61.5234375,-36.1328125,-46.38671875,-65.4296875,8.30078125,0.0
148.3828125,-60.546875,-35.15625,-40.0390625,-59.08203125,81.54296875,0.0
148.38671875,-50.78125,-31.25,-28.3203125,-39.55078125,74.70703125,0.0
148.390625,-37.109375,-28.80859375,-30.2734375,-29.296875,38.0859375,0.0
148.39453125,-27.83203125,-36.62109375,-38.57421875,-33.203125,20.01953125,0.0
148.3984375,-25.87890625,-38.0859375,-41.9921875,-47.36328125,3.41796875,0.0
148.40234375,-37.59765625,-36.62109375,-42.48046875,-48.828125,37.59765625,0.0
148.40625,-50.29296875,-43.45703125,-37.109375,-41.50390625,-7.8125,0.0
148.41015625,-40.52734375,-41.9921875,-25.87890625,-21.484375,-15.625,0.0
148.4140625,-25.87890625,-37.109375,-18.5546875,-21.97265625,64.453125,0.0
148.41796875,-35.64453125,-34.66796875,-20.01953125,-39.55078125,36.1328125,0.0
148.421875,-56.640625,-35.15625,-21.97265625,-41.9921875,-53.22265625,0.0
148.42578125,-53.7109375,-35.64453125,-17.578125,-32.2265625,-46.875,0.0
148.4296875,-28.80859375,-37.109375,-17.08984375,-14.16015625,-7.32421875,0.0
148.43359375,-14.16015625,-34.1796875,-20.99609375,-10.7421875,21.97265625,0.0
148.4375,-9.765625,-31.25,-29.296875,-35.64453125,-10.7421875,0.0
148.44140625,-3.41796875,-27.34375,-40.52734375,-42.48046875,-47.8515625,0.0
148.4453125,-20.01953125,-26.85546875,-36.62109375,-25.87890625,-78.125,0.0
148.44921875,-24.90234375,-34.66796875,-25.87890625,-17.08984375,-96.19140625,0.0
148.453125,-9.27734375,-40.52734375,-20.99609375,-16.11328125,-54.19921875,0.0
148.45703125,-15.625,-35.64453125,-19.53125,-26.85546875,10.7421875,0.0
148.4609375,-22.94921875,-28.80859375,-19.53125,-28.80859375,-30.2734375,0.0
148.46484375,-32.2265625,-32.71484375,-14.16015625,-15.625,-161.1328125,0.0
148.46875,-44.921875,-32.2265625,-15.13671875,-12.20703125,-190.91796875,0.0
148.47265625,-38.57421875,-22.94921875,-25.87890625,-20.01953125,-131.34765625,0.0
148.4765625,-38.0859375,-27.34375,-33.203125,-41.015625,-78.61328125,0.0
148.48046875,-50.29296875,-34.1796875,-41.015625,-64.94140625,-85.44921875,0.0
148.484375,-48.828125,-37.59765625,-44.921875,-55.17578125,-86.9140625,0.0
148.48828125,-45.8984375,-39.55078125,-40.52734375,-32.2265625,-137.20703125,0.0
148.4921875,-39.0625,-35.15625,-33.203125,-34.1796875,-121.58203125,0.0
148.49609375,-21.97265625,-30.76171875,-33.69140625,-47.36328125,-140.13671875,0.0
148.5,-20.01953125,-30.2734375,-37.59765625,-51.7578125,-117.1875,0.0
148.50390625,-25.390625,-32.71484375,-37.59765625,-41.015625,12.20703125,0.0
148.5078125,-20.5078125,-32.2265625,-28.80859375,-21.97265625,111.81640625,0.0
148.51171875,-20.99609375,-33.203125,-26.85546875,-20.01953125,159.1796875,0.0
148.515625,-19.53125,-30.76171875,-31.25,-23.92578125,179.6875,0.0
148.51953125,-32.71484375,-34.1796875,-30.76171875,-49.31640625,143.06640625,0.0
148.5234375,-54.19921875,-39.55078125,-33.203125,-62.5,134.765625,0.0
148.52734375,-47.8515625,-37.109375,-37.59765625,-33.203125,45.41015625,0.0
148.53125,-33.69140625,-39.55078125,-35.15625,-29.296875,-34.66796875,0.0
148.53515625,-23.92578125,-49.31640625,-32.71484375,-41.015625,-26.85546875,0.0
148.5390625,-26.3671875,-52.24609375,-38.0859375,-48.828125,-26.85546875,0.0
148.54296875,-30.76171875,-41.015625,-41.9921875,-46.875,-17.578125,0.0
148.546875,-18.06640625,-29.78515625,-40.0390625,-15.625,46.875,0.0
148.55078125,7.32421875,-20.99609375,-37.109375,7.32421875,77.63671875,0.0
148.5546875,23.4375,-16.11328125,-38.0859375,-1.953125,39.55078125,0.0
148.55859375,6.34765625,-11.71875,-38.57421875,-9.27734375,72.265625,0.0
148.5625,-16.6015625,-16.6015625,-28.80859375,-16.6015625,68.84765625,0.0
148.56640625,-25.87890625,-27.34375,-30.76171875,-18.5546875,37.59765625,0.0
148.5703125,-26.85546875,-31.25,-39.0625,-17.578125,25.87890625,0.0
148.57421875,-28.3203125,-31.25,-41.015625,-21.484375,61.5234375,0.0
148.578125,-34.1796875,-34.1796875,-42.96875,-28.3203125,85.44921875,0.0
148.58203125,-44.921875,-42.48046875,-37.109375,-35.15625,33.203125,0.0
148.5859375,-38.0859375,-30.76171875,-28.80859375,-20.5078125,11.23046875,0.0
148.58984375,-18.06640625,-21.97265625,-21.97265625,-15.13671875,20.01953125,0.0
148.59375,-20.5078125,-33.203125,-25.390625,-26.85546875,21.484375,0.0
148.59765625,-21.97265625,-37.109375,-33.69140625,-32.71484375,16.6015625,0.0
148.6015625,-24.90234375,-33.69140625,-35.64453125,-36.62109375,47.36328125,0.0
148.60546875,-37.109375,-27.83203125,-35.15625,-20.5078125,-6.8359375,0.0
148.609375,-37.109375,-32.71484375,-39.0625,-10.25390625,-35.64453125,0.0
148.61328125,-24.90234375,-35.64453125,-39.55078125,-35.15625,25.390625,0.0
148.6171875,-29.296875,-33.203125,-34.1796875,-48.828125,54.6875,0.0
148.62109375,-37.59765625,-28.3203125,-38.0859375,-47.36328125,93.26171875,0.0
148.625,-43.9453125,-34.1796875,-40.0390625,-38.0859375,10.7421875,0.0
148.62890625,-43.9453125,-40.52734375,-34.1796875,-20.01953125,-5.37109375,0.0
148.6328125,-39.0625,-37.109375,-34.66796875,-31.25,27.83203125,0.0
148.63671875,-23.4375,-35.15625,-42.48046875,-50.29296875,-28.3203125,0.0
148.640625,-27.83203125,-36.62109375,-45.8984375,-47.8515625,-17.08984375,0.0
148.64453125,-49.8046875,-39.55078125,-43.9453125,-38.0859375,-22.4609375,0.0
148.6484375,-49.8046875,-35.15625,-45.41015625,-25.87890625,-80.56640625,0.0
148.65234375,-32.71484375,-34.1796875,-41.015625,-16.6015625,-68.84765625,0.0
148.65625,-29.296875,-42.96875,-38.57421875,-25.390625,-26.3671875,0.0
148.66015625,-36.62109375,-44.921875,-41.015625,-32.71484375,-52.24609375,0.0
148.6640625,-31.25,-36.1328125,-28.80859375,-8.30078125,-133.30078125,0.0
148.66796875,-33.69140625,-24.90234375,-18.06640625,-12.6953125,-110.3515625,0.0
148.671875,-43.9453125,-27.83203125,-20.01953125,-33.203125,-57.6171875,0.0
148.67578125,-34.66796875,-28.80859375,-32.2265625,-33.69140625,64.94140625,0.0
148.6796875,-23.4375,-28.80859375,-40.0390625,-45.8984375,133.7890625,0.0
148.68359375,-40.52734375,-37.59765625,-36.62109375,-47.36328125,-33.69140625,0.0
148.6875,-58.59375,-44.921875,-42.96875,-29.296875,-155.2734375,0.0
148.69140625,-41.015625,-42.48046875,-41.9921875,-17.08984375,-82.03125,0.0
148.6953125,-25.87890625,-34.1796875,-44.43359375,-26.3671875,7.32421875,0.0
148.69921875,-25.390625,-29.78515625,-46.38671875,-37.109375,-19.53125,0.0
148.703125,-19.53125,-22.94921875,-33.69140625,-31.25,-56.15234375,0.0
148.70703125,-16.11328125,-24.4140625,-28.80859375,-12.20703125,12.6953125,0.0
148.7109375,-14.16015625,-36.62109375,-29.78515625,3.90625,76.171875,0.0
148.71484375,-12.6953125,-35.64453125,-27.34375,-8.7890625,76.66015625,0.0
148.71875,-20.99609375,-31.25,-22.94921875,-28.80859375,13.671875,0.0
148.72265625,-26.85546875,-35.64453125,-21.484375,-28.3203125,28.80859375,0.0
148.7265625,-34.1796875,-34.66796875,-22.94921875,-14.6484375,85.44921875,0.0
148.73046875,-38.0859375,-32.71484375,-35.64453125,-10.25390625,54.6875,0.0
148.734375,-33.69140625,-34.66796875,-41.015625,-25.390625,41.9921875,0.0
148.73828125,-41.9921875,-34.66796875,-34.1796875,-37.109375,-29.78515625,0.0
148.7421875,-62.98828125,-34.1796875,-31.25,-42.48046875,-72.265625,0.0
148.74609375,-50.78125,-36.1328125,-31.25,-32.71484375,-45.8984375,0.0
148.75,-35.15625,-33.69140625,-32.71484375,-17.08984375,-93.26171875,0.0
148.75390625,-36.62109375,-30.2734375,-29.296875,-16.6015625,-151.85546875,0.0
148.7578125,-23.92578125,-25.390625,-26.3671875,-32.71484375,-103.02734375,0.0
148.76171875,-17.578125,-18.06640625,-30.2734375,-47.36328125,-10.25390625,0.0
148.765625,-17.578125,-20.5078125,-33.203125,-44.921875,36.1328125,0.0
148.76953125,-14.16015625,-30.2734375,-38.0859375,-29.78515625,75.1953125,0.0
148.7734375,-3.41796875,-30.2734375,-41.015625,-24.90234375,91.796875,0.0
148.77734375,-6.8359375,-28.80859375,-38.0859375,-45.41015625,23.4375,0.0
148.78125,-20.99609375,-34.66796875,-32.2265625,-48.33984375,38.57421875,0.0
148.78515625,-32.71484375,-37.59765625,-40.0390625,-35.64453125,26.3671875,0.0
148.7890625,-39.0625,-37.59765625,-43.9453125,-29.296875,-64.453125,0.0
148.79296875,-20.99609375,-35.64453125,-30.76171875,-23.92578125,-26.3671875,0.0
148.796875,-15.625,-34.66796875,-30.76171875,-38.0859375,25.390625,0.0
148.80078125,-33.203125,-32.2265625,-38.0859375,-54.6875,41.9921875,0.0
148.8046875,-41.015625,-34.1796875,-33.203125,-38.57421875,95.703125,0.0
148.80859375,-33.69140625,-36.1328125,-26.85546875,-14.16015625,166.9921875,0.0
148.8125,-23.92578125,-24.4140625,-26.3671875,-21.484375,122.55859375,0.0
148.81640625,-28.80859375,-18.06640625,-26.85546875,-45.8984375,41.9921875,0.0
148.8203125,-36.62109375,-24.4140625,-28.3203125,-49.8046875,-0.9765625,0.0
148.82421875,-47.8515625,-28.80859375,-31.73828125,-40.0390625,-33.203125,0.0
148.828125,-50.29296875,-25.87890625,-29.296875,-27.83203125,-57.12890625,0.0
148.83203125,-42.48046875,-31.73828125,-31.73828125,-18.06640625,-47.8515625,0.0
148.8359375,-38.57421875,-36.1328125,-34.1796875,-29.78515625,-18.5546875,0.0
148.83984375,-38.57421875,-34.66796875,-31.25,-48.33984375,-16.6015625,0.0
148.84375,-40.52734375,-40.0390625,-36.62109375,-47.8515625,2.44140625,0.0
148.84765625,-42.96875,-43.45703125,-36.1328125,-25.390625,-20.01953125,0.0
148.8515625,-33.69140625,-34.66796875,-36.62109375,-6.34765625,-59.08203125,0.0
148.85546875,-24.90234375,-33.69140625,-41.9921875,-19.53125,-93.26171875,0.0
148.859375,-24.90234375,-36.62109375,-36.1328125,-39.0625,-41.015625,0.0
148.86328125,-28.80859375,-33.69140625,-28.80859375,-32.2265625,-1.46484375,0.0
148.8671875,-25.87890625,-39.55078125,-27.34375,-17.578125,-79.1015625,0.0
148.87109375,-6.8359375,-40.52734375,-30.76171875,-8.7890625,-36.62109375,0.0
148.875,0.0,-35.15625,-36.1328125,-5.37109375,72.75390625,0.0
148.87890625,-1.46484375,-29.78515625,-31.25,-15.625,66.40625,0.0
148.8828125,0.0,-29.296875,-26.85546875,-19.53125,23.92578125,0.0
148.88671875,-6.8359375,-34.66796875,-30.76171875,-9.27734375,30.2734375,0.0
148.890625,-4.39453125,-33.69140625,-36.62109375,5.37109375,66.40625,0.0
148.89453125,10.7421875,-30.76171875,-37.59765625,0.0,71.2890625,0.0
148.8984375,10.25390625,-23.4375,-25.87890625,-20.5078125,13.18359375,0.0
148.90234375,-8.30078125,-22.94921875,-22.4609375,-23.4375,-8.7890625,0.0
148.90625,-17.08984375,-27.34375,-27.34375,-13.18359375,-3.41796875,0.0
148.91015625,-13.18359375,-28.80859375,-41.015625,-6.8359375,-78.61328125,0.0
148.9140625,-4.8828125,-28.3203125,-47.8515625,-15.625,-143.06640625,0.0
148.91796875,-9.27734375,-15.13671875,-29.78515625,-23.4375,-42.48046875,0.0
148.921875,-21.97265625,-18.06640625,-16.11328125,-22.94921875,52.734375,0.0
148.92578125,-22.94921875,-31.73828125,-19.53125,-18.5546875,-56.15234375,0.0
148.9296875,-24.4140625,-30.76171875,-18.5546875,-8.30078125,-67.87109375,0.0
148.93359375,-20.01953125,-25.390625,-20.01953125,-8.7890625,25.390625,0.0
148.9375,-10.7421875,-20.5078125,-14.16015625,-26.85546875,-8.30078125,0.0
148.94140625,-11.71875,-20.01953125,-13.671875,-37.109375,-37.109375,0.0
148.9453125,-26.85546875,-20.5078125,-23.4375,-22.94921875,-41.50390625,0.0
148.94921875,-35.64453125,-26.3671875,-26.3671875,-3.41796875,-41.9921875,0.0
148.953125,-25.87890625,-34.1796875,-26.85546875,-19.04296875,-34.66796875,0.0
148.95703125,-28.80859375,-34.66796875,-28.80859375,-49.8046875,-10.7421875,0.0
148.9609375,-36.62109375,-32.71484375,-34.66796875,-56.640625,-56.15234375,0.0
148.96484375,-35.64453125,-30.76171875,-36.1328125,-36.1328125,-80.56640625,0.0
148.96875,-32.71484375,-37.59765625,-30.76171875,-20.99609375,-26.85546875,0.0
148.97265625,-15.625,-35.64453125,-20.99609375,-29.296875,30.2734375,0.0
148.9765625,-15.625,-27.34375,-20.99609375,-51.26953125,64.94140625,0.0
148.98046875,-34.66796875,-33.69140625,-24.4140625,-56.15234375,46.875,0.0
148.984375,-38.57421875,-38.0859375,-19.04296875,-42.96875,64.94140625,0.0
148.98828125,-33.203125,-34.1796875,-21.484375,-31.25,35.15625,0.0
148.9921875,-22.4609375,-38.0859375,-30.2734375,-33.69140625,-45.41015625,0.0
148.99609375,-20.5078125,-41.50390625,-35.15625,-52.24609375,-28.3203125,0.0
149.0,-26.85546875,-39.0625,-35.64453125,-62.5,32.2265625,0.0
149.00390625,-30.76171875,-37.109375,-33.69140625,-55.6640625,50.29296875,0.0
149.0078125,-26.3671875,-37.59765625,-30.2734375,-36.62109375,61.5234375,0.0
149.01171875,-11.71875,-38.57421875,-26.3671875,-20.01953125,35.15625,0.0
149.015625,-6.34765625,-34.66796875,-20.01953125,-23.4375,11.71875,0.0
149.01953125,-16.11328125,-33.69140625,-20.01953125,-32.71484375,14.6484375,0.0
149.0234375,-16.6015625,-31.73828125,-31.73828125,-25.87890625,28.80859375,0.0
149.02734375,-7.32421875,-20.01953125,-33.203125,-3.41796875,-27.83203125,0.0
149.03125,-6.34765625,-17.08984375,-24.90234375,3.41796875,-79.58984375,0.0
149.03515625,-14.16015625,-27.83203125,-22.4609375,-19.53125,-48.33984375,0.0
149.0390625,-22.4609375,-28.80859375,-23.92578125,-43.45703125,-5.37109375,0.0
149.04296875,-39.55078125,-28.3203125,-30.76171875,-45.8984375,-14.6484375,0.0
149.046875,-46.875,-36.1328125,-36.1328125,-33.203125,-67.87109375,0.0
149.05078125,-33.69140625,-31.73828125,-28.80859375,-16.6015625,-17.578125,0.0
149.0546875,-25.87890625,-27.34375,-23.92578125,-23.92578125,24.4140625,0.0
149.05859375,-23.92578125,-35.15625,-25.390625,-38.57421875,18.5546875,0.0
149.0625,-40.0390625,-40.52734375,-29.296875,-44.43359375,34.66796875,0.0
149.06640625,-53.22265625,-38.57421875,-32.71484375,-36.1328125,32.71484375,0.0
149.0703125,-38.57421875,-34.66796875,-34.66796875,-25.390625,45.8984375,0.0
149.07421875,-43.9453125,-38.57421875,-37.59765625,-35.64453125,13.18359375,0.0
149.078125,-57.12890625,-45.8984375,-34.66796875,-44.921875,-6.34765625,0.0
149.08203125,-62.01171875,-42.96875,-33.203125,-52.734375,8.30078125,0.0
149.0859375,-67.3828125,-39.0625,-36.62109375,-53.7109375,-38.57421875,0.0
149.08984375,-62.5,-46.38671875,-42.96875,-44.921875,-101.07421875,0.0
149.09375,-56.640625,-57.12890625,-52.24609375,-43.9453125,-83.49609375,0.0
149.09765625,-46.38671875,-57.6171875,-43.45703125,-49.31640625,23.4375,0.0
149.1015625,-47.8515625,-51.26953125,-33.203125,-51.26953125,-12.6953125,0.0
149.10546875,-41.50390625,-44.921875,-28.3203125,-32.2265625,-102.5390625,0.0
149.109375,-32.71484375,-45.8984375,-30.2734375,-16.6015625,-73.73046875,0.0
149.11328125,-25.390625,-43.45703125,-36.62109375,-20.01953125,-103.515625,0.0
149.1171875,-21.97265625,-34.66796875,-36.1328125,-20.99609375,-103.02734375,0.0
149.12109375,-41.015625,-32.71484375,-27.34375,-26.3671875,-18.06640625,0.0
149.125,-43.9453125,-29.296875,-28.3203125,-24.4140625,-3.90625,0.0
149.12890625,-33.203125,-20.5078125,-28.3203125,-7.8125,-67.3828125,0.0
149.1328125,-28.3203125,-26.85546875,-23.4375,-8.30078125,-49.8046875,0.0
149.13671875,-29.296875,-37.59765625,-30.2734375,-23.92578125,-1.953125,0.0
149.140625,-26.85546875,-33.69140625,-36.62109375,-36.1328125,60.546875,0.0
149.14453125,-21.484375,-33.203125,-29.78515625,-29.78515625,124.0234375,0.0
149.1484375,-25.87890625,-39.55078125,-26.85546875,-17.08984375,-20.99609375,0.0
149.15234375,-15.13671875,-41.015625,-30.2734375,-13.671875,-158.203125,0.0
149.15625,-9.765625,-42.96875,-34.1796875,-19.53125,-118.65234375,0.0
149.16015625,-20.5078125,-38.0859375,-33.69140625,-31.25,-65.4296875,0.0
149.1640625,-33.69140625,-36.1328125,-34.66796875,-34.66796875,-65.4296875,0.0
149.16796875,-25.87890625,-32.71484375,-39.55078125,-18.06640625,-60.546875,0.0
149.171875,-22.4609375,-27.83203125,-38.0859375,-22.4609375,65.91796875,0.0
149.17578125,-23.92578125,-27.34375,-30.76171875,-42.96875,81.0546875,0.0
149.1796875,-22.4609375,-23.4375,-29.78515625,-47.8515625,17.578125,0.0
149.18359375,-43.9453125,-35.15625,-39.0625,-46.875,-0.9765625,0.0
149.1875,-49.31640625,-42.96875,-41.50390625,-36.62109375,5.859375,0.0
149.19140625,-25.87890625,-41.015625,-41.9921875,-23.4375,74.21875,0.0
149.1953125,-37.59765625,-43.9453125,-39.0625,-38.0859375,19.53125,0.0
149.19921875,-56.640625,-49.31640625,-39.55078125,-57.6171875,-49.8046875,0.0
149.203125,-54.19921875,-50.29296875,-40.52734375,-44.921875,-22.94921875,0.0
149.20703125,-48.33984375,-44.921875,-32.71484375,-24.4140625,97.65625,0.0
149.2109375,-37.109375,-40.0390625,-28.80859375,-27.34375,181.640625,0.0
149.21484375,-25.87890625,-37.59765625,-27.83203125,-30.2734375,103.02734375,0.0
149.21875,-34.1796875,-39.0625,-31.25,-37.109375,59.08203125,0.0
149.22265625,-61.5234375,-39.55078125,-47.8515625,-53.7109375,33.69140625,0.0
149.2265625,-53.7109375,-33.69140625,-43.45703125,-45.8984375,21.484375,0.0
149.23046875,-25.390625,-33.203125,-23.4375,-23.92578125,-18.06640625,0.0
149.234375,-23.92578125,-35.64453125,-25.87890625,-25.87890625,33.203125,0.0
149.23828125,-35.15625,-31.73828125,-29.296875,-45.8984375,49.31640625,0.0
149.2421875,-41.9921875,-35.15625,-29.296875,-51.7578125,-43.9453125,0.0
149.24609375,-38.57421875,-37.59765625,-29.78515625,-39.55078125,2.44140625,0.0
149.25,-29.296875,-35.64453125,-22.4609375,-20.99609375,31.25,0.0
149.25390625,-19.04296875,-40.0390625,-23.4375,-25.390625,17.08984375,0.0
149.2578125,-25.390625,-34.66796875,-31.73828125,-40.0390625,58.59375,0.0
149.26171875,-34.66796875,-30.2734375,-29.296875,-34.66796875,22.4609375,0.0
149.265625,-33.69140625,-34.1796875,-28.80859375,-32.71484375,0.0,0.0
149.26953125,-17.08984375,-32.2265625,-32.2265625,-28.3203125,-2.9296875,0.0
149.2734375,-11.71875,-30.76171875,-29.78515625,-28.80859375,36.1328125,0.0
149.27734375,-27.34375,-33.203125,-29.78515625,-46.38671875,82.51953125,0.0
149.28125,-33.203125,-34.66796875,-32.71484375,-46.38671875,43.45703125,0.0
149.28515625,-44.921875,-40.0390625,-37.109375,-37.59765625,8.30078125,0.0
149.2890625,-44.921875,-40.52734375,-38.0859375,-29.296875,36.1328125,0.0
149.29296875,-31.73828125,-36.62109375,-28.80859375,-21.97265625,-107.421875,0.0
149.296875,-24.4140625,-32.71484375,-28.80859375,-17.578125,-177.734375,0.0
149.30078125,-22.4609375,-33.203125,-39.55078125,-22.4609375,-96.19140625,0.0
149.3046875,-26.3671875,-32.71484375,-40.0390625,-32.2265625,-172.36328125,0.0
149.30859375,-29.296875,-26.85546875,-26.85546875,-20.99609375,-155.76171875,0.0
149.3125,-15.625,-25.87890625,-17.578125,-13.671875,-71.2890625,0.0
149.31640625,-8.30078125,-28.3203125,-17.578125,-29.296875,20.99609375,0.0
149.3203125,-21.97265625,-33.203125,-18.5546875,-41.9921875,108.3984375,0.0
149.32421875,-30.2734375,-31.25,-23.4375,-30.76171875,47.36328125,0.0
149.328125,-18.5546875,-30.76171875,-20.99609375,-6.34765625,-27.83203125,0.0
149.33203125,-9.765625,-27.83203125,-23.92578125,-4.39453125,-10.25390625,0.0
149.3359375,-14.6484375,-24.4140625,-38.0859375,-20.5078125,-26.3671875,0.0
149.33984375,-12.6953125,-28.80859375,-41.50390625,-31.25,-27.83203125,0.0
149.34375,-26.3671875,-30.76171875,-31.73828125,-36.1328125,-64.453125,0.0
149.34765625,-30.76171875,-27.83203125,-22.4609375,-17.578125,-88.37890625,0.0
149.3515625,-20.5078125,-31.25,-18.5546875,-5.37109375,-69.3359375,0.0
149.35546875,-21.97265625,-26.3671875,-25.87890625,-18.5546875,-40.0390625,0.0
149.359375,-33.69140625,-26.3671875,-40.52734375,-34.66796875,-30.2734375,0.0
149.36328125,-48.828125,-35.15625,-48.828125,-41.50390625,-21.484375,0.0
149.3671875,-60.546875,-36.62109375,-44.43359375,-42.48046875,48.828125,0.0
149.37109375,-41.015625,-30.2734375,-41.9921875,-22.4609375,79.58984375,0.0
149.375,-2.44140625,-31.25,-41.015625,-4.8828125,38.0859375,0.0
149.37890625,-26.85546875,-41.50390625,-41.50390625,-29.296875,-2.44140625,0.0
149.3828125,-65.91796875,-46.875,-42.48046875,-51.7578125,6.34765625,0.0
149.38671875,-44.921875,-44.43359375,-32.71484375,-32.71484375,49.8046875,0.0
149.390625,-20.01953125,-40.52734375,-34.66796875,-7.8125,-14.16015625,0.0
149.39453125,-20.5078125,-41.9921875,-35.15625,-10.25390625,-63.96484375,0.0
149.3984375,-40.52734375,-38.0859375,-32.71484375,-32.2265625,28.3203125,0.0
149.40234375,-41.9921875,-28.3203125,-31.73828125,-35.64453125,101.5625,0.0
149.40625,-30.76171875,-27.83203125,-32.71484375,-21.484375,64.453125,0.0
149.41015625,-38.0859375,-30.76171875,-25.87890625,-16.6015625,15.625,0.0
149.4140625,-22.94921875,-27.34375,-20.5078125,-20.99609375,51.26953125,0.0
149.41796875,-36.62109375,-26.3671875,-22.4609375,-38.0859375,69.3359375,0.0
149.421875,-68.84765625,-35.64453125,-21.97265625,-47.8515625,18.5546875,0.0
149.42578125,-56.640625,-41.9921875,-17.578125,-26.3671875,-2.9296875,0.0
149.4296875,-52.24609375,-38.0859375,-10.25390625,-10.7421875,-1.953125,0.0
149.43359375,-60.546875,-33.69140625,-10.25390625,-28.3203125,-3.90625,0.0
149.4375,-61.5234375,-35.15625,-17.08984375,-49.31640625,16.11328125,0.0
149.44140625,-60.546875,-45.8984375,-17.08984375,-56.15234375,-83.0078125,0.0
149.4453125,-72.265625,-49.31640625,-10.7421875,-53.22265625,-58.59375,0.0
149.44921875,-67.87109375,-45.8984375,-11.23046875,-31.25,37.59765625,0.0
149.453125,-47.8515625,-46.38671875,-10.25390625,-25.390625,28.3203125,0.0
149.45703125,-59.5703125,-55.17578125,-23.92578125,-53.22265625,56.15234375,0.0
149.4609375,-70.3125,-57.6171875,-34.66796875,-68.359375,4.39453125,0.0
149.46484375,-60.05859375,-49.31640625,-20.99609375,-43.9453125,-12.20703125,0.0
149.46875,-50.29296875,-46.875,-10.7421875,-4.8828125,-24.90234375,0.0
149.47265625,-52.734375,-51.7578125,-17.08984375,-14.6484375,-73.73046875,0.0
149.4765625,-60.546875,-60.05859375,-28.80859375,-42.96875,-17.08984375,0.0
149.48046875,-46.38671875,-58.59375,-26.85546875,-34.1796875,-14.16015625,0.0
149.484375,-38.57421875,-48.33984375,-22.4609375,-12.20703125,-59.08203125,0.0
149.48828125,-50.29296875,-47.8515625,-23.4375,-2.44140625,-37.109375,0.0
149.4921875,-39.55078125,-49.31640625,-16.11328125,-6.34765625,-48.33984375,0.0
149.49609375,-20.5078125,-50.29296875,-13.671875,-7.8125,-15.13671875,0.0
149.5,-25.87890625,-57.12890625,-11.71875,-11.71875,17.08984375,0.0
149.50390625,-32.71484375,-56.15234375,-5.859375,-13.18359375,-0.48828125,0.0
149.5078125,-22.94921875,-53.7109375,-5.37109375,10.25390625,-46.38671875,0.0
149.51171875,-11.71875,-57.6171875,-17.08984375,7.8125,13.18359375,0.0
149.515625,-20.01953125,-55.17578125,-22.94921875,-0.48828125,75.1953125,0.0
149.51953125,-31.73828125,-49.31640625,-20.5078125,-7.32421875,73.2421875,0.0
149.5234375,-28.80859375,-46.875,-22.4609375,-31.73828125,93.26171875,0.0
149.52734375,-24.4140625,-43.9453125,-17.578125,-16.11328125,72.265625,0.0
149.53125,-14.16015625,-41.9921875,-22.94921875,6.34765625,94.23828125,0.0
149.53515625,0.9765625,-47.36328125,-30.2734375,4.8828125,73.73046875,0.0
149.5390625,-5.37109375,-55.17578125,-28.80859375,-15.625,-28.80859375,0.0
149.54296875,-18.06640625,-46.875,-27.34375,-21.97265625,-78.125,0.0
149.546875,-13.671875,-42.48046875,-16.11328125,1.46484375,-58.10546875,0.0
149.55078125,-11.23046875,-48.828125,-12.6953125,16.11328125,-48.33984375,0.0
149.5546875,-11.23046875,-48.33984375,-20.99609375,9.27734375,-38.0859375,0.0
149.55859375,-18.5546875,-44.921875,-34.1796875,-12.6953125,36.62109375,0.0
149.5625,-28.80859375,-48.33984375,-41.9921875,-27.83203125,47.36328125,0.0
149.56640625,-24.90234375,-49.8046875,-39.55078125,-26.3671875,-22.4609375,0.0
149.5703125,-11.71875,-42.96875,-34.1796875,-14.6484375,-50.78125,0.0
149.57421875,-7.8125,-37.59765625,-36.62109375,-15.13671875,-5.37109375,0.0
149.578125,-15.625,-33.203125,-38.57421875,-27.83203125,23.92578125,0.0
149.58203125,-20.99609375,-29.296875,-25.87890625,-29.296875,-15.13671875,0.0
149.5859375,-26.3671875,-33.203125,-23.4375,-8.30078125,-49.8046875,0.0
149.58984375,-22.4609375,-34.1796875,-24.4140625,19.04296875,8.7890625,0.0
149.59375,-14.16015625,-29.78515625,-19.04296875,14.16015625,97.65625,0.0
149.59765625,-6.8359375,-33.203125,-22.4609375,-1.953125,37.59765625,0.0
149.6015625,-12.20703125,-32.2265625,-24.4140625,-10.7421875,-71.2890625,0.0
149.60546875,-11.71875,-24.4140625,-21.484375,-0.9765625,-46.38671875,0.0
149.609375,-0.9765625,-23.4375,-23.92578125,15.13671875,-4.8828125,0.0
149.61328125,-3.90625,-30.2734375,-25.390625,9.765625,-46.38671875,0.0
149.6171875,-8.7890625,-34.66796875,-31.25,-1.46484375,-89.84375,0.0
149.62109375,0.9765625,-25.87890625,-37.59765625,0.0,-21.484375,0.0
149.625,-1.953125,-27.34375,-36.1328125,-0.48828125,17.578125,0.0
149.62890625,-6.8359375,-33.203125,-33.69140625,8.7890625,-86.42578125,0.0
149.6328125,4.8828125,-32.2265625,-24.90234375,9.765625,-62.98828125,0.0
149.63671875,18.5546875,-36.1328125,-14.6484375,-18.06640625,26.3671875,0.0
149.640625,7.8125,-33.69140625,-17.578125,-32.2265625,48.33984375,0.0
149.64453125,-22.4609375,-30.2734375,-19.04296875,-22.4609375,10.25390625,0.0
149.6484375,-27.83203125,-30.76171875,-18.5546875,-9.27734375,-38.57421875,0.0
149.65234375,-24.90234375,-32.2265625,-24.4140625,-11.71875,30.76171875,0.0
149.65625,-29.78515625,-35.64453125,-31.25,-25.390625,23.92578125,0.0
149.66015625,-40.52734375,-38.0859375,-30.76171875,-41.50390625,-34.66796875,0.0
149.6640625,-48.828125,-31.25,-23.92578125,-44.921875,77.63671875,0.0
149.66796875,-43.45703125,-25.87890625,-25.87890625,-24.4140625,142.578125,0.0
149.671875,-38.0859375,-29.296875,-31.73828125,-16.6015625,50.78125,0.0
149.67578125,-35.64453125,-31.73828125,-33.203125,-44.43359375,-78.61328125,0.0
149.6796875,-37.59765625,-31.73828125,-33.69140625,-59.08203125,-84.47265625,0.0
149.68359375,-58.59375,-33.69140625,-37.109375,-50.78125,-28.3203125,0.0
149.6875,-63.4765625,-36.1328125,-37.59765625,-42.48046875,-53.7109375,0.0
149.69140625,-43.45703125,-37.59765625,-29.296875,-35.64453125,-76.66015625,0.0
149.6953125,-36.62109375,-30.76171875,-30.2734375,-35.15625,-38.0859375,0.0
149.69921875,-50.29296875,-28.80859375,-47.8515625,-41.9921875,6.34765625,0.0
149.703125,-55.6640625,-35.15625,-58.59375,-52.24609375,-52.734375,0.0
149.70703125,-49.31640625,-32.71484375,-45.8984375,-35.64453125,-89.84375,0.0
149.7109375,-36.1328125,-21.484375,-30.76171875,-3.41796875,-50.78125,0.0
149.71484375,-21.97265625,-11.71875,-30.2734375,-3.90625,-36.1328125,0.0
149.71875,-27.34375,-20.01953125,-34.66796875,-28.80859375,1.46484375,0.0
149.72265625,-40.0390625,-31.73828125,-26.85546875,-21.484375,46.875,0.0
149.7265625,-41.015625,-33.69140625,-11.23046875,-3.90625,-63.4765625,0.0
149.73046875,-30.2734375,-24.90234375,-12.6953125,0.0,-137.20703125,0.0
149.734375,-22.94921875,-22.4609375,-22.94921875,-8.30078125,-131.34765625,0.0
149.73828125,-20.99609375,-26.3671875,-27.34375,-28.80859375,-195.80078125,0.0
149.7421875,-23.92578125,-24.90234375,-23.92578125,-26.85546875,-154.78515625,0.0
149.74609375,-28.80859375,-21.484375,-13.671875,-4.8828125,-13.18359375,0.0
149.75,-19.53125,-25.390625,-25.87890625,-0.48828125,72.75390625,0.0
149.75390625,-19.53125,-31.73828125,-39.55078125,-24.4140625,18.5546875,0.0
149.7578125,-31.25,-40.52734375,-33.203125,-42.96875,-37.109375,0.0
149.76171875,-30.2734375,-39.55078125,-33.69140625,-41.50390625,77.63671875,0.0
149.765625,-39.55078125,-36.1328125,-30.2734375,-32.71484375,56.15234375,0.0
149.76953125,-41.50390625,-37.59765625,-22.4609375,-19.04296875,-35.15625,0.0
149.7734375,-23.4375,-30.76171875,-17.578125,-20.5078125,-25.390625,0.0
149.77734375,-21.484375,-26.3671875,-13.18359375,-36.1328125,-20.99609375,0.0
149.78125,-29.296875,-31.73828125,-6.34765625,-39.0625,25.390625,0.0
149.78515625,-29.296875,-37.59765625,-18.06640625,-26.85546875,24.4140625,0.0
149.7890625,-24.90234375,-31.25,-34.66796875,-10.25390625,-62.5,0.0
149.79296875,-20.5078125,-20.5078125,-41.50390625,-3.41796875,-61.03515625,0.0
149.796875,-27.34375,-31.73828125,-45.41015625,-20.5078125,-11.23046875,0.0
149.80078125,-41.015625,-46.875,-36.1328125,-41.015625,19.53125,0.0
149.8046875,-45.41015625,-48.828125,-30.76171875,-37.109375,71.2890625,0.0
149.80859375,-33.203125,-41.015625,-24.90234375,-16.6015625,65.91796875,0.0
149.8125,-26.3671875,-31.73828125,-20.99609375,-14.16015625,63.4765625,0.0
149.81640625,-26.85546875,-32.71484375,-24.90234375,-32.2265625,42.48046875,0.0
149.8203125,-30.2734375,-31.25,-33.203125,-37.59765625,66.89453125,0.0
149.82421875,-36.1328125,-22.4609375,-35.15625,-26.85546875,107.421875,0.0
149.828125,-36.62109375,-20.5078125,-37.59765625,-3.41796875,126.46484375,0.0
149.83203125,-28.3203125,-26.3671875,-43.9453125,-2.9296875,95.703125,0.0
149.8359375,-19.04296875,-26.3671875,-43.45703125,-27.83203125,18.06640625,0.0
149.83984375,-16.11328125,-22.94921875,-47.36328125,-34.66796875,-87.890625,0.0
149.84375,-29.296875,-28.80859375,-43.45703125,-20.99609375,-76.66015625,0.0
149.84765625,-38.57421875,-37.109375,-28.3203125,-8.7890625,-15.13671875,0.0
149.8515625,-16.6015625,-32.2265625,-17.578125,-5.37109375,20.01953125,0.0
149.85546875,0.9765625,-28.3203125,-23.4375,-4.8828125,73.73046875,0.0
149.859375,0.9765625,-36.62109375,-36.1328125,-23.92578125,80.078125,0.0
149.86328125,-24.90234375,-37.109375,-33.69140625,-31.73828125,89.84375,0.0
149.8671875,-41.50390625,-29.78515625,-27.34375,-15.625,93.75,0.0
149.87109375,-21.484375,-29.78515625,-26.85546875,1.46484375,100.5859375,0.0
149.875,-20.99609375,-35.64453125,-30.2734375,-1.46484375,66.89453125,0.0
149.87890625,-15.625,-33.69140625,-33.203125,-28.80859375,110.3515625,0.0
149.8828125,-9.765625,-25.87890625,-31.25,-36.62109375,100.5859375,0.0
149.88671875,-18.06640625,-28.3203125,-27.34375,-16.11328125,-31.25,0.0
149.890625,-13.18359375,-35.15625,-30.2734375,-3.41796875,48.828125,0.0
149.89453125,-5.37109375,-36.1328125,-36.1328125,-20.5078125,63.4765625,0.0
149.8984375,-17.08984375,-41.9921875,-39.55078125,-44.921875,8.30078125,0.0
149.90234375,-37.109375,-48.33984375,-33.203125,-48.33984375,31.25,0.0
149.90625,-39.55078125,-50.78125,-30.76171875,-39.55078125,-43.9453125,0.0
149.91015625,-37.109375,-49.31640625,-38.57421875,-22.94921875,-67.87109375,0.0
149.9140625,-36.62109375,-42.48046875,-48.33984375,-29.296875,-28.3203125,0.0
149.91796875,-40.0390625,-39.55078125,-49.8046875,-57.6171875,-30.2734375,0.0
149.921875,-48.828125,-38.57421875,-44.43359375,-55.17578125,18.06640625,0.0
149.92578125,-38.0859375,-29.296875,-36.62109375,-34.66796875,-10.25390625,0.0
149.9296875,-30.76171875,-20.99609375,-37.59765625,-29.296875,-41.9921875,0.0
149.93359375,-31.25,-24.90234375,-50.29296875,-29.78515625,-13.18359375,0.0
149.9375,-23.4375,-30.76171875,-42.48046875,-29.78515625,6.8359375,0.0
149.94140625,-21.97265625,-34.1796875,-36.62109375,-32.71484375,-15.13671875,0.0
149.9453125,-34.1796875,-38.0859375,-40.52734375,-27.34375,15.13671875,0.0
149.94921875,-35.64453125,-37.109375,-36.62109375,-12.6953125,89.35546875,0.0
149.953125,-8.7890625,-40.0390625,-28.80859375,-2.9296875,39.55078125,0.0
149.95703125,3.90625,-43.9453125,-27.83203125,-18.5546875,-19.04296875,0.0
149.9609375,-9.765625,-38.57421875,-27.83203125,-34.1796875,-71.77734375,0.0
149.96484375,-17.08984375,-29.296875,-22.94921875,-25.390625,-2.44140625,0.0
149.96875,-9.27734375,-28.80859375,-32.71484375,-15.625,20.99609375,0.0
149.97265625,0.9765625,-22.94921875,-37.109375,-13.671875,-71.77734375,0.0
149.9765625,13.671875,-14.16015625,-27.34375,-19.53125,-83.49609375,0.0
149.98046875,-6.8359375,-28.3203125,-19.04296875,-31.73828125,-98.14453125,0.0
149.984375,-26.3671875,-41.50390625,-16.6015625,-34.66796875,-78.125,0.0
149.98828125,-27.83203125,-41.50390625,-16.6015625,-19.53125,-45.8984375,0.0
149.9921875,-32.71484375,-41.50390625,-18.5546875,-14.16015625,-101.07421875,0.0
149.99609375,-27.34375,-40.0390625,-29.78515625,-25.390625,-95.21484375,0.0
150.0,-38.57421875,-41.015625,-30.76171875,-38.0859375,-27.83203125,0.0
150.00390625,-54.6875,-45.41015625,-19.04296875,-40.52734375,-8.30078125,0.0
150.0078125,-47.36328125,-45.8984375,-22.4609375,-26.3671875,16.6015625,0.0
150.01171875,-35.15625,-39.55078125,-19.53125,-19.53125,26.3671875,0.0
150.015625,-32.71484375,-33.69140625,-17.578125,-28.3203125,4.8828125,0.0
150.01953125,-45.8984375,-24.4140625,-29.78515625,-40.52734375,25.390625,0.0
150.0234375,-59.08203125,-29.296875,-29.78515625,-44.921875,40.52734375,0.0
150.02734375,-54.6875,-43.45703125,-19.04296875,-34.66796875,1.46484375,0.0
150.03125,-46.38671875,-41.015625,-11.23046875,-17.08984375,-1.953125,0.0
150.03515625,-29.296875,-38.0859375,-17.08984375,-16.6015625,-2.9296875,0.0
150.0390625,-25.390625,-39.55078125,-34.66796875,-37.59765625,-22.94921875,0.0
150.04296875,-42.48046875,-40.52734375,-28.3203125,-42.48046875,-8.7890625,0.0
150.046875,-40.52734375,-30.76171875,-15.13671875,-10.7421875,-26.3671875,0.0
150.05078125,-32.2265625,-26.85546875,-20.99609375,-0.48828125,-16.11328125,0.0
150.0546875,-27.83203125,-32.2265625,-28.3203125,-19.53125,-15.13671875,0.0
150.05859375,-21.97265625,-34.1796875,-33.69140625,-31.73828125,18.5546875,0.0
150.0625,-32.2265625,-43.9453125,-36.62109375,-36.1328125,18.06640625,0.0
150.06640625,-44.43359375,-45.41015625,-30.76171875,-24.90234375,-33.69140625,0.0
150.0703125,-32.2265625,-40.0390625,-23.92578125,-8.7890625,8.30078125,0.0
150.07421875,-20.5078125,-43.45703125,-23.4375,-5.859375,35.15625,0.0
150.078125,-20.01953125,-44.921875,-19.53125,-20.5078125,-5.37109375,0.0
150.08203125,-14.16015625,-43.9453125,-25.390625,-33.69140625,-102.05078125,0.0
150.0859375,-32.71484375,-44.921875,-31.25,-23.92578125,-119.62890625,0.0
150.08984375,-37.59765625,-33.203125,-16.6015625,-1.46484375,-88.37890625,0.0
150.09375,-23.92578125,-23.92578125,-18.06640625,-16.11328125,-61.5234375,0.0
150.09765625,-38.0859375,-33.69140625,-30.76171875,-47.8515625,-36.1328125,0.0
150.1015625,-43.9453125,-41.50390625,-29.78515625,-47.8515625,-35.15625,0.0
150.10546875,-42.48046875,-37.59765625,-26.3671875,-37.109375,-3.90625,0.0
150.109375,-40.52734375,-34.1796875,-39.0625,-28.80859375,31.25,0.0
150.11328125,-24.90234375,-28.80859375,-44.43359375,-23.4375,37.109375,0.0
150.1171875,-12.6953125,-21.484375,-28.3203125,-36.62109375,20.99609375,0.0
150.12109375,-26.3671875,-20.5078125,-23.92578125,-44.921875,57.12890625,0.0
150.125,-47.36328125,-25.390625,-26.3671875,-32.2265625,78.61328125,0.0
150.12890625,-46.875,-27.83203125,-27.34375,-18.5546875,49.31640625,0.0
150.1328125,-42.48046875,-26.85546875,-29.296875,-26.85546875,-18.06640625,0.0
150.13671875,-43.45703125,-24.90234375,-31.73828125,-41.015625,-61.03515625,0.0
150.140625,-50.78125,-25.87890625,-33.203125,-63.4765625,-51.7578125,0.0
150.14453125,-60.546875,-29.78515625,-33.69140625,-68.359375,-69.82421875,0.0
150.1484375,-58.10546875,-28.80859375,-33.69140625,-44.43359375,-94.7265625,0.0
150.15234375,-42.48046875,-26.3671875,-35.15625,-38.57421875,-93.26171875,0.0
150.15625,-32.71484375,-24.90234375,-43.45703125,-48.828125,-104.4921875,0.0
150.16015625,-33.203125,-25.87890625,-38.0859375,-61.03515625,-120.60546875,0.0
150.1640625,-39.0625,-30.2734375,-24.4140625,-54.19921875,-94.7265625,0.0
150.16796875,-33.203125,-29.296875,-18.5546875,-23.4375,-73.2421875,0.0
150.171875,-17.578125,-29.296875,-23.4375,-12.6953125,-40.52734375,0.0
150.17578125,-9.765625,-32.71484375,-25.87890625,-13.671875,-11.23046875,0.0
150.1796875,-8.30078125,-30.2734375,-12.20703125,-19.53125,71.77734375,0.0
150.18359375,-11.23046875,-32.2265625,-7.8125,-23.4375,88.37890625,0.0
150.1875,-13.671875,-35.15625,-16.6015625,-11.71875,7.32421875,0.0
150.19140625,-14.6484375,-33.69140625,-24.4140625,-18.06640625,-24.4140625,0.0
150.1953125,-25.390625,-31.73828125,-30.76171875,-30.76171875,0.48828125,0.0
150.19921875,-31.73828125,-30.76171875,-32.2265625,-41.015625,-7.8125,0.0
150.203125,-26.85546875,-24.90234375,-28.80859375,-37.109375,-1.46484375,0.0
150.20703125,-19.53125,-25.390625,-32.2265625,-15.13671875,113.76953125,0.0
150.2109375,-14.6484375,-29.296875,-25.390625,-7.32421875,135.7421875,0.0
150.21484375,-3.90625,-32.2265625,-15.625,-22.4609375,38.0859375,0.0
150.21875,-1.46484375,-35.15625,-12.6953125,-39.0625,-92.7734375,0.0
150.22265625,-11.71875,-33.69140625,-11.23046875,-36.1328125,-62.5,0.0
150.2265625,-9.27734375,-33.69140625,-10.7421875,-31.73828125,30.76171875,0.0
150.23046875,1.46484375,-35.15625,-16.6015625,-20.5078125,53.7109375,0.0
150.234375,1.46484375,-31.73828125,-25.87890625,-17.08984375,54.6875,0.0
150.23828125,-9.765625,-30.2734375,-27.34375,-31.73828125,-9.27734375,0.0
150.2421875,-17.08984375,-29.296875,-18.5546875,-41.015625,17.578125,0.0
150.24609375,-13.671875,-23.92578125,-11.23046875,-26.3671875,62.98828125,0.0
150.25,-8.7890625,-28.80859375,-20.99609375,-13.671875,-15.13671875,0.0
150.25390625,-8.30078125,-33.203125,-33.203125,-23.92578125,-27.83203125,0.0
150.2578125,-0.48828125,-29.78515625,-26.3671875,-28.3203125,45.41015625,0.0
150.26171875,-14.16015625,-37.59765625,-22.4609375,-37.59765625,79.1015625,0.0
150.265625,-20.99609375,-44.43359375,-30.2734375,-49.31640625,24.90234375,0.0
150.26953125,-4.39453125,-34.66796875,-28.3203125,-26.3671875,13.671875,0.0
150.2734375,-6.34765625,-26.3671875,-22.94921875,-12.6953125,37.59765625,0.0
150.27734375,-22.4609375,-25.390625,-24.4140625,-31.73828125,20.99609375,0.0
150.28125,-29.78515625,-26.3671875,-26.85546875,-40.0390625,30.2734375,0.0
150.28515625,-35.15625,-28.3203125,-25.87890625,-32.71484375,-2.9296875,0.0
150.2890625,-31.25,-26.85546875,-25.87890625,-26.3671875,14.16015625,0.0
150.29296875,-10.7421875,-19.04296875,-27.34375,-18.5546875,55.6640625,0.0
150.296875,-12.20703125,-11.71875,-35.15625,-23.92578125,36.62109375,0.0
150.30078125,-30.76171875,-13.671875,-29.78515625,-36.62109375,-3.41796875,0.0
150.3046875,-43.9453125,-14.6484375,-21.484375,-34.66796875,-7.32421875,0.0
150.30859375,-34.66796875,-17.08984375,-36.62109375,-18.5546875,3.90625,0.0
150.3125,-22.94921875,-28.3203125,-35.64453125,-20.99609375,-61.5234375,0.0
150.31640625,-31.25,-34.66796875,-24.4140625,-44.43359375,13.671875,0.0
150.3203125,-45.8984375,-34.1796875,-27.83203125,-53.7109375,69.82421875,0.0
150.32421875,-40.52734375,-32.2265625,-26.3671875,-35.15625,26.3671875,0.0
150.328125,-24.4140625,-39.0625,-22.94921875,-15.625,45.41015625,0.0
150.33203125,-27.83203125,-42.96875,-20.99609375,-18.06640625,-90.33203125,0.0
150.3359375,-23.92578125,-31.73828125,-26.85546875,-26.3671875,-88.37890625,0.0
150.33984375,-30.2734375,-26.3671875,-31.73828125,-38.57421875,82.03125,0.0
150.34375,-45.8984375,-37.109375,-36.1328125,-45.8984375,102.05078125,0.0
150.34765625,-52.24609375,-41.9921875,-41.50390625,-32.71484375,27.34375,0.0
150.3515625,-54.6875,-39.55078125,-37.59765625,-28.3203125,-10.7421875,0.0
150.35546875,-45.8984375,-33.203125,-28.80859375,-30.2734375,8.30078125,0.0
150.359375,-43.9453125,-34.1796875,-33.69140625,-40.52734375,20.99609375,0.0
150.36328125,-57.12890625,-45.41015625,-38.0859375,-58.59375,-2.44140625,0.0
150.3671875,-41.50390625,-46.875,-31.73828125,-42.96875,13.671875,0.0
150.37109375,-33.203125,-44.43359375,-25.87890625,-23.4375,20.01953125,0.0
150.375,-36.1328125,-39.55078125,-22.4609375,-26.85546875,48.828125,0.0
150.37890625,-24.90234375,-32.71484375,-25.87890625,-38.57421875,11.23046875,0.0
150.3828125,-37.109375,-27.34375,-31.25,-37.59765625,27.83203125,0.0
150.38671875,-46.875,-24.90234375,-38.0859375,-20.99609375,113.76953125,0.0
150.390625,-34.1796875,-33.69140625,-36.1328125,-8.7890625,96.6796875,0.0
150.39453125,-32.2265625,-35.15625,-26.3671875,-13.18359375,99.609375,0.0
150.3984375,-40.0390625,-33.69140625,-26.85546875,-27.34375,87.40234375,0.0
150.40234375,-41.9921875,-39.0625,-27.83203125,-23.4375,46.38671875,0.0
150.40625,-48.33984375,-39.0625,-31.25,-24.90234375,-26.3671875,0.0
150.41015625,-43.9453125,-45.41015625,-34.66796875,-35.64453125,-72.75390625,0.0
150.4140625,-54.6875,-46.875,-30.76171875,-47.8515625,-147.94921875,0.0
150.41796875,-56.640625,-41.9921875,-33.203125,-58.10546875,-99.12109375,0.0
150.421875,-43.9453125,-44.921875,-49.31640625,-54.19921875,-33.69140625,0.0
150.42578125,-40.52734375,-41.015625,-45.8984375,-35.64453125,1.953125,0.0
150.4296875,-34.1796875,-38.57421875,-35.15625,-21.97265625,13.18359375,0.0
150.43359375,-21.484375,-42.96875,-37.109375,-25.390625,-124.51171875,0.0
150.4375,-19.04296875,-36.62109375,-34.66796875,-39.0625,-128.41796875,0.0
150.44140625,-40.0390625,-35.15625,-34.66796875,-56.15234375,-22.4609375,0.0
150.4453125,-45.8984375,-42.48046875,-29.296875,-51.7578125,-45.8984375,0.0
150.44921875,-31.73828125,-42.48046875,-25.87890625,-32.2265625,-46.875,0.0
150.453125,-19.53125,-41.015625,-35.64453125,-33.203125,9.765625,0.0
150.45703125,-25.87890625,-40.52734375,-36.1328125,-50.78125,-38.57421875,0.0
150.4609375,-46.38671875,-41.015625,-27.34375,-55.6640625,-62.01171875,0.0
150.46484375,-42.48046875,-29.78515625,-22.94921875,-34.1796875,-0.48828125,0.0
150.46875,-42.48046875,-30.76171875,-28.3203125,-20.99609375,-63.96484375,0.0
150.47265625,-43.45703125,-41.015625,-34.1796875,-27.83203125,-102.5390625,0.0
150.4765625,-39.55078125,-39.55078125,-30.76171875,-39.55078125,20.99609375,0.0
150.48046875,-48.33984375,-35.64453125,-30.2734375,-55.17578125,63.4765625,0.0
150.484375,-54.19921875,-27.83203125,-29.78515625,-45.41015625,-32.71484375,0.0
150.48828125,-58.10546875,-25.87890625,-23.92578125,-29.78515625,-27.83203125,0.0
150.4921875,-47.36328125,-28.3203125,-25.390625,-29.296875,30.2734375,0.0
150.49609375,-46.38671875,-31.25,-26.85546875,-41.50390625,30.76171875,0.0
150.5,-49.31640625,-36.1328125,-32.71484375,-56.15234375,36.62109375,0.0
150.50390625,-38.57421875,-34.66796875,-32.2265625,-44.921875,14.16015625,0.0
150.5078125,-38.0859375,-37.109375,-28.3203125,-25.87890625,-0.48828125,0.0
150.51171875,-36.1328125,-31.73828125,-29.296875,-17.08984375,-32.2265625,0.0
150.515625,-28.3203125,-21.97265625,-27.83203125,-26.85546875,-29.296875,0.0
150.51953125,-35.15625,-26.85546875,-35.15625,-36.1328125,-14.16015625,0.0
150.5234375,-41.015625,-29.296875,-35.64453125,-41.9921875,-13.18359375,0.0
150.52734375,-25.390625,-24.90234375,-33.203125,-35.64453125,29.296875,0.0
150.53125,-14.16015625,-34.1796875,-28.80859375,-17.08984375,40.0390625,0.0
150.53515625,-13.671875,-34.1796875,-26.3671875,-19.04296875,14.16015625,0.0
150.5390625,-15.625,-21.484375,-30.2734375,-31.25,6.34765625,0.0
150.54296875,-23.92578125,-23.4375,-22.94921875,-35.64453125,4.8828125,0.0
150.546875,-32.2265625,-31.73828125,-16.6015625,-28.3203125,43.45703125,0.0
150.55078125,-29.296875,-33.69140625,-20.5078125,-20.99609375,46.875,0.0
150.5546875,-21.97265625,-32.71484375,-23.92578125,-22.4609375,1.46484375,0.0
150.55859375,-28.80859375,-38.0859375,-29.296875,-42.96875,6.8359375,0.0
150.5625,-37.109375,-41.015625,-30.76171875,-57.12890625,34.1796875,0.0
150.56640625,-54.6875,-32.71484375,-32.71484375,-38.57421875,79.1015625,0.0
150.5703125,-56.15234375,-24.90234375,-26.85546875,-26.3671875,55.6640625,0.0
150.57421875,-37.109375,-22.4609375,-19.53125,-32.2265625,33.69140625,0.0
150.578125,-38.57421875,-24.4140625,-22.4609375,-40.0390625,41.50390625,0.0
150.58203125,-52.734375,-31.25,-21.97265625,-40.52734375,-19.04296875,0.0
150.5859375,-42.48046875,-22.94921875,-14.16015625,-26.3671875,-0.48828125,0.0
150.58984375,-25.87890625,-17.578125,-14.6484375,-7.32421875,90.33203125,0.0
150.59375,-31.25,-32.2265625,-26.3671875,-17.08984375,6.8359375,0.0
150.59765625,-33.203125,-41.015625,-38.0859375,-47.8515625,24.90234375,0.0
150.6015625,-31.73828125,-42.96875,-41.50390625,-61.03515625,35.64453125,0.0
150.60546875,-35.15625,-36.1328125,-35.15625,-50.29296875,-9.765625,0.0
150.609375,-20.99609375,-30.2734375,-32.2265625,-22.94921875,13.18359375,0.0
150.61328125,-16.11328125,-29.78515625,-24.90234375,-20.99609375,-28.80859375,0.0
150.6171875,-25.87890625,-30.76171875,-20.5078125,-39.55078125,13.671875,0.0
150.62109375,-31.25,-35.15625,-29.78515625,-52.24609375,96.19140625,0.0
150.625,-33.203125,-39.0625,-32.71484375,-42.48046875,36.62109375,0.0
150.62890625,-29.296875,-39.55078125,-35.64453125,-19.04296875,-134.765625,0.0
150.6328125,-19.53125,-36.62109375,-30.76171875,-20.99609375,-263.671875,0.0
150.63671875,-20.01953125,-33.69140625,-24.90234375,-33.69140625,-177.734375,0.0
150.640625,-37.109375,-38.0859375,-31.25,-51.7578125,-58.10546875,0.0
150.64453125,-41.9921875,-42.96875,-35.64453125,-51.26953125,-75.1953125,0.0
150.6484375,-34.66796875,-44.921875,-31.25,-25.87890625,-111.328125,0.0
150.65234375,-25.390625,-48.828125,-30.76171875,-13.18359375,-57.6171875,0.0
150.65625,-23.92578125,-49.31640625,-31.25,-30.76171875,-22.94921875,0.0
150.66015625,-45.8984375,-45.41015625,-24.4140625,-56.640625,-53.7109375,0.0
150.6640625,-71.77734375,-41.50390625,-34.1796875,-53.7109375,-13.18359375,0.0
150.66796875,-57.12890625,-40.0390625,-41.015625,-21.97265625,16.11328125,0.0
150.671875,-48.33984375,-34.1796875,-27.83203125,1.46484375,13.18359375,0.0
150.67578125,-50.29296875,-35.15625,-18.06640625,-10.25390625,-24.4140625,0.0
150.6796875,-46.875,-38.57421875,-22.94921875,-26.3671875,-33.203125,0.0
150.68359375,-59.08203125,-38.57421875,-31.25,-29.78515625,-35.64453125,0.0
150.6875,-57.6171875,-44.43359375,-29.296875,-20.99609375,7.8125,0.0
150.69140625,-49.8046875,-47.8515625,-22.4609375,-10.7421875,20.5078125,0.0
150.6953125,-52.24609375,-44.921875,-29.78515625,-31.25,-100.09765625,0.0
150.69921875,-55.6640625,-39.0625,-41.015625,-44.43359375,10.7421875,0.0
150.703125,-62.01171875,-38.57421875,-38.57421875,-38.0859375,136.23046875,0.0
150.70703125,-65.91796875,-41.015625,-31.25,-29.78515625,76.171875,0.0
150.7109375,-49.8046875,-40.52734375,-32.71484375,-9.765625,47.8515625,0.0
150.71484375,-39.55078125,-32.71484375,-35.64453125,-12.20703125,12.6953125,0.0
150.71875,-45.8984375,-33.69140625,-39.0625,-49.31640625,-70.3125,0.0
150.72265625,-52.24609375,-37.109375,-42.48046875,-63.96484375,-19.04296875,0.0
150.7265625,-66.89453125,-37.59765625,-36.62109375,-54.6875,13.18359375,0.0
150.73046875,-52.734375,-33.203125,-34.66796875,-30.2734375,29.78515625,0.0
150.734375,-40.0390625,-32.2265625,-34.66796875,-27.34375,22.94921875,0.0
150.73828125,-49.8046875,-39.0625,-30.76171875,-57.12890625,-54.6875,0.0
150.7421875,-57.6171875,-39.55078125,-34.1796875,-62.01171875,1.46484375,0.0
150.74609375,-48.828125,-33.203125,-36.62109375,-50.29296875,70.3125,0.0
150.75,-29.78515625,-26.85546875,-38.57421875,-34.1796875,62.5,0.0
150.75390625,-0.9765625,-19.53125,-28.3203125,-19.53125,76.66015625,0.0
150.7578125,-1.953125,-22.94921875,-20.01953125,-30.2734375,64.94140625,0.0
150.76171875,-23.92578125,-31.73828125,-26.85546875,-53.7109375,21.484375,0.0
150.765625,-30.76171875,-37.59765625,-36.1328125,-60.05859375,-7.32421875,0.0
150.76953125,-18.06640625,-41.9921875,-36.62109375,-36.1328125,-38.0859375,0.0
150.7734375,-5.859375,-40.0390625,-29.296875,-24.90234375,17.08984375,0.0
150.77734375,-6.34765625,-36.1328125,-38.0859375,-38.57421875,57.6171875,0.0
150.78125,-19.53125,-37.109375,-44.921875,-48.33984375,6.34765625,0.0
150.78515625,-39.0625,-39.55078125,-32.71484375,-43.45703125,-54.6875,0.0
150.7890625,-25.390625,-40.0390625,-24.4140625,-29.78515625,-63.96484375,0.0
150.79296875,-13.18359375,-31.25,-29.78515625,-17.578125,-0.48828125,0.0
150.796875,-16.6015625,-25.87890625,-34.66796875,-27.34375,50.78125,0.0
150.80078125,-22.94921875,-28.3203125,-30.2734375,-41.50390625,52.24609375,0.0
150.8046875,-32.71484375,-30.2734375,-35.15625,-36.1328125,50.29296875,0.0
150.80859375,-31.73828125,-30.2734375,-35.64453125,-20.5078125,33.69140625,0.0
150.8125,-27.34375,-36.62109375,-34.66796875,-22.94921875,-11.71875,0.0
150.81640625,-32.71484375,-46.38671875,-44.921875,-40.52734375,-17.08984375,0.0
150.8203125,-36.1328125,-41.9921875,-41.50390625,-52.24609375,60.546875,0.0
150.82421875,-37.59765625,-37.109375,-30.2734375,-54.6875,75.1953125,0.0
150.828125,-46.38671875,-40.52734375,-41.9921875,-48.33984375,-5.859375,0.0
150.83203125,-36.1328125,-34.66796875,-43.45703125,-38.57421875,27.83203125,0.0
150.8359375,-25.390625,-26.3671875,-29.296875,-37.59765625,23.4375,0.0
150.83984375,-34.1796875,-27.34375,-30.76171875,-44.921875,-5.37109375,0.0
150.84375,-43.45703125,-35.15625,-35.15625,-42.48046875,-6.8359375,0.0
150.84765625,-42.48046875,-34.1796875,-35.15625,-30.76171875,30.2734375,0.0
150.8515625,-34.1796875,-30.2734375,-25.390625,-16.6015625,23.92578125,0.0
150.85546875,-31.25,-36.62109375,-23.92578125,-12.6953125,-44.921875,0.0
150.859375,-35.15625,-40.52734375,-29.296875,-31.73828125,2.44140625,0.0
150.86328125,-35.64453125,-37.109375,-17.08984375,-48.33984375,29.78515625,0.0
150.8671875,-37.59765625,-36.62109375,-7.32421875,-26.3671875,-10.7421875,0.0
150.87109375,-28.3203125,-40.0390625,-13.671875,6.34765625,-34.1796875,0.0
150.875,-16.11328125,-41.9921875,-14.6484375,-5.859375,-73.73046875,0.0
150.87890625,-29.78515625,-41.50390625,-25.390625,-36.1328125,-84.9609375,0.0
150.8828125,-43.9453125,-38.0859375,-41.015625,-47.8515625,18.5546875,0.0
150.88671875,-39.0625,-33.203125,-36.1328125,-37.109375,72.75390625,0.0
150.890625,-23.4375,-37.109375,-29.78515625,-19.04296875,-36.62109375,0.0
150.89453125,-16.11328125,-40.52734375,-34.1796875,-17.578125,-77.63671875,0.0
150.8984375,-10.7421875,-43.9453125,-32.2265625,-30.76171875,39.55078125,0.0
150.90234375,-20.01953125,-50.29296875,-27.34375,-37.59765625,7.32421875,0.0
150.90625,-37.109375,-42.48046875,-22.94921875,-16.6015625,-36.62109375,0.0
150.91015625,-25.87890625,-41.50390625,-27.83203125,0.0,-10.25390625,0.0
150.9140625,-20.5078125,-41.015625,-31.25,-0.48828125,-58.10546875,0.0
150.91796875,-24.4140625,-29.78515625,-23.4375,-19.04296875,-57.6171875,0.0
150.921875,-41.50390625,-34.1796875,-26.3671875,-50.29296875,-8.7890625,0.0
150.92578125,-61.03515625,-37.59765625,-33.203125,-45.8984375,41.50390625,0.0
150.9296875,-48.828125,-37.59765625,-32.2265625,-19.04296875,110.3515625,0.0
150.93359375,-33.69140625,-26.85546875,-22.4609375,-14.6484375,97.16796875,0.0
150.9375,-25.87890625,-21.484375,-20.99609375,-37.109375,10.25390625,0.0
150.94140625,-27.34375,-29.78515625,-26.85546875,-51.7578125,32.71484375,0.0
150.9453125,-34.66796875,-28.80859375,-23.92578125,-42.48046875,-17.578125,0.0
150.94921875,-24.4140625,-26.3671875,-19.04296875,-19.53125,-159.66796875,0.0
150.953125,-15.13671875,-28.80859375,-23.92578125,-16.11328125,-140.625,0.0
150.95703125,-17.578125,-28.80859375,-23.4375,-40.52734375,-104.98046875,0.0
150.9609375,-48.33984375,-30.2734375,-20.99609375,-61.03515625,-161.1328125,0.0
150.96484375,-60.05859375,-27.34375,-25.87890625,-56.640625,-191.89453125,0.0
150.96875,-41.015625,-20.99609375,-19.04296875,-28.3203125,-228.02734375,0.0
150.97265625,-40.52734375,-23.92578125,-19.04296875,-14.6484375,-215.8203125,0.0
150.9765625,-42.48046875,-27.83203125,-33.203125,-41.015625,-99.12109375,0.0
150.98046875,-38.0859375,-27.34375,-40.0390625,-60.05859375,-68.84765625,0.0
150.984375,-37.59765625,-31.25,-37.109375,-50.29296875,-52.734375,0.0
150.98828125,-51.7578125,-31.73828125,-31.25,-28.3203125,47.36328125,0.0
150.9921875,-46.875,-34.66796875,-29.78515625,-14.6484375,68.359375,0.0
150.99609375,-24.90234375,-31.25,-21.484375,-14.16015625,-6.34765625,0.0
151.0,-32.2265625,-29.78515625,-24.4140625,-36.1328125,-26.85546875,0.0
151.00390625,-49.31640625,-38.57421875,-29.296875,-46.875,-6.34765625,0.0
151.0078125,-36.1328125,-33.203125,-23.92578125,-12.20703125,5.859375,0.0
151.01171875,-23.92578125,-25.390625,-20.5078125,8.7890625,49.8046875,0.0
151.015625,-23.4375,-28.80859375,-24.4140625,-18.06640625,49.8046875,0.0
151.01953125,-25.390625,-27.34375,-36.62109375,-51.7578125,22.4609375,0.0
151.0234375,-34.66796875,-29.296875,-43.9453125,-52.24609375,28.3203125,0.0
151.02734375,-31.25,-33.203125,-24.90234375,-22.94921875,41.015625,0.0
151.03125,-13.671875,-25.87890625,-9.27734375,3.41796875,26.3671875,0.0
151.03515625,-5.37109375,-13.671875,-11.23046875,-1.953125,1.46484375,0.0
151.0390625,-18.5546875,-17.578125,-18.5546875,-27.83203125,-5.37109375,0.0
151.04296875,-25.390625,-25.87890625,-19.53125,-33.69140625,62.5,0.0
151.046875,-20.5078125,-29.296875,-20.01953125,-12.20703125,80.56640625,0.0
151.05078125,-16.6015625,-30.76171875,-30.76171875,0.48828125,34.66796875,0.0
151.0546875,-4.8828125,-26.3671875,-30.76171875,-2.9296875,28.3203125,0.0
151.05859375,-6.8359375,-26.85546875,-29.296875,-22.4609375,32.2265625,0.0
151.0625,-27.83203125,-26.85546875,-33.69140625,-43.45703125,20.5078125,0.0
151.06640625,-32.2265625,-24.4140625,-27.34375,-28.80859375,-38.0859375,0.0
151.0703125,-19.53125,-24.4140625,-23.92578125,-7.32421875,-147.94921875,0.0
151.07421875,-10.25390625,-20.01953125,-21.484375,-8.7890625,-191.40625,0.0
151.078125,-6.8359375,-18.06640625,-22.94921875,-30.76171875,-144.53125,0.0
151.08203125,-27.34375,-19.04296875,-27.34375,-32.71484375,-161.1328125,0.0
151.0859375,-45.8984375,-21.97265625,-19.53125,-14.16015625,-197.75390625,0.0
151.08984375,-36.62109375,-29.296875,-28.3203125,-15.625,-193.359375,0.0
151.09375,-27.83203125,-37.109375,-36.1328125,-17.578125,-166.50390625,0.0
151.09765625,-25.390625,-37.59765625,-34.1796875,-28.3203125,-104.4921875,0.0
151.1015625,-32.2265625,-36.1328125,-29.296875,-41.50390625,-20.01953125,0.0
151.10546875,-41.50390625,-39.55078125,-20.5078125,-32.71484375,19.53125,0.0
151.109375,-41.015625,-37.59765625,-18.5546875,-16.6015625,18.5546875,0.0
151.11328125,-28.80859375,-34.1796875,-20.99609375,-11.23046875,11.71875,0.0
151.1171875,-22.94921875,-33.69140625,-28.80859375,-25.390625,79.1015625,0.0
151.12109375,-33.69140625,-36.1328125,-30.76171875,-44.921875,105.95703125,0.0
151.125,-36.1328125,-36.62109375,-31.73828125,-42.96875,63.96484375,0.0
151.12890625,-21.97265625,-32.2265625,-33.203125,-9.27734375,-6.8359375,0.0
151.1328125,-4.8828125,-31.25,-28.80859375,4.8828125,16.11328125,0.0
151.13671875,0.48828125,-31.25,-32.2265625,-14.6484375,136.23046875,0.0
151.140625,-17.08984375,-33.69140625,-34.1796875,-46.875,196.2890625,0.0
151.14453125,-31.73828125,-37.109375,-29.296875,-53.22265625,107.421875,0.0
151.1484375,-20.99609375,-35.64453125,-22.4609375,-20.5078125,40.52734375,0.0
151.15234375,-13.18359375,-42.48046875,-24.4140625,-11.23046875,68.84765625,0.0
151.15625,-24.4140625,-46.875,-38.0859375,-34.1796875,52.734375,0.0
151.16015625,-41.9921875,-47.8515625,-49.31640625,-54.6875,36.62109375,0.0
151.1640625,-43.45703125,-46.38671875,-38.57421875,-54.6875,-21.97265625,0.0
151.16796875,-30.2734375,-36.1328125,-25.87890625,-29.78515625,-60.546875,0.0
151.171875,-12.6953125,-31.73828125,-24.4140625,-0.48828125,8.7890625,0.0
151.17578125,-11.23046875,-34.66796875,-33.69140625,-0.48828125,0.9765625,0.0
151.1796875,-23.4375,-33.203125,-35.64453125,-27.34375,-69.3359375,0.0
151.18359375,-28.3203125,-33.203125,-23.4375,-43.45703125,-37.109375,0.0
151.1875,-20.5078125,-26.85546875,-10.25390625,-26.85546875,22.94921875,0.0
151.19140625,-12.20703125,-26.85546875,-6.34765625,-3.41796875,39.0625,0.0
151.1953125,-23.4375,-39.0625,-14.16015625,-9.27734375,5.859375,0.0
151.19921875,-26.85546875,-36.1328125,-20.01953125,-30.76171875,28.80859375,0.0
151.203125,-29.296875,-28.80859375,-16.6015625,-35.64453125,27.83203125,0.0
151.20703125,-37.59765625,-33.69140625,-22.94921875,-22.94921875,0.9765625,0.0
151.2109375,-31.73828125,-37.109375,-28.80859375,-15.625,50.78125,0.0
