timestamp,TP9,AF7,AF8,TP10,AUX,Marker,
73.00390625,-45.41015625,107.91015625,-44.43359375,-38.57421875,-38.57421875,0.0
73.0078125,-41.015625,63.96484375,-44.43359375,-28.80859375,-5.859375,0.0
73.01171875,-20.99609375,195.80078125,-33.203125,-15.13671875,-91.30859375,0.0
73.015625,-19.04296875,371.09375,-32.2265625,-39.0625,-151.85546875,0.0
73.01953125,-37.109375,361.328125,-43.9453125,-59.5703125,-101.07421875,0.0
73.0234375,-46.875,157.71484375,-48.828125,-52.24609375,-158.203125,0.0
73.02734375,-49.31640625,53.7109375,-40.52734375,-45.8984375,-178.22265625,0.0
73.03125,-37.59765625,212.40234375,-29.296875,-30.76171875,-131.8359375,0.0
73.03515625,-23.92578125,212.40234375,-26.85546875,-30.76171875,-68.359375,0.0
73.0390625,-34.66796875,103.02734375,-29.78515625,-35.15625,-15.13671875,0.0
73.04296875,-51.7578125,196.77734375,-30.2734375,-40.52734375,-19.04296875,0.0
73.046875,-42.96875,230.46875,-33.69140625,-38.0859375,-46.38671875,0.0
73.05078125,-31.25,144.53125,-31.73828125,-30.76171875,-36.62109375,0.0
73.0546875,-28.3203125,123.046875,-27.83203125,-29.78515625,89.84375,0.0
73.05859375,-34.1796875,109.375,-31.25,-34.66796875,164.0625,0.0
73.0625,-43.45703125,-44.43359375,-32.71484375,-34.66796875,78.125,0.0
73.06640625,-34.66796875,17.578125,-28.80859375,-22.94921875,-17.578125,0.0
73.0703125,-23.92578125,360.83984375,-26.85546875,-10.7421875,-12.6953125,0.0
73.07421875,-14.6484375,394.04296875,-21.484375,-5.37109375,-6.34765625,0.0
73.078125,-18.5546875,238.28125,-21.484375,-28.3203125,-54.19921875,0.0
73.08203125,-35.15625,245.60546875,-19.53125,-42.96875,10.25390625,0.0
73.0859375,-42.96875,237.79296875,-16.6015625,-31.25,25.390625,0.0
73.08984375,-27.34375,221.19140625,-18.5546875,-31.25,12.20703125,0.0
73.09375,-18.5546875,148.92578125,-23.92578125,-32.2265625,37.59765625,0.0
73.09765625,-13.671875,-74.70703125,-26.85546875,-34.1796875,10.7421875,0.0
73.1015625,-24.90234375,111.328125,-26.85546875,-48.33984375,33.69140625,0.0
73.10546875,-46.38671875,368.65234375,-29.296875,-46.875,4.39453125,0.0
73.109375,-31.25,276.3671875,-20.99609375,-23.92578125,-66.40625,0.0
73.11328125,-18.06640625,156.73828125,-20.99609375,-31.25,-14.6484375,0.0
73.1171875,-25.87890625,183.59375,-34.66796875,-43.9453125,-35.15625,0.0
73.12109375,-38.0859375,279.296875,-36.62109375,-34.1796875,-82.03125,0.0
73.125,-49.8046875,246.09375,-31.73828125,-34.66796875,-24.90234375,0.0
73.12890625,-32.71484375,208.49609375,-20.5078125,-19.04296875,-99.609375,0.0
73.1328125,-20.01953125,130.859375,-19.53125,-15.625,-208.49609375,0.0
73.13671875,-30.2734375,-36.62109375,-22.94921875,-26.85546875,-203.61328125,0.0
73.140625,-44.43359375,119.140625,-27.34375,-39.55078125,-180.6640625,0.0
73.14453125,-46.38671875,292.96875,-31.73828125,-45.41015625,-209.47265625,0.0
73.1484375,-38.57421875,298.33984375,-25.87890625,-41.015625,-154.78515625,0.0
73.15234375,-31.73828125,296.875,-26.3671875,-36.1328125,-119.140625,0.0
73.15625,-20.01953125,277.34375,-28.80859375,-33.69140625,-166.9921875,0.0
73.16015625,-27.83203125,204.58984375,-25.87890625,-39.55078125,-124.51171875,0.0
73.1640625,-39.55078125,141.11328125,-25.87890625,-41.50390625,-22.4609375,0.0
73.16796875,-41.9921875,251.46484375,-27.83203125,-41.015625,79.58984375,0.0
73.171875,-41.015625,159.1796875,-27.83203125,-40.52734375,114.74609375,0.0
73.17578125,-29.296875,240.72265625,-26.3671875,-32.2265625,88.37890625,0.0
73.1796875,-34.66796875,412.59765625,-29.78515625,-35.64453125,56.15234375,0.0
73.18359375,-53.7109375,308.59375,-29.296875,-38.57421875,28.80859375,0.0
73.1875,-36.1328125,180.17578125,-22.4609375,-23.4375,-46.875,0.0
73.19140625,-12.20703125,230.95703125,-19.04296875,-13.671875,-40.52734375,0.0
73.1953125,-11.71875,251.953125,-17.08984375,-19.04296875,19.53125,0.0
73.19921875,-17.578125,231.4453125,-31.25,-27.83203125,-93.26171875,0.0
73.203125,-41.9921875,284.1796875,-39.55078125,-40.52734375,-108.3984375,0.0
73.20703125,-55.17578125,258.30078125,-26.85546875,-46.875,36.1328125,0.0
73.2109375,-36.62109375,217.28515625,-22.94921875,-31.73828125,52.24609375,0.0
73.21484375,-21.97265625,152.34375,-25.87890625,-23.92578125,48.828125,0.0
73.21875,-20.99609375,72.265625,-25.87890625,-43.9453125,34.66796875,0.0
73.22265625,-45.8984375,270.01953125,-28.80859375,-57.6171875,3.90625,0.0
73.2265625,-60.05859375,469.23828125,-25.87890625,-44.43359375,-20.5078125,0.0
73.23046875,-42.48046875,401.3671875,-23.4375,-33.69140625,-12.6953125,0.0
73.234375,-33.203125,212.40234375,-26.85546875,-33.203125,-21.484375,0.0
73.23828125,-37.59765625,196.2890625,-30.2734375,-40.0390625,-2.9296875,0.0
73.2421875,-51.26953125,315.91796875,-32.2265625,-43.9453125,35.15625,0.0
73.24609375,-56.640625,373.53515625,-32.2265625,-47.8515625,39.0625,0.0
73.25,-46.38671875,380.859375,-26.85546875,-42.96875,-61.5234375,0.0
73.25390625,-36.1328125,293.9453125,-25.390625,-36.62109375,-100.09765625,0.0
73.2578125,-41.015625,274.90234375,-34.66796875,-45.41015625,12.6953125,0.0
73.26171875,-44.921875,316.89453125,-41.015625,-52.24609375,-10.7421875,0.0
73.265625,-48.828125,269.53125,-34.1796875,-52.24609375,-105.46875,0.0
73.26953125,-41.9921875,77.1484375,-20.5078125,-23.4375,-71.2890625,0.0
73.2734375,-26.3671875,197.75390625,-24.90234375,-22.94921875,-64.94140625,0.0
73.27734375,-21.97265625,473.14453125,-30.76171875,-30.76171875,-73.2421875,0.0
73.28125,-35.64453125,332.03125,-30.76171875,-36.1328125,-16.6015625,0.0
73.28515625,-46.875,227.5390625,-24.4140625,-43.45703125,34.66796875,0.0
73.2890625,-53.22265625,443.84765625,-21.97265625,-41.9921875,8.30078125,0.0
73.29296875,-49.31640625,503.90625,-21.484375,-36.62109375,-45.41015625,0.0
73.296875,-26.3671875,274.4140625,-14.6484375,-32.2265625,-14.6484375,0.0
73.30078125,-35.15625,215.8203125,-20.01953125,-42.48046875,-2.9296875,0.0
73.3046875,-49.8046875,426.7578125,-26.3671875,-47.36328125,-30.76171875,0.0
73.30859375,-39.0625,323.2421875,-21.97265625,-28.3203125,42.96875,0.0
73.3125,-37.59765625,176.7578125,-9.27734375,-21.484375,54.19921875,0.0
73.31640625,-46.38671875,354.00390625,-14.6484375,-29.78515625,-45.8984375,0.0
73.3203125,-61.03515625,312.01171875,-33.203125,-49.8046875,-25.87890625,0.0
73.32421875,-68.359375,244.62890625,-29.78515625,-52.24609375,20.99609375,0.0
73.328125,-59.5703125,509.765625,-18.06640625,-34.66796875,-39.55078125,0.0
73.33203125,-42.48046875,545.41015625,-18.5546875,-34.1796875,-35.64453125,0.0
73.3359375,-36.1328125,278.3203125,-21.97265625,-44.43359375,15.625,0.0
73.33984375,-49.31640625,224.609375,-24.90234375,-56.15234375,-35.15625,0.0
73.34375,-69.3359375,363.28125,-26.85546875,-49.31640625,-23.4375,0.0
73.34765625,-70.80078125,365.72265625,-26.3671875,-36.1328125,36.62109375,0.0
73.3515625,-64.94140625,261.23046875,-29.78515625,-35.64453125,-3.41796875,0.0
73.35546875,-49.8046875,222.65625,-29.296875,-39.55078125,-56.15234375,0.0
73.359375,-44.43359375,334.9609375,-22.94921875,-60.05859375,-62.5,0.0
73.36328125,-52.734375,252.44140625,-20.5078125,-66.89453125,-105.46875,0.0
73.3671875,-44.43359375,213.8671875,-13.18359375,-32.71484375,-38.57421875,0.0
73.37109375,-43.45703125,375.0,-14.6484375,-25.390625,72.265625,0.0
73.375,-33.203125,378.41796875,-18.5546875,-40.0390625,41.50390625,0.0
73.37890625,-36.62109375,322.265625,-22.4609375,-48.33984375,-38.0859375,0.0
73.3828125,-40.0390625,338.37890625,-30.2734375,-40.52734375,-94.7265625,0.0
73.38671875,-22.94921875,441.89453125,-15.625,-26.3671875,-127.44140625,0.0
73.390625,-26.3671875,356.4453125,-9.27734375,-26.85546875,-32.71484375,0.0
73.39453125,-35.64453125,322.75390625,-24.90234375,-33.69140625,-13.18359375,0.0
73.3984375,-23.92578125,392.578125,-24.4140625,-38.0859375,-84.47265625,0.0
73.40234375,-25.87890625,375.9765625,-13.671875,-41.015625,-88.8671875,0.0
73.40625,-45.8984375,381.34765625,-14.6484375,-31.25,-158.69140625,0.0
73.41015625,-35.64453125,246.58203125,-14.16015625,-17.578125,-207.51953125,0.0
73.4140625,-18.06640625,318.84765625,-14.6484375,-7.32421875,-176.26953125,0.0
73.41796875,-18.06640625,453.125,-14.6484375,-6.34765625,-108.88671875,0.0
73.421875,-30.76171875,349.609375,-16.6015625,-23.4375,8.7890625,0.0
73.42578125,-48.828125,277.83203125,-13.671875,-38.57421875,20.01953125,0.0
73.4296875,-45.8984375,166.9921875,-4.8828125,-13.671875,20.01953125,0.0
73.43359375,-29.296875,230.46875,-6.8359375,-8.30078125,34.1796875,0.0
73.4375,-30.2734375,420.8984375,-12.6953125,-22.94921875,-43.9453125,0.0
73.44140625,-41.9921875,381.34765625,-18.5546875,-42.96875,-61.5234375,0.0
73.4453125,-53.7109375,340.33203125,-28.80859375,-57.6171875,-41.9921875,0.0
73.44921875,-44.43359375,441.40625,-17.578125,-28.80859375,-80.56640625,0.0
73.453125,-22.4609375,366.69921875,-9.27734375,-24.90234375,48.828125,0.0
73.45703125,-25.87890625,191.40625,-19.53125,-50.78125,98.6328125,0.0
73.4609375,-25.87890625,188.96484375,-15.625,-42.96875,-11.71875,0.0
73.46484375,-29.296875,343.75,-6.8359375,-34.66796875,-34.66796875,0.0
73.46875,-37.59765625,424.31640625,-15.13671875,-39.0625,51.26953125,0.0
73.47265625,-16.11328125,343.26171875,-18.06640625,-32.71484375,60.546875,0.0
73.4765625,-19.04296875,291.015625,-20.99609375,-52.24609375,-26.3671875,0.0
73.48046875,-48.33984375,280.76171875,-23.4375,-70.3125,-71.2890625,0.0
73.484375,-57.6171875,266.11328125,-25.87890625,-53.7109375,-32.71484375,0.0
73.48828125,-45.41015625,182.6171875,-21.97265625,-41.50390625,0.0,0.0
73.4921875,-27.83203125,260.25390625,-10.25390625,-32.71484375,-10.7421875,0.0
73.49609375,-34.1796875,491.69921875,-12.20703125,-32.71484375,19.53125,0.0
73.5,-40.0390625,400.87890625,-31.25,-48.828125,7.8125,0.0
73.50390625,-47.36328125,252.44140625,-27.83203125,-45.41015625,29.296875,0.0
73.5078125,-46.38671875,217.7734375,-20.99609375,-22.94921875,-15.625,0.0
73.51171875,-17.578125,187.5,-22.4609375,-17.578125,-49.31640625,0.0
73.515625,-28.3203125,328.125,-28.3203125,-12.20703125,-37.59765625,0.0
73.51953125,-38.57421875,440.4296875,-31.73828125,-12.6953125,-69.3359375,0.0
73.5234375,-38.0859375,367.1875,-18.06640625,-10.7421875,-62.5,0.0
73.52734375,-40.52734375,252.44140625,-16.6015625,-0.48828125,27.34375,0.0
73.53125,-27.83203125,253.90625,-20.5078125,-4.8828125,65.91796875,0.0
73.53515625,-25.87890625,279.296875,-25.87890625,-20.5078125,34.66796875,0.0
73.5390625,-28.3203125,296.38671875,-21.97265625,-25.390625,9.765625,0.0
73.54296875,-37.59765625,296.38671875,-27.83203125,-22.4609375,-51.7578125,0.0
73.546875,-32.2265625,219.7265625,-32.2265625,-21.484375,-52.24609375,0.0
73.55078125,-15.13671875,163.57421875,-20.99609375,-7.32421875,-13.18359375,0.0
73.5546875,-22.4609375,188.96484375,-16.6015625,-19.04296875,64.94140625,0.0
73.55859375,-28.80859375,191.40625,-22.94921875,-33.69140625,69.3359375,0.0
73.5625,-32.71484375,4.8828125,-28.80859375,-35.15625,9.27734375,0.0
73.56640625,-35.15625,123.046875,-27.83203125,-35.64453125,-42.96875,0.0
73.5703125,-27.83203125,332.51953125,-21.97265625,-26.3671875,-80.078125,0.0
73.57421875,-18.5546875,191.40625,-20.01953125,-20.99609375,-74.21875,0.0
73.578125,-28.3203125,245.60546875,-27.34375,-36.1328125,-44.43359375,0.0
73.58203125,-40.52734375,321.77734375,-22.4609375,-58.59375,-45.41015625,0.0
73.5859375,-42.96875,231.93359375,-21.484375,-46.38671875,2.9296875,0.0
73.58984375,-33.203125,226.5625,-18.06640625,-23.92578125,-25.87890625,0.0
73.59375,-14.16015625,218.75,-11.71875,-29.78515625,-22.94921875,0.0
73.59765625,-18.06640625,155.76171875,-16.6015625,-36.62109375,-17.08984375,0.0
73.6015625,-34.66796875,175.29296875,-22.94921875,-30.76171875,-46.875,0.0
73.60546875,-41.50390625,243.65234375,-19.53125,-38.57421875,-23.4375,0.0
73.609375,-40.0390625,142.08984375,-14.16015625,-33.203125,-51.7578125,0.0
73.61328125,-21.97265625,-31.73828125,-20.01953125,-22.4609375,-83.49609375,0.0
73.6171875,-35.15625,197.265625,-27.83203125,-29.78515625,-80.078125,0.0
73.62109375,-50.29296875,375.0,-37.59765625,-39.55078125,7.32421875,0.0
73.625,-22.94921875,237.3046875,-30.2734375,-26.3671875,-23.4375,0.0
73.62890625,-25.87890625,140.13671875,-20.01953125,-10.7421875,-35.64453125,0.0
73.6328125,-38.0859375,102.05078125,-29.296875,-14.16015625,58.59375,0.0
73.63671875,-29.78515625,53.22265625,-34.66796875,-16.6015625,106.93359375,0.0
73.640625,-28.80859375,69.82421875,-27.83203125,-19.53125,86.9140625,0.0
73.64453125,-19.53125,116.69921875,-24.4140625,-11.23046875,-20.01953125,0.0
73.6484375,-12.6953125,181.15234375,-31.25,0.9765625,-86.42578125,0.0
73.65234375,-6.8359375,172.36328125,-34.1796875,-11.71875,-21.97265625,0.0
73.65625,-2.9296875,39.55078125,-31.73828125,-20.99609375,17.578125,0.0
73.66015625,-11.23046875,86.42578125,-37.109375,-24.4140625,-45.41015625,0.0
73.6640625,-23.92578125,170.41015625,-41.015625,-29.296875,-27.34375,0.0
73.66796875,-27.83203125,68.359375,-31.25,-19.53125,-19.53125,0.0
73.671875,-8.7890625,21.484375,-26.85546875,-10.7421875,-48.828125,0.0
73.67578125,-1.46484375,184.5703125,-28.80859375,-19.53125,-53.7109375,0.0
73.6796875,-10.7421875,168.45703125,-36.62109375,-23.92578125,-41.015625,0.0
73.68359375,-21.484375,29.78515625,-41.9921875,-24.90234375,-18.5546875,0.0
73.6875,-27.83203125,111.328125,-36.1328125,-30.2734375,21.484375,0.0
73.69140625,-24.4140625,237.3046875,-36.1328125,-37.109375,-7.32421875,0.0
73.6953125,-17.578125,130.859375,-34.66796875,-44.921875,-81.54296875,0.0
73.69921875,-23.92578125,-10.25390625,-34.66796875,-32.71484375,-78.61328125,0.0
73.703125,-36.1328125,121.58203125,-34.1796875,-23.4375,-91.30859375,0.0
73.70703125,-25.390625,229.00390625,-31.25,-17.578125,-134.765625,0.0
73.7109375,-13.671875,181.15234375,-30.76171875,-4.8828125,-161.62109375,0.0
73.71484375,-22.4609375,95.21484375,-26.3671875,-20.01953125,-149.90234375,0.0
73.71875,-36.62109375,-5.859375,-25.87890625,-36.62109375,-111.81640625,0.0
73.72265625,-41.9921875,-88.8671875,-32.71484375,-38.57421875,-131.34765625,0.0
73.7265625,-30.76171875,155.2734375,-32.2265625,-21.97265625,-149.90234375,0.0
73.73046875,-20.99609375,392.08984375,-24.90234375,-12.6953125,-144.04296875,0.0
73.734375,-17.578125,294.921875,-23.92578125,-16.11328125,-103.02734375,0.0
73.73828125,-10.7421875,-35.64453125,-28.3203125,-18.5546875,-50.29296875,0.0
73.7421875,-22.94921875,-31.73828125,-39.55078125,-24.4140625,-80.56640625,0.0
73.74609375,-23.92578125,-30.76171875,-36.1328125,-22.4609375,-116.2109375,0.0
73.75,-16.11328125,-30.2734375,-25.390625,-19.04296875,-74.70703125,0.0
73.75390625,-10.7421875,-22.94921875,-35.64453125,-14.16015625,19.04296875,0.0
73.7578125,-20.01953125,-24.90234375,-46.38671875,-8.7890625,46.875,0.0
73.76171875,-19.04296875,-33.203125,-48.828125,-12.6953125,-106.93359375,0.0
73.765625,-22.4609375,-34.66796875,-42.96875,-17.578125,-101.07421875,0.0
73.76953125,-28.3203125,-41.015625,-34.1796875,6.8359375,-56.15234375,0.0
73.7734375,-5.37109375,-36.62109375,-31.73828125,17.578125,-133.30078125,0.0
73.77734375,-18.06640625,-31.25,-36.62109375,-11.71875,-69.3359375,0.0
73.78125,-28.80859375,-28.3203125,-42.96875,-25.390625,51.26953125,0.0
73.78515625,-39.55078125,207.03125,-44.921875,-25.87890625,17.08984375,0.0
73.7890625,-36.62109375,209.9609375,-38.0859375,-23.4375,-21.484375,0.0
73.79296875,-21.97265625,188.96484375,-37.59765625,-19.53125,-3.41796875,0.0
73.796875,-21.484375,140.13671875,-45.8984375,-27.34375,-34.66796875,0.0
73.80078125,-28.80859375,141.11328125,-42.48046875,-36.1328125,-66.89453125,0.0
73.8046875,-56.15234375,68.359375,-36.62109375,-37.109375,-105.95703125,0.0
73.80859375,-49.8046875,85.44921875,-37.59765625,-30.2734375,-142.08984375,0.0
73.8125,-23.92578125,231.93359375,-36.62109375,-18.06640625,-130.859375,0.0
73.81640625,-28.3203125,200.68359375,-41.50390625,-26.3671875,-89.35546875,0.0
73.8203125,-39.55078125,46.875,-45.8984375,-45.41015625,-44.921875,0.0
73.82421875,-44.43359375,3.90625,-42.48046875,-41.9921875,-45.8984375,0.0
73.828125,-35.15625,178.7109375,-35.15625,-41.9921875,-15.625,0.0
73.83203125,-22.4609375,175.78125,-40.0390625,-35.64453125,37.109375,0.0
73.8359375,-29.296875,145.01953125,-41.50390625,-25.390625,46.875,0.0
73.83984375,-42.48046875,243.65234375,-38.57421875,-43.45703125,47.8515625,0.0
73.84375,-51.26953125,215.33203125,-34.1796875,-47.36328125,16.6015625,0.0
73.84765625,-49.8046875,126.953125,-27.83203125,-29.296875,6.8359375,0.0
73.8515625,-29.296875,68.84765625,-22.94921875,-15.13671875,-54.6875,0.0
73.85546875,-20.5078125,37.109375,-25.87890625,-21.484375,-91.30859375,0.0
73.859375,-32.2265625,8.7890625,-39.55078125,-45.8984375,-55.17578125,0.0
73.86328125,-45.8984375,141.6015625,-38.57421875,-42.48046875,-35.64453125,0.0
73.8671875,-58.59375,202.1484375,-31.25,-39.0625,33.203125,0.0
73.87109375,-36.1328125,164.0625,-27.83203125,-31.73828125,35.64453125,0.0
73.875,-18.06640625,223.6328125,-32.71484375,-37.109375,-20.99609375,0.0
73.87890625,-25.390625,128.90625,-35.64453125,-48.33984375,-96.19140625,0.0
73.8828125,-35.64453125,-14.6484375,-35.15625,-31.73828125,-107.421875,0.0
73.88671875,-52.24609375,169.43359375,-39.0625,-32.71484375,40.0390625,0.0
73.890625,-49.31640625,309.5703125,-34.1796875,-52.24609375,55.17578125,0.0
73.89453125,-35.64453125,254.8828125,-28.80859375,-46.38671875,-41.015625,0.0
73.8984375,-9.765625,151.85546875,-27.83203125,-18.5546875,-48.33984375,0.0
73.90234375,-26.85546875,-5.859375,-36.1328125,-38.0859375,-125.9765625,0.0
73.90625,-50.29296875,-11.23046875,-31.73828125,-50.29296875,-182.6171875,0.0
73.91015625,-37.59765625,166.9921875,-23.92578125,-27.83203125,-110.3515625,0.0
73.9140625,-26.85546875,224.12109375,-25.87890625,-35.15625,-19.53125,0.0
73.91796875,-33.69140625,75.68359375,-28.80859375,-46.38671875,12.20703125,0.0
73.921875,-35.15625,111.328125,-38.0859375,-40.0390625,-0.48828125,0.0
73.92578125,-41.015625,301.7578125,-42.48046875,-42.48046875,-41.015625,0.0
73.9296875,-47.36328125,242.67578125,-36.62109375,-36.1328125,-62.01171875,0.0
73.93359375,-30.76171875,126.46484375,-30.76171875,-34.1796875,-66.40625,0.0
73.9375,-21.97265625,50.29296875,-27.34375,-34.66796875,-59.5703125,0.0
73.94140625,-16.6015625,14.16015625,-24.4140625,-29.296875,-12.6953125,0.0
73.9453125,-30.76171875,179.19921875,-28.3203125,-30.76171875,3.41796875,0.0
73.94921875,-45.8984375,285.15625,-31.73828125,-35.15625,12.6953125,0.0
73.953125,-33.69140625,184.08203125,-36.1328125,-29.296875,-95.703125,0.0
73.95703125,-15.625,162.109375,-38.0859375,-25.87890625,-80.56640625,0.0
73.9609375,-21.97265625,123.53515625,-37.109375,-40.0390625,25.87890625,0.0
73.96484375,-36.1328125,85.44921875,-26.3671875,-38.0859375,-19.04296875,0.0
73.96875,-18.5546875,177.24609375,-21.97265625,-14.16015625,-53.22265625,0.0
73.97265625,-15.13671875,212.40234375,-25.87890625,-15.13671875,-49.31640625,0.0
73.9765625,-25.87890625,38.0859375,-21.97265625,-16.11328125,13.671875,0.0
73.98046875,-35.15625,-72.75390625,-35.15625,-22.94921875,9.27734375,0.0
73.984375,-24.4140625,154.296875,-34.66796875,-20.99609375,-9.27734375,0.0
73.98828125,-19.04296875,272.4609375,-26.3671875,-8.7890625,75.68359375,0.0
73.9921875,-19.04296875,182.6171875,-30.76171875,-10.25390625,7.32421875,0.0
73.99609375,-17.578125,157.2265625,-37.109375,-20.5078125,-33.69140625,0.0
74.0,-25.87890625,196.2890625,-42.48046875,-37.59765625,-42.48046875,0.0
74.00390625,-33.69140625,133.7890625,-46.875,-46.875,-113.76953125,0.0
74.0078125,-19.53125,14.6484375,-41.50390625,-26.3671875,-150.87890625,0.0
74.01171875,-2.9296875,-22.94921875,-28.3203125,-15.625,-94.7265625,0.0
74.015625,-11.71875,95.21484375,-31.73828125,-28.80859375,0.48828125,0.0
74.01953125,-18.06640625,-34.66796875,-38.0859375,-23.4375,-39.0625,0.0
74.0234375,-19.04296875,-35.64453125,-32.2265625,-21.484375,-38.57421875,0.0
74.02734375,-20.99609375,-37.59765625,-30.2734375,-12.20703125,-40.52734375,0.0
74.03125,-21.97265625,-38.0859375,-26.85546875,-4.8828125,-69.82421875,0.0
74.03515625,-16.6015625,-35.15625,-28.3203125,-12.20703125,-41.50390625,0.0
74.0390625,-22.4609375,-29.296875,-41.015625,-31.25,-10.25390625,0.0
74.04296875,-29.296875,-37.109375,-42.96875,-37.59765625,-44.43359375,0.0
74.046875,-29.296875,-31.73828125,-39.0625,-39.0625,-54.6875,0.0
74.05078125,-32.2265625,-37.59765625,-27.34375,-24.4140625,-3.90625,0.0
74.0546875,-24.90234375,-41.9921875,-17.08984375,-13.671875,-38.57421875,0.0
74.05859375,-22.4609375,-25.87890625,-32.2265625,-25.87890625,-49.31640625,0.0
74.0625,-26.3671875,-35.64453125,-42.96875,-24.4140625,-56.640625,0.0
74.06640625,-26.3671875,136.71875,-38.57421875,-23.4375,35.15625,0.0
74.0703125,-23.4375,94.7265625,-39.55078125,-22.4609375,55.6640625,0.0
74.07421875,-5.859375,99.609375,-29.78515625,-24.4140625,66.40625,0.0
74.078125,-21.97265625,-20.99609375,-30.2734375,-42.96875,-40.0390625,0.0
74.08203125,-41.50390625,-151.3671875,-35.64453125,-42.96875,-203.61328125,0.0
74.0859375,-32.2265625,90.8203125,-28.80859375,-36.62109375,-208.984375,0.0
74.08984375,-23.4375,323.2421875,-27.83203125,-19.53125,-182.6171875,0.0
74.09375,-16.6015625,241.69921875,-33.203125,-10.25390625,-150.390625,0.0
74.09765625,-27.34375,146.97265625,-34.1796875,-26.3671875,-115.234375,0.0
74.1015625,-62.98828125,105.46875,-43.45703125,-57.12890625,-98.14453125,0.0
74.10546875,-65.4296875,6.34765625,-44.921875,-54.6875,-108.3984375,0.0
74.109375,-29.78515625,-66.40625,-32.71484375,-25.87890625,-102.5390625,0.0
74.11328125,-25.390625,44.921875,-32.2265625,-31.25,-132.8125,0.0
74.1171875,-31.25,162.59765625,-34.1796875,-36.1328125,-228.02734375,0.0
74.12109375,-23.4375,109.86328125,-34.1796875,-39.0625,-138.671875,0.0
74.125,-40.0390625,-108.88671875,-31.73828125,-45.41015625,-84.47265625,0.0
74.12890625,-44.921875,-65.4296875,-32.71484375,-38.0859375,-126.46484375,0.0
74.1328125,-24.90234375,206.54296875,-28.3203125,-37.59765625,-17.08984375,0.0
74.13671875,-20.5078125,241.69921875,-23.92578125,-43.9453125,11.23046875,0.0
74.140625,-34.1796875,19.53125,-37.109375,-38.0859375,22.94921875,0.0
74.14453125,-61.03515625,-135.25390625,-44.921875,-51.26953125,-27.34375,0.0
74.1484375,-62.01171875,77.63671875,-48.33984375,-48.33984375,-152.83203125,0.0
74.15234375,-39.0625,142.08984375,-37.109375,-20.5078125,-133.30078125,0.0
74.15625,-33.69140625,26.3671875,-31.73828125,-17.578125,-25.390625,0.0
74.16015625,-30.2734375,109.375,-38.0859375,-30.76171875,58.59375,0.0
74.1640625,-31.25,142.578125,-31.73828125,-27.83203125,50.29296875,0.0
74.16796875,-44.43359375,57.6171875,-27.34375,-19.53125,39.55078125,0.0
74.171875,-21.97265625,20.01953125,-25.87890625,-14.6484375,56.640625,0.0
74.17578125,-16.6015625,36.62109375,-32.71484375,-29.78515625,1.953125,0.0
74.1796875,-40.52734375,37.59765625,-37.59765625,-47.8515625,-66.89453125,0.0
74.18359375,-38.0859375,15.13671875,-33.69140625,-35.15625,-19.53125,0.0
74.1875,-34.66796875,44.43359375,-29.296875,-19.04296875,39.55078125,0.0
74.19140625,-29.78515625,-42.96875,-33.203125,-23.4375,23.4375,0.0
74.1953125,-31.25,-69.3359375,-40.0390625,-35.15625,27.34375,0.0
74.19921875,-22.94921875,28.3203125,-32.71484375,-37.109375,61.5234375,0.0
74.203125,-37.59765625,-75.1953125,-34.1796875,-39.55078125,97.65625,0.0
74.20703125,-38.0859375,-71.77734375,-36.62109375,-41.9921875,34.66796875,0.0
74.2109375,-34.1796875,105.95703125,-38.0859375,-39.55078125,-43.45703125,0.0
74.21484375,-20.01953125,162.59765625,-39.0625,-45.41015625,-65.4296875,0.0
74.21875,-16.11328125,38.57421875,-36.62109375,-51.7578125,-142.08984375,0.0
74.22265625,-61.5234375,-101.5625,-38.57421875,-57.6171875,-118.65234375,0.0
74.2265625,-51.7578125,-38.57421875,-37.59765625,-47.36328125,-40.52734375,0.0
74.23046875,-34.1796875,49.31640625,-36.62109375,-31.25,-58.59375,0.0
74.234375,-32.2265625,-10.7421875,-34.66796875,-36.62109375,-53.7109375,0.0
74.23828125,-27.34375,92.28515625,-26.85546875,-47.36328125,-46.38671875,0.0
74.2421875,-28.80859375,-1.46484375,-23.92578125,-43.9453125,-0.48828125,0.0
74.24609375,-34.1796875,-137.20703125,-28.80859375,-31.73828125,19.53125,0.0
74.25,-22.4609375,129.39453125,-26.85546875,-27.83203125,22.4609375,0.0
74.25390625,-13.671875,191.89453125,-23.4375,-27.34375,11.23046875,0.0
74.2578125,-25.390625,64.453125,-25.87890625,-29.296875,26.3671875,0.0
74.26171875,-29.296875,-52.734375,-31.73828125,-31.73828125,33.203125,0.0
74.265625,-35.64453125,-8.30078125,-36.62109375,-27.83203125,-59.08203125,0.0
74.26953125,-39.55078125,63.4765625,-38.0859375,-15.13671875,-118.1640625,0.0
74.2734375,-26.85546875,-22.4609375,-36.1328125,-25.390625,-97.16796875,0.0
74.27734375,-28.80859375,-35.64453125,-40.0390625,-36.62109375,-106.4453125,0.0
74.28125,-36.62109375,30.2734375,-47.36328125,-27.34375,-99.12109375,0.0
74.28515625,-41.9921875,29.78515625,-48.828125,-30.76171875,-62.01171875,0.0
74.2890625,-30.76171875,-77.1484375,-41.015625,-20.5078125,-84.47265625,0.0
74.29296875,-8.30078125,-94.23828125,-26.3671875,-3.41796875,-105.95703125,0.0
74.296875,-31.73828125,30.76171875,-25.87890625,-19.53125,-21.484375,0.0
74.30078125,-39.55078125,89.84375,-35.64453125,-40.0390625,32.71484375,0.0
74.3046875,-30.76171875,84.47265625,-37.109375,-41.50390625,-8.7890625,0.0
74.30859375,-42.48046875,53.22265625,-36.1328125,-28.3203125,36.62109375,0.0
74.3125,-31.25,0.9765625,-34.66796875,-23.92578125,-66.89453125,0.0
74.31640625,-24.90234375,-88.37890625,-35.64453125,-38.57421875,-103.02734375,0.0
74.3203125,-49.8046875,-76.66015625,-40.0390625,-55.17578125,-19.04296875,0.0
74.32421875,-53.7109375,27.83203125,-43.45703125,-57.6171875,-81.0546875,0.0
74.328125,-39.0625,138.671875,-41.015625,-49.31640625,-128.41796875,0.0
74.33203125,-23.92578125,9.765625,-38.0859375,-40.52734375,-63.96484375,0.0
74.3359375,-22.4609375,-150.390625,-37.109375,-44.921875,-6.8359375,0.0
74.33984375,-37.59765625,72.75390625,-34.1796875,-50.78125,-22.94921875,0.0
74.34375,-43.9453125,171.875,-33.203125,-48.828125,-2.9296875,0.0
74.34765625,-38.0859375,-30.76171875,-29.78515625,-39.55078125,-25.390625,0.0
74.3515625,-17.08984375,-25.87890625,-25.87890625,-30.2734375,-51.26953125,0.0
74.35546875,-13.18359375,-16.6015625,-33.69140625,-34.1796875,-22.4609375,0.0
74.359375,-16.11328125,-18.5546875,-33.203125,-37.59765625,-66.89453125,0.0
74.36328125,-22.94921875,-13.671875,-25.390625,-36.62109375,-191.89453125,0.0
74.3671875,-22.4609375,-18.5546875,-22.94921875,-31.25,-192.87109375,0.0
74.37109375,-13.18359375,-16.6015625,-26.85546875,-21.97265625,-117.1875,0.0
74.375,-25.390625,-18.06640625,-35.15625,-36.1328125,-96.19140625,0.0
74.37890625,-25.87890625,-31.25,-39.55078125,-45.8984375,-108.3984375,0.0
74.3828125,-34.1796875,-39.0625,-39.0625,-44.43359375,-87.890625,0.0
74.38671875,-42.48046875,-20.99609375,-34.1796875,-39.55078125,-19.04296875,0.0
74.390625,-32.2265625,-10.7421875,-29.296875,-16.6015625,16.11328125,0.0
74.39453125,-22.94921875,20.99609375,-25.390625,-7.8125,-19.04296875,0.0
74.3984375,-29.296875,-38.0859375,-35.64453125,-27.83203125,-15.13671875,0.0
74.40234375,-45.8984375,-33.69140625,-42.96875,-44.921875,-24.4140625,0.0
74.40625,-39.0625,-41.9921875,-24.90234375,-24.90234375,-42.48046875,0.0
74.41015625,-16.6015625,-93.26171875,-12.6953125,-4.8828125,-16.6015625,0.0
74.4140625,-26.3671875,-7.32421875,-24.90234375,-20.01953125,-0.9765625,0.0
74.41796875,-34.1796875,103.515625,-33.69140625,-23.4375,-8.7890625,0.0
74.421875,-36.62109375,87.40234375,-34.1796875,-22.4609375,-23.4375,0.0
74.42578125,-34.1796875,-7.8125,-34.1796875,-27.34375,-33.69140625,0.0
74.4296875,-34.66796875,-133.30078125,-32.71484375,-29.296875,-71.77734375,0.0
74.43359375,-26.3671875,-97.65625,-34.1796875,-37.109375,-57.12890625,0.0
74.4375,-25.87890625,-56.15234375,-39.0625,-42.96875,0.9765625,0.0
74.44140625,-32.71484375,-76.171875,-37.109375,-37.109375,46.38671875,0.0
74.4453125,-32.71484375,2.9296875,-34.66796875,-33.69140625,52.24609375,0.0
74.44921875,-33.69140625,13.671875,-36.1328125,-34.66796875,-17.08984375,0.0
74.453125,-22.94921875,8.7890625,-37.109375,-26.3671875,-56.640625,0.0
74.45703125,-19.53125,-35.15625,-34.1796875,-41.50390625,-58.59375,0.0
74.4609375,-36.1328125,-56.15234375,-36.1328125,-55.17578125,-49.31640625,0.0
74.46484375,-41.015625,19.04296875,-34.66796875,-32.71484375,22.4609375,0.0
74.46875,-27.34375,15.625,-24.4140625,-19.53125,-1.953125,0.0
74.47265625,-18.5546875,-73.73046875,-31.73828125,-19.53125,-22.94921875,0.0
74.4765625,-18.5546875,-112.3046875,-38.0859375,-27.83203125,-1.46484375,0.0
74.48046875,-26.85546875,3.90625,-31.73828125,-29.296875,-15.625,0.0
74.484375,-37.109375,34.66796875,-29.296875,-20.01953125,-22.94921875,0.0
74.48828125,-36.1328125,12.20703125,-30.76171875,-12.20703125,-108.3984375,0.0
74.4921875,-28.80859375,-10.7421875,-34.66796875,-14.6484375,-92.7734375,0.0
74.49609375,-25.87890625,-141.6015625,-32.71484375,-14.16015625,47.36328125,0.0
74.5,-35.15625,-106.93359375,-35.15625,-15.625,64.94140625,0.0
74.50390625,-41.9921875,-20.01953125,-34.1796875,-28.80859375,-41.015625,0.0
74.5078125,-40.52734375,-54.19921875,-29.296875,-30.2734375,-63.96484375,0.0
74.51171875,-28.80859375,51.26953125,-32.71484375,-20.01953125,-77.63671875,0.0
74.515625,-4.39453125,107.421875,-33.69140625,-15.13671875,-7.32421875,0.0
74.51953125,-29.296875,-24.4140625,-51.26953125,-31.73828125,75.1953125,0.0
74.5234375,-52.734375,-96.6796875,-54.6875,-44.43359375,-41.9921875,0.0
74.52734375,-39.55078125,-7.32421875,-35.15625,-26.3671875,-137.20703125,0.0
74.53125,-21.484375,-103.02734375,-30.76171875,-16.11328125,-89.84375,0.0
74.53515625,-2.9296875,-37.59765625,-34.66796875,-18.06640625,8.7890625,0.0
74.5390625,-22.94921875,-35.15625,-41.015625,-42.48046875,43.45703125,0.0
74.54296875,-44.43359375,-33.203125,-38.0859375,-43.9453125,-10.25390625,0.0
74.546875,-27.34375,-40.0390625,-33.203125,-11.23046875,-6.34765625,0.0
74.55078125,-21.97265625,-41.50390625,-32.71484375,-12.20703125,-24.4140625,0.0
74.5546875,-18.5546875,-37.109375,-37.109375,-27.83203125,-91.30859375,0.0
74.55859375,-14.6484375,-37.59765625,-38.0859375,-34.66796875,-64.453125,0.0
74.5625,-23.4375,-38.57421875,-39.0625,-31.25,-38.0859375,0.0
74.56640625,-27.83203125,-37.59765625,-41.015625,-33.203125,-66.89453125,0.0
74.5703125,-20.01953125,-41.9921875,-32.71484375,-21.97265625,-41.9921875,0.0
74.57421875,-13.18359375,-43.9453125,-35.64453125,-16.11328125,-42.48046875,0.0
74.578125,-22.94921875,-37.59765625,-39.0625,-39.55078125,-63.96484375,0.0
74.58203125,-42.48046875,100.09765625,-36.1328125,-37.109375,-111.81640625,0.0
74.5859375,-33.203125,24.90234375,-38.0859375,-30.76171875,-24.4140625,0.0
74.58984375,-15.625,-149.4140625,-39.55078125,-16.11328125,-12.20703125,0.0
74.59375,-15.13671875,-220.703125,-43.9453125,-6.8359375,6.8359375,0.0
74.59765625,-12.6953125,-44.921875,-38.0859375,-21.484375,-17.578125,0.0
74.6015625,-15.625,-26.85546875,-22.4609375,-24.4140625,0.0,0.0
74.60546875,-33.203125,-22.4609375,-23.4375,-28.3203125,1.46484375,0.0
74.609375,-32.71484375,93.75,-28.3203125,-15.13671875,-72.75390625,0.0
74.61328125,-24.4140625,40.0390625,-24.4140625,-16.6015625,-68.84765625,0.0
74.6171875,-4.39453125,-37.109375,-21.97265625,-30.2734375,21.97265625,0.0
74.62109375,-9.27734375,-39.0625,-24.90234375,-26.85546875,85.9375,0.0
74.625,-42.48046875,-116.69921875,-32.71484375,-28.80859375,9.765625,0.0
74.62890625,-34.1796875,-40.52734375,-37.109375,-32.71484375,-19.04296875,0.0
74.6328125,-28.3203125,-35.64453125,-38.0859375,-35.64453125,-1.953125,0.0
74.63671875,-36.1328125,-30.76171875,-44.43359375,-47.36328125,-61.03515625,0.0
74.640625,-35.15625,-40.0390625,-43.45703125,-44.43359375,-42.48046875,0.0
74.64453125,-41.9921875,-41.015625,-39.0625,-35.64453125,-22.94921875,0.0
74.6484375,-39.55078125,-37.109375,-38.57421875,-28.80859375,-72.75390625,0.0
74.65234375,-25.87890625,-34.1796875,-37.59765625,-24.90234375,-6.8359375,0.0
74.65625,-25.390625,-30.2734375,-43.45703125,-29.296875,-2.44140625,0.0
74.66015625,-35.15625,-35.15625,-41.50390625,-38.0859375,-47.36328125,0.0
74.6640625,-41.50390625,-32.2265625,-35.64453125,-33.69140625,-6.34765625,0.0
74.66796875,-33.69140625,-36.1328125,-32.2265625,-16.11328125,-21.97265625,0.0
74.671875,-22.94921875,-47.36328125,-31.73828125,-9.765625,-122.0703125,0.0
74.67578125,-34.1796875,-141.11328125,-33.69140625,-35.64453125,-173.828125,0.0
74.6796875,-43.45703125,-163.0859375,-33.203125,-42.48046875,-191.40625,0.0
74.68359375,-46.38671875,-105.95703125,-27.83203125,-22.4609375,-167.96875,0.0
74.6875,-54.6875,8.30078125,-23.4375,-22.4609375,-111.81640625,0.0
74.69140625,-41.9921875,-10.7421875,-27.83203125,-24.4140625,-137.6953125,0.0
74.6953125,-39.0625,-94.7265625,-29.296875,-32.2265625,-62.01171875,0.0
74.69921875,-64.94140625,-65.4296875,-38.57421875,-60.546875,22.94921875,0.0
74.703125,-71.77734375,-94.23828125,-39.0625,-62.5,-26.3671875,0.0
74.70703125,-54.19921875,-100.09765625,-24.4140625,-38.57421875,-62.5,0.0
74.7109375,-47.36328125,7.8125,-28.3203125,-39.55078125,-3.90625,0.0
74.71484375,-55.6640625,-40.0390625,-28.3203125,-57.6171875,56.640625,0.0
74.71875,-70.80078125,-168.9453125,-33.69140625,-78.61328125,5.37109375,0.0
74.72265625,-77.1484375,-145.01953125,-41.015625,-70.3125,-18.5546875,0.0
74.7265625,-78.61328125,-40.52734375,-35.64453125,-54.19921875,6.8359375,0.0
74.73046875,-71.77734375,-87.40234375,-25.87890625,-50.78125,-54.19921875,0.0
74.734375,-61.5234375,-244.140625,-27.83203125,-62.98828125,-58.10546875,0.0
74.73828125,-57.12890625,-176.26953125,-33.69140625,-87.890625,-32.71484375,0.0
74.7421875,-60.05859375,10.25390625,-32.71484375,-76.66015625,-50.29296875,0.0
74.74609375,-77.1484375,-3.90625,-36.1328125,-66.89453125,-121.58203125,0.0
74.75,-67.87109375,-68.359375,-33.203125,-72.75390625,-154.296875,0.0
74.75390625,-41.50390625,-77.1484375,-27.34375,-51.26953125,-88.37890625,0.0
74.7578125,-61.5234375,-139.16015625,-33.69140625,-61.5234375,-17.578125,0.0
74.76171875,-70.80078125,-181.640625,-27.83203125,-74.70703125,-54.19921875,0.0
74.765625,-60.546875,-113.28125,-18.06640625,-58.10546875,-137.20703125,0.0
74.76953125,-48.33984375,-83.0078125,-15.13671875,-41.015625,-167.48046875,0.0
74.7734375,-48.828125,-116.69921875,-19.04296875,-40.52734375,-129.39453125,0.0
74.77734375,-53.7109375,-104.00390625,-31.73828125,-59.5703125,-86.42578125,0.0
74.78125,-59.5703125,-171.875,-33.69140625,-58.10546875,-108.88671875,0.0
74.78515625,-52.734375,-295.8984375,-23.4375,-41.50390625,-161.1328125,0.0
74.7890625,-46.875,-209.47265625,-20.01953125,-38.57421875,-166.015625,0.0
74.79296875,-62.98828125,-41.015625,-27.83203125,-48.33984375,-131.34765625,0.0
74.796875,-57.6171875,29.78515625,-40.52734375,-53.22265625,-104.4921875,0.0
74.80078125,-43.45703125,7.32421875,-42.48046875,-50.78125,-104.00390625,0.0
74.8046875,-45.41015625,-52.734375,-43.45703125,-50.78125,-145.5078125,0.0
74.80859375,-48.828125,-87.40234375,-45.8984375,-43.45703125,-24.4140625,0.0
74.8125,-38.57421875,-114.2578125,-33.69140625,-43.45703125,31.73828125,0.0
74.81640625,-34.1796875,-139.16015625,-31.73828125,-57.12890625,31.25,0.0
74.8203125,-55.17578125,-130.37109375,-42.48046875,-54.19921875,61.03515625,0.0
74.82421875,-51.7578125,-99.12109375,-38.57421875,-40.0390625,-7.8125,0.0
74.828125,-38.0859375,-58.10546875,-36.62109375,-27.83203125,-66.89453125,0.0
74.83203125,-41.50390625,-131.8359375,-33.69140625,-24.90234375,-21.97265625,0.0
74.8359375,-23.92578125,-230.95703125,-28.80859375,-20.5078125,-31.25,0.0
74.83984375,-28.80859375,-129.8828125,-35.15625,-34.66796875,-66.40625,0.0
74.84375,-41.015625,-18.5546875,-31.73828125,-41.9921875,-36.1328125,0.0
74.84765625,-50.29296875,-18.5546875,-26.3671875,-33.203125,-24.90234375,0.0
74.8515625,-56.15234375,-55.17578125,-38.0859375,-50.29296875,-6.8359375,0.0
74.85546875,-39.55078125,-76.66015625,-41.9921875,-52.24609375,45.41015625,0.0
74.859375,-39.55078125,-131.34765625,-37.109375,-37.109375,3.90625,0.0
74.86328125,-59.08203125,-155.2734375,-29.78515625,-39.0625,-68.84765625,0.0
74.8671875,-54.19921875,-118.1640625,-18.5546875,-32.71484375,-50.29296875,0.0
74.87109375,-29.78515625,-149.90234375,-18.06640625,-20.99609375,-23.92578125,0.0
74.875,-26.3671875,-129.39453125,-24.90234375,-29.78515625,19.04296875,0.0
74.87890625,-39.55078125,-98.14453125,-23.4375,-39.0625,55.6640625,0.0
74.8828125,-45.41015625,-133.30078125,-16.6015625,-38.0859375,81.0546875,0.0
74.88671875,-48.33984375,-145.01953125,-23.4375,-31.73828125,45.41015625,0.0
74.890625,-41.015625,-199.70703125,-34.1796875,-39.0625,28.3203125,0.0
74.89453125,-21.484375,-203.125,-39.55078125,-50.29296875,21.97265625,0.0
74.8984375,-14.6484375,-92.28515625,-38.57421875,-41.50390625,-6.34765625,0.0
74.90234375,-31.25,-59.5703125,-34.66796875,-33.203125,-42.96875,0.0
74.90625,-40.52734375,-101.07421875,-40.52734375,-32.2265625,-68.359375,0.0
74.91015625,-27.34375,-114.2578125,-38.57421875,-31.73828125,-64.453125,0.0
74.9140625,-11.71875,-144.53125,-31.73828125,-26.3671875,-31.25,0.0
74.91796875,-29.78515625,-147.94921875,-39.0625,-49.8046875,-22.4609375,0.0
74.921875,-48.828125,-138.18359375,-46.38671875,-60.05859375,-51.26953125,0.0
74.92578125,-41.9921875,-156.25,-39.55078125,-34.1796875,-65.4296875,0.0
74.9296875,-39.0625,-132.8125,-34.66796875,-32.71484375,-16.11328125,0.0
74.93359375,-34.1796875,-144.53125,-34.66796875,-43.45703125,-43.45703125,0.0
74.9375,-19.04296875,-159.66796875,-35.15625,-42.96875,-35.64453125,0.0
74.94140625,-30.2734375,-174.8046875,-44.43359375,-34.66796875,-1.953125,0.0
74.9453125,-41.50390625,-275.390625,-42.48046875,-26.3671875,-65.4296875,0.0
74.94921875,-40.52734375,-335.44921875,-35.64453125,-27.34375,-71.2890625,0.0
74.953125,-26.3671875,-257.8125,-35.64453125,-27.34375,-45.8984375,0.0
74.95703125,-23.92578125,-153.80859375,-33.203125,-27.83203125,-31.25,0.0
74.9609375,-43.45703125,-110.83984375,-33.203125,-49.8046875,-59.5703125,0.0
74.96484375,-40.52734375,-144.53125,-31.73828125,-46.38671875,-99.12109375,0.0
74.96875,-36.1328125,-176.26953125,-32.71484375,-24.4140625,-33.203125,0.0
74.97265625,-22.4609375,-200.1953125,-39.0625,-21.97265625,56.15234375,0.0
74.9765625,-18.5546875,-233.88671875,-45.8984375,-30.76171875,5.859375,0.0
74.98046875,-24.4140625,-240.234375,-42.48046875,-50.29296875,-6.8359375,0.0
74.984375,-29.78515625,-286.62109375,-28.3203125,-39.0625,3.41796875,0.0
74.98828125,-35.15625,-296.875,-30.2734375,-29.296875,-2.44140625,0.0
74.9921875,-20.5078125,-237.3046875,-36.62109375,-32.71484375,47.8515625,0.0
74.99609375,-20.01953125,-217.28515625,-42.96875,-31.25,62.98828125,0.0
75.0,-37.59765625,-210.44921875,-44.921875,-46.38671875,-27.34375,0.0
75.00390625,-39.0625,-201.171875,-36.62109375,-41.015625,-58.59375,0.0
75.0078125,-16.6015625,-228.515625,-32.71484375,-23.4375,-15.13671875,0.0
75.01171875,-12.20703125,-246.09375,-43.45703125,-37.109375,-12.20703125,0.0
75.015625,-27.83203125,-253.41796875,-52.734375,-55.17578125,-45.8984375,0.0
75.01953125,-28.80859375,-247.55859375,-42.48046875,-41.50390625,-77.1484375,0.0
75.0234375,-23.92578125,-237.3046875,-36.1328125,-35.15625,-79.1015625,0.0
75.02734375,-28.80859375,-233.3984375,-37.109375,-37.109375,-60.546875,0.0
75.03125,-20.99609375,-260.25390625,-41.50390625,-32.2265625,-111.81640625,0.0
75.03515625,-14.16015625,-268.06640625,-40.52734375,-36.1328125,-128.90625,0.0
75.0390625,-35.64453125,-263.671875,-38.0859375,-45.8984375,-54.19921875,0.0
75.04296875,-43.9453125,-287.59765625,-53.22265625,-50.29296875,-92.28515625,0.0
75.046875,-40.0390625,-330.078125,-48.33984375,-44.43359375,-76.171875,0.0
75.05078125,-39.0625,-307.6171875,-34.1796875,-38.57421875,54.6875,0.0
75.0546875,-34.66796875,-253.90625,-36.1328125,-28.3203125,2.44140625,0.0
75.05859375,-28.3203125,-241.69921875,-30.2734375,-29.78515625,-110.3515625,0.0
75.0625,-37.59765625,-243.65234375,-31.73828125,-41.50390625,-98.14453125,0.0
75.06640625,-45.8984375,-272.94921875,-35.15625,-33.203125,-20.99609375,0.0
75.0703125,-41.015625,-258.7890625,-30.76171875,-15.625,-111.328125,0.0
75.07421875,-45.41015625,-248.046875,-43.45703125,-32.2265625,-97.16796875,0.0
75.078125,-47.8515625,-295.41015625,-49.8046875,-48.33984375,33.203125,0.0
75.08203125,-41.50390625,-322.265625,-39.55078125,-44.43359375,94.7265625,0.0
75.0859375,-46.875,-279.296875,-37.109375,-29.296875,118.65234375,0.0
75.08984375,-33.69140625,-241.69921875,-34.66796875,-23.92578125,101.5625,0.0
75.09375,-12.20703125,-242.67578125,-26.85546875,-32.2265625,69.3359375,0.0
75.09765625,-15.625,-270.99609375,-29.296875,-36.1328125,-33.69140625,0.0
75.1015625,-27.34375,-272.4609375,-34.1796875,-51.26953125,-36.1328125,0.0
75.10546875,-37.59765625,-295.8984375,-32.2265625,-50.29296875,19.04296875,0.0
75.109375,-34.1796875,-325.68359375,-28.80859375,-43.9453125,-76.171875,0.0
75.11328125,-31.73828125,-300.78125,-30.2734375,-43.45703125,-116.69921875,0.0
75.1171875,-28.80859375,-291.9921875,-24.90234375,-49.8046875,-47.8515625,0.0
75.12109375,-45.41015625,-291.9921875,-24.4140625,-59.5703125,21.97265625,0.0
75.125,-57.6171875,-305.6640625,-29.296875,-58.10546875,1.953125,0.0
75.12890625,-38.57421875,-326.171875,-25.87890625,-35.64453125,-77.63671875,0.0
75.1328125,-35.15625,-285.15625,-21.484375,-28.80859375,-62.98828125,0.0
75.13671875,-43.9453125,-242.67578125,-21.97265625,-48.828125,-59.5703125,0.0
75.140625,-49.31640625,-296.875,-18.06640625,-49.8046875,-81.54296875,0.0
75.14453125,-77.1484375,-367.67578125,-19.04296875,-41.9921875,-115.234375,0.0
75.1484375,-59.5703125,-323.2421875,-22.94921875,-36.62109375,-77.63671875,0.0
75.15234375,-48.828125,-280.2734375,-32.71484375,-42.48046875,2.9296875,0.0
75.15625,-52.734375,-292.48046875,-34.1796875,-44.921875,-26.3671875,0.0
75.16015625,-52.734375,-275.87890625,-33.69140625,-51.26953125,-55.17578125,0.0
75.1640625,-65.91796875,-309.08203125,-34.1796875,-58.59375,-60.05859375,0.0
75.16796875,-55.17578125,-369.62890625,-33.69140625,-41.50390625,-31.25,0.0
75.171875,-40.0390625,-358.3984375,-32.2265625,-28.80859375,-45.8984375,0.0
75.17578125,-34.1796875,-345.21484375,-32.2265625,-41.015625,-45.41015625,0.0
75.1796875,-38.0859375,-357.421875,-37.59765625,-47.36328125,-23.4375,0.0
75.18359375,-46.38671875,-346.6796875,-33.203125,-45.41015625,-100.5859375,0.0
75.1875,-41.9921875,-357.421875,-28.3203125,-32.2265625,-138.18359375,0.0
75.19140625,-17.08984375,-365.234375,-31.73828125,-33.203125,-33.203125,0.0
75.1953125,-14.6484375,-344.7265625,-33.203125,-40.52734375,45.41015625,0.0
75.19921875,-50.78125,-334.9609375,-41.015625,-58.59375,22.94921875,0.0
75.203125,-52.24609375,-322.265625,-36.1328125,-60.05859375,5.859375,0.0
75.20703125,-35.64453125,-333.984375,-31.25,-40.52734375,-66.40625,0.0
75.2109375,-36.1328125,-341.796875,-38.57421875,-32.2265625,-30.2734375,0.0
75.21484375,-15.13671875,-322.265625,-32.71484375,-22.94921875,54.19921875,0.0
75.21875,-14.16015625,-347.16796875,-24.90234375,-32.2265625,36.62109375,0.0
75.22265625,-24.4140625,-354.4921875,-33.203125,-36.62109375,39.55078125,0.0
75.2265625,-22.4609375,-315.91796875,-41.9921875,-24.4140625,32.71484375,0.0
75.23046875,-17.578125,-332.03125,-33.69140625,-14.16015625,55.17578125,0.0
75.234375,-8.7890625,-354.98046875,-32.2265625,-17.578125,70.80078125,0.0
75.23828125,-16.11328125,-346.19140625,-34.66796875,-11.71875,-7.8125,0.0
75.2421875,-21.484375,-320.80078125,-32.71484375,-10.25390625,-76.66015625,0.0
75.24609375,-25.87890625,-318.84765625,-30.2734375,-7.32421875,-89.84375,0.0
75.25,-31.25,-327.63671875,-27.83203125,2.9296875,-62.5,0.0
75.25390625,-30.2734375,-319.3359375,-28.80859375,6.8359375,0.48828125,0.0
75.2578125,-29.78515625,-311.03515625,-31.73828125,-7.32421875,47.36328125,0.0
75.26171875,-31.73828125,-313.96484375,-33.203125,-11.71875,34.1796875,0.0
75.265625,-27.34375,-319.82421875,-27.83203125,11.71875,13.671875,0.0
75.26953125,-22.94921875,-285.64453125,-34.66796875,9.765625,-8.7890625,0.0
75.2734375,-37.109375,-259.27734375,-45.8984375,-7.32421875,-80.078125,0.0
75.27734375,-30.76171875,-283.69140625,-40.0390625,-22.4609375,-124.51171875,0.0
75.28125,-33.203125,-277.83203125,-37.109375,-24.90234375,-103.515625,0.0
75.28515625,-37.59765625,-262.6953125,-27.34375,-3.41796875,-189.94140625,0.0
75.2890625,-16.6015625,-261.71875,-26.85546875,1.46484375,-142.08984375,0.0
75.29296875,-6.34765625,-274.4140625,-30.2734375,-3.41796875,-67.3828125,0.0
75.296875,-14.6484375,-269.53125,-32.2265625,-26.85546875,-68.84765625,0.0
75.30078125,-30.2734375,-237.3046875,-37.109375,-34.66796875,-71.77734375,0.0
75.3046875,-28.80859375,-225.5859375,-31.25,-20.01953125,-139.6484375,0.0
75.30859375,-22.94921875,-229.4921875,-25.390625,-23.92578125,-135.7421875,0.0
75.3125,-19.04296875,-223.6328125,-28.3203125,-24.4140625,-46.875,0.0
75.31640625,-21.97265625,-219.7265625,-34.66796875,-35.64453125,47.36328125,0.0
75.3203125,-27.83203125,-217.28515625,-27.34375,-47.36328125,47.8515625,0.0
75.32421875,-38.57421875,-219.23828125,-28.3203125,-40.0390625,21.484375,0.0
75.328125,-43.9453125,-212.890625,-32.71484375,-30.2734375,-3.41796875,0.0
75.33203125,-21.484375,-189.453125,-25.390625,-26.3671875,-0.9765625,0.0
75.3359375,-13.671875,-181.640625,-22.94921875,-26.85546875,27.34375,0.0
75.33984375,-29.296875,-197.75390625,-21.97265625,-38.0859375,45.8984375,0.0
75.34375,-46.875,-195.3125,-26.85546875,-45.41015625,72.265625,0.0
75.34765625,-54.6875,-177.734375,-18.5546875,-29.296875,-8.7890625,0.0
75.3515625,-52.734375,-170.8984375,-6.34765625,-24.4140625,-87.40234375,0.0
75.35546875,-58.10546875,-184.5703125,-11.71875,-37.59765625,-6.34765625,0.0
75.359375,-60.546875,-187.01171875,-16.11328125,-72.265625,37.109375,0.0
75.36328125,-62.98828125,-169.43359375,-21.484375,-66.40625,17.578125,0.0
75.3671875,-74.21875,-177.734375,-21.97265625,-30.76171875,-47.8515625,0.0
75.37109375,-48.828125,-168.45703125,-16.11328125,-29.78515625,-27.83203125,0.0
75.375,-42.48046875,-148.4375,-23.92578125,-40.0390625,29.78515625,0.0
75.37890625,-64.453125,-151.3671875,-29.78515625,-55.6640625,-3.41796875,0.0
75.3828125,-77.1484375,-146.484375,-32.2265625,-62.98828125,-47.36328125,0.0
75.38671875,-56.15234375,-143.5546875,-25.390625,-38.0859375,-63.4765625,0.0
75.390625,-31.73828125,-151.85546875,-19.04296875,-21.484375,-9.765625,0.0
75.39453125,-33.203125,-145.99609375,-24.4140625,-39.55078125,0.0,0.0
75.3984375,-35.15625,-145.99609375,-19.53125,-44.43359375,-157.71484375,0.0
75.40234375,-32.71484375,-164.55078125,-27.34375,-37.59765625,-207.51953125,0.0
75.40625,-29.78515625,-162.59765625,-33.203125,-29.296875,-215.8203125,0.0
75.41015625,-36.62109375,-154.296875,-31.73828125,-29.296875,-326.171875,0.0
75.4140625,-40.52734375,-157.71484375,-33.203125,-42.96875,-188.96484375,0.0
75.41796875,-36.1328125,-157.2265625,-30.76171875,-44.43359375,-115.72265625,0.0
75.421875,-37.109375,-153.3203125,-26.85546875,-41.50390625,-173.828125,0.0
75.42578125,-39.0625,-148.92578125,-23.92578125,-48.828125,-47.36328125,0.0
75.4296875,-33.69140625,-145.99609375,-27.34375,-28.3203125,-24.90234375,0.0
75.43359375,-38.57421875,-154.296875,-32.71484375,-19.53125,-73.73046875,0.0
75.4375,-53.7109375,-147.4609375,-37.59765625,-49.31640625,-36.1328125,0.0
75.44140625,-41.9921875,-152.83203125,-33.69140625,-60.05859375,17.08984375,0.0
75.4453125,-46.875,-170.8984375,-22.94921875,-36.62109375,21.484375,0.0
75.44921875,-57.12890625,-153.80859375,-33.203125,-14.6484375,38.57421875,0.0
75.453125,-49.31640625,-143.5546875,-40.52734375,-25.87890625,57.12890625,0.0
75.45703125,-42.96875,-136.23046875,-27.83203125,-24.4140625,33.69140625,0.0
75.4609375,-35.64453125,-117.67578125,-21.97265625,-13.18359375,-13.18359375,0.0
75.46484375,-45.8984375,-120.1171875,-26.85546875,-10.7421875,-11.71875,0.0
75.46875,-54.6875,-125.9765625,-30.2734375,-9.765625,-0.48828125,0.0
75.47265625,-43.45703125,-123.53515625,-22.4609375,-0.9765625,29.296875,0.0
75.4765625,-33.69140625,-118.65234375,-22.4609375,-13.671875,71.77734375,0.0
75.48046875,-60.05859375,-120.60546875,-33.203125,-19.04296875,63.96484375,0.0
75.484375,-65.4296875,-124.0234375,-42.48046875,-12.6953125,-10.25390625,0.0
75.48828125,-56.15234375,-123.53515625,-35.15625,-14.16015625,57.6171875,0.0
75.4921875,-47.8515625,-125.0,-25.390625,-0.48828125,118.1640625,0.0
75.49609375,-53.7109375,-136.23046875,-33.69140625,-17.578125,45.41015625,0.0
75.5,-62.98828125,-147.4609375,-43.45703125,-31.73828125,59.08203125,0.0
75.50390625,-68.359375,-151.3671875,-43.9453125,-28.3203125,80.078125,0.0
75.5078125,-56.640625,-138.671875,-42.96875,-18.5546875,3.41796875,0.0
75.51171875,-28.3203125,-136.23046875,-41.9921875,-11.23046875,-20.01953125,0.0
75.515625,-27.83203125,-149.90234375,-37.109375,-23.4375,-6.34765625,0.0
75.51953125,-47.8515625,-143.06640625,-39.0625,-31.25,28.3203125,0.0
75.5234375,-44.921875,-146.484375,-37.109375,-14.16015625,30.2734375,0.0
75.52734375,-42.48046875,-158.69140625,-30.2734375,-13.18359375,-53.7109375,0.0
75.53125,-33.69140625,-157.71484375,-26.85546875,-14.16015625,-39.55078125,0.0
75.53515625,-28.3203125,-158.203125,-28.3203125,-17.578125,21.97265625,0.0
75.5390625,-41.50390625,-153.3203125,-33.69140625,-35.64453125,-7.8125,0.0
75.54296875,-45.41015625,-147.94921875,-37.59765625,-27.34375,-42.48046875,0.0
75.546875,-49.8046875,-148.92578125,-33.69140625,-21.97265625,-30.2734375,0.0
75.55078125,-31.73828125,-152.83203125,-29.296875,-19.53125,-73.2421875,0.0
75.5546875,-21.484375,-152.34375,-28.80859375,-15.13671875,-76.66015625,0.0
75.55859375,-41.015625,-164.0625,-34.66796875,-27.83203125,-70.3125,0.0
75.5625,-31.73828125,-167.48046875,-27.34375,-17.578125,-44.43359375,0.0
75.56640625,-31.25,-154.78515625,-22.4609375,-6.34765625,16.11328125,0.0
75.5703125,-28.80859375,-153.3203125,-22.4609375,-6.8359375,-2.9296875,0.0
75.57421875,-25.390625,-159.66796875,-22.4609375,-18.06640625,-62.5,0.0
75.578125,-23.4375,-160.64453125,-20.5078125,-30.2734375,-22.94921875,0.0
75.58203125,-47.36328125,-153.3203125,-15.13671875,-35.64453125,19.04296875,0.0
75.5859375,-59.5703125,-148.4375,-14.6484375,-27.34375,-59.5703125,0.0
75.58984375,-27.34375,-159.66796875,-13.18359375,-19.04296875,-36.1328125,0.0
75.59375,-27.34375,-167.96875,-15.625,-34.66796875,49.31640625,0.0
75.59765625,-52.24609375,-166.015625,-16.11328125,-48.33984375,20.5078125,0.0
75.6015625,-68.84765625,-154.78515625,-21.484375,-56.640625,-10.7421875,0.0
75.60546875,-68.359375,-163.0859375,-22.4609375,-66.40625,1.953125,0.0
75.609375,-40.0390625,-183.10546875,-17.578125,-45.8984375,26.3671875,0.0
75.61328125,-32.2265625,-181.640625,-19.53125,-41.9921875,85.44921875,0.0
75.6171875,-44.921875,-171.875,-16.11328125,-59.08203125,26.85546875,0.0
75.62109375,-56.15234375,-162.109375,-10.7421875,-63.4765625,-31.73828125,0.0
75.625,-54.19921875,-159.1796875,-14.6484375,-55.6640625,11.71875,0.0
75.62890625,-26.3671875,-168.45703125,-16.11328125,-40.52734375,-7.8125,0.0
75.6328125,-4.39453125,-169.43359375,-11.71875,-31.73828125,-86.42578125,0.0
75.63671875,-20.99609375,-155.2734375,-25.390625,-41.50390625,-89.84375,0.0
75.640625,-33.69140625,-149.90234375,-35.15625,-49.31640625,-54.19921875,0.0
75.64453125,-43.9453125,-162.109375,-38.57421875,-52.734375,-51.7578125,0.0
75.6484375,-40.0390625,-180.17578125,-35.15625,-46.875,19.04296875,0.0
75.65234375,-9.765625,-180.6640625,-24.4140625,-33.69140625,-1.953125,0.0
75.65625,6.8359375,-172.8515625,-30.76171875,-29.296875,-72.75390625,0.0
75.66015625,0.9765625,-177.734375,-35.64453125,-38.0859375,-61.03515625,0.0
75.6640625,-9.27734375,-184.5703125,-40.0390625,-37.59765625,-40.0390625,0.0
75.66796875,5.859375,-186.03515625,-27.34375,-23.92578125,7.32421875,0.0
75.671875,18.06640625,-188.4765625,-19.53125,-12.6953125,-31.73828125,0.0
75.67578125,-3.41796875,-188.96484375,-22.4609375,-4.8828125,-104.4921875,0.0
75.6796875,-5.37109375,-191.89453125,-19.04296875,-8.7890625,-103.02734375,0.0
75.68359375,-4.8828125,-190.91796875,-21.97265625,-4.8828125,-58.10546875,0.0
75.6875,-9.27734375,-183.59375,-23.4375,6.34765625,21.484375,0.0
75.69140625,-9.765625,-173.828125,-41.015625,-5.37109375,45.41015625,0.0
75.6953125,0.9765625,-176.26953125,-41.9921875,-17.578125,-58.59375,0.0
75.69921875,7.32421875,-182.12890625,-18.06640625,-12.6953125,-103.515625,0.0
75.703125,-8.30078125,-171.38671875,-21.97265625,-22.94921875,-56.15234375,0.0
75.70703125,-7.8125,-34.66796875,-30.2734375,-20.99609375,20.01953125,0.0
75.7109375,11.71875,-26.3671875,-28.3203125,-17.578125,-7.32421875,0.0
75.71484375,17.578125,-17.08984375,-32.2265625,-29.78515625,-58.10546875,0.0
75.71875,-9.765625,-24.90234375,-31.25,-34.1796875,14.6484375,0.0
75.72265625,-22.4609375,-34.1796875,-26.85546875,-38.0859375,-21.484375,0.0
75.7265625,-22.4609375,-34.1796875,-30.76171875,-36.1328125,-81.0546875,0.0
75.73046875,-0.48828125,-32.2265625,-37.59765625,-28.80859375,-71.2890625,0.0
75.734375,-5.37109375,-50.29296875,-44.43359375,-44.43359375,-16.11328125,0.0
75.73828125,-14.6484375,-48.828125,-47.8515625,-46.875,-4.8828125,0.0
75.7421875,-14.6484375,-38.57421875,-40.0390625,-41.50390625,-96.6796875,0.0
75.74609375,-26.3671875,-11.23046875,-28.3203125,-41.9921875,-156.73828125,0.0
75.75,-8.30078125,-19.53125,-21.484375,-29.78515625,-150.87890625,0.0
75.75390625,5.37109375,-190.4296875,-23.4375,-44.921875,-149.4140625,0.0
75.7578125,28.3203125,-177.24609375,-27.83203125,-73.2421875,-91.30859375,0.0
75.76171875,57.12890625,-177.734375,-22.94921875,-84.47265625,13.671875,0.0
75.765625,63.96484375,-192.87109375,-26.85546875,-90.8203125,-53.7109375,0.0
75.76953125,79.58984375,-202.63671875,-30.2734375,-88.37890625,-110.3515625,0.0
75.7734375,86.42578125,-195.3125,-24.90234375,-90.8203125,-103.515625,0.0
75.77734375,81.0546875,-182.12890625,-30.2734375,-97.16796875,-85.9375,0.0
75.78125,65.91796875,-195.80078125,-38.0859375,-95.703125,-96.19140625,0.0
75.78515625,50.29296875,-212.890625,-33.69140625,-104.98046875,-104.98046875,0.0
75.7890625,64.94140625,-199.70703125,-22.94921875,-78.61328125,-21.97265625,0.0
75.79296875,65.91796875,-193.84765625,-22.94921875,-73.73046875,-19.53125,0.0
75.796875,49.31640625,-197.75390625,-30.2734375,-93.75,3.90625,0.0
75.80078125,32.2265625,-11.23046875,-26.85546875,-85.44921875,87.890625,0.0
75.8046875,22.94921875,-33.203125,-24.90234375,-83.49609375,31.25,0.0
75.80859375,20.01953125,-43.9453125,-26.3671875,-65.91796875,0.9765625,0.0
75.8125,14.6484375,-36.62109375,-23.92578125,-52.24609375,46.38671875,0.0
75.81640625,9.765625,-24.90234375,-18.5546875,-66.40625,37.59765625,0.0
75.8203125,-7.32421875,-20.01953125,-19.04296875,-71.77734375,-49.8046875,0.0
75.82421875,-15.13671875,-28.80859375,-19.04296875,-62.98828125,-63.96484375,0.0
75.828125,-15.13671875,-20.99609375,-20.5078125,-60.546875,23.4375,0.0
75.83203125,-20.01953125,-10.7421875,-28.80859375,-60.546875,56.640625,0.0
75.8359375,-32.71484375,-28.80859375,-23.92578125,-76.66015625,-11.23046875,0.0
75.83984375,-43.9453125,-32.2265625,-20.99609375,-88.8671875,-86.42578125,0.0
75.84375,-51.26953125,-30.76171875,-26.85546875,-85.9375,-114.74609375,0.0
75.84765625,-52.734375,-219.23828125,-28.3203125,-78.61328125,-158.69140625,0.0
75.8515625,-49.8046875,-208.984375,-32.2265625,-76.171875,-122.0703125,0.0
75.85546875,-53.7109375,-206.0546875,-33.69140625,-68.359375,36.1328125,0.0
75.859375,-74.21875,-208.49609375,-28.3203125,-71.2890625,0.48828125,0.0
75.86328125,-88.8671875,-207.03125,-20.01953125,-73.73046875,-127.44140625,0.0
75.8671875,-80.078125,-207.51953125,-20.01953125,-66.40625,-86.9140625,0.0
75.87109375,-73.73046875,-199.70703125,-28.3203125,-63.96484375,-43.9453125,0.0
75.875,-54.6875,-198.2421875,-30.2734375,-51.26953125,-100.09765625,0.0
75.87890625,-51.26953125,-208.49609375,-30.2734375,-42.48046875,-79.58984375,0.0
75.8828125,-84.9609375,-215.8203125,-25.390625,-49.31640625,-21.484375,0.0
75.88671875,-90.33203125,-209.47265625,-22.94921875,-35.64453125,14.16015625,0.0
75.890625,-70.80078125,-202.63671875,-30.2734375,-21.97265625,118.65234375,0.0
75.89453125,-46.875,-201.171875,-30.2734375,-29.78515625,77.1484375,0.0
75.8984375,-51.7578125,-205.56640625,-37.59765625,-27.34375,-67.87109375,0.0
75.90234375,-84.47265625,-211.42578125,-41.9921875,-30.2734375,-24.4140625,0.0
75.90625,-86.9140625,-208.984375,-30.76171875,-31.73828125,-4.39453125,0.0
75.91015625,-59.5703125,-196.2890625,-20.01953125,-14.16015625,-9.27734375,0.0
75.9140625,-59.08203125,-193.84765625,-37.59765625,-12.20703125,38.57421875,0.0
75.91796875,-67.3828125,-197.265625,-49.8046875,-27.83203125,10.25390625,0.0
75.921875,-59.08203125,-193.359375,-36.1328125,-24.90234375,-24.4140625,0.0
75.92578125,-54.6875,-190.4296875,-24.90234375,-5.37109375,-8.30078125,0.0
75.9296875,-51.7578125,-190.4296875,-28.80859375,-10.25390625,-13.18359375,0.0
75.93359375,-62.5,-185.05859375,-36.1328125,-28.80859375,21.97265625,0.0
75.9375,-53.7109375,-189.453125,-27.83203125,-26.85546875,3.90625,0.0
75.94140625,-63.96484375,-194.3359375,-39.0625,-30.2734375,-8.30078125,0.0
75.9453125,-73.73046875,-190.91796875,-37.59765625,-28.3203125,15.625,0.0
75.94921875,-60.05859375,-193.359375,-24.90234375,-12.20703125,14.16015625,0.0
75.953125,-57.6171875,-181.640625,-25.390625,-12.20703125,29.296875,0.0
75.95703125,-74.70703125,-173.33984375,-31.25,-44.43359375,12.20703125,0.0
75.9609375,-78.125,-174.8046875,-25.87890625,-45.41015625,-44.921875,0.0
75.96484375,-70.3125,-174.31640625,-21.97265625,-28.80859375,-129.39453125,0.0
75.96875,-72.265625,-176.26953125,-34.66796875,-29.78515625,-138.671875,0.0
75.97265625,-58.10546875,-167.48046875,-35.15625,-17.578125,-41.9921875,0.0
75.9765625,-53.7109375,-184.5703125,-25.390625,-17.08984375,20.99609375,0.0
75.98046875,-79.58984375,-196.2890625,-31.25,-31.73828125,-14.6484375,0.0
75.984375,-80.078125,-181.15234375,-35.64453125,-22.4609375,20.01953125,0.0
75.98828125,-62.01171875,-164.0625,-27.83203125,-18.5546875,-12.6953125,0.0
75.9921875,-52.734375,-164.0625,-31.73828125,-24.90234375,-91.796875,0.0
75.99609375,-39.0625,-179.19921875,-39.0625,-22.4609375,-97.16796875,0.0
76.0,-42.48046875,-182.6171875,-40.0390625,-35.15625,-38.0859375,0.0
76.00390625,-60.05859375,-187.5,-32.2265625,-37.109375,17.08984375,0.0
76.0078125,-54.6875,-187.01171875,-23.92578125,-20.5078125,-32.71484375,0.0
76.01171875,-38.57421875,-172.8515625,-25.87890625,-15.625,-41.50390625,0.0
76.015625,-43.9453125,-162.109375,-32.71484375,-32.2265625,3.41796875,0.0
76.01953125,-51.7578125,-160.64453125,-34.1796875,-53.22265625,-20.99609375,0.0
76.0234375,-68.359375,-161.62109375,-35.15625,-38.57421875,-57.12890625,0.0
76.02734375,-57.12890625,-162.109375,-38.0859375,-17.08984375,-42.48046875,0.0
76.03125,-33.69140625,-159.66796875,-32.71484375,-16.11328125,-56.15234375,0.0
76.03515625,-30.76171875,-149.90234375,-33.69140625,-26.85546875,-66.89453125,0.0
76.0390625,-32.71484375,-141.11328125,-37.59765625,-34.1796875,-41.015625,0.0
76.04296875,-39.0625,-153.80859375,-36.1328125,-22.94921875,-54.19921875,0.0
76.046875,-45.41015625,-147.4609375,-35.15625,-24.4140625,-115.72265625,0.0
76.05078125,-26.85546875,-130.37109375,-34.66796875,-20.5078125,-121.09375,0.0
76.0546875,-25.390625,-153.80859375,-30.76171875,-15.625,-114.2578125,0.0
76.05859375,-40.0390625,-153.3203125,-34.66796875,-26.3671875,-103.515625,0.0
76.0625,-48.828125,-140.13671875,-35.15625,-30.76171875,-54.19921875,0.0
76.06640625,-55.6640625,-142.578125,-23.92578125,-28.3203125,-13.671875,0.0
76.0703125,-36.1328125,-149.4140625,-21.97265625,-17.578125,-21.97265625,0.0
76.07421875,-25.87890625,-144.04296875,-31.73828125,-10.25390625,31.73828125,0.0
76.078125,-40.0390625,-148.92578125,-30.2734375,-26.85546875,1.953125,0.0
76.08203125,-53.22265625,-169.43359375,-26.85546875,-23.4375,-38.0859375,0.0
76.0859375,-36.62109375,-157.2265625,-22.94921875,1.953125,1.953125,0.0
76.08984375,-8.7890625,-131.34765625,-19.04296875,-3.41796875,-37.59765625,0.0
76.09375,-10.7421875,-105.46875,-25.390625,-7.8125,-38.57421875,0.0
76.09765625,-22.94921875,-102.05078125,-32.71484375,-10.25390625,-53.7109375,0.0
76.1015625,-23.92578125,-116.69921875,-26.85546875,-17.578125,-112.3046875,0.0
76.10546875,-31.25,-114.2578125,-28.3203125,-8.7890625,-97.65625,0.0
76.109375,-30.76171875,-101.07421875,-39.55078125,-4.8828125,-60.546875,0.0
76.11328125,-22.4609375,-95.703125,-31.73828125,-14.16015625,4.8828125,0.0
76.1171875,-20.01953125,-104.4921875,-29.296875,-22.94921875,11.23046875,0.0
76.12109375,-37.59765625,-123.046875,-46.38671875,-42.96875,-80.078125,0.0
76.125,-48.33984375,-144.04296875,-44.43359375,-50.29296875,-89.84375,0.0
76.12890625,-41.015625,-150.87890625,-27.34375,-45.41015625,-66.89453125,0.0
76.1328125,-30.2734375,-139.6484375,-30.76171875,-42.48046875,-16.6015625,0.0
76.13671875,-30.76171875,-126.46484375,-39.0625,-53.7109375,2.44140625,0.0
76.140625,-50.78125,-119.140625,-35.15625,-71.2890625,-25.390625,0.0
76.14453125,-64.453125,-107.91015625,-36.1328125,-61.5234375,5.37109375,0.0
76.1484375,-58.10546875,-104.00390625,-37.109375,-45.41015625,-1.46484375,0.0
76.15234375,-49.31640625,-106.4453125,-33.69140625,-48.828125,8.7890625,0.0
76.15625,-55.17578125,-98.14453125,-36.1328125,-50.78125,46.875,0.0
76.16015625,-57.6171875,-89.35546875,-41.015625,-49.31640625,16.6015625,0.0
76.1640625,-39.55078125,-86.42578125,-41.015625,-38.0859375,-19.04296875,0.0
76.16796875,-43.9453125,-74.21875,-36.1328125,-26.85546875,-65.4296875,0.0
76.171875,-42.96875,-65.4296875,-27.83203125,-26.85546875,-53.7109375,0.0
76.17578125,-36.1328125,-52.24609375,-34.66796875,-28.80859375,-29.296875,0.0
76.1796875,-36.1328125,-49.8046875,-36.1328125,-32.2265625,-43.45703125,0.0
76.18359375,-41.015625,-49.8046875,-34.66796875,-31.73828125,-60.05859375,0.0
76.1875,-36.1328125,-38.0859375,-41.015625,-20.99609375,-51.7578125,0.0
76.19140625,-23.92578125,-37.59765625,-41.015625,-19.04296875,-10.7421875,0.0
76.1953125,-21.484375,-33.69140625,-40.52734375,-25.87890625,-27.34375,0.0
76.19921875,-27.34375,-28.3203125,-44.43359375,-41.50390625,-27.34375,0.0
76.203125,-35.64453125,-32.2265625,-39.0625,-38.57421875,-111.328125,0.0
76.20703125,-25.87890625,-25.87890625,-30.76171875,-14.16015625,-96.19140625,0.0
76.2109375,-26.85546875,-21.97265625,-35.15625,-13.18359375,25.87890625,0.0
76.21484375,-29.78515625,-27.34375,-38.0859375,-18.5546875,23.4375,0.0
76.21875,-19.53125,-18.06640625,-32.71484375,-17.578125,-37.109375,0.0
76.22265625,-13.18359375,-12.20703125,-22.94921875,-19.53125,1.953125,0.0
76.2265625,-26.85546875,-16.11328125,-35.15625,-21.97265625,-52.734375,0.0
76.23046875,-26.3671875,0.48828125,-45.8984375,-20.5078125,-144.04296875,0.0
76.234375,-21.484375,8.7890625,-37.109375,-29.78515625,-124.51171875,0.0
76.23828125,-26.3671875,-4.8828125,-29.78515625,-38.57421875,-33.203125,0.0
76.2421875,-20.01953125,-4.8828125,-22.4609375,-32.71484375,-66.40625,0.0
76.24609375,-41.015625,-1.46484375,-40.52734375,-38.57421875,-77.63671875,0.0
76.25,-39.55078125,-15.625,-40.0390625,-45.41015625,20.01953125,0.0
76.25390625,-24.4140625,0.9765625,-25.390625,-36.62109375,80.56640625,0.0
76.2578125,-42.48046875,30.76171875,-37.109375,-42.96875,102.5390625,0.0
76.26171875,-55.17578125,24.90234375,-46.38671875,-62.5,49.31640625,0.0
76.265625,-51.26953125,7.32421875,-41.9921875,-61.03515625,-37.109375,0.0
76.26953125,-36.62109375,7.8125,-33.203125,-27.83203125,-95.703125,0.0
76.2734375,-29.78515625,8.30078125,-32.2265625,-22.94921875,-16.11328125,0.0
76.27734375,-21.484375,4.8828125,-34.1796875,-28.3203125,17.578125,0.0
76.28125,-29.78515625,7.8125,-35.64453125,-26.3671875,-3.41796875,0.0
76.28515625,-43.45703125,8.30078125,-33.203125,-22.4609375,-43.9453125,0.0
76.2890625,-28.80859375,7.32421875,-30.2734375,-12.6953125,0.48828125,0.0
76.29296875,-11.23046875,8.7890625,-38.0859375,-18.5546875,23.4375,0.0
76.296875,-16.11328125,20.01953125,-41.015625,-24.90234375,-56.15234375,0.0
76.30078125,-23.92578125,18.5546875,-46.38671875,-20.5078125,-82.03125,0.0
76.3046875,-19.04296875,9.765625,-41.015625,-21.484375,-87.40234375,0.0
76.30859375,-20.99609375,12.20703125,-24.90234375,-9.27734375,-111.328125,0.0
76.3125,3.90625,9.27734375,-25.87890625,-2.44140625,-64.94140625,0.0
76.31640625,3.41796875,11.23046875,-21.97265625,-3.41796875,2.44140625,0.0
76.3203125,-27.83203125,13.671875,-31.25,-29.78515625,-41.9921875,0.0
76.32421875,-31.73828125,12.20703125,-43.9453125,-34.66796875,-31.25,0.0
76.328125,-24.90234375,7.8125,-36.62109375,-12.20703125,-17.08984375,0.0
76.33203125,-30.2734375,3.90625,-30.2734375,-19.04296875,-63.96484375,0.0
76.3359375,-41.015625,10.25390625,-31.25,-33.203125,-96.19140625,0.0
76.33984375,-40.0390625,7.32421875,-34.66796875,-45.41015625,-107.91015625,0.0
76.34375,-42.48046875,-6.34765625,-37.109375,-38.57421875,44.43359375,0.0
76.34765625,-51.26953125,-10.25390625,-35.64453125,-30.76171875,130.859375,0.0
76.3515625,-50.78125,-18.06640625,-40.0390625,-43.45703125,4.39453125,0.0
76.35546875,-46.875,-20.01953125,-45.41015625,-58.10546875,-74.21875,0.0
76.359375,-51.26953125,-6.8359375,-41.015625,-56.15234375,-77.1484375,0.0
76.36328125,-62.98828125,-4.39453125,-33.69140625,-54.19921875,-38.0859375,0.0
76.3671875,-58.10546875,-12.20703125,-31.25,-52.734375,3.41796875,0.0
76.37109375,-50.29296875,-13.18359375,-32.71484375,-50.78125,-43.45703125,0.0
76.375,-44.921875,-18.06640625,-38.57421875,-56.15234375,-94.23828125,0.0
76.37890625,-48.828125,-17.578125,-40.0390625,-60.546875,-29.78515625,0.0
76.3828125,-48.828125,-16.11328125,-39.0625,-52.24609375,-43.9453125,0.0
76.38671875,-53.22265625,-21.97265625,-39.0625,-55.6640625,-65.91796875,0.0
76.390625,-58.59375,-15.625,-33.69140625,-49.8046875,-33.203125,0.0
76.39453125,-48.828125,-2.44140625,-33.203125,-41.50390625,-65.91796875,0.0
76.3984375,-57.6171875,-1.46484375,-30.2734375,-59.5703125,-3.41796875,0.0
76.40234375,-52.24609375,-0.9765625,-19.04296875,-43.9453125,22.94921875,0.0
76.40625,-49.31640625,0.0,-26.85546875,-30.2734375,-15.625,0.0
76.41015625,-39.0625,-2.44140625,-31.25,-30.76171875,43.9453125,0.0
76.4140625,-21.97265625,0.48828125,-20.99609375,-26.3671875,83.0078125,0.0
76.41796875,-22.94921875,-0.48828125,-27.34375,-30.2734375,56.640625,0.0
76.421875,-36.1328125,7.32421875,-39.0625,-37.59765625,3.90625,0.0
76.42578125,-27.83203125,21.484375,-39.0625,-43.9453125,20.99609375,0.0
76.4296875,-24.4140625,22.94921875,-31.25,-27.83203125,44.921875,0.0
76.43359375,-36.62109375,23.92578125,-29.78515625,-18.5546875,-23.4375,0.0
76.4375,-28.3203125,24.90234375,-37.109375,-26.85546875,-55.6640625,0.0
76.44140625,-40.0390625,27.83203125,-43.9453125,-37.109375,-32.2265625,0.0
76.4453125,-50.78125,33.69140625,-48.33984375,-41.015625,-36.62109375,0.0
76.44921875,-36.1328125,38.0859375,-44.921875,-33.69140625,53.22265625,0.0
76.453125,-21.97265625,44.921875,-38.57421875,-20.01953125,94.7265625,0.0
76.45703125,-27.83203125,50.78125,-33.203125,-24.90234375,-25.87890625,0.0
76.4609375,-27.83203125,59.5703125,-29.296875,-31.25,-53.7109375,0.0
76.46484375,-40.0390625,61.03515625,-26.85546875,-29.296875,24.4140625,0.0
76.46875,-41.9921875,65.4296875,-34.66796875,-26.3671875,7.8125,0.0
76.47265625,-29.296875,73.73046875,-33.69140625,-30.2734375,35.15625,0.0
76.4765625,-38.0859375,65.91796875,-36.1328125,-35.64453125,-30.2734375,0.0
76.48046875,-41.015625,56.640625,-38.0859375,-36.1328125,-111.328125,0.0
76.484375,-61.5234375,63.96484375,-46.875,-53.7109375,-40.52734375,0.0
76.48828125,-65.91796875,70.80078125,-61.03515625,-60.05859375,-52.24609375,0.0
76.4921875,-36.1328125,52.734375,-44.921875,-35.64453125,-18.06640625,0.0
76.49609375,-24.4140625,60.05859375,-32.71484375,-24.90234375,22.4609375,0.0
76.5,-40.52734375,77.63671875,-31.25,-32.2265625,-64.94140625,0.0
76.50390625,-46.875,80.56640625,-29.78515625,-27.34375,-90.8203125,0.0
76.5078125,-41.015625,81.54296875,-33.203125,-35.15625,-71.2890625,0.0
76.51171875,-31.25,70.3125,-24.90234375,-27.83203125,-59.08203125,0.0
76.515625,-30.76171875,72.265625,-20.99609375,-28.3203125,-2.44140625,0.0
76.51953125,-46.38671875,78.61328125,-29.296875,-38.57421875,5.859375,0.0
76.5234375,-37.109375,79.1015625,-27.83203125,-27.83203125,-12.20703125,0.0
76.52734375,-27.34375,78.61328125,-32.2265625,-23.4375,-16.11328125,0.0
76.53125,-36.1328125,68.84765625,-34.1796875,-36.62109375,-19.04296875,0.0
76.53515625,-41.9921875,55.17578125,-27.83203125,-43.45703125,-73.2421875,0.0
76.5390625,-40.0390625,55.6640625,-24.4140625,-38.0859375,-84.47265625,0.0
76.54296875,-41.50390625,70.3125,-25.390625,-35.64453125,-42.48046875,0.0
76.546875,-42.96875,92.28515625,-32.2265625,-41.9921875,-82.51953125,0.0
76.55078125,-44.43359375,108.88671875,-41.50390625,-39.55078125,-54.19921875,0.0
76.5546875,-45.41015625,100.09765625,-43.45703125,-31.25,-22.4609375,0.0
76.55859375,-44.921875,100.5859375,-36.1328125,-52.734375,14.6484375,0.0
76.5625,-50.29296875,83.0078125,-31.25,-65.4296875,35.64453125,0.0
76.56640625,-55.17578125,64.453125,-26.3671875,-42.96875,-14.6484375,0.0
76.5703125,-44.43359375,93.26171875,-21.484375,-33.69140625,-80.56640625,0.0
76.57421875,-48.828125,117.1875,-43.9453125,-57.12890625,-45.41015625,0.0
76.578125,-53.22265625,122.55859375,-53.22265625,-57.6171875,84.9609375,0.0
76.58203125,-59.08203125,120.60546875,-38.0859375,-52.734375,68.359375,0.0
76.5859375,-60.546875,117.67578125,-31.25,-47.36328125,-2.44140625,0.0
76.58984375,-33.69140625,107.91015625,-28.3203125,-31.25,-43.9453125,0.0
76.59375,-41.015625,91.30859375,-32.2265625,-50.78125,-64.453125,0.0
76.59765625,-47.8515625,84.9609375,-23.92578125,-66.40625,-17.578125,0.0
76.6015625,-59.5703125,69.82421875,-24.4140625,-73.73046875,-8.30078125,0.0
76.60546875,-75.68359375,45.41015625,-29.296875,-69.82421875,-120.60546875,0.0
76.609375,-59.5703125,62.5,-26.85546875,-51.7578125,-156.73828125,0.0
76.61328125,-51.26953125,99.12109375,-29.296875,-45.41015625,-96.6796875,0.0
76.6171875,-51.7578125,104.00390625,-33.203125,-52.734375,-15.13671875,0.0
76.62109375,-61.03515625,100.5859375,-36.1328125,-64.94140625,59.5703125,0.0
76.625,-55.17578125,64.453125,-25.390625,-52.734375,8.30078125,0.0
76.62890625,-41.9921875,-18.5546875,-16.11328125,-36.62109375,-56.15234375,0.0
76.6328125,-35.15625,-38.57421875,-16.6015625,-36.62109375,3.41796875,0.0
76.63671875,-32.71484375,53.22265625,-20.5078125,-42.48046875,-10.25390625,0.0
76.640625,-51.7578125,139.16015625,-29.78515625,-58.59375,-20.99609375,0.0
76.64453125,-55.17578125,143.06640625,-25.390625,-47.8515625,27.34375,0.0
76.6484375,-28.80859375,91.30859375,-10.7421875,-13.18359375,20.99609375,0.0
76.65234375,-7.8125,58.59375,-18.06640625,-8.7890625,-19.04296875,0.0
76.65625,-15.625,65.91796875,-24.90234375,-29.78515625,29.78515625,0.0
76.66015625,-36.1328125,79.1015625,-20.5078125,-35.15625,-20.5078125,0.0
76.6640625,-33.203125,71.2890625,-18.5546875,-29.296875,-152.83203125,0.0
76.66796875,-9.27734375,61.5234375,-23.4375,-17.08984375,-170.8984375,0.0
76.671875,-2.44140625,77.1484375,-18.5546875,-0.9765625,-42.48046875,0.0
76.67578125,-18.5546875,97.16796875,-17.578125,-14.6484375,-20.01953125,0.0
76.6796875,-25.390625,90.33203125,-27.83203125,-30.76171875,-86.42578125,0.0
76.68359375,-32.2265625,72.265625,-20.5078125,-16.6015625,-54.19921875,0.0
76.6875,-21.97265625,57.12890625,-13.671875,-5.859375,-7.8125,0.0
76.69140625,-13.18359375,46.38671875,-24.90234375,-6.34765625,88.8671875,0.0
76.6953125,-6.8359375,36.1328125,-27.34375,-12.6953125,81.0546875,0.0
76.69921875,-11.71875,25.390625,-31.25,-20.5078125,-41.015625,0.0
76.703125,-27.83203125,27.34375,-41.9921875,-25.87890625,-82.03125,0.0
76.70703125,-15.13671875,36.1328125,-34.1796875,-0.48828125,-62.5,0.0
76.7109375,-3.90625,36.1328125,-24.90234375,5.37109375,-36.62109375,0.0
76.71484375,-0.48828125,35.64453125,-30.76171875,-10.7421875,-20.5078125,0.0
76.71875,-10.7421875,29.78515625,-38.0859375,-12.20703125,-10.7421875,0.0
76.72265625,-28.3203125,32.2265625,-31.25,-20.99609375,-27.34375,0.0
76.7265625,-19.53125,26.85546875,-32.2265625,-20.01953125,-39.0625,0.0
76.73046875,-12.6953125,18.06640625,-39.0625,-11.23046875,-97.65625,0.0
76.734375,-16.6015625,30.2734375,-39.0625,-19.04296875,-54.19921875,0.0
76.73828125,-17.578125,48.828125,-40.52734375,-28.3203125,-27.34375,0.0
76.7421875,-13.18359375,51.7578125,-33.69140625,-16.11328125,-104.00390625,0.0
76.74609375,-30.76171875,56.640625,-29.296875,-17.578125,-42.48046875,0.0
76.75,-38.57421875,70.3125,-29.78515625,-8.7890625,-11.71875,0.0
76.75390625,-23.92578125,67.87109375,-32.71484375,-10.7421875,-8.30078125,0.0
76.7578125,-31.73828125,52.24609375,-32.2265625,-30.76171875,27.83203125,0.0
76.76171875,-28.80859375,46.38671875,-26.3671875,-24.90234375,14.6484375,0.0
76.765625,-30.2734375,52.734375,-29.296875,-33.69140625,6.8359375,0.0
76.76953125,-32.71484375,39.0625,-40.52734375,-35.64453125,-32.71484375,0.0
76.7734375,-25.390625,26.3671875,-38.0859375,-23.4375,-44.43359375,0.0
76.77734375,-36.62109375,47.36328125,-30.76171875,-31.25,-8.7890625,0.0
76.78125,-50.29296875,89.84375,-30.76171875,-44.921875,-115.234375,0.0
76.78515625,-52.24609375,107.421875,-27.34375,-44.921875,-137.20703125,0.0
76.7890625,-48.828125,98.6328125,-20.01953125,-40.52734375,5.37109375,0.0
76.79296875,-40.52734375,96.6796875,-26.85546875,-42.96875,37.59765625,0.0
76.796875,-47.8515625,90.8203125,-41.015625,-56.15234375,-55.6640625,0.0
76.80078125,-64.453125,62.5,-36.62109375,-72.265625,-96.6796875,0.0
76.8046875,-77.1484375,64.94140625,-21.97265625,-72.265625,-51.7578125,0.0
76.80859375,-74.70703125,81.0546875,-11.71875,-58.10546875,16.11328125,0.0
76.8125,-57.12890625,96.6796875,-18.06640625,-46.38671875,31.73828125,0.0
76.81640625,-47.8515625,91.30859375,-27.34375,-53.7109375,25.87890625,0.0
76.8203125,-55.17578125,67.3828125,-30.76171875,-61.5234375,1.46484375,0.0
76.82421875,-72.265625,89.84375,-21.97265625,-63.4765625,-38.0859375,0.0
76.828125,-57.12890625,100.5859375,-19.04296875,-58.59375,-37.59765625,0.0
76.83203125,-39.0625,90.8203125,-21.484375,-37.59765625,-62.98828125,0.0
76.8359375,-41.015625,106.4453125,-15.13671875,-43.45703125,-40.52734375,0.0
76.83984375,-49.8046875,107.421875,-18.5546875,-56.640625,87.40234375,0.0
76.84375,-49.31640625,79.58984375,-21.97265625,-43.9453125,107.421875,0.0
76.84765625,-39.0625,64.94140625,-18.5546875,-26.3671875,-61.03515625,0.0
76.8515625,-28.3203125,61.5234375,-14.6484375,-20.5078125,-142.578125,0.0
76.85546875,-29.296875,59.5703125,-18.06640625,-31.73828125,-103.02734375,0.0
76.859375,-51.26953125,96.19140625,-33.69140625,-59.08203125,-57.12890625,0.0
76.86328125,-69.82421875,97.65625,-43.9453125,-72.265625,-106.93359375,0.0
76.8671875,-39.0625,53.7109375,-26.3671875,-44.43359375,-99.609375,0.0
76.87109375,-29.296875,65.4296875,-19.53125,-25.87890625,3.90625,0.0
76.875,-49.8046875,104.98046875,-35.64453125,-45.41015625,-24.90234375,0.0
76.87890625,-55.6640625,113.76953125,-38.57421875,-66.40625,-96.6796875,0.0
76.8828125,-53.7109375,92.7734375,-33.203125,-63.4765625,-103.515625,0.0
76.88671875,-41.9921875,84.47265625,-35.64453125,-45.41015625,-78.61328125,0.0
76.890625,-35.64453125,104.4921875,-40.52734375,-34.66796875,-79.1015625,0.0
76.89453125,-37.109375,119.140625,-35.15625,-39.55078125,-74.21875,0.0
76.8984375,-42.48046875,96.6796875,-26.85546875,-39.55078125,-0.48828125,0.0
76.90234375,-49.8046875,80.078125,-26.3671875,-51.7578125,22.94921875,0.0
76.90625,-53.7109375,32.71484375,-27.83203125,-61.5234375,-42.48046875,0.0
76.91015625,-47.36328125,20.01953125,-22.4609375,-50.78125,-56.15234375,0.0
76.9140625,-54.19921875,88.8671875,-28.80859375,-49.8046875,-32.71484375,0.0
76.91796875,-57.12890625,113.76953125,-35.15625,-54.6875,-77.1484375,0.0
76.921875,-54.6875,112.3046875,-30.76171875,-49.31640625,-46.875,0.0
76.92578125,-50.29296875,109.86328125,-37.59765625,-39.0625,-41.50390625,0.0
76.9296875,-34.1796875,98.14453125,-41.9921875,-27.83203125,-49.31640625,0.0
76.93359375,-30.76171875,80.56640625,-38.0859375,-33.69140625,-54.6875,0.0
76.9375,-44.43359375,78.61328125,-38.57421875,-39.0625,-67.87109375,0.0
76.94140625,-45.41015625,77.1484375,-33.69140625,-34.1796875,44.921875,0.0
76.9453125,-31.73828125,75.1953125,-35.64453125,-30.76171875,103.02734375,0.0
76.94921875,-19.53125,69.3359375,-32.71484375,-7.8125,37.59765625,0.0
76.953125,-25.390625,61.5234375,-32.71484375,-12.20703125,39.0625,0.0
76.95703125,-37.109375,62.98828125,-35.64453125,-26.85546875,101.5625,0.0
76.9609375,-27.34375,50.78125,-36.62109375,-20.01953125,92.28515625,0.0
76.96484375,-25.390625,54.19921875,-39.0625,-20.5078125,36.62109375,0.0
76.96875,-24.4140625,79.58984375,-29.296875,-19.53125,-15.625,0.0
76.97265625,-14.16015625,77.1484375,-29.78515625,-23.92578125,-14.16015625,0.0
76.9765625,-11.71875,88.8671875,-34.1796875,-16.11328125,2.9296875,0.0
76.98046875,-5.859375,82.03125,-33.69140625,-10.7421875,-41.9921875,0.0
76.984375,-17.08984375,37.109375,-28.3203125,-15.625,-138.671875,0.0
76.98828125,-26.3671875,45.8984375,-27.34375,-13.18359375,-80.078125,0.0
76.9921875,-16.6015625,89.35546875,-35.64453125,-13.18359375,46.38671875,0.0
76.99609375,-14.16015625,112.3046875,-29.78515625,-10.7421875,52.734375,0.0
77.0,-20.99609375,106.93359375,-22.94921875,-31.25,33.69140625,0.0
77.00390625,-28.80859375,73.73046875,-21.484375,-41.50390625,-6.8359375,0.0
77.0078125,-31.73828125,47.36328125,-24.4140625,-11.23046875,-5.37109375,0.0
77.01171875,-25.390625,47.36328125,-25.390625,-16.6015625,67.3828125,0.0
77.015625,-3.41796875,43.9453125,-35.64453125,-34.1796875,-9.765625,0.0
77.01953125,-3.90625,59.08203125,-45.8984375,-35.64453125,-48.828125,0.0
77.0234375,-32.71484375,101.07421875,-38.0859375,-42.96875,-53.7109375,0.0
77.02734375,-42.96875,121.09375,-33.69140625,-36.1328125,-55.17578125,0.0
77.03125,-17.578125,110.3515625,-25.390625,-15.13671875,-15.13671875,0.0
77.03515625,-7.8125,85.44921875,-33.203125,-26.85546875,-36.1328125,0.0
77.0390625,-23.92578125,71.77734375,-38.57421875,-38.0859375,-53.7109375,0.0
77.04296875,-33.69140625,101.07421875,-38.0859375,-27.83203125,-29.296875,0.0
77.046875,-39.0625,115.72265625,-42.96875,-34.66796875,-49.31640625,0.0
77.05078125,-13.671875,111.328125,-32.71484375,-21.484375,-66.40625,0.0
77.0546875,-24.4140625,109.86328125,-39.55078125,-20.99609375,-118.1640625,0.0
77.05859375,-41.9921875,121.09375,-52.734375,-42.96875,-123.046875,0.0
77.0625,-13.18359375,102.05078125,-41.015625,-8.7890625,-40.52734375,0.0
77.06640625,-14.6484375,90.8203125,-30.2734375,16.11328125,-5.37109375,0.0
77.0703125,-8.7890625,55.6640625,-32.71484375,9.765625,4.39453125,0.0
77.07421875,-5.37109375,23.92578125,-43.45703125,-0.48828125,-6.34765625,0.0
77.078125,-17.578125,81.54296875,-48.828125,-15.625,-22.4609375,0.0
77.08203125,-17.08984375,119.140625,-40.0390625,-14.6484375,-44.43359375,0.0
77.0859375,-6.34765625,107.91015625,-39.0625,-2.9296875,-98.14453125,0.0
77.08984375,0.9765625,66.89453125,-45.41015625,-2.44140625,-62.98828125,0.0
77.09375,0.9765625,43.45703125,-42.96875,-5.859375,-11.23046875,0.0
77.09765625,-1.46484375,61.5234375,-44.921875,-11.71875,-78.61328125,0.0
77.1015625,-20.5078125,68.359375,-46.875,-38.57421875,-136.23046875,0.0
77.10546875,-40.0390625,64.94140625,-47.8515625,-51.26953125,-108.88671875,0.0
77.109375,-19.53125,65.91796875,-46.38671875,-22.4609375,-60.05859375,0.0
77.11328125,-12.20703125,-35.64453125,-41.50390625,-20.5078125,-37.109375,0.0
77.1171875,-16.11328125,-24.4140625,-37.109375,-35.15625,-49.8046875,0.0
77.12109375,-14.16015625,-12.6953125,-41.015625,-47.36328125,-11.23046875,0.0
77.125,-40.0390625,-18.5546875,-45.41015625,-63.96484375,25.390625,0.0
77.12890625,-36.62109375,-31.73828125,-41.50390625,-52.24609375,11.71875,0.0
77.1328125,-26.3671875,-32.2265625,-27.34375,-30.76171875,-12.20703125,0.0
77.13671875,-36.1328125,-25.87890625,-27.83203125,-42.48046875,-76.171875,0.0
77.140625,-45.8984375,-24.4140625,-33.69140625,-58.59375,-61.5234375,0.0
77.14453125,-57.6171875,-28.80859375,-32.71484375,-51.7578125,-18.06640625,0.0
77.1484375,-61.03515625,-38.0859375,-39.0625,-46.875,-0.9765625,0.0
77.15234375,-52.734375,-12.6953125,-38.0859375,-57.12890625,-24.90234375,0.0
77.15625,-41.50390625,-10.25390625,-36.1328125,-51.7578125,-9.27734375,0.0
77.16015625,-52.24609375,69.3359375,-40.0390625,-56.640625,-40.52734375,0.0
77.1640625,-60.05859375,41.50390625,-39.0625,-61.5234375,-64.453125,0.0
77.16796875,-36.1328125,36.1328125,-27.34375,-30.76171875,-21.97265625,0.0
77.171875,-30.76171875,62.01171875,-22.4609375,-22.4609375,-55.6640625,0.0
77.17578125,-35.64453125,75.1953125,-27.83203125,-29.78515625,-75.68359375,0.0
77.1796875,-35.64453125,28.3203125,-30.2734375,-28.3203125,-74.21875,0.0
77.18359375,-41.9921875,13.671875,-33.203125,-22.94921875,-40.0390625,0.0
77.1875,-37.59765625,61.03515625,-34.66796875,-11.71875,-55.17578125,0.0
77.19140625,-37.109375,54.6875,-46.38671875,-27.83203125,-137.20703125,0.0
77.1953125,-32.71484375,95.21484375,-56.15234375,-40.0390625,-154.78515625,0.0
77.19921875,-19.04296875,53.22265625,-40.52734375,-18.06640625,-104.98046875,0.0
77.203125,-25.87890625,0.48828125,-33.203125,-16.6015625,-87.40234375,0.0
77.20703125,-18.06640625,98.6328125,-26.85546875,-6.8359375,-45.8984375,0.0
77.2109375,10.25390625,97.65625,-25.390625,3.90625,3.90625,0.0
77.21484375,3.41796875,35.64453125,-28.80859375,-16.11328125,-14.6484375,0.0
77.21875,-23.4375,55.6640625,-37.59765625,-37.109375,-8.30078125,0.0
77.22265625,-20.99609375,98.6328125,-40.52734375,-24.90234375,-0.9765625,0.0
77.2265625,-15.625,101.07421875,-33.203125,-9.27734375,-65.4296875,0.0
77.23046875,-16.11328125,44.43359375,-35.15625,-12.6953125,-96.6796875,0.0
77.234375,-13.18359375,53.7109375,-39.0625,-22.94921875,-108.88671875,0.0
77.23828125,-19.53125,62.01171875,-44.921875,-37.109375,-80.56640625,0.0
77.2421875,-32.2265625,2.9296875,-39.55078125,-40.52734375,-34.66796875,0.0
77.24609375,-26.85546875,-12.6953125,-36.62109375,-28.3203125,-87.890625,0.0
77.25,-19.53125,37.109375,-44.921875,-19.04296875,-99.12109375,0.0
77.25390625,-9.27734375,123.046875,-36.1328125,-30.2734375,-64.94140625,0.0
77.2578125,-9.27734375,166.50390625,-29.78515625,-30.76171875,-102.05078125,0.0
77.26171875,-46.875,79.1015625,-45.41015625,-39.0625,-82.03125,0.0
77.265625,-46.38671875,40.0390625,-42.96875,-39.55078125,-58.59375,0.0
77.26953125,-21.484375,102.05078125,-26.85546875,-22.94921875,-59.5703125,0.0
77.2734375,-15.13671875,84.47265625,-27.83203125,-25.87890625,-20.5078125,0.0
77.27734375,-14.16015625,49.8046875,-30.76171875,-25.390625,-27.34375,0.0
77.28125,-26.85546875,17.08984375,-36.62109375,-34.66796875,-32.2265625,0.0
77.28515625,-34.66796875,-62.5,-37.59765625,-36.62109375,38.0859375,0.0
77.2890625,-15.13671875,5.859375,-24.4140625,-16.6015625,27.83203125,0.0
77.29296875,-5.859375,147.4609375,-24.4140625,-21.484375,-68.84765625,0.0
77.296875,-29.296875,180.6640625,-37.109375,-34.66796875,-32.71484375,0.0
77.30078125,-40.52734375,-36.62109375,-35.64453125,-27.83203125,-250.0,0.0
77.3046875,-42.96875,-32.71484375,-29.296875,-19.53125,-200.1953125,0.0
77.30859375,-37.59765625,-26.85546875,-27.83203125,-20.01953125,-26.3671875,0.0
77.3125,-30.76171875,-15.13671875,-34.66796875,-36.1328125,7.32421875,0.0
77.31640625,-20.01953125,-17.578125,-34.1796875,-31.25,-38.0859375,0.0
77.3203125,-19.04296875,-40.52734375,-28.80859375,-19.53125,-38.57421875,0.0
77.32421875,-35.64453125,-23.4375,-33.203125,-36.62109375,-53.7109375,0.0
77.328125,-37.59765625,-36.1328125,-42.96875,-40.52734375,-72.265625,0.0
77.33203125,-20.5078125,-57.12890625,-34.1796875,-20.99609375,64.94140625,0.0
77.3359375,-26.3671875,-30.2734375,-27.34375,-26.85546875,61.5234375,0.0
77.33984375,-40.52734375,-21.97265625,-21.97265625,-37.109375,-13.18359375,0.0
77.34375,-39.55078125,-18.5546875,-7.32421875,-23.4375,83.984375,0.0
77.34765625,-40.52734375,140.13671875,-14.16015625,-18.06640625,-131.8359375,0.0
77.3515625,-28.3203125,65.4296875,-23.4375,-28.3203125,-100.5859375,0.0
77.35546875,-19.53125,-108.88671875,-17.08984375,-29.296875,-106.4453125,0.0
77.359375,-39.0625,-56.15234375,-27.83203125,-32.71484375,-90.33203125,0.0
77.36328125,-41.9921875,67.3828125,-33.69140625,-41.015625,-10.7421875,0.0
77.3671875,-28.3203125,6.8359375,-23.4375,-20.01953125,-33.69140625,0.0
77.37109375,-20.01953125,109.86328125,-20.99609375,-15.13671875,-18.06640625,0.0
77.375,-27.83203125,208.984375,-25.87890625,-27.83203125,-8.30078125,0.0
77.37890625,-39.55078125,132.32421875,-38.0859375,-29.296875,-22.94921875,0.0
77.3828125,-8.30078125,81.0546875,-26.85546875,-29.296875,-120.1171875,0.0
77.38671875,-11.23046875,70.3125,-23.92578125,-16.6015625,-86.9140625,0.0
77.390625,-36.1328125,31.73828125,-37.109375,-15.625,27.34375,0.0
77.39453125,-22.94921875,-16.11328125,-39.0625,-30.2734375,36.1328125,0.0
77.3984375,-14.16015625,-5.37109375,-40.52734375,-35.64453125,126.953125,0.0
77.40234375,-15.625,33.203125,-37.59765625,-26.85546875,59.5703125,0.0
77.40625,-18.5546875,-33.203125,-31.73828125,-20.01953125,-18.06640625,0.0
77.41015625,-14.16015625,-51.26953125,-26.3671875,-20.01953125,-35.64453125,0.0
77.4140625,-10.7421875,23.4375,-33.203125,-20.01953125,-81.54296875,0.0
77.41796875,-16.6015625,56.15234375,-34.66796875,-21.484375,-27.34375,0.0
77.421875,-27.83203125,59.5703125,-28.80859375,-28.3203125,-13.18359375,0.0
77.42578125,-25.390625,32.2265625,-26.85546875,-41.015625,5.37109375,0.0
77.4296875,-25.390625,37.109375,-30.2734375,-36.1328125,54.6875,0.0
77.43359375,-27.83203125,39.0625,-42.96875,-29.296875,40.0390625,0.0
77.4375,-33.203125,-35.64453125,-40.52734375,-37.109375,-17.578125,0.0
77.44140625,-46.38671875,-62.5,-29.78515625,-41.015625,-31.25,0.0
77.4453125,-43.9453125,-42.96875,-28.80859375,-38.57421875,-32.71484375,0.0
77.44921875,-33.203125,-31.25,-30.2734375,-31.25,-2.44140625,0.0
77.453125,-22.4609375,-34.66796875,-25.87890625,-32.2265625,41.50390625,0.0
77.45703125,-37.109375,-33.69140625,-22.4609375,-36.1328125,57.12890625,0.0
77.4609375,-47.36328125,-26.85546875,-26.85546875,-46.38671875,34.66796875,0.0
77.46484375,-52.24609375,-31.73828125,-32.71484375,-41.50390625,-46.38671875,0.0
77.46875,-44.43359375,-38.57421875,-25.87890625,-28.80859375,-8.7890625,0.0
77.47265625,-34.66796875,-29.78515625,-20.99609375,-33.69140625,-67.3828125,0.0
77.4765625,-50.29296875,-29.78515625,-29.296875,-55.17578125,-137.20703125,0.0
77.48046875,-72.75390625,-32.2265625,-29.78515625,-63.96484375,-67.3828125,0.0
77.484375,-68.359375,-26.3671875,-19.04296875,-56.15234375,12.20703125,0.0
77.48828125,-51.7578125,-21.484375,-17.08984375,-40.0390625,-30.76171875,0.0
77.4921875,-36.1328125,-11.71875,-15.13671875,-32.2265625,-45.8984375,0.0
77.49609375,-40.0390625,-16.6015625,-22.4609375,-55.17578125,24.4140625,0.0
77.5,-63.4765625,0.48828125,-38.0859375,-77.1484375,54.6875,0.0
77.50390625,-49.31640625,-6.8359375,-29.296875,-65.91796875,33.69140625,0.0
77.5078125,-27.34375,-37.59765625,-10.7421875,-36.1328125,7.8125,0.0
77.51171875,-26.85546875,-17.578125,-11.71875,-41.015625,1.46484375,0.0
77.515625,-26.85546875,-11.23046875,-18.06640625,-58.59375,43.45703125,0.0
77.51953125,-45.8984375,-20.5078125,-25.390625,-66.40625,53.7109375,0.0
77.5234375,-52.734375,-25.87890625,-30.76171875,-62.5,-17.08984375,0.0
77.52734375,-46.875,-24.4140625,-20.99609375,-49.31640625,-49.8046875,0.0
77.53125,-43.9453125,-18.06640625,-18.06640625,-55.17578125,22.4609375,0.0
77.53515625,-38.0859375,-112.3046875,-19.53125,-56.15234375,-43.9453125,0.0
77.5390625,-48.828125,-113.28125,-17.08984375,-55.17578125,-57.6171875,0.0
77.54296875,-44.43359375,-41.015625,-19.53125,-71.77734375,-69.3359375,0.0
77.546875,-47.8515625,-60.546875,-22.4609375,-59.5703125,-58.10546875,0.0
77.55078125,-54.19921875,-136.23046875,-25.87890625,-41.015625,-14.16015625,0.0
77.5546875,-36.1328125,-57.6171875,-20.99609375,-33.69140625,-45.8984375,0.0
77.55859375,-41.015625,34.1796875,-22.94921875,-45.8984375,-114.2578125,0.0
77.5625,-49.31640625,-6.8359375,-25.390625,-50.29296875,-103.515625,0.0
77.56640625,-43.9453125,-40.0390625,-21.97265625,-29.296875,-48.33984375,0.0
77.5703125,-33.203125,-56.640625,-17.08984375,-29.78515625,-48.828125,0.0
77.57421875,-26.3671875,-118.65234375,-13.18359375,-25.87890625,-82.51953125,0.0
77.578125,-32.2265625,-143.06640625,-19.04296875,-31.25,-63.4765625,0.0
77.58203125,-38.57421875,-124.51171875,-22.4609375,-32.2265625,-36.1328125,0.0
77.5859375,-44.921875,-104.98046875,-25.390625,-28.80859375,-72.265625,0.0
77.58984375,-35.64453125,-80.078125,-16.11328125,-36.62109375,-37.109375,0.0
77.59375,-27.34375,-31.25,-12.20703125,-28.80859375,-6.8359375,0.0
77.59765625,-35.15625,12.6953125,-30.76171875,-33.69140625,-68.84765625,0.0
77.6015625,-36.1328125,-25.390625,-34.66796875,-41.50390625,-119.62890625,0.0
77.60546875,-35.15625,-63.4765625,-30.2734375,-31.25,-16.11328125,0.0
77.609375,-10.25390625,-86.42578125,-22.94921875,-15.13671875,65.4296875,0.0
77.61328125,2.9296875,-127.9296875,-17.578125,-18.06640625,-24.4140625,0.0
77.6171875,-11.23046875,-177.24609375,-26.3671875,-28.3203125,-12.20703125,0.0
77.62109375,-11.23046875,-119.62890625,-29.78515625,-30.2734375,41.9921875,0.0
77.625,-18.06640625,-76.171875,-30.76171875,-29.78515625,-13.671875,0.0
77.62890625,-29.78515625,-78.125,-32.71484375,-15.13671875,-21.97265625,0.0
77.6328125,-19.04296875,-42.48046875,-28.80859375,-16.6015625,-0.48828125,0.0
77.63671875,-15.625,-34.1796875,-29.78515625,-27.34375,-54.19921875,0.0
77.640625,-23.92578125,-48.828125,-33.203125,-28.3203125,-83.0078125,0.0
77.64453125,-23.4375,-80.078125,-35.64453125,-20.99609375,-61.5234375,0.0
77.6484375,-14.16015625,-111.328125,-33.203125,-15.13671875,32.71484375,0.0
77.65234375,-4.8828125,-116.2109375,-32.2265625,-1.46484375,72.75390625,0.0
77.65625,-11.71875,-174.31640625,-40.52734375,-23.92578125,55.6640625,0.0
77.66015625,-36.62109375,-226.07421875,-45.8984375,-50.78125,13.18359375,0.0
77.6640625,-27.34375,-102.5390625,-33.203125,-21.484375,-26.85546875,0.0
77.66796875,-9.765625,-17.08984375,-23.4375,0.9765625,-1.953125,0.0
77.671875,-10.7421875,-44.43359375,-35.15625,4.8828125,13.671875,0.0
77.67578125,-19.04296875,-95.21484375,-41.015625,-7.8125,3.41796875,0.0
77.6796875,-30.2734375,-114.2578125,-43.9453125,-12.20703125,-20.5078125,0.0
77.68359375,-29.296875,-122.0703125,-43.9453125,-2.44140625,-10.7421875,0.0
77.6875,-20.99609375,-130.859375,-42.48046875,3.41796875,52.24609375,0.0
77.69140625,-7.32421875,-98.6328125,-39.55078125,10.25390625,15.625,0.0
77.6953125,2.44140625,-151.85546875,-33.203125,6.34765625,-48.33984375,0.0
77.69921875,-22.4609375,-255.37109375,-43.9453125,-17.578125,-10.7421875,0.0
77.703125,-42.48046875,-180.17578125,-57.12890625,-23.92578125,-54.6875,0.0
77.70703125,-18.06640625,-62.98828125,-48.828125,-8.7890625,-150.87890625,0.0
77.7109375,-8.30078125,-32.2265625,-46.38671875,-11.71875,-78.125,0.0
77.71484375,-12.6953125,-24.90234375,-47.8515625,-7.32421875,0.48828125,0.0
77.71875,-10.25390625,-55.17578125,-38.0859375,-1.953125,-28.3203125,0.0
77.72265625,-15.13671875,-90.33203125,-34.1796875,-14.16015625,-96.19140625,0.0
77.7265625,-21.97265625,-120.60546875,-41.9921875,-13.671875,-89.84375,0.0
77.73046875,-14.6484375,-199.70703125,-45.41015625,-19.04296875,-66.40625,0.0
77.734375,-8.7890625,-215.33203125,-40.0390625,-21.97265625,-79.1015625,0.0
77.73828125,-33.203125,-133.30078125,-39.55078125,-31.73828125,-37.109375,0.0
77.7421875,-38.0859375,-116.2109375,-40.0390625,-36.62109375,-143.5546875,0.0
77.74609375,-36.1328125,-100.09765625,-44.43359375,-44.921875,-231.93359375,0.0
77.75,-40.52734375,-65.91796875,-42.96875,-48.33984375,-118.1640625,0.0
77.75390625,-32.71484375,-107.421875,-35.15625,-41.015625,32.2265625,0.0
77.7578125,-43.45703125,-193.359375,-37.109375,-64.453125,47.8515625,0.0
77.76171875,-63.4765625,-172.36328125,-41.9921875,-79.58984375,-36.62109375,0.0
77.765625,-45.41015625,-107.91015625,-28.80859375,-49.8046875,-51.26953125,0.0
77.76953125,-24.90234375,-176.7578125,-15.13671875,-35.64453125,-38.0859375,0.0
77.7734375,-26.85546875,-153.3203125,-27.83203125,-38.0859375,21.97265625,0.0
77.77734375,-41.50390625,-72.75390625,-31.73828125,-34.1796875,82.03125,0.0
77.78125,-55.6640625,-92.28515625,-22.4609375,-43.45703125,22.4609375,0.0
77.78515625,-56.15234375,-119.62890625,-18.06640625,-45.8984375,-13.18359375,0.0
77.7890625,-45.41015625,-133.7890625,-24.4140625,-35.64453125,28.3203125,0.0
77.79296875,-39.0625,-144.53125,-31.25,-33.69140625,23.4375,0.0
77.796875,-34.1796875,-173.828125,-25.390625,-44.43359375,-39.0625,0.0
77.80078125,-36.1328125,-224.12109375,-19.53125,-42.96875,-31.25,0.0
77.8046875,-54.19921875,-207.51953125,-21.484375,-36.1328125,-54.19921875,0.0
77.80859375,-38.57421875,-112.3046875,-23.92578125,-24.4140625,-62.5,0.0
77.8125,-27.83203125,-73.73046875,-15.13671875,-24.4140625,-6.34765625,0.0
77.81640625,-36.1328125,-105.95703125,-15.13671875,-43.45703125,0.0,0.0
77.8203125,-56.15234375,-146.97265625,-36.1328125,-60.05859375,-11.23046875,0.0
77.82421875,-53.22265625,-153.3203125,-34.1796875,-40.0390625,-15.625,0.0
77.828125,-18.06640625,-159.66796875,-15.625,-25.87890625,-130.859375,0.0
77.83203125,-8.7890625,-182.6171875,-19.53125,-28.3203125,-246.58203125,0.0
77.8359375,-7.32421875,-175.78125,-37.59765625,-21.97265625,-104.00390625,0.0
77.83984375,-30.2734375,-186.03515625,-42.48046875,-39.0625,7.32421875,0.0
77.84375,-26.85546875,-146.97265625,-26.3671875,-33.203125,41.9921875,0.0
77.84765625,-12.20703125,-77.1484375,-20.5078125,-21.484375,34.66796875,0.0
77.8515625,-31.73828125,-126.46484375,-36.1328125,-33.203125,81.54296875,0.0
77.85546875,-27.34375,-157.71484375,-37.109375,-37.109375,84.9609375,0.0
77.859375,-15.13671875,-139.16015625,-24.90234375,-31.25,-79.1015625,0.0
77.86328125,-23.4375,-205.078125,-27.34375,-22.94921875,-220.703125,0.0
77.8671875,-38.0859375,-206.54296875,-34.1796875,-13.671875,-187.5,0.0
77.87109375,-31.25,-66.89453125,-30.76171875,-19.04296875,-76.66015625,0.0
77.875,-9.27734375,-19.53125,-25.390625,-21.484375,21.484375,0.0
77.87890625,-41.9921875,-74.21875,-36.1328125,-40.0390625,-19.04296875,0.0
77.8828125,-61.5234375,-103.515625,-30.2734375,-41.50390625,-115.234375,0.0
77.88671875,-40.0390625,-120.60546875,-19.04296875,-37.109375,-40.52734375,0.0
77.890625,-34.66796875,-141.11328125,-23.92578125,-33.69140625,1.46484375,0.0
77.89453125,-32.2265625,-194.3359375,-38.0859375,-40.52734375,25.390625,0.0
77.8984375,-39.0625,-280.2734375,-49.8046875,-57.6171875,18.5546875,0.0
77.90234375,-32.2265625,-203.61328125,-35.15625,-44.43359375,-14.16015625,0.0
77.90625,-24.90234375,-69.3359375,-27.34375,-27.34375,0.9765625,0.0
77.91015625,-21.484375,-73.2421875,-30.2734375,-14.16015625,13.671875,0.0
77.9140625,-5.37109375,-104.00390625,-33.203125,-20.5078125,20.99609375,0.0
77.91796875,-24.90234375,-138.671875,-38.0859375,-40.52734375,-34.1796875,0.0
77.921875,-38.0859375,-159.66796875,-33.69140625,-35.64453125,-38.0859375,0.0
77.92578125,-18.5546875,-147.4609375,-27.83203125,-25.390625,-31.25,0.0
77.9296875,-12.6953125,-174.31640625,-29.78515625,-13.671875,-52.24609375,0.0
77.93359375,0.48828125,-182.12890625,-30.76171875,-11.71875,53.7109375,0.0
77.9375,7.32421875,-162.109375,-27.83203125,-11.23046875,104.98046875,0.0
77.94140625,-31.73828125,-148.4375,-44.921875,-24.90234375,0.9765625,0.0
77.9453125,-60.05859375,-110.3515625,-54.19921875,-48.828125,-41.015625,0.0
77.94921875,-10.7421875,-143.5546875,-30.2734375,-7.32421875,-20.99609375,0.0
77.953125,13.18359375,-197.265625,-24.90234375,8.7890625,-43.9453125,0.0
77.95703125,-22.4609375,-200.68359375,-29.296875,-23.4375,-61.03515625,0.0
77.9609375,-30.2734375,-192.87109375,-28.80859375,-26.3671875,-34.66796875,0.0
77.96484375,-29.296875,-137.6953125,-31.73828125,-24.90234375,-34.1796875,0.0
77.96875,-28.3203125,-129.8828125,-37.59765625,-19.04296875,-80.56640625,0.0
77.97265625,-18.5546875,-147.4609375,-38.57421875,-15.625,-69.82421875,0.0
77.9765625,-23.92578125,-87.40234375,-28.3203125,-33.203125,-41.9921875,0.0
77.98046875,-36.62109375,-61.5234375,-22.94921875,-32.2265625,-59.5703125,0.0
77.984375,-50.29296875,-107.421875,-34.66796875,-35.15625,3.90625,0.0
77.98828125,-51.26953125,-147.4609375,-46.38671875,-46.38671875,-24.4140625,0.0
77.9921875,-35.64453125,-151.3671875,-38.57421875,-41.50390625,-34.66796875,0.0
77.99609375,-40.52734375,-138.671875,-33.203125,-48.33984375,19.53125,0.0
78.0,-49.8046875,-115.72265625,-32.2265625,-60.546875,23.4375,0.0
78.00390625,-57.6171875,-104.98046875,-27.83203125,-69.82421875,-20.5078125,0.0
78.0078125,-58.59375,-168.9453125,-31.25,-57.12890625,-4.8828125,0.0
78.01171875,-42.48046875,-193.359375,-34.1796875,-44.43359375,6.34765625,0.0
78.015625,-37.59765625,-156.25,-35.64453125,-48.33984375,-52.734375,0.0
78.01953125,-63.4765625,-142.08984375,-46.875,-69.3359375,-111.81640625,0.0
78.0234375,-64.94140625,-124.0234375,-46.38671875,-70.3125,-103.515625,0.0
78.02734375,-29.296875,-86.42578125,-33.69140625,-43.45703125,-91.796875,0.0
78.03125,-49.8046875,-83.0078125,-40.0390625,-64.94140625,-133.30078125,0.0
78.03515625,-78.61328125,-102.5390625,-43.45703125,-73.2421875,-81.54296875,0.0
78.0390625,-50.78125,-149.90234375,-29.296875,-49.8046875,27.34375,0.0
78.04296875,-51.7578125,-207.51953125,-28.3203125,-44.921875,25.390625,0.0
78.046875,-69.82421875,-182.12890625,-30.76171875,-48.33984375,-75.68359375,0.0
78.05078125,-51.7578125,-124.51171875,-23.92578125,-43.45703125,-137.6953125,0.0
78.0546875,-36.1328125,-91.796875,-27.34375,-41.9921875,-104.4921875,0.0
78.05859375,-29.78515625,-119.140625,-31.25,-41.9921875,-65.4296875,0.0
78.0625,-41.9921875,-154.296875,-30.2734375,-40.0390625,-129.39453125,0.0
78.06640625,-37.59765625,-177.734375,-24.90234375,-24.4140625,-132.8125,0.0
78.0703125,-30.2734375,-185.05859375,-25.390625,-26.85546875,-80.078125,0.0
78.07421875,-45.41015625,-144.53125,-34.1796875,-48.33984375,-70.80078125,0.0
78.078125,-57.12890625,-120.60546875,-46.875,-63.4765625,7.32421875,0.0
78.08203125,-46.875,-129.8828125,-38.57421875,-59.5703125,52.734375,0.0
78.0859375,-29.78515625,-144.53125,-22.94921875,-35.64453125,45.8984375,0.0
78.08984375,-26.3671875,-164.0625,-32.2265625,-30.2734375,4.8828125,0.0
78.09375,-18.06640625,-158.203125,-42.96875,-34.66796875,-24.4140625,0.0
78.09765625,-32.2265625,-152.83203125,-47.36328125,-52.24609375,-14.16015625,0.0
78.1015625,-42.96875,-247.0703125,-45.8984375,-64.94140625,-65.91796875,0.0
78.10546875,-39.55078125,-237.79296875,-43.9453125,-59.5703125,-80.078125,0.0
78.109375,-23.92578125,-108.3984375,-38.57421875,-47.36328125,5.859375,0.0
78.11328125,-9.27734375,-131.34765625,-32.2265625,-25.87890625,25.87890625,0.0
78.1171875,-20.01953125,-140.625,-43.9453125,-25.390625,-13.18359375,0.0
78.12109375,-32.2265625,-93.26171875,-47.8515625,-40.52734375,15.13671875,0.0
78.125,-32.2265625,-126.953125,-36.62109375,-37.109375,-8.30078125,0.0
78.12890625,-33.69140625,-136.71875,-31.25,-17.578125,-39.55078125,0.0
78.1328125,-29.296875,-142.578125,-29.296875,-15.13671875,-12.20703125,0.0
78.13671875,-20.5078125,-177.734375,-34.66796875,-19.53125,-71.2890625,0.0
78.140625,-22.4609375,-181.640625,-35.15625,-26.3671875,-78.61328125,0.0
78.14453125,-24.90234375,-199.70703125,-33.69140625,-13.671875,-59.08203125,0.0
78.1484375,-13.18359375,-247.0703125,-36.62109375,-5.37109375,-97.65625,0.0
78.15234375,-7.8125,-230.95703125,-34.1796875,-7.8125,1.953125,0.0
78.15625,-17.08984375,-136.71875,-28.80859375,-13.18359375,77.1484375,0.0
78.16015625,-18.06640625,-81.54296875,-31.73828125,-20.99609375,-2.44140625,0.0
78.1640625,-29.78515625,-105.95703125,-36.62109375,-11.71875,-17.08984375,0.0
78.16796875,-32.71484375,-145.99609375,-40.0390625,-17.578125,23.92578125,0.0
78.171875,-19.53125,-201.66015625,-37.59765625,-20.99609375,-0.48828125,0.0
78.17578125,-22.94921875,-199.21875,-30.76171875,-28.3203125,-115.234375,0.0
78.1796875,-40.52734375,-152.83203125,-39.55078125,-39.0625,-104.98046875,0.0
78.18359375,-44.43359375,-203.61328125,-43.9453125,-25.390625,-36.62109375,0.0
78.1875,-30.2734375,-242.1875,-38.0859375,-18.06640625,-28.3203125,0.0
78.19140625,-18.5546875,-169.43359375,-33.203125,-17.08984375,-41.50390625,0.0
78.1953125,-27.34375,-144.53125,-28.80859375,-31.25,-28.3203125,0.0
78.19921875,-41.015625,-177.24609375,-35.15625,-44.43359375,24.90234375,0.0
78.203125,-43.45703125,-220.703125,-39.55078125,-37.59765625,-63.4765625,0.0
78.20703125,-39.55078125,-230.46875,-41.015625,-42.48046875,-58.10546875,0.0
78.2109375,-36.1328125,-166.015625,-33.69140625,-46.875,79.1015625,0.0
78.21484375,-33.69140625,-179.6875,-37.109375,-54.19921875,60.05859375,0.0
78.21875,-47.8515625,-220.703125,-43.45703125,-70.80078125,14.6484375,0.0
78.22265625,-64.94140625,-161.1328125,-40.0390625,-71.77734375,-4.8828125,0.0
78.2265625,-53.7109375,-122.55859375,-40.0390625,-65.4296875,-39.0625,0.0
78.23046875,-48.33984375,-155.2734375,-42.96875,-61.5234375,-56.15234375,0.0
78.234375,-47.8515625,-169.921875,-44.43359375,-55.17578125,-77.63671875,0.0
78.23828125,-37.59765625,-171.875,-28.80859375,-56.15234375,-51.7578125,0.0
78.2421875,-56.15234375,-205.078125,-22.4609375,-64.453125,-30.2734375,0.0
78.24609375,-55.17578125,-224.609375,-29.296875,-46.38671875,-38.0859375,0.0
78.25,-36.62109375,-203.61328125,-26.85546875,-32.2265625,-35.64453125,0.0
78.25390625,-41.50390625,-163.57421875,-24.90234375,-45.8984375,-12.6953125,0.0
78.2578125,-57.12890625,-149.90234375,-33.203125,-66.40625,4.39453125,0.0
78.26171875,-60.05859375,-169.921875,-37.109375,-58.59375,-77.63671875,0.0
78.265625,-54.6875,-209.9609375,-31.25,-37.59765625,-119.140625,0.0
78.26953125,-57.6171875,-218.75,-26.85546875,-43.9453125,-77.63671875,0.0
78.2734375,-68.359375,-201.171875,-32.71484375,-60.05859375,-44.43359375,0.0
78.27734375,-71.77734375,-199.70703125,-37.59765625,-62.01171875,-13.18359375,0.0
78.28125,-66.89453125,-169.921875,-38.0859375,-56.640625,-55.17578125,0.0
78.28515625,-67.87109375,-136.71875,-29.78515625,-51.26953125,-100.09765625,0.0
78.2890625,-56.640625,-137.6953125,-19.53125,-42.96875,-82.03125,0.0
78.29296875,-52.24609375,-163.0859375,-27.34375,-44.43359375,-23.4375,0.0
78.296875,-55.17578125,-190.91796875,-44.43359375,-62.01171875,30.2734375,0.0
78.30078125,-54.6875,-233.3984375,-43.45703125,-63.4765625,108.88671875,0.0
78.3046875,-50.78125,-302.24609375,-28.80859375,-45.41015625,-4.39453125,0.0
78.30859375,-51.26953125,-218.26171875,-23.92578125,-42.48046875,-61.03515625,0.0
78.3125,-44.43359375,-98.14453125,-25.87890625,-49.8046875,1.953125,0.0
78.31640625,-38.0859375,-103.515625,-32.71484375,-62.98828125,21.484375,0.0
78.3203125,-60.546875,-157.71484375,-32.71484375,-61.5234375,-7.8125,0.0
78.32421875,-66.89453125,-200.1953125,-30.2734375,-58.10546875,6.8359375,0.0
78.328125,-64.453125,-166.50390625,-37.59765625,-60.546875,117.1875,0.0
78.33203125,-51.7578125,-142.578125,-36.1328125,-55.17578125,50.29296875,0.0
78.3359375,-41.015625,-159.1796875,-33.69140625,-57.6171875,-84.9609375,0.0
78.33984375,-41.50390625,-222.65625,-39.0625,-62.01171875,-111.81640625,0.0
78.34375,-45.41015625,-275.87890625,-41.50390625,-58.59375,-64.453125,0.0
78.34765625,-40.0390625,-180.17578125,-31.25,-44.921875,-82.51953125,0.0
78.3515625,-22.94921875,-98.14453125,-24.90234375,-33.69140625,-134.765625,0.0
78.35546875,-10.25390625,-120.60546875,-34.66796875,-31.25,-112.79296875,0.0
78.359375,-21.484375,-140.625,-33.69140625,-29.296875,-73.73046875,0.0
78.36328125,-33.203125,-192.3828125,-25.390625,-30.76171875,38.0859375,0.0
78.3671875,-26.85546875,-291.9921875,-31.73828125,-15.13671875,64.94140625,0.0
78.37109375,-24.90234375,-248.53515625,-34.1796875,-7.32421875,-15.13671875,0.0
78.375,-27.34375,-137.6953125,-31.73828125,-29.296875,-98.6328125,0.0
78.37890625,-37.59765625,-93.75,-33.69140625,-34.1796875,-73.73046875,0.0
78.3828125,-41.015625,-103.02734375,-41.9921875,-32.71484375,-54.6875,0.0
78.38671875,-28.3203125,-125.9765625,-40.52734375,-22.4609375,-91.796875,0.0
78.390625,-20.5078125,-142.08984375,-37.109375,-25.390625,-110.3515625,0.0
78.39453125,-27.83203125,-205.078125,-35.64453125,-16.6015625,-142.08984375,0.0
78.3984375,-42.96875,-271.97265625,-39.0625,-20.99609375,-146.97265625,0.0
78.40234375,-37.59765625,-201.171875,-41.9921875,-32.71484375,-91.30859375,0.0
78.40625,-37.109375,-114.74609375,-41.9921875,-24.4140625,-81.0546875,0.0
78.41015625,-54.6875,-107.91015625,-45.8984375,-28.3203125,-101.5625,0.0
78.4140625,-36.62109375,-132.8125,-35.64453125,-26.85546875,-26.3671875,0.0
78.41796875,-31.73828125,-171.875,-29.296875,-26.3671875,38.57421875,0.0
78.421875,-24.90234375,-181.15234375,-29.78515625,-22.94921875,-2.44140625,0.0
78.42578125,-9.765625,-190.4296875,-32.2265625,-20.01953125,-43.9453125,0.0
78.4296875,-15.625,-212.890625,-31.73828125,-6.8359375,23.92578125,0.0
78.43359375,-19.04296875,-190.4296875,-36.1328125,-12.6953125,-4.39453125,0.0
78.4375,-23.92578125,-169.43359375,-47.8515625,-34.66796875,-81.0546875,0.0
78.44140625,-28.80859375,-206.54296875,-42.96875,-38.57421875,-35.64453125,0.0
78.4453125,-19.53125,-202.63671875,-25.87890625,-14.16015625,-43.45703125,0.0
78.44921875,-19.53125,-148.4375,-24.90234375,-12.6953125,-82.03125,0.0
78.453125,-33.203125,-144.53125,-44.921875,-45.41015625,-60.05859375,0.0
78.45703125,-27.34375,-146.97265625,-33.69140625,-39.0625,-95.703125,0.0
78.4609375,-27.34375,-148.92578125,-29.296875,-29.78515625,-112.79296875,0.0
78.46484375,-27.34375,-200.1953125,-36.1328125,-33.69140625,-86.9140625,0.0
78.46875,-24.90234375,-195.3125,-27.34375,-27.34375,-76.171875,0.0
78.47265625,-17.578125,-155.2734375,-21.97265625,-22.94921875,-50.78125,0.0
78.4765625,-21.97265625,-155.76171875,-33.203125,-36.1328125,-25.390625,0.0
78.48046875,-38.0859375,-153.3203125,-39.0625,-43.45703125,-10.7421875,0.0
78.484375,-33.69140625,-162.59765625,-25.390625,-38.57421875,20.5078125,0.0
78.48828125,-39.0625,-179.6875,-26.3671875,-48.33984375,50.78125,0.0
78.4921875,-39.0625,-194.3359375,-26.3671875,-35.64453125,36.62109375,0.0
78.49609375,-39.0625,-188.4765625,-33.203125,-43.45703125,32.2265625,0.0
78.5,-57.12890625,-167.96875,-44.43359375,-69.3359375,-45.41015625,0.0
78.50390625,-44.43359375,-166.015625,-26.3671875,-42.48046875,-72.265625,0.0
78.5078125,-45.41015625,-166.9921875,-28.80859375,-35.15625,-70.3125,0.0
78.51171875,-64.94140625,-170.41015625,-44.921875,-60.546875,-14.6484375,0.0
78.515625,-47.36328125,-191.40625,-34.66796875,-43.45703125,62.98828125,0.0
78.51953125,-40.0390625,-229.98046875,-29.296875,-37.59765625,35.64453125,0.0
78.5234375,-57.6171875,-220.21484375,-31.73828125,-52.734375,26.85546875,0.0
78.52734375,-43.9453125,-167.48046875,-21.97265625,-40.52734375,0.48828125,0.0
78.53125,-30.76171875,-165.52734375,-20.99609375,-30.76171875,-57.12890625,0.0
78.53515625,-27.83203125,-217.7734375,-17.578125,-27.34375,-32.2265625,0.0
78.5390625,-55.6640625,-192.87109375,-35.15625,-51.7578125,-33.69140625,0.0
78.54296875,-65.4296875,-133.30078125,-51.26953125,-63.96484375,-75.68359375,0.0
78.546875,-25.87890625,-142.578125,-32.71484375,-24.4140625,-62.98828125,0.0
78.55078125,-11.71875,-156.73828125,-18.06640625,-10.25390625,19.04296875,0.0
78.5546875,-4.8828125,-157.71484375,-28.3203125,-33.69140625,1.46484375,0.0
78.55859375,-20.01953125,-155.2734375,-41.9921875,-54.19921875,-64.94140625,0.0
78.5625,-25.87890625,-177.734375,-32.71484375,-35.64453125,-75.68359375,0.0
78.56640625,-8.7890625,-37.59765625,-26.3671875,-11.71875,-44.921875,0.0
78.5703125,-7.8125,-44.921875,-28.3203125,-4.8828125,30.2734375,0.0
78.57421875,-23.92578125,-42.48046875,-36.1328125,-11.71875,41.015625,0.0
78.578125,-31.25,-38.0859375,-35.15625,-16.6015625,-39.0625,0.0
78.58203125,-37.109375,-35.64453125,-27.34375,-14.6484375,-97.16796875,0.0
78.5859375,-33.203125,-33.69140625,-32.71484375,-12.20703125,-98.6328125,0.0
78.58984375,-23.4375,-36.62109375,-34.66796875,-17.08984375,-64.94140625,0.0
78.59375,-20.01953125,-44.921875,-28.3203125,-10.7421875,-22.94921875,0.0
78.59765625,-20.99609375,-38.0859375,-23.4375,-20.99609375,-107.91015625,0.0
78.6015625,-50.29296875,-50.29296875,-39.0625,-47.8515625,-223.6328125,0.0
78.60546875,-54.19921875,-51.26953125,-47.36328125,-33.69140625,-212.40234375,0.0
78.609375,-21.97265625,-42.48046875,-26.85546875,-12.6953125,-129.39453125,0.0
78.61328125,-35.64453125,-182.12890625,-28.3203125,-22.4609375,-68.84765625,0.0
78.6171875,-34.1796875,-178.7109375,-25.87890625,-23.92578125,-104.00390625,0.0
78.62109375,-25.87890625,-186.5234375,-19.53125,-15.625,-167.96875,0.0
78.625,-38.57421875,-210.44921875,-22.94921875,-19.53125,-166.9921875,0.0
78.62890625,-28.80859375,-211.9140625,-17.578125,-18.5546875,-145.99609375,0.0
78.6328125,-17.578125,-186.5234375,-20.99609375,-22.4609375,-135.25390625,0.0
78.63671875,-39.55078125,-191.89453125,-33.69140625,-46.875,-89.35546875,0.0
78.640625,-49.31640625,-208.984375,-34.66796875,-51.26953125,-52.24609375,0.0
78.64453125,-41.015625,-202.1484375,-31.25,-34.1796875,23.92578125,0.0
78.6484375,-33.69140625,-207.51953125,-35.64453125,-42.48046875,47.8515625,0.0
78.65234375,-31.25,-194.3359375,-29.296875,-38.57421875,62.5,0.0
78.65625,-43.9453125,-169.921875,-29.78515625,-41.015625,37.109375,0.0
78.66015625,-52.734375,-239.74609375,-30.2734375,-52.734375,-53.7109375,0.0
78.6640625,-54.19921875,-269.53125,-24.90234375,-53.7109375,2.44140625,0.0
78.66796875,-51.26953125,-152.34375,-22.94921875,-52.734375,14.16015625,0.0
78.671875,-45.8984375,-83.984375,-20.99609375,-45.8984375,-50.29296875,0.0
78.67578125,-42.96875,-114.74609375,-24.4140625,-53.7109375,-4.39453125,0.0
78.6796875,-62.01171875,-154.296875,-24.4140625,-61.03515625,-6.8359375,0.0
78.68359375,-64.94140625,-163.0859375,-17.08984375,-52.24609375,-12.6953125,0.0
78.6875,-50.29296875,-202.63671875,-14.16015625,-30.76171875,3.41796875,0.0
78.69140625,-52.24609375,-294.43359375,-19.04296875,-25.390625,-25.390625,0.0
78.6953125,-51.26953125,-270.99609375,-22.94921875,-38.0859375,-84.9609375,0.0
78.69921875,-48.828125,-145.01953125,-20.01953125,-42.96875,-78.61328125,0.0
78.703125,-47.8515625,-93.26171875,-14.16015625,-43.9453125,-3.90625,0.0
78.70703125,-48.33984375,-128.90625,-14.16015625,-36.1328125,33.203125,0.0
78.7109375,-49.8046875,-175.78125,-13.671875,-30.76171875,6.34765625,0.0
78.71484375,-41.015625,-179.6875,-9.27734375,-29.78515625,38.57421875,0.0
78.71875,-47.8515625,-190.91796875,-24.90234375,-41.015625,42.48046875,0.0
78.72265625,-75.1953125,-190.91796875,-44.43359375,-72.265625,-115.234375,0.0
78.7265625,-59.5703125,-186.03515625,-32.2265625,-46.875,-104.4921875,0.0
78.73046875,-39.55078125,-235.3515625,-27.83203125,-20.99609375,-30.2734375,0.0
78.734375,-44.921875,-215.33203125,-38.57421875,-46.875,-4.8828125,0.0
78.73828125,-49.8046875,-148.4375,-40.0390625,-62.5,-2.44140625,0.0
78.7421875,-52.24609375,-138.671875,-32.71484375,-61.5234375,-48.33984375,0.0
78.74609375,-45.8984375,-144.53125,-30.76171875,-54.6875,10.7421875,0.0
78.75,-34.1796875,-156.25,-31.25,-52.24609375,27.83203125,0.0
78.75390625,-40.52734375,-171.38671875,-28.3203125,-57.12890625,20.99609375,0.0
78.7578125,-35.15625,-184.08203125,-28.80859375,-52.24609375,-34.66796875,0.0
78.76171875,-33.69140625,-185.05859375,-23.92578125,-41.50390625,-68.359375,0.0
78.765625,-36.62109375,-174.8046875,-29.296875,-42.96875,-63.96484375,0.0
78.76953125,-22.94921875,-179.19921875,-30.76171875,-42.96875,-54.6875,0.0
78.7734375,-15.625,-194.82421875,-28.80859375,-33.69140625,-20.01953125,0.0
78.77734375,-23.4375,-181.15234375,-35.64453125,-39.0625,30.76171875,0.0
78.78125,-49.31640625,-178.7109375,-40.0390625,-57.6171875,90.33203125,0.0
78.78515625,-52.24609375,-249.51171875,-41.9921875,-56.15234375,71.2890625,0.0
78.7890625,-24.4140625,-251.953125,-23.4375,-20.01953125,8.7890625,0.0
78.79296875,-12.20703125,-176.7578125,-18.5546875,-4.39453125,-52.734375,0.0
78.796875,-18.5546875,-144.53125,-25.390625,-15.625,-49.8046875,0.0
78.80078125,-22.4609375,-139.16015625,-26.3671875,-20.5078125,-45.8984375,0.0
78.8046875,-16.11328125,-139.6484375,-23.92578125,-11.71875,-71.2890625,0.0
78.80859375,-12.6953125,-127.44140625,-27.34375,-2.9296875,-37.59765625,0.0
78.8125,-11.71875,-152.34375,-28.80859375,-7.8125,-58.10546875,0.0
78.81640625,-25.390625,-196.2890625,-31.25,-27.34375,-146.484375,0.0
78.8203125,-26.3671875,-210.9375,-32.2265625,-27.83203125,-67.3828125,0.0
78.82421875,-23.4375,-213.37890625,-31.73828125,-12.6953125,39.55078125,0.0
78.828125,-28.3203125,-230.46875,-37.59765625,-13.18359375,4.39453125,0.0
78.83203125,-22.94921875,-178.22265625,-40.0390625,-24.4140625,-21.484375,0.0
78.8359375,-15.625,-106.4453125,-43.9453125,-33.69140625,14.16015625,0.0
78.83984375,-17.578125,-112.3046875,-43.9453125,-43.9453125,-27.34375,0.0
78.84375,-22.94921875,-131.34765625,-41.015625,-43.9453125,-108.3984375,0.0
78.84765625,-18.5546875,-142.578125,-41.015625,-25.87890625,-44.921875,0.0
78.8515625,-31.73828125,-150.87890625,-42.96875,-28.3203125,-53.7109375,0.0
78.85546875,-41.9921875,-165.0390625,-41.015625,-45.8984375,-66.89453125,0.0
78.859375,-34.66796875,-193.359375,-39.0625,-46.875,17.08984375,0.0
78.86328125,-34.66796875,-231.4453125,-41.015625,-40.0390625,19.04296875,0.0
78.8671875,-26.3671875,-226.07421875,-35.15625,-25.87890625,19.04296875,0.0
78.87109375,-25.87890625,-158.203125,-41.015625,-28.80859375,20.99609375,0.0
78.875,-22.4609375,-120.60546875,-50.78125,-48.33984375,-40.0390625,0.0
78.87890625,-25.87890625,-156.25,-41.50390625,-56.15234375,-95.703125,0.0
78.8828125,-28.80859375,-255.859375,-37.59765625,-43.45703125,-171.875,0.0
78.88671875,-27.34375,-214.84375,-49.8046875,-36.62109375,-183.10546875,0.0
78.890625,-32.71484375,-101.5625,-44.921875,-21.484375,-101.5625,0.0
78.89453125,-17.08984375,-94.7265625,-38.0859375,-12.20703125,-16.11328125,0.0
78.8984375,-4.39453125,-123.53515625,-42.48046875,-26.85546875,-24.90234375,0.0
78.90234375,-11.23046875,-158.203125,-39.0625,-20.01953125,-25.87890625,0.0
78.90625,-18.5546875,-187.01171875,-42.48046875,2.9296875,41.50390625,0.0
78.91015625,3.90625,-203.125,-43.9453125,5.859375,38.0859375,0.0
78.9140625,-4.8828125,-224.609375,-47.8515625,-12.20703125,0.9765625,0.0
78.91796875,-18.06640625,-221.19140625,-53.22265625,-25.390625,-23.4375,0.0
78.921875,-5.37109375,-158.69140625,-46.38671875,-12.20703125,-65.91796875,0.0
78.92578125,0.48828125,-125.0,-37.59765625,-5.37109375,-24.4140625,0.0
78.9296875,-12.6953125,-139.16015625,-45.8984375,-10.25390625,104.4921875,0.0
78.93359375,-26.85546875,-157.71484375,-57.6171875,-14.16015625,23.4375,0.0
78.9375,-16.6015625,-165.0390625,-49.31640625,-15.13671875,-55.6640625,0.0
78.94140625,-25.390625,-182.12890625,-41.50390625,-24.90234375,-43.45703125,0.0
78.9453125,-21.484375,-233.3984375,-31.73828125,-18.5546875,-55.17578125,0.0
78.94921875,-14.6484375,-208.49609375,-37.59765625,-21.484375,14.16015625,0.0
78.953125,-20.5078125,-140.13671875,-39.0625,-30.2734375,98.6328125,0.0
78.95703125,-26.3671875,-161.62109375,-32.2265625,-42.96875,3.41796875,0.0
78.9609375,-43.9453125,-176.7578125,-38.57421875,-50.29296875,-123.046875,0.0
78.96484375,-45.41015625,-133.30078125,-42.48046875,-46.38671875,-94.7265625,0.0
78.96875,-38.57421875,-107.421875,-45.41015625,-53.7109375,-72.265625,0.0
78.97265625,-21.97265625,-104.98046875,-43.45703125,-55.6640625,-25.390625,0.0
78.9765625,-35.64453125,-125.48828125,-47.8515625,-61.5234375,-15.13671875,0.0
78.98046875,-58.59375,-181.15234375,-49.31640625,-65.4296875,-84.9609375,0.0
78.984375,-48.828125,-219.23828125,-31.73828125,-48.828125,-63.96484375,0.0
78.98828125,-37.59765625,-209.9609375,-17.578125,-31.25,-16.6015625,0.0
78.9921875,-31.73828125,-171.38671875,-26.85546875,-38.0859375,31.25,0.0
78.99609375,-43.45703125,-157.2265625,-38.57421875,-60.546875,0.48828125,0.0
79.0,-42.96875,-171.875,-34.1796875,-62.01171875,-41.50390625,0.0
79.00390625,-37.59765625,-146.484375,-34.1796875,-50.78125,22.4609375,0.0
79.0078125,-32.2265625,-149.4140625,-25.390625,-33.69140625,-9.27734375,0.0
79.01171875,-22.4609375,-181.15234375,-21.97265625,-33.69140625,-20.01953125,0.0
79.015625,-29.78515625,-173.33984375,-37.109375,-45.41015625,23.92578125,0.0
79.01953125,-35.64453125,-155.2734375,-31.73828125,-50.78125,39.55078125,0.0
79.0234375,-45.41015625,-176.7578125,-26.85546875,-50.78125,38.0859375,0.0
79.02734375,-49.31640625,-211.42578125,-27.83203125,-41.015625,42.96875,0.0
79.03125,-31.25,-251.46484375,-23.4375,-38.0859375,72.75390625,0.0
79.03515625,-18.06640625,-233.3984375,-25.390625,-54.6875,14.16015625,0.0
79.0390625,-32.2265625,-149.4140625,-33.69140625,-61.5234375,-51.26953125,0.0
79.04296875,-37.59765625,-107.421875,-32.2265625,-42.96875,-47.36328125,0.0
79.046875,-20.5078125,-126.953125,-28.80859375,-29.78515625,-98.14453125,0.0
79.05078125,-23.92578125,-189.453125,-36.62109375,-25.390625,-82.03125,0.0
79.0546875,-23.4375,-238.76953125,-38.0859375,-34.66796875,-85.44921875,0.0
79.05859375,-24.4140625,-185.546875,-41.015625,-45.41015625,-57.12890625,0.0
79.0625,-40.52734375,-135.7421875,-39.0625,-42.96875,18.06640625,0.0
79.06640625,-42.48046875,-144.04296875,-30.2734375,-33.69140625,-37.59765625,0.0
79.0703125,-35.64453125,-130.859375,-38.57421875,-38.0859375,-76.66015625,0.0
79.07421875,-23.92578125,-137.20703125,-43.45703125,-34.1796875,32.71484375,0.0
79.078125,-23.92578125,-185.05859375,-40.0390625,-32.2265625,29.296875,0.0
79.08203125,-37.109375,-220.703125,-41.50390625,-52.24609375,-33.69140625,0.0
79.0859375,-23.92578125,-193.359375,-31.25,-40.0390625,0.9765625,0.0
79.08984375,-6.34765625,-151.85546875,-26.85546875,1.953125,-3.90625,0.0
79.09375,-18.5546875,-145.99609375,-39.0625,-13.671875,-71.77734375,0.0
79.09765625,-9.27734375,-141.11328125,-35.64453125,-20.5078125,-118.1640625,0.0
79.1015625,12.6953125,-173.33984375,-29.296875,-10.25390625,-123.046875,0.0
79.10546875,2.44140625,-223.6328125,-26.3671875,-5.859375,-87.40234375,0.0
79.109375,-15.13671875,-196.77734375,-34.1796875,-10.7421875,-49.8046875,0.0
79.11328125,-28.3203125,-141.11328125,-63.96484375,-32.2265625,51.26953125,0.0
79.1171875,-18.5546875,-149.90234375,-56.15234375,-21.97265625,55.17578125,0.0
79.12109375,-6.8359375,-204.58984375,-46.38671875,-8.7890625,-9.27734375,0.0
79.125,-14.16015625,-179.6875,-45.8984375,-13.671875,6.34765625,0.0
79.12890625,-9.27734375,-130.37109375,-40.0390625,-3.41796875,52.24609375,0.0
79.1328125,-6.8359375,-143.06640625,-42.96875,4.39453125,20.99609375,0.0
79.13671875,-15.625,-164.0625,-45.41015625,-13.671875,-56.15234375,0.0
79.140625,-16.6015625,-157.2265625,-38.57421875,-13.18359375,-18.5546875,0.0
79.14453125,-15.13671875,-149.90234375,-32.2265625,-2.9296875,-41.015625,0.0
79.1484375,-18.06640625,-149.90234375,-35.64453125,1.953125,-93.26171875,0.0
79.15234375,-10.7421875,-178.22265625,-38.57421875,-6.8359375,-82.51953125,0.0
79.15625,-31.73828125,-260.7421875,-52.24609375,-42.96875,-101.07421875,0.0
79.16015625,-68.359375,-212.40234375,-62.98828125,-55.6640625,-108.3984375,0.0
79.1640625,-44.921875,-113.28125,-37.59765625,-21.484375,-88.8671875,0.0
79.16796875,-24.90234375,-121.09375,-21.97265625,-2.44140625,-74.70703125,0.0
79.171875,-35.64453125,-147.94921875,-32.71484375,-18.06640625,-31.73828125,0.0
79.17578125,-37.59765625,-175.78125,-31.25,-25.87890625,-0.48828125,0.0
79.1796875,-45.8984375,-164.0625,-37.59765625,-40.52734375,-5.859375,0.0
79.18359375,-46.875,-135.7421875,-37.109375,-44.43359375,27.83203125,0.0
79.1875,-37.59765625,-138.671875,-27.34375,-31.25,47.8515625,0.0
79.19140625,-25.390625,-147.4609375,-29.296875,-28.80859375,-7.8125,0.0
79.1953125,-22.4609375,-159.1796875,-26.85546875,-35.64453125,-53.22265625,0.0
79.19921875,-52.24609375,-159.66796875,-32.71484375,-52.24609375,-44.921875,0.0
79.203125,-70.3125,-187.5,-43.45703125,-54.19921875,-79.58984375,0.0
79.20703125,-48.828125,-226.5625,-32.2265625,-38.0859375,-37.59765625,0.0
79.2109375,-31.73828125,-225.09765625,-19.04296875,-24.90234375,18.06640625,0.0
79.21484375,-33.203125,-188.4765625,-20.99609375,-35.15625,26.85546875,0.0
79.21875,-37.59765625,-145.99609375,-17.578125,-46.875,-8.7890625,0.0
79.22265625,-40.52734375,-147.94921875,-16.11328125,-30.2734375,-105.46875,0.0
79.2265625,-36.1328125,-149.4140625,-25.87890625,-20.99609375,-66.89453125,0.0
79.23046875,-30.2734375,-172.36328125,-30.2734375,-22.4609375,13.18359375,0.0
79.234375,-30.2734375,-190.91796875,-30.76171875,-24.90234375,-68.359375,0.0
79.23828125,-27.34375,-139.16015625,-30.76171875,-27.34375,-88.8671875,0.0
79.2421875,-28.80859375,-116.2109375,-25.87890625,-22.4609375,-94.23828125,0.0
79.24609375,-38.0859375,-139.6484375,-27.34375,-20.5078125,-102.5390625,0.0
79.25,-28.80859375,-186.5234375,-28.3203125,-23.92578125,-3.41796875,0.0
79.25390625,-11.23046875,-193.84765625,-33.203125,-21.97265625,36.62109375,0.0
