timestamp,TP9,AF7,AF8,TP10,AUX,Marker,
146.00390625,-41.50390625,-45.8984375,-27.34375,-36.62109375,-99.12109375,0.0
146.0078125,-46.875,-49.8046875,-33.203125,-34.1796875,-71.77734375,0.0
146.01171875,-54.6875,-50.29296875,-34.66796875,-46.38671875,-12.6953125,0.0
146.015625,-51.7578125,-53.22265625,-40.52734375,-54.6875,-61.03515625,0.0
146.01953125,-50.78125,-49.8046875,-35.15625,-46.875,-64.453125,0.0
146.0234375,-53.22265625,-46.38671875,-31.25,-38.0859375,-9.27734375,0.0
146.02734375,-51.26953125,-48.33984375,-38.0859375,-34.66796875,24.4140625,0.0
146.03125,-49.31640625,-48.828125,-33.203125,-35.15625,51.26953125,0.0
146.03515625,-41.50390625,-40.52734375,-28.80859375,-27.83203125,-5.37109375,0.0
146.0390625,-31.25,-28.80859375,-22.94921875,-24.90234375,-112.79296875,0.0
146.04296875,-32.2265625,-26.85546875,-22.4609375,-29.78515625,-113.28125,0.0
146.046875,-39.55078125,-41.50390625,-27.83203125,-31.73828125,-65.4296875,0.0
146.05078125,-36.1328125,-47.8515625,-27.83203125,-32.71484375,-78.61328125,0.0
146.0546875,-22.94921875,-37.59765625,-17.578125,-20.99609375,-37.109375,0.0
146.05859375,-14.16015625,-35.64453125,-20.5078125,-10.7421875,-19.53125,0.0
146.0625,-16.11328125,-34.66796875,-27.34375,-19.53125,-32.71484375,0.0
146.06640625,-27.83203125,-32.2265625,-30.2734375,-32.71484375,-51.7578125,0.0
146.0703125,-34.66796875,-24.4140625,-33.69140625,-37.109375,-9.765625,0.0
146.07421875,-31.73828125,-26.85546875,-31.25,-33.69140625,20.99609375,0.0
146.078125,-28.3203125,-27.83203125,-28.3203125,-33.203125,-111.81640625,0.0
146.08203125,-26.3671875,-26.85546875,-33.69140625,-34.1796875,-151.3671875,0.0
146.0859375,-28.80859375,-26.3671875,-38.0859375,-29.296875,-106.93359375,0.0
146.08984375,-28.3203125,-31.25,-39.0625,-27.34375,-114.2578125,0.0
146.09375,-28.80859375,-36.62109375,-39.55078125,-28.3203125,-61.03515625,0.0
146.09765625,-27.34375,-31.73828125,-32.71484375,-20.5078125,-10.25390625,0.0
146.1015625,-28.80859375,-29.296875,-31.25,-14.16015625,-16.6015625,0.0
146.10546875,-30.2734375,-28.3203125,-40.52734375,-13.671875,-34.66796875,0.0
146.109375,-26.85546875,-33.203125,-36.62109375,-9.765625,-72.265625,0.0
146.11328125,-24.90234375,-30.2734375,-26.3671875,-5.37109375,-65.91796875,0.0
146.1171875,-23.92578125,-16.11328125,-23.92578125,-7.32421875,20.01953125,0.0
146.12109375,-26.85546875,-21.484375,-24.4140625,-13.671875,41.50390625,0.0
146.125,-29.296875,-31.25,-35.15625,-20.01953125,40.0390625,0.0
146.12890625,-28.80859375,-28.3203125,-38.0859375,-20.99609375,16.11328125,0.0
146.1328125,-31.73828125,-31.73828125,-34.1796875,-21.97265625,-33.203125,0.0
146.13671875,-26.85546875,-38.0859375,-28.80859375,-20.5078125,19.53125,0.0
146.140625,-26.85546875,-38.57421875,-22.4609375,-18.06640625,41.015625,0.0
146.14453125,-27.34375,-29.296875,-23.92578125,-17.08984375,78.61328125,0.0
146.1484375,-34.1796875,-20.99609375,-29.296875,-27.34375,90.33203125,0.0
146.15234375,-55.17578125,-29.78515625,-26.3671875,-40.52734375,31.73828125,0.0
146.15625,-66.89453125,-31.25,-26.85546875,-39.0625,-2.9296875,0.0
146.16015625,-66.40625,-25.390625,-28.3203125,-28.3203125,-45.41015625,0.0
146.1640625,-62.5,-28.3203125,-21.484375,-21.97265625,-43.9453125,0.0
146.16796875,-70.3125,-35.64453125,-25.390625,-32.71484375,-30.2734375,0.0
146.171875,-69.82421875,-39.55078125,-30.2734375,-46.38671875,-54.19921875,0.0
146.17578125,-60.546875,-37.59765625,-25.87890625,-41.9921875,-51.7578125,0.0
146.1796875,-67.3828125,-25.87890625,-22.94921875,-38.0859375,-2.9296875,0.0
146.18359375,-79.1015625,-25.87890625,-26.3671875,-41.50390625,-52.24609375,0.0
146.1875,-100.5859375,-33.69140625,-30.2734375,-48.828125,-56.15234375,0.0
146.19140625,-104.00390625,-29.78515625,-21.484375,-49.31640625,-17.08984375,0.0
146.1953125,-87.890625,-25.87890625,-13.18359375,-42.96875,-2.9296875,0.0
146.19921875,-76.171875,-20.01953125,-17.578125,-42.96875,-4.39453125,0.0
146.203125,-72.265625,-20.5078125,-27.34375,-51.7578125,-20.01953125,0.0
146.20703125,-86.42578125,-26.3671875,-30.76171875,-64.453125,0.48828125,0.0
146.2109375,-89.84375,-25.87890625,-26.85546875,-56.640625,-10.7421875,0.0
146.21484375,-78.61328125,-17.08984375,-22.94921875,-42.96875,-59.08203125,0.0
146.21875,-63.96484375,-13.18359375,-19.53125,-36.1328125,-113.76953125,0.0
146.22265625,-68.359375,-21.97265625,-22.4609375,-41.015625,-144.53125,0.0
146.2265625,-73.73046875,-21.97265625,-29.296875,-40.52734375,-109.86328125,0.0
146.23046875,-81.0546875,-19.04296875,-30.2734375,-35.64453125,-74.21875,0.0
146.234375,-99.609375,-31.73828125,-25.390625,-39.55078125,-104.98046875,0.0
146.23828125,-91.30859375,-40.52734375,-19.04296875,-30.76171875,-128.90625,0.0
146.2421875,-82.03125,-34.1796875,-15.625,-21.484375,-118.1640625,0.0
146.24609375,-79.58984375,-32.2265625,-18.06640625,-15.13671875,-62.5,0.0
146.25,-96.19140625,-31.25,-21.484375,-23.4375,-53.7109375,0.0
146.25390625,-118.1640625,-31.25,-20.01953125,-38.57421875,-40.52734375,0.0
146.2578125,-125.9765625,-30.2734375,-20.5078125,-41.9921875,-5.37109375,0.0
146.26171875,-111.328125,-28.80859375,-20.99609375,-34.1796875,-11.23046875,0.0
146.265625,-108.88671875,-38.0859375,-23.92578125,-33.69140625,-40.52734375,0.0
146.26953125,-129.8828125,-45.8984375,-27.83203125,-39.55078125,-32.71484375,0.0
146.2734375,-115.72265625,-36.1328125,-21.484375,-34.1796875,11.23046875,0.0
146.27734375,-106.4453125,-33.69140625,-19.53125,-29.78515625,3.41796875,0.0
146.28125,-120.1171875,-46.875,-26.3671875,-40.52734375,5.37109375,0.0
146.28515625,-120.1171875,-46.875,-29.296875,-46.875,-59.08203125,0.0
146.2890625,-120.1171875,-36.62109375,-29.296875,-43.45703125,-76.171875,0.0
146.29296875,-124.0234375,-35.15625,-28.3203125,-43.45703125,45.41015625,0.0
146.296875,-122.0703125,-40.0390625,-24.4140625,-41.50390625,24.90234375,0.0
146.30078125,-115.72265625,-46.38671875,-24.90234375,-44.921875,-37.109375,0.0
146.3046875,-114.74609375,-48.828125,-33.69140625,-48.33984375,-53.22265625,0.0
146.30859375,-115.72265625,-44.43359375,-37.109375,-47.8515625,-50.78125,0.0
146.3125,-110.83984375,-44.921875,-38.0859375,-53.7109375,-16.11328125,0.0
146.31640625,-97.16796875,-34.1796875,-33.69140625,-41.9921875,-67.3828125,0.0
146.3203125,-95.703125,-20.99609375,-27.34375,-29.78515625,-121.58203125,0.0
146.32421875,-105.46875,-24.4140625,-32.2265625,-35.64453125,-44.43359375,0.0
146.328125,-109.375,-34.1796875,-36.1328125,-41.015625,44.43359375,0.0
146.33203125,-111.328125,-43.45703125,-34.66796875,-44.43359375,51.26953125,0.0
146.3359375,-97.65625,-29.78515625,-28.80859375,-48.33984375,61.03515625,0.0
146.33984375,-85.44921875,-24.90234375,-26.3671875,-44.43359375,42.96875,0.0
146.34375,-83.49609375,-35.64453125,-31.25,-42.48046875,-12.6953125,0.0
146.34765625,-87.890625,-37.109375,-36.62109375,-58.10546875,-18.06640625,0.0
146.3515625,-93.75,-32.71484375,-37.59765625,-64.94140625,-2.9296875,0.0
146.35546875,-88.37890625,-36.1328125,-32.71484375,-52.734375,-10.25390625,0.0
146.359375,-82.51953125,-35.64453125,-29.78515625,-49.8046875,-82.03125,0.0
146.36328125,-87.40234375,-33.69140625,-32.2265625,-52.734375,-144.53125,0.0
146.3671875,-90.8203125,-30.76171875,-35.15625,-46.38671875,-101.07421875,0.0
146.37109375,-84.47265625,-22.4609375,-34.1796875,-33.69140625,-53.7109375,0.0
146.375,-82.03125,-26.85546875,-29.78515625,-32.2265625,-71.77734375,0.0
146.37890625,-95.21484375,-39.0625,-30.76171875,-47.8515625,-82.51953125,0.0
146.3828125,-99.609375,-33.203125,-33.203125,-52.24609375,-67.3828125,0.0
146.38671875,-89.35546875,-35.64453125,-33.203125,-36.62109375,-4.39453125,0.0
146.390625,-88.37890625,-49.8046875,-32.71484375,-31.25,15.625,0.0
146.39453125,-89.35546875,-51.7578125,-31.25,-38.57421875,13.671875,0.0
146.3984375,-91.30859375,-43.9453125,-31.73828125,-39.55078125,27.34375,0.0
146.40234375,-92.28515625,-41.50390625,-36.1328125,-41.50390625,-4.8828125,0.0
146.40625,-96.19140625,-44.921875,-38.0859375,-51.26953125,-13.18359375,0.0
146.41015625,-93.75,-34.66796875,-36.1328125,-44.921875,48.33984375,0.0
146.4140625,-86.9140625,-27.34375,-33.69140625,-42.48046875,73.73046875,0.0
146.41796875,-88.8671875,-31.25,-31.25,-37.109375,-29.296875,0.0
146.421875,-87.890625,-39.0625,-37.109375,-29.78515625,-7.32421875,0.0
146.42578125,-84.47265625,-41.015625,-39.55078125,-39.0625,33.69140625,0.0
146.4296875,-83.49609375,-33.69140625,-33.69140625,-37.109375,-2.9296875,0.0
146.43359375,-85.44921875,-35.64453125,-39.55078125,-51.26953125,-4.39453125,0.0
146.4375,-79.58984375,-29.296875,-36.62109375,-57.12890625,-36.1328125,0.0
146.44140625,-65.91796875,-20.01953125,-18.5546875,-37.109375,-57.6171875,0.0
146.4453125,-73.73046875,-22.4609375,-18.5546875,-35.15625,-38.57421875,0.0
146.44921875,-86.42578125,-26.85546875,-25.390625,-41.50390625,30.76171875,0.0
146.453125,-87.890625,-32.71484375,-29.296875,-41.015625,-36.1328125,0.0
146.45703125,-84.9609375,-23.4375,-26.85546875,-36.62109375,-94.7265625,0.0
146.4609375,-84.9609375,-11.23046875,-28.3203125,-29.78515625,-64.94140625,0.0
146.46484375,-83.0078125,-21.97265625,-25.390625,-27.83203125,-65.91796875,0.0
146.46875,-84.47265625,-32.2265625,-23.92578125,-33.69140625,-69.3359375,0.0
146.47265625,-80.56640625,-23.92578125,-20.99609375,-37.59765625,-45.41015625,0.0
146.4765625,-71.77734375,-12.6953125,-14.6484375,-40.0390625,-41.50390625,0.0
146.48046875,-81.0546875,-15.625,-18.06640625,-49.8046875,-25.87890625,0.0
146.484375,-83.0078125,-21.97265625,-24.90234375,-50.29296875,16.6015625,0.0
146.48828125,-83.0078125,-27.34375,-33.203125,-54.19921875,67.87109375,0.0
146.4921875,-90.33203125,-29.78515625,-32.2265625,-63.4765625,80.078125,0.0
146.49609375,-93.26171875,-33.69140625,-28.3203125,-62.01171875,-1.953125,0.0
146.5,-95.703125,-35.64453125,-28.3203125,-71.2890625,-66.89453125,0.0
146.50390625,-98.6328125,-32.2265625,-27.83203125,-78.125,-84.47265625,0.0
146.5078125,-104.4921875,-35.15625,-30.76171875,-72.265625,-51.7578125,0.0
146.51171875,-108.88671875,-35.15625,-33.69140625,-70.3125,20.5078125,0.0
146.515625,-100.5859375,-37.59765625,-35.15625,-66.40625,18.06640625,0.0
146.51953125,-82.51953125,-39.0625,-20.5078125,-49.8046875,20.5078125,0.0
146.5234375,-86.9140625,-33.203125,-19.04296875,-44.43359375,75.1953125,0.0
146.52734375,-96.6796875,-33.69140625,-27.83203125,-55.6640625,33.69140625,0.0
146.53125,-92.28515625,-31.73828125,-26.3671875,-59.5703125,0.0,0.0
146.53515625,-85.44921875,-29.296875,-26.85546875,-58.59375,-66.89453125,0.0
146.5390625,-73.2421875,-31.73828125,-26.3671875,-59.5703125,-148.4375,0.0
146.54296875,-67.3828125,-28.3203125,-30.76171875,-64.453125,-72.75390625,0.0
146.546875,-67.87109375,-25.390625,-29.296875,-64.94140625,-29.296875,0.0
146.55078125,-71.2890625,-29.78515625,-32.71484375,-79.1015625,13.18359375,0.0
146.5546875,-71.77734375,-22.4609375,-33.203125,-75.68359375,26.3671875,0.0
146.55859375,-72.265625,-23.4375,-21.97265625,-61.5234375,-28.3203125,0.0
146.5625,-74.70703125,-31.25,-28.3203125,-64.94140625,-54.6875,0.0
146.56640625,-84.47265625,-31.73828125,-43.45703125,-65.4296875,-1.46484375,0.0
146.5703125,-98.6328125,-34.66796875,-44.921875,-68.359375,6.8359375,0.0
146.57421875,-94.7265625,-36.1328125,-41.9921875,-67.87109375,-27.83203125,0.0
146.578125,-94.23828125,-42.96875,-40.52734375,-65.4296875,0.0,0.0
146.58203125,-98.14453125,-41.015625,-40.0390625,-66.89453125,-8.30078125,0.0
146.5859375,-99.12109375,-41.9921875,-42.48046875,-71.77734375,-69.3359375,0.0
146.58984375,-96.6796875,-44.43359375,-43.45703125,-70.80078125,-7.8125,0.0
146.59375,-89.35546875,-36.1328125,-46.875,-60.546875,80.078125,0.0
146.59765625,-91.30859375,-33.203125,-42.96875,-60.05859375,2.44140625,0.0
146.6015625,-81.0546875,-29.296875,-23.92578125,-45.8984375,-32.2265625,0.0
146.60546875,-90.33203125,-36.1328125,-28.3203125,-38.57421875,-34.1796875,0.0
146.609375,-104.98046875,-44.43359375,-34.1796875,-41.50390625,-27.83203125,0.0
146.61328125,-89.84375,-48.33984375,-27.83203125,-22.94921875,6.8359375,0.0
146.6171875,-85.44921875,-38.57421875,-27.34375,-12.20703125,-15.625,0.0
146.62109375,-86.42578125,-36.1328125,-20.01953125,-19.53125,-20.01953125,0.0
146.625,-77.1484375,-51.7578125,-20.99609375,-7.32421875,-71.77734375,0.0
146.62890625,-76.171875,-50.29296875,-24.90234375,-4.8828125,-86.9140625,0.0
146.6328125,-78.125,-38.0859375,-29.78515625,-13.671875,-43.9453125,0.0
146.63671875,-77.1484375,-39.0625,-34.1796875,-11.71875,-96.6796875,0.0
146.640625,-75.68359375,-48.828125,-29.296875,-0.9765625,-76.66015625,0.0
146.64453125,-72.265625,-51.26953125,-29.296875,6.34765625,-10.25390625,0.0
146.6484375,-71.2890625,-39.55078125,-34.66796875,-2.44140625,-7.8125,0.0
146.65234375,-62.01171875,-41.9921875,-34.66796875,-1.953125,-16.6015625,0.0
146.65625,-52.734375,-48.33984375,-35.15625,4.8828125,-42.96875,0.0
146.66015625,-65.91796875,-40.0390625,-36.62109375,0.48828125,-106.4453125,0.0
146.6640625,-71.2890625,-33.203125,-29.78515625,-0.9765625,-58.10546875,0.0
146.66796875,-68.359375,-40.52734375,-28.80859375,-3.41796875,4.39453125,0.0
146.671875,-69.82421875,-43.45703125,-32.71484375,-12.20703125,-40.0390625,0.0
146.67578125,-70.3125,-44.43359375,-31.25,-15.13671875,43.9453125,0.0
146.6796875,-71.77734375,-51.26953125,-34.66796875,-28.3203125,41.9921875,0.0
146.68359375,-67.87109375,-45.8984375,-36.62109375,-36.1328125,3.90625,0.0
146.6875,-65.91796875,-47.36328125,-35.64453125,-34.66796875,0.48828125,0.0
146.69140625,-64.94140625,-46.875,-31.73828125,-37.109375,-74.70703125,0.0
146.6953125,-59.08203125,-35.64453125,-35.15625,-36.1328125,-40.52734375,0.0
146.69921875,-51.26953125,-42.96875,-36.1328125,-34.1796875,-83.49609375,0.0
146.703125,-49.31640625,-54.6875,-34.66796875,-36.1328125,-94.7265625,0.0
146.70703125,-52.24609375,-51.7578125,-42.48046875,-40.52734375,5.859375,0.0
146.7109375,-51.7578125,-42.96875,-39.55078125,-36.1328125,8.30078125,0.0
146.71484375,-52.734375,-36.1328125,-28.3203125,-31.73828125,-62.98828125,0.0
146.71875,-60.05859375,-40.0390625,-34.1796875,-29.78515625,-90.8203125,0.0
146.72265625,-63.96484375,-47.36328125,-41.50390625,-29.296875,-105.46875,0.0
146.7265625,-59.5703125,-36.62109375,-26.3671875,-24.90234375,0.0,0.0
146.73046875,-59.5703125,-30.76171875,-28.3203125,-20.01953125,-20.99609375,0.0
146.734375,-61.5234375,-38.57421875,-39.0625,-25.390625,-106.93359375,0.0
146.73828125,-62.98828125,-39.0625,-36.1328125,-24.90234375,-56.640625,0.0
146.7421875,-57.6171875,-27.83203125,-25.87890625,-20.99609375,-68.84765625,0.0
146.74609375,-53.22265625,-34.1796875,-27.83203125,-19.53125,-82.03125,0.0
146.75,-55.6640625,-47.8515625,-31.25,-22.4609375,-65.4296875,0.0
146.75390625,-55.6640625,-41.015625,-28.80859375,-24.4140625,-134.765625,0.0
146.7578125,-55.17578125,-32.71484375,-30.76171875,-21.97265625,-203.61328125,0.0
146.76171875,-57.12890625,-38.57421875,-33.69140625,-27.83203125,-73.2421875,0.0
146.765625,-57.6171875,-43.9453125,-40.0390625,-29.296875,-26.85546875,0.0
146.76953125,-59.08203125,-38.0859375,-47.36328125,-31.73828125,-94.23828125,0.0
146.7734375,-55.17578125,-33.69140625,-38.0859375,-26.3671875,-31.25,0.0
146.77734375,-53.22265625,-35.15625,-33.203125,-21.484375,14.6484375,0.0
146.78125,-50.29296875,-32.71484375,-39.0625,-20.5078125,43.9453125,0.0
146.78515625,-42.48046875,-24.4140625,-35.15625,-12.20703125,16.6015625,0.0
146.7890625,-41.50390625,-24.90234375,-36.1328125,-14.16015625,-4.8828125,0.0
146.79296875,-43.9453125,-32.71484375,-38.57421875,-21.97265625,-34.1796875,0.0
146.796875,-39.0625,-35.64453125,-33.69140625,-15.625,-31.73828125,0.0
146.80078125,-31.73828125,-36.1328125,-30.2734375,-2.44140625,40.52734375,0.0
146.8046875,-28.80859375,-33.69140625,-35.15625,-5.859375,69.82421875,0.0
146.80859375,-40.52734375,-37.109375,-36.1328125,-22.4609375,56.640625,0.0
146.8125,-55.17578125,-40.0390625,-35.15625,-39.0625,-17.08984375,0.0
146.81640625,-51.26953125,-38.0859375,-40.0390625,-42.96875,-33.69140625,0.0
146.8203125,-41.015625,-22.4609375,-36.62109375,-31.73828125,4.8828125,0.0
146.82421875,-46.38671875,-19.04296875,-39.0625,-28.80859375,24.90234375,0.0
146.828125,-49.8046875,-28.3203125,-38.0859375,-37.109375,7.8125,0.0
146.83203125,-46.38671875,-31.25,-31.25,-33.69140625,-53.7109375,0.0
146.8359375,-39.55078125,-24.4140625,-29.296875,-20.99609375,-137.20703125,0.0
146.83984375,-34.66796875,-27.34375,-25.390625,-9.765625,-63.96484375,0.0
146.84375,-36.62109375,-41.015625,-27.83203125,-7.8125,-42.96875,0.0
146.84765625,-39.55078125,-40.0390625,-30.2734375,-7.8125,-104.4921875,0.0
146.8515625,-43.45703125,-38.57421875,-26.3671875,-10.25390625,-59.08203125,0.0
146.85546875,-37.109375,-34.1796875,-26.85546875,-11.71875,-26.85546875,0.0
146.859375,-39.0625,-29.296875,-25.87890625,-12.20703125,-33.203125,0.0
146.86328125,-43.45703125,-33.203125,-23.92578125,-14.6484375,-38.57421875,0.0
146.8671875,-39.0625,-31.73828125,-23.92578125,-15.625,20.5078125,0.0
146.87109375,-39.0625,-32.2265625,-33.203125,-17.578125,48.828125,0.0
146.875,-36.1328125,-35.64453125,-36.62109375,-19.53125,-11.23046875,0.0
146.87890625,-33.69140625,-35.15625,-31.73828125,-24.90234375,-42.96875,0.0
146.8828125,-28.3203125,-34.1796875,-29.296875,-25.390625,-17.578125,0.0
146.88671875,-32.71484375,-35.64453125,-38.0859375,-27.34375,-16.11328125,0.0
146.890625,-37.59765625,-34.66796875,-46.38671875,-27.83203125,-30.2734375,0.0
146.89453125,-23.4375,-30.2734375,-29.296875,-17.578125,51.26953125,0.0
146.8984375,-19.04296875,-29.296875,-19.04296875,-16.6015625,60.546875,0.0
146.90234375,-21.97265625,-33.69140625,-30.2734375,-25.87890625,71.77734375,0.0
146.90625,-32.2265625,-39.0625,-37.109375,-27.83203125,85.9375,0.0
146.91015625,-39.55078125,-41.9921875,-33.69140625,-29.296875,30.76171875,0.0
146.9140625,-28.80859375,-35.64453125,-28.80859375,-30.76171875,8.30078125,0.0
146.91796875,-19.53125,-29.296875,-30.76171875,-31.73828125,-21.97265625,0.0
146.921875,-23.4375,-31.73828125,-36.1328125,-39.55078125,-66.89453125,0.0
146.92578125,-32.2265625,-32.71484375,-32.2265625,-47.8515625,-84.9609375,0.0
146.9296875,-28.3203125,-23.4375,-31.25,-47.36328125,-96.19140625,0.0
146.93359375,-26.85546875,-25.87890625,-34.66796875,-48.828125,-110.83984375,0.0
146.9375,-30.2734375,-23.92578125,-26.3671875,-39.55078125,-95.21484375,0.0
146.94140625,-31.25,-27.83203125,-26.85546875,-31.25,-55.6640625,0.0
146.9453125,-43.9453125,-37.59765625,-32.71484375,-34.1796875,-60.05859375,0.0
146.94921875,-41.9921875,-30.76171875,-24.90234375,-28.3203125,-37.59765625,0.0
146.953125,-41.015625,-35.15625,-32.71484375,-25.87890625,-27.83203125,0.0
146.95703125,-54.19921875,-40.0390625,-40.0390625,-34.66796875,-11.71875,0.0
146.9609375,-52.734375,-27.34375,-38.57421875,-33.203125,34.1796875,0.0
146.96484375,-44.921875,-21.484375,-39.55078125,-28.3203125,69.3359375,0.0
146.96875,-39.0625,-29.296875,-35.64453125,-36.1328125,71.2890625,0.0
146.97265625,-48.33984375,-29.296875,-32.2265625,-37.59765625,40.0390625,0.0
146.9765625,-58.59375,-27.83203125,-37.109375,-41.015625,116.69921875,0.0
146.98046875,-54.19921875,-27.34375,-40.0390625,-45.41015625,88.8671875,0.0
146.984375,-48.828125,-26.3671875,-32.2265625,-41.9921875,-43.45703125,0.0
146.98828125,-62.01171875,-37.109375,-31.25,-58.59375,-48.33984375,0.0
146.9921875,-71.77734375,-41.50390625,-47.36328125,-66.89453125,16.6015625,0.0
146.99609375,-56.640625,-30.76171875,-46.38671875,-60.05859375,28.3203125,0.0
147.0,-50.78125,-33.69140625,-38.0859375,-68.359375,8.30078125,0.0
147.00390625,-58.10546875,-34.66796875,-32.2265625,-64.453125,2.9296875,0.0
147.0078125,-58.10546875,-33.203125,-30.2734375,-49.8046875,-101.5625,0.0
147.01171875,-59.5703125,-37.59765625,-37.109375,-46.875,-130.859375,0.0
147.015625,-56.640625,-41.50390625,-34.1796875,-41.015625,-154.78515625,0.0
147.01953125,-40.52734375,-39.55078125,-31.25,-36.1328125,-189.94140625,0.0
147.0234375,-43.45703125,-30.2734375,-39.0625,-42.48046875,-125.9765625,0.0
147.02734375,-49.8046875,-38.0859375,-38.0859375,-39.55078125,-50.29296875,0.0
147.03125,-37.109375,-49.8046875,-30.76171875,-32.2265625,-94.23828125,0.0
147.03515625,-32.2265625,-52.734375,-35.64453125,-34.1796875,-106.93359375,0.0
147.0390625,-32.2265625,-44.921875,-30.2734375,-30.76171875,-62.5,0.0
147.04296875,-38.0859375,-38.57421875,-29.78515625,-32.71484375,-12.20703125,0.0
147.046875,-54.19921875,-42.48046875,-40.52734375,-41.9921875,15.625,0.0
147.05078125,-66.89453125,-37.109375,-36.62109375,-47.36328125,22.4609375,0.0
147.0546875,-64.453125,-34.66796875,-27.83203125,-42.96875,44.43359375,0.0
147.05859375,-52.24609375,-40.52734375,-25.87890625,-29.78515625,74.21875,0.0
147.0625,-49.31640625,-42.96875,-27.83203125,-28.80859375,58.59375,0.0
147.06640625,-44.921875,-33.69140625,-21.97265625,-28.80859375,62.5,0.0
147.0703125,-45.41015625,-24.90234375,-18.06640625,-29.296875,40.0390625,0.0
147.07421875,-42.48046875,-26.85546875,-21.97265625,-26.85546875,-7.32421875,0.0
147.078125,-38.57421875,-35.15625,-20.5078125,-24.4140625,-54.19921875,0.0
147.08203125,-50.78125,-41.50390625,-25.87890625,-35.64453125,-111.81640625,0.0
147.0859375,-55.6640625,-31.73828125,-30.76171875,-44.921875,-119.62890625,0.0
147.08984375,-56.640625,-30.76171875,-30.2734375,-49.8046875,-79.58984375,0.0
147.09375,-59.08203125,-37.59765625,-28.80859375,-50.29296875,22.94921875,0.0
147.09765625,-49.8046875,-34.1796875,-26.85546875,-44.43359375,36.1328125,0.0
147.1015625,-41.9921875,-30.2734375,-26.3671875,-47.8515625,-32.71484375,0.0
147.10546875,-38.0859375,-26.3671875,-26.3671875,-47.8515625,-69.82421875,0.0
147.109375,-34.1796875,-27.83203125,-25.390625,-42.96875,-36.1328125,0.0
147.11328125,-39.0625,-38.0859375,-33.69140625,-50.78125,18.06640625,0.0
147.1171875,-22.94921875,-23.4375,-34.66796875,-48.828125,-32.71484375,0.0
147.12109375,-1.46484375,-15.625,-27.34375,-36.1328125,-25.87890625,0.0
147.125,-23.92578125,-39.0625,-31.73828125,-45.8984375,23.4375,0.0
147.12890625,-43.45703125,-41.9921875,-32.71484375,-57.12890625,12.6953125,0.0
147.1328125,-30.2734375,-27.83203125,-28.3203125,-45.8984375,78.61328125,0.0
147.13671875,-31.25,-25.87890625,-26.85546875,-40.52734375,119.140625,0.0
147.140625,-38.0859375,-32.71484375,-30.76171875,-45.41015625,60.546875,0.0
147.14453125,-35.64453125,-34.1796875,-31.25,-41.015625,26.3671875,0.0
147.1484375,-36.1328125,-31.25,-27.83203125,-36.1328125,-17.578125,0.0
147.15234375,-42.48046875,-32.71484375,-27.34375,-43.9453125,-81.54296875,0.0
147.15625,-52.734375,-33.69140625,-32.71484375,-56.640625,-54.19921875,0.0
147.16015625,-50.78125,-28.3203125,-34.66796875,-55.17578125,-14.16015625,0.0
147.1640625,-48.828125,-27.83203125,-28.3203125,-46.875,-76.66015625,0.0
147.16796875,-50.78125,-32.2265625,-29.78515625,-41.9921875,-61.03515625,0.0
147.171875,-46.875,-29.78515625,-31.73828125,-33.203125,-59.08203125,0.0
147.17578125,-55.6640625,-34.1796875,-28.3203125,-30.76171875,-57.6171875,0.0
147.1796875,-57.12890625,-36.62109375,-21.484375,-27.83203125,-94.23828125,0.0
147.18359375,-51.26953125,-35.64453125,-16.6015625,-26.3671875,-75.68359375,0.0
147.1875,-57.12890625,-36.1328125,-27.83203125,-37.59765625,-76.66015625,0.0
147.19140625,-61.03515625,-33.203125,-33.69140625,-40.52734375,-43.9453125,0.0
147.1953125,-59.08203125,-33.203125,-28.80859375,-39.0625,-35.15625,0.0
147.19921875,-44.921875,-31.73828125,-24.90234375,-32.2265625,-104.4921875,0.0
147.203125,-40.0390625,-31.73828125,-23.92578125,-27.34375,-109.375,0.0
147.20703125,-44.43359375,-29.78515625,-27.83203125,-26.3671875,-86.42578125,0.0
147.2109375,-43.45703125,-17.578125,-25.87890625,-28.3203125,-46.875,0.0
147.21484375,-41.9921875,-17.578125,-20.01953125,-29.78515625,8.30078125,0.0
147.21875,-40.52734375,-23.92578125,-24.4140625,-24.90234375,-4.39453125,0.0
147.22265625,-24.4140625,-19.53125,-20.01953125,-15.13671875,-49.8046875,0.0
147.2265625,-20.99609375,-23.92578125,-14.6484375,-11.23046875,-59.5703125,0.0
147.23046875,-38.0859375,-35.15625,-24.90234375,-22.4609375,-139.16015625,0.0
147.234375,-35.15625,-35.64453125,-24.4140625,-26.3671875,-137.6953125,0.0
147.23828125,-36.1328125,-33.203125,-30.76171875,-29.296875,-54.6875,0.0
147.2421875,-34.1796875,-28.3203125,-28.3203125,-32.71484375,-19.53125,0.0
147.24609375,-26.85546875,-27.34375,-28.3203125,-39.0625,-36.62109375,0.0
147.25,-21.97265625,-30.2734375,-31.25,-38.0859375,-63.96484375,0.0
147.25390625,-21.484375,-26.85546875,-31.73828125,-39.0625,-63.4765625,0.0
147.2578125,-29.296875,-14.6484375,-31.73828125,-43.9453125,-65.4296875,0.0
147.26171875,-35.15625,-17.578125,-19.04296875,-42.96875,-110.83984375,0.0
147.265625,-40.0390625,-33.203125,-20.99609375,-40.0390625,-65.4296875,0.0
147.26953125,-42.48046875,-30.2734375,-24.4140625,-32.2265625,-36.1328125,0.0
147.2734375,-43.9453125,-24.4140625,-20.99609375,-31.25,-84.9609375,0.0
147.27734375,-38.57421875,-32.71484375,-23.4375,-24.90234375,-102.5390625,0.0
147.28125,-28.80859375,-41.015625,-23.4375,-20.01953125,0.9765625,0.0
147.28515625,-29.296875,-38.0859375,-27.34375,-20.01953125,40.52734375,0.0
147.2890625,-26.85546875,-28.3203125,-28.3203125,-11.23046875,-89.84375,0.0
147.29296875,-34.66796875,-29.296875,-28.3203125,-13.671875,-85.9375,0.0
147.296875,-35.64453125,-24.90234375,-19.53125,-18.5546875,-31.25,0.0
147.30078125,-21.484375,-25.390625,-15.13671875,-1.953125,-33.203125,0.0
147.3046875,-16.6015625,-26.3671875,-18.06640625,6.8359375,3.41796875,0.0
147.30859375,-19.53125,-34.66796875,-25.390625,-3.41796875,16.11328125,0.0
147.3125,-22.4609375,-41.9921875,-37.59765625,-9.765625,15.625,0.0
147.31640625,-34.1796875,-36.62109375,-45.41015625,-16.6015625,-45.8984375,0.0
147.3203125,-39.0625,-33.69140625,-44.43359375,-14.16015625,-132.32421875,0.0
147.32421875,-29.78515625,-31.25,-40.0390625,-2.9296875,-185.05859375,0.0
147.328125,-34.1796875,-32.71484375,-37.59765625,-6.8359375,-112.79296875,0.0
147.33203125,-39.0625,-41.50390625,-31.73828125,-9.27734375,-110.3515625,0.0
147.3359375,-31.25,-36.1328125,-25.390625,2.44140625,-197.265625,0.0
147.33984375,-23.4375,-33.203125,-26.85546875,13.18359375,-160.15625,0.0
147.34375,-24.90234375,-39.0625,-39.0625,17.08984375,-82.51953125,0.0
147.34765625,-23.4375,-29.78515625,-36.62109375,13.18359375,-55.6640625,0.0
147.3515625,-17.578125,-20.5078125,-33.203125,6.8359375,1.46484375,0.0
147.35546875,-10.7421875,-27.83203125,-38.0859375,1.46484375,65.4296875,0.0
147.359375,-3.90625,-35.64453125,-32.71484375,3.41796875,32.71484375,0.0
147.36328125,-20.5078125,-41.50390625,-32.71484375,-11.23046875,3.41796875,0.0
147.3671875,-34.1796875,-35.64453125,-34.1796875,-27.83203125,8.7890625,0.0
147.37109375,-31.25,-23.4375,-29.296875,-29.296875,-48.828125,0.0
147.375,-41.015625,-29.78515625,-30.76171875,-34.66796875,-65.91796875,0.0
147.37890625,-45.8984375,-32.71484375,-30.76171875,-32.2265625,35.15625,0.0
147.3828125,-39.55078125,-22.4609375,-27.83203125,-23.92578125,-56.640625,0.0
147.38671875,-42.48046875,-26.3671875,-28.3203125,-19.53125,-130.37109375,0.0
147.390625,-48.828125,-37.109375,-28.80859375,-18.5546875,-118.1640625,0.0
147.39453125,-42.96875,-37.109375,-32.2265625,-9.765625,-103.515625,0.0
147.3984375,-39.0625,-28.80859375,-27.83203125,-11.23046875,-151.3671875,0.0
147.40234375,-43.45703125,-34.66796875,-21.484375,-20.99609375,-220.703125,0.0
147.40625,-40.52734375,-46.38671875,-23.92578125,-25.87890625,-116.69921875,0.0
147.41015625,-36.62109375,-47.36328125,-24.4140625,-30.76171875,-47.36328125,0.0
147.4140625,-28.3203125,-42.96875,-23.4375,-21.484375,-38.0859375,0.0
147.41796875,-20.99609375,-36.62109375,-22.94921875,-15.13671875,52.24609375,0.0
147.421875,-28.80859375,-38.0859375,-25.390625,-21.484375,71.2890625,0.0
147.42578125,-35.64453125,-40.52734375,-27.83203125,-20.5078125,-35.64453125,0.0
147.4296875,-25.87890625,-37.109375,-21.484375,-10.25390625,-8.7890625,0.0
147.43359375,-31.73828125,-38.57421875,-20.01953125,-19.53125,27.34375,0.0
147.4375,-44.921875,-34.66796875,-23.4375,-35.15625,-2.9296875,0.0
147.44140625,-41.50390625,-26.3671875,-25.87890625,-32.71484375,-9.765625,0.0
147.4453125,-41.50390625,-26.85546875,-29.78515625,-30.76171875,-86.42578125,0.0
147.44921875,-48.33984375,-37.109375,-27.34375,-36.62109375,-50.78125,0.0
147.453125,-48.33984375,-48.828125,-28.80859375,-31.73828125,39.55078125,0.0
147.45703125,-53.22265625,-46.875,-33.69140625,-30.2734375,2.9296875,0.0
147.4609375,-48.33984375,-35.15625,-27.83203125,-28.3203125,23.4375,0.0
147.46484375,-38.57421875,-32.2265625,-21.97265625,-18.5546875,71.2890625,0.0
147.46875,-46.38671875,-42.48046875,-30.76171875,-28.80859375,42.48046875,0.0
147.47265625,-43.45703125,-41.50390625,-37.59765625,-40.0390625,-27.83203125,0.0
147.4765625,-28.3203125,-32.2265625,-31.73828125,-33.203125,-34.66796875,0.0
147.48046875,-30.2734375,-30.76171875,-33.203125,-35.64453125,-41.50390625,0.0
147.484375,-39.55078125,-38.57421875,-37.109375,-43.9453125,-30.2734375,0.0
147.48828125,-46.38671875,-43.9453125,-33.203125,-45.41015625,-10.7421875,0.0
147.4921875,-43.9453125,-41.015625,-26.85546875,-36.62109375,-6.8359375,0.0
147.49609375,-37.109375,-37.109375,-22.4609375,-28.80859375,17.578125,0.0
147.5,-35.15625,-42.48046875,-24.90234375,-29.296875,-17.578125,0.0
147.50390625,-33.203125,-48.33984375,-30.2734375,-28.80859375,-86.9140625,0.0
147.5078125,-34.66796875,-41.9921875,-29.296875,-27.34375,-22.94921875,0.0
147.51171875,-37.59765625,-41.015625,-32.71484375,-22.4609375,15.625,0.0
147.515625,-38.0859375,-36.1328125,-31.25,-16.6015625,67.3828125,0.0
147.51953125,-41.015625,-33.69140625,-24.90234375,-21.97265625,96.19140625,0.0
147.5234375,-50.78125,-37.109375,-28.3203125,-28.80859375,-33.69140625,0.0
147.52734375,-58.10546875,-42.48046875,-38.57421875,-32.71484375,-72.265625,0.0
147.53125,-63.4765625,-43.9453125,-36.1328125,-43.45703125,-32.2265625,0.0
147.53515625,-62.98828125,-33.69140625,-27.83203125,-43.9453125,-52.734375,0.0
147.5390625,-58.10546875,-29.296875,-31.73828125,-34.1796875,-129.39453125,0.0
147.54296875,-62.5,-39.0625,-37.109375,-42.48046875,-139.6484375,0.0
147.546875,-59.08203125,-51.7578125,-37.59765625,-46.875,-62.98828125,0.0
147.55078125,-40.52734375,-50.78125,-27.34375,-30.2734375,-113.28125,0.0
147.5546875,-36.62109375,-41.015625,-26.85546875,-20.99609375,-189.453125,0.0
147.55859375,-41.015625,-30.2734375,-31.25,-19.04296875,-85.44921875,0.0
147.5625,-55.17578125,-26.3671875,-29.296875,-25.390625,-17.08984375,0.0
147.56640625,-70.3125,-31.73828125,-28.80859375,-36.1328125,16.11328125,0.0
147.5703125,-62.5,-33.69140625,-24.90234375,-32.2265625,53.22265625,0.0
147.57421875,-53.7109375,-39.55078125,-26.3671875,-30.76171875,38.0859375,0.0
147.578125,-47.8515625,-41.015625,-28.3203125,-29.296875,49.8046875,0.0
147.58203125,-30.76171875,-39.55078125,-22.94921875,-18.06640625,20.01953125,0.0
147.5859375,-13.671875,-27.34375,-17.578125,-0.48828125,9.27734375,0.0
147.58984375,-20.5078125,-29.78515625,-19.53125,-1.953125,-27.83203125,0.0
147.59375,-36.62109375,-45.8984375,-23.92578125,-30.76171875,-65.4296875,0.0
147.59765625,-24.90234375,-32.2265625,-20.5078125,-35.64453125,-55.17578125,0.0
147.6015625,-20.01953125,-20.01953125,-22.4609375,-30.2734375,-36.62109375,0.0
147.60546875,-36.62109375,-23.4375,-27.34375,-41.50390625,15.625,0.0
147.609375,-41.50390625,-30.76171875,-27.34375,-44.921875,41.50390625,0.0
147.61328125,-39.0625,-38.57421875,-25.87890625,-44.921875,11.23046875,0.0
147.6171875,-32.2265625,-31.25,-28.3203125,-50.29296875,-39.55078125,0.0
147.62109375,-28.80859375,-27.83203125,-34.1796875,-53.22265625,-32.2265625,0.0
147.625,-36.1328125,-25.87890625,-37.59765625,-51.26953125,20.01953125,0.0
147.62890625,-28.80859375,-15.13671875,-36.1328125,-42.48046875,-1.46484375,0.0
147.6328125,-17.08984375,-16.11328125,-32.2265625,-36.62109375,5.859375,0.0
147.63671875,-24.90234375,-21.97265625,-26.3671875,-39.0625,4.8828125,0.0
147.640625,-38.57421875,-22.94921875,-26.3671875,-59.5703125,12.6953125,0.0
147.64453125,-39.55078125,-19.53125,-31.73828125,-66.40625,63.4765625,0.0
147.6484375,-39.0625,-12.6953125,-34.66796875,-62.5,108.3984375,0.0
147.65234375,-45.41015625,-11.23046875,-42.96875,-73.2421875,66.40625,0.0
147.65625,-44.921875,-16.6015625,-42.48046875,-67.87109375,18.5546875,0.0
147.66015625,-36.1328125,-14.6484375,-38.57421875,-66.40625,-24.90234375,0.0
147.6640625,-34.1796875,-10.7421875,-38.57421875,-69.3359375,-31.25,0.0
147.66796875,-32.2265625,-19.53125,-37.59765625,-58.59375,-56.640625,0.0
147.671875,-22.94921875,-21.97265625,-33.69140625,-43.9453125,-13.18359375,0.0
147.67578125,-27.34375,-21.97265625,-31.25,-37.59765625,65.91796875,0.0
147.6796875,-24.4140625,-21.484375,-29.78515625,-26.85546875,-8.7890625,0.0
147.68359375,-18.5546875,-34.1796875,-28.3203125,-13.671875,-67.3828125,0.0
147.6875,-20.5078125,-51.7578125,-33.69140625,-6.8359375,-72.265625,0.0
147.69140625,-20.01953125,-50.29296875,-30.2734375,-4.39453125,-96.19140625,0.0
147.6953125,-15.13671875,-40.0390625,-24.4140625,-3.41796875,-40.52734375,0.0
147.69921875,-7.8125,-41.9921875,-23.92578125,-0.9765625,-120.1171875,0.0
147.703125,-15.13671875,-54.6875,-18.5546875,-1.46484375,-230.46875,0.0
147.70703125,-22.94921875,-51.26953125,-19.53125,-6.34765625,-244.62890625,0.0
147.7109375,-22.4609375,-45.8984375,-24.4140625,-7.8125,-205.56640625,0.0
147.71484375,-13.18359375,-38.0859375,-16.6015625,3.41796875,-56.640625,0.0
147.71875,-7.32421875,-33.203125,-19.04296875,4.8828125,32.71484375,0.0
147.72265625,-6.34765625,-39.0625,-21.484375,0.9765625,17.578125,0.0
147.7265625,-11.23046875,-36.62109375,-27.83203125,-1.46484375,4.39453125,0.0
147.73046875,-18.5546875,-39.0625,-34.66796875,-10.7421875,-23.92578125,0.0
147.734375,-18.5546875,-45.41015625,-25.87890625,-15.625,-15.13671875,0.0
147.73828125,-22.4609375,-33.69140625,-28.80859375,-20.01953125,0.0,0.0
147.7421875,-22.4609375,-22.94921875,-30.76171875,-20.5078125,-25.390625,0.0
147.74609375,-20.5078125,-26.85546875,-25.390625,-17.578125,-30.2734375,0.0
147.75,-27.34375,-30.2734375,-26.3671875,-27.83203125,-62.5,0.0
147.75390625,-26.85546875,-35.64453125,-31.73828125,-34.66796875,-48.33984375,0.0
147.7578125,-33.203125,-29.78515625,-37.109375,-42.48046875,20.99609375,0.0
147.76171875,-40.52734375,-25.390625,-35.15625,-52.734375,143.5546875,0.0
147.765625,-31.73828125,-31.25,-34.1796875,-46.875,131.34765625,0.0
147.76953125,-32.71484375,-29.296875,-34.1796875,-47.36328125,-29.78515625,0.0
147.7734375,-40.0390625,-20.99609375,-32.71484375,-56.15234375,-165.0390625,0.0
147.77734375,-33.69140625,-22.4609375,-25.390625,-47.8515625,-114.74609375,0.0
147.78125,-33.69140625,-38.0859375,-17.578125,-31.25,-17.08984375,0.0
147.78515625,-52.734375,-48.828125,-28.3203125,-41.9921875,-63.96484375,0.0
147.7890625,-61.5234375,-46.38671875,-35.15625,-56.640625,-72.265625,0.0
147.79296875,-65.4296875,-41.015625,-32.71484375,-59.08203125,-30.76171875,0.0
147.796875,-74.21875,-43.9453125,-30.2734375,-58.10546875,5.37109375,0.0
147.80078125,-81.54296875,-51.7578125,-20.5078125,-54.6875,61.5234375,0.0
147.8046875,-75.68359375,-42.48046875,-24.90234375,-52.24609375,-3.41796875,0.0
147.80859375,-61.03515625,-32.71484375,-36.62109375,-44.921875,-82.03125,0.0
147.8125,-56.640625,-39.0625,-36.62109375,-42.48046875,7.32421875,0.0
147.81640625,-56.15234375,-35.15625,-25.87890625,-41.015625,50.29296875,0.0
147.8203125,-46.875,-27.34375,-19.04296875,-30.76171875,19.53125,0.0
147.82421875,-31.25,-32.2265625,-26.3671875,-25.87890625,-34.1796875,0.0
147.828125,-24.90234375,-34.1796875,-34.66796875,-28.80859375,-67.3828125,0.0
147.83203125,-23.4375,-34.66796875,-36.62109375,-34.1796875,-76.171875,0.0
147.8359375,-18.06640625,-25.390625,-29.296875,-37.109375,-55.17578125,0.0
147.83984375,-15.625,-15.13671875,-22.4609375,-38.57421875,-17.578125,0.0
147.84375,-11.23046875,-20.5078125,-26.3671875,-45.8984375,-25.87890625,0.0
147.84765625,-9.765625,-22.4609375,-33.69140625,-53.7109375,15.625,0.0
147.8515625,-15.13671875,-20.01953125,-33.69140625,-58.10546875,3.90625,0.0
147.85546875,-22.94921875,-20.99609375,-32.71484375,-59.08203125,32.71484375,0.0
147.859375,-21.484375,-23.92578125,-27.83203125,-60.546875,46.38671875,0.0
147.86328125,-24.4140625,-26.85546875,-26.3671875,-59.08203125,-96.19140625,0.0
147.8671875,-30.2734375,-19.53125,-31.73828125,-57.12890625,-99.12109375,0.0
147.87109375,-36.1328125,-24.4140625,-35.15625,-61.5234375,-69.3359375,0.0
147.875,-32.2265625,-33.69140625,-33.203125,-55.17578125,-103.02734375,0.0
147.87890625,-25.390625,-31.25,-30.76171875,-45.8984375,-99.12109375,0.0
147.8828125,-30.2734375,-27.83203125,-31.25,-42.48046875,-26.85546875,0.0
147.88671875,-28.80859375,-30.2734375,-30.76171875,-40.52734375,22.94921875,0.0
147.890625,-16.6015625,-35.15625,-33.69140625,-35.64453125,-17.08984375,0.0
147.89453125,0.48828125,-29.78515625,-29.78515625,-28.3203125,-32.2265625,0.0
147.8984375,3.41796875,-16.6015625,-23.4375,-28.3203125,23.92578125,0.0
147.90234375,0.48828125,-13.18359375,-16.11328125,-25.390625,13.671875,0.0
147.90625,-2.9296875,-13.18359375,-15.13671875,-30.76171875,-1.953125,0.0
147.91015625,-9.765625,-7.8125,-18.5546875,-41.50390625,-6.34765625,0.0
147.9140625,-9.765625,-7.32421875,-15.625,-37.59765625,-42.48046875,0.0
147.91796875,-4.8828125,-13.18359375,-12.6953125,-32.2265625,-63.96484375,0.0
147.921875,-9.27734375,-23.92578125,-17.578125,-30.76171875,-8.7890625,0.0
147.92578125,-15.13671875,-22.4609375,-23.92578125,-28.80859375,29.78515625,0.0
147.9296875,-18.5546875,-14.6484375,-20.99609375,-29.296875,12.20703125,0.0
147.93359375,-26.85546875,-21.97265625,-17.578125,-37.109375,43.9453125,0.0
147.9375,-22.94921875,-28.80859375,-19.53125,-36.62109375,14.16015625,0.0
147.94140625,-26.3671875,-29.296875,-26.85546875,-42.48046875,-21.97265625,0.0
147.9453125,-43.9453125,-28.80859375,-30.76171875,-55.17578125,-15.625,0.0
147.94921875,-44.43359375,-23.4375,-35.15625,-52.734375,-30.76171875,0.0
147.953125,-39.55078125,-26.3671875,-34.1796875,-47.36328125,-45.8984375,0.0
147.95703125,-44.921875,-29.78515625,-33.203125,-48.33984375,-100.5859375,0.0
147.9609375,-43.9453125,-22.4609375,-34.66796875,-47.8515625,-165.0390625,0.0
147.96484375,-44.921875,-26.85546875,-35.64453125,-42.96875,-110.3515625,0.0
147.96875,-45.8984375,-37.59765625,-40.52734375,-38.57421875,-85.9375,0.0
147.97265625,-27.83203125,-40.0390625,-40.52734375,-34.66796875,-111.81640625,0.0
147.9765625,-24.4140625,-37.59765625,-37.109375,-27.34375,-98.14453125,0.0
147.98046875,-37.109375,-38.0859375,-31.25,-18.5546875,-70.80078125,0.0
147.984375,-43.45703125,-47.36328125,-34.1796875,-24.4140625,-41.50390625,0.0
147.98828125,-39.0625,-44.43359375,-31.73828125,-29.296875,-57.6171875,0.0
147.9921875,-29.78515625,-34.1796875,-28.3203125,-22.94921875,-79.1015625,0.0
147.99609375,-27.83203125,-28.80859375,-28.3203125,-15.13671875,-78.61328125,0.0
148.0,-24.90234375,-27.34375,-35.64453125,-12.6953125,-129.39453125,0.0
148.00390625,-7.8125,-20.01953125,-38.57421875,-7.8125,-90.33203125,0.0
148.0078125,-13.671875,-25.390625,-32.71484375,-13.18359375,-62.98828125,0.0
148.01171875,-24.4140625,-39.0625,-38.0859375,-24.90234375,-92.7734375,0.0
148.015625,-17.08984375,-46.875,-40.52734375,-19.53125,-1.953125,0.0
148.01953125,-23.4375,-45.8984375,-37.109375,-16.6015625,15.625,0.0
148.0234375,-34.66796875,-39.0625,-34.66796875,-27.83203125,-55.6640625,0.0
148.02734375,-41.015625,-35.64453125,-37.59765625,-37.59765625,-18.5546875,0.0
148.03125,-46.38671875,-31.25,-30.2734375,-32.71484375,35.15625,0.0
148.03515625,-44.921875,-30.2734375,-23.92578125,-21.97265625,50.29296875,0.0
148.0390625,-36.62109375,-23.92578125,-28.3203125,-22.4609375,31.73828125,0.0
148.04296875,-41.9921875,-27.83203125,-33.69140625,-23.4375,28.80859375,0.0
148.046875,-42.96875,-35.15625,-34.66796875,-20.99609375,37.59765625,0.0
148.05078125,-31.73828125,-26.3671875,-31.73828125,-16.11328125,-0.9765625,0.0
148.0546875,-32.2265625,-19.04296875,-34.66796875,-14.16015625,-61.5234375,0.0
148.05859375,-33.69140625,-20.01953125,-30.76171875,-14.6484375,-29.296875,0.0
148.0625,-37.109375,-25.87890625,-28.3203125,-14.16015625,-56.640625,0.0
148.06640625,-55.17578125,-31.73828125,-35.15625,-31.25,-83.0078125,0.0
148.0703125,-58.10546875,-22.4609375,-39.0625,-41.50390625,-19.04296875,0.0
148.07421875,-46.38671875,-20.01953125,-36.1328125,-35.15625,-54.19921875,0.0
148.078125,-40.0390625,-22.94921875,-35.15625,-28.80859375,-9.27734375,0.0
148.08203125,-34.66796875,-25.390625,-30.76171875,-20.99609375,60.05859375,0.0
148.0859375,-31.73828125,-24.90234375,-32.71484375,-21.484375,4.8828125,0.0
148.08984375,-31.25,-21.484375,-41.015625,-24.4140625,-7.32421875,0.0
148.09375,-32.71484375,-18.06640625,-35.15625,-20.01953125,-57.12890625,0.0
148.09765625,-31.73828125,-16.6015625,-24.4140625,-18.5546875,-81.54296875,0.0
148.1015625,-34.66796875,-21.484375,-22.4609375,-20.5078125,-28.3203125,0.0
148.10546875,-47.36328125,-34.1796875,-30.76171875,-33.69140625,-19.53125,0.0
148.109375,-49.8046875,-25.87890625,-29.296875,-33.203125,55.17578125,0.0
148.11328125,-47.8515625,-16.6015625,-20.99609375,-22.4609375,72.265625,0.0
148.1171875,-45.41015625,-20.01953125,-22.94921875,-19.53125,21.97265625,0.0
148.12109375,-36.62109375,-20.01953125,-21.484375,-15.625,46.875,0.0
148.125,-38.57421875,-25.390625,-26.3671875,-18.06640625,20.01953125,0.0
148.12890625,-43.45703125,-27.34375,-28.3203125,-24.4140625,10.7421875,0.0
148.1328125,-48.828125,-26.3671875,-26.85546875,-29.78515625,-54.6875,0.0
148.13671875,-47.8515625,-29.296875,-32.2265625,-26.85546875,-72.265625,0.0
148.140625,-41.50390625,-30.76171875,-35.15625,-25.87890625,22.94921875,0.0
148.14453125,-41.50390625,-31.25,-35.15625,-26.85546875,-21.97265625,0.0
148.1484375,-44.43359375,-22.4609375,-34.1796875,-21.97265625,-1.953125,0.0
148.15234375,-44.921875,-27.34375,-29.296875,-14.6484375,38.0859375,0.0
148.15625,-45.8984375,-44.921875,-29.78515625,-12.20703125,-37.109375,0.0
148.16015625,-41.015625,-46.38671875,-34.1796875,-18.5546875,-58.10546875,0.0
148.1640625,-38.57421875,-38.57421875,-31.73828125,-24.90234375,-42.96875,0.0
148.16796875,-41.015625,-41.015625,-28.80859375,-31.73828125,-29.78515625,0.0
148.171875,-37.109375,-54.6875,-29.296875,-32.71484375,7.8125,0.0
148.17578125,-35.64453125,-50.78125,-32.2265625,-36.62109375,-5.37109375,0.0
148.1796875,-39.0625,-34.1796875,-30.2734375,-39.55078125,-104.00390625,0.0
148.18359375,-39.0625,-36.62109375,-33.69140625,-38.0859375,-110.3515625,0.0
148.1875,-39.0625,-41.50390625,-32.71484375,-34.1796875,-7.8125,0.0
148.19140625,-40.0390625,-36.1328125,-26.85546875,-30.2734375,23.4375,0.0
148.1953125,-32.2265625,-24.4140625,-28.3203125,-26.3671875,53.22265625,0.0
148.19921875,-37.109375,-30.2734375,-26.85546875,-26.85546875,1.953125,0.0
148.203125,-45.41015625,-44.43359375,-26.3671875,-26.3671875,-83.0078125,0.0
148.20703125,-45.8984375,-45.8984375,-30.2734375,-22.94921875,-143.06640625,0.0
148.2109375,-50.78125,-45.41015625,-28.3203125,-22.94921875,-105.95703125,0.0
148.21484375,-47.8515625,-41.50390625,-27.83203125,-20.99609375,-13.18359375,0.0
148.21875,-39.55078125,-35.64453125,-29.296875,-13.671875,-25.87890625,0.0
148.22265625,-44.43359375,-37.59765625,-29.78515625,-12.20703125,-117.67578125,0.0
148.2265625,-51.26953125,-34.66796875,-29.78515625,-19.04296875,-68.84765625,0.0
148.23046875,-52.734375,-38.0859375,-28.80859375,-36.62109375,-47.36328125,0.0
148.234375,-54.6875,-35.64453125,-34.1796875,-52.24609375,-71.77734375,0.0
148.23828125,-53.7109375,-29.78515625,-44.921875,-54.19921875,-33.203125,0.0
148.2421875,-41.50390625,-24.4140625,-41.9921875,-45.41015625,-112.79296875,0.0
148.24609375,-36.1328125,-27.83203125,-40.52734375,-44.921875,-114.2578125,0.0
148.25,-46.38671875,-39.55078125,-40.52734375,-53.7109375,23.92578125,0.0
148.25390625,-56.15234375,-37.109375,-31.73828125,-59.5703125,15.625,0.0
148.2578125,-48.33984375,-33.69140625,-25.87890625,-53.22265625,-38.0859375,0.0
148.26171875,-42.96875,-32.2265625,-27.34375,-49.31640625,-62.98828125,0.0
148.265625,-57.12890625,-39.0625,-34.66796875,-59.5703125,-43.9453125,0.0
148.26953125,-53.7109375,-39.0625,-30.76171875,-56.15234375,-26.85546875,0.0
148.2734375,-40.0390625,-28.80859375,-24.90234375,-45.41015625,-69.82421875,0.0
148.27734375,-45.8984375,-29.296875,-34.1796875,-40.52734375,-112.79296875,0.0
148.28125,-48.33984375,-30.76171875,-33.203125,-32.71484375,-76.171875,0.0
148.28515625,-53.22265625,-31.25,-27.83203125,-34.66796875,0.48828125,0.0
148.2890625,-52.734375,-29.296875,-27.83203125,-29.78515625,60.546875,0.0
148.29296875,-41.015625,-37.59765625,-23.4375,-16.11328125,35.64453125,0.0
148.296875,-39.55078125,-53.22265625,-23.4375,-10.25390625,-6.8359375,0.0
148.30078125,-39.0625,-39.0625,-21.484375,-9.765625,-21.97265625,0.0
148.3046875,-46.38671875,-26.85546875,-21.97265625,-16.11328125,-9.765625,0.0
148.30859375,-48.33984375,-36.1328125,-24.90234375,-12.20703125,-41.9921875,0.0
148.3125,-41.50390625,-34.66796875,-18.5546875,-4.39453125,1.953125,0.0
148.31640625,-41.015625,-32.2265625,-19.04296875,-5.859375,35.15625,0.0
148.3203125,-38.0859375,-37.59765625,-24.4140625,-11.71875,78.61328125,0.0
148.32421875,-37.59765625,-41.50390625,-27.34375,-19.04296875,177.734375,0.0
148.328125,-31.25,-37.59765625,-22.4609375,-25.390625,141.11328125,0.0
148.33203125,-20.99609375,-37.59765625,-20.5078125,-24.4140625,30.76171875,0.0
148.3359375,-19.53125,-35.64453125,-19.04296875,-20.99609375,-10.25390625,0.0
148.33984375,-20.5078125,-36.1328125,-24.90234375,-18.06640625,-29.78515625,0.0
148.34375,-22.4609375,-43.45703125,-33.203125,-20.99609375,-44.921875,0.0
148.34765625,-32.2265625,-44.43359375,-32.2265625,-29.78515625,-47.36328125,0.0
148.3515625,-40.52734375,-38.0859375,-30.76171875,-35.15625,5.37109375,0.0
148.35546875,-33.69140625,-32.71484375,-30.76171875,-32.2265625,15.13671875,0.0
148.359375,-32.71484375,-34.66796875,-27.83203125,-30.76171875,-51.7578125,0.0
148.36328125,-45.8984375,-38.0859375,-33.69140625,-36.62109375,-72.265625,0.0
148.3671875,-57.6171875,-37.109375,-41.50390625,-42.96875,11.71875,0.0
148.37109375,-68.359375,-34.1796875,-41.015625,-59.08203125,66.89453125,0.0
148.375,-69.82421875,-32.71484375,-39.0625,-64.453125,12.6953125,0.0
148.37890625,-52.734375,-28.80859375,-36.1328125,-41.9921875,-5.859375,0.0
148.3828125,-48.33984375,-23.92578125,-34.1796875,-34.66796875,-39.0625,0.0
148.38671875,-57.6171875,-24.4140625,-41.9921875,-42.96875,-110.3515625,0.0
148.390625,-62.01171875,-22.94921875,-46.875,-47.36328125,-132.32421875,0.0
148.39453125,-62.01171875,-29.78515625,-37.59765625,-46.875,-61.5234375,0.0
148.3984375,-49.31640625,-31.73828125,-34.1796875,-37.59765625,-11.23046875,0.0
148.40234375,-30.76171875,-25.390625,-31.73828125,-24.4140625,-20.01953125,0.0
148.40625,-26.3671875,-25.390625,-35.15625,-21.484375,16.11328125,0.0
148.41015625,-23.92578125,-29.78515625,-38.0859375,-21.484375,20.99609375,0.0
148.4140625,-23.92578125,-34.66796875,-34.66796875,-22.4609375,25.390625,0.0
148.41796875,-33.69140625,-34.66796875,-36.1328125,-27.83203125,-16.11328125,0.0
148.421875,-38.0859375,-39.0625,-35.15625,-31.73828125,-31.73828125,0.0
148.42578125,-31.73828125,-44.921875,-39.55078125,-38.57421875,-28.3203125,0.0
148.4296875,-25.87890625,-28.3203125,-30.76171875,-28.3203125,-41.9921875,0.0
148.43359375,-27.34375,-24.4140625,-28.80859375,-25.390625,-80.56640625,0.0
148.4375,-27.34375,-37.109375,-32.71484375,-30.76171875,-102.5390625,0.0
148.44140625,-23.4375,-33.203125,-25.87890625,-26.3671875,-63.96484375,0.0
148.4453125,-28.80859375,-35.15625,-28.3203125,-31.73828125,-26.85546875,0.0
148.44921875,-38.57421875,-43.45703125,-31.25,-37.59765625,-22.94921875,0.0
148.453125,-31.73828125,-39.0625,-31.25,-28.3203125,-14.6484375,0.0
148.45703125,-24.90234375,-33.69140625,-31.25,-26.3671875,-97.16796875,0.0
148.4609375,-24.90234375,-33.69140625,-26.85546875,-31.25,-102.5390625,0.0
148.46484375,-24.4140625,-35.15625,-31.73828125,-35.15625,23.4375,0.0
148.46875,-17.578125,-39.55078125,-35.15625,-31.73828125,39.55078125,0.0
148.47265625,-20.5078125,-32.71484375,-27.83203125,-26.85546875,-46.38671875,0.0
148.4765625,-33.203125,-25.390625,-20.5078125,-29.296875,-105.95703125,0.0
148.48046875,-35.15625,-31.73828125,-21.97265625,-23.92578125,-80.56640625,0.0
148.484375,-38.57421875,-34.1796875,-30.76171875,-30.76171875,5.859375,0.0
148.48828125,-49.8046875,-40.0390625,-33.69140625,-40.52734375,-48.828125,0.0
148.4921875,-46.38671875,-41.9921875,-34.66796875,-35.64453125,-88.37890625,0.0
148.49609375,-37.109375,-37.109375,-22.4609375,-36.62109375,-63.96484375,0.0
148.5,-37.59765625,-36.1328125,-20.99609375,-41.9921875,-81.54296875,0.0
148.50390625,-32.2265625,-41.50390625,-28.80859375,-29.296875,-58.10546875,0.0
148.5078125,-39.0625,-39.0625,-26.3671875,-27.83203125,-80.078125,0.0
148.51171875,-50.29296875,-35.15625,-31.25,-41.9921875,-9.27734375,0.0
148.515625,-43.9453125,-33.69140625,-34.66796875,-35.64453125,-56.15234375,0.0
148.51953125,-39.0625,-36.1328125,-31.73828125,-34.66796875,-116.69921875,0.0
148.5234375,-40.0390625,-34.66796875,-29.296875,-45.8984375,8.7890625,0.0
148.52734375,-38.0859375,-37.59765625,-36.62109375,-48.828125,20.5078125,0.0
148.53125,-47.36328125,-50.29296875,-44.921875,-52.734375,-11.23046875,0.0
148.53515625,-43.9453125,-44.43359375,-41.50390625,-52.24609375,-42.96875,0.0
148.5390625,-22.94921875,-30.2734375,-36.1328125,-48.828125,-51.26953125,0.0
148.54296875,-20.5078125,-32.71484375,-37.109375,-58.59375,3.41796875,0.0
148.546875,-32.71484375,-41.50390625,-41.50390625,-66.40625,37.109375,0.0
148.55078125,-36.62109375,-38.0859375,-38.0859375,-66.89453125,-9.765625,0.0
148.5546875,-34.66796875,-31.73828125,-31.25,-67.3828125,-4.8828125,0.0
148.55859375,-25.87890625,-34.66796875,-29.296875,-59.08203125,33.69140625,0.0
148.5625,-18.06640625,-36.62109375,-30.2734375,-53.7109375,21.97265625,0.0
148.56640625,-20.99609375,-28.80859375,-32.2265625,-51.26953125,6.8359375,0.0
148.5703125,-25.390625,-22.4609375,-31.73828125,-50.29296875,5.37109375,0.0
148.57421875,-22.94921875,-29.296875,-26.85546875,-48.33984375,14.6484375,0.0
148.578125,-17.08984375,-36.62109375,-26.3671875,-36.1328125,-15.13671875,0.0
148.58203125,-19.04296875,-31.25,-24.90234375,-30.76171875,-101.07421875,0.0
148.5859375,-23.92578125,-22.94921875,-18.06640625,-35.64453125,-163.57421875,0.0
148.58984375,-20.5078125,-23.4375,-15.625,-30.76171875,-153.80859375,0.0
148.59375,-11.71875,-27.83203125,-18.5546875,-30.76171875,-196.2890625,0.0
148.59765625,-12.20703125,-27.34375,-21.97265625,-35.64453125,-244.140625,0.0
148.6015625,-12.6953125,-27.83203125,-24.4140625,-32.71484375,-126.953125,0.0
148.60546875,-9.765625,-26.85546875,-27.34375,-30.76171875,-90.8203125,0.0
148.609375,-22.94921875,-29.296875,-28.80859375,-29.296875,-29.78515625,0.0
148.61328125,-23.92578125,-40.52734375,-31.25,-29.78515625,39.0625,0.0
148.6171875,-19.53125,-30.76171875,-27.34375,-31.73828125,-29.296875,0.0
148.62109375,-19.53125,-30.2734375,-24.90234375,-27.83203125,-57.12890625,0.0
148.625,-20.01953125,-45.8984375,-29.78515625,-23.92578125,-58.59375,0.0
148.62890625,-23.4375,-43.9453125,-31.25,-21.484375,-33.69140625,0.0
148.6328125,-20.99609375,-37.109375,-29.78515625,-27.83203125,18.06640625,0.0
148.63671875,-17.08984375,-34.1796875,-34.66796875,-30.76171875,10.25390625,0.0
148.640625,-18.5546875,-41.015625,-41.50390625,-32.71484375,2.9296875,0.0
148.64453125,-30.76171875,-52.734375,-41.015625,-45.8984375,79.1015625,0.0
148.6484375,-34.1796875,-48.33984375,-42.48046875,-47.36328125,-5.859375,0.0
148.65234375,-33.69140625,-45.41015625,-41.9921875,-43.45703125,-139.6484375,0.0
148.65625,-37.59765625,-54.6875,-40.0390625,-39.55078125,-76.66015625,0.0
148.66015625,-38.57421875,-53.7109375,-40.0390625,-36.62109375,-14.6484375,0.0
148.6640625,-37.59765625,-44.43359375,-35.15625,-41.015625,-61.03515625,0.0
148.66796875,-39.0625,-50.78125,-35.64453125,-41.9921875,-41.015625,0.0
148.671875,-36.1328125,-53.7109375,-39.55078125,-39.0625,-26.3671875,0.0
148.67578125,-27.34375,-49.31640625,-37.59765625,-42.48046875,-55.6640625,0.0
148.6796875,-21.484375,-42.96875,-32.71484375,-37.109375,-101.07421875,0.0
148.68359375,-21.97265625,-43.9453125,-34.1796875,-30.76171875,-83.984375,0.0
148.6875,-26.3671875,-44.43359375,-33.69140625,-32.2265625,-6.8359375,0.0
148.69140625,-27.83203125,-41.015625,-28.3203125,-32.2265625,-9.765625,0.0
148.6953125,-26.3671875,-41.015625,-28.80859375,-27.83203125,11.23046875,0.0
148.69921875,-24.4140625,-39.55078125,-30.2734375,-23.4375,19.04296875,0.0
148.703125,-21.484375,-43.45703125,-34.1796875,-18.06640625,-31.25,0.0
148.70703125,-26.85546875,-42.48046875,-33.203125,-16.6015625,-29.78515625,0.0
148.7109375,-22.94921875,-27.34375,-31.25,-14.6484375,-60.546875,0.0
148.71484375,-26.3671875,-35.15625,-39.0625,-18.5546875,-118.65234375,0.0
148.71875,-32.71484375,-40.52734375,-39.55078125,-28.80859375,-145.01953125,0.0
148.72265625,-25.87890625,-33.69140625,-32.71484375,-23.92578125,-59.5703125,0.0
148.7265625,-22.94921875,-35.15625,-30.76171875,-21.484375,-5.37109375,0.0
148.73046875,-23.92578125,-27.34375,-33.69140625,-22.94921875,-9.27734375,0.0
148.734375,-26.85546875,-26.3671875,-34.66796875,-17.578125,5.859375,0.0
148.73828125,-34.66796875,-26.3671875,-32.2265625,-10.25390625,6.34765625,0.0
148.7421875,-43.45703125,-27.34375,-32.71484375,-6.8359375,19.04296875,0.0
148.74609375,-45.8984375,-28.3203125,-35.15625,-7.32421875,1.953125,0.0
148.75,-43.45703125,-31.73828125,-39.0625,-7.8125,-42.48046875,0.0
148.75390625,-43.9453125,-33.203125,-37.59765625,-8.30078125,-42.96875,0.0
148.7578125,-41.50390625,-25.390625,-37.59765625,-7.8125,6.8359375,0.0
148.76171875,-34.1796875,-23.92578125,-41.9921875,-2.9296875,-5.859375,0.0
148.765625,-30.76171875,-33.203125,-35.15625,-2.9296875,-40.0390625,0.0
148.76953125,-29.78515625,-39.0625,-23.92578125,-6.8359375,-4.8828125,0.0
148.7734375,-27.83203125,-33.69140625,-30.76171875,-6.8359375,2.9296875,0.0
148.77734375,-28.80859375,-37.109375,-35.15625,-6.8359375,-27.34375,0.0
148.78125,-24.4140625,-38.0859375,-33.69140625,-3.41796875,-34.1796875,0.0
148.78515625,-19.04296875,-31.73828125,-34.66796875,-2.44140625,-20.5078125,0.0
148.7890625,-22.94921875,-32.2265625,-29.296875,-4.39453125,-46.38671875,0.0
148.79296875,-28.80859375,-33.203125,-28.3203125,-6.34765625,-49.8046875,0.0
148.796875,-27.83203125,-36.62109375,-27.34375,-10.7421875,-42.96875,0.0
148.80078125,-23.92578125,-34.66796875,-26.85546875,-17.578125,-60.546875,0.0
148.8046875,-18.5546875,-24.90234375,-31.73828125,-19.04296875,-52.734375,0.0
148.80859375,-14.16015625,-18.5546875,-33.69140625,-20.01953125,-13.671875,0.0
148.8125,-20.5078125,-28.3203125,-28.3203125,-19.04296875,-65.4296875,0.0
148.81640625,-35.15625,-37.109375,-21.97265625,-20.99609375,-58.59375,0.0
148.8203125,-44.43359375,-29.296875,-30.2734375,-35.64453125,61.5234375,0.0
148.82421875,-42.96875,-27.34375,-36.62109375,-43.9453125,56.640625,0.0
148.828125,-41.50390625,-28.3203125,-35.64453125,-46.38671875,-1.953125,0.0
148.83203125,-46.38671875,-33.69140625,-38.0859375,-42.96875,20.99609375,0.0
148.8359375,-49.31640625,-37.59765625,-40.0390625,-44.43359375,19.53125,0.0
148.83984375,-47.36328125,-40.0390625,-43.45703125,-45.41015625,8.30078125,0.0
148.84375,-47.36328125,-44.43359375,-39.0625,-44.921875,-6.34765625,0.0
148.84765625,-48.33984375,-43.9453125,-41.50390625,-49.31640625,-94.23828125,0.0
148.8515625,-47.36328125,-34.1796875,-42.48046875,-54.6875,-128.41796875,0.0
148.85546875,-39.0625,-34.1796875,-38.0859375,-46.38671875,-34.66796875,0.0
148.859375,-40.52734375,-48.33984375,-42.96875,-41.50390625,26.85546875,0.0
148.86328125,-44.43359375,-50.29296875,-43.9453125,-45.41015625,81.54296875,0.0
148.8671875,-52.24609375,-38.57421875,-37.59765625,-49.31640625,107.91015625,0.0
148.87109375,-50.78125,-29.78515625,-28.80859375,-43.45703125,26.3671875,0.0
148.875,-41.50390625,-34.66796875,-33.69140625,-40.52734375,-47.36328125,0.0
148.87890625,-41.50390625,-32.2265625,-38.0859375,-40.0390625,-87.40234375,0.0
148.8828125,-39.0625,-33.203125,-28.80859375,-31.73828125,-135.25390625,0.0
148.88671875,-36.62109375,-37.59765625,-22.94921875,-31.25,-95.703125,0.0
148.890625,-41.9921875,-42.96875,-30.2734375,-33.69140625,-83.49609375,0.0
148.89453125,-40.0390625,-37.59765625,-29.296875,-33.203125,-48.33984375,0.0
148.8984375,-34.1796875,-23.4375,-21.97265625,-39.55078125,33.69140625,0.0
148.90234375,-41.015625,-32.2265625,-29.296875,-49.8046875,-22.94921875,0.0
148.90625,-43.45703125,-46.38671875,-34.1796875,-49.31640625,-74.70703125,0.0
148.91015625,-44.43359375,-42.96875,-29.78515625,-48.33984375,-99.12109375,0.0
148.9140625,-59.5703125,-40.52734375,-31.73828125,-58.10546875,-53.7109375,0.0
148.91796875,-59.5703125,-40.52734375,-33.203125,-56.15234375,5.859375,0.0
148.921875,-48.828125,-35.64453125,-23.4375,-41.50390625,-16.6015625,0.0
148.92578125,-59.08203125,-41.50390625,-25.390625,-47.36328125,-3.41796875,0.0
148.9296875,-66.40625,-42.48046875,-21.97265625,-45.41015625,5.37109375,0.0
148.93359375,-63.4765625,-35.64453125,-20.01953125,-40.0390625,-30.2734375,0.0
148.9375,-62.98828125,-46.38671875,-30.2734375,-38.57421875,-47.8515625,0.0
148.94140625,-55.6640625,-43.9453125,-35.64453125,-37.109375,-48.33984375,0.0
148.9453125,-48.33984375,-25.390625,-34.1796875,-37.59765625,-67.3828125,0.0
148.94921875,-43.45703125,-25.390625,-20.5078125,-28.3203125,-67.87109375,0.0
148.953125,-43.9453125,-36.62109375,-22.4609375,-36.62109375,-19.53125,0.0
148.95703125,-59.5703125,-41.50390625,-29.296875,-59.08203125,-94.23828125,0.0
148.9609375,-50.78125,-30.76171875,-25.390625,-51.26953125,-94.7265625,0.0
148.96484375,-43.45703125,-28.3203125,-29.296875,-39.55078125,7.8125,0.0
148.96875,-51.26953125,-33.69140625,-26.3671875,-45.41015625,12.20703125,0.0
148.97265625,-45.41015625,-36.1328125,-20.99609375,-40.0390625,-52.24609375,0.0
148.9765625,-44.921875,-39.55078125,-26.3671875,-30.76171875,-135.7421875,0.0
148.98046875,-43.9453125,-31.73828125,-23.92578125,-25.87890625,-146.97265625,0.0
148.984375,-42.96875,-25.87890625,-25.87890625,-34.66796875,-82.51953125,0.0
148.98828125,-47.8515625,-27.34375,-32.2265625,-42.48046875,-46.38671875,0.0
148.9921875,-40.52734375,-15.625,-26.3671875,-37.59765625,-42.48046875,0.0
148.99609375,-32.2265625,-22.94921875,-19.04296875,-34.1796875,-71.77734375,0.0
149.0,-34.1796875,-31.73828125,-23.92578125,-36.62109375,-172.36328125,0.0
149.00390625,-35.64453125,-33.203125,-25.390625,-31.73828125,-190.4296875,0.0
149.0078125,-40.0390625,-27.34375,-21.484375,-33.69140625,-126.46484375,0.0
149.01171875,-47.8515625,-30.2734375,-20.99609375,-44.43359375,-26.85546875,0.0
149.015625,-42.48046875,-39.0625,-17.08984375,-31.73828125,-52.24609375,0.0
149.01953125,-34.1796875,-33.203125,-18.06640625,-25.390625,-82.03125,0.0
149.0234375,-34.66796875,-24.4140625,-22.4609375,-34.1796875,-55.6640625,0.0
149.02734375,-40.0390625,-30.76171875,-24.90234375,-35.64453125,-90.33203125,0.0
149.03125,-42.48046875,-37.109375,-28.80859375,-37.59765625,-87.40234375,0.0
149.03515625,-35.15625,-23.92578125,-25.87890625,-28.80859375,-105.95703125,0.0
149.0390625,-36.62109375,-18.06640625,-27.34375,-34.1796875,-94.23828125,0.0
149.04296875,-44.43359375,-25.390625,-34.66796875,-37.59765625,83.49609375,0.0
149.046875,-47.36328125,-36.62109375,-34.1796875,-28.80859375,96.6796875,0.0
149.05078125,-44.43359375,-35.15625,-29.296875,-23.4375,65.4296875,0.0
149.0546875,-26.85546875,-25.87890625,-22.4609375,-15.625,88.8671875,0.0
149.05859375,-25.390625,-23.92578125,-26.85546875,-26.3671875,32.2265625,0.0
149.0625,-36.1328125,-28.3203125,-31.73828125,-33.203125,-44.43359375,0.0
149.06640625,-33.203125,-36.1328125,-30.76171875,-24.4140625,-84.9609375,0.0
149.0703125,-37.59765625,-31.25,-28.3203125,-33.203125,-24.4140625,0.0
149.07421875,-39.0625,-34.1796875,-29.78515625,-41.015625,-6.34765625,0.0
149.078125,-31.73828125,-39.0625,-33.69140625,-35.64453125,-47.8515625,0.0
149.08203125,-37.109375,-36.1328125,-32.71484375,-37.59765625,0.48828125,0.0
149.0859375,-45.8984375,-29.296875,-28.3203125,-35.64453125,42.48046875,0.0
149.08984375,-49.8046875,-37.59765625,-37.59765625,-39.0625,-42.96875,0.0
149.09375,-48.33984375,-45.8984375,-42.96875,-36.1328125,7.32421875,0.0
149.09765625,-48.828125,-38.0859375,-33.203125,-27.83203125,90.8203125,0.0
149.1015625,-55.6640625,-32.71484375,-35.64453125,-38.0859375,44.43359375,0.0
149.10546875,-47.8515625,-32.71484375,-45.41015625,-34.1796875,31.73828125,0.0
149.109375,-41.9921875,-27.83203125,-39.0625,-25.390625,-4.39453125,0.0
149.11328125,-51.7578125,-30.2734375,-26.85546875,-24.90234375,-66.40625,0.0
149.1171875,-54.19921875,-30.2734375,-25.87890625,-17.578125,-44.43359375,0.0
149.12109375,-57.6171875,-30.76171875,-28.3203125,-18.06640625,-38.57421875,0.0
149.125,-62.98828125,-34.66796875,-31.25,-20.99609375,-3.41796875,0.0
149.12890625,-61.03515625,-34.1796875,-31.25,-22.4609375,7.32421875,0.0
149.1328125,-61.5234375,-38.57421875,-27.83203125,-19.53125,0.9765625,0.0
149.13671875,-53.22265625,-41.50390625,-26.85546875,-16.6015625,44.921875,0.0
149.140625,-49.8046875,-51.7578125,-25.390625,-21.484375,5.859375,0.0
149.14453125,-49.31640625,-54.19921875,-26.3671875,-26.3671875,46.38671875,0.0
149.1484375,-52.24609375,-47.36328125,-28.80859375,-40.52734375,18.5546875,0.0
149.15234375,-58.10546875,-47.36328125,-26.85546875,-44.921875,-39.55078125,0.0
149.15625,-41.015625,-41.50390625,-27.83203125,-36.62109375,-71.77734375,0.0
149.16015625,-32.71484375,-35.64453125,-30.2734375,-38.57421875,-93.26171875,0.0
149.1640625,-42.48046875,-28.80859375,-32.2265625,-47.8515625,-68.84765625,0.0
149.16796875,-51.26953125,-37.59765625,-29.78515625,-52.24609375,-57.6171875,0.0
149.171875,-45.41015625,-47.36328125,-24.90234375,-53.7109375,45.41015625,0.0
149.17578125,-33.69140625,-39.55078125,-31.73828125,-43.9453125,79.1015625,0.0
149.1796875,-29.296875,-32.2265625,-34.1796875,-29.78515625,6.8359375,0.0
149.18359375,-35.15625,-32.71484375,-35.64453125,-35.64453125,-11.71875,0.0
149.1875,-49.8046875,-39.55078125,-30.2734375,-41.50390625,18.5546875,0.0
149.19140625,-53.22265625,-49.8046875,-25.390625,-37.109375,-17.08984375,0.0
149.1953125,-52.24609375,-49.31640625,-30.76171875,-47.36328125,-93.26171875,0.0
149.19921875,-47.36328125,-44.921875,-32.2265625,-55.17578125,-137.20703125,0.0
149.203125,-47.8515625,-43.9453125,-29.78515625,-59.08203125,-58.10546875,0.0
149.20703125,-41.50390625,-45.41015625,-26.3671875,-49.8046875,27.34375,0.0
149.2109375,-45.41015625,-43.9453125,-29.296875,-41.9921875,6.8359375,0.0
149.21484375,-44.43359375,-42.96875,-25.87890625,-39.0625,-8.7890625,0.0
149.21875,-34.66796875,-41.50390625,-29.78515625,-27.83203125,2.9296875,0.0
149.22265625,-53.7109375,-41.015625,-35.15625,-48.33984375,33.203125,0.0
149.2265625,-66.40625,-41.50390625,-35.15625,-62.98828125,-15.13671875,0.0
149.23046875,-49.8046875,-37.109375,-31.25,-48.828125,-71.2890625,0.0
149.234375,-44.43359375,-44.43359375,-30.76171875,-33.69140625,-36.62109375,0.0
149.23828125,-58.59375,-49.8046875,-38.57421875,-37.109375,-13.18359375,0.0
149.2421875,-58.59375,-43.45703125,-37.109375,-43.9453125,-39.55078125,0.0
149.24609375,-54.19921875,-40.0390625,-36.1328125,-52.734375,-101.07421875,0.0
149.25,-53.7109375,-45.41015625,-43.45703125,-59.08203125,-20.99609375,0.0
149.25390625,-47.8515625,-45.41015625,-45.8984375,-44.43359375,-6.34765625,0.0
149.2578125,-42.96875,-40.52734375,-33.203125,-36.1328125,-27.34375,0.0
149.26171875,-51.26953125,-40.0390625,-32.2265625,-50.78125,4.39453125,0.0
149.265625,-58.10546875,-39.55078125,-35.64453125,-58.59375,5.37109375,0.0
149.26953125,-59.5703125,-33.203125,-29.78515625,-66.40625,-16.6015625,0.0
149.2734375,-54.6875,-31.73828125,-24.4140625,-66.40625,-25.390625,0.0
149.27734375,-46.38671875,-31.25,-26.3671875,-62.98828125,-47.8515625,0.0
149.28125,-47.8515625,-37.59765625,-31.25,-68.359375,-23.4375,0.0
149.28515625,-38.57421875,-48.828125,-31.25,-53.22265625,-19.04296875,0.0
149.2890625,-21.484375,-43.9453125,-25.390625,-33.203125,-52.734375,0.0
149.29296875,-18.06640625,-31.73828125,-18.06640625,-29.296875,-72.75390625,0.0
149.296875,-21.484375,-32.2265625,-24.4140625,-38.0859375,-108.88671875,0.0
149.30078125,-33.203125,-36.1328125,-28.3203125,-58.10546875,-88.37890625,0.0
149.3046875,-45.8984375,-29.296875,-23.92578125,-59.08203125,-65.91796875,0.0
149.30859375,-36.62109375,-29.78515625,-31.73828125,-52.734375,-59.5703125,0.0
149.3125,-31.25,-22.4609375,-35.64453125,-52.734375,-30.2734375,0.0
149.31640625,-28.80859375,-12.6953125,-35.15625,-43.45703125,-39.55078125,0.0
149.3203125,-31.25,-18.5546875,-26.3671875,-61.03515625,-99.609375,0.0
149.32421875,-32.2265625,-24.4140625,-24.90234375,-62.01171875,-145.99609375,0.0
149.328125,-35.64453125,-30.2734375,-34.1796875,-63.96484375,-127.9296875,0.0
149.33203125,-42.96875,-24.90234375,-38.0859375,-102.5390625,0.0,0.0
149.3359375,-41.50390625,-21.484375,-35.64453125,-99.12109375,1.46484375,0.0
149.33984375,-24.90234375,-29.78515625,-34.66796875,-62.01171875,-43.45703125,0.0
149.34375,-31.73828125,-34.66796875,-47.36328125,-69.82421875,-37.109375,0.0
149.34765625,-62.5,-37.109375,-37.59765625,-166.50390625,-27.34375,0.0
149.3515625,-38.57421875,-21.97265625,-34.66796875,-116.69921875,-49.8046875,0.0
149.35546875,-28.3203125,-14.6484375,-37.109375,-61.5234375,-14.16015625,0.0
149.359375,-40.0390625,-34.66796875,-37.59765625,-109.86328125,51.26953125,0.0
149.36328125,-34.66796875,-42.48046875,-37.109375,-107.91015625,-44.921875,0.0
149.3671875,-41.015625,-24.90234375,-27.83203125,-98.14453125,1.953125,0.0
149.37109375,-46.38671875,-24.90234375,-27.34375,-107.421875,-7.32421875,0.0
149.375,-43.45703125,-38.0859375,-37.109375,-135.7421875,-47.36328125,0.0
149.37890625,-39.0625,-35.64453125,-32.71484375,-97.16796875,39.0625,0.0
149.3828125,-33.69140625,-29.296875,-37.59765625,-104.98046875,-5.37109375,0.0
149.38671875,-44.921875,-22.94921875,-48.828125,-125.0,-23.4375,0.0
149.390625,-47.36328125,-44.921875,-35.15625,-108.3984375,-28.3203125,0.0
149.39453125,-41.50390625,-52.24609375,-24.90234375,-132.8125,-104.4921875,0.0
149.3984375,-37.109375,-30.76171875,-42.48046875,-122.55859375,-39.55078125,0.0
149.40234375,-42.48046875,-36.1328125,-42.96875,-105.46875,-12.6953125,0.0
149.40625,-44.43359375,-48.33984375,-34.1796875,-116.2109375,-58.10546875,0.0
149.41015625,-36.1328125,-30.76171875,-30.2734375,-96.6796875,1.953125,0.0
149.4140625,-33.203125,-17.08984375,-27.34375,-89.35546875,42.48046875,0.0
149.41796875,-30.76171875,-30.76171875,-27.83203125,-95.703125,49.31640625,0.0
149.421875,-39.55078125,-41.50390625,-34.1796875,-105.46875,-17.08984375,0.0
149.42578125,-41.50390625,-41.015625,-29.296875,-105.95703125,-26.3671875,0.0
149.4296875,-41.50390625,-37.59765625,-18.5546875,-101.5625,-22.4609375,0.0
149.43359375,-44.921875,-41.50390625,-15.13671875,-103.515625,-41.9921875,0.0
149.4375,-34.66796875,-38.0859375,-19.53125,-104.00390625,-31.73828125,0.0
149.44140625,-33.69140625,-35.15625,-40.0390625,-97.16796875,-26.3671875,0.0
149.4453125,-58.59375,-39.55078125,-37.59765625,-115.234375,-7.8125,0.0
149.44921875,-67.3828125,-40.0390625,-36.1328125,-115.72265625,42.48046875,0.0
149.453125,-48.33984375,-36.62109375,-39.0625,-101.07421875,13.671875,0.0
149.45703125,-56.15234375,-38.0859375,-33.69140625,-121.09375,-59.5703125,0.0
149.4609375,-63.4765625,-27.83203125,-32.2265625,-111.328125,-112.3046875,0.0
149.46484375,-54.6875,-31.25,-25.390625,-104.00390625,-57.12890625,0.0
149.46875,-61.5234375,-44.43359375,-26.3671875,-122.0703125,48.33984375,0.0
149.47265625,-49.8046875,-38.57421875,-26.3671875,-100.09765625,95.703125,0.0
149.4765625,-36.62109375,-37.109375,-22.94921875,-86.9140625,76.66015625,0.0
149.48046875,-47.8515625,-34.1796875,-24.4140625,-90.33203125,23.92578125,0.0
149.484375,-60.546875,-32.2265625,-28.80859375,-98.6328125,86.42578125,0.0
149.48828125,-60.05859375,-33.69140625,-23.92578125,-95.703125,64.453125,0.0
149.4921875,-41.9921875,-37.59765625,-12.20703125,-60.546875,-61.03515625,0.0
149.49609375,-28.3203125,-34.66796875,-22.94921875,-68.359375,-58.59375,0.0
149.5,-41.50390625,-27.34375,-41.50390625,-86.9140625,56.15234375,0.0
149.50390625,-45.41015625,-25.87890625,-37.59765625,-88.37890625,18.06640625,0.0
149.5078125,-48.33984375,-23.92578125,-33.203125,-92.28515625,-45.8984375,0.0
149.51171875,-56.15234375,-39.55078125,-23.4375,-79.1015625,-21.484375,0.0
149.515625,-35.64453125,-42.48046875,-32.71484375,-63.96484375,36.1328125,0.0
149.51953125,-33.69140625,-35.64453125,-31.25,-42.96875,52.734375,0.0
149.5234375,-47.36328125,-36.1328125,-16.6015625,-115.72265625,62.5,0.0
149.52734375,-28.80859375,-32.2265625,-27.34375,-32.2265625,76.171875,0.0
149.53125,-22.4609375,-19.53125,-29.78515625,17.578125,14.6484375,0.0
149.53515625,-29.78515625,-21.97265625,-22.4609375,-38.57421875,-51.7578125,0.0
149.5390625,-21.97265625,-40.52734375,-18.06640625,-37.109375,-62.01171875,0.0
149.54296875,-21.97265625,-27.83203125,-41.50390625,-19.04296875,-71.77734375,0.0
149.546875,-38.57421875,-27.83203125,-24.90234375,-22.94921875,-35.64453125,0.0
149.55078125,-52.24609375,-38.57421875,-5.37109375,-99.609375,-45.41015625,0.0
149.5546875,-43.9453125,-18.5546875,-35.64453125,-60.546875,-94.7265625,0.0
149.55859375,-31.25,-15.625,-39.0625,-20.5078125,-99.609375,0.0
149.5625,-37.109375,-38.0859375,-39.0625,-48.828125,-66.89453125,0.0
149.56640625,-42.96875,-37.109375,-47.36328125,-39.55078125,-62.5,0.0
149.5703125,-49.31640625,-32.2265625,-42.48046875,-49.31640625,-67.87109375,0.0
149.57421875,-47.8515625,-27.34375,-36.1328125,13.671875,-0.9765625,0.0
149.578125,-41.9921875,-23.92578125,-34.1796875,51.7578125,26.3671875,0.0
149.58203125,-47.8515625,-37.109375,-28.80859375,8.7890625,36.62109375,0.0
149.5859375,-54.6875,-41.9921875,-43.9453125,-6.8359375,68.84765625,0.0
149.58984375,-50.29296875,-40.0390625,-64.453125,80.078125,3.41796875,0.0
149.59375,-51.26953125,-38.57421875,-40.0390625,149.4140625,-16.11328125,0.0
149.59765625,-36.1328125,-28.80859375,-26.85546875,78.61328125,-105.95703125,0.0
149.6015625,-31.25,-42.48046875,-18.5546875,62.01171875,-139.6484375,0.0
149.60546875,-37.109375,-44.43359375,-22.4609375,78.61328125,-100.09765625,0.0
149.609375,-16.6015625,-28.3203125,-49.8046875,95.21484375,-125.0,0.0
149.61328125,-4.8828125,-44.921875,-45.41015625,80.078125,-97.16796875,0.0
149.6171875,-8.7890625,-44.43359375,-26.3671875,92.7734375,-59.08203125,0.0
149.62109375,-20.01953125,-27.34375,-13.671875,112.3046875,-50.29296875,0.0
149.625,-12.6953125,-32.71484375,-14.6484375,78.61328125,-11.23046875,0.0
149.62890625,-20.01953125,-39.0625,-12.6953125,25.87890625,3.90625,0.0
149.6328125,-28.80859375,-35.15625,-15.625,11.23046875,-3.41796875,0.0
149.63671875,-6.8359375,-43.9453125,-18.5546875,81.54296875,-14.6484375,0.0
149.640625,0.48828125,-37.109375,-28.80859375,163.0859375,-110.3515625,0.0
149.64453125,5.37109375,-38.57421875,-39.55078125,176.7578125,-123.53515625,0.0
149.6484375,6.34765625,-38.57421875,-37.109375,126.953125,-41.50390625,0.0
149.65234375,-18.5546875,-34.1796875,-27.83203125,58.59375,-45.41015625,0.0
149.65625,-27.34375,-45.41015625,-27.34375,62.01171875,-95.21484375,0.0
149.66015625,-19.04296875,-31.73828125,-44.43359375,84.47265625,-70.3125,0.0
149.6640625,-26.3671875,-28.3203125,-24.90234375,61.5234375,-0.48828125,0.0
149.66796875,-26.3671875,-37.59765625,-26.85546875,77.1484375,0.0,0.0
149.671875,-3.41796875,-30.76171875,-45.8984375,112.79296875,8.7890625,0.0
149.67578125,-4.39453125,-27.83203125,-30.76171875,104.98046875,22.94921875,0.0
149.6796875,-23.92578125,-31.73828125,-31.73828125,40.0390625,12.20703125,0.0
149.68359375,-38.57421875,-28.80859375,-44.43359375,23.4375,20.5078125,0.0
149.6875,-42.96875,-41.50390625,-18.5546875,17.08984375,16.11328125,0.0
149.69140625,-21.97265625,-33.69140625,-18.5546875,73.2421875,20.5078125,0.0
149.6953125,-14.16015625,-27.34375,-17.08984375,127.44140625,37.109375,0.0
149.69921875,-16.6015625,-29.296875,-32.71484375,56.15234375,31.73828125,0.0
149.703125,-24.90234375,-30.2734375,-40.0390625,75.1953125,76.66015625,0.0
149.70703125,-26.85546875,-39.0625,-18.06640625,79.1015625,40.0390625,0.0
149.7109375,-20.01953125,-25.87890625,-44.921875,59.08203125,-0.9765625,0.0
149.71484375,-43.45703125,-22.4609375,-38.0859375,44.921875,56.640625,0.0
149.71875,-60.546875,-17.08984375,-21.484375,22.94921875,-1.46484375,0.0
149.72265625,-37.109375,-21.484375,-32.71484375,110.3515625,15.13671875,0.0
149.7265625,-22.4609375,-13.18359375,-53.22265625,153.80859375,72.75390625,0.0
149.73046875,-48.828125,-10.7421875,-45.8984375,66.40625,-16.6015625,0.0
149.734375,-52.24609375,-35.64453125,-27.83203125,32.71484375,-64.453125,0.0
149.73828125,-37.109375,-23.4375,-37.59765625,81.0546875,-49.31640625,0.0
149.7421875,-51.26953125,-10.7421875,-6.34765625,15.625,-88.37890625,0.0
149.74609375,-38.57421875,-14.6484375,-15.13671875,20.5078125,-76.66015625,0.0
149.75,-14.6484375,-11.23046875,-72.265625,118.65234375,-73.2421875,0.0
149.75390625,-33.69140625,-12.20703125,-59.08203125,82.03125,-73.73046875,0.0
149.7578125,-41.50390625,-9.765625,-41.015625,87.40234375,-77.63671875,0.0
149.76171875,-47.36328125,-9.765625,-46.38671875,91.796875,-62.5,0.0
149.765625,-66.40625,-23.92578125,-27.83203125,65.91796875,-62.98828125,0.0
149.76953125,-57.6171875,-27.34375,-37.109375,64.453125,-65.91796875,0.0
149.7734375,-52.24609375,-15.13671875,-34.66796875,26.3671875,-26.85546875,0.0
149.77734375,-43.9453125,-10.25390625,-26.3671875,14.16015625,-65.91796875,0.0
149.78125,-32.71484375,-15.625,-35.64453125,13.18359375,-38.0859375,0.0
149.78515625,-49.31640625,-13.18359375,-22.94921875,17.578125,-8.7890625,0.0
149.7890625,-64.453125,-14.16015625,-25.390625,-76.171875,-3.90625,0.0
149.79296875,-26.3671875,-5.37109375,-51.7578125,-62.5,22.4609375,0.0
149.796875,-21.484375,-20.01953125,-29.78515625,65.4296875,-1.46484375,0.0
149.80078125,-59.08203125,-35.64453125,-11.71875,-36.62109375,-89.35546875,0.0
149.8046875,-48.828125,-29.296875,-22.4609375,-114.74609375,-91.30859375,0.0
149.80859375,-18.5546875,-25.390625,-34.1796875,-51.7578125,3.90625,0.0
149.8125,6.34765625,-12.6953125,-59.08203125,66.89453125,-9.765625,0.0
149.81640625,5.37109375,-5.859375,-53.7109375,82.51953125,-36.1328125,0.0
149.8203125,-5.859375,-10.7421875,-52.24609375,55.17578125,-75.68359375,0.0
149.82421875,-37.59765625,-29.78515625,-28.3203125,0.0,-115.234375,0.0
149.828125,-45.8984375,-28.3203125,-13.18359375,-5.37109375,-125.9765625,0.0
149.83203125,-30.2734375,-12.20703125,-27.83203125,56.15234375,-96.19140625,0.0
149.8359375,-30.2734375,0.0,-29.78515625,76.66015625,-68.84765625,0.0
149.83984375,-20.5078125,-3.90625,-39.0625,91.796875,-79.58984375,0.0
149.84375,-52.734375,-20.5078125,-26.3671875,39.0625,-130.859375,0.0
149.84765625,-54.19921875,-34.66796875,-34.1796875,33.203125,-165.52734375,0.0
149.8515625,-43.45703125,-35.64453125,-27.83203125,71.2890625,-89.35546875,0.0
149.85546875,-53.7109375,-21.97265625,-29.78515625,35.64453125,-38.0859375,0.0
149.859375,-49.31640625,-15.13671875,-34.66796875,58.10546875,19.04296875,0.0
149.86328125,-58.10546875,-21.97265625,-28.80859375,67.87109375,93.26171875,0.0
149.8671875,-55.17578125,-18.06640625,-45.41015625,80.078125,13.671875,0.0
149.87109375,-67.3828125,-23.92578125,-17.578125,50.29296875,-59.5703125,0.0
149.875,-67.3828125,-31.73828125,-11.71875,38.57421875,-79.1015625,0.0
149.87890625,-49.8046875,-18.5546875,-33.69140625,80.56640625,-72.75390625,0.0
149.8828125,-49.8046875,-15.13671875,-35.15625,98.6328125,-38.57421875,0.0
149.88671875,-55.6640625,-30.2734375,-16.6015625,117.67578125,-21.484375,0.0
149.890625,-66.40625,-34.66796875,-22.4609375,124.0234375,21.484375,0.0
149.89453125,-73.73046875,-41.015625,-8.30078125,101.5625,-18.06640625,0.0
149.8984375,-70.80078125,-39.0625,-2.9296875,93.26171875,-47.36328125,0.0
149.90234375,-56.15234375,-27.83203125,-37.59765625,133.30078125,-60.05859375,0.0
149.90625,-58.10546875,-27.34375,-45.41015625,121.58203125,-114.2578125,0.0
149.91015625,-76.171875,-32.2265625,-9.765625,83.49609375,-74.21875,0.0
149.9140625,-53.7109375,-34.66796875,-19.04296875,87.40234375,-62.01171875,0.0
149.91796875,-24.4140625,-35.64453125,-45.8984375,138.671875,-61.5234375,0.0
149.921875,-41.9921875,-33.203125,-37.59765625,125.0,-68.359375,0.0
149.92578125,-56.640625,-45.41015625,-17.578125,51.7578125,-124.51171875,0.0
149.9296875,-14.6484375,-37.109375,-23.4375,89.84375,-85.44921875,0.0
149.93359375,-12.20703125,-26.85546875,-33.69140625,144.53125,-37.59765625,0.0
149.9375,-23.4375,-36.1328125,-37.109375,151.85546875,-106.93359375,0.0
149.94140625,-28.80859375,-39.0625,-25.87890625,108.3984375,-177.734375,0.0
149.9453125,-38.0859375,-34.1796875,-22.94921875,100.09765625,-117.1875,0.0
149.94921875,-33.203125,-44.43359375,-36.62109375,94.23828125,-68.359375,0.0
149.953125,-37.109375,-43.45703125,-26.3671875,52.734375,-80.56640625,0.0
149.95703125,-22.94921875,-29.296875,-33.203125,104.00390625,-54.6875,0.0
149.9609375,-13.18359375,-26.85546875,-35.15625,118.65234375,-44.43359375,0.0
149.96484375,-33.203125,-34.1796875,-28.80859375,76.66015625,-124.51171875,0.0
149.96875,-47.8515625,-49.31640625,-28.80859375,67.87109375,-150.87890625,0.0
149.97265625,-37.109375,-41.9921875,-37.109375,73.2421875,-73.2421875,0.0
149.9765625,-37.109375,-28.80859375,-26.85546875,71.77734375,-56.640625,0.0
149.98046875,-38.57421875,-32.2265625,-24.90234375,66.40625,-104.98046875,0.0
149.984375,-49.31640625,-35.15625,-31.25,20.99609375,-92.28515625,0.0
149.98828125,-50.78125,-39.55078125,-29.296875,-7.32421875,-80.56640625,0.0
149.9921875,-38.0859375,-31.25,-37.109375,16.11328125,-37.59765625,0.0
149.99609375,-59.5703125,-30.76171875,-16.11328125,-15.13671875,118.1640625,0.0
150.0,-35.15625,-40.0390625,-21.97265625,-5.859375,102.05078125,0.0
150.00390625,-9.765625,-42.96875,-44.921875,50.78125,61.5234375,0.0
150.0078125,-32.71484375,-38.0859375,-31.25,22.4609375,102.05078125,0.0
150.01171875,-31.25,-31.25,-30.2734375,-3.41796875,89.35546875,0.0
150.015625,-23.4375,-39.0625,-29.78515625,-1.953125,62.01171875,0.0
150.01953125,-12.6953125,-46.38671875,-30.76171875,-13.18359375,8.30078125,0.0
150.0234375,-7.8125,-22.4609375,-38.0859375,-20.99609375,24.4140625,0.0
150.02734375,-22.94921875,-20.5078125,-34.66796875,-15.625,68.84765625,0.0
150.03125,-25.390625,-40.52734375,-29.78515625,-30.76171875,115.234375,0.0
150.03515625,-23.92578125,-46.875,-8.30078125,-48.828125,41.015625,0.0
150.0390625,-27.83203125,-41.50390625,-6.34765625,-80.078125,-55.6640625,0.0
150.04296875,-27.34375,-38.0859375,-33.69140625,-99.609375,-30.76171875,0.0
150.046875,-42.48046875,-42.96875,-30.2734375,-113.28125,-9.27734375,0.0
150.05078125,-49.31640625,-42.48046875,-22.4609375,-138.671875,-87.40234375,0.0
150.0546875,-40.0390625,-39.55078125,-35.15625,-150.87890625,-122.55859375,0.0
150.05859375,-33.69140625,-45.41015625,-37.59765625,-155.76171875,-96.6796875,0.0
150.0625,-43.9453125,-50.29296875,-36.62109375,-174.31640625,-27.83203125,0.0
150.06640625,-52.734375,-48.828125,-38.57421875,-198.2421875,-93.75,0.0
150.0703125,-44.43359375,-46.875,-38.0859375,-207.51953125,-205.078125,0.0
150.07421875,-40.52734375,-39.0625,-27.34375,-223.14453125,-161.1328125,0.0
150.078125,-44.921875,-46.38671875,-23.4375,-247.0703125,-50.29296875,0.0
150.08203125,-47.36328125,-52.24609375,-28.80859375,-273.4375,-46.875,0.0
150.0859375,-51.7578125,-48.828125,-34.66796875,-310.05859375,-112.3046875,0.0
150.08984375,-56.15234375,-43.45703125,-38.57421875,-361.81640625,-84.47265625,0.0
150.09375,-47.36328125,-44.921875,-36.1328125,-380.37109375,40.0390625,0.0
150.09765625,-39.55078125,-50.29296875,-36.62109375,-391.11328125,69.3359375,0.0
150.1015625,-36.1328125,-41.9921875,-36.1328125,-405.76171875,74.70703125,0.0
150.10546875,-39.0625,-41.9921875,-42.48046875,-408.203125,31.73828125,0.0
150.109375,-41.015625,-48.828125,-48.828125,-411.62109375,-27.83203125,0.0
150.11328125,-34.66796875,-47.36328125,-41.015625,-416.50390625,-29.296875,0.0
150.1171875,-30.2734375,-32.71484375,-35.15625,-431.15234375,-31.25,0.0
150.12109375,-25.87890625,-32.2265625,-37.109375,-445.3125,-78.125,0.0
150.125,-26.85546875,-40.0390625,-37.109375,-455.078125,-79.58984375,0.0
150.12890625,-33.69140625,-41.50390625,-33.69140625,-466.30859375,9.765625,0.0
150.1328125,-33.69140625,-42.48046875,-23.4375,-473.14453125,6.34765625,0.0
150.13671875,-21.484375,-40.0390625,-25.390625,-472.16796875,-47.8515625,0.0
150.140625,-17.08984375,-41.9921875,-28.3203125,-485.83984375,-7.32421875,0.0
150.14453125,-18.06640625,-39.0625,-30.76171875,-483.88671875,16.6015625,0.0
150.1484375,-20.5078125,-30.2734375,-29.78515625,-481.4453125,-38.57421875,0.0
150.15234375,-30.76171875,-32.71484375,-27.83203125,-512.20703125,-28.80859375,0.0
150.15625,-35.15625,-37.59765625,-28.80859375,-524.90234375,26.85546875,0.0
150.16015625,-34.1796875,-28.80859375,-35.15625,-534.66796875,-37.59765625,0.0
150.1640625,-30.2734375,-26.85546875,-35.64453125,-559.08203125,-119.140625,0.0
150.16796875,-41.9921875,-31.73828125,-37.109375,-571.77734375,-86.9140625,0.0
150.171875,-48.828125,-37.59765625,-40.52734375,-583.0078125,-29.296875,0.0
150.17578125,-39.0625,-47.36328125,-36.62109375,-583.984375,-13.671875,0.0
150.1796875,-25.390625,-39.0625,-31.25,-574.70703125,24.4140625,0.0
150.18359375,-26.85546875,-27.34375,-36.1328125,-584.47265625,-15.13671875,0.0
150.1875,-36.62109375,-30.76171875,-37.109375,-585.9375,-50.78125,0.0
150.19140625,-34.66796875,-37.109375,-36.1328125,-565.4296875,-1.46484375,0.0
150.1953125,-33.203125,-38.57421875,-33.69140625,-553.7109375,-7.8125,0.0
150.19921875,-44.921875,-39.55078125,-28.80859375,-552.734375,32.2265625,0.0
150.203125,-46.38671875,-37.109375,-27.83203125,-542.96875,-13.18359375,0.0
150.20703125,-47.36328125,-31.25,-25.87890625,-531.73828125,-29.296875,0.0
150.2109375,-48.828125,-26.3671875,-22.94921875,-516.11328125,20.5078125,0.0
150.21484375,-32.71484375,-29.296875,-22.94921875,-488.28125,-93.75,0.0
150.21875,-26.85546875,-27.83203125,-30.2734375,-467.7734375,-63.96484375,0.0
150.22265625,-25.390625,-15.625,-24.4140625,-438.96484375,-41.9921875,0.0
150.2265625,-24.4140625,-14.16015625,-22.94921875,-417.96875,-110.83984375,0.0
150.23046875,-41.50390625,-27.34375,-34.1796875,-417.96875,-72.75390625,0.0
150.234375,-45.41015625,-36.1328125,-33.203125,-394.53125,-33.203125,0.0
150.23828125,-33.69140625,-36.62109375,-23.92578125,-357.91015625,30.2734375,0.0
150.2421875,-28.3203125,-33.203125,-21.484375,-333.0078125,36.62109375,0.0
150.24609375,-36.1328125,-30.2734375,-23.92578125,-312.5,41.015625,0.0
150.25,-41.9921875,-29.78515625,-28.80859375,-296.875,19.53125,0.0
150.25390625,-36.1328125,-25.390625,-22.4609375,-269.53125,-34.66796875,0.0
150.2578125,-34.1796875,-17.08984375,-20.99609375,-250.48828125,-9.27734375,0.0
150.26171875,-43.9453125,-21.484375,-32.71484375,-245.1171875,-61.5234375,0.0
150.265625,-50.29296875,-33.203125,-37.59765625,-236.81640625,-28.80859375,0.0
150.26953125,-42.48046875,-45.8984375,-30.2734375,-211.42578125,-4.8828125,0.0
150.2734375,-44.921875,-45.8984375,-35.64453125,-196.77734375,-24.90234375,0.0
150.27734375,-49.8046875,-39.0625,-36.62109375,-195.80078125,57.12890625,0.0
150.28125,-54.19921875,-41.50390625,-33.69140625,-186.5234375,16.11328125,0.0
150.28515625,-46.38671875,-41.50390625,-27.83203125,-163.57421875,-60.546875,0.0
150.2890625,-59.08203125,-46.875,-29.78515625,-158.69140625,-19.53125,0.0
150.29296875,-70.80078125,-45.8984375,-40.0390625,-157.71484375,18.06640625,0.0
150.296875,-51.7578125,-41.9921875,-30.2734375,-126.46484375,-36.62109375,0.0
150.30078125,-44.43359375,-37.109375,-31.25,-110.83984375,-44.43359375,0.0
150.3046875,-47.36328125,-28.80859375,-28.3203125,-108.88671875,-44.921875,0.0
150.30859375,-52.734375,-38.0859375,-22.94921875,-103.02734375,-10.25390625,0.0
150.3125,-56.15234375,-48.828125,-29.296875,-92.7734375,67.3828125,0.0
150.31640625,-51.7578125,-51.26953125,-30.76171875,-77.1484375,68.359375,0.0
150.3203125,-40.52734375,-44.43359375,-31.25,-65.4296875,-1.46484375,0.0
150.32421875,-40.52734375,-41.015625,-33.69140625,-60.05859375,4.8828125,0.0
150.328125,-29.296875,-42.48046875,-19.53125,-46.875,1.953125,0.0
150.33203125,-30.2734375,-35.15625,-19.53125,-40.52734375,-48.828125,0.0
150.3359375,-29.78515625,-37.109375,-30.76171875,-32.71484375,-70.80078125,0.0
150.33984375,-20.5078125,-36.1328125,-22.94921875,-26.3671875,-43.45703125,0.0
150.34375,-21.484375,-33.69140625,-22.94921875,-30.2734375,-29.296875,0.0
150.34765625,-29.296875,-41.015625,-30.76171875,-39.55078125,-79.1015625,0.0
150.3515625,-31.25,-28.80859375,-28.80859375,-43.9453125,-96.6796875,0.0
150.35546875,-27.34375,-21.484375,-28.3203125,-44.921875,10.7421875,0.0
150.359375,-31.25,-36.1328125,-30.76171875,-47.8515625,120.60546875,0.0
150.36328125,-39.0625,-44.43359375,-32.71484375,-56.640625,104.98046875,0.0
150.3671875,-39.0625,-36.1328125,-29.78515625,-47.36328125,63.4765625,0.0
150.37109375,-29.296875,-35.15625,-24.4140625,-27.34375,81.0546875,0.0
150.375,-35.15625,-32.71484375,-34.1796875,-23.92578125,77.63671875,0.0
150.37890625,-39.0625,-28.80859375,-36.1328125,-24.90234375,-7.32421875,0.0
150.3828125,-46.875,-27.34375,-34.1796875,-28.3203125,-48.33984375,0.0
150.38671875,-54.19921875,-36.1328125,-32.71484375,-25.87890625,-74.70703125,0.0
150.390625,-45.8984375,-50.78125,-32.2265625,-21.484375,-46.38671875,0.0
150.39453125,-48.828125,-53.7109375,-32.71484375,-19.53125,-40.0390625,0.0
150.3984375,-50.29296875,-41.015625,-23.4375,-9.765625,-64.94140625,0.0
150.40234375,-46.38671875,-40.0390625,-23.92578125,-1.46484375,-62.01171875,0.0
150.40625,-42.48046875,-44.921875,-28.80859375,6.8359375,-37.109375,0.0
150.41015625,-48.33984375,-38.57421875,-28.80859375,8.30078125,-52.734375,0.0
150.4140625,-46.875,-43.9453125,-26.85546875,10.7421875,-7.32421875,0.0
150.41796875,-34.1796875,-50.29296875,-26.85546875,23.92578125,47.36328125,0.0
150.421875,-32.2265625,-47.8515625,-27.34375,27.34375,-36.62109375,0.0
150.42578125,-35.15625,-47.8515625,-23.92578125,19.04296875,-69.3359375,0.0
150.4296875,-32.71484375,-42.96875,-21.484375,21.97265625,-43.9453125,0.0
150.43359375,-30.2734375,-45.41015625,-21.97265625,26.85546875,11.71875,0.0
150.4375,-25.390625,-40.52734375,-24.4140625,31.73828125,22.4609375,0.0
150.44140625,-22.94921875,-27.34375,-23.92578125,38.57421875,-62.98828125,0.0
150.4453125,-25.87890625,-20.99609375,-23.92578125,35.15625,-94.7265625,0.0
150.44921875,-27.34375,-29.78515625,-27.34375,39.0625,25.87890625,0.0
150.453125,-29.296875,-39.0625,-18.5546875,40.52734375,52.734375,0.0
150.45703125,-26.85546875,-35.64453125,-15.625,30.2734375,-13.18359375,0.0
150.4609375,-20.99609375,-28.80859375,-20.01953125,29.78515625,-50.29296875,0.0
150.46484375,-29.78515625,-34.66796875,-23.4375,25.390625,-79.1015625,0.0
150.46875,-28.80859375,-35.15625,-22.94921875,26.3671875,-0.9765625,0.0
150.47265625,-23.92578125,-29.296875,-20.01953125,27.83203125,70.3125,0.0
150.4765625,-38.57421875,-26.85546875,-21.97265625,19.04296875,-79.1015625,0.0
150.48046875,-40.0390625,-24.4140625,-21.484375,20.99609375,-228.515625,0.0
150.484375,-16.6015625,-35.64453125,-19.04296875,26.85546875,-230.95703125,0.0
150.48828125,-20.5078125,-30.76171875,-25.390625,12.20703125,-104.00390625,0.0
150.4921875,-32.71484375,-14.16015625,-23.92578125,3.90625,-17.08984375,0.0
150.49609375,-52.734375,-18.5546875,-27.34375,0.48828125,-62.98828125,0.0
150.5,-53.22265625,-39.55078125,-29.296875,5.37109375,-50.29296875,0.0
150.50390625,-33.69140625,-42.48046875,-27.34375,14.6484375,-20.99609375,0.0
150.5078125,-45.8984375,-35.15625,-30.76171875,12.6953125,-18.06640625,0.0
150.51171875,-52.24609375,-37.109375,-21.97265625,8.7890625,-1.46484375,0.0
150.515625,-46.875,-38.0859375,-22.4609375,7.8125,-63.96484375,0.0
150.51953125,-42.48046875,-38.0859375,-20.01953125,14.16015625,-80.56640625,0.0
150.5234375,-41.50390625,-34.1796875,-23.4375,10.7421875,-30.2734375,0.0
150.52734375,-45.41015625,-34.1796875,-34.66796875,-5.37109375,-34.1796875,0.0
150.53125,-42.96875,-37.59765625,-34.1796875,-14.16015625,-24.4140625,0.0
150.53515625,-29.78515625,-33.69140625,-35.15625,-5.859375,62.01171875,0.0
150.5390625,-23.4375,-28.80859375,-34.66796875,1.953125,45.41015625,0.0
150.54296875,-26.85546875,-34.1796875,-34.66796875,0.48828125,-13.18359375,0.0
150.546875,-20.01953125,-39.55078125,-37.59765625,0.0,-8.7890625,0.0
150.55078125,-30.76171875,-25.87890625,-36.62109375,-1.953125,27.83203125,0.0
150.5546875,-22.94921875,-24.90234375,-27.83203125,18.06640625,-4.39453125,0.0
150.55859375,-5.859375,-35.64453125,-23.92578125,33.69140625,-96.19140625,0.0
150.5625,-19.53125,-33.69140625,-24.90234375,23.92578125,-77.63671875,0.0
150.56640625,-25.87890625,-30.76171875,-29.296875,25.390625,49.8046875,0.0
150.5703125,-20.5078125,-26.3671875,-30.76171875,30.76171875,138.671875,0.0
150.57421875,-15.625,-27.34375,-23.92578125,34.1796875,87.890625,0.0
150.578125,-10.7421875,-29.296875,-20.5078125,37.59765625,11.71875,0.0
150.58203125,-15.625,-32.2265625,-28.3203125,25.87890625,60.546875,0.0
150.5859375,-27.34375,-23.4375,-34.66796875,11.23046875,-52.734375,0.0
150.58984375,-40.0390625,-21.97265625,-33.203125,4.8828125,-217.28515625,0.0
150.59375,-35.15625,-38.57421875,-32.2265625,9.765625,-139.16015625,0.0
150.59765625,-37.109375,-37.59765625,-27.83203125,12.20703125,-29.296875,0.0
150.6015625,-44.921875,-35.15625,-30.2734375,4.39453125,-5.859375,0.0
150.60546875,-50.29296875,-41.50390625,-42.48046875,-2.44140625,-12.20703125,0.0
150.609375,-58.10546875,-33.203125,-40.52734375,-4.8828125,-54.19921875,0.0
150.61328125,-62.5,-33.69140625,-37.59765625,-8.7890625,-110.3515625,0.0
150.6171875,-63.4765625,-42.48046875,-31.73828125,-3.90625,-129.39453125,0.0
150.62109375,-50.78125,-45.41015625,-27.83203125,2.9296875,-112.79296875,0.0
150.625,-40.0390625,-44.43359375,-33.203125,6.8359375,-110.3515625,0.0
150.62890625,-44.921875,-40.0390625,-31.73828125,6.8359375,-102.05078125,0.0
150.6328125,-40.0390625,-39.0625,-23.92578125,8.7890625,-137.6953125,0.0
150.63671875,-27.83203125,-38.0859375,-23.92578125,16.6015625,-102.5390625,0.0
150.640625,-18.5546875,-36.1328125,-25.390625,16.11328125,-77.63671875,0.0
150.64453125,-16.6015625,-39.55078125,-17.08984375,14.16015625,-78.125,0.0
150.6484375,-19.04296875,-39.0625,-21.484375,14.6484375,-76.171875,0.0
150.65234375,-20.99609375,-31.25,-30.2734375,9.765625,-69.3359375,0.0
150.65625,-24.90234375,-26.85546875,-26.85546875,4.8828125,-47.8515625,0.0
150.66015625,-25.390625,-30.2734375,-22.94921875,2.9296875,-30.76171875,0.0
150.6640625,-36.1328125,-31.73828125,-23.92578125,-10.7421875,-21.484375,0.0
150.66796875,-26.85546875,-36.1328125,-19.53125,-4.8828125,13.671875,0.0
150.671875,-7.8125,-37.59765625,-16.6015625,4.8828125,-46.38671875,0.0
150.67578125,-14.6484375,-35.64453125,-24.4140625,-1.46484375,-41.9921875,0.0
150.6796875,-17.08984375,-28.80859375,-28.3203125,-2.9296875,71.77734375,0.0
150.68359375,-24.4140625,-33.203125,-24.4140625,-0.9765625,52.24609375,0.0
150.6875,-35.15625,-47.36328125,-28.3203125,-13.18359375,4.39453125,0.0
150.69140625,-35.15625,-38.57421875,-26.3671875,-22.94921875,-31.73828125,0.0
150.6953125,-32.71484375,-27.34375,-19.04296875,-20.99609375,-17.08984375,0.0
150.69921875,-27.83203125,-30.76171875,-23.4375,-13.18359375,1.46484375,0.0
150.703125,-30.2734375,-29.78515625,-26.85546875,-5.859375,17.578125,0.0
150.70703125,-31.73828125,-27.83203125,-27.34375,-3.41796875,-45.8984375,0.0
150.7109375,-24.4140625,-25.390625,-27.34375,-4.39453125,-105.95703125,0.0
150.71484375,-22.94921875,-26.85546875,-24.4140625,-2.9296875,-63.96484375,0.0
150.71875,-28.80859375,-32.2265625,-25.390625,-3.90625,-92.28515625,0.0
150.72265625,-33.203125,-26.85546875,-21.97265625,-7.32421875,-169.43359375,0.0
150.7265625,-34.66796875,-20.99609375,-26.3671875,-7.8125,-64.94140625,0.0
150.73046875,-24.4140625,-22.94921875,-26.85546875,2.44140625,0.48828125,0.0
150.734375,-20.99609375,-30.2734375,-20.01953125,8.7890625,-24.90234375,0.0
150.73828125,-21.97265625,-34.1796875,-18.5546875,4.8828125,-56.640625,0.0
150.7421875,-18.06640625,-29.296875,-24.4140625,3.41796875,-109.375,0.0
150.74609375,-21.484375,-26.3671875,-32.2265625,-2.44140625,-113.76953125,0.0
150.75,-24.4140625,-32.2265625,-29.296875,-1.953125,2.44140625,0.0
150.75390625,-12.6953125,-24.90234375,-22.94921875,5.37109375,58.59375,0.0
150.7578125,-16.6015625,-18.5546875,-21.484375,3.41796875,32.71484375,0.0
150.76171875,-27.83203125,-23.92578125,-22.94921875,-3.41796875,111.81640625,0.0
150.765625,-28.80859375,-27.34375,-29.78515625,-2.9296875,120.1171875,0.0
150.76953125,-28.3203125,-30.2734375,-33.69140625,3.90625,33.69140625,0.0
150.7734375,-22.94921875,-19.04296875,-31.25,3.90625,-4.39453125,0.0
150.77734375,-23.92578125,-27.83203125,-31.73828125,-2.44140625,-60.05859375,0.0
150.78125,-26.3671875,-43.9453125,-27.83203125,-1.46484375,-128.41796875,0.0
150.78515625,-40.52734375,-38.0859375,-30.2734375,-12.6953125,-132.32421875,0.0
150.7890625,-42.96875,-25.87890625,-32.71484375,-19.04296875,-71.77734375,0.0
150.79296875,-28.80859375,-23.4375,-30.2734375,-11.23046875,-26.3671875,0.0
150.796875,-24.4140625,-21.97265625,-34.66796875,-12.6953125,-39.55078125,0.0
150.80078125,-21.97265625,-23.92578125,-36.1328125,-10.25390625,-61.03515625,0.0
150.8046875,-31.25,-25.390625,-36.62109375,-2.44140625,-75.68359375,0.0
150.80859375,-31.25,-33.203125,-30.76171875,7.32421875,-20.5078125,0.0
150.8125,-26.85546875,-38.57421875,-31.25,10.25390625,41.015625,0.0
150.81640625,-26.85546875,-36.62109375,-32.71484375,12.6953125,43.9453125,0.0
150.8203125,-30.76171875,-29.78515625,-27.83203125,12.6953125,33.69140625,0.0
150.82421875,-34.1796875,-37.109375,-29.296875,10.7421875,-8.30078125,0.0
150.828125,-22.94921875,-52.24609375,-29.296875,25.87890625,-30.76171875,0.0
150.83203125,-23.92578125,-44.921875,-28.3203125,30.2734375,-13.18359375,0.0
150.8359375,-33.69140625,-31.73828125,-31.25,29.78515625,-20.01953125,0.0
150.83984375,-41.9921875,-36.1328125,-33.69140625,29.296875,17.578125,0.0
150.84375,-46.875,-40.0390625,-32.71484375,22.94921875,-11.23046875,0.0
150.84765625,-40.52734375,-41.50390625,-31.25,31.73828125,-87.890625,0.0
150.8515625,-36.1328125,-35.64453125,-25.390625,40.52734375,-58.59375,0.0
150.85546875,-42.96875,-35.15625,-25.87890625,41.015625,-35.64453125,0.0
150.859375,-42.48046875,-42.48046875,-24.4140625,43.45703125,-52.24609375,0.0
150.86328125,-38.57421875,-43.45703125,-24.90234375,38.0859375,0.0,0.0
150.8671875,-48.33984375,-24.90234375,-28.3203125,31.25,14.6484375,0.0
150.87109375,-54.6875,-32.2265625,-30.2734375,37.59765625,-6.34765625,0.0
150.875,-40.52734375,-54.19921875,-28.3203125,37.59765625,16.11328125,0.0
150.87890625,-34.66796875,-46.38671875,-31.25,34.1796875,-41.9921875,0.0
150.8828125,-34.1796875,-39.55078125,-33.203125,42.48046875,-181.15234375,0.0
150.88671875,-28.3203125,-32.71484375,-28.80859375,48.33984375,-175.78125,0.0
150.890625,-27.34375,-34.66796875,-29.296875,52.734375,-114.74609375,0.0
150.89453125,-26.3671875,-34.1796875,-31.25,52.24609375,-79.1015625,0.0
150.8984375,-26.85546875,-24.90234375,-24.4140625,47.8515625,-23.4375,0.0
150.90234375,-33.203125,-27.83203125,-25.390625,31.73828125,-40.52734375,0.0
150.90625,-33.69140625,-31.25,-28.3203125,23.92578125,-68.359375,0.0
150.91015625,-36.1328125,-26.85546875,-24.90234375,19.04296875,-83.49609375,0.0
150.9140625,-33.69140625,-19.53125,-24.4140625,23.4375,-81.0546875,0.0
150.91796875,-23.4375,-26.85546875,-23.4375,27.83203125,-24.90234375,0.0
150.921875,-36.1328125,-30.76171875,-27.83203125,14.16015625,-15.13671875,0.0
150.92578125,-47.36328125,-33.69140625,-30.76171875,4.39453125,-98.14453125,0.0
150.9296875,-31.25,-38.57421875,-27.34375,13.18359375,-108.88671875,0.0
150.93359375,-23.4375,-34.66796875,-25.390625,24.4140625,-38.0859375,0.0
150.9375,-34.1796875,-30.2734375,-26.85546875,18.5546875,61.5234375,0.0
150.94140625,-35.64453125,-26.85546875,-24.4140625,15.13671875,93.75,0.0
150.9453125,-36.62109375,-27.83203125,-17.08984375,13.18359375,40.52734375,0.0
150.94921875,-48.33984375,-38.0859375,-23.92578125,4.8828125,39.55078125,0.0
150.953125,-47.36328125,-40.0390625,-29.296875,6.8359375,-18.06640625,0.0
150.95703125,-33.69140625,-32.2265625,-26.3671875,21.484375,-104.98046875,0.0
150.9609375,-34.66796875,-23.92578125,-31.25,20.5078125,-93.26171875,0.0
150.96484375,-62.5,-23.92578125,-30.76171875,2.44140625,-129.39453125,0.0
150.96875,-67.87109375,-34.66796875,-27.83203125,9.27734375,-191.89453125,0.0
150.97265625,-54.6875,-31.73828125,-28.3203125,20.01953125,-145.99609375,0.0
150.9765625,-58.10546875,-28.80859375,-28.80859375,16.11328125,-140.13671875,0.0
150.98046875,-52.734375,-38.57421875,-33.203125,9.27734375,-63.96484375,0.0
150.984375,-35.15625,-43.9453125,-36.62109375,5.37109375,31.25,0.0
150.98828125,-33.69140625,-50.29296875,-33.69140625,14.6484375,62.5,0.0
150.9921875,-29.296875,-39.0625,-26.3671875,21.97265625,88.37890625,0.0
150.99609375,-31.73828125,-28.80859375,-31.73828125,11.23046875,45.41015625,0.0
151.0,-55.17578125,-34.66796875,-29.78515625,3.41796875,27.83203125,0.0
151.00390625,-62.01171875,-38.57421875,-29.296875,8.30078125,56.15234375,0.0
151.0078125,-43.9453125,-36.62109375,-38.0859375,12.20703125,87.890625,0.0
151.01171875,-29.78515625,-37.109375,-37.59765625,12.20703125,82.51953125,0.0
151.015625,-26.3671875,-37.59765625,-24.4140625,19.53125,-24.4140625,0.0
151.01953125,-24.4140625,-40.52734375,-21.484375,25.390625,-71.77734375,0.0
151.0234375,-30.76171875,-39.55078125,-31.25,21.484375,-17.08984375,0.0
151.02734375,-39.55078125,-39.55078125,-29.78515625,21.97265625,-49.8046875,0.0
151.03125,-34.66796875,-34.1796875,-23.4375,23.4375,-39.55078125,0.0
151.03515625,-23.4375,-30.2734375,-22.4609375,24.4140625,-4.39453125,0.0
151.0390625,-27.83203125,-32.2265625,-28.80859375,16.11328125,-46.38671875,0.0
151.04296875,-43.9453125,-33.69140625,-29.296875,7.8125,-72.265625,0.0
151.046875,-53.22265625,-40.52734375,-30.2734375,8.30078125,-12.6953125,0.0
151.05078125,-46.875,-37.59765625,-28.3203125,12.20703125,-69.3359375,0.0
151.0546875,-55.6640625,-22.94921875,-25.390625,15.13671875,-84.47265625,0.0
151.05859375,-53.7109375,-22.4609375,-26.3671875,20.5078125,-65.4296875,0.0
151.0625,-28.80859375,-32.71484375,-23.4375,31.25,-99.12109375,0.0
151.06640625,-38.0859375,-28.3203125,-22.4609375,28.80859375,-82.51953125,0.0
151.0703125,-55.6640625,-32.71484375,-28.3203125,21.97265625,-57.6171875,0.0
151.07421875,-54.19921875,-33.69140625,-31.73828125,18.5546875,-24.4140625,0.0
151.078125,-51.26953125,-32.2265625,-30.76171875,15.625,-14.6484375,0.0
151.08203125,-54.19921875,-37.59765625,-28.80859375,19.53125,-43.45703125,0.0
151.0859375,-51.26953125,-32.71484375,-25.87890625,19.53125,-62.01171875,0.0
151.08984375,-44.43359375,-39.0625,-32.2265625,14.6484375,-11.23046875,0.0
151.09375,-57.6171875,-38.0859375,-33.203125,12.20703125,11.23046875,0.0
151.09765625,-46.38671875,-29.78515625,-33.69140625,10.25390625,-31.25,0.0
151.1015625,-36.1328125,-29.78515625,-37.109375,11.71875,-10.25390625,0.0
151.10546875,-46.875,-33.69140625,-32.71484375,6.8359375,11.23046875,0.0
151.109375,-34.1796875,-35.64453125,-27.83203125,7.8125,-11.23046875,0.0
151.11328125,-30.2734375,-34.66796875,-30.2734375,17.08984375,36.1328125,0.0
151.1171875,-29.296875,-33.69140625,-29.78515625,25.390625,55.17578125,0.0
151.12109375,-36.62109375,-27.83203125,-27.34375,25.390625,-71.2890625,0.0
151.125,-42.48046875,-33.203125,-26.3671875,12.6953125,-98.14453125,0.0
151.12890625,-34.66796875,-37.59765625,-23.4375,8.30078125,-21.484375,0.0
151.1328125,-30.2734375,-28.3203125,-26.3671875,6.34765625,-55.6640625,0.0
151.13671875,-23.92578125,-24.4140625,-25.87890625,5.37109375,-65.91796875,0.0
151.140625,-31.25,-32.71484375,-25.390625,5.859375,-37.59765625,0.0
151.14453125,-44.921875,-42.96875,-32.2265625,1.953125,-83.0078125,0.0
151.1484375,-56.640625,-29.78515625,-34.1796875,-7.8125,-34.1796875,0.0
151.15234375,-52.24609375,-20.99609375,-27.34375,-8.7890625,21.484375,0.0
151.15625,-31.25,-41.9921875,-24.90234375,-0.48828125,-10.25390625,0.0
151.16015625,-37.109375,-50.29296875,-35.64453125,-17.08984375,-54.6875,0.0
151.1640625,-40.52734375,-41.015625,-39.0625,-18.5546875,-34.66796875,0.0
151.16796875,-37.109375,-42.48046875,-36.1328125,-3.90625,-31.73828125,0.0
151.171875,-36.62109375,-52.24609375,-29.78515625,3.90625,-55.6640625,0.0
151.17578125,-35.64453125,-46.875,-24.90234375,6.34765625,-32.2265625,0.0
151.1796875,-39.0625,-41.015625,-27.83203125,-0.48828125,9.27734375,0.0
151.18359375,-41.015625,-41.50390625,-32.71484375,-7.8125,24.4140625,0.0
151.1875,-34.66796875,-45.8984375,-34.1796875,-10.7421875,-12.20703125,0.0
151.19140625,-29.78515625,-44.921875,-30.2734375,-7.32421875,-86.42578125,0.0
151.1953125,-26.3671875,-35.64453125,-30.2734375,3.41796875,-78.125,0.0
151.19921875,-34.1796875,-42.96875,-33.203125,-3.41796875,-31.73828125,0.0
151.203125,-33.69140625,-56.640625,-40.0390625,-21.484375,-28.80859375,0.0
151.20703125,-52.24609375,-45.8984375,-43.9453125,-34.1796875,-25.390625,0.0
151.2109375,-56.15234375,-42.96875,-41.015625,-34.66796875,-59.5703125,0.0
151.21484375,-26.3671875,-49.8046875,-39.55078125,-17.08984375,-74.70703125,0.0
151.21875,-32.2265625,-34.66796875,-42.48046875,-3.90625,1.953125,0.0
151.22265625,-41.50390625,-36.62109375,-42.48046875,-1.46484375,-30.2734375,0.0
151.2265625,-46.38671875,-49.8046875,-41.9921875,-13.671875,-15.13671875,0.0
151.23046875,-76.66015625,-54.19921875,-50.29296875,-25.87890625,43.45703125,0.0
151.234375,-61.5234375,-50.29296875,-51.7578125,-20.01953125,25.390625,0.0
151.23828125,-39.0625,-39.55078125,-41.50390625,-15.625,-14.6484375,0.0
151.2421875,-23.92578125,-19.04296875,-28.3203125,-16.6015625,-44.43359375,0.0
151.24609375,-15.13671875,-21.484375,-27.83203125,-14.6484375,-22.94921875,0.0
151.25,-37.109375,-31.73828125,-36.1328125,-9.27734375,-16.11328125,0.0
151.25390625,-39.55078125,-20.5078125,-34.1796875,-11.23046875,-85.9375,0.0
151.2578125,-27.34375,-17.08984375,-26.3671875,-5.37109375,-85.9375,0.0
151.26171875,-32.2265625,-21.484375,-28.3203125,1.46484375,-7.8125,0.0
151.265625,-41.9921875,-24.4140625,-34.66796875,-6.8359375,-78.125,0.0
151.26953125,-47.36328125,-23.92578125,-31.73828125,-6.34765625,-3.90625,0.0
151.2734375,-60.05859375,-26.85546875,-27.34375,-7.32421875,103.02734375,0.0
151.27734375,-67.3828125,-26.85546875,-24.90234375,-5.37109375,48.828125,0.0
151.28125,-54.6875,-30.2734375,-30.76171875,8.30078125,38.0859375,0.0
151.28515625,-44.43359375,-47.8515625,-33.69140625,9.765625,20.5078125,0.0
151.2890625,-62.98828125,-40.52734375,-25.87890625,18.5546875,-68.84765625,0.0
151.29296875,-52.24609375,-37.109375,-24.90234375,21.484375,-84.47265625,0.0
151.296875,-60.05859375,-43.9453125,-26.3671875,9.27734375,-104.00390625,0.0
151.30078125,-81.54296875,-38.57421875,-18.06640625,0.0,-102.05078125,0.0
151.3046875,-55.17578125,-31.73828125,-20.5078125,-5.859375,-57.6171875,0.0
151.30859375,-40.52734375,-22.4609375,-27.83203125,0.0,-61.03515625,0.0
151.3125,-28.80859375,-29.78515625,-28.80859375,9.27734375,-150.87890625,0.0
151.31640625,-17.08984375,-32.2265625,-31.25,-1.953125,-139.6484375,0.0
151.3203125,-30.76171875,-22.4609375,-35.64453125,-16.11328125,-28.3203125,0.0
151.32421875,-25.87890625,-36.1328125,-24.90234375,10.7421875,-21.484375,0.0
151.328125,-24.4140625,-40.52734375,-21.97265625,-42.48046875,-52.734375,0.0
151.33203125,-42.48046875,-27.34375,-21.97265625,-69.82421875,-15.625,0.0
151.3359375,-15.625,-26.85546875,-29.78515625,-16.11328125,-13.671875,0.0
151.33984375,-7.8125,-39.0625,-44.43359375,-25.390625,-59.5703125,0.0
151.34375,-36.62109375,-48.33984375,-42.48046875,-30.76171875,-49.8046875,0.0
151.34765625,-45.41015625,-48.828125,-19.04296875,-50.78125,19.53125,0.0
151.3515625,-26.3671875,-53.7109375,-10.7421875,-78.125,69.3359375,0.0
151.35546875,-28.80859375,-41.50390625,-44.43359375,-96.6796875,89.84375,0.0
151.359375,-40.0390625,-39.55078125,-44.921875,-89.84375,48.828125,0.0
151.36328125,-49.8046875,-47.8515625,-43.9453125,-70.80078125,31.73828125,0.0
151.3671875,-40.52734375,-36.62109375,-42.48046875,-68.359375,-21.484375,0.0
151.37109375,-33.69140625,-37.109375,-27.83203125,-73.2421875,-118.65234375,0.0
151.375,-92.7734375,-39.0625,5.37109375,-130.37109375,-57.12890625,0.0
151.37890625,-109.86328125,-29.296875,-6.34765625,-166.015625,-19.04296875,0.0
151.3828125,-16.6015625,-24.90234375,-49.8046875,-49.31640625,-14.6484375,0.0
151.38671875,9.765625,-25.87890625,-53.22265625,16.6015625,-0.9765625,0.0
151.390625,-49.31640625,-33.203125,-43.45703125,-15.13671875,-60.05859375,0.0
151.39453125,-50.78125,-41.50390625,-20.01953125,-61.03515625,-23.4375,0.0
151.3984375,-28.3203125,-40.0390625,-22.4609375,-80.078125,22.94921875,0.0
151.40234375,-77.63671875,-49.31640625,11.23046875,-126.953125,-65.4296875,0.0
151.40625,-81.54296875,-53.7109375,20.99609375,-125.48828125,-39.0625,0.0
151.41015625,-59.08203125,-37.109375,-16.6015625,-98.14453125,-2.44140625,0.0
151.4140625,-45.41015625,-18.5546875,-68.359375,-35.15625,57.12890625,0.0
151.41796875,-28.3203125,-28.3203125,-50.78125,42.96875,71.77734375,0.0
151.421875,-44.43359375,-46.38671875,3.90625,-7.32421875,-7.32421875,0.0
151.42578125,-64.453125,-34.1796875,-27.34375,-75.68359375,-62.98828125,0.0
151.4296875,-70.3125,-30.76171875,-19.04296875,-92.7734375,-52.734375,0.0
151.43359375,-81.54296875,-33.203125,7.32421875,-52.734375,-45.41015625,0.0
151.4375,-105.46875,-47.36328125,36.62109375,-98.6328125,-106.93359375,0.0
151.44140625,-83.0078125,-29.78515625,-31.25,-30.2734375,-125.0,0.0
151.4453125,-66.40625,-21.97265625,-36.62109375,105.46875,-87.40234375,0.0
151.44921875,-104.98046875,-47.8515625,27.83203125,101.07421875,-36.1328125,0.0
151.453125,-80.56640625,-32.71484375,-21.97265625,109.86328125,22.4609375,0.0
151.45703125,25.87890625,-13.671875,-91.796875,169.921875,30.2734375,0.0
151.4609375,-33.69140625,-37.109375,-30.2734375,118.65234375,-38.57421875,0.0
151.46484375,-73.73046875,-47.36328125,-0.9765625,-0.48828125,-27.83203125,0.0
151.46875,-25.87890625,-36.62109375,-65.91796875,125.48828125,22.4609375,0.0
151.47265625,-31.25,-34.66796875,-35.64453125,140.13671875,-22.94921875,0.0
151.4765625,-31.73828125,-16.11328125,-58.10546875,148.4375,-54.19921875,0.0
151.48046875,-21.484375,-22.94921875,-50.78125,211.42578125,-72.265625,0.0
151.484375,-7.8125,-37.109375,-8.7890625,130.37109375,-58.59375,0.0
151.48828125,-3.41796875,-34.1796875,-47.36328125,176.26953125,-28.80859375,0.0
151.4921875,0.48828125,-21.484375,-88.8671875,284.66796875,-36.62109375,0.0
151.49609375,11.71875,-17.578125,-79.1015625,248.53515625,-75.68359375,0.0
151.5,-2.9296875,-26.85546875,-49.8046875,237.79296875,-79.1015625,0.0
151.50390625,-44.921875,-41.015625,-31.73828125,203.125,11.23046875,0.0
151.5078125,-39.0625,-34.66796875,-60.05859375,198.73046875,52.734375,0.0
151.51171875,-34.1796875,-35.15625,-17.08984375,162.59765625,-49.8046875,0.0
151.515625,-29.78515625,-28.80859375,-29.78515625,195.3125,-68.359375,0.0
151.51953125,-4.8828125,-19.53125,-69.3359375,267.08984375,1.46484375,0.0
151.5234375,-44.43359375,-21.484375,-30.76171875,162.59765625,-105.95703125,0.0
151.52734375,-53.7109375,-24.90234375,-25.390625,121.58203125,-259.765625,0.0
151.53125,-18.5546875,-26.3671875,-52.24609375,208.0078125,-216.796875,0.0
151.53515625,-23.4375,-31.25,-50.29296875,211.42578125,-160.15625,0.0
151.5390625,-37.109375,-36.62109375,-36.1328125,186.03515625,-164.55078125,0.0
151.54296875,-33.203125,-33.203125,-48.828125,198.2421875,-125.0,0.0
151.546875,-28.80859375,-38.0859375,-49.8046875,206.0546875,-42.96875,0.0
151.55078125,-29.296875,-39.0625,-47.36328125,206.0546875,-59.5703125,0.0
151.5546875,-32.71484375,-32.2265625,-43.45703125,200.68359375,-132.8125,0.0
151.55859375,-32.71484375,-34.66796875,-39.0625,206.54296875,-81.0546875,0.0
151.5625,-29.296875,-46.38671875,-38.0859375,214.84375,-35.64453125,0.0
151.56640625,-33.69140625,-39.55078125,-37.59765625,205.56640625,-92.7734375,0.0
151.5703125,-32.2265625,-28.80859375,-32.71484375,217.7734375,-125.48828125,0.0
151.57421875,-29.296875,-39.0625,-29.78515625,231.93359375,-129.39453125,0.0
151.578125,-31.25,-52.24609375,-37.109375,223.6328125,-100.09765625,0.0
151.58203125,-37.109375,-53.7109375,-39.0625,220.21484375,-12.20703125,0.0
151.5859375,-32.71484375,-41.50390625,-31.73828125,225.09765625,22.94921875,0.0
151.58984375,-26.3671875,-40.0390625,-31.73828125,233.3984375,-6.34765625,0.0
151.59375,-31.73828125,-42.96875,-40.52734375,232.421875,-55.17578125,0.0
151.59765625,-32.71484375,-43.45703125,-38.0859375,228.515625,63.4765625,0.0
151.6015625,-26.3671875,-41.50390625,-32.71484375,239.2578125,189.94140625,0.0
151.60546875,-33.203125,-45.41015625,-23.4375,238.76953125,113.76953125,0.0
151.609375,-30.76171875,-44.921875,-24.90234375,226.5625,-7.32421875,0.0
151.61328125,-23.4375,-35.15625,-41.015625,235.3515625,48.828125,0.0
151.6171875,-40.52734375,-27.83203125,-38.0859375,215.33203125,70.80078125,0.0
151.62109375,-55.17578125,-38.0859375,-35.64453125,169.921875,77.1484375,0.0
151.625,-55.17578125,-47.36328125,-45.41015625,157.71484375,107.421875,0.0
151.62890625,-51.7578125,-35.15625,-38.0859375,144.53125,41.50390625,0.0
151.6328125,-48.828125,-27.34375,-32.71484375,100.09765625,21.484375,0.0
151.63671875,-40.52734375,-25.87890625,-35.15625,60.546875,53.22265625,0.0
151.640625,-35.64453125,-25.87890625,-42.48046875,18.5546875,4.39453125,0.0
151.64453125,-44.921875,-21.484375,-49.8046875,-17.08984375,-27.34375,0.0
151.6484375,-53.22265625,-14.6484375,-43.45703125,-41.9921875,0.48828125,0.0
151.65234375,-50.29296875,-14.6484375,-40.52734375,-70.3125,56.640625,0.0
151.65625,-41.015625,-16.6015625,-38.57421875,-90.8203125,36.1328125,0.0
151.66015625,-38.57421875,-16.11328125,-42.96875,-112.79296875,41.9921875,0.0
151.6640625,-42.96875,-20.01953125,-41.9921875,-166.9921875,46.875,0.0
151.66796875,-39.55078125,-24.90234375,-40.0390625,-174.31640625,14.6484375,0.0
151.671875,-37.59765625,-33.203125,-32.2265625,-180.6640625,79.58984375,0.0
151.67578125,-59.08203125,-40.52734375,-28.3203125,-242.1875,49.31640625,0.0
151.6796875,-68.359375,-32.71484375,-40.52734375,-268.5546875,-43.45703125,0.0
151.68359375,-56.15234375,-33.69140625,-42.48046875,-281.73828125,-1.953125,0.0
151.6875,-54.19921875,-35.64453125,-36.62109375,-296.875,-56.640625,0.0
151.69140625,-52.734375,-36.1328125,-36.62109375,-318.84765625,-60.05859375,0.0
151.6953125,-48.828125,-36.62109375,-33.203125,-342.7734375,-54.6875,0.0
151.69921875,-45.8984375,-36.62109375,-37.59765625,-353.515625,-72.75390625,0.0
151.703125,-43.45703125,-38.0859375,-35.15625,-350.5859375,-28.80859375,0.0
151.70703125,-32.2265625,-34.1796875,-26.3671875,-340.33203125,-20.99609375,0.0
151.7109375,-29.296875,-26.3671875,-31.25,-347.16796875,6.8359375,0.0
151.71484375,-37.109375,-34.1796875,-33.69140625,-354.00390625,-67.3828125,0.0
151.71875,-41.015625,-40.0390625,-32.71484375,-348.14453125,-166.015625,0.0
151.72265625,-39.0625,-31.25,-30.76171875,-338.8671875,-108.3984375,0.0
151.7265625,-46.38671875,-31.25,-26.3671875,-330.56640625,-48.33984375,0.0
151.73046875,-45.8984375,-33.69140625,-27.83203125,-320.80078125,0.9765625,0.0
151.734375,-38.0859375,-29.296875,-30.76171875,-309.5703125,44.43359375,0.0
151.73828125,-44.43359375,-31.73828125,-34.1796875,-307.6171875,76.171875,0.0
151.7421875,-42.96875,-37.59765625,-43.45703125,-332.03125,0.9765625,0.0
151.74609375,-35.64453125,-43.9453125,-32.2265625,-339.35546875,-69.3359375,0.0
151.75,-27.34375,-44.43359375,-23.92578125,-323.2421875,-9.765625,0.0
151.75390625,-13.671875,-35.64453125,-31.73828125,-296.875,-49.31640625,0.0
151.7578125,-4.8828125,-28.3203125,-37.59765625,-249.51171875,-90.33203125,0.0
151.76171875,-13.671875,-31.73828125,-36.1328125,-262.6953125,-45.41015625,0.0
151.765625,-23.92578125,-47.8515625,-34.66796875,-296.875,-96.6796875,0.0
151.76953125,-20.5078125,-45.41015625,-44.921875,-288.0859375,-104.00390625,0.0
151.7734375,-8.7890625,-29.296875,-42.96875,-238.28125,-49.8046875,0.0
151.77734375,-19.53125,-33.203125,-17.578125,-242.1875,-94.7265625,0.0
151.78125,-18.06640625,-37.109375,-23.92578125,-219.23828125,-57.12890625,0.0
151.78515625,-6.34765625,-34.66796875,-56.640625,-169.921875,-5.859375,0.0
151.7890625,-23.92578125,-41.9921875,-42.48046875,-193.84765625,-41.9921875,0.0
151.79296875,-19.53125,-42.96875,-30.2734375,-187.01171875,-33.69140625,0.0
151.796875,-18.06640625,-47.8515625,-39.55078125,-174.8046875,-44.921875,0.0
151.80078125,-32.71484375,-56.15234375,-40.0390625,-195.3125,-99.12109375,0.0
151.8046875,-33.69140625,-41.9921875,-42.48046875,-195.3125,-126.46484375,0.0
151.80859375,-31.73828125,-38.0859375,-41.015625,-183.10546875,-184.5703125,0.0
151.8125,-38.0859375,-48.33984375,-39.0625,-160.15625,-229.98046875,0.0
151.81640625,-40.0390625,-49.31640625,-42.48046875,-143.5546875,-66.89453125,0.0
151.8203125,-53.7109375,-57.12890625,-25.390625,-182.12890625,153.80859375,0.0
151.82421875,-58.59375,-53.7109375,-19.53125,-194.3359375,89.35546875,0.0
151.828125,-46.38671875,-49.8046875,-42.96875,-153.3203125,-12.6953125,0.0
151.83203125,-49.8046875,-55.17578125,-31.73828125,-163.0859375,-24.4140625,0.0
151.8359375,-42.48046875,-50.78125,-26.3671875,-151.85546875,-34.66796875,0.0
151.83984375,-51.26953125,-54.19921875,-35.64453125,-161.1328125,10.7421875,0.0
151.84375,-56.15234375,-53.22265625,-31.73828125,-170.41015625,-5.859375,0.0
151.84765625,-51.26953125,-46.38671875,-35.15625,-150.390625,-37.59765625,0.0
151.8515625,-50.29296875,-37.59765625,-44.43359375,-137.6953125,-42.96875,0.0
151.85546875,-47.36328125,-31.25,-39.55078125,-134.765625,-11.23046875,0.0
151.859375,-54.19921875,-37.59765625,-33.203125,-162.109375,6.8359375,0.0
151.86328125,-64.94140625,-44.43359375,-31.73828125,-167.96875,-31.73828125,0.0
151.8671875,-76.66015625,-40.0390625,-33.69140625,-167.48046875,-3.41796875,0.0
151.87109375,-69.82421875,-39.55078125,-33.203125,-158.69140625,5.37109375,0.0
151.875,-42.48046875,-38.0859375,-29.296875,-106.4453125,0.48828125,0.0
151.87890625,-37.109375,-34.66796875,-27.83203125,-105.95703125,11.71875,0.0
151.8828125,-41.015625,-25.390625,-23.4375,-121.09375,-6.8359375,0.0
151.88671875,-40.52734375,-22.94921875,-10.25390625,-119.62890625,-70.3125,0.0
151.890625,-33.203125,-27.34375,-14.6484375,-105.95703125,-69.3359375,0.0
151.89453125,-33.203125,-26.85546875,-18.06640625,-114.74609375,-43.9453125,0.0
151.8984375,-23.4375,-14.6484375,-10.25390625,-101.5625,-36.62109375,0.0
151.90234375,-24.4140625,-20.5078125,-14.6484375,-80.078125,-37.109375,0.0
151.90625,-47.36328125,-40.0390625,-22.94921875,-97.16796875,-39.0625,0.0
151.91015625,-59.5703125,-43.45703125,-2.9296875,-101.5625,-61.5234375,0.0
151.9140625,-54.6875,-36.1328125,1.46484375,-92.28515625,-103.515625,0.0
151.91796875,-45.8984375,-33.69140625,-12.20703125,-80.56640625,-22.4609375,0.0
151.921875,-48.33984375,-36.62109375,-15.13671875,-95.21484375,-4.8828125,0.0
151.92578125,-35.15625,-28.3203125,-28.3203125,-51.26953125,-78.61328125,0.0
151.9296875,-36.1328125,-23.92578125,-20.5078125,-22.4609375,6.8359375,0.0
151.93359375,-50.78125,-25.390625,-31.73828125,-54.6875,50.78125,0.0
151.9375,-55.17578125,-32.2265625,-8.7890625,-56.15234375,-10.25390625,0.0
151.94140625,-53.22265625,-38.0859375,-8.30078125,-54.19921875,-32.2265625,0.0
151.9453125,-45.41015625,-29.296875,-47.36328125,-46.38671875,-105.95703125,0.0
151.94921875,-42.48046875,-29.78515625,-29.296875,-10.25390625,-77.1484375,0.0
151.953125,-45.8984375,-35.15625,-34.1796875,-18.5546875,17.08984375,0.0
151.95703125,-60.05859375,-44.43359375,-32.71484375,-44.43359375,-20.01953125,0.0
151.9609375,-52.24609375,-40.0390625,-12.20703125,-3.41796875,-64.453125,0.0
151.96484375,-38.57421875,-32.71484375,-26.3671875,19.53125,4.39453125,0.0
151.96875,-48.828125,-36.62109375,-36.1328125,-8.7890625,24.90234375,0.0
151.97265625,-46.875,-39.55078125,-25.390625,-6.8359375,41.015625,0.0
151.9765625,-42.96875,-37.59765625,-6.8359375,-1.953125,15.13671875,0.0
151.98046875,-38.0859375,-36.62109375,-11.23046875,-21.97265625,-53.22265625,0.0
151.984375,-27.34375,-32.71484375,-32.2265625,7.8125,-73.2421875,0.0
151.98828125,-36.1328125,-26.85546875,-31.25,18.5546875,-80.078125,0.0
151.9921875,-38.0859375,-22.94921875,-28.3203125,18.06640625,-28.3203125,0.0
151.99609375,-30.2734375,-27.34375,-26.85546875,25.390625,-28.3203125,0.0
152.0,-28.80859375,-26.85546875,-21.484375,32.71484375,-65.4296875,0.0
152.00390625,-35.64453125,-35.15625,-21.484375,26.3671875,3.41796875,0.0
152.0078125,-41.9921875,-36.1328125,-25.87890625,12.6953125,88.8671875,0.0
152.01171875,-43.9453125,-27.34375,-26.3671875,26.85546875,77.63671875,0.0
152.015625,-43.9453125,-31.25,-20.99609375,17.578125,11.71875,0.0
152.01953125,-42.48046875,-32.71484375,-21.97265625,10.25390625,31.73828125,0.0
152.0234375,-41.015625,-34.66796875,-27.34375,25.87890625,19.53125,0.0
152.02734375,-43.45703125,-39.0625,-29.78515625,15.625,-80.078125,0.0
152.03125,-38.57421875,-34.66796875,-28.80859375,18.5546875,-93.75,0.0
152.03515625,-33.203125,-27.34375,-26.3671875,29.296875,-73.2421875,0.0
152.0390625,-39.55078125,-31.25,-22.94921875,15.13671875,-55.6640625,0.0
152.04296875,-40.0390625,-33.203125,-16.11328125,8.7890625,-55.17578125,0.0
152.046875,-35.64453125,-45.8984375,-24.4140625,6.8359375,-52.24609375,0.0
152.05078125,-33.203125,-49.8046875,-25.87890625,12.6953125,-69.3359375,0.0
152.0546875,-29.78515625,-36.1328125,-17.578125,6.34765625,-16.11328125,0.0
152.05859375,-30.76171875,-36.1328125,-23.4375,-16.6015625,40.52734375,0.0
152.0625,-30.76171875,-37.59765625,-28.80859375,-3.90625,-4.39453125,0.0
152.06640625,-36.62109375,-39.55078125,-16.6015625,-13.18359375,8.7890625,0.0
152.0703125,-38.0859375,-34.66796875,-25.390625,-33.203125,38.57421875,0.0
152.07421875,-28.80859375,-28.80859375,-33.69140625,0.48828125,-32.2265625,0.0
152.078125,-17.578125,-30.2734375,-26.85546875,21.484375,-110.83984375,0.0
152.08203125,-16.11328125,-25.390625,-25.87890625,8.30078125,-83.984375,0.0
152.0859375,-28.80859375,-22.94921875,-24.90234375,-13.18359375,-63.96484375,0.0
152.08984375,-27.34375,-22.94921875,-27.34375,-0.9765625,9.27734375,0.0
152.09375,-27.34375,-28.3203125,-31.73828125,-9.27734375,-20.01953125,0.0
152.09765625,-35.64453125,-43.45703125,-31.73828125,-22.4609375,-51.26953125,0.0
152.1015625,-37.109375,-37.109375,-25.87890625,-32.2265625,-43.45703125,0.0
152.10546875,-39.55078125,-32.71484375,-31.73828125,-42.96875,-66.40625,0.0
152.109375,-41.9921875,-34.66796875,-22.94921875,-55.17578125,-36.62109375,0.0
152.11328125,-43.9453125,-40.0390625,-20.99609375,-66.89453125,-48.828125,0.0
152.1171875,-36.62109375,-38.57421875,-38.57421875,-39.55078125,-39.55078125,0.0
152.12109375,-25.390625,-33.69140625,-29.296875,-30.76171875,-50.78125,0.0
152.125,-23.4375,-38.0859375,-25.390625,-33.69140625,-71.77734375,0.0
152.12890625,-27.34375,-32.71484375,-32.2265625,-26.85546875,-24.4140625,0.0
152.1328125,-30.76171875,-20.01953125,-23.92578125,-29.78515625,-14.6484375,0.0
152.13671875,-33.69140625,-22.94921875,-28.3203125,-33.203125,75.1953125,0.0
152.140625,-63.96484375,-29.296875,-21.484375,-56.15234375,38.57421875,0.0
152.14453125,-60.05859375,-48.828125,-16.11328125,-63.96484375,-41.9921875,0.0
152.1484375,-18.5546875,-53.22265625,-26.85546875,-33.203125,37.59765625,0.0
152.15234375,-15.13671875,-37.109375,-21.484375,-27.34375,50.78125,0.0
152.15625,-20.99609375,-29.78515625,-19.53125,-37.109375,-27.83203125,0.0
152.16015625,-22.4609375,-24.4140625,-20.99609375,-41.50390625,-20.01953125,0.0
152.1640625,-30.2734375,-27.34375,-20.99609375,-50.78125,28.80859375,0.0
152.16796875,-35.15625,-24.90234375,-21.484375,-55.17578125,23.92578125,0.0
152.171875,-32.71484375,-31.25,-24.4140625,-50.29296875,-56.640625,0.0
152.17578125,-29.296875,-36.62109375,-24.90234375,-41.9921875,-129.39453125,0.0
152.1796875,-31.73828125,-25.390625,-24.4140625,-34.66796875,68.84765625,0.0
152.18359375,-42.48046875,-31.25,-28.80859375,-31.73828125,121.58203125,0.0
152.1875,-33.69140625,-36.1328125,-35.15625,-20.01953125,12.6953125,0.0
152.19140625,-25.87890625,-35.64453125,-33.203125,-18.06640625,21.97265625,0.0
152.1953125,-28.3203125,-31.25,-33.69140625,-30.2734375,-21.484375,0.0
152.19921875,-27.83203125,-27.34375,-32.2265625,-17.08984375,-13.18359375,0.0
152.203125,-26.3671875,-35.64453125,-30.76171875,-2.9296875,-31.25,0.0
