timestamp,TP9,AF7,AF8,TP10,AUX,Marker,
111.00390625,-18.5546875,-23.92578125,-31.25,-51.26953125,-80.56640625,0.0
111.0078125,-24.90234375,-26.85546875,-32.2265625,-28.80859375,-20.5078125,0.0
111.01171875,-5.37109375,-37.59765625,-27.34375,-13.671875,157.71484375,0.0
111.015625,45.41015625,-39.55078125,-23.4375,-21.97265625,299.31640625,0.0
111.01953125,5.37109375,-38.57421875,-28.80859375,-8.7890625,85.9375,0.0
111.0234375,-39.0625,-41.50390625,-31.73828125,-5.37109375,-131.34765625,0.0
111.02734375,-25.390625,-41.015625,-23.4375,-17.578125,-21.484375,0.0
111.03125,-14.6484375,-24.90234375,-19.53125,-22.94921875,151.85546875,0.0
111.03515625,-15.13671875,-16.6015625,-32.71484375,-39.55078125,199.70703125,0.0
111.0390625,-6.8359375,-20.99609375,-39.0625,-26.3671875,25.87890625,0.0
111.04296875,23.4375,-22.4609375,-26.85546875,-23.92578125,-42.96875,0.0
111.046875,29.78515625,-23.92578125,-16.11328125,-30.76171875,43.9453125,0.0
111.05078125,5.859375,-22.94921875,-18.5546875,-25.390625,83.49609375,0.0
111.0546875,-12.20703125,-27.34375,-29.78515625,-29.78515625,177.734375,0.0
111.05859375,0.9765625,-27.34375,-41.50390625,-24.90234375,-46.38671875,0.0
111.0625,-6.34765625,-34.1796875,-39.0625,-9.27734375,-240.72265625,0.0
111.06640625,-26.85546875,-28.3203125,-28.80859375,3.41796875,-49.31640625,0.0
111.0703125,-21.97265625,-12.6953125,-26.3671875,1.953125,62.5,0.0
111.07421875,-3.41796875,-15.625,-27.83203125,-14.6484375,94.23828125,0.0
111.078125,-13.671875,-30.2734375,-29.296875,-20.01953125,150.87890625,0.0
111.08203125,-8.30078125,-33.203125,-30.76171875,-0.48828125,-3.90625,0.0
111.0859375,8.7890625,-40.0390625,-28.3203125,4.8828125,-104.98046875,0.0
111.08984375,-22.4609375,-28.3203125,-25.390625,-3.41796875,-32.2265625,0.0
111.09375,-36.1328125,-22.94921875,-27.83203125,-16.11328125,47.8515625,0.0
111.09765625,-48.828125,-31.73828125,-27.34375,-24.90234375,-68.84765625,0.0
111.1015625,-59.5703125,-28.3203125,-21.484375,-16.6015625,-251.953125,0.0
111.10546875,-48.828125,-27.83203125,-21.97265625,-8.7890625,-166.9921875,0.0
111.109375,-34.1796875,-36.62109375,-35.15625,-13.18359375,21.484375,0.0
111.11328125,-35.64453125,-41.50390625,-41.015625,-25.87890625,65.91796875,0.0
111.1171875,-58.10546875,-31.73828125,-30.76171875,-43.9453125,-24.90234375,0.0
111.12109375,-62.5,-27.34375,-27.34375,-49.8046875,-96.6796875,0.0
111.125,-49.8046875,-28.80859375,-33.69140625,-37.109375,-65.91796875,0.0
111.12890625,-24.4140625,-22.4609375,-29.78515625,-24.90234375,56.640625,0.0
111.1328125,-20.5078125,-20.01953125,-25.390625,-27.34375,133.7890625,0.0
111.13671875,-61.03515625,-32.2265625,-26.85546875,-23.92578125,26.85546875,0.0
111.140625,-60.546875,-38.57421875,-33.203125,-19.04296875,-138.671875,0.0
111.14453125,-63.4765625,-36.1328125,-31.73828125,-45.8984375,-210.9375,0.0
111.1484375,-72.265625,-32.71484375,-33.69140625,-45.41015625,-134.27734375,0.0
111.15234375,-49.8046875,-40.0390625,-36.62109375,-47.8515625,-15.13671875,0.0
111.15625,-80.56640625,-42.48046875,-38.0859375,-63.4765625,-12.20703125,0.0
111.16015625,-100.5859375,-32.71484375,-45.8984375,-64.94140625,-155.76171875,0.0
111.1640625,-85.9375,-32.71484375,-53.22265625,-59.08203125,-170.8984375,0.0
111.16796875,-116.2109375,-32.2265625,-49.31640625,-57.12890625,-23.4375,0.0
111.171875,-88.8671875,-24.90234375,-39.55078125,-43.9453125,59.5703125,0.0
111.17578125,-86.42578125,-32.71484375,-38.0859375,-22.4609375,24.4140625,0.0
111.1796875,-118.1640625,-33.203125,-31.25,-14.6484375,-64.453125,0.0
111.18359375,-116.2109375,-26.3671875,-20.99609375,-12.20703125,-115.72265625,0.0
111.1875,-115.234375,-25.390625,-27.83203125,-13.671875,-36.62109375,0.0
111.19140625,-117.1875,-17.578125,-27.34375,-17.08984375,107.421875,0.0
111.1953125,-140.13671875,-21.97265625,-24.90234375,-21.484375,94.23828125,0.0
111.19921875,-138.671875,-26.3671875,-26.85546875,-12.6953125,-83.984375,0.0
111.203125,-110.83984375,-24.4140625,-21.484375,-6.34765625,-94.7265625,0.0
111.20703125,-100.09765625,-26.85546875,-18.5546875,-4.39453125,-42.48046875,0.0
111.2109375,-110.83984375,-23.92578125,-15.625,-2.9296875,5.859375,0.0
111.21484375,-142.08984375,-22.94921875,-8.30078125,-20.5078125,26.3671875,0.0
111.21875,-124.0234375,-34.66796875,-13.671875,-29.296875,-90.8203125,0.0
111.22265625,-87.890625,-38.57421875,-26.3671875,-39.0625,-188.96484375,0.0
111.2265625,-98.14453125,-33.69140625,-27.34375,-62.5,-95.21484375,0.0
111.23046875,-103.02734375,-27.83203125,-20.01953125,-59.5703125,6.8359375,0.0
111.234375,-71.2890625,-26.3671875,-22.94921875,-41.015625,65.91796875,0.0
111.23828125,-78.125,-26.3671875,-21.97265625,-44.43359375,26.3671875,0.0
111.2421875,-127.9296875,-34.1796875,-14.16015625,-46.38671875,-56.640625,0.0
111.24609375,-95.703125,-39.55078125,-19.04296875,-38.57421875,-46.38671875,0.0
111.25,-70.3125,-33.203125,-26.3671875,-30.76171875,99.609375,0.0
111.25390625,-86.9140625,-27.83203125,-32.71484375,-31.73828125,184.5703125,0.0
111.2578125,-79.1015625,-18.5546875,-33.69140625,-23.92578125,-27.34375,0.0
111.26171875,-101.07421875,-22.94921875,-26.3671875,-15.13671875,-163.0859375,0.0
111.265625,-122.0703125,-32.2265625,-16.6015625,-26.3671875,-95.703125,0.0
111.26953125,-102.5390625,-32.71484375,-5.37109375,-15.625,62.98828125,0.0
111.2734375,-82.03125,-36.1328125,-8.7890625,-17.08984375,25.87890625,0.0
111.27734375,-75.1953125,-31.73828125,-31.73828125,-31.25,-165.52734375,0.0
111.28125,-79.58984375,-26.3671875,-35.15625,-13.671875,-246.09375,0.0
111.28515625,-62.01171875,-26.3671875,-25.87890625,4.8828125,-146.97265625,0.0
111.2890625,-25.87890625,-24.90234375,-23.92578125,-4.39453125,28.3203125,0.0
111.29296875,16.11328125,-39.55078125,-24.90234375,-26.3671875,54.6875,0.0
111.296875,-42.96875,-44.921875,-34.1796875,-46.875,-34.66796875,0.0
111.30078125,-76.66015625,-41.015625,-33.203125,-47.8515625,-113.28125,0.0
111.3046875,-44.43359375,-37.109375,-31.73828125,-38.57421875,-116.69921875,0.0
111.30859375,-18.5546875,-46.875,-39.0625,-50.29296875,-0.9765625,0.0
111.3125,-62.5,-56.15234375,-40.0390625,-34.66796875,99.12109375,0.0
111.31640625,-71.2890625,-52.24609375,-34.1796875,-24.4140625,57.12890625,0.0
111.3203125,-47.8515625,-44.921875,-34.1796875,-49.31640625,-24.4140625,0.0
111.32421875,-60.546875,-43.45703125,-32.2265625,-50.29296875,-70.3125,0.0
111.328125,-70.3125,-30.76171875,-25.390625,-35.64453125,-55.17578125,0.0
111.33203125,-123.53515625,-32.2265625,-23.92578125,-35.15625,-13.671875,0.0
111.3359375,-155.76171875,-44.43359375,-28.3203125,-26.85546875,-38.0859375,0.0
111.33984375,-189.94140625,-42.48046875,-32.2265625,-21.97265625,-112.79296875,0.0
111.34375,-177.734375,-47.36328125,-27.34375,-10.7421875,-118.65234375,0.0
111.34765625,-179.19921875,-44.43359375,-26.3671875,-20.99609375,27.34375,0.0
111.3515625,-193.84765625,-36.62109375,-23.92578125,-23.4375,144.53125,0.0
111.35546875,-167.96875,-32.2265625,-24.4140625,-8.7890625,125.9765625,0.0
111.359375,-143.06640625,-25.390625,-27.83203125,0.48828125,-43.9453125,0.0
111.36328125,-158.203125,-22.94921875,-19.53125,1.46484375,-167.48046875,0.0
111.3671875,-145.01953125,-36.62109375,-20.01953125,-8.30078125,-38.57421875,0.0
111.37109375,-128.90625,-45.41015625,-23.92578125,-19.04296875,37.109375,0.0
111.375,-178.22265625,-47.36328125,-24.4140625,-20.99609375,94.23828125,0.0
111.37890625,-168.45703125,-48.33984375,-23.4375,-32.2265625,33.203125,0.0
111.3828125,-153.3203125,-37.109375,-21.484375,-30.76171875,-130.37109375,0.0
111.38671875,-159.1796875,-37.59765625,-28.3203125,-25.390625,-53.7109375,0.0
111.390625,-157.71484375,-39.55078125,-29.296875,-24.90234375,102.5390625,0.0
111.39453125,-155.2734375,-31.73828125,-20.01953125,-32.71484375,90.8203125,0.0
111.3984375,-157.2265625,-30.2734375,-23.4375,-48.33984375,-123.046875,0.0
111.40234375,-144.04296875,-42.96875,-18.5546875,-29.78515625,-158.203125,0.0
111.40625,-148.92578125,-50.78125,-7.32421875,-13.671875,-41.015625,0.0
111.41015625,-168.45703125,-46.875,-14.6484375,-20.01953125,77.63671875,0.0
111.4140625,-139.16015625,-47.8515625,-23.4375,-12.20703125,123.53515625,0.0
111.41796875,-132.8125,-47.36328125,-17.578125,-20.99609375,-50.78125,0.0
111.421875,-145.99609375,-36.62109375,-19.04296875,-25.390625,-87.40234375,0.0
111.42578125,-133.7890625,-38.57421875,-20.5078125,-20.5078125,-44.43359375,0.0
111.4296875,-144.53125,-40.0390625,-17.08984375,-28.80859375,-4.39453125,0.0
111.43359375,-128.41796875,-36.62109375,-20.99609375,-20.01953125,70.3125,0.0
111.4375,-90.33203125,-32.71484375,-23.92578125,-19.04296875,-64.94140625,0.0
111.44140625,-131.34765625,-30.76171875,-15.13671875,-16.6015625,-200.68359375,0.0
111.4453125,-144.53125,-32.2265625,-6.34765625,-17.08984375,-133.30078125,0.0
111.44921875,-103.02734375,-36.1328125,-9.765625,-7.8125,-83.984375,0.0
111.453125,-99.609375,-32.2265625,-12.6953125,-5.859375,-29.78515625,0.0
111.45703125,-111.328125,-33.69140625,-12.20703125,-6.34765625,-23.92578125,0.0
111.4609375,-117.67578125,-29.78515625,-13.18359375,-2.44140625,-78.125,0.0
111.46484375,-149.90234375,-22.4609375,-15.625,-2.9296875,-73.73046875,0.0
111.46875,-132.32421875,-23.4375,-21.97265625,8.30078125,74.70703125,0.0
111.47265625,-108.88671875,-28.80859375,-27.34375,24.90234375,174.31640625,0.0
111.4765625,-147.4609375,-37.109375,-19.53125,24.90234375,62.98828125,0.0
111.48046875,-141.6015625,-40.52734375,-17.08984375,5.859375,-161.62109375,0.0
111.484375,-118.65234375,-39.55078125,-30.2734375,9.27734375,-202.63671875,0.0
111.48828125,-133.30078125,-41.015625,-31.25,24.90234375,17.08984375,0.0
111.4921875,-123.046875,-41.50390625,-19.53125,34.66796875,68.359375,0.0
111.49609375,-102.5390625,-41.9921875,-22.94921875,30.76171875,-40.0390625,0.0
111.5,-85.9375,-43.9453125,-34.1796875,2.9296875,-84.47265625,0.0
111.50390625,-86.42578125,-47.8515625,-36.1328125,-6.34765625,-33.203125,0.0
111.5078125,-73.73046875,-48.828125,-31.25,5.859375,30.2734375,0.0
111.51171875,-64.453125,-33.203125,-32.71484375,4.39453125,96.19140625,0.0
111.515625,-59.5703125,-33.203125,-39.0625,-5.859375,159.1796875,0.0
111.51953125,-71.77734375,-39.55078125,-35.64453125,-14.16015625,2.44140625,0.0
111.5234375,-89.84375,-31.25,-26.85546875,-13.671875,-83.49609375,0.0
111.52734375,-75.68359375,-22.94921875,-18.06640625,-30.2734375,-8.7890625,0.0
111.53125,-70.80078125,-20.01953125,-15.625,-41.015625,79.1015625,0.0
111.53515625,-57.12890625,-19.53125,-14.6484375,-7.32421875,45.41015625,0.0
111.5390625,-52.24609375,-22.94921875,-8.7890625,6.34765625,-72.265625,0.0
111.54296875,-46.875,-19.04296875,-11.71875,-20.01953125,-127.9296875,0.0
111.546875,-32.71484375,-17.578125,-24.4140625,-20.5078125,-129.8828125,0.0
111.55078125,-36.62109375,-31.73828125,-18.06640625,-10.25390625,-58.59375,0.0
111.5546875,-60.05859375,-41.50390625,-6.8359375,-9.27734375,-32.71484375,0.0
111.55859375,-43.45703125,-39.55078125,-13.671875,-17.08984375,-155.76171875,0.0
111.5625,-38.0859375,-41.50390625,-17.578125,-22.94921875,-177.24609375,0.0
111.56640625,-72.265625,-43.9453125,-12.6953125,0.48828125,-50.29296875,0.0
111.5703125,-63.4765625,-38.0859375,-9.765625,-3.90625,35.64453125,0.0
111.57421875,-18.06640625,-33.203125,-14.16015625,-27.83203125,116.69921875,0.0
111.578125,-14.6484375,-31.73828125,-15.625,-28.80859375,-30.2734375,0.0
111.58203125,-50.29296875,-29.78515625,-10.25390625,-21.97265625,-226.5625,0.0
111.5859375,-65.4296875,-22.94921875,-11.71875,-19.04296875,-237.3046875,0.0
111.58984375,-61.03515625,-23.92578125,-14.16015625,-14.16015625,-64.453125,0.0
111.59375,-56.15234375,-33.69140625,-19.04296875,-20.5078125,64.94140625,0.0
111.59765625,-71.2890625,-42.48046875,-22.94921875,-30.2734375,-30.76171875,0.0
111.6015625,-86.9140625,-41.50390625,-28.80859375,-38.57421875,-106.4453125,0.0
111.60546875,-66.89453125,-39.55078125,-28.3203125,-41.015625,-53.7109375,0.0
111.609375,-51.7578125,-34.1796875,-25.87890625,-48.33984375,39.55078125,0.0
111.61328125,-76.171875,-33.69140625,-22.4609375,-47.36328125,94.7265625,0.0
111.6171875,-75.68359375,-39.55078125,-20.01953125,-32.71484375,73.73046875,0.0
111.62109375,-83.0078125,-29.296875,-27.34375,-32.2265625,-119.140625,0.0
111.625,-97.16796875,-26.85546875,-33.203125,-42.96875,-233.88671875,0.0
111.62890625,-102.05078125,-29.296875,-34.1796875,-44.921875,-95.703125,0.0
111.6328125,-102.5390625,-28.80859375,-37.109375,-46.875,4.39453125,0.0
111.63671875,-98.6328125,-34.66796875,-33.69140625,-30.76171875,-18.5546875,0.0
111.640625,-97.65625,-34.66796875,-36.62109375,-33.203125,-74.70703125,0.0
111.64453125,-78.61328125,-31.73828125,-40.52734375,-53.7109375,-149.90234375,0.0
111.6484375,-87.40234375,-24.90234375,-36.1328125,-45.41015625,-62.98828125,0.0
111.65234375,-138.18359375,-27.34375,-32.2265625,-48.828125,32.2265625,0.0
111.65625,-185.05859375,-29.296875,-28.80859375,-44.43359375,-22.94921875,0.0
111.66015625,-207.51953125,-30.2734375,-32.2265625,-21.97265625,-51.7578125,0.0
111.6640625,-214.84375,-31.25,-36.62109375,-8.7890625,-59.5703125,0.0
111.66796875,-212.40234375,-29.296875,-38.57421875,-22.4609375,-7.8125,0.0
111.671875,-212.40234375,-39.55078125,-39.55078125,-35.64453125,80.56640625,0.0
111.67578125,-211.42578125,-32.2265625,-39.0625,-26.3671875,44.921875,0.0
111.6796875,-192.87109375,-24.90234375,-47.8515625,-31.73828125,-122.0703125,0.0
111.68359375,-199.70703125,-33.69140625,-44.921875,-24.90234375,-170.8984375,0.0
111.6875,-176.7578125,-35.64453125,-33.69140625,-12.6953125,-115.234375,0.0
111.69140625,-152.34375,-41.015625,-40.52734375,-27.34375,29.78515625,0.0
111.6953125,-158.69140625,-46.875,-42.96875,-31.25,124.0234375,0.0
111.69921875,-146.97265625,-40.52734375,-41.50390625,-31.25,-51.7578125,0.0
111.703125,-168.9453125,-42.48046875,-43.45703125,-32.2265625,-179.19921875,0.0
111.70703125,-175.78125,-56.15234375,-31.25,-31.25,-92.7734375,0.0
111.7109375,-148.92578125,-55.6640625,-29.78515625,-18.5546875,53.22265625,0.0
111.71484375,-147.94921875,-38.0859375,-41.50390625,-30.76171875,99.12109375,0.0
111.71875,-139.6484375,-29.78515625,-41.50390625,-51.7578125,36.1328125,0.0
111.72265625,-138.671875,-32.71484375,-42.48046875,-37.109375,-69.82421875,0.0
111.7265625,-172.8515625,-29.78515625,-42.48046875,-32.2265625,-94.7265625,0.0
111.73046875,-189.453125,-30.2734375,-37.59765625,-29.296875,4.39453125,0.0
111.734375,-166.015625,-25.390625,-33.69140625,-18.06640625,71.2890625,0.0
111.73828125,-152.83203125,-20.99609375,-31.25,-16.6015625,-53.22265625,0.0
111.7421875,-156.73828125,-32.71484375,-35.15625,-20.01953125,-209.47265625,0.0
111.74609375,-117.67578125,-38.0859375,-33.69140625,-16.11328125,-151.3671875,0.0
111.75,-141.11328125,-32.71484375,-28.80859375,-15.13671875,-38.0859375,0.0
111.75390625,-186.03515625,-32.2265625,-31.73828125,-24.90234375,82.03125,0.0
111.7578125,-147.94921875,-48.828125,-34.1796875,-31.73828125,47.36328125,0.0
111.76171875,-144.53125,-46.38671875,-26.85546875,-32.71484375,-109.86328125,0.0
111.765625,-182.6171875,-42.48046875,-18.5546875,-37.59765625,-77.1484375,0.0
111.76953125,-171.875,-43.9453125,-20.01953125,-39.55078125,107.421875,0.0
111.7734375,-167.48046875,-34.66796875,-24.4140625,-35.64453125,113.76953125,0.0
111.77734375,-170.41015625,-45.8984375,-25.390625,-16.6015625,17.08984375,0.0
111.78125,-159.66796875,-52.24609375,-15.13671875,0.0,-51.26953125,0.0
111.78515625,-160.15625,-43.9453125,-14.6484375,1.46484375,-93.26171875,0.0
111.7890625,-151.3671875,-30.76171875,-19.04296875,-4.39453125,-10.7421875,0.0
111.79296875,-154.78515625,-34.66796875,-22.94921875,-8.7890625,26.3671875,0.0
111.796875,-132.32421875,-50.78125,-16.11328125,-18.06640625,48.828125,0.0
111.80078125,-89.35546875,-48.828125,-14.16015625,-25.390625,7.32421875,0.0
111.8046875,-104.98046875,-45.8984375,-20.01953125,-17.578125,-104.98046875,0.0
111.80859375,-79.58984375,-39.55078125,-20.99609375,-19.04296875,-7.32421875,0.0
111.8125,-92.28515625,-42.96875,-25.390625,-33.69140625,115.72265625,0.0
111.81640625,-143.5546875,-52.734375,-22.4609375,-19.53125,43.9453125,0.0
111.8203125,-132.8125,-46.875,-23.4375,-26.85546875,-127.9296875,0.0
111.82421875,-99.609375,-37.59765625,-27.83203125,-38.57421875,-184.5703125,0.0
111.828125,-123.046875,-35.64453125,-35.15625,-30.76171875,-71.2890625,0.0
111.83203125,-108.88671875,-33.69140625,-33.69140625,-26.3671875,72.75390625,0.0
111.8359375,-80.56640625,-33.69140625,-23.4375,-29.78515625,42.96875,0.0
111.83984375,-98.6328125,-46.38671875,-23.4375,-28.80859375,-110.3515625,0.0
111.84375,-110.83984375,-61.03515625,-26.3671875,-8.30078125,-164.55078125,0.0
111.84765625,-119.140625,-50.78125,-27.83203125,-8.7890625,-85.44921875,0.0
111.8515625,-139.16015625,-39.55078125,-30.76171875,-15.13671875,76.171875,0.0
111.85546875,-143.06640625,-44.43359375,-31.73828125,-0.9765625,94.7265625,0.0
111.859375,-114.2578125,-42.96875,-36.1328125,0.48828125,-106.93359375,0.0
111.86328125,-87.890625,-37.109375,-33.69140625,-2.44140625,-176.26953125,0.0
111.8671875,-75.68359375,-36.1328125,-31.73828125,6.8359375,-47.36328125,0.0
111.87109375,-117.67578125,-43.45703125,-32.71484375,-11.71875,60.546875,0.0
111.875,-122.0703125,-49.31640625,-36.62109375,-22.4609375,85.44921875,0.0
111.87890625,-96.6796875,-50.29296875,-40.52734375,-9.765625,-68.84765625,0.0
111.8828125,-114.2578125,-55.17578125,-36.62109375,-15.13671875,-119.140625,0.0
111.88671875,-95.21484375,-56.15234375,-28.80859375,-14.6484375,-39.0625,0.0
111.890625,-73.73046875,-55.6640625,-25.390625,-8.30078125,-76.66015625,0.0
111.89453125,-68.359375,-51.7578125,-28.3203125,-14.6484375,-76.171875,0.0
111.8984375,-55.6640625,-51.26953125,-34.1796875,-23.92578125,-133.30078125,0.0
111.90234375,-15.13671875,-47.36328125,-33.203125,-23.92578125,-262.20703125,0.0
111.90625,-31.25,-44.43359375,-27.83203125,-8.30078125,-159.1796875,0.0
111.91015625,-76.66015625,-36.62109375,-22.94921875,2.44140625,-35.15625,0.0
111.9140625,-65.91796875,-28.3203125,-23.92578125,-3.41796875,-57.6171875,0.0
111.91796875,-46.38671875,-41.50390625,-30.2734375,-11.23046875,-176.7578125,0.0
111.921875,-38.57421875,-43.45703125,-39.55078125,-11.23046875,-280.2734375,0.0
111.92578125,-30.76171875,-37.59765625,-36.1328125,-22.94921875,-258.7890625,0.0
111.9296875,-18.06640625,-41.9921875,-25.390625,-15.13671875,-108.88671875,0.0
111.93359375,-35.15625,-38.57421875,-27.34375,-15.13671875,34.1796875,0.0
111.9375,-29.296875,-42.48046875,-40.0390625,-37.109375,-21.484375,0.0
111.94140625,-48.33984375,-42.48046875,-43.45703125,-33.203125,-181.15234375,0.0
111.9453125,-71.77734375,-39.0625,-38.0859375,-22.94921875,-192.87109375,0.0
111.94921875,-40.0390625,-36.1328125,-35.15625,-21.484375,0.0,0.0
111.953125,-70.3125,-39.55078125,-31.73828125,-10.25390625,94.23828125,0.0
111.95703125,-124.0234375,-45.8984375,-33.69140625,-36.1328125,-40.0390625,0.0
111.9609375,-100.5859375,-39.0625,-36.62109375,-48.828125,-149.90234375,0.0
111.96484375,-75.1953125,-33.69140625,-34.1796875,-34.66796875,-204.1015625,0.0
111.96875,-124.0234375,-41.50390625,-31.73828125,-29.296875,-162.109375,0.0
111.97265625,-111.328125,-48.828125,-33.203125,-31.73828125,-67.87109375,0.0
111.9765625,-80.56640625,-50.29296875,-32.71484375,-26.85546875,-90.8203125,0.0
111.98046875,-83.49609375,-48.33984375,-35.15625,-20.99609375,-149.4140625,0.0
111.984375,-62.5,-43.9453125,-40.0390625,-20.01953125,-202.1484375,0.0
111.98828125,-17.08984375,-37.59765625,-40.52734375,-16.6015625,-75.68359375,0.0
111.9921875,13.671875,-35.15625,-34.66796875,-5.37109375,51.26953125,0.0
111.99609375,13.18359375,-38.57421875,-31.73828125,-6.8359375,45.8984375,0.0
112.0,11.71875,-31.25,-33.203125,-11.23046875,-70.3125,0.0
112.00390625,-16.6015625,-26.85546875,-38.0859375,-21.97265625,-220.21484375,0.0
112.0078125,-3.41796875,-22.4609375,-42.48046875,-28.3203125,-156.25,0.0
112.01171875,35.15625,-14.16015625,-35.15625,-16.11328125,11.23046875,0.0
112.015625,-14.16015625,-20.99609375,-25.87890625,-32.71484375,24.90234375,0.0
112.01953125,-58.10546875,-31.25,-26.3671875,-55.6640625,-86.9140625,0.0
112.0234375,-58.10546875,-29.78515625,-36.1328125,-79.58984375,-60.546875,0.0
112.02734375,-61.03515625,-22.94921875,-37.59765625,-73.73046875,73.73046875,0.0
112.03125,-58.10546875,-27.34375,-31.73828125,-50.29296875,166.9921875,0.0
112.03515625,-57.6171875,-27.83203125,-30.76171875,-54.19921875,178.22265625,0.0
112.0390625,-25.390625,-17.08984375,-34.1796875,-38.0859375,64.94140625,0.0
112.04296875,5.37109375,-22.4609375,-32.71484375,-37.109375,-51.26953125,0.0
112.046875,-18.5546875,-33.203125,-33.69140625,-42.96875,46.38671875,0.0
112.05078125,-3.41796875,-27.34375,-32.2265625,-41.9921875,235.83984375,0.0
112.0546875,-30.2734375,-24.90234375,-31.25,-35.15625,239.2578125,0.0
112.05859375,-41.9921875,-25.87890625,-32.2265625,-20.99609375,48.33984375,0.0
112.0625,-27.83203125,-25.390625,-34.1796875,-39.55078125,-20.99609375,0.0
112.06640625,-63.96484375,-29.296875,-34.66796875,-36.62109375,29.296875,0.0
112.0703125,-81.54296875,-36.1328125,-27.83203125,-7.32421875,58.10546875,0.0
112.07421875,-85.9375,-33.203125,-31.73828125,-15.13671875,159.1796875,0.0
112.078125,-78.61328125,-26.85546875,-40.52734375,-19.53125,102.05078125,0.0
112.08203125,-83.984375,-26.3671875,-43.45703125,-11.23046875,-11.23046875,0.0
112.0859375,-74.70703125,-23.92578125,-49.8046875,-4.8828125,37.59765625,0.0
112.08984375,-14.16015625,-19.53125,-53.7109375,0.48828125,167.48046875,0.0
112.09375,56.640625,-24.4140625,-50.29296875,10.7421875,266.11328125,0.0
112.09765625,84.9609375,-20.01953125,-46.38671875,17.578125,107.421875,0.0
112.1015625,103.515625,-17.08984375,-43.45703125,-6.8359375,-55.6640625,0.0
112.10546875,159.66796875,-22.4609375,-33.69140625,-10.25390625,-47.8515625,0.0
112.109375,150.87890625,-20.5078125,-22.94921875,6.34765625,23.4375,0.0
112.11328125,150.390625,-22.94921875,-24.90234375,6.34765625,43.45703125,0.0
112.1171875,157.2265625,-30.2734375,-32.71484375,0.9765625,-26.3671875,0.0
112.12109375,149.90234375,-23.92578125,-41.50390625,-27.34375,-157.71484375,0.0
112.125,118.65234375,-14.6484375,-53.22265625,-36.62109375,-137.6953125,0.0
112.12890625,114.2578125,-14.6484375,-53.7109375,-19.53125,2.44140625,0.0
112.1328125,142.578125,-13.18359375,-40.52734375,-9.765625,48.33984375,0.0
112.13671875,131.8359375,-19.04296875,-39.0625,-8.7890625,-13.671875,0.0
112.140625,87.890625,-16.11328125,-47.36328125,-24.90234375,-128.41796875,0.0
112.14453125,77.63671875,-26.3671875,-47.36328125,-14.16015625,-107.91015625,0.0
112.1484375,95.21484375,-31.73828125,-34.66796875,2.44140625,45.41015625,0.0
112.15234375,69.82421875,-28.3203125,-30.76171875,10.25390625,146.484375,0.0
112.15625,71.2890625,-30.2734375,-32.71484375,10.7421875,146.97265625,0.0
112.16015625,81.0546875,-27.34375,-35.15625,-1.953125,-59.08203125,0.0
112.1640625,87.40234375,-32.2265625,-35.15625,1.46484375,-96.19140625,0.0
112.16796875,76.171875,-37.59765625,-36.1328125,18.06640625,86.42578125,0.0
112.171875,58.59375,-26.85546875,-41.50390625,22.94921875,105.95703125,0.0
112.17578125,50.29296875,-20.99609375,-41.9921875,-8.7890625,41.015625,0.0
112.1796875,47.8515625,-23.4375,-38.57421875,-22.4609375,-104.98046875,0.0
112.18359375,58.59375,-30.2734375,-36.1328125,-10.25390625,-189.453125,0.0
112.1875,59.08203125,-32.2265625,-35.64453125,-9.765625,-45.8984375,0.0
112.19140625,51.7578125,-24.4140625,-33.69140625,-13.671875,62.01171875,0.0
112.1953125,42.48046875,-25.87890625,-41.50390625,-19.53125,46.38671875,0.0
112.19921875,28.80859375,-41.015625,-44.43359375,-5.859375,-79.58984375,0.0
112.203125,44.43359375,-37.59765625,-41.015625,-0.48828125,-79.58984375,0.0
112.20703125,54.19921875,-30.2734375,-39.55078125,-14.6484375,9.765625,0.0
112.2109375,15.625,-26.85546875,-37.109375,-19.04296875,2.44140625,0.0
112.21484375,15.625,-20.99609375,-38.57421875,-18.06640625,12.6953125,0.0
112.21875,32.71484375,-27.83203125,-49.31640625,-13.18359375,-86.42578125,0.0
112.22265625,50.29296875,-28.3203125,-48.828125,-7.32421875,-189.94140625,0.0
112.2265625,37.109375,-18.5546875,-41.015625,-17.578125,-164.55078125,0.0
112.23046875,-17.08984375,-30.2734375,-37.59765625,-9.27734375,-37.109375,0.0
112.234375,-32.2265625,-49.8046875,-38.57421875,0.48828125,6.8359375,0.0
112.23828125,-40.52734375,-46.38671875,-39.0625,-4.8828125,-157.71484375,0.0
112.2421875,-31.25,-44.43359375,-34.66796875,5.859375,-311.5234375,0.0
112.24609375,-31.73828125,-45.41015625,-34.1796875,10.7421875,-242.1875,0.0
112.25,-31.25,-47.8515625,-38.57421875,-10.25390625,-144.53125,0.0
112.25390625,-24.90234375,-47.8515625,-41.015625,-13.671875,-25.87890625,0.0
112.2578125,-54.6875,-41.015625,-39.0625,-23.92578125,-15.13671875,0.0
112.26171875,-45.8984375,-46.875,-36.62109375,-29.78515625,-137.6953125,0.0
112.265625,-43.45703125,-50.29296875,-33.203125,-15.625,-114.74609375,0.0
112.26953125,-45.8984375,-39.0625,-25.390625,11.23046875,0.48828125,0.0
112.2734375,-21.97265625,-33.203125,-21.97265625,10.25390625,87.40234375,0.0
112.27734375,-5.37109375,-35.64453125,-27.83203125,-13.18359375,65.4296875,0.0
112.28125,2.44140625,-32.71484375,-26.3671875,-18.06640625,-39.55078125,0.0
112.28515625,-0.9765625,-26.3671875,-21.97265625,-15.625,-53.22265625,0.0
112.2890625,-11.23046875,-23.92578125,-28.80859375,13.18359375,17.578125,0.0
112.29296875,-15.13671875,-37.59765625,-29.78515625,2.9296875,15.625,0.0
112.296875,-46.38671875,-47.36328125,-21.97265625,-29.78515625,-20.99609375,0.0
112.30078125,-68.359375,-42.48046875,-26.85546875,-7.8125,-105.46875,0.0
112.3046875,-47.8515625,-40.0390625,-31.25,11.23046875,-116.69921875,0.0
112.30859375,-29.296875,-33.203125,-30.2734375,3.90625,106.4453125,0.0
112.3125,-10.7421875,-26.85546875,-34.66796875,-5.37109375,167.96875,0.0
112.31640625,-21.484375,-25.390625,-35.15625,-4.39453125,-4.8828125,0.0
112.3203125,-19.04296875,-37.109375,-34.66796875,0.9765625,-115.72265625,0.0
112.32421875,-10.25390625,-44.43359375,-31.73828125,-2.9296875,-153.3203125,0.0
112.328125,-24.4140625,-40.52734375,-28.3203125,-8.30078125,-11.23046875,0.0
112.33203125,-41.50390625,-38.0859375,-27.34375,12.20703125,189.453125,0.0
112.3359375,-42.48046875,-40.0390625,-25.87890625,16.11328125,106.4453125,0.0
112.33984375,-41.50390625,-43.9453125,-26.85546875,-17.578125,-93.26171875,0.0
112.34375,-52.734375,-43.9453125,-26.3671875,-29.296875,-96.6796875,0.0
112.34765625,-44.921875,-32.71484375,-20.99609375,-14.16015625,-55.17578125,0.0
112.3515625,-29.78515625,-24.90234375,-18.5546875,-3.41796875,6.34765625,0.0
112.35546875,-42.96875,-33.69140625,-23.4375,-24.90234375,94.7265625,0.0
112.359375,-51.7578125,-34.1796875,-30.76171875,-39.55078125,-84.9609375,0.0
112.36328125,-55.6640625,-24.4140625,-28.80859375,-35.15625,-181.15234375,0.0
112.3671875,-54.6875,-26.3671875,-21.484375,-39.55078125,-150.87890625,0.0
112.37109375,-19.53125,-27.83203125,-27.83203125,-34.1796875,-110.83984375,0.0
112.375,-31.25,-23.4375,-29.296875,-24.90234375,81.0546875,0.0
112.37890625,-60.546875,-34.66796875,-28.3203125,-38.0859375,47.8515625,0.0
112.3828125,-70.80078125,-36.1328125,-30.2734375,-41.50390625,-90.8203125,0.0
112.38671875,-70.80078125,-34.1796875,-23.92578125,-44.43359375,-67.3828125,0.0
112.390625,-37.59765625,-39.0625,-20.5078125,-46.875,75.1953125,0.0
112.39453125,-49.8046875,-35.64453125,-26.85546875,-44.43359375,184.5703125,0.0
112.3984375,-84.9609375,-36.62109375,-32.71484375,-44.921875,-3.41796875,0.0
112.40234375,-82.03125,-45.8984375,-31.73828125,-46.875,-266.11328125,0.0
112.40625,-73.73046875,-46.875,-28.80859375,-42.48046875,-166.9921875,0.0
112.41015625,-97.16796875,-38.0859375,-29.296875,-39.55078125,27.83203125,0.0
112.4140625,-87.890625,-33.203125,-26.85546875,-35.64453125,91.30859375,0.0
112.41796875,-76.66015625,-36.62109375,-27.83203125,-55.17578125,-62.01171875,0.0
112.421875,-127.44140625,-38.57421875,-29.78515625,-66.89453125,-201.66015625,0.0
112.42578125,-140.625,-29.78515625,-30.2734375,-62.5,-152.34375,0.0
112.4296875,-117.1875,-22.94921875,-27.34375,-65.91796875,-55.17578125,0.0
112.43359375,-84.47265625,-30.2734375,-18.06640625,-43.9453125,31.73828125,0.0
112.4375,-17.08984375,-30.2734375,-19.04296875,-37.59765625,-9.765625,0.0
112.44140625,49.8046875,-22.94921875,-27.83203125,-45.41015625,-163.0859375,0.0
112.4453125,80.56640625,-26.3671875,-33.203125,-38.57421875,-264.16015625,0.0
112.44921875,88.37890625,-23.4375,-31.25,-37.109375,-149.4140625,0.0
112.453125,121.09375,-16.11328125,-24.90234375,-39.0625,1.953125,0.0
112.45703125,151.3671875,-19.04296875,-31.25,-28.3203125,-101.07421875,0.0
112.4609375,75.68359375,-19.04296875,-36.1328125,-17.578125,-71.2890625,0.0
112.46484375,52.24609375,-28.80859375,-39.55078125,-28.3203125,-83.49609375,0.0
112.46875,69.3359375,-29.78515625,-46.875,-30.2734375,-91.30859375,0.0
112.47265625,63.96484375,-33.203125,-41.50390625,-15.625,-68.84765625,0.0
112.4765625,73.73046875,-36.62109375,-45.41015625,-19.04296875,-95.703125,0.0
112.48046875,84.9609375,-38.0859375,-47.36328125,-25.87890625,-43.9453125,0.0
112.484375,63.96484375,-30.2734375,-49.31640625,-8.30078125,-0.9765625,0.0
112.48828125,41.50390625,-21.97265625,-55.6640625,-3.90625,-32.71484375,0.0
112.4921875,60.546875,-26.85546875,-47.36328125,-19.04296875,-59.08203125,0.0
112.49609375,41.015625,-31.73828125,-36.1328125,-20.5078125,-132.32421875,0.0
112.5,34.66796875,-35.64453125,-36.62109375,0.9765625,-54.6875,0.0
112.50390625,63.4765625,-28.80859375,-31.25,22.94921875,-146.484375,0.0
112.5078125,74.21875,-28.80859375,-32.71484375,12.20703125,-68.359375,0.0
112.51171875,80.56640625,-35.15625,-30.76171875,15.625,85.44921875,0.0
112.515625,96.6796875,-30.76171875,-32.2265625,16.11328125,157.2265625,0.0
112.51953125,115.72265625,-23.4375,-34.66796875,-7.8125,-54.6875,0.0
112.5234375,88.8671875,-20.01953125,-28.3203125,1.953125,-259.765625,0.0
112.52734375,58.10546875,-28.80859375,-28.3203125,22.94921875,-131.8359375,0.0
112.53125,38.0859375,-37.59765625,-33.69140625,20.99609375,70.80078125,0.0
112.53515625,29.296875,-36.1328125,-33.69140625,22.94921875,147.94921875,0.0
112.5390625,29.296875,-34.66796875,-28.3203125,23.92578125,-63.96484375,0.0
112.54296875,30.76171875,-35.15625,-31.73828125,19.04296875,-209.9609375,0.0
112.546875,49.8046875,-37.109375,-41.9921875,22.94921875,-42.48046875,0.0
112.55078125,87.40234375,-34.66796875,-38.57421875,27.34375,138.18359375,0.0
112.5546875,67.3828125,-34.1796875,-32.71484375,21.484375,200.1953125,0.0
112.55859375,15.625,-30.76171875,-38.0859375,14.16015625,44.43359375,0.0
112.5625,2.44140625,-33.203125,-39.0625,-1.46484375,-194.3359375,0.0
112.56640625,27.34375,-37.109375,-39.55078125,-3.41796875,-229.98046875,0.0
112.5703125,14.16015625,-38.57421875,-39.55078125,-6.34765625,0.48828125,0.0
112.57421875,-7.8125,-38.57421875,-38.0859375,-12.20703125,150.390625,0.0
112.578125,-20.5078125,-40.52734375,-35.15625,-22.4609375,-12.20703125,0.0
112.58203125,-28.3203125,-39.0625,-29.296875,-30.2734375,-148.92578125,0.0
112.5859375,-26.85546875,-38.57421875,-23.4375,-27.34375,-105.46875,0.0
112.58984375,-21.484375,-36.1328125,-25.390625,-24.4140625,18.06640625,0.0
112.59375,-37.59765625,-33.69140625,-21.484375,-16.6015625,127.44140625,0.0
112.59765625,-25.87890625,-38.57421875,-17.08984375,-17.578125,19.04296875,0.0
112.6015625,11.71875,-42.48046875,-20.01953125,-13.18359375,-101.07421875,0.0
112.60546875,-48.828125,-46.38671875,-20.01953125,-12.6953125,-153.80859375,0.0
112.609375,-82.03125,-47.8515625,-20.5078125,-18.06640625,-62.5,0.0
112.61328125,-67.3828125,-36.62109375,-23.92578125,-23.92578125,55.17578125,0.0
112.6171875,-60.546875,-33.203125,-31.73828125,-62.01171875,-15.625,0.0
112.62109375,-67.87109375,-35.64453125,-32.2265625,-50.78125,-160.64453125,0.0
112.625,-68.84765625,-38.57421875,-30.2734375,-24.90234375,-186.03515625,0.0
112.62890625,-45.41015625,-36.1328125,-31.25,-27.83203125,-204.58984375,0.0
112.6328125,-55.6640625,-36.1328125,-32.2265625,-20.5078125,-133.30078125,0.0
112.63671875,-42.48046875,-34.66796875,-25.87890625,-16.11328125,46.875,0.0
112.640625,-65.4296875,-37.59765625,-26.3671875,-32.2265625,-63.4765625,0.0
112.64453125,-108.3984375,-41.9921875,-24.90234375,-33.203125,-190.4296875,0.0
112.6484375,-91.30859375,-39.55078125,-18.5546875,-13.671875,-100.5859375,0.0
112.65234375,-81.0546875,-39.0625,-19.04296875,-22.94921875,65.4296875,0.0
112.65625,-94.23828125,-37.59765625,-28.3203125,-39.55078125,84.9609375,0.0
112.66015625,-83.984375,-38.0859375,-23.92578125,-36.62109375,-90.8203125,0.0
112.6640625,-55.17578125,-37.109375,-17.578125,-25.87890625,-157.71484375,0.0
112.66796875,-65.91796875,-40.52734375,-25.390625,-14.16015625,-69.82421875,0.0
112.671875,-82.51953125,-48.33984375,-32.2265625,-34.66796875,27.83203125,0.0
112.67578125,-77.1484375,-48.828125,-32.71484375,-53.7109375,2.9296875,0.0
112.6796875,-103.515625,-47.36328125,-34.1796875,-54.19921875,-141.6015625,0.0
112.68359375,-109.375,-67.3828125,-33.203125,-36.62109375,-185.05859375,0.0
112.6875,-78.125,-57.6171875,-31.25,-24.4140625,-54.19921875,0.0
112.69140625,-73.73046875,-30.2734375,-27.83203125,-36.62109375,105.46875,0.0
112.6953125,-77.63671875,-37.59765625,-30.2734375,-52.734375,174.31640625,0.0
112.69921875,-84.9609375,-42.48046875,-41.015625,-55.6640625,0.48828125,0.0
112.703125,-94.7265625,-43.9453125,-43.45703125,-38.57421875,-178.22265625,0.0
112.70703125,-93.26171875,-44.921875,-40.0390625,-40.0390625,-179.6875,0.0
112.7109375,-80.078125,-43.9453125,-37.59765625,-59.5703125,-74.70703125,0.0
112.71484375,-55.17578125,-31.73828125,-35.15625,-60.546875,75.1953125,0.0
112.71875,-62.5,-31.25,-32.71484375,-47.8515625,20.5078125,0.0
112.72265625,-94.7265625,-36.62109375,-28.80859375,-43.9453125,-106.4453125,0.0
112.7265625,-83.0078125,-31.73828125,-28.80859375,-32.71484375,-74.70703125,0.0
112.73046875,-47.8515625,-38.57421875,-28.3203125,-26.3671875,32.71484375,0.0
112.734375,-37.109375,-40.52734375,-24.90234375,-35.15625,127.44140625,0.0
112.73828125,-62.98828125,-35.64453125,-23.92578125,-28.3203125,20.01953125,0.0
112.7421875,-74.70703125,-36.1328125,-31.73828125,-16.6015625,-200.68359375,0.0
112.74609375,-68.84765625,-37.59765625,-39.55078125,-18.06640625,-168.45703125,0.0
112.75,-59.08203125,-29.78515625,-37.59765625,-30.76171875,7.8125,0.0
112.75390625,-45.8984375,-20.01953125,-32.2265625,-44.43359375,138.671875,0.0
112.7578125,-66.89453125,-23.4375,-37.59765625,-33.203125,44.921875,0.0
112.76171875,-63.4765625,-28.80859375,-39.0625,-24.4140625,-172.36328125,0.0
112.765625,-67.87109375,-35.15625,-33.69140625,-20.5078125,-189.453125,0.0
112.76953125,-73.2421875,-31.73828125,-31.25,-14.16015625,-60.546875,0.0
112.7734375,-67.3828125,-19.53125,-29.78515625,-21.484375,24.90234375,0.0
112.77734375,-66.89453125,-16.11328125,-33.69140625,-12.6953125,-54.6875,0.0
112.78125,-46.38671875,-20.01953125,-37.59765625,-14.6484375,-187.5,0.0
112.78515625,-77.63671875,-17.08984375,-35.64453125,-31.73828125,-251.953125,0.0
112.7890625,-114.74609375,-11.23046875,-38.57421875,-29.78515625,-119.62890625,0.0
112.79296875,-118.1640625,-10.7421875,-44.43359375,-15.625,56.640625,0.0
112.796875,-106.93359375,-21.97265625,-41.015625,-23.92578125,28.80859375,0.0
112.80078125,-106.93359375,-32.2265625,-42.48046875,-36.1328125,-88.37890625,0.0
112.8046875,-109.375,-19.53125,-44.43359375,-13.671875,-208.49609375,0.0
112.80859375,-86.9140625,-15.625,-32.2265625,-24.90234375,-98.6328125,0.0
112.8125,-67.3828125,-30.76171875,-35.64453125,-35.15625,107.91015625,0.0
112.81640625,-65.4296875,-35.64453125,-46.875,-43.45703125,118.1640625,0.0
112.8203125,-80.56640625,-26.3671875,-45.41015625,-50.78125,44.43359375,0.0
112.82421875,-95.21484375,-29.78515625,-46.875,-45.41015625,-112.79296875,0.0
112.828125,-77.63671875,-25.390625,-43.45703125,-50.78125,-133.30078125,0.0
112.83203125,-48.33984375,-18.06640625,-37.109375,-48.33984375,15.625,0.0
112.8359375,-45.41015625,-20.99609375,-37.109375,-37.109375,115.234375,0.0
112.83984375,-70.80078125,-26.3671875,-39.0625,-38.0859375,-53.22265625,0.0
112.84375,-70.3125,-33.203125,-43.45703125,-42.48046875,-187.98828125,0.0
112.84765625,-55.6640625,-31.73828125,-45.8984375,-54.19921875,-75.68359375,0.0
112.8515625,-53.7109375,-26.3671875,-46.38671875,-60.05859375,94.23828125,0.0
112.85546875,-41.9921875,-24.90234375,-46.38671875,-49.8046875,114.2578125,0.0
112.859375,-46.875,-31.73828125,-41.50390625,-50.78125,-46.875,0.0
112.86328125,-37.109375,-36.62109375,-34.66796875,-32.2265625,-182.6171875,0.0
112.8671875,-28.80859375,-31.25,-29.78515625,-28.3203125,-181.640625,0.0
112.87109375,-40.0390625,-28.3203125,-32.71484375,-51.7578125,6.34765625,0.0
112.875,-52.24609375,-33.69140625,-41.015625,-49.31640625,118.1640625,0.0
112.87890625,-54.6875,-30.76171875,-43.45703125,-42.48046875,-36.62109375,0.0
112.8828125,-54.19921875,-25.87890625,-46.38671875,-34.66796875,-125.0,0.0
112.88671875,-66.40625,-20.5078125,-48.828125,-41.9921875,-3.41796875,0.0
112.890625,-64.453125,-26.85546875,-47.8515625,-53.7109375,71.77734375,0.0
112.89453125,-51.7578125,-30.2734375,-39.55078125,-44.921875,66.89453125,0.0
112.8984375,-51.7578125,-30.2734375,-42.48046875,-35.15625,-36.62109375,0.0
112.90234375,-48.828125,-31.73828125,-54.19921875,-33.203125,-155.2734375,0.0
112.90625,-32.71484375,-32.2265625,-52.734375,-27.34375,-125.0,0.0
112.91015625,-38.0859375,-29.296875,-45.8984375,-12.6953125,-18.5546875,0.0
112.9140625,-58.59375,-29.296875,-49.31640625,-11.23046875,102.5390625,0.0
112.91796875,-69.3359375,-39.55078125,-49.8046875,-19.53125,43.9453125,0.0
112.921875,-57.6171875,-35.64453125,-40.52734375,-25.87890625,-105.95703125,0.0
112.92578125,-52.734375,-27.34375,-39.0625,-24.90234375,-145.01953125,0.0
112.9296875,-55.17578125,-32.2265625,-41.50390625,-22.94921875,-23.92578125,0.0
112.93359375,-53.7109375,-36.62109375,-50.78125,-20.5078125,130.859375,0.0
112.9375,-42.96875,-33.203125,-50.78125,-15.13671875,70.3125,0.0
112.94140625,-40.52734375,-28.80859375,-42.48046875,-4.39453125,-81.0546875,0.0
112.9453125,-33.203125,-35.15625,-44.921875,-21.484375,-204.58984375,0.0
112.94921875,-63.96484375,-49.31640625,-45.8984375,-39.55078125,-72.265625,0.0
112.953125,-66.40625,-50.29296875,-45.41015625,-19.53125,132.32421875,0.0
112.95703125,-53.7109375,-41.015625,-52.734375,-17.578125,29.78515625,0.0
112.9609375,-52.24609375,-41.9921875,-46.875,-38.57421875,-200.1953125,0.0
112.96484375,-21.97265625,-43.9453125,-36.62109375,-20.5078125,-229.00390625,0.0
112.96875,-48.33984375,-37.109375,-41.015625,-8.30078125,-35.15625,0.0
112.97265625,-53.7109375,-29.296875,-43.9453125,-24.4140625,51.7578125,0.0
112.9765625,16.11328125,-46.38671875,-44.43359375,-18.06640625,-9.765625,0.0
112.98046875,37.59765625,-55.17578125,-41.015625,-21.484375,-117.67578125,0.0
112.984375,17.08984375,-46.875,-37.59765625,-16.11328125,-202.1484375,0.0
112.98828125,59.5703125,-39.0625,-40.0390625,0.9765625,-132.32421875,0.0
112.9921875,107.91015625,-40.52734375,-34.1796875,2.44140625,65.4296875,0.0
112.99609375,136.23046875,-44.921875,-26.85546875,-22.4609375,113.28125,0.0
113.0,160.15625,-41.015625,-28.3203125,-38.57421875,-26.3671875,0.0
113.00390625,113.28125,-31.25,-28.3203125,-12.6953125,-120.1171875,0.0
113.0078125,91.796875,-29.78515625,-31.73828125,-14.6484375,-45.8984375,0.0
113.01171875,87.890625,-40.0390625,-38.0859375,-10.25390625,145.99609375,0.0
113.015625,83.0078125,-41.50390625,-34.66796875,11.71875,180.17578125,0.0
113.01953125,87.40234375,-37.109375,-43.45703125,-8.30078125,-42.96875,0.0
113.0234375,91.30859375,-40.52734375,-58.10546875,-3.41796875,-227.05078125,0.0
113.02734375,117.67578125,-32.2265625,-60.546875,13.18359375,-141.6015625,0.0
113.03125,123.046875,-31.25,-65.4296875,23.92578125,8.30078125,0.0
113.03515625,84.9609375,-27.34375,-82.03125,20.01953125,93.26171875,0.0
113.0390625,75.68359375,-27.83203125,-101.5625,2.9296875,18.06640625,0.0
113.04296875,86.42578125,-30.2734375,-118.1640625,-9.765625,-98.6328125,0.0
113.046875,103.02734375,-32.2265625,-129.39453125,-5.859375,-20.01953125,0.0
113.05078125,80.56640625,-30.2734375,-131.34765625,-2.9296875,86.42578125,0.0
113.0546875,87.40234375,-27.34375,-123.046875,7.32421875,163.0859375,0.0
113.05859375,113.76953125,-29.296875,-121.58203125,23.4375,3.41796875,0.0
113.0625,85.44921875,-35.15625,-123.046875,32.71484375,-166.9921875,0.0
113.06640625,53.22265625,-41.015625,-116.2109375,36.62109375,-93.26171875,0.0
113.0703125,59.5703125,-36.1328125,-116.2109375,50.78125,51.26953125,0.0
113.07421875,69.82421875,-31.25,-117.67578125,37.109375,197.265625,0.0
113.078125,85.44921875,-30.76171875,-111.328125,14.6484375,118.65234375,0.0
113.08203125,87.40234375,-29.78515625,-100.5859375,34.1796875,-87.40234375,0.0
113.0859375,36.62109375,-35.64453125,-97.65625,41.015625,-110.83984375,0.0
113.08984375,17.578125,-48.828125,-98.6328125,43.9453125,44.43359375,0.0
113.09375,25.390625,-44.43359375,-95.703125,55.17578125,147.4609375,0.0
113.09765625,62.5,-43.9453125,-92.28515625,39.0625,-8.7890625,0.0
113.1015625,37.59765625,-49.8046875,-91.30859375,31.73828125,-255.859375,0.0
113.10546875,18.5546875,-54.6875,-83.0078125,44.921875,-259.765625,0.0
113.109375,35.15625,-55.17578125,-69.3359375,56.15234375,-73.73046875,0.0
113.11328125,27.83203125,-41.015625,-63.96484375,61.03515625,18.5546875,0.0
113.1171875,43.9453125,-33.203125,-59.5703125,63.4765625,-87.40234375,0.0
113.12109375,11.23046875,-38.0859375,-59.5703125,66.89453125,-282.71484375,0.0
113.125,-17.08984375,-39.55078125,-70.3125,59.5703125,-367.67578125,0.0
113.12890625,24.4140625,-28.80859375,-72.265625,52.734375,-164.55078125,0.0
113.1328125,-7.8125,-29.78515625,-64.94140625,51.7578125,147.94921875,0.0
113.13671875,-26.85546875,-32.71484375,-58.59375,61.5234375,98.14453125,0.0
113.140625,-4.8828125,-26.85546875,-56.15234375,74.21875,-126.46484375,0.0
113.14453125,26.3671875,-27.83203125,-55.6640625,76.171875,-145.01953125,0.0
113.1484375,1.953125,-29.78515625,-52.24609375,80.56640625,-56.15234375,0.0
113.15234375,-17.578125,-33.203125,-43.9453125,54.19921875,78.61328125,0.0
113.15625,13.18359375,-34.66796875,-40.0390625,36.1328125,82.03125,0.0
113.16015625,12.20703125,-27.83203125,-41.50390625,35.15625,-91.30859375,0.0
113.1640625,3.41796875,-23.92578125,-44.43359375,26.3671875,-164.0625,0.0
113.16796875,28.80859375,-24.90234375,-43.45703125,30.2734375,-36.62109375,0.0
113.171875,40.52734375,-19.53125,-45.41015625,30.2734375,113.76953125,0.0
113.17578125,0.48828125,-22.94921875,-55.17578125,16.6015625,153.80859375,0.0
113.1796875,12.20703125,-31.25,-53.7109375,14.6484375,-53.7109375,0.0
113.18359375,47.8515625,-36.62109375,-44.921875,5.859375,-187.5,0.0
113.1875,28.3203125,-33.69140625,-45.41015625,0.9765625,-82.03125,0.0
113.19140625,20.5078125,-24.90234375,-39.55078125,-5.37109375,104.98046875,0.0
113.1953125,30.76171875,-25.87890625,-35.15625,-7.8125,90.8203125,0.0
113.19921875,15.13671875,-28.80859375,-42.96875,0.48828125,-104.98046875,0.0
113.203125,-11.71875,-30.76171875,-40.52734375,-9.765625,-216.796875,0.0
113.20703125,6.34765625,-36.62109375,-33.69140625,-15.13671875,-153.3203125,0.0
113.2109375,14.16015625,-36.62109375,-36.1328125,-17.578125,75.68359375,0.0
113.21484375,-25.390625,-40.52734375,-35.15625,1.46484375,217.7734375,0.0
113.21875,-6.34765625,-41.015625,-27.83203125,0.9765625,-37.59765625,0.0
113.22265625,5.37109375,-26.85546875,-29.296875,-9.765625,-273.4375,0.0
113.2265625,-27.83203125,-19.53125,-37.109375,-10.7421875,-258.30078125,0.0
113.23046875,-19.04296875,-28.3203125,-42.48046875,-24.90234375,-167.96875,0.0
113.234375,-5.859375,-34.66796875,-44.921875,-24.90234375,-9.765625,0.0
113.23828125,-9.765625,-35.64453125,-41.50390625,-15.625,-126.953125,0.0
113.2421875,12.20703125,-40.52734375,-39.0625,-10.7421875,-292.96875,0.0
113.24609375,-9.765625,-41.50390625,-42.96875,-2.44140625,-176.26953125,0.0
113.25,-27.34375,-36.62109375,-40.52734375,18.06640625,-32.2265625,0.0
113.25390625,-13.671875,-34.1796875,-32.71484375,14.16015625,50.29296875,0.0
113.2578125,0.9765625,-30.76171875,-35.64453125,-6.34765625,-26.3671875,0.0
113.26171875,5.859375,-30.2734375,-41.50390625,-9.27734375,-93.26171875,0.0
113.265625,-10.25390625,-36.62109375,-39.0625,2.9296875,-132.8125,0.0
113.26953125,-1.953125,-37.109375,-33.203125,0.0,-56.15234375,0.0
113.2734375,2.9296875,-20.99609375,-30.2734375,-1.953125,57.6171875,0.0
113.27734375,4.8828125,-14.6484375,-29.78515625,8.30078125,37.59765625,0.0
113.28125,10.7421875,-23.4375,-33.203125,4.8828125,-90.33203125,0.0
113.28515625,-0.9765625,-33.69140625,-35.15625,16.6015625,-152.83203125,0.0
113.2890625,7.8125,-34.66796875,-33.203125,7.8125,-8.30078125,0.0
113.29296875,-5.37109375,-27.83203125,-36.62109375,-9.27734375,106.93359375,0.0
113.296875,-21.484375,-32.2265625,-40.0390625,3.41796875,76.66015625,0.0
113.30078125,-25.87890625,-35.15625,-39.55078125,0.9765625,-60.546875,0.0
113.3046875,-38.0859375,-24.90234375,-44.921875,-9.765625,-204.1015625,0.0
113.30859375,-59.5703125,-23.4375,-41.015625,-0.48828125,-94.23828125,0.0
113.3125,-20.01953125,-21.484375,-41.015625,5.859375,105.95703125,0.0
113.31640625,2.44140625,-16.11328125,-38.57421875,6.34765625,45.41015625,0.0
113.3203125,-65.4296875,-25.390625,-35.15625,4.8828125,-78.61328125,0.0
113.32421875,-44.43359375,-40.52734375,-30.76171875,1.46484375,-109.86328125,0.0
113.328125,-17.08984375,-43.45703125,-28.3203125,-17.08984375,-38.0859375,0.0
113.33203125,-33.203125,-38.0859375,-34.1796875,-37.59765625,87.40234375,0.0
113.3359375,-26.3671875,-22.94921875,-35.15625,-35.64453125,74.70703125,0.0
113.33984375,-37.109375,-23.92578125,-35.15625,-38.0859375,-64.94140625,0.0
113.34375,-15.13671875,-33.69140625,-35.15625,-48.33984375,-152.34375,0.0
113.34765625,-18.5546875,-26.3671875,-38.0859375,-66.40625,-59.5703125,0.0
113.3515625,9.27734375,-36.1328125,-34.1796875,-68.359375,56.15234375,0.0
113.35546875,10.7421875,-37.109375,-28.80859375,-55.6640625,138.18359375,0.0
113.359375,-31.25,-35.64453125,-36.62109375,-58.10546875,9.27734375,0.0
113.36328125,-51.7578125,-40.0390625,-39.55078125,-68.359375,-149.4140625,0.0
113.3671875,-51.7578125,-24.4140625,-31.73828125,-62.98828125,-73.73046875,0.0
113.37109375,-42.48046875,-22.4609375,-28.3203125,-60.546875,90.8203125,0.0
113.375,-29.78515625,-33.69140625,-27.83203125,-69.82421875,115.72265625,0.0
113.37890625,-34.66796875,-30.76171875,-28.80859375,-70.80078125,-102.5390625,0.0
113.3828125,-52.734375,-28.80859375,-38.57421875,-73.73046875,-251.953125,0.0
113.38671875,-35.64453125,-34.66796875,-40.0390625,-70.3125,-223.14453125,0.0
113.390625,-50.78125,-42.96875,-38.57421875,-82.03125,-71.77734375,0.0
113.39453125,-30.2734375,-38.0859375,-45.8984375,-83.0078125,20.99609375,0.0
113.3984375,-10.7421875,-28.3203125,-51.7578125,-61.5234375,-41.015625,0.0
113.40234375,-75.68359375,-34.66796875,-43.9453125,-62.98828125,-144.04296875,0.0
113.40625,-70.3125,-41.015625,-34.1796875,-60.05859375,-119.140625,0.0
113.41015625,-32.2265625,-33.69140625,-33.203125,-56.640625,86.42578125,0.0
113.4140625,-36.62109375,-36.62109375,-31.25,-74.70703125,199.21875,0.0
113.41796875,-6.8359375,-41.50390625,-33.69140625,-72.265625,62.98828125,0.0
113.421875,-7.32421875,-47.36328125,-40.0390625,-76.66015625,-89.35546875,0.0
113.42578125,-41.50390625,-44.43359375,-45.8984375,-94.23828125,-121.58203125,0.0
113.4296875,-45.8984375,-43.9453125,-47.36328125,-76.66015625,-3.90625,0.0
113.43359375,-63.96484375,-46.38671875,-45.8984375,-51.7578125,103.02734375,0.0
113.4375,-40.52734375,-41.9921875,-50.78125,-55.6640625,42.96875,0.0
113.44140625,20.01953125,-32.2265625,-53.7109375,-59.08203125,-79.1015625,0.0
113.4453125,-49.8046875,-25.390625,-49.31640625,-54.19921875,-85.44921875,0.0
113.44921875,-71.2890625,-28.3203125,-43.45703125,-62.01171875,-24.4140625,0.0
113.453125,-32.71484375,-39.55078125,-45.41015625,-57.12890625,20.5078125,0.0
113.45703125,-32.71484375,-55.6640625,-50.78125,-61.03515625,12.6953125,0.0
113.4609375,-16.6015625,-46.38671875,-51.26953125,-70.80078125,-94.23828125,0.0
113.46484375,-42.48046875,-37.109375,-46.875,-64.94140625,-120.1171875,0.0
113.46875,-68.84765625,-37.109375,-47.8515625,-60.546875,-8.7890625,0.0
113.47265625,-46.38671875,-32.2265625,-49.31640625,-82.03125,99.609375,0.0
113.4765625,-20.01953125,-37.109375,-52.24609375,-94.23828125,89.35546875,0.0
113.48046875,-12.20703125,-44.921875,-52.734375,-67.3828125,-91.30859375,0.0
113.484375,-11.71875,-32.71484375,-53.7109375,-56.640625,-204.1015625,0.0
113.48828125,-9.765625,-29.296875,-54.6875,-79.58984375,-44.43359375,0.0
113.4921875,-8.7890625,-34.66796875,-44.921875,-73.2421875,87.890625,0.0
113.49609375,-8.30078125,-32.71484375,-44.43359375,-51.26953125,36.1328125,0.0
113.5,-28.3203125,-33.69140625,-54.19921875,-66.89453125,-66.89453125,0.0
113.50390625,-50.29296875,-31.73828125,-55.17578125,-69.82421875,-107.91015625,0.0
113.5078125,-22.94921875,-32.2265625,-50.78125,-48.828125,47.8515625,0.0
113.51171875,-15.13671875,-40.52734375,-51.7578125,-45.41015625,167.48046875,0.0
113.515625,-29.78515625,-49.31640625,-52.734375,-63.96484375,141.11328125,0.0
113.51953125,-3.90625,-34.1796875,-52.734375,-68.359375,-46.875,0.0
113.5234375,-1.953125,-28.80859375,-50.29296875,-60.546875,-222.16796875,0.0
113.52734375,-29.296875,-36.1328125,-45.41015625,-53.22265625,-210.44921875,0.0
113.53125,-26.85546875,-44.921875,-41.015625,-41.9921875,-17.578125,0.0
113.53515625,3.41796875,-39.55078125,-38.57421875,-39.55078125,132.32421875,0.0
113.5390625,-29.296875,-35.15625,-41.9921875,-54.19921875,-1.953125,0.0
113.54296875,-45.8984375,-36.1328125,-45.41015625,-61.5234375,-142.08984375,0.0
113.546875,0.48828125,-27.83203125,-49.31640625,-59.08203125,-45.41015625,0.0
113.55078125,0.48828125,-17.578125,-46.38671875,-62.98828125,92.7734375,0.0
113.5546875,20.5078125,-25.390625,-38.57421875,-61.5234375,138.671875,0.0
113.55859375,37.59765625,-34.66796875,-42.48046875,-49.31640625,52.734375,0.0
113.5625,-31.73828125,-33.69140625,-47.8515625,-65.91796875,-121.58203125,0.0
113.56640625,-59.08203125,-38.0859375,-45.8984375,-81.0546875,-120.1171875,0.0
113.5703125,-35.64453125,-38.57421875,-41.9921875,-77.1484375,59.5703125,0.0
113.57421875,-26.85546875,-25.87890625,-46.38671875,-81.0546875,98.6328125,0.0
113.578125,-18.5546875,-34.66796875,-45.8984375,-66.40625,-53.7109375,0.0
113.58203125,0.48828125,-38.0859375,-45.41015625,-60.546875,-150.87890625,0.0
113.5859375,-24.90234375,-37.109375,-49.8046875,-70.3125,-158.203125,0.0
113.58984375,-17.578125,-41.9921875,-46.875,-61.03515625,-57.6171875,0.0
113.59375,11.23046875,-38.57421875,-46.875,-48.33984375,128.90625,0.0
113.59765625,-8.30078125,-36.1328125,-45.41015625,-56.640625,76.66015625,0.0
113.6015625,-28.3203125,-43.9453125,-43.45703125,-83.0078125,-141.6015625,0.0
113.60546875,20.5078125,-42.96875,-39.0625,-86.42578125,-174.31640625,0.0
113.609375,-26.3671875,-38.57421875,-39.55078125,-85.9375,36.1328125,0.0
113.61328125,-69.3359375,-27.83203125,-43.9453125,-96.6796875,158.69140625,0.0
113.6171875,-25.390625,-16.11328125,-45.41015625,-104.98046875,51.7578125,0.0
113.62109375,-15.625,-24.4140625,-47.8515625,-104.4921875,-60.546875,0.0
113.625,-26.3671875,-34.1796875,-45.8984375,-110.3515625,-81.54296875,0.0
113.62890625,-52.734375,-30.2734375,-45.41015625,-112.79296875,29.296875,0.0
113.6328125,-42.96875,-30.2734375,-45.8984375,-98.6328125,117.1875,0.0
113.63671875,-29.296875,-32.2265625,-42.96875,-98.14453125,93.26171875,0.0
113.640625,-31.25,-33.203125,-42.48046875,-101.5625,-44.921875,0.0
113.64453125,-11.71875,-33.203125,-42.96875,-79.1015625,-143.06640625,0.0
113.6484375,-28.3203125,-29.296875,-39.55078125,-76.66015625,-29.296875,0.0
113.65234375,-37.59765625,-33.69140625,-36.1328125,-79.1015625,102.5390625,0.0
113.65625,-28.80859375,-41.50390625,-31.25,-62.5,141.11328125,0.0
113.66015625,8.30078125,-36.62109375,-25.390625,-57.6171875,-15.13671875,0.0
113.6640625,21.97265625,-26.85546875,-30.2734375,-64.94140625,-184.5703125,0.0
113.66796875,-30.2734375,-25.390625,-32.71484375,-54.6875,-57.6171875,0.0
113.671875,-40.52734375,-35.15625,-26.3671875,-57.6171875,164.0625,0.0
113.67578125,-27.83203125,-35.64453125,-24.90234375,-69.82421875,158.203125,0.0
113.6796875,-24.90234375,-27.83203125,-27.34375,-77.63671875,-70.80078125,0.0
113.68359375,-12.6953125,-22.4609375,-26.85546875,-71.77734375,-213.37890625,0.0
113.6875,-4.8828125,-18.06640625,-32.71484375,-57.6171875,-198.2421875,0.0
113.69140625,-21.484375,-19.04296875,-31.25,-67.87109375,-152.34375,0.0
113.6953125,-33.203125,-26.85546875,-21.97265625,-64.453125,-89.84375,0.0
113.69921875,-10.25390625,-33.69140625,-19.04296875,-62.5,-168.9453125,0.0
113.703125,-17.578125,-33.69140625,-25.87890625,-72.75390625,-218.75,0.0
113.70703125,-70.80078125,-30.2734375,-24.4140625,-63.4765625,-169.921875,0.0
113.7109375,-68.84765625,-32.2265625,-16.6015625,-51.7578125,-13.18359375,0.0
113.71484375,-34.66796875,-31.73828125,-22.4609375,-76.171875,141.11328125,0.0
113.71875,-25.87890625,-22.94921875,-25.87890625,-85.9375,0.9765625,0.0
113.72265625,-40.0390625,-27.34375,-20.01953125,-72.265625,-164.55078125,0.0
113.7265625,-51.7578125,-30.76171875,-16.6015625,-82.03125,-133.7890625,0.0
113.73046875,-31.73828125,-28.3203125,-16.6015625,-71.77734375,93.75,0.0
113.734375,-24.4140625,-26.85546875,-10.7421875,-51.26953125,198.73046875,0.0
113.73828125,-35.15625,-24.4140625,-4.39453125,-62.01171875,0.0,0.0
113.7421875,-27.34375,-24.90234375,-11.71875,-72.75390625,-246.58203125,0.0
113.74609375,-41.015625,-33.203125,-20.5078125,-63.96484375,-151.3671875,0.0
113.75,-55.6640625,-35.15625,-23.4375,-53.22265625,110.3515625,0.0
113.75390625,-63.4765625,-30.76171875,-24.4140625,-39.0625,126.953125,0.0
113.7578125,-46.875,-18.5546875,-20.5078125,-30.2734375,-38.0859375,0.0
113.76171875,-35.15625,-19.04296875,-17.578125,-33.203125,-138.18359375,0.0
113.765625,-34.1796875,-25.87890625,-12.6953125,-20.99609375,-91.30859375,0.0
113.76953125,-30.76171875,-28.3203125,-11.23046875,-29.296875,-64.453125,0.0
113.7734375,-14.6484375,-32.71484375,-8.30078125,-33.203125,73.73046875,0.0
113.77734375,-20.01953125,-35.64453125,-9.765625,-36.62109375,12.6953125,0.0
113.78125,-74.70703125,-33.69140625,-19.53125,-50.29296875,-150.390625,0.0
113.78515625,-28.3203125,-19.53125,-22.4609375,-41.9921875,-166.9921875,0.0
113.7890625,0.9765625,-11.23046875,-17.578125,-43.45703125,12.20703125,0.0
113.79296875,-59.08203125,-20.01953125,-17.08984375,-48.828125,169.43359375,0.0
113.796875,-63.96484375,-32.2265625,-20.01953125,-41.015625,73.73046875,0.0
113.80078125,-62.5,-40.0390625,-20.5078125,-31.73828125,-117.1875,0.0
113.8046875,-38.0859375,-40.52734375,-24.90234375,-31.25,-196.77734375,0.0
113.80859375,-30.76171875,-36.62109375,-26.85546875,-34.66796875,-40.52734375,0.0
113.8125,-38.0859375,-34.1796875,-24.4140625,-38.0859375,138.671875,0.0
113.81640625,-28.80859375,-35.15625,-25.390625,-41.015625,115.72265625,0.0
113.8203125,-3.90625,-23.92578125,-27.83203125,-28.80859375,-77.1484375,0.0
113.82421875,0.48828125,-17.08984375,-31.73828125,-32.71484375,-176.26953125,0.0
113.828125,-38.0859375,-20.99609375,-35.64453125,-52.24609375,-60.05859375,0.0
113.83203125,-19.53125,-25.390625,-35.64453125,-47.8515625,72.75390625,0.0
113.8359375,18.06640625,-28.80859375,-30.2734375,-37.109375,74.21875,0.0
113.83984375,-11.23046875,-23.92578125,-30.76171875,-36.62109375,-155.76171875,0.0
113.84375,-33.203125,-19.04296875,-37.109375,-48.33984375,-287.109375,0.0
113.84765625,-19.04296875,-16.6015625,-30.76171875,-52.734375,-184.5703125,0.0
113.8515625,-31.25,-27.83203125,-25.87890625,-43.45703125,31.25,0.0
113.85546875,-64.94140625,-32.2265625,-31.25,-61.5234375,131.8359375,0.0
113.859375,-61.5234375,-34.66796875,-32.2265625,-65.4296875,-120.1171875,0.0
113.86328125,-49.31640625,-34.1796875,-30.76171875,-41.50390625,-254.8828125,0.0
113.8671875,-44.43359375,-21.97265625,-31.73828125,-33.203125,-161.1328125,0.0
113.87109375,-52.24609375,-20.01953125,-32.2265625,-37.109375,-8.7890625,0.0
113.875,-30.2734375,-19.04296875,-30.76171875,-41.015625,84.47265625,0.0
113.87890625,-31.25,-18.06640625,-23.92578125,-45.8984375,-40.0390625,0.0
113.8828125,-46.38671875,-18.06640625,-27.83203125,-41.015625,-191.89453125,0.0
113.88671875,-50.78125,-19.53125,-34.1796875,-34.66796875,-93.26171875,0.0
113.890625,-56.15234375,-28.3203125,-33.69140625,-35.64453125,82.03125,0.0
113.89453125,-51.26953125,-33.203125,-30.2734375,-24.90234375,110.83984375,0.0
113.8984375,-51.7578125,-32.71484375,-32.2265625,-28.3203125,-41.50390625,0.0
113.90234375,-34.66796875,-28.3203125,-39.0625,-42.96875,-123.53515625,0.0
113.90625,-25.87890625,-21.484375,-34.66796875,-26.3671875,-83.49609375,0.0
113.91015625,-21.484375,-26.85546875,-31.73828125,-27.83203125,24.4140625,0.0
113.9140625,-32.71484375,-28.80859375,-37.109375,-43.45703125,218.75,0.0
113.91796875,-46.38671875,-24.90234375,-31.25,-27.83203125,146.484375,0.0
113.921875,-33.203125,-30.2734375,-28.3203125,-22.4609375,-39.55078125,0.0
113.92578125,-37.109375,-36.1328125,-34.1796875,-27.83203125,-28.3203125,0.0
113.9296875,-39.55078125,-37.109375,-28.3203125,-32.2265625,67.3828125,0.0
113.93359375,-19.53125,-27.34375,-23.4375,-30.76171875,99.609375,0.0
113.9375,-8.30078125,-25.390625,-26.3671875,-27.34375,75.68359375,0.0
113.94140625,-8.7890625,-32.71484375,-30.76171875,-24.4140625,-52.24609375,0.0
113.9453125,-41.9921875,-24.4140625,-33.203125,-29.296875,-130.37109375,0.0
113.94921875,-52.734375,-27.83203125,-31.25,-36.62109375,16.6015625,0.0
113.953125,-29.296875,-27.83203125,-32.71484375,-42.96875,118.65234375,0.0
113.95703125,-15.13671875,-23.92578125,-35.15625,-56.15234375,14.16015625,0.0
113.9609375,-17.578125,-34.66796875,-37.109375,-67.3828125,-115.234375,0.0
113.96484375,-26.85546875,-35.64453125,-34.66796875,-72.265625,-102.5390625,0.0
113.96875,-45.41015625,-32.71484375,-33.203125,-70.80078125,68.84765625,0.0
113.97265625,-32.2265625,-32.2265625,-28.3203125,-55.6640625,150.87890625,0.0
113.9765625,-31.73828125,-38.0859375,-23.92578125,-44.43359375,43.9453125,0.0
113.98046875,-21.97265625,-37.59765625,-25.390625,-42.48046875,-109.86328125,0.0
113.984375,-13.18359375,-30.2734375,-23.92578125,-36.62109375,-200.1953125,0.0
113.98828125,-21.97265625,-24.90234375,-20.99609375,-34.1796875,-106.4453125,0.0
113.9921875,-15.625,-27.34375,-23.4375,-20.99609375,27.34375,0.0
113.99609375,-51.26953125,-29.78515625,-23.92578125,-23.92578125,77.63671875,0.0
114.0,-53.7109375,-28.80859375,-21.97265625,-37.59765625,-103.02734375,0.0
114.00390625,-5.859375,-29.296875,-17.578125,-29.78515625,-248.53515625,0.0
114.0078125,-9.765625,-33.203125,-17.08984375,-40.52734375,-154.78515625,0.0
114.01171875,-28.3203125,-31.73828125,-23.4375,-44.43359375,-16.11328125,0.0
114.015625,-26.3671875,-31.25,-25.87890625,-27.34375,-8.7890625,0.0
114.01953125,-8.7890625,-35.15625,-23.4375,-35.64453125,-194.3359375,0.0
114.0234375,6.8359375,-31.25,-28.3203125,-31.73828125,-288.57421875,0.0
114.02734375,-26.85546875,-28.3203125,-28.3203125,-8.30078125,-155.76171875,0.0
114.03125,-51.26953125,-31.25,-21.97265625,-9.765625,37.59765625,0.0
114.03515625,-27.34375,-28.80859375,-25.87890625,-11.71875,102.05078125,0.0
114.0390625,-19.04296875,-36.1328125,-33.203125,-18.06640625,-9.27734375,0.0
114.04296875,-11.71875,-35.15625,-34.66796875,-24.90234375,-115.234375,0.0
114.046875,2.9296875,-29.296875,-33.69140625,-24.4140625,-92.28515625,0.0
114.05078125,19.04296875,-32.2265625,-32.2265625,-30.2734375,-43.45703125,0.0
114.0546875,-21.97265625,-32.2265625,-30.76171875,-36.1328125,64.94140625,0.0
114.05859375,-17.578125,-32.2265625,-29.78515625,-42.48046875,19.53125,0.0
114.0625,-0.48828125,-37.59765625,-27.83203125,-52.24609375,-137.20703125,0.0
114.06640625,-31.25,-38.0859375,-23.4375,-60.546875,-129.39453125,0.0
114.0703125,-33.69140625,-33.203125,-22.94921875,-41.015625,-17.08984375,0.0
114.07421875,20.5078125,-35.64453125,-20.01953125,-23.92578125,118.1640625,0.0
114.078125,16.6015625,-36.62109375,-18.5546875,-26.3671875,23.92578125,0.0
114.08203125,0.9765625,-33.69140625,-19.04296875,-17.08984375,-186.03515625,0.0
114.0859375,-27.34375,-34.66796875,-15.13671875,-17.578125,-168.45703125,0.0
114.08984375,-44.921875,-37.109375,-16.6015625,-36.1328125,40.0390625,0.0
114.09375,-35.15625,-32.71484375,-17.08984375,-58.59375,120.1171875,0.0
114.09765625,-24.90234375,-33.203125,-17.578125,-57.6171875,-15.625,0.0
114.1015625,-11.71875,-36.62109375,-23.4375,-54.6875,-146.484375,0.0
114.10546875,-17.578125,-33.69140625,-22.4609375,-58.59375,-188.96484375,0.0
114.109375,-24.4140625,-27.34375,-11.71875,-36.1328125,-14.6484375,0.0
114.11328125,-25.390625,-31.25,-8.7890625,-35.64453125,162.59765625,0.0
114.1171875,-14.6484375,-33.69140625,-15.625,-51.7578125,123.046875,0.0
114.12109375,-15.625,-37.59765625,-25.87890625,-48.33984375,-31.73828125,0.0
114.125,0.9765625,-40.0390625,-27.83203125,-45.8984375,-161.62109375,0.0
114.12890625,3.90625,-28.80859375,-23.92578125,-44.921875,-128.90625,0.0
114.1328125,10.7421875,-20.99609375,-24.4140625,-47.8515625,-20.01953125,0.0
114.13671875,35.64453125,-26.3671875,-27.83203125,-55.6640625,16.11328125,0.0
114.140625,-6.34765625,-40.52734375,-29.78515625,-58.10546875,-101.5625,0.0
114.14453125,-37.109375,-43.9453125,-36.1328125,-61.5234375,-148.92578125,0.0
114.1484375,-41.50390625,-35.64453125,-39.55078125,-60.05859375,-17.08984375,0.0
114.15234375,-26.85546875,-28.80859375,-32.71484375,-60.05859375,81.54296875,0.0
114.15625,-27.83203125,-28.80859375,-36.62109375,-69.82421875,76.66015625,0.0
114.16015625,-32.2265625,-36.1328125,-41.50390625,-81.54296875,-46.875,0.0
114.1640625,-15.13671875,-27.83203125,-36.1328125,-92.28515625,-182.6171875,0.0
114.16796875,-5.859375,-26.3671875,-39.0625,-93.26171875,-37.109375,0.0
114.171875,-24.90234375,-39.0625,-41.9921875,-93.26171875,89.35546875,0.0
114.17578125,-24.4140625,-39.55078125,-32.2265625,-95.703125,11.71875,0.0
114.1796875,27.83203125,-29.78515625,-25.87890625,-79.1015625,-157.71484375,0.0
114.18359375,1.953125,-34.1796875,-29.78515625,-83.0078125,-222.65625,0.0
114.1875,-23.4375,-34.66796875,-32.2265625,-83.984375,-59.5703125,0.0
114.19140625,-17.08984375,-28.80859375,-30.2734375,-73.73046875,79.58984375,0.0
114.1953125,-25.87890625,-28.3203125,-24.90234375,-69.82421875,120.60546875,0.0
114.19921875,-20.01953125,-26.85546875,-20.5078125,-68.84765625,9.765625,0.0
114.203125,-29.78515625,-21.484375,-20.99609375,-68.84765625,-159.1796875,0.0
114.20703125,-41.015625,-20.99609375,-22.94921875,-65.4296875,-115.72265625,0.0
114.2109375,-40.52734375,-27.83203125,-31.25,-62.01171875,-20.01953125,0.0
114.21484375,-32.71484375,-31.73828125,-39.0625,-61.03515625,24.90234375,0.0
114.21875,-35.15625,-34.1796875,-31.73828125,-52.734375,-5.37109375,0.0
114.22265625,-5.37109375,-24.4140625,-29.296875,-47.8515625,-95.21484375,0.0
114.2265625,-22.94921875,-26.3671875,-26.3671875,-54.19921875,-121.09375,0.0
114.23046875,-41.9921875,-38.0859375,-23.4375,-52.734375,-9.765625,0.0
114.234375,-42.48046875,-37.109375,-32.71484375,-48.828125,120.60546875,0.0
114.23828125,-39.0625,-49.8046875,-36.1328125,-50.29296875,21.484375,0.0
114.2421875,-36.62109375,-50.78125,-31.25,-52.734375,-119.140625,0.0
114.24609375,-20.01953125,-35.15625,-32.71484375,-45.8984375,-107.421875,0.0
114.25,-32.2265625,-35.64453125,-34.1796875,-47.8515625,34.1796875,0.0
114.25390625,-28.3203125,-36.1328125,-27.34375,-64.453125,132.8125,0.0
114.2578125,-21.97265625,-37.109375,-26.85546875,-90.8203125,27.34375,0.0
114.26171875,-37.109375,-39.55078125,-31.73828125,-97.16796875,-150.390625,0.0
114.265625,-17.08984375,-35.64453125,-28.80859375,-93.26171875,-119.62890625,0.0
114.26953125,-15.625,-29.296875,-22.4609375,-77.1484375,30.2734375,0.0
114.2734375,-17.578125,-31.25,-24.4140625,-59.08203125,86.9140625,0.0
114.27734375,-12.20703125,-37.109375,-22.94921875,-60.546875,11.71875,0.0
114.28125,-36.62109375,-36.62109375,-16.6015625,-62.01171875,-54.19921875,0.0
114.28515625,-71.2890625,-39.0625,-24.4140625,-57.6171875,-96.6796875,0.0
114.2890625,-54.6875,-42.96875,-29.78515625,-62.98828125,-42.96875,0.0
114.29296875,-36.1328125,-36.1328125,-31.73828125,-48.33984375,103.02734375,0.0
114.296875,-41.015625,-22.4609375,-30.2734375,-32.71484375,34.66796875,0.0
114.30078125,-24.4140625,-26.3671875,-21.97265625,-39.55078125,-174.8046875,0.0
114.3046875,-12.20703125,-35.15625,-23.92578125,-45.41015625,-229.00390625,0.0
114.30859375,-18.5546875,-39.55078125,-32.2265625,-63.96484375,-76.171875,0.0
114.3125,-50.29296875,-39.0625,-33.69140625,-59.08203125,121.09375,0.0
114.31640625,-68.359375,-35.64453125,-32.71484375,-58.10546875,100.5859375,0.0
114.3203125,-60.546875,-38.0859375,-37.59765625,-83.0078125,-83.0078125,0.0
114.32421875,-33.203125,-39.0625,-38.0859375,-70.80078125,-152.83203125,0.0
114.328125,-41.9921875,-36.1328125,-31.73828125,-49.8046875,-29.296875,0.0
114.33203125,-39.55078125,-38.57421875,-29.296875,-47.8515625,69.82421875,0.0
114.3359375,-9.765625,-34.1796875,-34.1796875,-61.03515625,-26.85546875,0.0
114.33984375,-15.625,-28.3203125,-37.109375,-84.47265625,-153.80859375,0.0
114.34375,-13.671875,-28.80859375,-39.55078125,-96.19140625,-145.99609375,0.0
114.34765625,-27.83203125,-28.3203125,-37.109375,-98.6328125,-63.96484375,0.0
114.3515625,-40.52734375,-24.90234375,-35.15625,-95.21484375,20.99609375,0.0
114.35546875,-32.71484375,-29.296875,-37.109375,-95.703125,33.69140625,0.0
114.359375,-31.73828125,-40.52734375,-26.85546875,-90.8203125,-67.87109375,0.0
114.36328125,-35.64453125,-48.33984375,-27.83203125,-84.9609375,-148.92578125,0.0
114.3671875,-20.5078125,-41.50390625,-35.15625,-84.9609375,-124.51171875,0.0
114.37109375,-51.26953125,-35.15625,-31.25,-86.42578125,-43.9453125,0.0
114.375,-95.21484375,-36.62109375,-34.66796875,-83.0078125,18.5546875,0.0
114.37890625,-82.03125,-33.203125,-42.96875,-81.0546875,-87.40234375,0.0
114.3828125,-64.94140625,-40.52734375,-42.48046875,-79.58984375,-185.05859375,0.0
114.38671875,-55.17578125,-39.0625,-42.48046875,-80.56640625,-115.72265625,0.0
114.390625,-70.3125,-32.71484375,-44.921875,-78.125,40.52734375,0.0
114.39453125,-78.61328125,-31.73828125,-40.52734375,-77.63671875,96.6796875,0.0
114.3984375,-57.6171875,-31.25,-32.71484375,-70.80078125,-67.87109375,0.0
114.40234375,-60.05859375,-31.25,-34.1796875,-60.546875,-235.3515625,0.0
114.40625,-58.59375,-26.3671875,-33.203125,-67.3828125,-133.30078125,0.0
114.41015625,-50.78125,-25.87890625,-33.203125,-76.66015625,-2.9296875,0.0
114.4140625,-31.73828125,-25.87890625,-44.43359375,-76.171875,61.03515625,0.0
114.41796875,-11.23046875,-22.94921875,-43.9453125,-75.1953125,-23.92578125,0.0
114.421875,-20.5078125,-24.4140625,-39.0625,-67.87109375,-203.125,0.0
114.42578125,-35.15625,-24.90234375,-40.0390625,-81.0546875,-109.375,0.0
114.4296875,-41.9921875,-21.484375,-38.0859375,-80.078125,0.48828125,0.0
114.43359375,-58.10546875,-22.94921875,-41.50390625,-76.171875,-6.34765625,0.0
114.4375,-82.03125,-30.2734375,-43.45703125,-88.37890625,-93.26171875,0.0
114.44140625,-45.8984375,-36.62109375,-35.64453125,-89.84375,-285.64453125,0.0
114.4453125,-28.3203125,-38.57421875,-37.59765625,-94.23828125,-248.53515625,0.0
114.44921875,-34.66796875,-42.48046875,-43.9453125,-86.42578125,-41.9921875,0.0
114.453125,-35.64453125,-37.109375,-45.8984375,-96.6796875,59.08203125,0.0
114.45703125,-55.6640625,-30.2734375,-46.875,-105.95703125,-76.66015625,0.0
114.4609375,-75.1953125,-31.25,-45.41015625,-103.515625,-272.94921875,0.0
114.46484375,-78.61328125,-40.52734375,-42.96875,-94.7265625,-234.375,0.0
114.46875,-74.21875,-39.55078125,-41.015625,-88.8671875,-102.5390625,0.0
114.47265625,-50.78125,-27.34375,-35.15625,-109.86328125,35.15625,0.0
114.4765625,-18.5546875,-17.578125,-36.1328125,-137.20703125,55.6640625,0.0
114.48046875,-25.390625,-24.4140625,-39.0625,-148.4375,-86.42578125,0.0
114.484375,-28.3203125,-34.1796875,-36.1328125,-151.85546875,-142.08984375,0.0
114.48828125,-27.34375,-32.71484375,-35.64453125,-148.92578125,-94.7265625,0.0
114.4921875,-38.57421875,-26.3671875,-27.34375,-123.53515625,-71.2890625,0.0
114.49609375,-29.78515625,-24.90234375,-23.4375,-99.12109375,-51.26953125,0.0
114.5,-31.25,-33.203125,-27.34375,-96.19140625,-173.33984375,0.0
114.50390625,-34.66796875,-37.109375,-30.2734375,-110.83984375,-289.0625,0.0
114.5078125,-28.80859375,-33.203125,-26.3671875,-101.5625,-122.0703125,0.0
114.51171875,-28.3203125,-41.50390625,-28.80859375,-92.7734375,106.93359375,0.0
114.515625,-53.7109375,-48.33984375,-39.55078125,-105.95703125,92.28515625,0.0
114.51953125,-42.96875,-40.52734375,-44.921875,-93.75,-126.953125,0.0
114.5234375,-0.9765625,-34.66796875,-40.0390625,-93.26171875,-239.2578125,0.0
114.52734375,-28.3203125,-36.62109375,-40.0390625,-104.98046875,-115.72265625,0.0
114.53125,-26.85546875,-37.59765625,-42.48046875,-94.23828125,19.53125,0.0
114.53515625,12.20703125,-28.80859375,-40.52734375,-99.609375,87.890625,0.0
114.5390625,-12.20703125,-24.90234375,-38.0859375,-110.83984375,13.671875,0.0
114.54296875,-41.015625,-32.71484375,-36.62109375,-109.375,-117.67578125,0.0
114.546875,-23.4375,-28.3203125,-35.15625,-98.14453125,33.203125,0.0
114.55078125,7.8125,-34.66796875,-34.1796875,-88.37890625,198.73046875,0.0
114.5546875,33.203125,-43.9453125,-34.1796875,-68.84765625,179.19921875,0.0
114.55859375,29.296875,-34.66796875,-32.71484375,-59.5703125,76.66015625,0.0
114.5625,-4.39453125,-35.15625,-36.1328125,-68.84765625,-70.3125,0.0
114.56640625,-16.11328125,-30.2734375,-43.9453125,-89.84375,-76.171875,0.0
114.5703125,-42.96875,-32.71484375,-43.45703125,-96.6796875,-20.99609375,0.0
114.57421875,-50.29296875,-47.8515625,-39.0625,-103.515625,101.5625,0.0
114.578125,-34.1796875,-40.0390625,-41.50390625,-107.421875,126.46484375,0.0
114.58203125,-36.62109375,-40.52734375,-46.875,-108.3984375,41.015625,0.0
114.5859375,-69.82421875,-46.38671875,-45.41015625,-100.09765625,27.83203125,0.0
114.58984375,-36.62109375,-46.875,-41.015625,-81.0546875,71.2890625,0.0
114.59375,-13.18359375,-44.43359375,-43.9453125,-88.37890625,112.3046875,0.0
114.59765625,-36.1328125,-39.0625,-45.41015625,-101.5625,29.296875,0.0
114.6015625,-22.4609375,-36.1328125,-41.015625,-96.6796875,-119.140625,0.0
114.60546875,-31.25,-34.66796875,-38.57421875,-92.7734375,-157.2265625,0.0
114.609375,-3.41796875,-28.3203125,-34.66796875,-84.9609375,12.6953125,0.0
114.61328125,18.5546875,-18.06640625,-28.80859375,-72.75390625,105.95703125,0.0
114.6171875,-4.8828125,-24.4140625,-26.3671875,-64.453125,15.625,0.0
114.62109375,-33.203125,-32.71484375,-22.4609375,-57.6171875,-129.39453125,0.0
114.625,-27.34375,-24.90234375,-25.87890625,-61.5234375,-161.1328125,0.0
114.62890625,-15.13671875,-24.4140625,-27.34375,-60.05859375,-16.11328125,0.0
114.6328125,-13.18359375,-25.390625,-25.87890625,-44.921875,109.375,0.0
114.63671875,-10.7421875,-26.3671875,-25.390625,-37.59765625,22.94921875,0.0
114.640625,-18.06640625,-40.52734375,-29.78515625,-39.0625,-117.1875,0.0
114.64453125,-15.13671875,-48.33984375,-40.0390625,-43.45703125,-156.25,0.0
114.6484375,-15.13671875,-46.38671875,-35.15625,-49.31640625,-59.5703125,0.0
114.65234375,-7.8125,-40.52734375,-30.2734375,-52.24609375,106.93359375,0.0
114.65625,-4.39453125,-34.66796875,-31.25,-50.78125,87.890625,0.0
114.66015625,-15.625,-30.76171875,-31.25,-48.828125,-27.83203125,0.0
114.6640625,-41.50390625,-29.78515625,-26.3671875,-47.36328125,-88.8671875,0.0
114.66796875,-37.59765625,-44.43359375,-21.97265625,-36.62109375,22.94921875,0.0
114.671875,-20.5078125,-49.31640625,-26.3671875,-21.484375,105.46875,0.0
114.67578125,-47.36328125,-44.43359375,-31.73828125,-33.69140625,94.23828125,0.0
114.6796875,-61.5234375,-44.43359375,-34.66796875,-41.50390625,10.25390625,0.0
114.68359375,-59.5703125,-50.29296875,-28.3203125,-41.50390625,-128.41796875,0.0
114.6875,-42.96875,-53.22265625,-24.4140625,-43.45703125,-113.76953125,0.0
114.69140625,-6.8359375,-39.55078125,-26.3671875,-43.9453125,21.97265625,0.0
114.6953125,-8.7890625,-37.109375,-27.34375,-37.109375,6.8359375,0.0
114.69921875,-61.5234375,-48.33984375,-29.78515625,-24.90234375,-77.1484375,0.0
114.703125,-85.9375,-52.734375,-28.80859375,-20.5078125,-148.92578125,0.0
114.70703125,-63.4765625,-47.36328125,-23.4375,-14.6484375,-23.4375,0.0
114.7109375,-41.9921875,-44.43359375,-20.5078125,-15.13671875,152.34375,0.0
114.71484375,-31.73828125,-46.38671875,-25.390625,-20.5078125,172.36328125,0.0
114.71875,-31.25,-35.64453125,-28.3203125,-14.6484375,25.390625,0.0
114.72265625,-41.9921875,-30.76171875,-24.4140625,-10.7421875,-128.41796875,0.0
114.7265625,-34.66796875,-30.76171875,-28.80859375,-19.04296875,-70.3125,0.0
114.73046875,-20.01953125,-30.2734375,-32.2265625,-29.78515625,77.1484375,0.0
114.734375,0.0,-36.1328125,-28.80859375,-16.6015625,86.9140625,0.0
114.73828125,7.8125,-35.64453125,-28.3203125,-0.48828125,-64.453125,0.0
114.7421875,-23.92578125,-28.80859375,-28.3203125,-6.34765625,-168.9453125,0.0
114.74609375,-17.08984375,-34.1796875,-35.15625,-12.20703125,-95.21484375,0.0
114.75,-4.8828125,-39.0625,-34.66796875,-21.484375,32.71484375,0.0
114.75390625,-19.53125,-34.1796875,-29.78515625,-26.85546875,130.859375,0.0
114.7578125,-37.109375,-42.96875,-30.2734375,-21.484375,31.25,0.0
114.76171875,-35.64453125,-46.38671875,-28.3203125,-18.06640625,-118.1640625,0.0
114.765625,-49.31640625,-48.828125,-26.3671875,-16.11328125,-26.85546875,0.0
114.76953125,-35.15625,-47.36328125,-25.87890625,-23.92578125,138.671875,0.0
114.7734375,-48.33984375,-41.50390625,-20.01953125,-11.71875,179.6875,0.0
114.77734375,-46.38671875,-44.43359375,-19.04296875,4.8828125,76.171875,0.0
114.78125,-36.1328125,-42.96875,-21.484375,-15.625,-106.4453125,0.0
114.78515625,-63.4765625,-43.9453125,-20.01953125,-20.99609375,-181.15234375,0.0
114.7890625,-36.62109375,-44.43359375,-23.4375,-16.6015625,-42.48046875,0.0
114.79296875,-69.3359375,-41.50390625,-25.87890625,-23.4375,80.56640625,0.0
114.796875,-103.515625,-35.64453125,-26.85546875,-28.80859375,6.8359375,0.0
114.80078125,-78.125,-35.15625,-32.71484375,-25.390625,-93.75,0.0
114.8046875,-30.2734375,-36.62109375,-39.55078125,-11.23046875,-116.69921875,0.0
114.80859375,-21.484375,-34.1796875,-37.109375,-28.3203125,15.13671875,0.0
114.8125,-48.33984375,-37.109375,-24.4140625,-22.4609375,136.23046875,0.0
114.81640625,-19.04296875,-37.109375,-20.01953125,-1.46484375,-60.05859375,0.0
114.8203125,-9.765625,-37.59765625,-27.83203125,-15.625,-224.609375,0.0
114.82421875,-47.8515625,-29.296875,-31.73828125,-30.76171875,-255.859375,0.0
114.828125,-38.0859375,-21.484375,-35.64453125,-29.78515625,-185.546875,0.0
114.83203125,-12.20703125,-25.390625,-40.0390625,-26.85546875,-62.5,0.0
114.8359375,-11.71875,-20.5078125,-40.52734375,-36.1328125,-77.63671875,0.0
114.83984375,-50.29296875,-18.5546875,-43.45703125,-31.25,-137.6953125,0.0
114.84375,-36.62109375,-35.64453125,-39.0625,-16.11328125,-148.92578125,0.0
114.84765625,-40.0390625,-45.8984375,-34.66796875,-19.53125,-58.59375,0.0
114.8515625,-60.05859375,-39.55078125,-35.64453125,-33.203125,5.37109375,0.0
114.85546875,-20.5078125,-33.69140625,-36.1328125,-38.57421875,59.5703125,0.0
114.859375,-25.390625,-37.109375,-36.1328125,-26.85546875,-45.41015625,0.0
114.86328125,-41.9921875,-44.921875,-35.15625,-42.96875,-243.1640625,0.0
114.8671875,-36.62109375,-50.29296875,-36.62109375,-51.26953125,-112.3046875,0.0
114.87109375,-33.203125,-52.734375,-36.62109375,-41.015625,62.98828125,0.0
114.875,-58.59375,-51.7578125,-34.66796875,-45.41015625,142.08984375,0.0
114.87890625,-72.265625,-36.62109375,-35.15625,-42.48046875,-30.2734375,0.0
114.8828125,-43.9453125,-29.78515625,-41.9921875,-40.0390625,-145.99609375,0.0
114.88671875,-42.48046875,-40.52734375,-49.31640625,-33.203125,-38.0859375,0.0
114.890625,-56.15234375,-42.96875,-47.36328125,-27.34375,43.45703125,0.0
114.89453125,-97.65625,-38.57421875,-47.8515625,-33.203125,91.796875,0.0
114.8984375,-89.35546875,-41.50390625,-49.8046875,-23.92578125,-49.8046875,0.0
114.90234375,-66.40625,-41.015625,-47.8515625,-12.6953125,-187.98828125,0.0
114.90625,-63.96484375,-34.1796875,-53.22265625,-29.78515625,-126.46484375,0.0
114.91015625,-58.10546875,-25.87890625,-57.12890625,-42.48046875,-28.3203125,0.0
114.9140625,-45.8984375,-21.97265625,-47.8515625,-22.4609375,48.828125,0.0
114.91796875,-7.32421875,-20.99609375,-35.64453125,14.16015625,-32.2265625,0.0
114.921875,-13.671875,-41.015625,-33.69140625,6.34765625,-91.30859375,0.0
114.92578125,-45.41015625,-53.22265625,-33.69140625,-20.99609375,-35.15625,0.0
114.9296875,-53.22265625,-43.45703125,-36.1328125,-17.08984375,49.31640625,0.0
114.93359375,-51.7578125,-33.203125,-42.48046875,-0.48828125,178.7109375,0.0
114.9375,-35.64453125,-26.85546875,-41.015625,-9.27734375,114.2578125,0.0
114.94140625,-42.48046875,-26.3671875,-37.59765625,-23.4375,0.48828125,0.0
114.9453125,-43.45703125,-28.3203125,-36.1328125,-22.94921875,-71.2890625,0.0
114.94921875,-24.4140625,-27.34375,-30.76171875,-0.9765625,-66.40625,0.0
114.953125,-33.69140625,-24.4140625,-29.78515625,-6.34765625,81.54296875,0.0
114.95703125,-35.15625,-16.6015625,-29.296875,-31.73828125,83.0078125,0.0
114.9609375,-41.9921875,-21.97265625,-27.34375,-17.08984375,-79.58984375,0.0
114.96484375,-64.453125,-32.71484375,-33.69140625,-9.27734375,-118.65234375,0.0
114.96875,-93.26171875,-36.1328125,-33.69140625,0.9765625,17.08984375,0.0
114.97265625,-109.86328125,-31.73828125,-30.2734375,-0.48828125,95.21484375,0.0
114.9765625,-125.9765625,-33.69140625,-29.296875,-20.5078125,-13.671875,0.0
114.98046875,-92.7734375,-40.52734375,-28.80859375,-33.69140625,-152.83203125,0.0
114.984375,-78.125,-31.25,-32.71484375,-18.5546875,-226.07421875,0.0
114.98828125,-60.546875,-30.2734375,-39.0625,0.48828125,-144.04296875,0.0
114.9921875,-31.73828125,-27.34375,-44.921875,-34.1796875,57.6171875,0.0
114.99609375,-16.6015625,-29.296875,-41.9921875,-65.4296875,69.82421875,0.0
115.0,-54.19921875,-31.25,-35.15625,-44.43359375,19.04296875,0.0
115.00390625,-103.515625,-31.25,-40.52734375,-37.109375,-58.59375,0.0
115.0078125,-54.19921875,-31.25,-47.36328125,-46.38671875,-109.86328125,0.0
115.01171875,-47.36328125,-27.34375,-45.8984375,-31.73828125,6.8359375,0.0
115.015625,-45.41015625,-28.3203125,-44.921875,-13.671875,70.3125,0.0
115.01953125,-13.18359375,-20.99609375,-41.50390625,-11.71875,-12.20703125,0.0
115.0234375,-21.97265625,-23.92578125,-47.36328125,-29.296875,-108.88671875,0.0
115.02734375,-54.6875,-31.73828125,-50.78125,-67.3828125,-104.98046875,0.0
115.03125,-80.56640625,-30.2734375,-47.8515625,-71.77734375,55.17578125,0.0
115.03515625,-67.87109375,-31.73828125,-48.33984375,-70.3125,95.21484375,0.0
115.0390625,-41.9921875,-28.3203125,-42.96875,-87.40234375,-46.875,0.0
115.04296875,-69.82421875,-19.04296875,-42.96875,-84.9609375,-193.84765625,0.0
115.046875,-101.07421875,-29.78515625,-47.36328125,-79.58984375,-106.4453125,0.0
115.05078125,-71.77734375,-30.76171875,-41.9921875,-88.8671875,65.4296875,0.0
115.0546875,-76.171875,-21.97265625,-43.45703125,-100.5859375,87.40234375,0.0
115.05859375,-77.1484375,-19.53125,-54.6875,-110.3515625,12.6953125,0.0
115.0625,-79.1015625,-26.85546875,-61.5234375,-111.328125,-115.234375,0.0
115.06640625,-103.02734375,-34.1796875,-62.5,-93.75,-39.0625,0.0
115.0703125,-98.14453125,-34.66796875,-61.03515625,-99.609375,32.2265625,0.0
115.07421875,-77.63671875,-30.76171875,-58.10546875,-137.20703125,40.0390625,0.0
115.078125,-63.96484375,-25.87890625,-53.7109375,-128.90625,-56.640625,0.0
115.08203125,-33.69140625,-29.296875,-49.8046875,-102.05078125,-210.9375,0.0
115.0859375,-61.5234375,-28.80859375,-44.43359375,-83.984375,-159.66796875,0.0
115.08984375,-29.296875,-20.01953125,-36.1328125,-72.265625,-24.90234375,0.0
115.09375,36.1328125,-19.53125,-30.76171875,-66.40625,90.33203125,0.0
115.09765625,-26.85546875,-16.6015625,-29.296875,-71.2890625,64.453125,0.0
115.1015625,-57.12890625,-11.71875,-34.1796875,-74.21875,-87.40234375,0.0
115.10546875,-39.55078125,-12.20703125,-39.55078125,-84.9609375,-153.3203125,0.0
115.109375,-44.921875,-15.13671875,-43.9453125,-103.02734375,-38.57421875,0.0
115.11328125,-60.05859375,-31.25,-36.1328125,-77.1484375,58.10546875,0.0
115.1171875,-36.62109375,-36.62109375,-24.90234375,-61.03515625,-51.7578125,0.0
115.12109375,6.8359375,-34.66796875,-19.53125,-66.89453125,-124.0234375,0.0
115.125,1.46484375,-37.59765625,-11.71875,-44.43359375,-123.53515625,0.0
115.12890625,-42.48046875,-27.34375,-13.671875,-54.6875,-65.4296875,0.0
115.1328125,-48.33984375,-19.04296875,-21.97265625,-66.89453125,4.39453125,0.0
115.13671875,-43.45703125,-27.83203125,-19.53125,-39.55078125,-21.484375,0.0
115.140625,-25.390625,-30.76171875,-21.97265625,-50.29296875,-151.3671875,0.0
115.14453125,-6.8359375,-21.97265625,-27.34375,-64.453125,-237.3046875,0.0
115.1484375,7.32421875,-17.08984375,-25.87890625,-37.109375,-125.48828125,0.0
115.15234375,19.04296875,-23.4375,-22.94921875,-3.90625,8.7890625,0.0
115.15625,-5.859375,-29.78515625,-25.390625,-4.39453125,23.92578125,0.0
115.16015625,-74.21875,-30.2734375,-33.203125,-23.4375,-114.2578125,0.0
115.1640625,-76.66015625,-42.48046875,-34.1796875,-30.76171875,-200.68359375,0.0
115.16796875,-47.8515625,-55.17578125,-35.15625,-17.08984375,-59.08203125,0.0
115.171875,-35.64453125,-58.10546875,-38.57421875,7.8125,125.48828125,0.0
115.17578125,-37.59765625,-50.29296875,-41.50390625,10.25390625,119.140625,0.0
115.1796875,-53.22265625,-44.921875,-40.0390625,25.87890625,-58.10546875,0.0
115.18359375,-25.390625,-45.41015625,-32.71484375,46.875,-199.21875,0.0
115.1875,-34.1796875,-45.41015625,-26.3671875,79.58984375,-109.375,0.0
115.19140625,-27.34375,-39.55078125,-23.4375,138.671875,45.8984375,0.0
115.1953125,-21.97265625,-35.15625,-20.5078125,151.3671875,65.4296875,0.0
115.19921875,-47.36328125,-40.52734375,-15.625,141.6015625,-12.20703125,0.0
115.203125,-41.50390625,-53.7109375,-18.5546875,136.23046875,-125.48828125,0.0
115.20703125,-30.2734375,-50.78125,-20.01953125,128.41796875,-137.6953125,0.0
115.2109375,-13.18359375,-49.8046875,-24.90234375,125.9765625,11.71875,0.0
115.21484375,-12.6953125,-52.24609375,-30.2734375,118.65234375,143.5546875,0.0
115.21875,-6.8359375,-41.50390625,-29.78515625,138.671875,-82.51953125,0.0
115.22265625,-6.8359375,-46.875,-34.66796875,154.78515625,-259.27734375,0.0
115.2265625,-47.36328125,-52.734375,-35.15625,154.296875,-162.109375,0.0
115.23046875,-29.296875,-50.78125,-38.0859375,159.1796875,11.71875,0.0
115.234375,-51.26953125,-53.7109375,-36.62109375,150.390625,82.51953125,0.0
115.23828125,-49.8046875,-48.828125,-32.71484375,143.5546875,-87.890625,0.0
115.2421875,-24.4140625,-45.41015625,-40.52734375,144.04296875,-175.29296875,0.0
115.24609375,-6.8359375,-51.26953125,-44.921875,139.6484375,-65.4296875,0.0
115.25,-26.3671875,-49.8046875,-37.109375,138.671875,94.7265625,0.0
115.25390625,-65.91796875,-36.62109375,-36.1328125,135.25390625,163.0859375,0.0
115.2578125,-53.7109375,-33.203125,-41.015625,133.30078125,41.50390625,0.0
115.26171875,-13.671875,-33.69140625,-48.33984375,116.2109375,-110.83984375,0.0
115.265625,20.5078125,-33.203125,-43.9453125,95.703125,-73.73046875,0.0
115.26953125,41.9921875,-41.9921875,-31.25,104.98046875,54.6875,0.0
115.2734375,32.71484375,-46.38671875,-23.92578125,123.046875,105.95703125,0.0
115.27734375,58.59375,-44.43359375,-20.01953125,116.69921875,-13.18359375,0.0
115.28125,40.52734375,-38.0859375,-22.4609375,103.515625,-157.2265625,0.0
115.28515625,5.37109375,-37.109375,-18.06640625,104.4921875,-226.5625,0.0
115.2890625,4.39453125,-48.828125,-22.94921875,105.46875,-56.15234375,0.0
115.29296875,-0.48828125,-48.828125,-30.76171875,112.79296875,91.30859375,0.0
115.296875,-22.94921875,-38.57421875,-34.1796875,108.88671875,-31.25,0.0
115.30078125,-68.84765625,-38.0859375,-35.15625,89.84375,-168.9453125,0.0
115.3046875,-62.01171875,-41.015625,-28.80859375,93.75,-164.55078125,0.0
115.30859375,-52.734375,-37.109375,-26.3671875,85.44921875,8.30078125,0.0
115.3125,-23.4375,-38.57421875,-28.3203125,66.40625,96.19140625,0.0
115.31640625,-10.25390625,-40.0390625,-28.80859375,62.98828125,-7.32421875,0.0
115.3203125,-39.55078125,-34.1796875,-22.94921875,70.80078125,-107.91015625,0.0
115.32421875,-33.203125,-28.3203125,-23.4375,72.265625,-198.2421875,0.0
115.328125,-30.76171875,-27.83203125,-21.97265625,96.6796875,-75.1953125,0.0
115.33203125,-39.55078125,-28.3203125,-14.6484375,107.421875,101.07421875,0.0
115.3359375,-17.578125,-32.71484375,-18.06640625,85.9375,60.05859375,0.0
115.33984375,-39.55078125,-37.59765625,-19.04296875,70.3125,-90.33203125,0.0
115.34375,-38.57421875,-30.2734375,-9.765625,69.3359375,-218.75,0.0
115.34765625,-5.37109375,-28.80859375,-6.8359375,72.75390625,-82.51953125,0.0
115.3515625,-3.41796875,-32.71484375,-13.671875,72.75390625,64.94140625,0.0
115.35546875,12.6953125,-23.4375,-21.97265625,75.68359375,184.08203125,0.0
115.359375,0.9765625,-18.06640625,-26.85546875,70.80078125,105.46875,0.0
115.36328125,4.39453125,-20.99609375,-21.97265625,54.6875,-83.0078125,0.0
115.3671875,16.11328125,-23.4375,-24.4140625,47.8515625,-62.5,0.0
115.37109375,18.06640625,-26.3671875,-32.2265625,48.33984375,21.484375,0.0
115.375,12.20703125,-20.5078125,-31.25,41.9921875,3.90625,0.0
115.37890625,-1.953125,-14.6484375,-27.83203125,46.38671875,-170.41015625,0.0
115.3828125,4.39453125,-19.53125,-29.78515625,56.15234375,-338.8671875,0.0
115.38671875,11.71875,-10.25390625,-27.83203125,43.45703125,-179.19921875,0.0
115.390625,-27.34375,-8.30078125,-22.94921875,38.0859375,65.4296875,0.0
115.39453125,-32.2265625,-22.4609375,-20.01953125,41.9921875,151.3671875,0.0
115.3984375,7.32421875,-19.53125,-21.97265625,11.71875,7.32421875,0.0
115.40234375,-26.3671875,-13.671875,-28.80859375,-5.859375,-215.8203125,0.0
115.40625,-37.59765625,-16.11328125,-30.76171875,-6.8359375,-130.859375,0.0
115.41015625,-11.71875,-13.671875,-26.85546875,-7.8125,32.2265625,0.0
115.4140625,-1.46484375,-21.484375,-20.99609375,-1.46484375,97.65625,0.0
115.41796875,-2.44140625,-26.85546875,-15.625,7.32421875,-20.99609375,0.0
115.421875,-17.08984375,-24.4140625,-18.06640625,17.08984375,-152.83203125,0.0
115.42578125,-4.39453125,-27.34375,-21.97265625,-3.41796875,-148.4375,0.0
115.4296875,-0.48828125,-26.85546875,-21.484375,-6.8359375,-59.08203125,0.0
115.43359375,-24.4140625,-27.34375,-17.578125,10.25390625,48.33984375,0.0
115.4375,-34.1796875,-28.80859375,-18.5546875,4.39453125,4.39453125,0.0
115.44140625,-40.52734375,-27.83203125,-25.87890625,-13.671875,-152.34375,0.0
115.4453125,-53.7109375,-22.94921875,-40.52734375,-7.8125,-126.953125,0.0
115.44921875,-50.29296875,-28.3203125,-43.45703125,-4.39453125,82.03125,0.0
115.453125,-2.9296875,-31.25,-38.57421875,3.90625,200.1953125,0.0
115.45703125,-18.06640625,-26.85546875,-42.96875,8.30078125,117.1875,0.0
115.4609375,-38.0859375,-22.4609375,-43.9453125,13.671875,-39.55078125,0.0
115.46484375,-53.22265625,-32.71484375,-31.73828125,27.83203125,-105.95703125,0.0
115.46875,-71.77734375,-36.62109375,-21.97265625,17.578125,-43.9453125,0.0
115.47265625,-27.83203125,-32.71484375,-27.83203125,0.9765625,107.421875,0.0
115.4765625,-13.671875,-27.83203125,-36.1328125,-15.13671875,51.7578125,0.0
115.48046875,-9.27734375,-23.4375,-33.69140625,-12.20703125,-104.98046875,0.0
115.484375,-22.4609375,-29.78515625,-36.62109375,3.41796875,-128.41796875,0.0
115.48828125,-41.9921875,-32.2265625,-39.55078125,15.13671875,-62.01171875,0.0
115.4921875,-19.04296875,-24.4140625,-31.73828125,16.6015625,22.94921875,0.0
115.49609375,-22.94921875,-22.4609375,-33.203125,1.953125,33.69140625,0.0
115.5,-32.2265625,-25.390625,-35.15625,-5.37109375,-3.90625,0.0
115.50390625,-60.546875,-20.99609375,-26.3671875,-5.859375,-68.359375,0.0
115.5078125,-60.05859375,-27.83203125,-27.34375,-20.01953125,35.64453125,0.0
115.51171875,-13.18359375,-34.1796875,-32.71484375,-32.2265625,150.390625,0.0
115.515625,-38.57421875,-27.34375,-35.64453125,-33.203125,30.2734375,0.0
115.51953125,-24.4140625,-19.04296875,-32.2265625,-29.296875,-124.51171875,0.0
115.5234375,-8.30078125,-19.53125,-28.80859375,-16.6015625,-155.76171875,0.0
115.52734375,-34.1796875,-20.5078125,-31.25,-7.32421875,-72.265625,0.0
115.53125,-19.04296875,-22.4609375,-34.1796875,-12.6953125,20.01953125,0.0
115.53515625,-33.203125,-23.92578125,-27.83203125,-16.6015625,88.8671875,0.0
115.5390625,-25.390625,-18.5546875,-23.92578125,-13.18359375,38.0859375,0.0
115.54296875,15.13671875,-15.13671875,-27.83203125,-15.13671875,-68.84765625,0.0
115.546875,-17.578125,-29.78515625,-24.4140625,-36.1328125,-100.5859375,0.0
115.55078125,-17.578125,-32.2265625,-24.90234375,-26.85546875,-15.625,0.0
115.5546875,-15.13671875,-25.87890625,-36.1328125,-26.3671875,87.890625,0.0
115.55859375,-24.4140625,-23.92578125,-39.0625,-35.15625,20.99609375,0.0
115.5625,1.953125,-25.87890625,-37.109375,-31.73828125,-140.13671875,0.0
115.56640625,2.9296875,-30.2734375,-32.71484375,-16.6015625,-119.140625,0.0
115.5703125,-20.99609375,-25.87890625,-25.390625,-5.859375,10.7421875,0.0
115.57421875,-26.3671875,-32.2265625,-27.34375,-21.97265625,16.11328125,0.0
115.578125,-26.85546875,-35.64453125,-33.203125,-15.13671875,-127.44140625,0.0
115.58203125,-41.50390625,-36.62109375,-33.69140625,-3.90625,-176.7578125,0.0
115.5859375,-37.109375,-40.0390625,-36.1328125,-8.7890625,-108.88671875,0.0
115.58984375,0.0,-34.66796875,-38.0859375,-3.90625,-35.64453125,0.0
115.59375,-3.90625,-26.85546875,-36.62109375,3.41796875,-2.44140625,0.0
115.59765625,4.39453125,-25.390625,-37.109375,-2.9296875,-24.90234375,0.0
115.6015625,19.53125,-21.97265625,-45.41015625,-8.7890625,-74.21875,0.0
115.60546875,-14.6484375,-26.85546875,-41.50390625,-7.32421875,-73.73046875,0.0
115.609375,-17.08984375,-32.71484375,-41.50390625,-14.16015625,-47.8515625,0.0
115.61328125,8.7890625,-24.90234375,-41.50390625,-12.6953125,-54.19921875,0.0
115.6171875,-7.8125,-18.5546875,-36.62109375,-4.8828125,-38.0859375,0.0
115.62109375,-12.6953125,-25.390625,-37.59765625,-18.5546875,26.85546875,0.0
115.625,18.5546875,-21.97265625,-36.62109375,-28.80859375,43.45703125,0.0
115.62890625,-7.8125,-20.99609375,-36.62109375,-18.5546875,1.46484375,0.0
115.6328125,-47.36328125,-32.2265625,-39.55078125,-17.578125,-27.83203125,0.0
115.63671875,-48.33984375,-34.66796875,-35.64453125,-15.13671875,-11.71875,0.0
115.640625,-75.68359375,-35.64453125,-30.76171875,-16.6015625,21.484375,0.0
115.64453125,-52.24609375,-33.203125,-30.76171875,-24.90234375,-144.53125,0.0
115.6484375,-22.4609375,-28.80859375,-25.87890625,-19.53125,-86.9140625,0.0
115.65234375,-33.203125,-24.4140625,-24.90234375,-15.13671875,37.59765625,0.0
115.65625,-43.9453125,-19.04296875,-30.76171875,-15.13671875,25.390625,0.0
115.66015625,-38.57421875,-14.16015625,-27.34375,-2.9296875,-119.62890625,0.0
115.6640625,-23.92578125,-18.5546875,-25.390625,-4.8828125,-133.7890625,0.0
115.66796875,-28.3203125,-21.97265625,-34.66796875,-28.3203125,-18.5546875,0.0
115.671875,-25.87890625,-22.94921875,-33.69140625,-31.25,58.59375,0.0
115.67578125,-12.20703125,-30.76171875,-29.78515625,-28.3203125,-40.52734375,0.0
115.6796875,-16.6015625,-34.1796875,-34.66796875,-31.73828125,-148.4375,0.0
115.68359375,-14.6484375,-29.78515625,-42.96875,-35.15625,-82.51953125,0.0
115.6875,-32.2265625,-33.203125,-40.52734375,-32.2265625,44.43359375,0.0
115.69140625,-21.484375,-37.109375,-30.2734375,-42.96875,113.76953125,0.0
115.6953125,20.01953125,-24.90234375,-22.94921875,-51.7578125,149.4140625,0.0
115.69921875,-48.828125,-18.06640625,-24.4140625,-41.015625,-26.85546875,0.0
115.703125,-67.3828125,-21.484375,-28.3203125,-31.73828125,-206.0546875,0.0
115.70703125,-30.76171875,-30.76171875,-24.4140625,-22.94921875,-103.515625,0.0
115.7109375,-30.2734375,-31.73828125,-23.92578125,-23.4375,36.62109375,0.0
115.71484375,-13.18359375,-24.4140625,-21.484375,-31.73828125,52.24609375,0.0
115.71875,-24.4140625,-19.04296875,-14.16015625,-30.2734375,-85.9375,0.0
115.72265625,-36.62109375,-18.5546875,-15.625,-28.3203125,-146.97265625,0.0
115.7265625,-55.17578125,-26.85546875,-12.20703125,-16.6015625,-100.5859375,0.0
115.73046875,-46.875,-29.78515625,-7.32421875,-24.4140625,-29.296875,0.0
115.734375,-15.13671875,-27.34375,-12.20703125,-45.41015625,104.98046875,0.0
115.73828125,-25.87890625,-23.4375,-16.6015625,-47.36328125,-28.80859375,0.0
115.7421875,-28.3203125,-22.4609375,-19.04296875,-43.9453125,-173.828125,0.0
115.74609375,-27.83203125,-27.34375,-23.92578125,-47.36328125,-81.54296875,0.0
115.75,-25.390625,-27.34375,-28.80859375,-57.6171875,12.6953125,0.0
115.75390625,-37.109375,-27.34375,-22.4609375,-64.453125,59.5703125,0.0
115.7578125,-59.5703125,-27.83203125,-14.6484375,-60.546875,-37.59765625,0.0
115.76171875,-42.48046875,-23.92578125,-18.5546875,-59.5703125,-123.046875,0.0
115.765625,-31.73828125,-18.5546875,-16.11328125,-69.3359375,-80.56640625,0.0
115.76953125,-44.921875,-28.3203125,-13.671875,-64.453125,61.03515625,0.0
115.7734375,-24.4140625,-29.78515625,-15.13671875,-53.7109375,33.69140625,0.0
115.77734375,-4.8828125,-21.484375,-13.18359375,-39.0625,-111.81640625,0.0
115.78125,-33.69140625,-30.76171875,-14.6484375,-30.2734375,-230.46875,0.0
115.78515625,-62.5,-33.203125,-16.6015625,-30.2734375,-219.7265625,0.0
115.7890625,-25.390625,-29.78515625,-11.71875,-21.97265625,-25.87890625,0.0
115.79296875,16.6015625,-29.78515625,-15.13671875,-22.94921875,91.796875,0.0
115.796875,12.20703125,-33.69140625,-16.11328125,-18.5546875,39.0625,0.0
115.80078125,-10.25390625,-33.203125,-8.7890625,-11.71875,-62.5,0.0
115.8046875,-29.78515625,-32.71484375,-16.11328125,-17.08984375,-137.6953125,0.0
115.80859375,-42.48046875,-39.0625,-12.6953125,-1.46484375,-13.18359375,0.0
115.8125,-25.87890625,-41.9921875,-13.18359375,5.859375,135.25390625,0.0
115.81640625,-29.296875,-39.0625,-28.80859375,-3.90625,50.29296875,0.0
115.8203125,-13.671875,-39.55078125,-25.390625,-2.44140625,-65.91796875,0.0
115.82421875,15.625,-35.15625,-20.99609375,-1.953125,-73.73046875,0.0
115.828125,-17.08984375,-24.4140625,-27.34375,0.0,27.34375,0.0
115.83203125,-29.296875,-29.296875,-24.4140625,9.27734375,41.015625,0.0
115.8359375,14.6484375,-28.3203125,-27.34375,-8.7890625,27.83203125,0.0
115.83984375,30.76171875,-22.4609375,-33.69140625,-41.50390625,54.19921875,0.0
115.84375,-10.25390625,-27.83203125,-35.64453125,-43.45703125,-1.46484375,0.0
115.84765625,-9.765625,-32.71484375,-34.1796875,-26.85546875,-32.71484375,0.0
115.8515625,5.37109375,-37.59765625,-26.3671875,-17.08984375,66.40625,0.0
115.85546875,-5.859375,-37.59765625,-21.484375,-19.53125,46.38671875,0.0
115.859375,-25.390625,-35.64453125,-19.04296875,-20.5078125,-150.87890625,0.0
115.86328125,-29.296875,-40.52734375,-19.04296875,-15.13671875,-216.30859375,0.0
115.8671875,-4.39453125,-39.55078125,-18.06640625,-6.8359375,-74.70703125,0.0
115.87109375,-7.32421875,-38.57421875,-10.7421875,-1.46484375,15.625,0.0
115.875,-26.3671875,-45.8984375,-17.578125,-24.4140625,56.15234375,0.0
115.87890625,-40.52734375,-46.38671875,-26.85546875,-57.12890625,38.0859375,0.0
115.8828125,-27.83203125,-36.62109375,-26.85546875,-58.10546875,7.32421875,0.0
115.88671875,-25.390625,-37.109375,-28.3203125,-51.26953125,27.34375,0.0
115.890625,-42.48046875,-41.50390625,-28.3203125,-54.19921875,46.875,0.0
115.89453125,-19.04296875,-38.57421875,-22.4609375,-50.78125,21.484375,0.0
115.8984375,-18.5546875,-35.15625,-21.97265625,-43.9453125,-203.125,0.0
115.90234375,-20.01953125,-41.015625,-23.92578125,-43.45703125,-277.34375,0.0
115.90625,-16.11328125,-52.24609375,-26.85546875,-65.4296875,-97.65625,0.0
115.91015625,-31.25,-60.05859375,-24.90234375,-62.01171875,-25.87890625,0.0
115.9140625,20.5078125,-53.22265625,-25.390625,-51.26953125,5.37109375,0.0
115.91796875,15.625,-42.96875,-34.66796875,-54.6875,-11.71875,0.0
115.921875,-73.73046875,-46.875,-27.83203125,-52.24609375,-86.9140625,0.0
115.92578125,-82.03125,-47.8515625,-20.5078125,-48.828125,12.6953125,0.0
115.9296875,-43.45703125,-40.0390625,-21.97265625,-33.203125,29.296875,0.0
115.93359375,-16.11328125,-34.66796875,-22.4609375,-33.203125,-15.625,0.0
115.9375,-33.69140625,-37.59765625,-24.4140625,-40.52734375,3.41796875,0.0
115.94140625,-46.38671875,-33.203125,-34.1796875,-53.7109375,-95.21484375,0.0
115.9453125,-38.0859375,-31.25,-38.57421875,-59.5703125,-94.7265625,0.0
115.94921875,-44.921875,-41.9921875,-30.2734375,-46.875,24.90234375,0.0
115.953125,-54.6875,-51.26953125,-31.25,-48.828125,115.72265625,0.0
115.95703125,-51.26953125,-47.36328125,-36.1328125,-49.8046875,-26.85546875,0.0
115.9609375,-56.15234375,-41.9921875,-31.25,-49.31640625,-146.97265625,0.0
115.96484375,-41.50390625,-44.921875,-30.76171875,-56.15234375,-91.30859375,0.0
115.96875,-40.0390625,-37.109375,-33.69140625,-45.8984375,63.96484375,0.0
115.97265625,-47.8515625,-26.3671875,-29.296875,-38.57421875,142.578125,0.0
115.9765625,-38.0859375,-29.78515625,-28.80859375,-37.109375,-17.578125,0.0
115.98046875,-36.62109375,-29.78515625,-28.3203125,-18.5546875,-131.8359375,0.0
115.984375,-41.9921875,-20.99609375,-31.25,-22.4609375,-116.2109375,0.0
115.98828125,-55.17578125,-20.01953125,-39.0625,-30.76171875,6.34765625,0.0
115.9921875,-56.15234375,-21.97265625,-40.0390625,-31.73828125,59.5703125,0.0
115.99609375,-43.9453125,-24.90234375,-37.59765625,-21.97265625,-33.69140625,0.0
116.0,-46.38671875,-24.90234375,-43.9453125,1.46484375,-135.25390625,0.0
116.00390625,-42.48046875,-22.4609375,-40.0390625,-10.25390625,-143.06640625,0.0
116.0078125,-30.76171875,-29.296875,-28.80859375,-12.6953125,2.9296875,0.0
116.01171875,-15.13671875,-34.1796875,-26.85546875,-14.16015625,133.30078125,0.0
116.015625,-23.4375,-28.80859375,-27.83203125,-20.99609375,93.26171875,0.0
116.01953125,-34.1796875,-26.85546875,-24.90234375,-28.3203125,-16.11328125,0.0
116.0234375,-34.1796875,-32.2265625,-26.85546875,-42.48046875,-50.29296875,0.0
116.02734375,-53.7109375,-31.73828125,-24.90234375,-44.921875,7.32421875,0.0
116.03125,-59.5703125,-30.2734375,-24.4140625,-44.43359375,77.1484375,0.0
116.03515625,-48.828125,-26.3671875,-32.71484375,-40.0390625,45.8984375,0.0
116.0390625,-56.640625,-22.4609375,-37.59765625,-38.57421875,-147.4609375,0.0
116.04296875,-57.12890625,-32.2265625,-32.71484375,-36.62109375,-213.8671875,0.0
116.046875,-22.4609375,-34.66796875,-29.78515625,-34.1796875,-58.10546875,0.0
116.05078125,11.71875,-25.87890625,-30.76171875,-27.83203125,26.3671875,0.0
116.0546875,-10.7421875,-30.76171875,-29.78515625,-18.06640625,58.10546875,0.0
116.05859375,-53.7109375,-34.66796875,-28.3203125,-19.04296875,-39.55078125,0.0
116.0625,-21.484375,-37.109375,-22.94921875,-18.06640625,-178.7109375,0.0
116.06640625,-4.8828125,-32.2265625,-25.390625,-13.18359375,-77.63671875,0.0
116.0703125,1.953125,-26.85546875,-30.2734375,-3.41796875,46.38671875,0.0
116.07421875,0.9765625,-33.203125,-35.15625,0.9765625,73.73046875,0.0
116.078125,-33.69140625,-43.45703125,-39.55078125,-8.30078125,-82.51953125,0.0
116.08203125,-41.015625,-45.8984375,-39.0625,-24.4140625,-262.20703125,0.0
116.0859375,-22.4609375,-39.0625,-35.64453125,-41.9921875,-143.06640625,0.0
116.08984375,2.9296875,-32.71484375,-38.57421875,-57.6171875,22.4609375,0.0
116.09375,-14.16015625,-31.73828125,-43.9453125,-62.98828125,94.7265625,0.0
116.09765625,-8.30078125,-30.2734375,-38.0859375,-56.640625,-26.3671875,0.0
116.1015625,28.3203125,-35.64453125,-33.203125,-45.8984375,-154.78515625,0.0
116.10546875,-38.57421875,-39.0625,-34.1796875,-41.50390625,-150.87890625,0.0
116.109375,-77.63671875,-37.109375,-31.73828125,-36.62109375,-89.35546875,0.0
116.11328125,-49.31640625,-41.015625,-22.4609375,-34.66796875,-55.17578125,0.0
116.1171875,-44.921875,-40.0390625,-19.04296875,-39.55078125,-74.21875,0.0
116.12109375,-18.06640625,-36.62109375,-22.94921875,-40.0390625,-62.98828125,0.0
116.125,-13.18359375,-29.296875,-22.94921875,-44.43359375,-32.2265625,0.0
116.12890625,-41.015625,-24.90234375,-16.11328125,-30.76171875,85.9375,0.0
116.1328125,-59.08203125,-33.203125,-16.11328125,-15.13671875,138.671875,0.0
116.13671875,-53.22265625,-35.15625,-19.04296875,-34.66796875,-10.25390625,0.0
116.140625,-34.1796875,-33.69140625,-20.5078125,-45.8984375,-131.8359375,0.0
116.14453125,-44.921875,-30.2734375,-24.4140625,-40.0390625,-127.9296875,0.0
116.1484375,-30.76171875,-27.83203125,-25.87890625,-28.3203125,-52.24609375,0.0
116.15234375,-38.0859375,-35.15625,-20.5078125,-19.04296875,1.46484375,0.0
116.15625,-40.52734375,-35.64453125,-20.01953125,-27.83203125,46.38671875,0.0
116.16015625,-43.9453125,-33.69140625,-18.06640625,-33.203125,-34.1796875,0.0
116.1640625,-58.59375,-30.76171875,-25.390625,-40.0390625,-73.2421875,0.0
116.16796875,-44.43359375,-25.87890625,-30.76171875,-46.875,68.359375,0.0
116.171875,-19.04296875,-30.76171875,-24.4140625,-42.96875,87.40234375,0.0
116.17578125,-20.5078125,-29.78515625,-22.4609375,-41.50390625,-54.6875,0.0
116.1796875,-58.59375,-23.4375,-21.97265625,-37.59765625,-130.859375,0.0
116.18359375,-49.31640625,-25.87890625,-25.390625,-28.3203125,-168.9453125,0.0
116.1875,-37.109375,-36.62109375,-34.1796875,-47.8515625,-98.6328125,0.0
116.19140625,-30.2734375,-41.015625,-36.1328125,-55.6640625,81.0546875,0.0
116.1953125,-13.18359375,-30.76171875,-31.73828125,-41.9921875,23.4375,0.0
116.19921875,-7.8125,-20.99609375,-37.109375,-46.875,-151.3671875,0.0
116.203125,-29.296875,-20.5078125,-51.26953125,-41.9921875,-171.38671875,0.0
116.20703125,-36.62109375,-16.11328125,-42.96875,-42.48046875,-41.015625,0.0
116.2109375,-14.6484375,-12.20703125,-33.203125,-44.43359375,14.16015625,0.0
116.21484375,-54.6875,-28.3203125,-33.69140625,-37.109375,26.3671875,0.0
116.21875,-43.9453125,-43.9453125,-30.2734375,-36.1328125,-46.38671875,0.0
116.22265625,-47.36328125,-42.96875,-26.3671875,-35.15625,-215.33203125,0.0
116.2265625,-84.9609375,-40.0390625,-30.2734375,-41.015625,-190.4296875,0.0
116.23046875,-48.828125,-46.38671875,-30.2734375,-39.0625,-30.2734375,0.0
116.234375,-54.19921875,-50.78125,-23.92578125,-28.3203125,34.66796875,0.0
116.23828125,-74.70703125,-40.0390625,-24.90234375,-26.85546875,-106.4453125,0.0
116.2421875,-65.4296875,-32.2265625,-27.34375,-42.96875,-195.3125,0.0
116.24609375,-67.87109375,-41.50390625,-26.3671875,-43.9453125,-112.3046875,0.0
116.25,-67.87109375,-38.57421875,-24.90234375,-34.1796875,24.4140625,0.0
116.25390625,-55.6640625,-27.34375,-27.83203125,-42.96875,160.64453125,0.0
116.2578125,-61.5234375,-34.66796875,-26.85546875,-44.43359375,71.77734375,0.0
116.26171875,-45.41015625,-42.48046875,-27.83203125,-45.41015625,-107.91015625,0.0
116.265625,-5.37109375,-45.41015625,-34.66796875,-49.8046875,-98.6328125,0.0
116.26953125,-30.2734375,-37.109375,-34.66796875,-42.96875,16.6015625,0.0
116.2734375,-72.75390625,-33.69140625,-30.76171875,-43.9453125,28.80859375,0.0
116.27734375,-81.54296875,-43.9453125,-29.296875,-54.19921875,-62.01171875,0.0
116.28125,-61.03515625,-50.29296875,-33.203125,-44.921875,-50.78125,0.0
116.28515625,-36.1328125,-37.59765625,-28.3203125,-38.0859375,-32.71484375,0.0
116.2890625,-49.31640625,-32.2265625,-23.4375,-44.921875,-50.29296875,0.0
116.29296875,-66.89453125,-38.57421875,-21.484375,-42.48046875,-36.1328125,0.0
116.296875,-52.24609375,-38.0859375,-20.99609375,-35.15625,-148.4375,0.0
116.30078125,-48.33984375,-33.203125,-21.484375,-42.48046875,-307.12890625,0.0
116.3046875,-38.57421875,-32.71484375,-24.4140625,-42.96875,-249.0234375,0.0
116.30859375,-19.53125,-41.015625,-26.85546875,-36.1328125,-107.421875,0.0
116.3125,-10.25390625,-36.1328125,-26.85546875,-51.26953125,48.828125,0.0
116.31640625,-25.390625,-29.296875,-29.78515625,-63.96484375,109.86328125,0.0
116.3203125,-32.2265625,-32.71484375,-29.296875,-60.546875,26.85546875,0.0
116.32421875,6.34765625,-36.1328125,-20.01953125,-57.6171875,-81.54296875,0.0
116.328125,-32.2265625,-38.57421875,-25.390625,-67.3828125,-42.96875,0.0
116.33203125,-77.1484375,-42.96875,-30.76171875,-73.2421875,130.859375,0.0
116.3359375,-50.78125,-37.109375,-27.34375,-69.82421875,122.55859375,0.0
116.33984375,-22.94921875,-37.59765625,-34.66796875,-68.359375,35.64453125,0.0
116.34375,-24.90234375,-45.41015625,-34.1796875,-56.15234375,-7.8125,0.0
116.34765625,-9.27734375,-40.0390625,-27.83203125,-54.19921875,55.6640625,0.0
116.3515625,0.0,-42.96875,-31.73828125,-61.03515625,100.09765625,0.0
116.35546875,-28.80859375,-45.41015625,-33.203125,-58.59375,-18.5546875,0.0
116.359375,-37.59765625,-39.0625,-39.0625,-62.5,-125.9765625,0.0
116.36328125,-34.1796875,-36.1328125,-43.45703125,-63.4765625,-145.5078125,0.0
116.3671875,-27.83203125,-31.25,-32.71484375,-44.921875,-52.24609375,0.0
116.37109375,-24.90234375,-30.2734375,-35.15625,-36.1328125,49.8046875,0.0
116.375,-42.96875,-45.41015625,-41.9921875,-34.1796875,62.5,0.0
116.37890625,-46.875,-44.921875,-41.9921875,-44.43359375,-80.078125,0.0
116.3828125,-34.66796875,-37.109375,-34.1796875,-40.0390625,-155.76171875,0.0
116.38671875,-43.45703125,-41.015625,-34.1796875,-36.62109375,-63.4765625,0.0
116.390625,-18.5546875,-36.1328125,-45.41015625,-54.6875,63.96484375,0.0
116.39453125,-41.9921875,-30.2734375,-52.734375,-59.5703125,143.5546875,0.0
116.3984375,-62.01171875,-38.0859375,-50.78125,-59.5703125,41.50390625,0.0
116.40234375,-51.7578125,-50.29296875,-49.8046875,-68.359375,-72.265625,0.0
116.40625,-75.1953125,-55.17578125,-49.8046875,-69.3359375,-0.9765625,0.0
116.41015625,-57.12890625,-52.734375,-43.45703125,-69.3359375,62.98828125,0.0
116.4140625,-8.30078125,-41.9921875,-36.1328125,-57.12890625,23.4375,0.0
116.41796875,-1.46484375,-37.109375,-37.109375,-61.5234375,-45.41015625,0.0
116.421875,-15.13671875,-30.76171875,-36.1328125,-69.82421875,-74.21875,0.0
116.42578125,-56.640625,-32.71484375,-29.78515625,-58.10546875,-10.7421875,0.0
116.4296875,-75.68359375,-43.9453125,-29.78515625,-40.52734375,63.96484375,0.0
116.43359375,-17.08984375,-41.9921875,-26.85546875,-43.45703125,81.0546875,0.0
116.4375,5.37109375,-36.62109375,-17.578125,-38.57421875,32.2265625,0.0
116.44140625,-21.484375,-36.1328125,-22.4609375,-20.5078125,-173.33984375,0.0
116.4453125,-16.11328125,-36.62109375,-31.25,-6.34765625,-137.6953125,0.0
116.44921875,-3.41796875,-41.50390625,-31.73828125,-15.625,22.4609375,0.0
116.453125,-29.78515625,-38.57421875,-33.203125,-30.76171875,88.37890625,0.0
116.45703125,-33.69140625,-33.203125,-35.15625,-16.6015625,67.87109375,0.0
116.4609375,-16.11328125,-36.62109375,-37.109375,-25.390625,-105.95703125,0.0
116.46484375,-31.25,-36.62109375,-34.66796875,-40.0390625,-119.140625,0.0
116.46875,-5.859375,-33.203125,-31.25,-29.78515625,35.15625,0.0
116.47265625,9.27734375,-28.80859375,-27.83203125,-20.99609375,104.4921875,0.0
116.4765625,-38.57421875,-27.83203125,-31.73828125,-34.66796875,-13.671875,0.0
116.48046875,-41.50390625,-26.3671875,-32.71484375,-39.55078125,-133.7890625,0.0
116.484375,-41.50390625,-24.4140625,-30.76171875,-36.62109375,-154.296875,0.0
116.48828125,-60.546875,-26.85546875,-32.2265625,-41.9921875,-66.89453125,0.0
116.4921875,-45.8984375,-27.83203125,-28.3203125,-43.9453125,70.3125,0.0
116.49609375,-43.9453125,-22.4609375,-34.1796875,-49.8046875,22.94921875,0.0
116.5,-67.87109375,-24.4140625,-39.0625,-54.19921875,-147.94921875,0.0
116.50390625,-60.05859375,-33.203125,-29.296875,-44.43359375,-175.78125,0.0
116.5078125,-54.6875,-27.83203125,-23.4375,-38.0859375,-50.29296875,0.0
116.51171875,-54.19921875,-29.296875,-15.625,-40.52734375,-28.80859375,0.0
116.515625,-40.0390625,-35.64453125,-20.99609375,-37.59765625,-28.3203125,0.0
116.51953125,-59.08203125,-27.83203125,-29.78515625,-24.4140625,-155.76171875,0.0
116.5234375,-78.125,-29.296875,-27.83203125,-22.94921875,-230.46875,0.0
116.52734375,-56.640625,-31.25,-28.3203125,-31.25,-38.0859375,0.0
116.53125,-62.98828125,-37.59765625,-25.87890625,-19.53125,123.53515625,0.0
116.53515625,-63.96484375,-49.31640625,-20.99609375,-12.6953125,103.515625,0.0
116.5390625,-28.3203125,-43.45703125,-24.90234375,-23.92578125,-23.4375,0.0
116.54296875,-44.43359375,-38.0859375,-30.2734375,-34.1796875,-58.10546875,0.0
116.546875,-85.44921875,-36.1328125,-34.1796875,-46.38671875,76.171875,0.0
116.55078125,-72.75390625,-34.66796875,-36.62109375,-35.15625,143.06640625,0.0
116.5546875,-49.8046875,-39.55078125,-34.1796875,-10.7421875,86.42578125,0.0
116.55859375,-57.6171875,-42.48046875,-36.62109375,-15.13671875,-87.40234375,0.0
116.5625,-50.29296875,-40.0390625,-39.55078125,-17.578125,-170.8984375,0.0
116.56640625,-18.5546875,-32.71484375,-35.15625,-26.85546875,-73.2421875,0.0
116.5703125,-44.43359375,-29.78515625,-35.64453125,-34.1796875,13.18359375,0.0
116.57421875,-40.0390625,-35.15625,-32.71484375,-29.296875,20.5078125,0.0
116.578125,-5.859375,-36.62109375,-30.2734375,-27.34375,-91.796875,0.0
116.58203125,-16.11328125,-29.296875,-29.296875,-28.3203125,-185.546875,0.0
116.5859375,-22.4609375,-30.76171875,-26.3671875,-25.390625,-134.765625,0.0
116.58984375,-18.5546875,-38.57421875,-31.25,-20.5078125,0.48828125,0.0
116.59375,-33.203125,-38.57421875,-43.45703125,-30.2734375,138.671875,0.0
116.59765625,-39.0625,-33.203125,-47.36328125,-33.69140625,64.453125,0.0
116.6015625,-52.734375,-31.73828125,-45.41015625,-27.34375,-48.828125,0.0
116.60546875,-54.19921875,-37.109375,-46.875,-22.94921875,-88.8671875,0.0
116.609375,-25.390625,-37.109375,-44.43359375,-28.3203125,-60.546875,0.0
116.61328125,-32.2265625,-36.62109375,-39.55078125,-34.66796875,-33.203125,0.0
116.6171875,-27.83203125,-38.57421875,-37.59765625,-38.0859375,-143.5546875,0.0
116.62109375,-62.98828125,-37.109375,-35.64453125,-37.59765625,-213.8671875,0.0
116.625,-111.81640625,-40.0390625,-36.62109375,-38.0859375,-100.09765625,0.0
116.62890625,-88.37890625,-37.59765625,-33.69140625,-23.92578125,32.71484375,0.0
116.6328125,-72.265625,-35.15625,-28.80859375,-15.625,119.62890625,0.0
116.63671875,-46.38671875,-37.59765625,-29.296875,-21.97265625,74.21875,0.0
116.640625,-27.83203125,-33.203125,-28.80859375,-24.4140625,5.859375,0.0
116.64453125,-17.578125,-27.83203125,-31.73828125,-25.87890625,-50.29296875,0.0
116.6484375,-22.4609375,-33.69140625,-32.71484375,-28.3203125,27.34375,0.0
116.65234375,-15.625,-33.203125,-24.4140625,-26.3671875,93.26171875,0.0
116.65625,-22.4609375,-29.296875,-23.92578125,-23.92578125,-9.765625,0.0
116.66015625,-19.53125,-32.71484375,-30.2734375,-24.4140625,-125.0,0.0
116.6640625,-35.64453125,-29.296875,-30.2734375,-23.92578125,-130.37109375,0.0
116.66796875,-42.48046875,-23.92578125,-25.390625,-24.90234375,-67.3828125,0.0
116.671875,-26.85546875,-27.34375,-23.92578125,-30.2734375,-46.38671875,0.0
116.67578125,-41.9921875,-25.390625,-24.4140625,-41.50390625,-43.9453125,0.0
116.6796875,-62.01171875,-23.4375,-26.3671875,-35.64453125,-240.72265625,0.0
116.68359375,-37.59765625,-33.69140625,-25.87890625,-24.4140625,-365.234375,0.0
116.6875,-2.44140625,-35.15625,-26.85546875,-32.2265625,-164.55078125,0.0
116.69140625,-11.23046875,-30.76171875,-26.3671875,-32.2265625,18.06640625,0.0
116.6953125,-25.390625,-32.2265625,-27.34375,-27.83203125,81.54296875,0.0
116.69921875,-18.06640625,-38.0859375,-29.78515625,-17.08984375,-17.08984375,0.0
116.703125,-7.8125,-44.43359375,-29.78515625,-22.94921875,-132.8125,0.0
116.70703125,-59.08203125,-38.0859375,-29.78515625,-26.3671875,-55.6640625,0.0
116.7109375,-75.1953125,-27.83203125,-20.5078125,-23.92578125,126.953125,0.0
116.71484375,-32.71484375,-32.2265625,-23.92578125,-35.15625,143.5546875,0.0
116.71875,-34.1796875,-36.1328125,-25.390625,-36.1328125,-56.15234375,0.0
116.72265625,-62.5,-34.66796875,-21.484375,-38.57421875,-80.078125,0.0
116.7265625,-43.45703125,-33.69140625,-23.92578125,-34.66796875,51.26953125,0.0
116.73046875,-33.69140625,-24.4140625,-20.99609375,-13.671875,114.74609375,0.0
116.734375,-30.76171875,-17.578125,-17.08984375,-21.484375,127.44140625,0.0
116.73828125,-6.8359375,-19.04296875,-19.53125,-31.73828125,-88.8671875,0.0
116.7421875,10.25390625,-12.20703125,-19.04296875,-17.578125,-182.6171875,0.0
116.74609375,3.41796875,-11.71875,-20.99609375,-20.01953125,-7.8125,0.0
116.75,-2.44140625,-25.390625,-25.390625,-28.3203125,92.28515625,0.0
116.75390625,0.48828125,-28.3203125,-23.92578125,-4.8828125,168.45703125,0.0
116.7578125,-13.671875,-25.390625,-18.06640625,11.23046875,-16.11328125,0.0
116.76171875,-33.203125,-26.85546875,-26.3671875,-20.01953125,-209.9609375,0.0
116.765625,-40.0390625,-37.109375,-28.80859375,-20.01953125,-147.94921875,0.0
116.76953125,-22.94921875,-26.85546875,-16.11328125,-0.48828125,-81.54296875,0.0
116.7734375,4.8828125,-10.7421875,-13.671875,6.34765625,-88.8671875,0.0
116.77734375,-15.625,-23.4375,-19.04296875,8.30078125,-140.13671875,0.0
116.78125,-39.55078125,-32.2265625,-22.94921875,-20.5078125,-152.83203125,0.0
116.78515625,-43.45703125,-31.73828125,-24.4140625,-29.78515625,-181.640625,0.0
116.7890625,-59.08203125,-29.78515625,-28.3203125,-34.66796875,-138.671875,0.0
116.79296875,-54.6875,-27.83203125,-27.34375,-44.921875,0.9765625,0.0
116.796875,-42.48046875,-34.66796875,-30.76171875,-55.17578125,-51.7578125,0.0
116.80078125,-65.91796875,-31.73828125,-34.1796875,-75.68359375,-186.03515625,0.0
116.8046875,-85.44921875,-28.3203125,-29.296875,-79.58984375,-149.4140625,0.0
116.80859375,-91.796875,-38.57421875,-28.3203125,-70.3125,34.66796875,0.0
116.8125,-90.33203125,-41.50390625,-27.34375,-71.2890625,126.953125,0.0
116.81640625,-87.40234375,-36.1328125,-25.390625,-82.03125,81.0546875,0.0
116.8203125,-60.05859375,-33.69140625,-25.390625,-94.7265625,-23.92578125,0.0
116.82421875,-37.109375,-38.0859375,-29.296875,-86.42578125,-99.609375,0.0
116.828125,-8.30078125,-32.2265625,-30.2734375,-72.265625,-13.18359375,0.0
116.83203125,40.52734375,-24.90234375,-26.85546875,-59.5703125,91.30859375,0.0
116.8359375,72.265625,-33.69140625,-28.3203125,-62.5,7.8125,0.0
116.83984375,94.23828125,-37.59765625,-29.78515625,-77.1484375,-98.6328125,0.0
116.84375,93.26171875,-33.69140625,-30.2734375,-77.63671875,-140.13671875,0.0
116.84765625,51.7578125,-32.71484375,-30.76171875,-65.91796875,-38.57421875,0.0
116.8515625,39.0625,-35.15625,-27.83203125,-48.33984375,30.76171875,0.0
116.85546875,39.0625,-33.203125,-31.25,-55.6640625,8.30078125,0.0
116.859375,25.390625,-31.25,-39.0625,-73.73046875,-39.0625,0.0
116.86328125,24.4140625,-29.78515625,-36.62109375,-61.03515625,-62.98828125,0.0
116.8671875,40.52734375,-26.85546875,-34.1796875,-47.8515625,88.8671875,0.0
116.87109375,36.1328125,-33.69140625,-41.50390625,-54.19921875,146.484375,0.0
116.875,26.3671875,-33.203125,-38.0859375,-59.08203125,76.66015625,0.0
116.87890625,5.859375,-31.25,-29.78515625,-60.05859375,-40.0390625,0.0
116.8828125,-11.23046875,-29.78515625,-27.83203125,-60.05859375,-154.78515625,0.0
116.88671875,-1.46484375,-32.2265625,-23.92578125,-62.98828125,-85.9375,0.0
116.890625,17.578125,-33.203125,-25.87890625,-46.38671875,-54.19921875,0.0
116.89453125,3.90625,-26.85546875,-29.78515625,-41.50390625,4.8828125,0.0
116.8984375,19.04296875,-31.73828125,-25.390625,-75.68359375,-16.11328125,0.0
116.90234375,47.36328125,-37.59765625,-26.85546875,-86.42578125,-194.3359375,0.0
116.90625,39.55078125,-33.69140625,-31.73828125,-86.42578125,-91.30859375,0.0
116.91015625,31.73828125,-34.66796875,-25.87890625,-79.58984375,84.47265625,0.0
116.9140625,1.46484375,-39.55078125,-24.90234375,-59.08203125,109.86328125,0.0
116.91796875,16.11328125,-38.0859375,-25.390625,-61.03515625,-12.6953125,0.0
116.921875,32.71484375,-38.0859375,-30.76171875,-66.89453125,-93.26171875,0.0
116.92578125,27.34375,-43.9453125,-36.62109375,-91.796875,-24.4140625,0.0
116.9296875,39.0625,-38.57421875,-34.66796875,-87.40234375,29.78515625,0.0
116.93359375,45.41015625,-27.34375,-34.1796875,-53.7109375,64.94140625,0.0
116.9375,38.0859375,-28.80859375,-35.64453125,-17.08984375,29.296875,0.0
116.94140625,20.99609375,-35.15625,-35.64453125,-33.203125,-85.9375,0.0
116.9453125,19.04296875,-37.59765625,-34.66796875,-47.36328125,-124.0234375,0.0
116.94921875,41.015625,-47.8515625,-33.69140625,-27.83203125,-1.953125,0.0
116.953125,55.17578125,-41.015625,-33.203125,-21.484375,52.734375,0.0
116.95703125,15.625,-29.78515625,-37.109375,-20.99609375,9.27734375,0.0
116.9609375,-6.8359375,-36.1328125,-40.52734375,-20.99609375,-106.93359375,0.0
116.96484375,-6.34765625,-34.1796875,-44.921875,-29.78515625,-128.90625,0.0
116.96875,-18.06640625,-29.78515625,-43.9453125,-16.6015625,76.66015625,0.0
116.97265625,-1.46484375,-28.3203125,-38.57421875,20.5078125,104.00390625,0.0
116.9765625,11.23046875,-27.34375,-37.59765625,25.390625,-98.14453125,0.0
116.98046875,3.41796875,-29.78515625,-38.0859375,13.18359375,-210.9375,0.0
116.984375,-3.41796875,-26.85546875,-41.9921875,-1.46484375,-239.2578125,0.0
116.98828125,1.46484375,-39.0625,-42.48046875,-10.7421875,-123.53515625,0.0
116.9921875,9.765625,-38.57421875,-38.0859375,18.06640625,-60.546875,0.0
116.99609375,-3.90625,-35.15625,-35.64453125,30.2734375,-173.828125,0.0
117.0,-30.2734375,-38.57421875,-42.48046875,21.484375,-293.9453125,0.0
117.00390625,-12.20703125,-30.76171875,-43.9453125,14.6484375,-286.62109375,0.0
117.0078125,-3.90625,-24.90234375,-42.96875,15.625,-208.984375,0.0
117.01171875,-5.859375,-27.34375,-41.50390625,31.73828125,-121.58203125,0.0
117.015625,-8.7890625,-34.1796875,-35.15625,38.0859375,13.671875,0.0
117.01953125,-43.9453125,-40.0390625,-41.015625,35.15625,10.25390625,0.0
117.0234375,-40.0390625,-37.59765625,-48.828125,36.1328125,-127.44140625,0.0
117.02734375,-21.484375,-33.203125,-38.57421875,55.17578125,-58.10546875,0.0
117.03125,-45.41015625,-42.48046875,-34.1796875,40.0390625,75.68359375,0.0
117.03515625,-37.109375,-37.59765625,-41.50390625,34.66796875,90.33203125,0.0
117.0390625,-26.85546875,-28.3203125,-43.45703125,54.19921875,-32.2265625,0.0
117.04296875,-18.06640625,-30.2734375,-42.48046875,55.6640625,-159.1796875,0.0
117.046875,-28.80859375,-33.69140625,-40.52734375,60.546875,-22.4609375,0.0
117.05078125,-48.33984375,-33.69140625,-40.0390625,58.59375,109.86328125,0.0
117.0546875,-50.29296875,-34.1796875,-39.55078125,54.19921875,99.609375,0.0
117.05859375,-33.203125,-35.15625,-36.1328125,55.17578125,51.7578125,0.0
117.0625,-50.78125,-37.59765625,-34.1796875,51.26953125,-81.0546875,0.0
117.06640625,-40.52734375,-35.64453125,-31.73828125,65.4296875,8.30078125,0.0
117.0703125,-8.7890625,-42.48046875,-33.203125,97.16796875,161.1328125,0.0
117.07421875,-35.64453125,-41.9921875,-34.1796875,81.0546875,81.54296875,0.0
117.078125,-51.26953125,-38.57421875,-40.0390625,62.01171875,-26.3671875,0.0
117.08203125,-39.55078125,-35.64453125,-41.9921875,82.03125,-40.0390625,0.0
117.0859375,-45.8984375,-40.52734375,-37.59765625,85.9375,74.21875,0.0
117.08984375,-41.9921875,-39.0625,-38.0859375,88.8671875,158.69140625,0.0
117.09375,-30.2734375,-37.59765625,-39.55078125,93.75,121.58203125,0.0
117.09765625,-55.17578125,-41.50390625,-36.1328125,93.75,-2.9296875,0.0
117.1015625,-70.80078125,-35.15625,-26.85546875,102.05078125,-118.65234375,0.0
117.10546875,-77.63671875,-28.80859375,-24.90234375,89.35546875,-55.6640625,0.0
117.109375,-48.828125,-24.90234375,-27.34375,54.19921875,120.1171875,0.0
117.11328125,-23.4375,-23.92578125,-23.92578125,38.57421875,171.875,0.0
117.1171875,-35.15625,-23.4375,-17.578125,42.96875,22.94921875,0.0
117.12109375,-47.8515625,-19.53125,-15.13671875,43.45703125,-141.11328125,0.0
117.125,-47.8515625,-29.78515625,-19.53125,44.43359375,-114.74609375,0.0
117.12890625,-59.08203125,-33.69140625,-20.5078125,42.96875,38.57421875,0.0
117.1328125,-56.640625,-20.5078125,-18.06640625,36.62109375,76.171875,0.0
117.13671875,-49.31640625,-17.578125,-21.97265625,36.62109375,27.34375,0.0
117.140625,-30.76171875,-21.484375,-24.4140625,38.0859375,-32.2265625,0.0
117.14453125,-36.62109375,-24.4140625,-29.78515625,28.80859375,-66.89453125,0.0
117.1484375,-56.15234375,-24.90234375,-30.2734375,34.1796875,-47.8515625,0.0
117.15234375,-40.0390625,-29.296875,-25.390625,41.50390625,40.0390625,0.0
117.15625,-26.3671875,-30.2734375,-20.01953125,37.59765625,132.32421875,0.0
117.16015625,-50.78125,-31.25,-23.4375,34.1796875,10.7421875,0.0
117.1640625,-60.546875,-34.1796875,-25.87890625,34.66796875,-126.46484375,0.0
117.16796875,-55.17578125,-29.296875,-25.390625,41.50390625,-45.41015625,0.0
117.171875,-42.48046875,-34.1796875,-29.78515625,38.57421875,107.421875,0.0
117.17578125,-32.71484375,-25.87890625,-33.69140625,41.50390625,76.66015625,0.0
117.1796875,-46.875,-20.5078125,-33.203125,46.875,-91.30859375,0.0
117.18359375,-62.01171875,-30.76171875,-31.73828125,41.9921875,-159.66796875,0.0
117.1875,-49.8046875,-37.109375,-31.73828125,49.8046875,-71.77734375,0.0
117.19140625,-12.6953125,-30.76171875,-30.76171875,57.6171875,83.984375,0.0
117.1953125,-31.73828125,-32.2265625,-32.2265625,54.6875,56.640625,0.0
