timestamp,TP9,AF7,AF8,TP10,AUX,Marker,
14.00390625,5.37109375,-105.95703125,-98.14453125,-89.84375,-46.875,0.0
14.0078125,-2.44140625,-104.98046875,-99.609375,-100.09765625,-55.6640625,0.0
14.01171875,-12.6953125,-104.4921875,-95.21484375,-101.07421875,-71.2890625,0.0
14.015625,0.0,-99.12109375,-90.33203125,-97.16796875,-55.6640625,0.0
14.01953125,-7.8125,-96.19140625,-102.05078125,-111.81640625,-32.71484375,0.0
14.0234375,-21.484375,-96.19140625,-107.421875,-118.1640625,-80.078125,0.0
14.02734375,-12.6953125,-105.95703125,-102.5390625,-113.76953125,-62.98828125,0.0
14.03125,-9.27734375,-111.81640625,-99.609375,-89.84375,-43.45703125,0.0
14.03515625,-7.8125,-108.3984375,-100.09765625,-80.56640625,-30.76171875,0.0
14.0390625,2.9296875,-102.5390625,-101.07421875,-73.2421875,75.1953125,0.0
14.04296875,0.9765625,-104.00390625,-104.4921875,-98.6328125,98.14453125,0.0
14.046875,-19.04296875,-111.81640625,-108.88671875,-119.140625,37.59765625,0.0
14.05078125,-6.34765625,-107.421875,-107.91015625,-76.66015625,109.375,0.0
14.0546875,16.11328125,-105.46875,-103.02734375,-56.640625,189.453125,0.0
14.05859375,10.25390625,-107.421875,-98.6328125,-85.9375,113.28125,0.0
14.0625,13.671875,-102.05078125,-96.6796875,-93.26171875,10.25390625,0.0
14.06640625,4.39453125,-102.5390625,-94.7265625,-79.58984375,71.77734375,0.0
14.0703125,-5.37109375,-106.4453125,-99.609375,-80.078125,54.6875,0.0
14.07421875,8.7890625,-107.421875,-103.02734375,-83.49609375,-15.625,0.0
14.078125,9.765625,-104.98046875,-106.93359375,-87.890625,39.55078125,0.0
14.08203125,0.0,-101.5625,-104.4921875,-105.95703125,52.24609375,0.0
14.0859375,-8.7890625,-97.16796875,-101.5625,-108.88671875,17.08984375,0.0
14.08984375,-15.13671875,-104.98046875,-104.98046875,-116.69921875,-45.8984375,0.0
14.09375,-8.30078125,-109.86328125,-101.5625,-101.07421875,-111.328125,0.0
14.09765625,-5.859375,-102.5390625,-96.6796875,-82.51953125,-107.421875,0.0
14.1015625,-5.859375,-100.5859375,-97.16796875,-96.6796875,-105.46875,0.0
14.10546875,-3.41796875,-93.75,-97.16796875,-97.16796875,-34.1796875,0.0
14.109375,-7.32421875,-94.7265625,-98.6328125,-96.19140625,29.78515625,0.0
14.11328125,-3.41796875,-96.6796875,-97.65625,-101.07421875,37.109375,0.0
14.1171875,3.90625,-94.23828125,-92.28515625,-93.75,-11.23046875,0.0
14.12109375,3.90625,-91.30859375,-87.40234375,-93.75,-47.36328125,0.0
14.125,-1.46484375,-92.28515625,-87.890625,-96.19140625,-111.328125,0.0
14.12890625,7.32421875,-101.5625,-89.84375,-101.5625,-67.87109375,0.0
14.1328125,13.671875,-99.609375,-83.49609375,-97.65625,-20.99609375,0.0
14.13671875,7.32421875,-101.5625,-83.0078125,-94.7265625,-21.484375,0.0
14.140625,0.0,-114.2578125,-81.54296875,-107.421875,-18.06640625,0.0
14.14453125,-3.41796875,-117.67578125,-86.42578125,-98.14453125,-72.75390625,0.0
14.1484375,-8.7890625,-116.69921875,-93.26171875,-70.80078125,-21.484375,0.0
14.15234375,-15.13671875,-107.91015625,-93.75,-80.56640625,89.84375,0.0
14.15625,-11.71875,-105.46875,-94.7265625,-91.796875,91.30859375,0.0
14.16015625,-11.71875,-105.95703125,-89.35546875,-102.05078125,58.10546875,0.0
14.1640625,-22.4609375,-105.95703125,-79.1015625,-113.28125,-37.109375,0.0
14.16796875,-14.16015625,-109.375,-79.58984375,-99.609375,-54.19921875,0.0
14.171875,-4.8828125,-112.3046875,-80.56640625,-95.21484375,-28.80859375,0.0
14.17578125,-8.30078125,-104.4921875,-78.125,-81.0546875,30.76171875,0.0
14.1796875,-12.20703125,-98.14453125,-83.49609375,-79.58984375,76.66015625,0.0
14.18359375,-18.5546875,-107.91015625,-86.42578125,-93.26171875,70.80078125,0.0
14.1875,-2.9296875,-114.2578125,-85.9375,-81.54296875,85.9375,0.0
14.19140625,6.34765625,-114.2578125,-86.42578125,-62.01171875,70.80078125,0.0
14.1953125,-4.8828125,-112.3046875,-79.1015625,-63.96484375,64.453125,0.0
14.19921875,-10.25390625,-109.375,-68.84765625,-75.68359375,83.0078125,0.0
14.203125,-5.37109375,-111.328125,-78.61328125,-92.7734375,89.84375,0.0
14.20703125,8.30078125,-108.88671875,-81.54296875,-115.234375,133.7890625,0.0
14.2109375,0.48828125,-109.86328125,-83.984375,-109.86328125,92.28515625,0.0
14.21484375,-9.27734375,-111.81640625,-85.44921875,-105.46875,34.66796875,0.0
14.21875,-0.9765625,-108.3984375,-78.61328125,-119.140625,53.7109375,0.0
14.22265625,-2.44140625,-106.93359375,-83.49609375,-107.91015625,24.4140625,0.0
14.2265625,2.44140625,-102.5390625,-83.984375,-81.54296875,-75.1953125,0.0
14.23046875,4.8828125,-97.65625,-74.70703125,-77.63671875,-21.97265625,0.0
14.234375,-11.71875,-103.02734375,-67.87109375,-82.03125,-4.39453125,0.0
14.23828125,-11.71875,-96.6796875,-69.3359375,-77.1484375,-14.16015625,0.0
14.2421875,-3.41796875,-91.30859375,-81.54296875,-89.84375,-65.4296875,0.0
14.24609375,-9.765625,-90.8203125,-90.8203125,-98.14453125,-51.7578125,0.0
14.25,-15.625,-85.44921875,-93.75,-100.09765625,1.46484375,0.0
14.25390625,-9.27734375,-89.35546875,-86.9140625,-96.6796875,-113.28125,0.0
14.2578125,-3.90625,-91.30859375,-79.1015625,-92.7734375,-72.265625,0.0
14.26171875,-5.37109375,-85.9375,-81.0546875,-100.09765625,38.0859375,0.0
14.265625,-8.30078125,-87.40234375,-84.47265625,-85.44921875,-7.32421875,0.0
14.26953125,-7.32421875,-94.7265625,-91.796875,-85.44921875,-30.76171875,0.0
14.2734375,-8.7890625,-96.6796875,-96.6796875,-93.75,-52.24609375,0.0
14.27734375,-10.25390625,-90.8203125,-96.19140625,-99.12109375,-44.921875,0.0
14.28125,-2.9296875,-94.23828125,-96.6796875,-104.98046875,-14.6484375,0.0
14.28515625,-8.7890625,-100.09765625,-91.796875,-107.91015625,-62.5,0.0
14.2890625,-6.34765625,-97.16796875,-87.40234375,-99.609375,-84.47265625,0.0
14.29296875,1.46484375,-101.07421875,-76.171875,-101.07421875,-91.796875,0.0
14.296875,-4.8828125,-104.00390625,-64.94140625,-112.79296875,-73.73046875,0.0
14.30078125,0.0,-99.12109375,-74.21875,-92.28515625,-43.9453125,0.0
14.3046875,8.30078125,-99.609375,-82.51953125,-89.35546875,9.27734375,0.0
14.30859375,18.06640625,-98.6328125,-84.9609375,-106.4453125,47.8515625,0.0
14.3125,9.27734375,-95.703125,-91.30859375,-113.76953125,34.1796875,0.0
14.31640625,10.25390625,-100.5859375,-90.8203125,-114.74609375,48.33984375,0.0
14.3203125,25.87890625,-99.12109375,-83.984375,-102.5390625,29.78515625,0.0
14.32421875,17.08984375,-99.12109375,-94.7265625,-89.35546875,75.68359375,0.0
14.328125,15.625,-101.07421875,-99.609375,-86.9140625,92.28515625,0.0
14.33203125,11.23046875,-99.12109375,-89.35546875,-99.12109375,59.5703125,0.0
14.3359375,4.39453125,-99.12109375,-90.33203125,-90.8203125,1.46484375,0.0
14.33984375,27.83203125,-89.84375,-83.0078125,-69.3359375,-67.87109375,0.0
14.34375,22.94921875,-85.44921875,-74.70703125,-73.73046875,-80.078125,0.0
14.34765625,-8.7890625,-84.47265625,-81.0546875,-85.44921875,-75.68359375,0.0
14.3515625,-14.16015625,-84.9609375,-79.1015625,-88.37890625,-71.77734375,0.0
14.35546875,-14.16015625,-90.33203125,-72.75390625,-83.984375,-48.828125,0.0
14.359375,-13.671875,-85.44921875,-73.2421875,-90.8203125,-79.1015625,0.0
14.36328125,-12.20703125,-83.0078125,-74.21875,-96.19140625,-79.1015625,0.0
14.3671875,-13.18359375,-90.8203125,-77.1484375,-86.9140625,-41.9921875,0.0
14.37109375,-7.8125,-89.84375,-77.63671875,-84.47265625,-86.9140625,0.0
14.375,-12.20703125,-91.30859375,-80.56640625,-82.51953125,-31.73828125,0.0
14.37890625,-20.5078125,-100.5859375,-82.03125,-80.56640625,48.33984375,0.0
14.3828125,-20.01953125,-95.21484375,-73.2421875,-78.61328125,2.9296875,0.0
14.38671875,-15.13671875,-87.890625,-75.68359375,-86.9140625,-23.4375,0.0
14.390625,-18.06640625,-85.9375,-77.1484375,-86.42578125,-20.5078125,0.0
14.39453125,-30.2734375,-83.984375,-60.546875,-81.54296875,-23.4375,0.0
14.3984375,-29.296875,-88.37890625,-58.59375,-106.93359375,17.578125,0.0
14.40234375,-18.06640625,-90.33203125,-70.3125,-102.5390625,15.625,0.0
14.40625,-16.6015625,-88.37890625,-75.68359375,-78.61328125,-9.27734375,0.0
14.41015625,-20.01953125,-87.890625,-78.125,-80.56640625,35.15625,0.0
14.4140625,-26.85546875,-84.47265625,-79.1015625,-93.26171875,-2.9296875,0.0
14.41796875,-13.18359375,-82.51953125,-76.66015625,-85.44921875,-92.28515625,0.0
14.421875,-10.7421875,-86.9140625,-83.0078125,-85.44921875,-55.17578125,0.0
14.42578125,-16.6015625,-89.35546875,-95.703125,-97.16796875,27.34375,0.0
14.4296875,-12.20703125,-94.23828125,-102.05078125,-93.75,13.671875,0.0
14.43359375,-16.11328125,-96.19140625,-103.02734375,-95.703125,17.578125,0.0
14.4375,-23.92578125,-89.35546875,-100.5859375,-99.12109375,36.62109375,0.0
14.44140625,-12.6953125,-84.47265625,-96.19140625,-75.68359375,17.08984375,0.0
14.4453125,-15.13671875,-85.9375,-91.796875,-51.26953125,32.71484375,0.0
14.44921875,-15.13671875,-85.9375,-87.890625,-69.3359375,51.7578125,0.0
14.453125,0.0,-84.9609375,-79.1015625,-66.89453125,71.77734375,0.0
14.45703125,-5.37109375,-85.44921875,-76.171875,-50.29296875,-26.85546875,0.0
14.4609375,-7.32421875,-87.890625,-74.70703125,-55.17578125,-72.75390625,0.0
14.46484375,-5.37109375,-91.796875,-76.171875,-68.84765625,5.859375,0.0
14.46875,-6.34765625,-97.16796875,-83.984375,-87.40234375,0.9765625,0.0
14.47265625,-10.25390625,-100.09765625,-87.890625,-88.8671875,-66.40625,0.0
14.4765625,-17.08984375,-100.09765625,-81.0546875,-95.21484375,-49.8046875,0.0
14.48046875,-14.16015625,-98.14453125,-80.078125,-96.6796875,-33.69140625,0.0
14.484375,-6.34765625,-92.7734375,-84.9609375,-91.796875,-33.203125,0.0
14.48828125,-1.46484375,-92.28515625,-83.0078125,-72.265625,4.8828125,0.0
14.4921875,-4.8828125,-90.8203125,-77.1484375,-63.96484375,46.875,0.0
14.49609375,-9.27734375,-90.33203125,-80.078125,-65.4296875,-7.32421875,0.0
14.5,3.41796875,-97.65625,-78.61328125,-68.84765625,3.90625,0.0
14.50390625,4.8828125,-99.609375,-73.73046875,-76.171875,66.89453125,0.0
14.5078125,-15.625,-100.5859375,-79.58984375,-81.0546875,61.5234375,0.0
14.51171875,-26.85546875,-106.93359375,-85.44921875,-81.0546875,-24.90234375,0.0
14.515625,-25.87890625,-108.3984375,-83.0078125,-79.1015625,-190.4296875,0.0
14.51953125,-22.4609375,-103.02734375,-86.42578125,-95.21484375,-190.4296875,0.0
14.5234375,-20.5078125,-108.88671875,-90.33203125,-86.9140625,-65.4296875,0.0
14.52734375,-19.53125,-112.3046875,-92.28515625,-76.171875,15.625,0.0
14.53125,-19.53125,-114.74609375,-89.35546875,-85.44921875,10.25390625,0.0
14.53515625,-19.04296875,-117.1875,-95.703125,-85.44921875,-0.48828125,0.0
14.5390625,-23.4375,-107.421875,-103.515625,-88.8671875,71.2890625,0.0
14.54296875,-16.11328125,-102.05078125,-104.00390625,-88.37890625,85.9375,0.0
14.546875,-14.16015625,-101.5625,-100.09765625,-92.7734375,69.3359375,0.0
14.55078125,-26.3671875,-98.6328125,-94.23828125,-92.7734375,121.58203125,0.0
14.5546875,-26.3671875,-100.5859375,-92.28515625,-86.42578125,88.8671875,0.0
14.55859375,-18.06640625,-104.00390625,-102.05078125,-87.890625,-15.13671875,0.0
14.5625,-14.16015625,-104.98046875,-110.83984375,-83.49609375,16.6015625,0.0
14.56640625,-19.53125,-102.05078125,-102.05078125,-102.5390625,95.703125,0.0
14.5703125,-19.04296875,-96.19140625,-92.7734375,-90.8203125,82.03125,0.0
14.57421875,-15.13671875,-95.21484375,-87.40234375,-75.1953125,69.82421875,0.0
14.578125,-25.390625,-96.6796875,-77.63671875,-79.1015625,125.48828125,0.0
14.58203125,-25.87890625,-93.75,-74.21875,-64.453125,80.078125,0.0
14.5859375,-22.94921875,-94.7265625,-84.47265625,-81.54296875,0.0,0.0
14.58984375,-24.90234375,-102.5390625,-90.33203125,-103.02734375,-2.44140625,0.0
14.59375,-25.390625,-105.46875,-88.37890625,-104.00390625,15.13671875,0.0
14.59765625,-24.4140625,-104.98046875,-87.40234375,-104.4921875,-73.2421875,0.0
14.6015625,-21.97265625,-105.46875,-85.44921875,-105.46875,-185.546875,0.0
14.60546875,-24.4140625,-103.515625,-87.890625,-103.02734375,-65.4296875,0.0
14.609375,-35.64453125,-111.81640625,-89.35546875,-104.98046875,-18.5546875,0.0
14.61328125,-35.64453125,-120.60546875,-79.1015625,-101.07421875,-129.8828125,0.0
14.6171875,-34.66796875,-117.67578125,-68.359375,-93.75,-111.328125,0.0
14.62109375,-37.59765625,-115.72265625,-63.96484375,-86.42578125,-85.44921875,0.0
14.625,-24.4140625,-116.2109375,-66.89453125,-91.796875,-123.53515625,0.0
14.62890625,-19.53125,-115.72265625,-71.77734375,-101.07421875,-33.203125,0.0
14.6328125,-28.3203125,-112.79296875,-70.80078125,-94.7265625,53.22265625,0.0
14.63671875,-22.94921875,-102.5390625,-67.87109375,-93.75,22.94921875,0.0
14.640625,-23.92578125,-102.5390625,-66.40625,-97.16796875,24.4140625,0.0
14.64453125,-33.203125,-104.4921875,-69.82421875,-94.7265625,62.98828125,0.0
14.6484375,-32.71484375,-103.02734375,-81.0546875,-71.77734375,92.7734375,0.0
14.65234375,-34.1796875,-116.69921875,-82.03125,-64.94140625,83.0078125,0.0
14.65625,-37.109375,-123.53515625,-79.1015625,-76.66015625,68.84765625,0.0
14.66015625,-35.64453125,-112.3046875,-71.2890625,-80.078125,67.3828125,0.0
14.6640625,-34.66796875,-104.98046875,-69.82421875,-78.125,8.7890625,0.0
14.66796875,-38.57421875,-110.83984375,-83.984375,-83.49609375,-37.109375,0.0
14.671875,-31.73828125,-109.86328125,-82.51953125,-87.40234375,-10.25390625,0.0
14.67578125,-28.3203125,-107.91015625,-72.75390625,-95.21484375,-5.37109375,0.0
14.6796875,-54.19921875,-115.72265625,-70.80078125,-104.4921875,-29.296875,0.0
14.68359375,-45.8984375,-118.1640625,-72.265625,-101.07421875,25.87890625,0.0
14.6875,-28.3203125,-120.60546875,-66.89453125,-93.75,49.31640625,0.0
14.69140625,-39.0625,-125.0,-56.15234375,-95.703125,-16.11328125,0.0
14.6953125,-41.015625,-124.0234375,-53.22265625,-88.37890625,-6.34765625,0.0
14.69921875,-37.109375,-123.046875,-59.5703125,-86.9140625,23.4375,0.0
14.703125,-39.55078125,-125.48828125,-69.3359375,-103.02734375,19.53125,0.0
14.70703125,-46.38671875,-123.53515625,-77.1484375,-98.6328125,-4.39453125,0.0
14.7109375,-49.31640625,-125.9765625,-79.58984375,-98.6328125,-78.61328125,0.0
14.71484375,-48.828125,-126.953125,-84.9609375,-97.16796875,-107.421875,0.0
14.71875,-48.33984375,-119.140625,-80.56640625,-75.68359375,-43.9453125,0.0
14.72265625,-49.31640625,-124.51171875,-84.47265625,-83.0078125,80.078125,0.0
14.7265625,-50.78125,-129.39453125,-99.609375,-80.078125,16.6015625,0.0
14.73046875,-56.15234375,-130.859375,-98.6328125,-92.28515625,-65.4296875,0.0
14.734375,-54.19921875,-132.8125,-98.6328125,-114.2578125,28.3203125,0.0
14.73828125,-45.8984375,-124.0234375,-102.5390625,-105.95703125,54.19921875,0.0
14.7421875,-42.96875,-121.09375,-104.4921875,-87.890625,-22.94921875,0.0
14.74609375,-37.109375,-124.51171875,-104.98046875,-91.796875,-69.82421875,0.0
14.75,-49.31640625,-122.55859375,-107.421875,-103.02734375,-83.0078125,0.0
14.75390625,-56.15234375,-122.55859375,-106.93359375,-96.19140625,-83.0078125,0.0
14.7578125,-41.015625,-123.046875,-106.93359375,-80.078125,-45.41015625,0.0
14.76171875,-40.0390625,-120.1171875,-104.4921875,-91.796875,-30.2734375,0.0
14.765625,-44.43359375,-116.2109375,-110.3515625,-85.44921875,-55.17578125,0.0
14.76953125,-35.64453125,-114.2578125,-117.67578125,-70.3125,6.8359375,0.0
14.7734375,-35.64453125,-115.72265625,-116.69921875,-71.2890625,-34.66796875,0.0
14.77734375,-49.8046875,-123.53515625,-120.60546875,-76.171875,-82.03125,0.0
14.78125,-48.33984375,-124.51171875,-130.37109375,-87.890625,41.015625,0.0
14.78515625,-53.22265625,-121.58203125,-132.32421875,-107.91015625,94.7265625,0.0
14.7890625,-78.61328125,-131.34765625,-138.671875,-106.93359375,76.66015625,0.0
14.79296875,-63.96484375,-128.90625,-135.7421875,-110.3515625,43.9453125,0.0
14.796875,-43.9453125,-127.9296875,-134.765625,-122.55859375,-16.6015625,0.0
14.80078125,-64.453125,-141.6015625,-153.80859375,-133.7890625,-83.0078125,0.0
14.8046875,-75.68359375,-144.04296875,-164.0625,-152.34375,-44.43359375,0.0
14.80859375,-42.48046875,-136.23046875,-150.87890625,-129.8828125,-53.22265625,0.0
14.8125,-23.4375,-130.859375,-133.7890625,-103.02734375,2.9296875,0.0
14.81640625,-49.8046875,-137.6953125,-145.01953125,-101.07421875,85.9375,0.0
14.8203125,-63.96484375,-153.3203125,-155.76171875,-116.69921875,59.08203125,0.0
14.82421875,-47.8515625,-152.83203125,-137.6953125,-126.46484375,102.5390625,0.0
14.828125,-40.52734375,-138.18359375,-121.09375,-99.609375,135.7421875,0.0
14.83203125,-58.10546875,-141.6015625,-127.9296875,-103.02734375,114.2578125,0.0
14.8359375,-75.1953125,-156.73828125,-142.578125,-119.62890625,-9.27734375,0.0
14.83984375,-76.66015625,-159.66796875,-142.578125,-122.0703125,-81.54296875,0.0
14.84375,-58.10546875,-147.4609375,-129.39453125,-111.81640625,-23.92578125,0.0
14.84765625,-41.015625,-125.9765625,-114.74609375,-98.6328125,-36.1328125,0.0
14.8515625,-54.6875,-130.859375,-127.9296875,-107.421875,-34.66796875,0.0
14.85546875,-68.84765625,-152.83203125,-145.99609375,-110.3515625,-19.04296875,0.0
14.859375,-65.91796875,-152.83203125,-142.08984375,-106.4453125,-45.41015625,0.0
14.86328125,-46.875,-129.8828125,-115.72265625,-95.703125,-34.66796875,0.0
14.8671875,-41.9921875,-120.1171875,-105.46875,-87.890625,-2.44140625,0.0
14.87109375,-72.265625,-136.23046875,-129.39453125,-112.3046875,7.8125,0.0
14.875,-85.44921875,-145.01953125,-136.23046875,-122.55859375,41.015625,0.0
14.87890625,-73.2421875,-144.53125,-123.53515625,-104.98046875,55.17578125,0.0
14.8828125,-66.89453125,-144.53125,-124.51171875,-108.88671875,39.55078125,0.0
14.88671875,-68.359375,-139.6484375,-130.37109375,-121.09375,72.265625,0.0
14.890625,-76.171875,-141.6015625,-131.8359375,-120.60546875,76.66015625,0.0
14.89453125,-75.1953125,-145.01953125,-129.8828125,-119.62890625,28.3203125,0.0
14.8984375,-81.54296875,-140.13671875,-125.9765625,-125.48828125,49.8046875,0.0
14.90234375,-80.078125,-134.765625,-132.32421875,-124.0234375,111.81640625,0.0
14.90625,-70.3125,-135.25390625,-133.7890625,-117.1875,1.953125,0.0
14.91015625,-75.68359375,-136.23046875,-116.2109375,-115.234375,-102.05078125,0.0
14.9140625,-71.77734375,-133.7890625,-107.421875,-102.5390625,-93.26171875,0.0
14.91796875,-63.96484375,-131.8359375,-120.60546875,-102.5390625,-54.19921875,0.0
14.921875,-61.5234375,-134.27734375,-119.62890625,-130.859375,-61.5234375,0.0
14.92578125,-55.17578125,-131.34765625,-118.65234375,-126.46484375,-89.35546875,0.0
14.9296875,-50.78125,-134.27734375,-122.0703125,-101.5625,-50.78125,0.0
14.93359375,-51.26953125,-141.11328125,-122.0703125,-102.5390625,-10.7421875,0.0
14.9375,-48.33984375,-141.6015625,-123.046875,-98.6328125,-32.71484375,0.0
14.94140625,-49.8046875,-133.7890625,-118.65234375,-112.3046875,-41.50390625,0.0
14.9453125,-54.19921875,-135.25390625,-125.48828125,-133.30078125,-27.34375,0.0
14.94921875,-58.59375,-139.6484375,-130.859375,-96.6796875,-42.48046875,0.0
14.953125,-65.91796875,-142.578125,-127.9296875,-78.125,-7.8125,0.0
14.95703125,-61.5234375,-148.92578125,-131.8359375,-98.6328125,-28.80859375,0.0
14.9609375,-49.31640625,-145.01953125,-139.6484375,-118.1640625,-75.1953125,0.0
14.96484375,-42.96875,-133.7890625,-141.11328125,-109.375,-51.7578125,0.0
14.96875,-57.6171875,-134.27734375,-138.18359375,-105.95703125,-18.5546875,0.0
14.97265625,-69.82421875,-139.6484375,-138.671875,-121.09375,-7.32421875,0.0
14.9765625,-66.89453125,-143.5546875,-141.6015625,-119.140625,25.390625,0.0
14.98046875,-65.4296875,-143.5546875,-141.11328125,-105.95703125,39.55078125,0.0
14.984375,-64.94140625,-147.4609375,-136.23046875,-107.91015625,41.9921875,0.0
14.98828125,-74.70703125,-144.53125,-133.30078125,-123.53515625,56.15234375,0.0
14.9921875,-79.1015625,-140.13671875,-127.9296875,-125.0,31.25,0.0
14.99609375,-70.3125,-141.6015625,-123.046875,-129.8828125,7.8125,0.0
15.0,-73.2421875,-139.16015625,-115.72265625,-133.7890625,-9.765625,0.0
15.00390625,-71.77734375,-138.18359375,-107.91015625,-127.44140625,13.18359375,0.0
15.0078125,-64.94140625,-143.06640625,-116.2109375,-129.39453125,49.8046875,0.0
15.01171875,-75.68359375,-146.97265625,-124.0234375,-135.25390625,1.46484375,0.0
15.015625,-79.58984375,-144.53125,-121.09375,-131.8359375,31.25,0.0
15.01953125,-66.40625,-141.11328125,-125.0,-122.55859375,80.078125,0.0
15.0234375,-63.4765625,-138.671875,-128.41796875,-122.55859375,83.49609375,0.0
15.02734375,-80.078125,-152.83203125,-130.37109375,-130.859375,60.546875,0.0
15.03125,-83.984375,-162.59765625,-135.7421875,-137.6953125,34.1796875,0.0
15.03515625,-75.1953125,-148.92578125,-128.90625,-127.44140625,72.265625,0.0
15.0390625,-72.75390625,-144.53125,-121.58203125,-125.9765625,107.91015625,0.0
15.04296875,-79.58984375,-144.53125,-124.0234375,-129.39453125,59.08203125,0.0
15.046875,-83.49609375,-143.5546875,-130.859375,-137.6953125,-59.5703125,0.0
15.05078125,-81.0546875,-138.671875,-128.90625,-142.578125,-65.91796875,0.0
15.0546875,-80.078125,-132.8125,-127.9296875,-129.39453125,18.5546875,0.0
15.05859375,-78.61328125,-130.859375,-129.39453125,-122.0703125,-15.13671875,0.0
15.0625,-74.21875,-130.859375,-126.953125,-130.37109375,-41.015625,0.0
15.06640625,-72.75390625,-125.48828125,-125.9765625,-134.765625,93.75,0.0
15.0703125,-71.2890625,-120.1171875,-129.39453125,-125.9765625,146.97265625,0.0
15.07421875,-71.2890625,-128.90625,-128.41796875,-123.046875,40.52734375,0.0
15.078125,-66.89453125,-132.32421875,-125.9765625,-124.51171875,21.484375,0.0
15.08203125,-64.453125,-128.41796875,-128.90625,-130.859375,22.4609375,0.0
15.0859375,-66.40625,-125.48828125,-137.20703125,-126.953125,-0.9765625,0.0
15.08984375,-70.3125,-130.859375,-141.11328125,-128.41796875,-44.921875,0.0
15.09375,-67.87109375,-132.32421875,-133.30078125,-125.9765625,-41.50390625,0.0
15.09765625,-71.2890625,-131.8359375,-128.90625,-108.3984375,10.7421875,0.0
15.1015625,-81.0546875,-133.30078125,-128.90625,-132.32421875,40.0390625,0.0
15.10546875,-79.58984375,-131.8359375,-127.9296875,-134.765625,84.47265625,0.0
15.109375,-70.3125,-126.953125,-129.39453125,-110.83984375,37.59765625,0.0
15.11328125,-67.3828125,-122.0703125,-125.0,-119.140625,-9.27734375,0.0
15.1171875,-66.89453125,-120.60546875,-124.0234375,-115.234375,-10.25390625,0.0
15.12109375,-65.91796875,-128.41796875,-132.8125,-110.3515625,-65.91796875,0.0
15.125,-69.82421875,-133.30078125,-143.5546875,-124.51171875,-54.6875,0.0
15.12890625,-61.5234375,-129.8828125,-141.6015625,-129.8828125,16.6015625,0.0
15.1328125,-75.1953125,-130.859375,-135.7421875,-132.32421875,19.53125,0.0
15.13671875,-94.7265625,-130.37109375,-133.7890625,-133.30078125,26.85546875,0.0
15.140625,-78.61328125,-131.34765625,-136.71875,-106.93359375,34.1796875,0.0
15.14453125,-69.3359375,-135.25390625,-147.4609375,-107.91015625,26.85546875,0.0
15.1484375,-71.2890625,-133.7890625,-150.390625,-117.1875,76.66015625,0.0
15.15234375,-61.03515625,-131.34765625,-144.04296875,-98.6328125,71.77734375,0.0
15.15625,-66.89453125,-134.27734375,-135.7421875,-85.9375,6.34765625,0.0
15.16015625,-63.4765625,-135.25390625,-128.90625,-96.19140625,-18.5546875,0.0
15.1640625,-62.5,-132.8125,-123.046875,-106.4453125,-1.953125,0.0
15.16796875,-76.171875,-130.37109375,-125.0,-111.328125,-6.34765625,0.0
15.171875,-81.54296875,-131.34765625,-123.046875,-115.234375,-48.828125,0.0
15.17578125,-96.19140625,-134.765625,-118.65234375,-127.44140625,-59.08203125,0.0
15.1796875,-89.35546875,-132.8125,-124.0234375,-147.4609375,-22.94921875,0.0
15.18359375,-71.2890625,-126.46484375,-125.9765625,-129.8828125,24.90234375,0.0
15.1875,-79.1015625,-125.0,-129.8828125,-113.28125,37.109375,0.0
15.19140625,-83.984375,-125.0,-132.32421875,-113.28125,17.578125,0.0
15.1953125,-66.40625,-124.51171875,-132.32421875,-104.98046875,44.921875,0.0
15.19921875,-64.94140625,-121.09375,-129.39453125,-101.5625,87.890625,0.0
15.203125,-64.94140625,-125.48828125,-129.8828125,-99.609375,111.81640625,0.0
15.20703125,-63.4765625,-130.859375,-138.18359375,-106.4453125,41.50390625,0.0
15.2109375,-76.66015625,-124.0234375,-143.5546875,-124.0234375,-56.15234375,0.0
15.21484375,-83.0078125,-124.51171875,-143.5546875,-125.48828125,-36.1328125,0.0
15.21875,-81.0546875,-130.859375,-144.53125,-116.69921875,20.01953125,0.0
15.22265625,-67.3828125,-127.9296875,-142.08984375,-98.14453125,-3.41796875,0.0
15.2265625,-64.94140625,-119.62890625,-134.27734375,-105.46875,15.13671875,0.0
15.23046875,-71.2890625,-116.2109375,-125.48828125,-114.74609375,32.2265625,0.0
15.234375,-66.89453125,-116.2109375,-121.09375,-104.00390625,50.29296875,0.0
15.23828125,-65.91796875,-119.140625,-115.72265625,-113.28125,44.921875,0.0
15.2421875,-75.1953125,-117.67578125,-109.86328125,-119.140625,1.46484375,0.0
15.24609375,-57.6171875,-108.3984375,-111.81640625,-104.00390625,25.390625,0.0
15.25,-50.78125,-109.86328125,-115.234375,-100.5859375,4.8828125,0.0
15.25390625,-70.3125,-107.91015625,-118.65234375,-95.703125,-106.93359375,0.0
15.2578125,-72.75390625,-109.375,-118.1640625,-92.28515625,-78.61328125,0.0
15.26171875,-75.68359375,-117.1875,-119.62890625,-104.98046875,36.1328125,0.0
15.265625,-75.1953125,-117.67578125,-121.58203125,-115.72265625,47.8515625,0.0
15.26953125,-76.66015625,-115.72265625,-120.60546875,-116.69921875,-18.5546875,0.0
15.2734375,-79.58984375,-117.1875,-112.3046875,-122.0703125,-61.5234375,0.0
15.27734375,-83.49609375,-114.74609375,-112.3046875,-132.8125,-40.52734375,0.0
15.28125,-81.54296875,-114.74609375,-115.72265625,-130.859375,-69.82421875,0.0
15.28515625,-79.1015625,-116.2109375,-113.76953125,-123.53515625,-84.47265625,0.0
15.2890625,-81.54296875,-111.328125,-114.2578125,-125.48828125,18.5546875,0.0
15.29296875,-79.58984375,-113.28125,-112.3046875,-106.93359375,-26.85546875,0.0
15.296875,-65.91796875,-111.81640625,-106.93359375,-116.2109375,-73.73046875,0.0
15.30078125,-65.4296875,-104.98046875,-109.375,-129.8828125,-67.87109375,0.0
15.3046875,-65.91796875,-107.91015625,-113.28125,-110.3515625,-47.8515625,0.0
15.30859375,-69.3359375,-114.2578125,-110.3515625,-113.76953125,46.875,0.0
15.3125,-72.265625,-120.1171875,-111.81640625,-114.2578125,-9.27734375,0.0
15.31640625,-63.96484375,-122.55859375,-112.3046875,-101.5625,-89.84375,0.0
15.3203125,-67.3828125,-120.1171875,-105.95703125,-116.69921875,-57.6171875,0.0
15.32421875,-68.84765625,-120.1171875,-114.74609375,-112.3046875,-54.6875,0.0
15.328125,-69.82421875,-124.51171875,-120.60546875,-102.05078125,-39.0625,0.0
15.33203125,-83.0078125,-130.859375,-118.65234375,-107.91015625,-8.7890625,0.0
15.3359375,-80.078125,-133.30078125,-114.74609375,-111.81640625,-43.9453125,0.0
15.33984375,-79.58984375,-129.8828125,-112.3046875,-107.91015625,-23.4375,0.0
15.34375,-90.8203125,-129.39453125,-115.72265625,-107.421875,4.8828125,0.0
15.34765625,-89.84375,-125.48828125,-119.140625,-116.2109375,-65.4296875,0.0
15.3515625,-86.42578125,-125.48828125,-119.62890625,-109.86328125,-147.4609375,0.0
15.35546875,-89.84375,-122.55859375,-120.60546875,-110.83984375,-134.765625,0.0
15.359375,-92.7734375,-121.09375,-124.0234375,-123.53515625,-58.59375,0.0
15.36328125,-90.8203125,-121.09375,-125.0,-108.3984375,-85.44921875,0.0
15.3671875,-89.84375,-116.2109375,-129.8828125,-101.07421875,-84.9609375,0.0
15.37109375,-95.21484375,-113.76953125,-130.859375,-116.2109375,10.25390625,0.0
15.375,-96.6796875,-121.09375,-125.9765625,-109.375,-44.43359375,0.0
15.37890625,-104.98046875,-124.0234375,-113.76953125,-101.07421875,-78.61328125,0.0
15.3828125,-115.234375,-118.65234375,-112.3046875,-109.86328125,-13.671875,0.0
15.38671875,-110.3515625,-117.67578125,-120.1171875,-104.98046875,9.27734375,0.0
15.390625,-113.28125,-121.58203125,-122.0703125,-114.2578125,18.5546875,0.0
15.39453125,-110.83984375,-116.69921875,-116.2109375,-112.3046875,46.875,0.0
15.3984375,-98.14453125,-111.81640625,-113.28125,-94.7265625,78.61328125,0.0
15.40234375,-85.9375,-117.1875,-114.2578125,-86.42578125,78.61328125,0.0
15.40625,-84.47265625,-117.1875,-114.2578125,-87.40234375,54.6875,0.0
15.41015625,-87.40234375,-111.328125,-115.234375,-83.49609375,71.77734375,0.0
15.4140625,-92.28515625,-105.46875,-111.81640625,-93.75,85.9375,0.0
15.41796875,-96.6796875,-102.5390625,-105.95703125,-104.98046875,20.99609375,0.0
15.421875,-87.40234375,-104.4921875,-102.05078125,-76.66015625,-20.5078125,0.0
15.42578125,-91.796875,-103.02734375,-100.5859375,-69.82421875,-29.296875,0.0
15.4296875,-90.33203125,-105.95703125,-99.12109375,-71.77734375,-70.3125,0.0
15.43359375,-80.56640625,-105.95703125,-100.5859375,-88.37890625,-50.78125,0.0
15.4375,-75.68359375,-101.07421875,-103.515625,-97.16796875,-37.109375,0.0
15.44140625,-87.40234375,-98.6328125,-109.86328125,-99.12109375,-18.06640625,0.0
15.4453125,-94.23828125,-98.14453125,-111.328125,-103.515625,36.62109375,0.0
15.44921875,-78.61328125,-102.5390625,-107.421875,-97.16796875,18.06640625,0.0
15.453125,-78.61328125,-105.95703125,-103.515625,-97.65625,104.98046875,0.0
15.45703125,-97.65625,-107.421875,-95.21484375,-85.9375,135.7421875,0.0
15.4609375,-98.6328125,-106.93359375,-87.890625,-83.0078125,57.6171875,0.0
15.46484375,-99.12109375,-106.4453125,-83.49609375,-103.02734375,71.2890625,0.0
15.46875,-107.91015625,-113.28125,-93.75,-106.4453125,29.78515625,0.0
15.47265625,-106.93359375,-114.2578125,-103.02734375,-86.42578125,-62.98828125,0.0
15.4765625,-113.76953125,-108.88671875,-112.3046875,-79.1015625,-38.57421875,0.0
15.48046875,-109.86328125,-110.3515625,-122.0703125,-93.26171875,-1.46484375,0.0
15.484375,-99.12109375,-107.91015625,-118.65234375,-97.16796875,-41.50390625,0.0
15.48828125,-105.95703125,-104.4921875,-116.69921875,-93.26171875,25.87890625,0.0
15.4921875,-102.5390625,-103.515625,-114.2578125,-96.6796875,80.56640625,0.0
15.49609375,-99.609375,-107.421875,-110.83984375,-102.5390625,24.4140625,0.0
15.5,-97.65625,-116.2109375,-110.3515625,-112.3046875,-22.4609375,0.0
15.50390625,-88.8671875,-106.4453125,-106.93359375,-112.79296875,16.11328125,0.0
15.5078125,-78.125,-95.21484375,-105.95703125,-98.14453125,-0.9765625,0.0
15.51171875,-79.58984375,-94.23828125,-104.00390625,-82.51953125,0.9765625,0.0
15.515625,-88.37890625,-95.703125,-97.65625,-74.70703125,76.66015625,0.0
15.51953125,-85.9375,-96.19140625,-98.14453125,-79.58984375,-13.671875,0.0
15.5234375,-80.078125,-90.33203125,-100.09765625,-80.56640625,-62.01171875,0.0
15.52734375,-64.94140625,-84.47265625,-85.9375,-71.77734375,1.46484375,0.0
15.53125,-61.5234375,-85.9375,-76.171875,-84.9609375,12.6953125,0.0
15.53515625,-82.51953125,-89.35546875,-72.75390625,-92.7734375,5.37109375,0.0
15.5390625,-83.984375,-80.56640625,-81.0546875,-74.21875,16.11328125,0.0
15.54296875,-69.3359375,-80.56640625,-88.37890625,-74.70703125,15.13671875,0.0
15.546875,-70.3125,-86.9140625,-89.84375,-69.82421875,22.94921875,0.0
15.55078125,-81.54296875,-85.44921875,-89.84375,-62.01171875,23.92578125,0.0
15.5546875,-82.03125,-91.30859375,-94.23828125,-79.58984375,-7.8125,0.0
15.55859375,-57.6171875,-91.796875,-99.609375,-77.1484375,-27.34375,0.0
15.5625,-59.5703125,-89.35546875,-100.09765625,-80.56640625,-49.8046875,0.0
15.56640625,-73.2421875,-90.8203125,-93.26171875,-99.609375,-111.328125,0.0
15.5703125,-74.21875,-94.23828125,-95.21484375,-84.9609375,-76.171875,0.0
15.57421875,-84.9609375,-99.609375,-95.703125,-70.80078125,9.27734375,0.0
15.578125,-91.30859375,-100.5859375,-85.44921875,-73.73046875,17.578125,0.0
15.58203125,-81.0546875,-95.703125,-84.9609375,-77.1484375,16.6015625,0.0
15.5859375,-82.03125,-98.6328125,-93.26171875,-87.890625,52.734375,0.0
15.58984375,-89.35546875,-104.00390625,-105.46875,-89.84375,-96.6796875,0.0
15.59375,-85.9375,-104.98046875,-107.91015625,-87.40234375,-341.796875,0.0
15.59765625,-82.51953125,-93.26171875,-104.4921875,-83.984375,-222.65625,0.0
15.6015625,-77.1484375,-84.9609375,-106.93359375,-93.75,-51.7578125,0.0
15.60546875,-65.4296875,-88.37890625,-106.4453125,-105.46875,-33.203125,0.0
15.609375,-66.40625,-92.28515625,-104.98046875,-110.83984375,-34.1796875,0.0
15.61328125,-72.75390625,-94.7265625,-99.12109375,-104.00390625,42.96875,0.0
15.6171875,-69.82421875,-98.6328125,-93.26171875,-102.05078125,56.15234375,0.0
15.62109375,-69.82421875,-103.02734375,-101.5625,-107.421875,-9.765625,0.0
15.625,-68.84765625,-102.5390625,-110.83984375,-115.72265625,-20.99609375,0.0
15.62890625,-68.359375,-98.6328125,-110.83984375,-98.6328125,-7.32421875,0.0
15.6328125,-79.58984375,-98.6328125,-105.46875,-101.5625,-88.37890625,0.0
15.63671875,-68.84765625,-97.16796875,-103.515625,-101.5625,-46.875,0.0
15.640625,-52.734375,-94.7265625,-102.05078125,-107.91015625,20.01953125,0.0
15.64453125,-51.26953125,-96.6796875,-99.609375,-108.3984375,-0.48828125,0.0
15.6484375,-42.48046875,-98.6328125,-95.21484375,-84.9609375,31.25,0.0
15.65234375,-45.41015625,-103.515625,-98.6328125,-76.171875,78.125,0.0
15.65625,-56.15234375,-105.46875,-101.5625,-80.078125,-3.90625,0.0
15.66015625,-53.7109375,-98.6328125,-93.75,-97.16796875,13.18359375,0.0
15.6640625,-55.6640625,-89.35546875,-89.35546875,-101.07421875,64.94140625,0.0
15.66796875,-60.05859375,-87.890625,-91.796875,-103.515625,32.2265625,0.0
15.671875,-58.59375,-97.65625,-101.5625,-101.07421875,-26.3671875,0.0
15.67578125,-60.546875,-99.12109375,-105.46875,-98.14453125,22.94921875,0.0
15.6796875,-63.96484375,-93.26171875,-98.14453125,-102.05078125,46.38671875,0.0
15.68359375,-51.7578125,-91.796875,-101.5625,-80.56640625,65.91796875,0.0
15.6875,-55.6640625,-95.21484375,-102.5390625,-72.265625,118.65234375,0.0
15.69140625,-67.87109375,-99.12109375,-98.6328125,-78.61328125,53.7109375,0.0
15.6953125,-60.05859375,-92.7734375,-89.35546875,-75.1953125,17.578125,0.0
15.69921875,-60.546875,-87.890625,-80.078125,-79.58984375,71.2890625,0.0
15.703125,-66.40625,-89.35546875,-86.9140625,-106.4453125,77.63671875,0.0
15.70703125,-60.05859375,-84.9609375,-85.9375,-86.9140625,37.59765625,0.0
15.7109375,-55.17578125,-85.44921875,-81.0546875,-62.98828125,46.875,0.0
15.71484375,-48.828125,-84.9609375,-80.56640625,-67.3828125,51.26953125,0.0
15.71875,-35.15625,-80.56640625,-73.2421875,-64.94140625,-26.3671875,0.0
15.72265625,-32.2265625,-83.49609375,-73.73046875,-62.98828125,-20.01953125,0.0
15.7265625,-46.38671875,-89.84375,-76.66015625,-61.03515625,-26.85546875,0.0
15.73046875,-50.29296875,-87.40234375,-75.68359375,-70.80078125,7.8125,0.0
15.734375,-44.43359375,-93.26171875,-83.49609375,-74.70703125,46.38671875,0.0
15.73828125,-45.41015625,-99.609375,-88.8671875,-71.77734375,38.57421875,0.0
15.7421875,-38.0859375,-93.26171875,-81.54296875,-62.5,-7.8125,0.0
15.74609375,-44.921875,-88.37890625,-79.1015625,-74.70703125,27.83203125,0.0
15.75,-47.36328125,-87.890625,-87.40234375,-85.44921875,2.9296875,0.0
15.75390625,-42.48046875,-90.8203125,-92.7734375,-71.2890625,-69.3359375,0.0
15.7578125,-43.9453125,-90.8203125,-93.26171875,-69.3359375,-4.39453125,0.0
15.76171875,-41.9921875,-88.37890625,-96.19140625,-75.68359375,48.828125,0.0
15.765625,-43.45703125,-92.28515625,-99.609375,-73.2421875,16.11328125,0.0
15.76953125,-53.22265625,-95.703125,-96.6796875,-76.171875,61.5234375,0.0
15.7734375,-54.6875,-90.33203125,-93.26171875,-81.0546875,31.25,0.0
15.77734375,-58.10546875,-88.37890625,-97.16796875,-89.35546875,-38.0859375,0.0
15.78125,-71.2890625,-96.19140625,-103.515625,-90.8203125,41.9921875,0.0
15.78515625,-72.75390625,-101.5625,-105.95703125,-98.6328125,-14.16015625,0.0
15.7890625,-61.03515625,-100.09765625,-100.5859375,-104.4921875,-69.3359375,0.0
15.79296875,-56.15234375,-96.19140625,-97.65625,-81.54296875,0.0,0.0
15.796875,-54.6875,-93.26171875,-98.14453125,-73.73046875,38.0859375,0.0
15.80078125,-49.8046875,-91.796875,-97.16796875,-75.68359375,51.26953125,0.0
15.8046875,-47.8515625,-90.8203125,-95.703125,-77.1484375,73.73046875,0.0
15.80859375,-57.6171875,-95.21484375,-92.7734375,-89.84375,61.5234375,0.0
15.8125,-64.453125,-96.6796875,-96.19140625,-79.1015625,-32.2265625,0.0
15.81640625,-56.15234375,-89.84375,-101.5625,-77.63671875,-38.57421875,0.0
15.8203125,-45.41015625,-90.8203125,-98.14453125,-74.21875,-16.11328125,0.0
15.82421875,-43.45703125,-95.21484375,-100.5859375,-72.75390625,-37.109375,0.0
15.828125,-54.19921875,-93.75,-102.5390625,-85.9375,-21.97265625,0.0
15.83203125,-55.17578125,-86.9140625,-97.16796875,-90.33203125,31.25,0.0
15.8359375,-45.8984375,-87.890625,-94.7265625,-84.9609375,13.18359375,0.0
15.83984375,-39.55078125,-85.44921875,-94.23828125,-79.58984375,-17.08984375,0.0
15.84375,-35.15625,-80.56640625,-98.6328125,-83.0078125,-49.31640625,0.0
15.84765625,-41.50390625,-84.47265625,-104.98046875,-85.9375,-9.765625,0.0
15.8515625,-43.45703125,-87.890625,-109.375,-82.03125,23.92578125,0.0
15.85546875,-34.66796875,-88.8671875,-115.72265625,-72.265625,-94.7265625,0.0
15.859375,-39.0625,-92.7734375,-113.76953125,-75.1953125,-133.7890625,0.0
15.86328125,-51.26953125,-94.23828125,-107.421875,-90.8203125,-48.828125,0.0
15.8671875,-54.19921875,-93.75,-100.5859375,-99.12109375,-50.78125,0.0
15.87109375,-54.6875,-94.7265625,-104.00390625,-91.30859375,2.44140625,0.0
15.875,-58.10546875,-98.6328125,-104.98046875,-85.44921875,-67.3828125,0.0
15.87890625,-55.6640625,-92.7734375,-96.19140625,-91.796875,-113.76953125,0.0
15.8828125,-64.94140625,-70.3125,-101.07421875,-107.421875,-26.85546875,0.0
15.88671875,-63.4765625,-54.19921875,-106.4453125,-97.16796875,7.8125,0.0
15.890625,-52.24609375,-51.7578125,-111.328125,-92.7734375,24.4140625,0.0
15.89453125,-59.08203125,-58.10546875,-113.28125,-88.37890625,39.0625,0.0
15.8984375,-62.01171875,-64.94140625,-107.91015625,-75.68359375,-81.54296875,0.0
15.90234375,-70.3125,-65.91796875,-103.02734375,-92.28515625,-130.37109375,0.0
15.90625,-70.80078125,-67.87109375,-102.5390625,-103.02734375,2.9296875,0.0
15.91015625,-59.5703125,-67.87109375,-96.6796875,-94.23828125,57.12890625,0.0
15.9140625,-59.5703125,-64.94140625,-88.8671875,-86.42578125,-46.38671875,0.0
15.91796875,-58.10546875,-63.96484375,-85.44921875,-86.42578125,-15.13671875,0.0
15.921875,-54.6875,-68.84765625,-84.9609375,-88.8671875,-17.578125,0.0
15.92578125,-57.6171875,-71.2890625,-89.35546875,-96.19140625,-62.5,0.0
15.9296875,-55.17578125,-70.80078125,-93.26171875,-87.890625,-50.29296875,0.0
15.93359375,-50.78125,-70.3125,-93.26171875,-83.49609375,5.37109375,0.0
15.9375,-50.29296875,-65.91796875,-91.30859375,-97.16796875,-8.7890625,0.0
15.94140625,-55.17578125,-70.3125,-86.9140625,-90.33203125,-91.796875,0.0
15.9453125,-56.15234375,-75.68359375,-94.23828125,-103.02734375,-41.015625,0.0
15.94921875,-62.01171875,-74.21875,-101.07421875,-96.19140625,-4.39453125,0.0
15.953125,-75.68359375,-78.61328125,-93.75,-74.70703125,-20.5078125,0.0
15.95703125,-80.078125,-81.54296875,-85.9375,-75.1953125,-26.85546875,0.0
15.9609375,-68.84765625,-84.47265625,-85.44921875,-84.9609375,-42.48046875,0.0
15.96484375,-67.87109375,-88.8671875,-83.0078125,-90.33203125,21.97265625,0.0
15.96875,-64.94140625,-91.30859375,-89.84375,-82.51953125,109.375,0.0
15.97265625,-65.91796875,-90.8203125,-97.65625,-84.47265625,49.31640625,0.0
15.9765625,-73.2421875,-90.8203125,-92.7734375,-88.8671875,57.6171875,0.0
15.98046875,-69.3359375,-93.75,-90.33203125,-74.70703125,-8.7890625,0.0
15.984375,-67.3828125,-93.75,-94.7265625,-74.21875,-116.2109375,0.0
15.98828125,-79.1015625,-92.28515625,-100.09765625,-88.8671875,-32.2265625,0.0
15.9921875,-77.63671875,-93.26171875,-103.02734375,-90.33203125,67.3828125,0.0
15.99609375,-85.44921875,-94.7265625,-93.26171875,-94.7265625,-7.8125,0.0
16.0,-80.56640625,-90.8203125,-93.75,-84.47265625,-81.0546875,0.0
16.00390625,-63.96484375,-95.703125,-90.8203125,-68.84765625,-61.03515625,0.0
16.0078125,-80.078125,-102.5390625,-85.9375,-77.63671875,-40.0390625,0.0
16.01171875,-88.37890625,-104.00390625,-97.65625,-97.16796875,-62.98828125,0.0
16.015625,-89.84375,-100.09765625,-101.5625,-90.8203125,-77.63671875,0.0
16.01953125,-93.26171875,-97.16796875,-95.703125,-90.33203125,-3.90625,0.0
16.0234375,-86.42578125,-104.98046875,-102.5390625,-110.83984375,77.1484375,0.0
16.02734375,-76.171875,-107.421875,-105.46875,-95.21484375,65.91796875,0.0
16.03125,-78.125,-105.95703125,-101.5625,-75.68359375,11.23046875,0.0
16.03515625,-73.2421875,-107.421875,-95.703125,-83.984375,24.90234375,0.0
16.0390625,-77.63671875,-106.4453125,-89.84375,-104.98046875,73.2421875,0.0
16.04296875,-74.70703125,-103.515625,-89.84375,-91.796875,57.12890625,0.0
16.046875,-57.12890625,-104.4921875,-83.984375,-67.87109375,54.6875,0.0
16.05078125,-67.3828125,-110.83984375,-74.70703125,-81.54296875,121.58203125,0.0
16.0546875,-72.75390625,-114.2578125,-77.63671875,-73.2421875,137.20703125,0.0
16.05859375,-64.94140625,-107.91015625,-87.890625,-64.94140625,127.44140625,0.0
16.0625,-74.21875,-109.86328125,-95.703125,-62.5,72.265625,0.0
16.06640625,-76.171875,-112.3046875,-101.07421875,-79.58984375,33.203125,0.0
16.0703125,-64.94140625,-102.5390625,-100.09765625,-102.05078125,39.0625,0.0
16.07421875,-65.91796875,-94.7265625,-99.609375,-90.33203125,14.16015625,0.0
16.078125,-73.2421875,-96.6796875,-95.703125,-89.84375,-9.765625,0.0
16.08203125,-73.73046875,-96.19140625,-91.796875,-104.4921875,-7.8125,0.0
16.0859375,-73.2421875,-92.7734375,-101.5625,-98.6328125,19.53125,0.0
16.08984375,-70.3125,-93.26171875,-108.88671875,-76.66015625,19.04296875,0.0
16.09375,-63.4765625,-88.8671875,-102.5390625,-78.125,31.73828125,0.0
16.09765625,-67.87109375,-90.33203125,-105.46875,-88.8671875,3.90625,0.0
16.1015625,-73.73046875,-94.7265625,-108.3984375,-89.84375,-51.7578125,0.0
16.10546875,-65.4296875,-91.30859375,-106.4453125,-88.37890625,-55.6640625,0.0
16.109375,-61.5234375,-91.796875,-107.421875,-94.23828125,-71.2890625,0.0
16.11328125,-68.359375,-92.28515625,-104.4921875,-89.35546875,-37.59765625,0.0
16.1171875,-74.21875,-87.890625,-95.21484375,-75.68359375,88.8671875,0.0
16.12109375,-68.359375,-88.37890625,-89.35546875,-62.5,64.453125,0.0
16.125,-62.5,-94.23828125,-92.28515625,-56.15234375,-79.1015625,0.0
16.12890625,-59.08203125,-94.7265625,-92.7734375,-62.01171875,-146.97265625,0.0
16.1328125,-62.01171875,-84.9609375,-93.75,-56.15234375,-93.75,0.0
16.13671875,-58.10546875,-83.984375,-87.890625,-58.59375,-74.70703125,0.0
16.140625,-52.24609375,-88.37890625,-82.03125,-79.1015625,-57.6171875,0.0
16.14453125,-69.3359375,-89.35546875,-82.03125,-83.984375,-46.38671875,0.0
16.1484375,-68.359375,-83.0078125,-83.984375,-71.2890625,-53.7109375,0.0
16.15234375,-69.82421875,-78.61328125,-89.84375,-71.77734375,-41.9921875,0.0
16.15625,-79.1015625,-84.47265625,-92.7734375,-71.2890625,15.13671875,0.0
16.16015625,-66.40625,-85.9375,-88.37890625,-62.01171875,-16.6015625,0.0
16.1640625,-68.359375,-85.9375,-87.40234375,-62.98828125,-62.98828125,0.0
16.16796875,-75.68359375,-83.984375,-87.40234375,-68.359375,41.50390625,0.0
16.171875,-69.82421875,-80.078125,-83.984375,-59.08203125,59.08203125,0.0
16.17578125,-62.98828125,-75.68359375,-83.984375,-53.7109375,84.47265625,0.0
16.1796875,-64.453125,-79.58984375,-85.9375,-65.4296875,85.44921875,0.0
16.18359375,-72.265625,-86.42578125,-92.7734375,-77.1484375,-35.15625,0.0
16.1875,-71.2890625,-91.796875,-97.65625,-88.37890625,-38.57421875,0.0
16.19140625,-67.3828125,-90.8203125,-107.91015625,-82.03125,41.50390625,0.0
16.1953125,-69.82421875,-91.30859375,-133.7890625,-62.5,57.6171875,0.0
16.19921875,-83.49609375,-99.12109375,-151.85546875,-83.984375,62.5,0.0
16.203125,-77.1484375,-99.609375,-159.1796875,-97.65625,43.45703125,0.0
16.20703125,-65.4296875,-90.8203125,-167.96875,-64.94140625,-31.73828125,0.0
16.2109375,-72.75390625,-88.8671875,-165.0390625,-61.5234375,7.8125,0.0
16.21484375,-77.1484375,-93.26171875,-162.109375,-69.82421875,108.88671875,0.0
16.21875,-76.171875,-92.7734375,-162.109375,-66.89453125,107.421875,0.0
16.22265625,-86.42578125,-87.40234375,-160.15625,-87.40234375,67.3828125,0.0
16.2265625,-77.63671875,-86.9140625,-160.15625,-97.65625,104.4921875,0.0
16.23046875,-64.453125,-82.51953125,-156.25,-70.3125,129.8828125,0.0
16.234375,-73.73046875,-79.1015625,-156.25,-58.10546875,111.81640625,0.0
16.23828125,-70.80078125,-82.03125,-154.78515625,-58.59375,71.2890625,0.0
16.2421875,-67.87109375,-75.1953125,-155.2734375,-58.10546875,8.7890625,0.0
16.24609375,-64.94140625,-70.80078125,-159.1796875,-63.4765625,-12.20703125,0.0
16.25,-58.10546875,-79.1015625,-157.71484375,-60.05859375,10.7421875,0.0
16.25390625,-61.5234375,-85.9375,-142.578125,-67.87109375,42.96875,0.0
16.2578125,-67.3828125,-86.9140625,-127.44140625,-83.0078125,2.44140625,0.0
16.26171875,-71.2890625,-88.37890625,-124.0234375,-88.37890625,49.8046875,0.0
16.265625,-65.91796875,-92.7734375,-122.0703125,-89.84375,59.5703125,0.0
16.26953125,-58.10546875,-88.8671875,-121.58203125,-70.80078125,-72.265625,0.0
16.2734375,-67.3828125,-85.44921875,-120.60546875,-72.75390625,-105.95703125,0.0
16.27734375,-75.68359375,-84.47265625,-118.65234375,-80.078125,-82.03125,0.0
16.28125,-76.171875,-86.9140625,-125.9765625,-60.546875,-71.77734375,0.0
16.28515625,-71.77734375,-85.44921875,-130.859375,-59.5703125,-50.78125,0.0
16.2890625,-65.91796875,-83.984375,-125.0,-72.75390625,-15.13671875,0.0
16.29296875,-70.80078125,-86.9140625,-125.0,-64.94140625,6.34765625,0.0
16.296875,-69.82421875,-84.9609375,-126.46484375,-68.84765625,2.9296875,0.0
16.30078125,-67.87109375,-83.984375,-122.0703125,-75.68359375,-76.66015625,0.0
16.3046875,-70.80078125,-88.8671875,-126.46484375,-74.70703125,-67.3828125,0.0
16.30859375,-73.73046875,-91.30859375,-129.39453125,-81.0546875,-53.7109375,0.0
16.3125,-84.47265625,-86.9140625,-128.90625,-83.49609375,-67.3828125,0.0
16.31640625,-81.0546875,-82.51953125,-125.48828125,-64.94140625,-45.8984375,0.0
16.3203125,-85.44921875,-87.890625,-121.58203125,-63.4765625,-199.70703125,0.0
16.32421875,-67.3828125,-87.40234375,-124.51171875,-72.265625,-213.37890625,0.0
16.328125,-45.41015625,-81.54296875,-125.48828125,-57.6171875,-55.6640625,0.0
16.33203125,-61.5234375,-69.82421875,-114.74609375,-61.5234375,-39.55078125,0.0
16.3359375,-71.77734375,-61.03515625,-106.4453125,-93.26171875,-43.9453125,0.0
16.33984375,-66.89453125,-68.84765625,-108.3984375,-87.890625,-10.7421875,0.0
16.34375,-68.84765625,-73.73046875,-107.421875,-72.265625,-3.90625,0.0
16.34765625,-76.171875,-74.21875,-98.14453125,-71.77734375,-33.203125,0.0
16.3515625,-86.42578125,-79.1015625,-87.890625,-76.66015625,-39.0625,0.0
16.35546875,-82.51953125,-80.078125,-88.37890625,-84.9609375,-4.8828125,0.0
16.359375,-70.80078125,-78.125,-92.7734375,-78.125,51.7578125,0.0
16.36328125,-77.63671875,-76.171875,-84.47265625,-59.5703125,87.40234375,0.0
16.3671875,-85.9375,-81.54296875,-93.26171875,-61.5234375,90.33203125,0.0
16.37109375,-82.03125,-83.0078125,-96.19140625,-87.890625,80.56640625,0.0
16.375,-80.078125,-79.1015625,-84.9609375,-81.0546875,117.67578125,0.0
16.37890625,-86.42578125,-79.58984375,-83.49609375,-81.54296875,112.3046875,0.0
16.3828125,-80.56640625,-73.73046875,-86.9140625,-85.9375,23.92578125,0.0
16.38671875,-76.171875,-72.75390625,-87.40234375,-63.4765625,32.2265625,0.0
16.390625,-69.82421875,-75.68359375,-88.37890625,-65.4296875,132.32421875,0.0
16.39453125,-75.68359375,-78.61328125,-93.75,-69.82421875,79.1015625,0.0
16.3984375,-82.03125,-85.9375,-102.05078125,-69.82421875,-43.9453125,0.0
16.40234375,-78.125,-84.47265625,-101.5625,-64.453125,-7.32421875,0.0
16.40625,-74.70703125,-79.58984375,-100.5859375,-66.89453125,14.6484375,0.0
16.41015625,-82.51953125,-82.03125,-102.5390625,-81.0546875,-70.80078125,0.0
16.4140625,-70.3125,-77.1484375,-95.21484375,-77.1484375,12.6953125,0.0
16.41796875,-72.265625,-74.70703125,-92.28515625,-57.12890625,8.30078125,0.0
16.421875,-81.54296875,-71.77734375,-97.65625,-68.359375,-96.6796875,0.0
16.42578125,-76.66015625,-65.91796875,-92.7734375,-72.265625,-18.5546875,0.0
16.4296875,-84.47265625,-64.453125,-90.8203125,-69.82421875,-25.390625,0.0
16.43359375,-81.54296875,-63.96484375,-86.9140625,-72.265625,-70.80078125,0.0
16.4375,-75.68359375,-66.89453125,-81.0546875,-58.10546875,-24.90234375,0.0
16.44140625,-77.63671875,-62.5,-82.03125,-61.03515625,49.8046875,0.0
16.4453125,-79.1015625,-63.96484375,-85.44921875,-62.5,10.7421875,0.0
16.44921875,-85.9375,-68.359375,-97.16796875,-76.171875,-2.9296875,0.0
16.453125,-83.49609375,-64.453125,-102.5390625,-94.7265625,62.5,0.0
16.45703125,-74.21875,-68.359375,-104.4921875,-95.703125,-19.04296875,0.0
16.4609375,-70.80078125,-68.84765625,-109.86328125,-85.44921875,-70.3125,0.0
16.46484375,-69.82421875,-65.4296875,-116.2109375,-92.7734375,-26.85546875,0.0
16.46875,-73.73046875,-73.2421875,-117.1875,-88.8671875,-124.51171875,0.0
16.47265625,-80.078125,-76.171875,-109.375,-62.98828125,-81.0546875,0.0
16.4765625,-67.3828125,-72.265625,-102.5390625,-50.78125,-11.71875,0.0
16.48046875,-66.89453125,-78.61328125,-100.5859375,-64.94140625,-18.06640625,0.0
16.484375,-83.49609375,-83.49609375,-98.6328125,-61.03515625,-36.62109375,0.0
16.48828125,-63.96484375,-81.0546875,-91.30859375,-72.75390625,-67.87109375,0.0
16.4921875,-52.734375,-80.56640625,-88.37890625,-98.14453125,-22.4609375,0.0
16.49609375,-64.94140625,-86.42578125,-91.796875,-92.28515625,-46.875,0.0
16.5,-54.6875,-82.03125,-92.7734375,-83.984375,-42.48046875,0.0
16.50390625,-49.8046875,-83.984375,-88.8671875,-73.2421875,-142.08984375,0.0
16.5078125,-59.08203125,-89.35546875,-94.23828125,-80.56640625,-227.05078125,0.0
16.51171875,-56.15234375,-86.42578125,-95.703125,-70.3125,-21.97265625,0.0
16.515625,-60.546875,-84.47265625,-89.35546875,-61.5234375,93.75,0.0
16.51953125,-62.01171875,-81.54296875,-90.8203125,-59.08203125,56.15234375,0.0
16.5234375,-54.6875,-74.70703125,-88.37890625,-66.89453125,25.390625,0.0
16.52734375,-43.45703125,-63.4765625,-79.1015625,-69.82421875,40.0390625,0.0
16.53125,-49.8046875,-69.82421875,-78.61328125,-51.26953125,10.25390625,0.0
16.53515625,-65.4296875,-73.2421875,-74.70703125,-60.546875,41.50390625,0.0
16.5390625,-66.40625,-72.265625,-65.4296875,-61.5234375,54.19921875,0.0
16.54296875,-60.05859375,-74.70703125,-71.2890625,-49.8046875,38.0859375,0.0
16.546875,-63.4765625,-78.125,-82.51953125,-30.76171875,53.7109375,0.0
16.55078125,-67.87109375,-83.0078125,-83.984375,-37.109375,64.94140625,0.0
16.5546875,-73.2421875,-80.56640625,-87.890625,-63.4765625,10.7421875,0.0
16.55859375,-69.3359375,-77.63671875,-92.7734375,-57.12890625,-49.8046875,0.0
16.5625,-70.3125,-77.63671875,-95.703125,-63.96484375,42.96875,0.0
16.56640625,-75.68359375,-80.56640625,-92.28515625,-79.1015625,15.625,0.0
16.5703125,-63.4765625,-84.9609375,-98.14453125,-66.40625,-46.38671875,0.0
16.57421875,-61.03515625,-86.9140625,-112.3046875,-59.08203125,-4.8828125,0.0
16.578125,-66.89453125,-94.7265625,-113.76953125,-58.59375,7.8125,0.0
16.58203125,-71.77734375,-94.23828125,-108.3984375,-64.453125,75.1953125,0.0
16.5859375,-70.3125,-92.28515625,-100.09765625,-56.640625,29.296875,0.0
16.58984375,-74.70703125,-97.65625,-102.05078125,-58.10546875,-5.37109375,0.0
16.59375,-93.26171875,-103.515625,-101.5625,-70.80078125,40.0390625,0.0
16.59765625,-99.12109375,-102.5390625,-93.75,-64.94140625,67.3828125,0.0
16.6015625,-92.7734375,-103.02734375,-89.84375,-68.359375,6.34765625,0.0
16.60546875,-89.84375,-100.5859375,-97.16796875,-66.40625,-66.89453125,0.0
16.609375,-92.7734375,-93.26171875,-96.19140625,-48.33984375,-44.921875,0.0
16.61328125,-89.35546875,-89.35546875,-96.6796875,-47.36328125,12.20703125,0.0
16.6171875,-85.44921875,-87.890625,-98.6328125,-53.7109375,14.6484375,0.0
16.62109375,-88.8671875,-87.40234375,-109.86328125,-51.7578125,-27.83203125,0.0
16.625,-80.078125,-88.8671875,-190.91796875,-53.7109375,-26.85546875,0.0
16.62890625,-82.03125,-93.26171875,-247.0703125,-68.84765625,-51.7578125,0.0
16.6328125,-83.0078125,-91.30859375,-248.53515625,-74.70703125,-12.6953125,0.0
16.63671875,-72.75390625,-92.28515625,-253.41796875,-61.03515625,22.4609375,0.0
16.640625,-77.63671875,-99.12109375,-249.0234375,-58.10546875,-18.06640625,0.0
16.64453125,-80.56640625,-96.19140625,-241.69921875,-66.89453125,10.25390625,0.0
16.6484375,-78.61328125,-88.8671875,-240.72265625,-60.546875,-18.5546875,0.0
16.65234375,-81.54296875,-89.84375,-236.328125,-63.4765625,-96.6796875,0.0
16.65625,-76.171875,-90.8203125,-227.05078125,-48.828125,-90.33203125,0.0
16.66015625,-73.2421875,-83.49609375,-218.26171875,-41.50390625,-79.1015625,0.0
16.6640625,-85.44921875,-83.49609375,-211.42578125,-31.73828125,-86.42578125,0.0
16.66796875,-82.51953125,-93.75,-203.61328125,-44.43359375,-108.88671875,0.0
16.671875,-85.9375,-101.07421875,-195.80078125,-47.36328125,-166.015625,0.0
16.67578125,-92.7734375,-96.19140625,-185.546875,-40.0390625,-180.17578125,0.0
16.6796875,-101.07421875,-92.28515625,-185.546875,-64.94140625,-145.99609375,0.0
16.68359375,-103.02734375,-96.6796875,-197.265625,-72.75390625,-156.73828125,0.0
16.6875,-97.65625,-99.609375,-193.84765625,-66.40625,-178.7109375,0.0
16.69140625,-104.4921875,-94.7265625,-171.38671875,-61.5234375,-107.91015625,0.0
16.6953125,-98.14453125,-95.21484375,-158.69140625,-48.33984375,-66.89453125,0.0
16.69921875,-96.19140625,-98.14453125,-153.3203125,-56.640625,37.59765625,0.0
16.703125,-101.07421875,-97.16796875,-154.296875,-68.359375,201.66015625,0.0
16.70703125,-95.21484375,-96.19140625,-153.3203125,-65.91796875,151.3671875,0.0
16.7109375,-80.56640625,-92.7734375,-143.06640625,-62.98828125,12.6953125,0.0
16.71484375,-67.87109375,-86.42578125,-128.41796875,-50.78125,6.8359375,0.0
16.71875,-72.75390625,-86.9140625,-124.0234375,-46.38671875,-32.71484375,0.0
16.72265625,-70.3125,-78.125,-126.953125,-50.29296875,-49.31640625,0.0
16.7265625,-65.4296875,-73.73046875,-119.140625,-60.546875,-4.39453125,0.0
16.73046875,-67.87109375,-77.63671875,-111.81640625,-54.19921875,-1.46484375,0.0
16.734375,-67.87109375,-76.66015625,-107.421875,-36.1328125,-11.71875,0.0
16.73828125,-64.94140625,-72.265625,-98.6328125,-40.52734375,55.6640625,0.0
16.7421875,-61.5234375,-69.82421875,-92.7734375,-55.17578125,107.421875,0.0
16.74609375,-62.5,-66.89453125,-96.6796875,-50.29296875,78.61328125,0.0
16.75,-66.40625,-70.80078125,-103.02734375,-39.0625,45.8984375,0.0
16.75390625,-61.5234375,-71.2890625,-101.5625,-41.50390625,3.90625,0.0
16.7578125,-55.6640625,-69.3359375,-93.26171875,-41.015625,-2.44140625,0.0
16.76171875,-49.8046875,-72.265625,-91.30859375,-43.45703125,36.1328125,0.0
16.765625,-52.24609375,-71.2890625,-96.6796875,-53.22265625,91.796875,0.0
16.76953125,-66.40625,-68.84765625,-93.26171875,-56.15234375,104.00390625,0.0
16.7734375,-68.84765625,-70.80078125,-89.35546875,-54.19921875,99.12109375,0.0
16.77734375,-75.68359375,-68.84765625,-89.35546875,-55.6640625,167.48046875,0.0
16.78125,-83.984375,-78.61328125,-94.7265625,-57.12890625,49.8046875,0.0
16.78515625,-86.42578125,-81.54296875,-101.07421875,-68.84765625,-7.32421875,0.0
16.7890625,-85.9375,-73.73046875,-101.5625,-83.984375,70.3125,0.0
16.79296875,-81.0546875,-76.171875,-101.07421875,-83.0078125,53.7109375,0.0
16.796875,-82.03125,-77.1484375,-100.5859375,-64.94140625,-10.7421875,0.0
16.80078125,-68.84765625,-78.61328125,-101.07421875,-64.94140625,-104.4921875,0.0
16.8046875,-62.01171875,-76.66015625,-102.5390625,-69.82421875,-28.3203125,0.0
16.80859375,-73.73046875,-80.078125,-104.98046875,-74.70703125,69.3359375,0.0
16.8125,-76.66015625,-86.42578125,-105.95703125,-77.1484375,31.25,0.0
16.81640625,-77.1484375,-84.9609375,-100.09765625,-82.51953125,0.0,0.0
16.8203125,-83.49609375,-82.03125,-91.796875,-96.6796875,-10.25390625,0.0
16.82421875,-84.9609375,-79.58984375,-87.890625,-95.21484375,2.9296875,0.0
16.828125,-83.984375,-84.47265625,-87.890625,-89.35546875,-21.97265625,0.0
16.83203125,-80.078125,-77.63671875,-89.35546875,-92.28515625,3.90625,0.0
16.8359375,-79.1015625,-69.3359375,-89.35546875,-76.66015625,43.9453125,0.0
16.83984375,-89.35546875,-74.70703125,-86.42578125,-68.84765625,28.3203125,0.0
16.84375,-89.35546875,-81.0546875,-86.9140625,-76.66015625,14.16015625,0.0
16.84765625,-84.9609375,-76.66015625,-79.58984375,-81.54296875,-9.765625,0.0
16.8515625,-85.44921875,-73.73046875,-70.80078125,-78.61328125,-10.25390625,0.0
16.85546875,-84.47265625,-79.1015625,-70.80078125,-78.125,-9.27734375,0.0
16.859375,-84.47265625,-79.1015625,-74.70703125,-78.61328125,-34.66796875,0.0
16.86328125,-83.984375,-75.1953125,-68.84765625,-75.68359375,-31.73828125,0.0
16.8671875,-78.125,-68.84765625,-57.6171875,-80.56640625,17.578125,0.0
16.87109375,-76.66015625,-64.453125,-66.40625,-80.56640625,62.98828125,0.0
16.875,-78.125,-63.96484375,-76.171875,-68.359375,-14.6484375,0.0
16.87890625,-81.0546875,-57.12890625,-70.80078125,-82.51953125,-22.4609375,0.0
16.8828125,-77.63671875,-56.640625,-71.2890625,-102.05078125,-7.8125,0.0
16.88671875,-76.171875,-58.59375,-77.63671875,-92.7734375,-36.62109375,0.0
16.890625,-83.984375,-61.5234375,-85.44921875,-84.9609375,-22.94921875,0.0
16.89453125,-90.8203125,-65.4296875,-85.44921875,-89.84375,-27.34375,0.0
16.8984375,-85.9375,-67.87109375,-88.8671875,-77.1484375,-7.8125,0.0
16.90234375,-71.77734375,-68.84765625,-94.23828125,-75.1953125,-66.40625,0.0
16.90625,-72.265625,-63.96484375,-90.33203125,-86.9140625,-120.1171875,0.0
16.91015625,-75.1953125,-66.89453125,-93.75,-95.703125,20.5078125,0.0
16.9140625,-71.2890625,-66.89453125,-86.9140625,-89.35546875,140.13671875,0.0
16.91796875,-73.73046875,-61.5234375,-84.9609375,-70.3125,21.484375,0.0
16.921875,-70.80078125,-59.08203125,-83.49609375,-84.47265625,-48.828125,0.0
16.92578125,-53.7109375,-60.05859375,-73.73046875,-88.8671875,57.12890625,0.0
16.9296875,-62.98828125,-61.5234375,-72.265625,-78.125,78.125,0.0
16.93359375,-62.01171875,-64.94140625,-81.54296875,-77.1484375,61.03515625,0.0
16.9375,-55.6640625,-72.75390625,-87.890625,-71.77734375,53.7109375,0.0
16.94140625,-51.7578125,-70.80078125,-83.49609375,-72.265625,-11.23046875,0.0
16.9453125,-39.0625,-65.91796875,-83.984375,-69.3359375,1.953125,0.0
16.94921875,-50.29296875,-66.89453125,-78.61328125,-68.84765625,68.359375,0.0
16.953125,-60.05859375,-67.87109375,-75.68359375,-78.125,36.1328125,0.0
16.95703125,-61.5234375,-68.359375,-83.49609375,-89.84375,10.7421875,0.0
16.9609375,-60.546875,-67.87109375,-87.890625,-81.54296875,2.44140625,0.0
16.96484375,-69.82421875,-65.4296875,-86.42578125,-81.0546875,37.109375,0.0
16.96875,-73.73046875,-67.3828125,-79.1015625,-89.84375,82.03125,0.0
16.97265625,-59.5703125,-62.01171875,-68.359375,-68.84765625,141.6015625,0.0
16.9765625,-60.546875,-56.15234375,-66.89453125,-70.80078125,93.26171875,0.0
16.98046875,-75.68359375,-62.98828125,-74.70703125,-86.9140625,38.0859375,0.0
16.984375,-81.0546875,-63.96484375,-79.1015625,-105.46875,4.8828125,0.0
16.98828125,-73.73046875,-63.96484375,-77.1484375,-100.5859375,-47.8515625,0.0
16.9921875,-68.359375,-60.05859375,-77.63671875,-76.66015625,4.39453125,0.0
16.99609375,-70.3125,-62.98828125,-76.66015625,-84.9609375,103.515625,0.0
17.0,-77.63671875,-67.87109375,-74.70703125,-111.328125,109.86328125,0.0
17.00390625,-73.2421875,-62.01171875,-75.68359375,-113.76953125,79.1015625,0.0
17.0078125,-65.91796875,-54.6875,-68.359375,-80.078125,24.90234375,0.0
17.01171875,-70.80078125,-58.10546875,-69.3359375,-75.68359375,32.71484375,0.0
17.015625,-75.1953125,-63.4765625,-80.078125,-92.7734375,10.7421875,0.0
17.01953125,-68.84765625,-61.03515625,-75.1953125,-82.03125,27.83203125,0.0
17.0234375,-62.01171875,-64.94140625,-71.2890625,-81.0546875,71.77734375,0.0
17.02734375,-63.96484375,-69.82421875,-69.3359375,-88.8671875,104.4921875,0.0
17.03125,-67.3828125,-69.3359375,-65.4296875,-88.37890625,38.0859375,0.0
17.03515625,-74.21875,-71.2890625,-71.2890625,-85.44921875,-119.140625,0.0
17.0390625,-68.359375,-66.40625,-66.40625,-81.54296875,-156.25,0.0
17.04296875,-65.4296875,-71.2890625,-69.3359375,-72.265625,-78.61328125,0.0
17.046875,-83.0078125,-76.66015625,-72.75390625,-88.8671875,-71.2890625,0.0
17.05078125,-87.890625,-70.80078125,-71.77734375,-116.2109375,-97.16796875,0.0
17.0546875,-81.54296875,-70.80078125,-80.078125,-108.88671875,-57.6171875,0.0
17.05859375,-86.42578125,-65.91796875,-77.1484375,-91.796875,-4.8828125,0.0
17.0625,-78.61328125,-62.98828125,-72.265625,-90.8203125,78.125,0.0
17.06640625,-77.1484375,-70.3125,-74.21875,-76.171875,77.63671875,0.0
17.0703125,-85.44921875,-71.77734375,-74.21875,-65.91796875,31.25,0.0
17.07421875,-79.58984375,-70.3125,-72.265625,-74.21875,40.52734375,0.0
17.078125,-76.171875,-65.4296875,-73.2421875,-72.265625,26.3671875,0.0
17.08203125,-86.9140625,-62.01171875,-74.21875,-82.03125,-14.6484375,0.0
17.0859375,-84.47265625,-62.5,-81.54296875,-105.46875,14.6484375,0.0
17.08984375,-89.35546875,-63.4765625,-82.03125,-111.328125,43.9453125,0.0
17.09375,-90.33203125,-64.453125,-78.61328125,-102.05078125,-10.7421875,0.0
17.09765625,-73.2421875,-64.94140625,-82.51953125,-82.51953125,-37.109375,0.0
17.1015625,-74.21875,-68.84765625,-86.9140625,-81.0546875,-65.91796875,0.0
17.10546875,-75.68359375,-70.3125,-93.75,-102.05078125,-41.9921875,0.0
17.109375,-76.66015625,-66.89453125,-90.33203125,-96.19140625,-8.7890625,0.0
17.11328125,-74.70703125,-65.4296875,-83.984375,-82.51953125,-4.8828125,0.0
17.1171875,-70.3125,-66.89453125,-77.1484375,-77.63671875,52.734375,0.0
17.12109375,-71.2890625,-66.40625,-83.984375,-80.078125,58.59375,0.0
17.125,-73.73046875,-67.3828125,-92.28515625,-87.40234375,1.953125,0.0
17.12890625,-69.82421875,-67.87109375,-86.9140625,-94.7265625,-46.875,0.0
17.1328125,-62.5,-61.5234375,-90.33203125,-71.77734375,-72.265625,0.0
17.13671875,-69.82421875,-63.96484375,-103.02734375,-52.24609375,-39.55078125,0.0
17.140625,-83.984375,-71.77734375,-109.375,-85.44921875,22.94921875,0.0
17.14453125,-93.75,-74.21875,-108.3984375,-99.12109375,-25.87890625,0.0
17.1484375,-95.703125,-73.73046875,-113.28125,-91.30859375,-43.9453125,0.0
17.15234375,-86.42578125,-67.87109375,-117.1875,-101.5625,41.015625,0.0
17.15625,-93.75,-64.453125,-109.375,-109.375,7.8125,0.0
17.16015625,-90.8203125,-64.94140625,-103.02734375,-103.02734375,31.25,0.0
17.1640625,-73.2421875,-60.05859375,-108.3984375,-90.33203125,92.28515625,0.0
17.16796875,-63.4765625,-60.546875,-113.28125,-88.8671875,40.52734375,0.0
17.171875,-64.94140625,-69.3359375,-115.234375,-86.42578125,59.5703125,0.0
17.17578125,-68.359375,-62.98828125,-106.4453125,-81.0546875,58.10546875,0.0
17.1796875,-80.078125,-62.5,-88.8671875,-90.33203125,73.73046875,0.0
17.18359375,-90.33203125,-69.3359375,-90.33203125,-98.6328125,98.6328125,0.0
17.1875,-85.44921875,-59.5703125,-91.30859375,-102.05078125,51.7578125,0.0
17.19140625,-81.54296875,-57.6171875,-77.63671875,-105.95703125,-2.9296875,0.0
17.1953125,-91.30859375,-57.6171875,-66.40625,-93.26171875,-41.9921875,0.0
17.19921875,-81.0546875,-52.734375,-69.3359375,-83.0078125,-87.40234375,0.0
17.203125,-72.265625,-49.8046875,-69.82421875,-97.65625,-77.63671875,0.0
17.20703125,-90.33203125,-48.33984375,-61.5234375,-105.95703125,-22.94921875,0.0
17.2109375,-94.23828125,-47.36328125,-60.05859375,-95.703125,-88.37890625,0.0
17.21484375,-84.47265625,-49.8046875,-69.82421875,-99.12109375,-128.41796875,0.0
17.21875,-76.66015625,-52.734375,-77.1484375,-106.93359375,-60.05859375,0.0
17.22265625,-82.03125,-48.828125,-79.58984375,-111.81640625,49.31640625,0.0
17.2265625,-83.984375,-51.26953125,-78.125,-118.65234375,90.8203125,0.0
17.23046875,-69.82421875,-51.7578125,-71.2890625,-100.09765625,0.0,0.0
17.234375,-72.75390625,-53.7109375,-73.2421875,-98.14453125,-51.7578125,0.0
17.23828125,-89.35546875,-58.59375,-86.42578125,-99.609375,-5.37109375,0.0
17.2421875,-94.23828125,-65.4296875,-91.796875,-85.9375,30.2734375,0.0
17.24609375,-80.56640625,-72.75390625,-88.37890625,-96.6796875,10.25390625,0.0
17.25,-83.0078125,-72.265625,-95.21484375,-115.72265625,-35.64453125,0.0
17.25390625,-87.40234375,-69.3359375,-101.07421875,-107.421875,-76.171875,0.0
17.2578125,-93.75,-63.4765625,-93.75,-101.07421875,-129.8828125,0.0
17.26171875,-101.5625,-58.59375,-101.07421875,-108.88671875,-98.14453125,0.0
17.265625,-94.7265625,-62.5,-112.3046875,-112.3046875,-65.91796875,0.0
17.26953125,-93.26171875,-61.03515625,-110.3515625,-106.4453125,-81.0546875,0.0
17.2734375,-104.4921875,-59.08203125,-104.00390625,-95.703125,-103.515625,0.0
17.27734375,-104.4921875,-62.98828125,-101.07421875,-93.75,-99.609375,0.0
17.28125,-96.6796875,-64.94140625,-108.3984375,-102.05078125,-53.7109375,0.0
17.28515625,-95.703125,-69.3359375,-107.91015625,-105.46875,11.71875,0.0
17.2890625,-95.21484375,-71.77734375,-103.515625,-98.6328125,57.6171875,0.0
17.29296875,-92.7734375,-75.68359375,-107.91015625,-102.05078125,-3.41796875,0.0
17.296875,-97.65625,-80.56640625,-102.5390625,-111.328125,-62.01171875,0.0
17.30078125,-87.40234375,-83.0078125,-98.14453125,-107.421875,-60.05859375,0.0
17.3046875,-79.58984375,-82.51953125,-102.05078125,-105.46875,-57.12890625,0.0
17.30859375,-95.703125,-80.078125,-105.95703125,-102.05078125,-57.12890625,0.0
17.3125,-100.09765625,-79.1015625,-103.515625,-100.5859375,-79.58984375,0.0
17.31640625,-96.19140625,-76.171875,-96.19140625,-104.98046875,-72.75390625,0.0
17.3203125,-87.890625,-63.4765625,-88.8671875,-105.95703125,-50.29296875,0.0
17.32421875,-93.26171875,-65.91796875,-91.796875,-106.93359375,-79.1015625,0.0
17.328125,-102.05078125,-81.0546875,-94.7265625,-97.65625,-39.0625,0.0
17.33203125,-95.703125,-79.1015625,-100.5859375,-88.8671875,-38.0859375,0.0
17.3359375,-93.26171875,-67.3828125,-102.05078125,-89.84375,-97.65625,0.0
17.33984375,-100.5859375,-72.265625,-104.4921875,-111.81640625,-74.70703125,0.0
17.34375,-105.46875,-81.54296875,-113.76953125,-119.62890625,-58.59375,0.0
17.34765625,-99.12109375,-79.1015625,-109.86328125,-97.65625,-41.50390625,0.0
17.3515625,-104.4921875,-71.77734375,-107.91015625,-93.26171875,-16.11328125,0.0
17.35546875,-102.5390625,-71.2890625,-118.65234375,-105.95703125,-27.83203125,0.0
17.359375,-90.33203125,-75.1953125,-118.1640625,-96.6796875,56.15234375,0.0
17.36328125,-88.37890625,-72.75390625,-115.72265625,-105.95703125,120.1171875,0.0
17.3671875,-83.984375,-71.77734375,-111.328125,-115.234375,47.8515625,0.0
17.37109375,-78.61328125,-70.80078125,-102.5390625,-104.00390625,28.3203125,0.0
17.375,-74.21875,-67.3828125,-98.6328125,-99.12109375,42.48046875,0.0
17.37890625,-93.26171875,-64.453125,-99.609375,-93.75,12.20703125,0.0
17.3828125,-101.5625,-71.2890625,-104.00390625,-94.7265625,2.9296875,0.0
17.38671875,-79.58984375,-77.63671875,-108.88671875,-79.1015625,-45.41015625,0.0
17.390625,-78.61328125,-77.63671875,-108.88671875,-55.17578125,-84.47265625,0.0
17.39453125,-84.9609375,-72.75390625,-101.5625,-56.640625,-9.765625,0.0
17.3984375,-84.9609375,-72.75390625,-102.05078125,-55.6640625,103.02734375,0.0
17.40234375,-80.078125,-76.66015625,-104.00390625,-49.31640625,136.23046875,0.0
17.40625,-92.28515625,-79.1015625,-102.5390625,-47.8515625,80.078125,0.0
17.41015625,-101.5625,-80.56640625,-109.86328125,-62.01171875,38.0859375,0.0
17.4140625,-96.6796875,-76.66015625,-115.72265625,-49.31640625,112.79296875,0.0
17.41796875,-94.23828125,-77.63671875,-111.328125,-3.41796875,113.76953125,0.0
17.421875,-95.21484375,-79.1015625,-104.00390625,6.34765625,80.078125,0.0
17.42578125,-95.703125,-78.125,-101.07421875,2.9296875,105.46875,0.0
17.4296875,-100.5859375,-84.47265625,-104.98046875,30.76171875,108.3984375,0.0
17.43359375,-101.5625,-85.9375,-104.00390625,59.5703125,58.10546875,0.0
17.4375,-96.19140625,-84.47265625,-98.6328125,69.3359375,75.68359375,0.0
17.44140625,-90.8203125,-84.9609375,-92.28515625,80.56640625,97.16796875,0.0
17.4453125,-87.40234375,-81.0546875,-96.6796875,92.7734375,145.5078125,0.0
17.44921875,-85.44921875,-80.078125,-110.83984375,97.65625,95.21484375,0.0
17.453125,-86.9140625,-81.0546875,-106.93359375,96.6796875,-53.22265625,0.0
17.45703125,-92.7734375,-78.125,-106.4453125,102.05078125,-69.3359375,0.0
17.4609375,-95.703125,-72.75390625,-115.234375,114.2578125,-59.08203125,0.0
17.46484375,-78.125,-71.77734375,-110.83984375,120.1171875,-40.0390625,0.0
17.46875,-76.171875,-75.1953125,-107.421875,113.76953125,12.6953125,0.0
17.47265625,-82.51953125,-76.66015625,-113.28125,103.02734375,10.25390625,0.0
17.4765625,-90.33203125,-79.1015625,-105.46875,116.2109375,-23.92578125,0.0
17.48046875,-97.16796875,-78.61328125,-94.23828125,134.27734375,-31.73828125,0.0
17.484375,-98.14453125,-76.171875,-106.93359375,147.94921875,-68.359375,0.0
17.48828125,-88.8671875,-66.40625,-112.79296875,186.5234375,-65.4296875,0.0
17.4921875,-88.37890625,-61.03515625,-100.09765625,212.890625,70.3125,0.0
17.49609375,-96.19140625,-63.96484375,-94.7265625,197.75390625,136.23046875,0.0
17.5,-85.9375,-65.4296875,-99.12109375,189.94140625,62.5,0.0
17.50390625,-85.44921875,-63.96484375,-99.12109375,191.89453125,37.59765625,0.0
17.5078125,-96.19140625,-59.08203125,-97.65625,186.03515625,30.76171875,0.0
17.51171875,-95.703125,-57.12890625,-103.515625,183.59375,36.62109375,0.0
17.515625,-88.8671875,-57.12890625,-105.46875,182.6171875,32.2265625,0.0
17.51953125,-88.37890625,-55.17578125,-105.46875,187.01171875,5.37109375,0.0
17.5234375,-94.7265625,-57.6171875,-104.98046875,176.26953125,-33.69140625,0.0
17.52734375,-100.09765625,-62.5,-100.09765625,149.90234375,-6.34765625,0.0
17.53125,-101.5625,-68.84765625,-93.26171875,142.578125,30.2734375,0.0
17.53515625,-99.12109375,-67.3828125,-90.33203125,162.59765625,34.1796875,0.0
17.5390625,-99.609375,-65.91796875,-90.8203125,160.64453125,35.64453125,0.0
17.54296875,-102.5390625,-65.91796875,-94.23828125,141.6015625,-1.953125,0.0
17.546875,-104.00390625,-69.82421875,-99.12109375,129.8828125,-83.984375,0.0
17.55078125,-105.46875,-72.265625,-100.09765625,123.53515625,-34.1796875,0.0
17.5546875,-99.12109375,-77.63671875,-96.6796875,125.0,19.04296875,0.0
17.55859375,-89.84375,-79.1015625,-91.30859375,128.90625,56.15234375,0.0
17.5625,-81.0546875,-80.078125,-100.09765625,130.37109375,69.82421875,0.0
17.56640625,-83.984375,-82.51953125,-111.328125,117.67578125,0.9765625,0.0
17.5703125,-100.09765625,-83.984375,-107.421875,93.26171875,38.57421875,0.0
17.57421875,-106.4453125,-84.47265625,-105.95703125,97.16796875,64.453125,0.0
17.578125,-104.4921875,-79.58984375,-105.46875,108.3984375,6.8359375,0.0
17.58203125,-99.12109375,-79.58984375,-101.07421875,90.33203125,16.11328125,0.0
17.5859375,-96.6796875,-90.33203125,-108.3984375,74.70703125,-10.25390625,0.0
17.58984375,-96.6796875,-91.796875,-113.28125,84.47265625,-58.59375,0.0
17.59375,-88.8671875,-89.84375,-111.81640625,88.37890625,-49.31640625,0.0
17.59765625,-93.26171875,-87.890625,-110.83984375,72.265625,-38.57421875,0.0
17.6015625,-112.3046875,-86.42578125,-115.234375,61.03515625,-58.59375,0.0
17.60546875,-102.05078125,-92.28515625,-118.1640625,56.640625,-2.44140625,0.0
17.609375,-94.23828125,-96.6796875,-117.1875,50.78125,97.65625,0.0
17.61328125,-103.02734375,-92.7734375,-111.81640625,34.1796875,48.33984375,0.0
17.6171875,-98.6328125,-99.609375,-108.3984375,42.96875,-10.7421875,0.0
17.62109375,-97.65625,-102.05078125,-105.95703125,55.17578125,13.18359375,0.0
17.625,-100.09765625,-97.16796875,-107.421875,37.109375,-34.66796875,0.0
17.62890625,-93.26171875,-97.16796875,-109.86328125,17.08984375,-193.359375,0.0
17.6328125,-89.84375,-95.21484375,-107.421875,38.57421875,-245.1171875,0.0
17.63671875,-87.40234375,-94.23828125,-105.46875,51.7578125,-233.88671875,0.0
17.640625,-90.8203125,-97.16796875,-102.05078125,49.31640625,-250.0,0.0
17.64453125,-89.84375,-95.703125,-101.07421875,55.6640625,-163.0859375,0.0
17.6484375,-86.9140625,-85.9375,-100.09765625,43.9453125,-87.890625,0.0
17.65234375,-88.37890625,-87.40234375,-97.65625,32.71484375,-78.61328125,0.0
17.65625,-87.40234375,-94.7265625,-95.703125,50.78125,1.46484375,0.0
17.66015625,-91.796875,-93.26171875,-94.23828125,50.78125,184.5703125,0.0
17.6640625,-89.35546875,-88.37890625,-99.609375,27.83203125,149.90234375,0.0
17.66796875,-86.9140625,-86.42578125,-99.12109375,17.578125,28.3203125,0.0
17.671875,-92.7734375,-92.7734375,-93.26171875,37.59765625,24.4140625,0.0
17.67578125,-92.28515625,-86.9140625,-95.21484375,41.50390625,100.09765625,0.0
17.6796875,-85.9375,-83.49609375,-99.609375,42.48046875,146.484375,0.0
17.68359375,-83.49609375,-86.9140625,-99.609375,35.64453125,102.5390625,0.0
17.6875,-84.47265625,-87.890625,-95.21484375,27.34375,39.0625,0.0
17.69140625,-89.35546875,-87.40234375,-99.609375,32.2265625,-22.94921875,0.0
17.6953125,-104.4921875,-87.890625,-103.515625,31.73828125,-86.42578125,0.0
17.69921875,-98.14453125,-92.28515625,-98.6328125,22.94921875,-41.9921875,0.0
17.703125,-81.0546875,-92.7734375,-96.6796875,28.3203125,33.203125,0.0
17.70703125,-83.0078125,-89.84375,-100.09765625,33.203125,63.96484375,0.0
17.7109375,-86.9140625,-94.7265625,-103.02734375,39.0625,62.98828125,0.0
17.71484375,-87.890625,-91.30859375,-101.5625,35.15625,59.5703125,0.0
17.71875,-103.02734375,-84.47265625,-99.12109375,24.4140625,54.19921875,0.0
17.72265625,-94.23828125,-82.03125,-96.19140625,35.64453125,84.47265625,0.0
17.7265625,-88.37890625,-87.40234375,-90.33203125,41.50390625,45.8984375,0.0
17.73046875,-92.28515625,-89.35546875,-83.0078125,49.8046875,-58.59375,0.0
17.734375,-89.35546875,-81.54296875,-87.890625,54.19921875,-28.3203125,0.0
17.73828125,-99.609375,-78.61328125,-86.9140625,42.48046875,24.4140625,0.0
17.7421875,-105.95703125,-83.0078125,-91.30859375,19.53125,4.8828125,0.0
17.74609375,-92.7734375,-84.47265625,-100.09765625,29.296875,35.15625,0.0
17.75,-88.8671875,-83.984375,-97.16796875,31.73828125,31.25,0.0
17.75390625,-90.33203125,-82.03125,-95.21484375,19.53125,-4.39453125,0.0
17.7578125,-84.9609375,-80.078125,-90.8203125,20.01953125,5.859375,0.0
17.76171875,-85.9375,-79.58984375,-95.21484375,22.94921875,-9.27734375,0.0
17.765625,-92.7734375,-80.078125,-101.07421875,23.92578125,-20.5078125,0.0
17.76953125,-105.95703125,-78.61328125,-103.02734375,2.9296875,-27.83203125,0.0
17.7734375,-105.46875,-77.63671875,-112.79296875,-8.7890625,0.9765625,0.0
17.77734375,-105.95703125,-71.2890625,-106.4453125,-6.8359375,25.390625,0.0
17.78125,-104.00390625,-64.453125,-110.3515625,-2.44140625,8.30078125,0.0
17.78515625,-89.35546875,-62.01171875,-118.65234375,2.44140625,7.32421875,0.0
17.7890625,-89.84375,-59.08203125,-113.76953125,-13.671875,32.71484375,0.0
17.79296875,-89.84375,-59.08203125,-113.28125,-21.97265625,34.1796875,0.0
17.796875,-91.796875,-54.6875,-112.3046875,-9.765625,31.73828125,0.0
17.80078125,-92.28515625,-47.8515625,-114.2578125,-11.71875,-8.30078125,0.0
17.8046875,-93.75,-58.10546875,-125.9765625,-31.73828125,-20.01953125,0.0
17.80859375,-95.703125,-65.4296875,-128.90625,-49.8046875,61.5234375,0.0
17.8125,-92.28515625,-60.05859375,-125.48828125,-39.0625,105.95703125,0.0
17.81640625,-97.65625,-60.546875,-121.58203125,-29.296875,93.75,0.0
17.8203125,-102.05078125,-60.05859375,-119.62890625,-26.3671875,52.734375,0.0
17.82421875,-94.23828125,-65.4296875,-129.39453125,-42.48046875,34.1796875,0.0
17.828125,-86.42578125,-70.3125,-137.20703125,-41.9921875,33.69140625,0.0
17.83203125,-101.07421875,-62.01171875,-124.51171875,-34.66796875,-32.2265625,0.0
17.8359375,-100.5859375,-54.19921875,-109.86328125,-47.8515625,14.16015625,0.0
17.83984375,-89.84375,-53.22265625,-109.86328125,-57.12890625,-6.8359375,0.0
17.84375,-90.8203125,-56.640625,-120.60546875,-45.41015625,-23.92578125,0.0
17.84765625,-95.703125,-56.15234375,-126.953125,-41.015625,-0.9765625,0.0
17.8515625,-97.16796875,-55.17578125,-129.39453125,-33.203125,1.953125,0.0
17.85546875,-97.65625,-55.6640625,-131.34765625,-38.57421875,-17.578125,0.0
17.859375,-86.9140625,-49.31640625,-131.8359375,-49.8046875,-117.1875,0.0
17.86328125,-78.61328125,-43.45703125,-135.25390625,-61.03515625,-147.4609375,0.0
17.8671875,-78.61328125,-40.0390625,-136.23046875,-55.6640625,-173.33984375,0.0
17.87109375,-77.1484375,-46.875,-131.8359375,-46.875,-231.4453125,0.0
17.875,-74.21875,-53.7109375,-118.1640625,-54.19921875,-169.43359375,0.0
17.87890625,-86.9140625,-50.29296875,-104.00390625,-55.6640625,-106.93359375,0.0
17.8828125,-90.8203125,-46.875,-100.5859375,-51.26953125,6.8359375,0.0
17.88671875,-82.03125,-58.10546875,-90.8203125,-53.22265625,47.36328125,0.0
17.890625,-81.54296875,-66.89453125,-80.078125,-64.453125,22.94921875,0.0
17.89453125,-82.03125,-58.10546875,-80.56640625,-66.89453125,-14.6484375,0.0
17.8984375,-77.1484375,-53.22265625,-76.66015625,-61.5234375,60.05859375,0.0
17.90234375,-84.9609375,-48.33984375,-75.68359375,-76.66015625,101.5625,0.0
17.90625,-90.33203125,-45.8984375,-84.47265625,-71.77734375,-10.7421875,0.0
17.91015625,-84.9609375,-45.8984375,-83.984375,-54.6875,28.3203125,0.0
17.9140625,-80.56640625,-43.9453125,-80.078125,-57.12890625,111.328125,0.0
17.91796875,-77.1484375,-40.0390625,-78.61328125,-66.89453125,120.1171875,0.0
17.921875,-75.68359375,-40.52734375,-72.75390625,-68.84765625,41.015625,0.0
17.92578125,-83.49609375,-47.36328125,-67.3828125,-66.40625,-39.0625,0.0
17.9296875,-86.9140625,-51.26953125,-67.87109375,-74.21875,-26.3671875,0.0
17.93359375,-79.58984375,-51.7578125,-65.91796875,-78.125,-5.859375,0.0
17.9375,-87.40234375,-55.17578125,-69.82421875,-80.078125,5.37109375,0.0
17.94140625,-89.84375,-58.10546875,-80.078125,-83.984375,12.6953125,0.0
17.9453125,-86.9140625,-55.6640625,-80.078125,-87.890625,3.90625,0.0
17.94921875,-100.09765625,-59.08203125,-79.1015625,-79.1015625,14.16015625,0.0
17.953125,-101.07421875,-58.59375,-80.078125,-64.453125,-72.265625,0.0
17.95703125,-88.8671875,-55.6640625,-81.0546875,-68.359375,-108.3984375,0.0
17.9609375,-88.8671875,-54.6875,-83.0078125,-78.61328125,-112.79296875,0.0
17.96484375,-85.9375,-50.78125,-83.0078125,-81.54296875,-83.49609375,0.0
17.96875,-77.1484375,-55.6640625,-83.0078125,-70.80078125,-40.0390625,0.0
17.97265625,-89.35546875,-58.10546875,-82.03125,-84.9609375,-32.2265625,0.0
17.9765625,-100.5859375,-55.6640625,-81.0546875,-104.4921875,-43.9453125,0.0
17.98046875,-100.5859375,-57.12890625,-80.56640625,-97.16796875,-41.9921875,0.0
17.984375,-82.51953125,-62.98828125,-82.03125,-80.56640625,49.8046875,0.0
17.98828125,-79.1015625,-65.4296875,-87.890625,-75.68359375,59.08203125,0.0
17.9921875,-101.5625,-67.87109375,-90.33203125,-86.42578125,18.06640625,0.0
17.99609375,-95.21484375,-62.98828125,-78.61328125,-103.515625,38.0859375,0.0
18.0,-74.70703125,-51.7578125,-79.58984375,-109.375,7.32421875,0.0
18.00390625,-81.0546875,-42.48046875,-90.33203125,-89.84375,-1.953125,0.0
18.0078125,-87.40234375,-43.45703125,-85.9375,-83.49609375,40.52734375,0.0
18.01171875,-81.0546875,-50.29296875,-87.890625,-85.44921875,29.78515625,0.0
18.015625,-79.58984375,-51.7578125,-94.23828125,-93.75,21.484375,0.0
18.01953125,-90.33203125,-56.15234375,-95.21484375,-90.33203125,-26.85546875,0.0
18.0234375,-97.16796875,-49.31640625,-91.796875,-102.5390625,-52.734375,0.0
18.02734375,-90.8203125,-44.921875,-91.30859375,-115.72265625,26.85546875,0.0
18.03125,-83.0078125,-52.24609375,-93.26171875,-93.75,48.828125,0.0
18.03515625,-83.984375,-51.7578125,-92.7734375,-73.73046875,-41.9921875,0.0
18.0390625,-78.61328125,-50.29296875,-97.16796875,-82.03125,-80.56640625,0.0
18.04296875,-75.1953125,-52.24609375,-102.05078125,-85.9375,-83.0078125,0.0
18.046875,-84.47265625,-54.6875,-107.421875,-82.03125,-70.3125,0.0
18.05078125,-94.7265625,-55.6640625,-112.3046875,-86.9140625,29.296875,0.0
18.0546875,-95.703125,-61.03515625,-111.81640625,-88.8671875,-79.1015625,0.0
18.05859375,-92.7734375,-70.3125,-119.62890625,-116.2109375,-185.05859375,0.0
18.0625,-91.796875,-75.1953125,-120.1171875,-121.58203125,-153.3203125,0.0
18.06640625,-93.26171875,-73.2421875,-118.1640625,-119.62890625,-83.0078125,0.0
18.0703125,-92.7734375,-64.453125,-120.1171875,-115.72265625,26.3671875,0.0
18.07421875,-98.14453125,-62.5,-117.1875,-96.19140625,118.1640625,0.0
18.078125,-91.30859375,-61.5234375,-122.0703125,-100.5859375,121.09375,0.0
18.08203125,-80.56640625,-53.7109375,-122.0703125,-118.1640625,100.5859375,0.0
18.0859375,-91.796875,-59.5703125,-121.58203125,-125.48828125,149.4140625,0.0
18.08984375,-99.12109375,-69.82421875,-121.58203125,-123.046875,38.0859375,0.0
18.09375,-84.9609375,-65.91796875,-116.2109375,-111.81640625,38.0859375,0.0
18.09765625,-86.42578125,-63.96484375,-118.65234375,-104.00390625,86.42578125,0.0
18.1015625,-98.14453125,-70.3125,-122.0703125,-108.3984375,-1.46484375,0.0
18.10546875,-95.21484375,-73.2421875,-121.58203125,-116.2109375,32.71484375,0.0
18.109375,-99.12109375,-72.75390625,-120.1171875,-128.90625,66.89453125,0.0
18.11328125,-104.00390625,-71.2890625,-122.55859375,-116.2109375,21.97265625,0.0
18.1171875,-104.98046875,-67.87109375,-125.9765625,-107.421875,16.6015625,0.0
18.12109375,-106.4453125,-65.91796875,-122.55859375,-117.67578125,43.45703125,0.0
18.125,-102.05078125,-70.80078125,-114.2578125,-112.3046875,41.50390625,0.0
18.12890625,-87.40234375,-66.89453125,-107.421875,-99.12109375,-53.7109375,0.0
18.1328125,-86.9140625,-57.12890625,-106.93359375,-89.84375,-68.359375,0.0
18.13671875,-104.00390625,-46.38671875,-115.234375,-96.6796875,-32.71484375,0.0
18.140625,-106.4453125,-43.9453125,-125.0,-94.7265625,-85.44921875,0.0
18.14453125,-103.02734375,-35.15625,-126.46484375,-92.7734375,-38.57421875,0.0
18.1484375,-108.3984375,-27.34375,-122.55859375,-110.83984375,-3.41796875,0.0
18.15234375,-111.328125,-33.203125,-125.48828125,-104.4921875,-49.31640625,0.0
18.15625,-115.72265625,-37.59765625,-125.9765625,-102.05078125,-47.36328125,0.0
18.16015625,-108.88671875,-35.15625,-117.67578125,-90.8203125,49.31640625,0.0
18.1640625,-103.02734375,-39.0625,-117.67578125,-95.703125,52.734375,0.0
18.16796875,-102.5390625,-40.52734375,-122.0703125,-101.5625,-14.16015625,0.0
18.171875,-91.30859375,-35.15625,-120.1171875,-88.37890625,-5.859375,0.0
18.17578125,-91.796875,-39.55078125,-120.1171875,-86.9140625,79.58984375,0.0
18.1796875,-96.19140625,-42.48046875,-125.9765625,-83.0078125,89.35546875,0.0
18.18359375,-96.19140625,-41.9921875,-122.0703125,-87.890625,-8.7890625,0.0
18.1875,-83.0078125,-40.52734375,-123.53515625,-86.9140625,13.671875,0.0
18.19140625,-93.26171875,-39.55078125,-123.046875,-80.078125,49.31640625,0.0
18.1953125,-106.93359375,-40.0390625,-115.72265625,-107.91015625,95.703125,0.0
18.19921875,-97.16796875,-41.015625,-113.76953125,-112.3046875,213.37890625,0.0
18.203125,-83.984375,-45.41015625,-113.28125,-97.65625,164.0625,0.0
18.20703125,-77.63671875,-44.921875,-118.65234375,-112.3046875,45.41015625,0.0
18.2109375,-84.9609375,-39.55078125,-120.1171875,-108.88671875,50.78125,0.0
18.21484375,-85.44921875,-42.48046875,-117.1875,-103.02734375,40.0390625,0.0
18.21875,-83.984375,-51.7578125,-121.58203125,-112.79296875,-18.06640625,0.0
18.22265625,-84.9609375,-45.41015625,-126.953125,-106.93359375,11.71875,0.0
18.2265625,-87.40234375,-42.96875,-122.0703125,-104.4921875,-17.578125,0.0
18.23046875,-89.35546875,-53.7109375,-115.234375,-110.83984375,-83.0078125,0.0
18.234375,-103.02734375,-63.4765625,-117.67578125,-101.5625,-109.375,0.0
18.23828125,-103.515625,-62.5,-116.69921875,-94.7265625,-48.828125,0.0
18.2421875,-97.65625,-59.08203125,-120.1171875,-100.5859375,-20.01953125,0.0
18.24609375,-99.12109375,-62.5,-118.65234375,-107.421875,-28.3203125,0.0
18.25,-99.609375,-64.94140625,-116.2109375,-104.98046875,25.87890625,0.0
18.25390625,-95.21484375,-68.84765625,-114.74609375,-96.6796875,-25.87890625,0.0
18.2578125,-87.890625,-72.265625,-112.3046875,-91.796875,-70.3125,0.0
18.26171875,-88.37890625,-69.82421875,-106.93359375,-109.375,-72.75390625,0.0
18.265625,-95.21484375,-70.3125,-97.65625,-127.44140625,-53.7109375,0.0
18.26953125,-94.23828125,-76.171875,-92.28515625,-110.83984375,-27.83203125,0.0
18.2734375,-83.0078125,-78.125,-97.65625,-86.42578125,-17.578125,0.0
18.27734375,-75.1953125,-71.77734375,-97.16796875,-85.44921875,-33.203125,0.0
18.28125,-80.078125,-73.73046875,-96.19140625,-91.796875,-115.72265625,0.0
18.28515625,-85.44921875,-74.21875,-98.14453125,-105.46875,-51.7578125,0.0
18.2890625,-91.30859375,-74.70703125,-98.6328125,-102.05078125,24.90234375,0.0
18.29296875,-90.8203125,-85.44921875,-96.19140625,-92.7734375,-21.484375,0.0
18.296875,-84.9609375,-84.47265625,-104.4921875,-82.51953125,18.06640625,0.0
18.30078125,-84.47265625,-80.56640625,-108.3984375,-77.1484375,37.109375,0.0
18.3046875,-80.56640625,-81.0546875,-108.3984375,-83.984375,-6.8359375,0.0
18.30859375,-94.23828125,-84.9609375,-117.67578125,-85.9375,2.9296875,0.0
18.3125,-93.75,-84.47265625,-122.0703125,-84.47265625,-49.8046875,0.0
18.31640625,-80.078125,-84.9609375,-117.67578125,-73.73046875,-51.7578125,0.0
18.3203125,-91.30859375,-91.796875,-118.65234375,-79.58984375,53.22265625,0.0
18.32421875,-102.5390625,-97.16796875,-132.32421875,-99.12109375,98.6328125,0.0
18.328125,-94.23828125,-100.09765625,-130.37109375,-93.75,49.31640625,0.0
18.33203125,-102.5390625,-101.07421875,-123.046875,-94.23828125,44.921875,0.0
18.3359375,-113.28125,-98.6328125,-120.1171875,-87.890625,41.015625,0.0
18.33984375,-109.86328125,-89.35546875,-118.1640625,-80.078125,42.96875,0.0
18.34375,-104.4921875,-84.47265625,-128.41796875,-98.6328125,34.66796875,0.0
18.34765625,-94.7265625,-90.33203125,-131.34765625,-103.515625,-25.87890625,0.0
18.3515625,-104.98046875,-89.84375,-130.37109375,-104.4921875,-55.6640625,0.0
18.35546875,-113.28125,-81.54296875,-128.41796875,-106.93359375,-16.11328125,0.0
18.359375,-106.93359375,-88.37890625,-130.859375,-97.65625,-6.8359375,0.0
18.36328125,-110.3515625,-88.8671875,-133.7890625,-104.98046875,12.6953125,0.0
18.3671875,-107.421875,-78.61328125,-126.46484375,-98.14453125,73.2421875,0.0
18.37109375,-99.12109375,-77.63671875,-117.67578125,-86.9140625,34.66796875,0.0
18.375,-101.07421875,-79.1015625,-106.4453125,-94.7265625,-31.73828125,0.0
18.37890625,-99.609375,-79.1015625,-100.5859375,-88.8671875,7.32421875,0.0
18.3828125,-93.26171875,-79.1015625,-99.12109375,-84.9609375,75.1953125,0.0
18.38671875,-96.19140625,-84.47265625,-96.19140625,-87.890625,58.10546875,0.0
18.390625,-97.65625,-86.9140625,-100.09765625,-84.47265625,-10.7421875,0.0
18.39453125,-104.98046875,-85.44921875,-106.93359375,-96.19140625,43.45703125,0.0
18.3984375,-103.02734375,-81.0546875,-113.28125,-102.05078125,81.0546875,0.0
18.40234375,-103.02734375,-80.56640625,-116.69921875,-93.26171875,50.29296875,0.0
18.40625,-100.5859375,-87.890625,-116.69921875,-93.26171875,55.6640625,0.0
18.41015625,-101.5625,-89.84375,-125.0,-86.9140625,-24.90234375,0.0
18.4140625,-105.46875,-84.47265625,-125.9765625,-84.47265625,-40.52734375,0.0
18.41796875,-94.7265625,-77.63671875,-114.74609375,-95.703125,41.015625,0.0
18.421875,-90.33203125,-71.77734375,-108.3984375,-98.6328125,-18.5546875,0.0
18.42578125,-91.796875,-68.84765625,-99.609375,-92.7734375,-87.890625,0.0
18.4296875,-95.21484375,-69.82421875,-98.14453125,-85.44921875,-38.0859375,0.0
18.43359375,-93.26171875,-69.3359375,-104.4921875,-85.9375,-17.08984375,0.0
18.4375,-91.796875,-70.80078125,-102.05078125,-90.8203125,-17.578125,0.0
18.44140625,-91.30859375,-75.68359375,-103.02734375,-89.35546875,-125.9765625,0.0
18.4453125,-94.23828125,-75.1953125,-105.95703125,-88.8671875,-142.578125,0.0
18.44921875,-87.890625,-77.63671875,-104.00390625,-74.70703125,-76.171875,0.0
18.453125,-97.65625,-81.0546875,-104.00390625,-59.08203125,-78.125,0.0
18.45703125,-102.5390625,-77.1484375,-110.83984375,-62.5,-29.296875,0.0
18.4609375,-85.44921875,-76.66015625,-111.328125,-79.58984375,-28.3203125,0.0
18.46484375,-83.984375,-76.66015625,-106.93359375,-67.87109375,-90.8203125,0.0
18.46875,-91.30859375,-73.73046875,-105.46875,-55.17578125,-117.1875,0.0
18.47265625,-103.02734375,-75.68359375,-106.93359375,-57.6171875,-96.19140625,0.0
18.4765625,-105.95703125,-75.68359375,-107.91015625,-70.80078125,-83.49609375,0.0
18.48046875,-96.19140625,-77.1484375,-111.328125,-75.68359375,-85.44921875,0.0
18.484375,-100.09765625,-82.03125,-119.140625,-87.40234375,-11.23046875,0.0
18.48828125,-109.375,-82.03125,-118.65234375,-95.703125,-5.859375,0.0
18.4921875,-112.3046875,-80.078125,-113.28125,-84.9609375,-27.83203125,0.0
18.49609375,-108.3984375,-79.58984375,-117.1875,-99.609375,-43.9453125,0.0
18.5,-106.4453125,-74.21875,-114.74609375,-88.8671875,-81.0546875,0.0
18.50390625,-111.81640625,-68.359375,-109.86328125,-73.2421875,22.4609375,0.0
18.5078125,-104.00390625,-73.73046875,-113.28125,-83.984375,62.98828125,0.0
18.51171875,-99.12109375,-77.63671875,-111.81640625,-86.42578125,-25.87890625,0.0
18.515625,-86.42578125,-75.68359375,-109.375,-82.51953125,-59.08203125,0.0
18.51953125,-86.9140625,-69.82421875,-108.88671875,-89.84375,19.53125,0.0
18.5234375,-101.5625,-69.82421875,-112.3046875,-92.7734375,31.73828125,0.0
18.52734375,-107.91015625,-76.171875,-117.67578125,-88.37890625,-7.32421875,0.0
18.53125,-107.91015625,-79.1015625,-108.88671875,-93.26171875,-6.34765625,0.0
18.53515625,-105.95703125,-73.73046875,-96.19140625,-88.8671875,-35.64453125,0.0
18.5390625,-100.5859375,-67.3828125,-97.65625,-69.3359375,-43.45703125,0.0
18.54296875,-104.98046875,-68.359375,-101.07421875,-78.125,-35.15625,0.0
18.546875,-109.86328125,-73.73046875,-107.91015625,-89.35546875,-15.625,0.0
18.55078125,-112.79296875,-74.21875,-104.4921875,-85.9375,70.80078125,0.0
18.5546875,-107.421875,-72.75390625,-95.703125,-89.84375,166.50390625,0.0
18.55859375,-104.4921875,-75.68359375,-98.14453125,-88.37890625,145.99609375,0.0
18.5625,-107.421875,-75.68359375,-105.46875,-80.56640625,-30.2734375,0.0
18.56640625,-107.91015625,-67.3828125,-101.5625,-90.8203125,-74.21875,0.0
18.5703125,-104.4921875,-69.3359375,-96.19140625,-94.23828125,-48.828125,0.0
18.57421875,-101.07421875,-74.70703125,-103.515625,-80.078125,-84.47265625,0.0
18.578125,-106.4453125,-73.2421875,-106.4453125,-87.890625,-21.97265625,0.0
18.58203125,-107.91015625,-77.63671875,-111.328125,-112.3046875,-31.25,0.0
18.5859375,-93.26171875,-80.56640625,-115.234375,-98.6328125,19.53125,0.0
18.58984375,-89.35546875,-83.0078125,-114.2578125,-81.54296875,41.015625,0.0
18.59375,-101.5625,-91.796875,-112.3046875,-85.9375,19.04296875,0.0
18.59765625,-114.74609375,-86.9140625,-112.79296875,-90.8203125,-9.765625,0.0
18.6015625,-112.79296875,-78.61328125,-115.72265625,-104.98046875,3.41796875,0.0
18.60546875,-108.88671875,-80.078125,-125.9765625,-122.0703125,33.203125,0.0
18.609375,-109.375,-84.9609375,-132.32421875,-117.67578125,47.36328125,0.0
18.61328125,-113.76953125,-90.33203125,-124.51171875,-116.2109375,-13.671875,0.0
18.6171875,-117.67578125,-96.19140625,-125.9765625,-103.02734375,-83.49609375,0.0
18.62109375,-115.234375,-88.37890625,-126.46484375,-97.65625,31.73828125,0.0
18.625,-102.5390625,-81.0546875,-123.046875,-110.3515625,92.7734375,0.0
18.62890625,-102.5390625,-83.0078125,-120.60546875,-114.2578125,25.390625,0.0
18.6328125,-108.3984375,-86.9140625,-119.140625,-114.74609375,-29.296875,0.0
18.63671875,-112.79296875,-88.37890625,-118.1640625,-109.86328125,-74.21875,0.0
18.640625,-118.65234375,-91.30859375,-123.046875,-110.3515625,-37.109375,0.0
18.64453125,-121.58203125,-87.40234375,-124.51171875,-112.79296875,20.99609375,0.0
18.6484375,-129.39453125,-83.0078125,-120.1171875,-117.1875,-1.46484375,0.0
18.65234375,-125.9765625,-84.47265625,-115.72265625,-103.02734375,-41.015625,0.0
18.65625,-113.28125,-89.35546875,-115.72265625,-99.609375,-16.11328125,0.0
18.66015625,-117.67578125,-86.9140625,-121.58203125,-101.07421875,56.640625,0.0
18.6640625,-126.953125,-84.9609375,-116.69921875,-97.65625,104.98046875,0.0
18.66796875,-117.1875,-90.33203125,-112.79296875,-104.98046875,106.93359375,0.0
18.671875,-115.234375,-94.7265625,-116.2109375,-113.76953125,120.1171875,0.0
18.67578125,-131.34765625,-91.30859375,-110.83984375,-105.95703125,1.46484375,0.0
18.6796875,-130.37109375,-84.47265625,-102.05078125,-103.515625,-76.66015625,0.0
18.68359375,-127.9296875,-83.0078125,-104.98046875,-119.140625,-22.4609375,0.0
18.6875,-131.34765625,-94.7265625,-109.375,-133.30078125,-13.18359375,0.0
18.69140625,-131.8359375,-95.21484375,-104.4921875,-126.953125,60.546875,0.0
18.6953125,-131.8359375,-91.30859375,-104.00390625,-121.09375,2.9296875,0.0
18.69921875,-126.953125,-97.65625,-101.5625,-119.140625,-33.69140625,0.0
18.703125,-121.09375,-92.28515625,-98.14453125,-121.58203125,-40.0390625,0.0
18.70703125,-120.60546875,-89.35546875,-92.28515625,-108.3984375,-61.5234375,0.0
18.7109375,-105.46875,-87.890625,-85.44921875,-99.12109375,-13.671875,0.0
18.71484375,-104.98046875,-84.47265625,-89.84375,-93.26171875,-82.51953125,0.0
18.71875,-116.69921875,-87.40234375,-97.65625,-84.9609375,-120.1171875,0.0
18.72265625,-119.140625,-83.0078125,-93.26171875,-98.6328125,-83.984375,0.0
18.7265625,-124.0234375,-83.0078125,-93.26171875,-103.515625,-123.046875,0.0
18.73046875,-125.0,-83.984375,-105.46875,-111.328125,-20.99609375,0.0
18.734375,-120.1171875,-86.9140625,-108.88671875,-108.3984375,62.5,0.0
18.73828125,-119.62890625,-93.26171875,-109.375,-96.19140625,5.37109375,0.0
18.7421875,-121.09375,-94.7265625,-118.65234375,-110.3515625,43.9453125,0.0
18.74609375,-118.65234375,-93.26171875,-123.53515625,-110.3515625,92.28515625,0.0
18.75,-127.44140625,-94.7265625,-123.53515625,-108.3984375,12.20703125,0.0
18.75390625,-134.765625,-94.7265625,-117.67578125,-108.3984375,11.71875,0.0
18.7578125,-125.9765625,-90.33203125,-114.74609375,-91.30859375,106.4453125,0.0
18.76171875,-124.51171875,-87.890625,-107.421875,-102.05078125,66.89453125,0.0
18.765625,-129.39453125,-95.21484375,-106.93359375,-112.3046875,-31.73828125,0.0
18.76953125,-127.9296875,-96.19140625,-104.98046875,-97.65625,-71.77734375,0.0
18.7734375,-117.1875,-87.890625,-98.6328125,-89.35546875,-87.890625,0.0
18.77734375,-113.76953125,-86.42578125,-105.95703125,-83.0078125,-77.1484375,0.0
18.78125,-114.74609375,-89.35546875,-121.58203125,-93.26171875,-40.0390625,0.0
18.78515625,-120.1171875,-89.84375,-124.51171875,-102.5390625,2.9296875,0.0
18.7890625,-139.16015625,-90.8203125,-123.046875,-99.12109375,20.01953125,0.0
18.79296875,-134.27734375,-88.8671875,-121.09375,-101.07421875,44.921875,0.0
18.796875,-113.76953125,-87.890625,-122.0703125,-101.5625,70.80078125,0.0
18.80078125,-114.2578125,-86.42578125,-121.58203125,-109.86328125,73.73046875,0.0
18.8046875,-105.46875,-90.33203125,-118.65234375,-107.91015625,80.078125,0.0
18.80859375,-109.86328125,-93.26171875,-124.0234375,-95.21484375,46.875,0.0
18.8125,-125.48828125,-98.6328125,-120.1171875,-84.9609375,0.0,0.0
18.81640625,-125.48828125,-100.5859375,-107.91015625,-86.42578125,63.4765625,0.0
18.8203125,-117.1875,-100.09765625,-104.00390625,-90.8203125,24.90234375,0.0
18.82421875,-118.65234375,-105.95703125,-110.83984375,-94.23828125,-77.1484375,0.0
18.828125,-113.28125,-113.28125,-118.65234375,-89.35546875,-224.12109375,0.0
18.83203125,-108.3984375,-107.421875,-114.74609375,-83.0078125,-257.8125,0.0
18.8359375,-115.72265625,-105.95703125,-108.88671875,-86.9140625,-174.31640625,0.0
18.83984375,-109.375,-111.328125,-104.98046875,-79.58984375,-171.38671875,0.0
18.84375,-104.00390625,-113.76953125,-106.93359375,-89.35546875,-181.15234375,0.0
18.84765625,-99.609375,-112.79296875,-118.1640625,-90.8203125,-131.8359375,0.0
18.8515625,-102.05078125,-108.3984375,-119.140625,-80.078125,-156.25,0.0
18.85546875,-99.609375,-101.5625,-115.234375,-70.80078125,-186.03515625,0.0
18.859375,-99.12109375,-95.703125,-117.1875,-67.3828125,-96.6796875,0.0
18.86328125,-116.2109375,-98.14453125,-116.69921875,-84.47265625,-36.1328125,0.0
18.8671875,-108.3984375,-93.75,-118.1640625,-105.46875,-92.7734375,0.0
18.87109375,-102.05078125,-90.8203125,-115.234375,-99.609375,-108.88671875,0.0
18.875,-108.88671875,-98.6328125,-109.86328125,-93.75,-115.234375,0.0
18.87890625,-99.609375,-93.26171875,-112.79296875,-88.37890625,-61.03515625,0.0
18.8828125,-102.5390625,-92.28515625,-118.65234375,-86.9140625,61.5234375,0.0
18.88671875,-97.65625,-90.8203125,-108.88671875,-94.23828125,78.125,0.0
18.890625,-85.44921875,-86.42578125,-104.00390625,-77.63671875,74.70703125,0.0
18.89453125,-94.23828125,-93.26171875,-105.46875,-76.66015625,101.07421875,0.0
18.8984375,-114.74609375,-90.33203125,-98.6328125,-87.890625,41.50390625,0.0
18.90234375,-118.65234375,-89.35546875,-97.65625,-95.21484375,13.18359375,0.0
18.90625,-109.86328125,-93.75,-101.5625,-91.30859375,61.5234375,0.0
18.91015625,-102.05078125,-95.703125,-99.609375,-79.58984375,5.37109375,0.0
18.9140625,-99.609375,-97.65625,-97.65625,-84.47265625,-20.01953125,0.0
18.91796875,-102.5390625,-97.65625,-100.09765625,-91.30859375,44.43359375,0.0
18.921875,-101.07421875,-96.19140625,-98.14453125,-77.1484375,62.98828125,0.0
18.92578125,-103.02734375,-92.7734375,-97.65625,-81.0546875,33.69140625,0.0
18.9296875,-105.95703125,-91.796875,-93.75,-86.9140625,32.71484375,0.0
18.93359375,-109.375,-95.703125,-92.28515625,-74.21875,44.921875,0.0
18.9375,-105.95703125,-91.796875,-90.8203125,-63.96484375,57.12890625,0.0
18.94140625,-104.00390625,-90.8203125,-93.75,-80.56640625,64.453125,0.0
18.9453125,-103.02734375,-93.75,-92.28515625,-84.9609375,84.9609375,0.0
18.94921875,-104.98046875,-97.65625,-87.40234375,-75.1953125,27.83203125,0.0
18.953125,-110.83984375,-99.12109375,-79.58984375,-83.984375,-7.8125,0.0
18.95703125,-102.05078125,-94.23828125,-70.80078125,-64.453125,1.953125,0.0
18.9609375,-86.42578125,-89.84375,-62.5,-48.33984375,-50.29296875,0.0
18.96484375,-85.9375,-85.44921875,-64.94140625,-82.03125,-42.96875,0.0
18.96875,-94.23828125,-87.40234375,-83.984375,-112.79296875,12.20703125,0.0
18.97265625,-98.6328125,-91.30859375,-84.47265625,-102.05078125,-36.62109375,0.0
18.9765625,-104.98046875,-93.75,-81.0546875,-95.21484375,-7.32421875,0.0
18.98046875,-96.6796875,-89.84375,-82.03125,-77.1484375,57.6171875,0.0
18.984375,-79.1015625,-86.9140625,-67.3828125,-69.82421875,70.3125,0.0
18.98828125,-82.03125,-88.37890625,-59.5703125,-77.1484375,57.6171875,0.0
18.9921875,-91.30859375,-94.23828125,-60.546875,-78.125,48.828125,0.0
18.99609375,-96.19140625,-97.16796875,-61.5234375,-74.70703125,43.45703125,0.0
19.0,-89.84375,-89.35546875,-62.98828125,-65.4296875,21.97265625,0.0
19.00390625,-93.75,-88.8671875,-71.2890625,-62.01171875,14.16015625,0.0
19.0078125,-102.5390625,-92.28515625,-73.73046875,-75.68359375,37.59765625,0.0
19.01171875,-99.609375,-84.47265625,-66.89453125,-99.12109375,6.34765625,0.0
19.015625,-98.14453125,-79.1015625,-64.94140625,-88.8671875,-26.85546875,0.0
19.01953125,-92.7734375,-79.1015625,-67.87109375,-68.359375,28.80859375,0.0
19.0234375,-81.0546875,-79.1015625,-70.80078125,-67.3828125,17.578125,0.0
19.02734375,-91.796875,-76.171875,-69.3359375,-64.453125,17.08984375,0.0
19.03125,-114.2578125,-76.66015625,-76.66015625,-66.89453125,72.75390625,0.0
19.03515625,-113.28125,-80.56640625,-87.890625,-76.171875,38.57421875,0.0
19.0390625,-98.6328125,-81.0546875,-84.9609375,-75.68359375,-34.66796875,0.0
19.04296875,-98.6328125,-85.9375,-80.56640625,-83.49609375,-34.1796875,0.0
19.046875,-108.88671875,-98.14453125,-95.21484375,-103.515625,13.671875,0.0
19.05078125,-94.23828125,-98.6328125,-100.09765625,-104.98046875,72.75390625,0.0
19.0546875,-82.51953125,-90.33203125,-97.16796875,-85.9375,78.61328125,0.0
19.05859375,-99.12109375,-89.35546875,-102.5390625,-81.54296875,91.30859375,0.0
19.0625,-105.46875,-93.26171875,-101.5625,-72.265625,62.98828125,0.0
19.06640625,-99.609375,-98.6328125,-103.02734375,-68.84765625,10.25390625,0.0
19.0703125,-101.07421875,-100.5859375,-109.375,-73.2421875,55.6640625,0.0
19.07421875,-99.12109375,-100.5859375,-103.02734375,-70.80078125,22.94921875,0.0
19.078125,-108.3984375,-97.65625,-105.46875,-82.03125,-28.3203125,0.0
19.08203125,-118.65234375,-95.21484375,-106.4453125,-93.26171875,19.53125,0.0
19.0859375,-101.07421875,-90.8203125,-100.5859375,-72.75390625,56.15234375,0.0
19.08984375,-88.37890625,-80.56640625,-109.86328125,-77.1484375,33.69140625,0.0
19.09375,-91.796875,-77.63671875,-110.3515625,-92.7734375,48.33984375,0.0
19.09765625,-87.40234375,-80.56640625,-100.09765625,-87.40234375,54.6875,0.0
19.1015625,-74.70703125,-80.56640625,-101.07421875,-78.125,-1.953125,0.0
19.10546875,-83.984375,-79.58984375,-96.19140625,-80.078125,-21.97265625,0.0
19.109375,-83.0078125,-83.0078125,-88.37890625,-86.42578125,-23.4375,0.0
19.11328125,-82.51953125,-81.0546875,-82.03125,-81.0546875,-60.05859375,0.0
19.1171875,-97.16796875,-82.51953125,-90.33203125,-83.0078125,40.0390625,0.0
19.12109375,-103.515625,-89.84375,-105.46875,-83.49609375,72.265625,0.0
19.125,-111.328125,-96.19140625,-107.421875,-80.56640625,2.9296875,0.0
19.12890625,-107.91015625,-97.65625,-103.02734375,-86.42578125,-25.87890625,0.0
19.1328125,-105.46875,-95.21484375,-93.26171875,-99.12109375,-59.5703125,0.0
19.13671875,-104.4921875,-93.75,-87.890625,-83.49609375,-33.203125,0.0
19.140625,-95.703125,-94.23828125,-86.9140625,-72.75390625,-5.859375,0.0
19.14453125,-89.35546875,-92.7734375,-88.37890625,-63.96484375,36.1328125,0.0
19.1484375,-90.33203125,-93.26171875,-93.75,-68.84765625,56.640625,0.0
19.15234375,-101.07421875,-91.30859375,-86.9140625,-85.44921875,14.6484375,0.0
19.15625,-102.5390625,-90.8203125,-92.28515625,-61.5234375,13.18359375,0.0
19.16015625,-98.14453125,-89.35546875,-98.14453125,-57.6171875,13.18359375,0.0
19.1640625,-110.3515625,-89.35546875,-90.33203125,-72.75390625,46.875,0.0
19.16796875,-109.375,-92.7734375,-89.35546875,-74.21875,-49.8046875,0.0
19.171875,-96.19140625,-92.7734375,-94.7265625,-77.63671875,-144.04296875,0.0
19.17578125,-100.09765625,-92.7734375,-101.5625,-68.359375,-104.4921875,0.0
19.1796875,-102.5390625,-87.890625,-103.515625,-65.91796875,-58.10546875,0.0
19.18359375,-92.7734375,-86.9140625,-106.93359375,-80.56640625,-67.87109375,0.0
19.1875,-97.16796875,-91.30859375,-113.76953125,-77.63671875,-7.32421875,0.0
19.19140625,-98.6328125,-89.35546875,-117.67578125,-62.98828125,22.4609375,0.0
19.1953125,-93.26171875,-84.9609375,-113.28125,-46.38671875,-22.94921875,0.0
19.19921875,-92.28515625,-86.42578125,-105.95703125,-47.36328125,-51.7578125,0.0
19.203125,-92.7734375,-91.796875,-108.3984375,-65.91796875,-18.5546875,0.0
19.20703125,-95.21484375,-91.30859375,-107.91015625,-59.08203125,49.8046875,0.0
19.2109375,-92.28515625,-90.8203125,-104.00390625,-64.453125,69.82421875,0.0
19.21484375,-92.28515625,-98.14453125,-94.7265625,-63.4765625,53.22265625,0.0
19.21875,-97.16796875,-104.00390625,-89.84375,-59.08203125,43.9453125,0.0
19.22265625,-89.84375,-93.26171875,-86.42578125,-53.7109375,-4.39453125,0.0
19.2265625,-87.890625,-95.703125,-82.51953125,-71.77734375,30.2734375,0.0
19.23046875,-84.9609375,-102.05078125,-88.37890625,-78.61328125,98.14453125,0.0
19.234375,-82.51953125,-99.609375,-95.21484375,-62.01171875,77.1484375,0.0
19.23828125,-81.0546875,-103.515625,-94.23828125,-62.5,56.640625,0.0
19.2421875,-82.03125,-104.4921875,-103.515625,-61.03515625,62.98828125,0.0
19.24609375,-93.26171875,-112.3046875,-109.375,-64.94140625,41.015625,0.0
19.25,-93.26171875,-119.140625,-108.3984375,-76.66015625,-19.53125,0.0
19.25390625,-93.75,-117.67578125,-102.05078125,-86.9140625,-89.84375,0.0
19.2578125,-93.75,-120.60546875,-93.26171875,-80.078125,-111.328125,0.0
19.26171875,-104.4921875,-122.0703125,-103.02734375,-67.3828125,-172.36328125,0.0
19.265625,-111.328125,-121.09375,-112.3046875,-55.17578125,-214.35546875,0.0
19.26953125,-97.65625,-112.3046875,-107.421875,-62.01171875,-139.6484375,0.0
19.2734375,-98.14453125,-105.95703125,-101.5625,-73.73046875,-109.86328125,0.0
19.27734375,-102.05078125,-108.3984375,-89.35546875,-71.77734375,-127.44140625,0.0
19.28125,-90.8203125,-104.98046875,-93.26171875,-57.12890625,-121.58203125,0.0
19.28515625,-92.28515625,-102.5390625,-104.98046875,-55.6640625,-0.9765625,0.0
19.2890625,-94.7265625,-101.5625,-100.09765625,-61.5234375,56.15234375,0.0
19.29296875,-94.7265625,-99.12109375,-96.19140625,-62.5,20.01953125,0.0
19.296875,-100.5859375,-104.98046875,-96.6796875,-64.453125,25.390625,0.0
19.30078125,-96.6796875,-98.14453125,-88.37890625,-69.3359375,49.31640625,0.0
19.3046875,-101.5625,-90.8203125,-88.8671875,-61.03515625,-22.4609375,0.0
19.30859375,-104.00390625,-89.35546875,-96.6796875,-58.59375,18.5546875,0.0
19.3125,-103.515625,-86.42578125,-101.5625,-59.5703125,15.625,0.0
19.31640625,-108.3984375,-82.03125,-98.6328125,-47.8515625,-20.01953125,0.0
19.3203125,-95.703125,-76.171875,-95.703125,-59.08203125,141.11328125,0.0
19.32421875,-83.0078125,-71.2890625,-98.14453125,-75.1953125,161.62109375,0.0
19.328125,-91.796875,-72.265625,-102.05078125,-73.73046875,129.8828125,0.0
19.33203125,-92.7734375,-77.1484375,-97.65625,-61.03515625,132.8125,0.0
19.3359375,-84.47265625,-72.75390625,-88.8671875,-53.7109375,90.33203125,0.0
19.33984375,-86.42578125,-70.3125,-90.33203125,-62.5,137.20703125,0.0
19.34375,-83.984375,-72.265625,-99.12109375,-65.91796875,102.05078125,0.0
19.34765625,-83.984375,-72.75390625,-93.26171875,-62.01171875,23.4375,0.0
19.3515625,-83.0078125,-73.2421875,-81.0546875,-58.10546875,-34.1796875,0.0
19.35546875,-75.68359375,-67.87109375,-79.58984375,-58.59375,4.39453125,0.0
19.359375,-75.68359375,-63.96484375,-79.1015625,-51.26953125,52.24609375,0.0
19.36328125,-85.9375,-71.77734375,-80.078125,-40.0390625,-72.265625,0.0
19.3671875,-80.078125,-72.265625,-83.984375,-43.9453125,-148.4375,0.0
19.37109375,-80.078125,-64.94140625,-80.078125,-48.828125,-74.21875,0.0
19.375,-83.984375,-64.94140625,-74.21875,-45.41015625,-53.22265625,0.0
19.37890625,-78.125,-66.40625,-75.68359375,-48.33984375,-116.69921875,0.0
19.3828125,-76.66015625,-68.84765625,-80.078125,-52.24609375,10.25390625,0.0
19.38671875,-78.61328125,-73.73046875,-84.9609375,-27.83203125,77.63671875,0.0
19.390625,-81.0546875,-75.68359375,-86.9140625,-13.18359375,-27.34375,0.0
19.39453125,-83.49609375,-73.2421875,-86.42578125,-28.3203125,-32.71484375,0.0
19.3984375,-80.56640625,-72.75390625,-84.9609375,-34.66796875,69.3359375,0.0
19.40234375,-85.9375,-77.63671875,-78.125,-31.25,63.96484375,0.0
19.40625,-90.33203125,-86.9140625,-81.54296875,-30.76171875,24.4140625,0.0
19.41015625,-90.8203125,-88.8671875,-86.42578125,-30.76171875,54.19921875,0.0
19.4140625,-93.75,-81.0546875,-81.54296875,-47.36328125,-33.203125,0.0
19.41796875,-85.44921875,-73.2421875,-81.54296875,-69.3359375,-106.4453125,0.0
19.421875,-89.84375,-74.21875,-85.44921875,-59.5703125,-31.73828125,0.0
19.42578125,-96.19140625,-78.125,-88.37890625,-51.7578125,14.16015625,0.0
19.4296875,-87.40234375,-70.80078125,-86.9140625,-44.921875,38.0859375,0.0
19.43359375,-78.125,-70.3125,-79.1015625,-41.9921875,7.32421875,0.0
19.4375,-84.9609375,-73.73046875,-74.21875,-61.5234375,-41.015625,0.0
19.44140625,-83.0078125,-71.77734375,-82.03125,-56.15234375,-30.76171875,0.0
19.4453125,-83.0078125,-67.87109375,-90.8203125,-43.45703125,-32.2265625,0.0
19.44921875,-84.47265625,-74.70703125,-86.42578125,-50.78125,88.37890625,0.0
19.453125,-89.84375,-82.51953125,-82.03125,-58.10546875,79.1015625,0.0
19.45703125,-84.9609375,-79.1015625,-89.84375,-33.203125,-21.97265625,0.0
19.4609375,-77.63671875,-78.61328125,-101.07421875,-30.76171875,-49.8046875,0.0
19.46484375,-84.47265625,-79.58984375,-101.07421875,-65.4296875,-34.66796875,0.0
19.46875,-84.9609375,-78.61328125,-101.5625,-68.84765625,-10.7421875,0.0
19.47265625,-105.95703125,-75.68359375,-100.5859375,-63.4765625,-39.0625,0.0
19.4765625,-126.46484375,-73.2421875,-92.28515625,-52.734375,-89.84375,0.0
19.48046875,-106.4453125,-71.77734375,-88.37890625,-31.73828125,-22.4609375,0.0
19.484375,-100.5859375,-70.3125,-95.703125,-46.875,47.36328125,0.0
19.48828125,-105.46875,-66.40625,-96.19140625,-63.4765625,4.8828125,0.0
19.4921875,-96.6796875,-68.359375,-96.6796875,-51.26953125,-41.9921875,0.0
19.49609375,-94.7265625,-65.4296875,-93.26171875,-57.6171875,-5.859375,0.0
19.5,-97.16796875,-60.05859375,-92.28515625,-54.6875,-27.34375,0.0
19.50390625,-100.09765625,-62.5,-92.28515625,-46.875,-31.25,0.0
19.5078125,-107.421875,-64.94140625,-96.19140625,-52.24609375,14.16015625,0.0
19.51171875,-112.3046875,-70.80078125,-96.19140625,-48.33984375,0.48828125,0.0
19.515625,-111.328125,-72.75390625,-87.40234375,-40.0390625,-20.99609375,0.0
19.51953125,-101.5625,-74.21875,-86.42578125,-33.69140625,-122.55859375,0.0
19.5234375,-92.7734375,-73.73046875,-80.078125,-43.9453125,-145.99609375,0.0
19.52734375,-95.703125,-76.66015625,-83.984375,-58.10546875,-114.74609375,0.0
19.53125,-98.14453125,-79.58984375,-86.42578125,-59.5703125,-141.11328125,0.0
19.53515625,-83.984375,-73.2421875,-74.21875,-48.33984375,-97.65625,0.0
19.5390625,-79.58984375,-73.2421875,-73.2421875,-55.17578125,-104.00390625,0.0
19.54296875,-78.125,-68.359375,-73.73046875,-47.36328125,-83.984375,0.0
19.546875,-91.796875,-64.94140625,-76.171875,-35.15625,-68.84765625,0.0
19.55078125,-99.12109375,-71.77734375,-76.66015625,-55.17578125,-113.28125,0.0
19.5546875,-85.9375,-70.80078125,-73.2421875,-63.96484375,-70.80078125,0.0
19.55859375,-82.03125,-65.4296875,-77.63671875,-41.015625,-20.01953125,0.0
19.5625,-89.35546875,-74.70703125,-83.49609375,-36.62109375,-8.7890625,0.0
19.56640625,-94.23828125,-73.73046875,-82.03125,-58.10546875,-25.87890625,0.0
19.5703125,-93.75,-71.2890625,-81.0546875,-64.453125,-39.0625,0.0
19.57421875,-88.37890625,-76.171875,-83.0078125,-42.48046875,5.37109375,0.0
19.578125,-88.8671875,-73.2421875,-83.984375,-43.45703125,49.31640625,0.0
19.58203125,-87.40234375,-72.75390625,-71.2890625,-53.7109375,16.6015625,0.0
19.5859375,-84.9609375,-68.359375,-66.40625,-31.73828125,-5.859375,0.0
19.58984375,-86.9140625,-67.3828125,-74.21875,-29.78515625,-57.6171875,0.0
19.59375,-76.171875,-65.91796875,-76.66015625,-40.0390625,-55.6640625,0.0
19.59765625,-73.73046875,-61.5234375,-74.21875,-37.59765625,57.12890625,0.0
19.6015625,-80.56640625,-63.96484375,-68.359375,-40.52734375,91.30859375,0.0
19.60546875,-78.125,-58.59375,-60.546875,-49.31640625,76.66015625,0.0
19.609375,-70.3125,-55.6640625,-70.3125,-62.98828125,103.515625,0.0
19.61328125,-69.3359375,-63.4765625,-79.58984375,-58.59375,104.4921875,0.0
19.6171875,-80.56640625,-63.96484375,-72.75390625,-41.9921875,-14.16015625,0.0
19.62109375,-90.8203125,-68.84765625,-71.2890625,-47.8515625,44.43359375,0.0
19.625,-78.125,-76.66015625,-78.125,-50.29296875,187.5,0.0
19.62890625,-69.3359375,-79.58984375,-84.9609375,-49.8046875,107.421875,0.0
19.6328125,-85.44921875,-77.1484375,-87.40234375,-61.03515625,24.90234375,0.0
19.63671875,-102.05078125,-76.171875,-88.37890625,-66.40625,101.5625,0.0
19.640625,-94.7265625,-76.66015625,-93.26171875,-55.6640625,158.69140625,0.0
19.64453125,-89.35546875,-72.75390625,-97.65625,-45.8984375,6.34765625,0.0
19.6484375,-98.14453125,-73.73046875,-100.09765625,-53.7109375,-60.546875,0.0
19.65234375,-97.65625,-73.73046875,-91.796875,-53.7109375,55.17578125,0.0
19.65625,-89.35546875,-69.3359375,-90.8203125,-46.875,82.51953125,0.0
19.66015625,-83.984375,-71.2890625,-101.5625,-42.96875,6.34765625,0.0
19.6640625,-83.49609375,-74.21875,-102.5390625,-31.25,3.90625,0.0
19.66796875,-91.796875,-73.2421875,-99.12109375,-32.2265625,44.43359375,0.0
19.671875,-97.16796875,-75.68359375,-97.16796875,-36.1328125,36.1328125,0.0
19.67578125,-93.75,-81.0546875,-96.6796875,-35.64453125,46.875,0.0
19.6796875,-86.42578125,-83.49609375,-101.07421875,-49.31640625,20.99609375,0.0
19.68359375,-93.75,-79.1015625,-102.5390625,-44.43359375,-39.0625,0.0
19.6875,-103.02734375,-75.68359375,-101.07421875,-49.8046875,-14.6484375,0.0
19.69140625,-94.7265625,-72.265625,-102.05078125,-67.87109375,2.9296875,0.0
19.6953125,-95.21484375,-64.94140625,-98.14453125,-48.33984375,8.30078125,0.0
19.69921875,-108.3984375,-62.5,-98.14453125,-48.828125,46.38671875,0.0
19.703125,-108.88671875,-67.87109375,-107.91015625,-60.546875,27.83203125,0.0
19.70703125,-102.5390625,-70.3125,-113.76953125,-53.7109375,28.80859375,0.0
19.7109375,-98.6328125,-65.91796875,-106.93359375,-43.9453125,-11.71875,0.0
19.71484375,-102.05078125,-62.98828125,-99.12109375,-32.71484375,-66.40625,0.0
19.71875,-100.5859375,-63.96484375,-103.02734375,-52.24609375,-18.06640625,0.0
19.72265625,-97.65625,-54.6875,-106.4453125,-52.24609375,29.78515625,0.0
19.7265625,-107.91015625,-50.78125,-103.02734375,-45.8984375,-43.45703125,0.0
19.73046875,-105.95703125,-58.59375,-97.16796875,-59.08203125,-19.53125,0.0
19.734375,-87.890625,-57.6171875,-93.26171875,-54.19921875,78.61328125,0.0
19.73828125,-77.63671875,-50.29296875,-86.9140625,-41.50390625,50.78125,0.0
19.7421875,-90.33203125,-50.78125,-79.1015625,-55.17578125,-46.875,0.0
19.74609375,-101.07421875,-57.12890625,-77.1484375,-53.7109375,-50.78125,0.0
19.75,-82.51953125,-51.26953125,-83.984375,-39.0625,7.32421875,0.0
19.75390625,-76.66015625,-52.24609375,-88.37890625,-41.9921875,37.109375,0.0
19.7578125,-87.40234375,-55.17578125,-83.49609375,-37.109375,-25.87890625,0.0
19.76171875,-93.26171875,-52.734375,-93.75,-41.015625,-27.83203125,0.0
19.765625,-82.51953125,-48.828125,-103.02734375,-47.36328125,57.6171875,0.0
19.76953125,-77.63671875,-48.33984375,-103.02734375,-36.1328125,57.6171875,0.0
19.7734375,-90.8203125,-55.6640625,-102.5390625,-42.96875,55.17578125,0.0
19.77734375,-90.8203125,-58.59375,-96.19140625,-51.26953125,62.01171875,0.0
19.78125,-85.44921875,-59.08203125,-93.75,-32.2265625,92.7734375,0.0
19.78515625,-93.75,-60.05859375,-97.16796875,-34.66796875,94.7265625,0.0
19.7890625,-96.19140625,-59.5703125,-94.7265625,-51.26953125,4.8828125,0.0
19.79296875,-90.33203125,-57.12890625,-88.8671875,-50.78125,-25.390625,0.0
19.796875,-83.0078125,-49.8046875,-89.35546875,-32.71484375,29.78515625,0.0
19.80078125,-77.1484375,-49.8046875,-92.7734375,-27.83203125,3.41796875,0.0
19.8046875,-78.125,-54.19921875,-96.19140625,-24.4140625,-33.69140625,0.0
19.80859375,-72.75390625,-52.734375,-92.7734375,-33.69140625,-101.07421875,0.0
19.8125,-71.77734375,-56.640625,-92.7734375,-42.48046875,-171.875,0.0
19.81640625,-74.21875,-63.96484375,-94.23828125,-31.73828125,-100.09765625,0.0
19.8203125,-82.03125,-65.4296875,-96.19140625,-36.62109375,-55.17578125,0.0
19.82421875,-88.37890625,-64.453125,-91.796875,-41.50390625,12.6953125,0.0
19.828125,-78.125,-66.40625,-88.37890625,-24.90234375,107.91015625,0.0
19.83203125,-67.87109375,-64.94140625,-88.8671875,-21.484375,56.15234375,0.0
19.8359375,-70.80078125,-61.5234375,-82.51953125,-24.90234375,-3.41796875,0.0
19.83984375,-72.265625,-63.96484375,-84.47265625,-21.484375,-24.4140625,0.0
19.84375,-71.77734375,-65.4296875,-92.7734375,-20.5078125,-44.43359375,0.0
19.84765625,-71.2890625,-63.96484375,-93.75,-23.92578125,-110.3515625,0.0
19.8515625,-68.359375,-59.5703125,-98.14453125,-19.04296875,-145.01953125,0.0
19.85546875,-71.2890625,-58.59375,-102.05078125,-12.6953125,-94.7265625,0.0
19.859375,-62.5,-64.453125,-101.07421875,-7.32421875,9.765625,0.0
19.86328125,-65.4296875,-59.5703125,-99.12109375,-8.7890625,7.8125,0.0
19.8671875,-63.96484375,-56.640625,-103.515625,-40.52734375,14.6484375,0.0
19.87109375,-59.5703125,-60.05859375,-105.46875,-41.9921875,10.7421875,0.0
19.875,-63.96484375,-58.10546875,-106.4453125,-22.94921875,8.7890625,0.0
19.87890625,-61.5234375,-51.26953125,-107.421875,-19.04296875,80.078125,0.0
19.8828125,-61.5234375,-51.26953125,-106.4453125,-24.90234375,11.71875,0.0
19.88671875,-56.640625,-55.6640625,-107.91015625,-22.4609375,-57.6171875,0.0
19.890625,-60.05859375,-52.24609375,-104.4921875,-29.78515625,-24.4140625,0.0
19.89453125,-71.77734375,-53.7109375,-104.98046875,-39.0625,-5.859375,0.0
19.8984375,-61.5234375,-55.6640625,-104.00390625,-28.80859375,-26.3671875,0.0
19.90234375,-56.15234375,-57.12890625,-101.5625,-27.83203125,-39.55078125,0.0
19.90625,-63.96484375,-60.546875,-98.6328125,-43.45703125,-39.0625,0.0
19.91015625,-70.3125,-55.6640625,-90.8203125,-41.9921875,-27.83203125,0.0
19.9140625,-73.2421875,-47.8515625,-88.8671875,-27.34375,22.94921875,0.0
19.91796875,-70.80078125,-48.33984375,-90.8203125,-20.5078125,-5.859375,0.0
19.921875,-74.70703125,-52.24609375,-93.75,-24.90234375,-18.06640625,0.0
19.92578125,-77.1484375,-49.31640625,-89.35546875,-31.25,60.05859375,0.0
19.9296875,-72.265625,-46.875,-83.984375,-38.0859375,99.609375,0.0
19.93359375,-66.89453125,-45.41015625,-76.66015625,-36.1328125,102.05078125,0.0
19.9375,-71.2890625,-48.828125,-75.68359375,-33.203125,84.9609375,0.0
19.94140625,-70.80078125,-52.734375,-74.21875,-49.31640625,20.99609375,0.0
19.9453125,-67.3828125,-51.26953125,-69.82421875,-47.8515625,-3.90625,0.0
19.94921875,-71.77734375,-51.7578125,-63.96484375,-28.3203125,-3.41796875,0.0
19.953125,-75.68359375,-57.6171875,-63.96484375,-33.203125,-78.61328125,0.0
19.95703125,-74.21875,-57.12890625,-66.40625,-30.2734375,-71.77734375,0.0
19.9609375,-70.80078125,-60.05859375,-70.80078125,-36.1328125,-25.87890625,0.0
19.96484375,-64.94140625,-61.03515625,-76.66015625,-43.9453125,-86.42578125,0.0
19.96875,-68.84765625,-59.5703125,-78.61328125,-31.25,-98.14453125,0.0
19.97265625,-70.3125,-61.03515625,-73.2421875,-30.2734375,-59.08203125,0.0
19.9765625,-66.40625,-63.4765625,-80.078125,-38.57421875,-50.78125,0.0
19.98046875,-70.80078125,-61.5234375,-87.40234375,-42.48046875,42.48046875,0.0
19.984375,-70.80078125,-62.5,-91.796875,-53.22265625,70.80078125,0.0
19.98828125,-73.2421875,-62.5,-97.65625,-48.828125,-9.765625,0.0
19.9921875,-76.171875,-54.6875,-95.703125,-30.76171875,-33.69140625,0.0
19.99609375,-76.171875,-51.26953125,-97.65625,-15.625,-14.6484375,0.0
20.0,-76.66015625,-56.15234375,-100.09765625,-35.15625,-21.97265625,0.0
20.00390625,-75.68359375,-53.7109375,-97.65625,-57.6171875,3.41796875,0.0
20.0078125,-67.3828125,-51.7578125,-93.26171875,-52.24609375,-55.6640625,0.0
20.01171875,-63.96484375,-52.734375,-87.890625,-42.48046875,-107.421875,0.0
20.015625,-70.80078125,-47.8515625,-86.9140625,-39.55078125,-27.83203125,0.0
20.01953125,-68.84765625,-40.52734375,-88.37890625,-34.66796875,68.359375,0.0
20.0234375,-70.80078125,-41.015625,-89.84375,-43.9453125,135.7421875,0.0
20.02734375,-77.63671875,-47.36328125,-97.65625,-52.734375,90.33203125,0.0
20.03125,-72.265625,-46.875,-101.5625,-33.203125,2.9296875,0.0
20.03515625,-64.94140625,-41.50390625,-96.6796875,-23.4375,-21.97265625,0.0
20.0390625,-65.91796875,-44.43359375,-93.26171875,-36.1328125,-11.71875,0.0
20.04296875,-68.359375,-48.33984375,-95.21484375,-48.33984375,32.2265625,0.0
20.046875,-60.05859375,-40.0390625,-89.84375,-47.8515625,50.29296875,0.0
20.05078125,-56.15234375,-38.57421875,-83.984375,-32.2265625,81.54296875,0.0
20.0546875,-62.01171875,-50.78125,-85.44921875,-22.94921875,69.82421875,0.0
20.05859375,-74.21875,-54.6875,-81.0546875,-30.2734375,-32.2265625,0.0
20.0625,-71.2890625,-57.12890625,-72.75390625,-33.203125,-134.765625,0.0
20.06640625,-64.94140625,-52.24609375,-69.3359375,-21.484375,-91.30859375,0.0
20.0703125,-63.96484375,-46.875,-71.2890625,-18.06640625,-39.55078125,0.0
20.07421875,-66.89453125,-49.8046875,-72.265625,-24.90234375,-6.8359375,0.0
20.078125,-71.2890625,-48.33984375,-75.1953125,-15.625,45.41015625,0.0
20.08203125,-71.2890625,-43.9453125,-78.125,-16.11328125,27.83203125,0.0
20.0859375,-71.2890625,-43.9453125,-78.61328125,-35.64453125,-19.53125,0.0
20.08984375,-78.125,-47.8515625,-80.56640625,-51.26953125,30.76171875,0.0
20.09375,-80.078125,-51.26953125,-83.0078125,-30.76171875,24.90234375,0.0
20.09765625,-76.66015625,-50.29296875,-82.51953125,-20.99609375,16.11328125,0.0
20.1015625,-75.1953125,-50.29296875,-82.03125,-28.3203125,40.52734375,0.0
20.10546875,-73.2421875,-48.828125,-82.03125,-25.390625,-12.20703125,0.0
20.109375,-72.265625,-52.24609375,-83.984375,-21.484375,10.7421875,0.0
20.11328125,-70.80078125,-54.19921875,-88.37890625,-12.20703125,27.83203125,0.0
20.1171875,-69.82421875,-50.29296875,-84.47265625,-14.6484375,3.41796875,0.0
20.12109375,-67.3828125,-50.29296875,-81.54296875,-23.4375,4.39453125,0.0
20.125,-66.89453125,-51.26953125,-82.03125,-24.90234375,35.15625,0.0
20.12890625,-65.4296875,-50.78125,-76.171875,-29.78515625,-46.38671875,0.0
20.1328125,-66.89453125,-47.8515625,-74.21875,-19.04296875,-51.7578125,0.0
20.13671875,-63.96484375,-47.36328125,-75.68359375,-2.44140625,-48.828125,0.0
20.140625,-71.2890625,-53.7109375,-75.1953125,-9.27734375,-96.6796875,0.0
20.14453125,-73.73046875,-51.7578125,-82.03125,-17.578125,-101.5625,0.0
20.1484375,-71.77734375,-57.6171875,-81.54296875,-24.90234375,-55.6640625,0.0
20.15234375,-80.56640625,-67.3828125,-73.2421875,-22.94921875,-49.8046875,0.0
20.15625,-83.0078125,-65.4296875,-71.2890625,-20.99609375,-59.5703125,0.0
20.16015625,-76.66015625,-62.98828125,-73.73046875,-20.5078125,4.8828125,0.0
20.1640625,-80.56640625,-62.98828125,-75.1953125,-40.52734375,35.15625,0.0
20.16796875,-79.58984375,-63.96484375,-85.9375,-47.36328125,43.45703125,0.0
20.171875,-68.359375,-66.40625,-97.65625,-37.59765625,88.37890625,0.0
20.17578125,-76.171875,-69.82421875,-101.5625,-36.62109375,-55.6640625,0.0
20.1796875,-93.75,-65.91796875,-93.26171875,-35.64453125,-168.9453125,0.0
20.18359375,-95.703125,-62.98828125,-84.9609375,-38.57421875,-104.98046875,0.0
20.1875,-83.49609375,-60.05859375,-84.47265625,-28.3203125,-48.33984375,0.0
20.19140625,-78.61328125,-52.24609375,-76.66015625,-10.25390625,-39.0625,0.0
20.1953125,-81.54296875,-44.921875,-73.73046875,-15.13671875,10.7421875,0.0
20.19921875,-90.33203125,-46.875,-69.82421875,-30.2734375,46.875,0.0
20.203125,-93.26171875,-52.24609375,-69.82421875,-26.3671875,-44.921875,0.0
20.20703125,-88.8671875,-54.6875,-79.1015625,-18.06640625,-51.26953125,0.0
