timestamp,TP9,AF7,AF8,TP10,AUX,Marker,
125.00390625,-21.484375,-37.59765625,-39.55078125,-30.76171875,-9.27734375,0.0
125.0078125,-40.0390625,-55.6640625,-47.8515625,-48.33984375,54.19921875,0.0
125.01171875,-40.0390625,-62.98828125,-44.921875,-47.36328125,89.35546875,0.0
125.015625,-24.4140625,-48.828125,-37.109375,-25.87890625,65.91796875,0.0
125.01953125,-20.01953125,-28.3203125,-30.2734375,-24.4140625,49.8046875,0.0
125.0234375,-32.2265625,-29.78515625,-34.1796875,-33.69140625,103.02734375,0.0
125.02734375,-38.0859375,-25.390625,-35.15625,-39.0625,116.2109375,0.0
125.03125,-48.33984375,-9.765625,-34.1796875,-49.31640625,107.91015625,0.0
125.03515625,-41.9921875,-8.7890625,-28.80859375,-41.50390625,63.4765625,0.0
125.0390625,-20.5078125,4.8828125,-24.4140625,-27.83203125,26.3671875,0.0
125.04296875,-26.85546875,2.9296875,-24.4140625,-39.55078125,-46.875,0.0
125.046875,-49.31640625,-44.921875,-43.45703125,-57.6171875,-40.52734375,0.0
125.05078125,-55.6640625,-60.05859375,-50.29296875,-58.10546875,-56.640625,0.0
125.0546875,-25.87890625,-11.23046875,-33.69140625,-31.73828125,-52.24609375,0.0
125.05859375,-18.06640625,45.41015625,-27.83203125,-22.4609375,-37.109375,0.0
125.0625,-28.3203125,65.4296875,-26.3671875,-34.66796875,-116.69921875,0.0
125.06640625,-39.55078125,51.7578125,-32.71484375,-47.8515625,-107.421875,0.0
125.0703125,-46.875,25.87890625,-33.203125,-48.828125,-35.64453125,0.0
125.07421875,-38.57421875,22.4609375,-29.78515625,-41.9921875,-36.62109375,0.0
125.078125,-29.296875,33.203125,-26.85546875,-41.9921875,-85.9375,0.0
125.08203125,-31.73828125,7.8125,-28.80859375,-45.8984375,-74.21875,0.0
125.0859375,-41.50390625,-12.20703125,-38.0859375,-49.8046875,-93.75,0.0
125.08984375,-41.50390625,2.44140625,-38.57421875,-53.22265625,-151.3671875,0.0
125.09375,-33.69140625,23.4375,-29.78515625,-41.9921875,-116.69921875,0.0
125.09765625,-25.87890625,29.296875,-26.3671875,-34.66796875,-91.30859375,0.0
125.1015625,-25.390625,32.71484375,-28.3203125,-40.52734375,-154.296875,0.0
125.10546875,-39.55078125,31.25,-30.76171875,-61.5234375,-114.2578125,0.0
125.109375,-51.7578125,20.99609375,-27.83203125,-58.10546875,18.5546875,0.0
125.11328125,-39.0625,-9.765625,-29.296875,-30.2734375,46.875,0.0
125.1171875,-32.71484375,-31.25,-36.62109375,-38.0859375,70.3125,0.0
125.12109375,-30.2734375,-41.015625,-35.64453125,-43.45703125,105.46875,0.0
125.125,-34.1796875,-13.671875,-39.0625,-46.38671875,-9.765625,0.0
125.12890625,-42.48046875,5.859375,-47.36328125,-59.08203125,-84.47265625,0.0
125.1328125,-41.50390625,6.34765625,-34.66796875,-43.45703125,-91.796875,0.0
125.13671875,-43.45703125,32.71484375,-36.62109375,-43.45703125,-35.64453125,0.0
125.140625,-48.828125,7.8125,-39.55078125,-54.19921875,54.19921875,0.0
125.14453125,-48.828125,-16.11328125,-28.80859375,-57.6171875,-35.15625,0.0
125.1484375,-48.33984375,-0.9765625,-32.2265625,-54.19921875,-49.8046875,0.0
125.15234375,-62.01171875,5.859375,-31.25,-42.96875,-56.15234375,0.0
125.15625,-51.7578125,-3.41796875,-29.296875,-43.45703125,-28.80859375,0.0
125.16015625,-41.50390625,-12.20703125,-34.1796875,-49.31640625,46.38671875,0.0
125.1640625,-43.9453125,-15.13671875,-32.2265625,-56.640625,105.95703125,0.0
125.16796875,-47.8515625,-38.57421875,-31.25,-61.5234375,78.61328125,0.0
125.171875,-47.36328125,-50.29296875,-25.87890625,-54.19921875,-20.99609375,0.0
125.17578125,-32.71484375,-50.78125,-15.625,-44.921875,-109.375,0.0
125.1796875,-28.80859375,-35.15625,-20.01953125,-36.1328125,-90.33203125,0.0
125.18359375,-30.76171875,-34.1796875,-30.76171875,-46.38671875,-14.16015625,0.0
125.1875,-43.45703125,-52.734375,-32.2265625,-65.91796875,44.43359375,0.0
125.19140625,-52.24609375,-66.40625,-31.73828125,-44.921875,45.8984375,0.0
125.1953125,-40.52734375,-53.22265625,-36.1328125,-32.2265625,-21.97265625,0.0
125.19921875,-38.57421875,-58.59375,-40.52734375,-35.15625,-1.953125,0.0
125.203125,-26.3671875,-77.1484375,-34.1796875,-30.2734375,-36.62109375,0.0
125.20703125,-34.1796875,-79.1015625,-30.76171875,-36.62109375,-80.078125,0.0
125.2109375,-39.0625,-95.703125,-32.71484375,-34.1796875,-52.734375,0.0
125.21484375,-27.34375,-112.79296875,-32.2265625,-20.5078125,-41.50390625,0.0
125.21875,-23.4375,-89.84375,-32.71484375,-21.484375,-39.0625,0.0
125.22265625,-30.76171875,-41.9921875,-33.69140625,-28.80859375,-6.8359375,0.0
125.2265625,-42.48046875,-21.97265625,-33.69140625,-35.64453125,-11.23046875,0.0
125.23046875,-42.48046875,-31.25,-27.83203125,-45.41015625,-24.4140625,0.0
125.234375,-33.203125,-36.1328125,-24.90234375,-32.2265625,-98.14453125,0.0
125.23828125,-24.90234375,-28.80859375,-28.80859375,-22.94921875,-164.55078125,0.0
125.2421875,-28.3203125,-27.83203125,-35.15625,-41.9921875,-108.88671875,0.0
125.24609375,-41.50390625,-30.76171875,-40.52734375,-58.59375,-2.9296875,0.0
125.25,-51.26953125,-32.71484375,-40.52734375,-48.828125,-8.30078125,0.0
125.25390625,-41.50390625,-48.828125,-30.76171875,-32.71484375,-30.76171875,0.0
125.2578125,-31.25,-54.19921875,-26.85546875,-30.2734375,-78.61328125,0.0
125.26171875,-38.57421875,-30.76171875,-30.2734375,-39.0625,-147.94921875,0.0
125.265625,-49.31640625,-5.37109375,-28.3203125,-55.17578125,-164.55078125,0.0
125.26953125,-55.6640625,1.953125,-30.2734375,-60.546875,-134.765625,0.0
125.2734375,-50.29296875,-1.46484375,-26.85546875,-46.875,-71.77734375,0.0
125.27734375,-34.66796875,-9.27734375,-20.5078125,-30.76171875,-1.953125,0.0
125.28125,-20.99609375,-21.97265625,-20.99609375,-24.4140625,20.01953125,0.0
125.28515625,-38.0859375,-12.20703125,-28.3203125,-39.55078125,46.38671875,0.0
125.2890625,-67.87109375,3.41796875,-39.0625,-67.3828125,34.1796875,0.0
125.29296875,-52.24609375,-5.859375,-31.25,-47.8515625,69.3359375,0.0
125.296875,-31.73828125,-16.6015625,-24.4140625,-20.99609375,120.60546875,0.0
125.30078125,-23.92578125,-30.76171875,-28.3203125,-18.5546875,78.61328125,0.0
125.3046875,-26.3671875,-32.2265625,-35.15625,-24.4140625,8.30078125,0.0
125.30859375,-52.734375,-18.5546875,-38.0859375,-41.9921875,46.38671875,0.0
125.3125,-50.29296875,-36.1328125,-23.92578125,-36.62109375,41.50390625,0.0
125.31640625,-23.92578125,-36.1328125,-11.71875,-9.27734375,-46.875,0.0
125.3203125,-21.484375,-13.671875,-19.53125,-28.3203125,-146.97265625,0.0
125.32421875,-28.80859375,-6.8359375,-26.3671875,-50.78125,-133.7890625,0.0
125.328125,-44.921875,-21.97265625,-29.296875,-44.43359375,-10.25390625,0.0
125.33203125,-46.38671875,-27.83203125,-28.80859375,-41.50390625,11.23046875,0.0
125.3359375,-35.15625,-37.109375,-20.01953125,-33.69140625,-48.33984375,0.0
125.33984375,-36.62109375,-50.29296875,-18.5546875,-30.2734375,-58.10546875,0.0
125.34375,-34.66796875,-48.33984375,-28.3203125,-41.50390625,-14.16015625,0.0
125.34765625,-37.59765625,-77.1484375,-33.203125,-46.38671875,11.23046875,0.0
125.3515625,-40.52734375,-85.44921875,-35.64453125,-43.45703125,15.625,0.0
125.35546875,-33.69140625,-25.87890625,-30.2734375,-38.57421875,-78.125,0.0
125.359375,-27.34375,11.23046875,-27.34375,-36.62109375,-72.265625,0.0
125.36328125,-29.78515625,7.8125,-24.90234375,-53.22265625,0.0,0.0
125.3671875,-37.109375,0.48828125,-24.4140625,-52.734375,8.30078125,0.0
125.37109375,-40.0390625,-23.92578125,-29.296875,-35.15625,-36.62109375,0.0
125.375,-32.2265625,-65.91796875,-28.80859375,-25.87890625,20.99609375,0.0
125.37890625,-29.78515625,-57.6171875,-30.76171875,-31.73828125,66.89453125,0.0
125.3828125,-31.73828125,-23.4375,-24.4140625,-41.9921875,24.90234375,0.0
125.38671875,-37.109375,-8.30078125,-29.78515625,-44.43359375,13.18359375,0.0
125.390625,-44.43359375,1.46484375,-38.57421875,-47.36328125,-61.5234375,0.0
125.39453125,-34.1796875,14.6484375,-37.59765625,-38.0859375,-116.2109375,0.0
125.3984375,-20.99609375,-5.859375,-34.66796875,-20.5078125,-51.26953125,0.0
125.40234375,-15.13671875,-9.27734375,-35.15625,-30.76171875,-22.4609375,0.0
125.40625,-27.83203125,28.3203125,-40.0390625,-40.52734375,-13.671875,0.0
125.41015625,-43.9453125,-3.90625,-38.0859375,-39.0625,0.9765625,0.0
125.4140625,-29.296875,-30.76171875,-25.390625,-29.296875,-81.0546875,0.0
125.41796875,-17.578125,-14.16015625,-22.4609375,-16.6015625,-79.1015625,0.0
125.421875,-20.5078125,11.71875,-32.71484375,-18.06640625,-76.171875,0.0
125.42578125,-37.109375,39.0625,-40.52734375,-29.296875,-130.859375,0.0
125.4296875,-41.015625,14.6484375,-36.62109375,-28.80859375,-97.16796875,0.0
125.43359375,-30.76171875,-0.48828125,-25.87890625,-19.53125,-62.01171875,0.0
125.4375,-29.296875,8.7890625,-26.85546875,-18.06640625,-94.7265625,0.0
125.44140625,-30.76171875,25.87890625,-26.85546875,-20.99609375,-86.42578125,0.0
125.4453125,-40.0390625,42.96875,-31.25,-40.52734375,-64.453125,0.0
125.44921875,-44.921875,14.16015625,-33.203125,-36.1328125,-95.21484375,0.0
125.453125,-34.1796875,11.71875,-22.4609375,-8.7890625,-110.3515625,0.0
125.45703125,-25.390625,-6.34765625,-13.671875,-10.25390625,-77.1484375,0.0
125.4609375,-26.3671875,-17.578125,-16.6015625,-20.99609375,-12.20703125,0.0
125.46484375,-26.3671875,44.43359375,-27.34375,-36.62109375,-37.59765625,0.0
125.46875,-54.6875,62.98828125,-36.62109375,-61.03515625,-119.140625,0.0
125.47265625,-56.640625,26.3671875,-33.69140625,-44.43359375,-62.98828125,0.0
125.4765625,-30.2734375,32.71484375,-24.4140625,-29.296875,1.46484375,0.0
125.48046875,-24.90234375,33.69140625,-24.90234375,-41.015625,-10.25390625,0.0
125.484375,-45.41015625,29.296875,-35.15625,-56.640625,-52.734375,0.0
125.48828125,-46.875,22.94921875,-34.1796875,-55.6640625,-156.25,0.0
125.4921875,-42.48046875,-0.48828125,-31.73828125,-48.828125,-187.98828125,0.0
125.49609375,-38.57421875,-20.5078125,-24.90234375,-35.15625,-131.8359375,0.0
125.5,-26.85546875,-48.33984375,-20.99609375,-28.80859375,-83.0078125,0.0
125.50390625,-30.76171875,-47.36328125,-29.296875,-46.38671875,-58.59375,0.0
125.5078125,-44.43359375,-22.4609375,-26.85546875,-43.9453125,-104.00390625,0.0
125.51171875,-50.78125,-20.99609375,-27.83203125,-35.64453125,-60.546875,0.0
125.515625,-35.64453125,-107.91015625,-32.2265625,-35.64453125,-75.1953125,0.0
125.51953125,-21.484375,-118.65234375,-24.90234375,-18.06640625,-106.93359375,0.0
125.5234375,-31.73828125,-2.44140625,-27.34375,-29.78515625,-49.31640625,0.0
125.52734375,-39.55078125,26.85546875,-28.3203125,-44.921875,-56.15234375,0.0
125.53125,-27.83203125,-51.7578125,-21.484375,-19.53125,-49.8046875,0.0
125.53515625,-20.5078125,-69.82421875,-21.97265625,-16.11328125,-78.125,0.0
125.5390625,-20.5078125,-30.76171875,-24.90234375,-25.390625,-30.2734375,0.0
125.54296875,-20.5078125,-36.1328125,-34.66796875,-23.4375,26.3671875,0.0
125.546875,-29.296875,-44.43359375,-35.15625,-28.3203125,64.453125,0.0
125.55078125,-37.109375,-19.04296875,-28.3203125,-30.2734375,91.30859375,0.0
125.5546875,-30.76171875,-3.90625,-21.97265625,-24.90234375,30.2734375,0.0
125.55859375,-25.390625,-39.0625,-26.85546875,-25.390625,-11.71875,0.0
125.5625,-20.99609375,-83.0078125,-35.64453125,-33.69140625,31.73828125,0.0
125.56640625,-41.50390625,-111.328125,-33.203125,-43.9453125,37.59765625,0.0
125.5703125,-54.19921875,-45.41015625,-28.80859375,-47.8515625,29.78515625,0.0
125.57421875,-50.78125,8.7890625,-20.99609375,-41.50390625,65.91796875,0.0
125.578125,-41.9921875,-28.3203125,-15.13671875,-43.45703125,36.1328125,0.0
125.58203125,-37.109375,-35.64453125,-20.99609375,-54.6875,-8.7890625,0.0
125.5859375,-58.59375,-16.11328125,-32.71484375,-67.3828125,-20.5078125,0.0
125.58984375,-69.82421875,-38.57421875,-33.203125,-71.2890625,-43.45703125,0.0
125.59375,-53.22265625,-47.8515625,-29.296875,-51.26953125,-81.0546875,0.0
125.59765625,-48.33984375,-37.59765625,-38.57421875,-49.8046875,-74.70703125,0.0
125.6015625,-42.48046875,-45.41015625,-38.0859375,-62.01171875,-5.37109375,0.0
125.60546875,-41.015625,-46.38671875,-30.2734375,-55.6640625,72.75390625,0.0
125.609375,-46.875,-6.8359375,-29.78515625,-54.19921875,60.546875,0.0
125.61328125,-38.57421875,-6.8359375,-27.83203125,-42.48046875,38.0859375,0.0
125.6171875,-26.3671875,-46.875,-28.80859375,-23.4375,33.203125,0.0
125.62109375,-21.97265625,-61.5234375,-31.73828125,-28.3203125,-22.94921875,0.0
125.625,-35.64453125,-28.80859375,-30.2734375,-40.52734375,-6.8359375,0.0
125.62890625,-41.50390625,3.41796875,-22.4609375,-37.109375,18.5546875,0.0
125.6328125,-33.69140625,-33.203125,-19.04296875,-31.73828125,61.03515625,0.0
125.63671875,-28.3203125,-13.671875,-18.5546875,-27.34375,40.0390625,0.0
125.640625,-28.80859375,-17.578125,-23.4375,-29.296875,-31.25,0.0
125.64453125,-38.57421875,-148.4375,-30.76171875,-46.875,-46.875,0.0
125.6484375,-42.96875,-132.8125,-29.296875,-35.64453125,-72.265625,0.0
125.65234375,-33.203125,-76.171875,-23.92578125,-17.08984375,-105.95703125,0.0
125.65625,-23.92578125,-133.30078125,-25.87890625,-15.625,-154.78515625,0.0
125.66015625,-22.94921875,3.90625,-28.3203125,-19.04296875,-137.20703125,0.0
125.6640625,-29.296875,77.1484375,-28.3203125,-39.0625,-40.52734375,0.0
125.66796875,-41.50390625,-22.94921875,-29.296875,-39.0625,-22.94921875,0.0
125.671875,-36.62109375,-51.26953125,-26.85546875,-35.64453125,-11.71875,0.0
125.67578125,-20.99609375,-22.4609375,-24.90234375,-32.2265625,-7.8125,0.0
125.6796875,-13.18359375,-15.625,-22.94921875,-20.99609375,4.8828125,0.0
125.68359375,-15.625,-23.92578125,-22.4609375,-20.5078125,77.63671875,0.0
125.6875,-19.04296875,-38.0859375,-20.99609375,-31.73828125,81.54296875,0.0
125.69140625,-25.87890625,-28.3203125,-24.4140625,-32.71484375,53.22265625,0.0
125.6953125,-20.5078125,-20.99609375,-23.4375,-19.53125,-7.32421875,0.0
125.69921875,-12.6953125,-40.0390625,-19.53125,-20.01953125,-36.1328125,0.0
125.703125,-20.5078125,-33.203125,-22.4609375,-42.96875,-102.05078125,0.0
125.70703125,-31.73828125,-14.6484375,-26.85546875,-46.875,-129.39453125,0.0
125.7109375,-28.3203125,-29.78515625,-23.92578125,-26.3671875,-82.51953125,0.0
125.71484375,-21.484375,-34.66796875,-21.97265625,-28.3203125,-20.5078125,0.0
125.71875,-16.11328125,-38.0859375,-20.5078125,-26.85546875,12.20703125,0.0
125.72265625,-14.16015625,-26.85546875,-20.5078125,-14.16015625,-202.63671875,0.0
125.7265625,-22.94921875,-5.859375,-19.04296875,-16.11328125,-307.12890625,0.0
125.73046875,-36.62109375,-71.77734375,-13.18359375,-12.20703125,-225.09765625,0.0
125.734375,-40.0390625,34.66796875,-16.11328125,-12.6953125,-206.0546875,0.0
125.73828125,-29.78515625,105.95703125,-20.5078125,-13.671875,-185.05859375,0.0
125.7421875,-23.4375,-6.34765625,-28.3203125,-23.92578125,-144.53125,0.0
125.74609375,-36.62109375,-70.80078125,-33.69140625,-36.62109375,-178.22265625,0.0
125.75,-40.52734375,-34.66796875,-26.3671875,-23.92578125,-109.375,0.0
125.75390625,-27.83203125,-40.0390625,-24.90234375,-14.6484375,-66.89453125,0.0
125.7578125,-20.01953125,-88.8671875,-20.99609375,-12.20703125,-72.265625,0.0
125.76171875,-16.11328125,-21.484375,-20.01953125,-15.625,6.34765625,0.0
125.765625,-27.34375,90.8203125,-20.01953125,-33.203125,147.94921875,0.0
125.76953125,-49.8046875,122.0703125,-29.296875,-41.50390625,139.16015625,0.0
125.7734375,-46.875,42.96875,-37.109375,-30.76171875,20.5078125,0.0
125.77734375,-22.94921875,-77.1484375,-32.71484375,-30.2734375,-1.953125,0.0
125.78125,-19.04296875,-40.0390625,-26.3671875,-29.78515625,62.01171875,0.0
125.78515625,-33.203125,29.296875,-28.80859375,-30.76171875,95.703125,0.0
125.7890625,-45.41015625,2.44140625,-27.34375,-36.1328125,18.06640625,0.0
125.79296875,-42.48046875,-61.5234375,-23.4375,-31.25,20.5078125,0.0
125.796875,-40.0390625,-69.82421875,-27.83203125,-26.85546875,44.43359375,0.0
125.80078125,-39.0625,-29.296875,-29.296875,-36.62109375,11.23046875,0.0
125.8046875,-30.76171875,75.1953125,-30.76171875,-45.8984375,18.5546875,0.0
125.80859375,-41.50390625,123.046875,-29.78515625,-43.45703125,17.578125,0.0
125.8125,-58.59375,50.29296875,-27.34375,-42.48046875,-12.20703125,0.0
125.81640625,-45.8984375,-54.19921875,-25.390625,-34.66796875,-116.2109375,0.0
125.8203125,-32.71484375,-41.50390625,-31.73828125,-35.64453125,-124.0234375,0.0
125.82421875,-42.48046875,55.6640625,-36.1328125,-40.0390625,-84.47265625,0.0
125.828125,-55.17578125,47.8515625,-32.2265625,-47.36328125,-124.51171875,0.0
125.83203125,-44.43359375,11.23046875,-28.80859375,-42.96875,-101.07421875,0.0
125.8359375,-25.87890625,58.10546875,-22.94921875,-27.83203125,-83.0078125,0.0
125.83984375,-19.53125,107.421875,-27.34375,-24.4140625,-145.99609375,0.0
125.84375,-22.94921875,99.609375,-34.66796875,-33.69140625,-173.828125,0.0
125.84765625,-34.1796875,108.88671875,-29.78515625,-43.9453125,-113.28125,0.0
125.8515625,-41.50390625,83.984375,-23.92578125,-34.1796875,-109.86328125,0.0
125.85546875,-32.71484375,43.9453125,-27.34375,-22.4609375,-145.5078125,0.0
125.859375,-23.4375,22.94921875,-33.203125,-23.4375,-72.75390625,0.0
125.86328125,-21.484375,25.390625,-25.390625,-29.78515625,71.2890625,0.0
125.8671875,-22.94921875,16.11328125,-20.5078125,-29.296875,93.75,0.0
125.87109375,-22.94921875,-2.44140625,-20.5078125,-12.6953125,2.9296875,0.0
125.875,-22.4609375,111.328125,-19.04296875,-13.671875,2.44140625,0.0
125.87890625,-13.671875,173.828125,-20.5078125,-20.5078125,50.29296875,0.0
125.8828125,-19.04296875,106.4453125,-24.90234375,-32.71484375,38.0859375,0.0
125.88671875,-33.69140625,78.61328125,-28.3203125,-42.48046875,-2.9296875,0.0
125.890625,-31.25,5.859375,-31.73828125,-31.73828125,-5.37109375,0.0
125.89453125,-27.83203125,-40.0390625,-38.0859375,-22.94921875,85.44921875,0.0
125.8984375,-18.06640625,87.890625,-34.1796875,-24.90234375,78.61328125,0.0
125.90234375,-12.6953125,143.5546875,-33.69140625,-27.83203125,2.9296875,0.0
125.90625,-25.390625,65.91796875,-37.59765625,-27.34375,-3.90625,0.0
125.91015625,-42.96875,30.2734375,-36.62109375,-35.64453125,-54.19921875,0.0
125.9140625,-42.96875,76.66015625,-32.71484375,-24.90234375,-60.546875,0.0
125.91796875,-28.80859375,96.19140625,-30.76171875,-20.01953125,-25.87890625,0.0
125.921875,-33.203125,4.39453125,-32.71484375,-37.59765625,15.13671875,0.0
125.92578125,-46.38671875,3.41796875,-28.3203125,-46.875,42.96875,0.0
125.9296875,-53.22265625,83.0078125,-33.69140625,-40.0390625,-2.9296875,0.0
125.93359375,-53.22265625,41.015625,-47.36328125,-38.57421875,-31.73828125,0.0
125.9375,-39.0625,-43.45703125,-47.36328125,-48.828125,45.8984375,0.0
125.94140625,-31.25,-9.27734375,-38.57421875,-48.828125,6.34765625,0.0
125.9453125,-35.64453125,57.12890625,-37.59765625,-41.50390625,-26.3671875,0.0
125.94921875,-40.0390625,56.15234375,-36.1328125,-35.15625,-16.11328125,0.0
125.953125,-38.57421875,34.1796875,-36.62109375,-33.69140625,-46.875,0.0
125.95703125,-26.3671875,-4.39453125,-37.109375,-22.4609375,-23.92578125,0.0
125.9609375,-23.92578125,-7.32421875,-36.62109375,-31.73828125,-81.0546875,0.0
125.96484375,-28.80859375,6.8359375,-31.73828125,-45.41015625,-31.73828125,0.0
125.96875,-34.66796875,5.859375,-23.92578125,-25.390625,48.828125,0.0
125.97265625,-33.203125,37.59765625,-26.3671875,-12.6953125,21.484375,0.0
125.9765625,-20.99609375,35.15625,-30.76171875,-14.6484375,10.25390625,0.0
125.98046875,-20.5078125,-33.203125,-27.34375,-26.85546875,-14.16015625,0.0
125.984375,-32.2265625,-42.48046875,-26.3671875,-36.1328125,10.25390625,0.0
125.98828125,-38.57421875,13.671875,-33.203125,-35.64453125,35.64453125,0.0
125.9921875,-34.66796875,20.5078125,-34.1796875,-30.2734375,-33.203125,0.0
125.99609375,-18.06640625,-32.2265625,-34.66796875,-21.484375,-90.8203125,0.0
126.0,-12.20703125,-76.66015625,-27.83203125,-26.3671875,-72.265625,0.0
126.00390625,-22.4609375,7.8125,-25.390625,-30.76171875,-21.484375,0.0
126.0078125,-35.64453125,52.24609375,-28.80859375,-34.1796875,23.92578125,0.0
126.01171875,-39.0625,23.4375,-27.83203125,-30.2734375,-10.7421875,0.0
126.015625,-35.15625,-3.41796875,-28.80859375,-26.85546875,-31.73828125,0.0
126.01953125,-29.296875,-32.71484375,-30.76171875,-40.0390625,-25.87890625,0.0
126.0234375,-29.296875,-24.90234375,-33.203125,-52.734375,-43.9453125,0.0
126.02734375,-36.1328125,-55.17578125,-38.0859375,-43.45703125,-53.7109375,0.0
126.03125,-35.15625,-83.984375,-31.73828125,-28.3203125,-56.15234375,0.0
126.03515625,-39.0625,-34.1796875,-31.73828125,-30.2734375,-47.36328125,0.0
126.0390625,-36.62109375,0.48828125,-43.9453125,-38.57421875,-39.55078125,0.0
126.04296875,-37.59765625,-10.7421875,-44.43359375,-52.734375,-31.73828125,0.0
126.046875,-45.8984375,-19.04296875,-35.64453125,-50.78125,-10.25390625,0.0
126.05078125,-40.0390625,-17.578125,-30.76171875,-35.15625,24.90234375,0.0
126.0546875,-27.83203125,-36.1328125,-28.80859375,-23.92578125,0.0,0.0
126.05859375,-20.99609375,-46.875,-30.76171875,-20.01953125,-4.39453125,0.0
126.0625,-19.04296875,-55.6640625,-33.203125,-33.203125,-42.96875,0.0
126.06640625,-29.296875,-33.203125,-22.94921875,-29.296875,-31.25,0.0
126.0703125,-34.1796875,5.37109375,-16.6015625,-13.671875,64.94140625,0.0
126.07421875,-23.4375,-1.953125,-20.99609375,-10.25390625,35.64453125,0.0
126.078125,-17.08984375,-54.6875,-31.73828125,-15.13671875,35.15625,0.0
126.08203125,-17.578125,-123.046875,-42.96875,-37.109375,39.55078125,0.0
126.0859375,-22.4609375,-67.87109375,-38.0859375,-41.50390625,0.0,0.0
126.08984375,-25.390625,12.6953125,-31.25,-22.4609375,-24.90234375,0.0
126.09375,-12.6953125,18.06640625,-34.1796875,-12.6953125,23.4375,0.0
126.09765625,-5.37109375,-41.015625,-39.55078125,-9.27734375,1.953125,0.0
126.1015625,-22.4609375,-79.1015625,-37.109375,-25.390625,-33.69140625,0.0
126.10546875,-21.97265625,-13.18359375,-25.87890625,-27.34375,-39.0625,0.0
126.109375,-18.06640625,-0.9765625,-15.625,-22.4609375,-0.9765625,0.0
126.11328125,-33.69140625,-39.0625,-20.01953125,-32.71484375,-62.01171875,0.0
126.1171875,-25.390625,-19.04296875,-24.4140625,-21.484375,-145.5078125,0.0
126.12109375,-14.6484375,-11.71875,-23.92578125,-20.99609375,-73.2421875,0.0
126.125,-28.80859375,-26.85546875,-23.92578125,-37.59765625,-83.984375,0.0
126.12890625,-51.26953125,-69.3359375,-21.97265625,-41.015625,-33.203125,0.0
126.1328125,-44.921875,-36.62109375,-24.4140625,-32.2265625,8.7890625,0.0
126.13671875,-33.203125,24.4140625,-22.94921875,-33.203125,-42.48046875,0.0
126.140625,-35.15625,-11.71875,-20.99609375,-42.96875,10.7421875,0.0
126.14453125,-33.69140625,-46.38671875,-29.296875,-38.0859375,16.6015625,0.0
126.1484375,-42.48046875,-65.91796875,-30.2734375,-41.50390625,-81.0546875,0.0
126.15234375,-33.69140625,-94.23828125,-23.4375,-31.73828125,-96.6796875,0.0
126.15625,-36.62109375,-101.07421875,-24.4140625,-26.85546875,-47.8515625,0.0
126.16015625,-43.9453125,-21.484375,-23.4375,-34.66796875,-44.43359375,0.0
126.1640625,-28.80859375,21.484375,-13.671875,-27.34375,-84.47265625,0.0
126.16796875,-30.2734375,-16.11328125,-10.7421875,-25.87890625,-120.60546875,0.0
126.171875,-33.203125,-49.31640625,-15.625,-26.85546875,-112.79296875,0.0
126.17578125,-35.15625,-44.43359375,-19.53125,-27.34375,-5.859375,0.0
126.1796875,-29.78515625,-66.40625,-21.97265625,-23.92578125,-39.55078125,0.0
126.18359375,-18.06640625,-74.21875,-23.92578125,-26.85546875,-142.578125,0.0
126.1875,-32.71484375,-68.359375,-25.390625,-34.1796875,-119.140625,0.0
126.19140625,-39.0625,-118.65234375,-28.3203125,-29.296875,-96.19140625,0.0
126.1953125,-32.71484375,-73.2421875,-29.78515625,-30.76171875,-126.46484375,0.0
126.19921875,-23.4375,-34.66796875,-23.4375,-20.01953125,-80.56640625,0.0
126.203125,-18.06640625,-45.41015625,-17.578125,-26.3671875,-7.32421875,0.0
126.20703125,-32.71484375,-29.78515625,-19.04296875,-34.66796875,-7.8125,0.0
126.2109375,-39.0625,-39.0625,-26.3671875,-25.87890625,-30.2734375,0.0
126.21484375,-41.50390625,-22.4609375,-35.64453125,-25.390625,-48.828125,0.0
126.21875,-40.52734375,-56.640625,-31.25,-19.04296875,33.69140625,0.0
126.22265625,-37.109375,-68.359375,-28.3203125,-20.99609375,86.42578125,0.0
126.2265625,-45.41015625,-47.36328125,-29.78515625,-38.57421875,44.43359375,0.0
126.23046875,-55.6640625,-13.18359375,-33.203125,-39.0625,36.62109375,0.0
126.234375,-49.31640625,19.04296875,-31.73828125,-25.390625,19.53125,0.0
126.23828125,-24.90234375,-32.71484375,-23.92578125,-15.625,61.03515625,0.0
126.2421875,-27.34375,-54.19921875,-28.3203125,-24.4140625,114.2578125,0.0
126.24609375,-52.24609375,-40.0390625,-32.71484375,-40.52734375,51.7578125,0.0
126.25,-58.10546875,-28.80859375,-32.71484375,-35.64453125,-88.8671875,0.0
126.25390625,-37.109375,-16.11328125,-28.80859375,-15.13671875,-189.94140625,0.0
126.2578125,-21.484375,-27.34375,-22.94921875,-12.6953125,-77.63671875,0.0
126.26171875,-23.92578125,-50.29296875,-32.2265625,-32.2265625,-55.17578125,0.0
126.265625,-27.83203125,-75.1953125,-40.0390625,-48.828125,-33.203125,0.0
126.26953125,-31.25,-54.6875,-36.1328125,-46.38671875,22.4609375,0.0
126.2734375,-24.4140625,-12.6953125,-31.25,-24.90234375,-6.8359375,0.0
126.27734375,-23.4375,-31.25,-29.296875,-20.99609375,-53.7109375,0.0
126.28125,-30.2734375,-27.34375,-30.76171875,-32.2265625,-41.015625,0.0
126.28515625,-35.64453125,-44.921875,-35.15625,-46.875,17.08984375,0.0
126.2890625,-49.8046875,-48.828125,-33.203125,-50.78125,32.2265625,0.0
126.29296875,-50.78125,-44.43359375,-31.25,-43.9453125,-5.37109375,0.0
126.296875,-29.78515625,-42.48046875,-32.71484375,-26.3671875,-11.71875,0.0
126.30078125,-14.6484375,-41.015625,-26.3671875,-21.97265625,28.80859375,0.0
126.3046875,-33.203125,-17.08984375,-22.4609375,-36.62109375,21.97265625,0.0
126.30859375,-42.96875,-23.4375,-21.97265625,-26.85546875,14.16015625,0.0
126.3125,-36.62109375,-46.38671875,-20.99609375,-21.97265625,-31.73828125,0.0
126.31640625,-36.1328125,-46.875,-19.04296875,-28.80859375,-40.0390625,0.0
126.3203125,-28.80859375,-42.96875,-16.11328125,-22.4609375,-20.5078125,0.0
126.32421875,-30.2734375,-43.45703125,-19.04296875,-25.87890625,-76.171875,0.0
126.328125,-39.0625,-47.8515625,-25.87890625,-31.73828125,-99.609375,0.0
126.33203125,-45.41015625,7.8125,-25.87890625,-34.1796875,-40.52734375,0.0
126.3359375,-39.55078125,-38.57421875,-22.4609375,-15.13671875,-47.36328125,0.0
126.33984375,-34.66796875,-34.66796875,-25.87890625,-18.06640625,-65.91796875,0.0
126.34375,-48.828125,-43.9453125,-34.66796875,-44.43359375,10.7421875,0.0
126.34765625,-60.546875,-35.15625,-37.109375,-46.875,-10.25390625,0.0
126.3515625,-44.921875,-12.20703125,-35.64453125,-34.66796875,-33.69140625,0.0
126.35546875,-35.15625,-21.97265625,-31.73828125,-24.90234375,35.15625,0.0
126.359375,-39.55078125,-36.1328125,-35.15625,-34.1796875,15.13671875,0.0
126.36328125,-44.43359375,-29.78515625,-32.71484375,-46.875,-31.25,0.0
126.3671875,-36.62109375,-13.18359375,-28.3203125,-43.9453125,7.8125,0.0
126.37109375,-34.1796875,5.37109375,-29.296875,-27.34375,-34.1796875,0.0
126.375,-29.78515625,12.20703125,-32.2265625,-20.5078125,-41.9921875,0.0
126.37890625,-20.5078125,-4.39453125,-30.2734375,-20.99609375,10.25390625,0.0
126.3828125,-25.87890625,-49.31640625,-28.3203125,-28.3203125,16.6015625,0.0
126.38671875,-25.87890625,-38.57421875,-36.1328125,-30.76171875,-37.59765625,0.0
126.390625,-34.1796875,-3.90625,-36.62109375,-45.8984375,-30.2734375,0.0
126.39453125,-44.43359375,-58.10546875,-37.59765625,-47.8515625,-28.80859375,0.0
126.3984375,-32.71484375,-51.7578125,-32.71484375,-31.25,-40.0390625,0.0
126.40234375,-37.59765625,8.7890625,-36.1328125,-47.8515625,-45.8984375,0.0
126.40625,-38.57421875,-11.23046875,-38.0859375,-52.734375,-37.109375,0.0
126.41015625,-26.3671875,-23.4375,-25.390625,-42.96875,-56.15234375,0.0
126.4140625,-36.62109375,5.37109375,-20.5078125,-40.0390625,-136.71875,0.0
126.41796875,-43.9453125,23.4375,-33.69140625,-38.57421875,-117.67578125,0.0
126.421875,-39.0625,-6.8359375,-41.015625,-45.41015625,-92.28515625,0.0
126.42578125,-41.9921875,-41.9921875,-38.57421875,-46.875,-69.3359375,0.0
126.4296875,-48.828125,-35.15625,-39.0625,-45.41015625,-19.53125,0.0
126.43359375,-54.19921875,-62.98828125,-37.109375,-34.66796875,-37.109375,0.0
126.4375,-42.48046875,-41.015625,-34.1796875,-34.66796875,-15.13671875,0.0
126.44140625,-40.0390625,-5.859375,-34.1796875,-42.48046875,26.3671875,0.0
126.4453125,-47.8515625,0.9765625,-35.15625,-36.62109375,54.19921875,0.0
126.44921875,-49.8046875,-1.46484375,-30.2734375,-39.0625,25.390625,0.0
126.453125,-49.8046875,-53.22265625,-22.4609375,-28.3203125,-56.640625,0.0
126.45703125,-40.0390625,-68.359375,-22.94921875,-11.71875,-23.4375,0.0
126.4609375,-36.62109375,0.48828125,-35.15625,-28.3203125,40.52734375,0.0
126.46484375,-36.62109375,30.2734375,-40.0390625,-37.109375,73.73046875,0.0
126.46875,-39.55078125,1.953125,-34.66796875,-42.48046875,101.07421875,0.0
126.47265625,-39.55078125,-15.625,-27.34375,-38.0859375,21.97265625,0.0
126.4765625,-26.85546875,-13.18359375,-27.83203125,-22.4609375,-107.91015625,0.0
126.48046875,-15.625,-18.06640625,-26.3671875,-18.5546875,-140.625,0.0
126.484375,-13.18359375,-62.5,-28.80859375,-22.94921875,-135.7421875,0.0
126.48828125,-25.87890625,-81.0546875,-34.1796875,-37.59765625,-153.80859375,0.0
126.4921875,-22.4609375,-36.62109375,-30.76171875,-24.90234375,-150.390625,0.0
126.49609375,-7.32421875,44.43359375,-28.80859375,-7.8125,-128.90625,0.0
126.5,-8.7890625,0.0,-28.3203125,-22.4609375,-110.83984375,0.0
126.50390625,-28.80859375,-111.81640625,-27.34375,-41.9921875,-117.1875,0.0
126.5078125,-38.0859375,-46.38671875,-34.66796875,-47.8515625,-4.8828125,0.0
126.51171875,-38.57421875,51.7578125,-39.0625,-36.62109375,16.11328125,0.0
126.515625,-23.4375,52.24609375,-36.1328125,-28.80859375,-10.7421875,0.0
126.51953125,-13.671875,-6.34765625,-39.0625,-25.87890625,10.7421875,0.0
126.5234375,-29.78515625,-55.6640625,-39.0625,-42.96875,-10.25390625,0.0
126.52734375,-34.66796875,-39.55078125,-38.0859375,-55.17578125,1.953125,0.0
126.53125,-46.38671875,-75.68359375,-40.0390625,-45.8984375,-7.32421875,0.0
126.53515625,-43.9453125,-94.7265625,-36.1328125,-39.55078125,-102.05078125,0.0
126.5390625,-33.203125,-8.7890625,-31.73828125,-36.1328125,-155.76171875,0.0
126.54296875,-44.921875,41.9921875,-35.15625,-51.7578125,-135.7421875,0.0
126.546875,-49.8046875,0.9765625,-37.109375,-56.640625,-41.50390625,0.0
126.55078125,-50.78125,-49.31640625,-35.64453125,-41.50390625,-34.1796875,0.0
126.5546875,-43.9453125,-19.53125,-29.296875,-30.76171875,-88.8671875,0.0
126.55859375,-31.73828125,-16.6015625,-24.90234375,-32.2265625,-73.2421875,0.0
126.5625,-33.69140625,-48.33984375,-30.76171875,-34.1796875,-1.46484375,0.0
126.56640625,-41.015625,-37.59765625,-39.0625,-53.22265625,38.57421875,0.0
126.5703125,-43.45703125,-11.71875,-37.109375,-51.7578125,-65.91796875,0.0
126.57421875,-26.3671875,-30.2734375,-27.83203125,-21.484375,-104.00390625,0.0
126.578125,-14.6484375,-73.73046875,-27.83203125,-17.08984375,-40.52734375,0.0
126.58203125,-19.04296875,-53.22265625,-35.64453125,-21.97265625,0.9765625,0.0
126.5859375,-30.2734375,-18.06640625,-34.1796875,-27.34375,-13.18359375,0.0
126.58984375,-40.52734375,-51.7578125,-36.1328125,-30.76171875,-86.9140625,0.0
126.59375,-32.71484375,-45.41015625,-41.015625,-26.85546875,-6.34765625,0.0
126.59765625,-15.625,31.25,-33.69140625,-22.94921875,63.4765625,0.0
126.6015625,-9.27734375,24.4140625,-39.55078125,-31.25,20.99609375,0.0
126.60546875,-20.01953125,-64.94140625,-47.8515625,-41.015625,49.31640625,0.0
126.609375,-31.25,-57.12890625,-47.8515625,-38.0859375,78.61328125,0.0
126.61328125,-22.4609375,-7.8125,-43.45703125,-23.4375,62.5,0.0
126.6171875,-9.27734375,10.25390625,-37.109375,-31.73828125,-102.05078125,0.0
126.62109375,-24.4140625,30.76171875,-43.45703125,-46.38671875,-51.26953125,0.0
126.625,-31.25,25.87890625,-40.52734375,-36.1328125,79.58984375,0.0
126.62890625,-23.4375,-23.4375,-34.1796875,-30.76171875,35.64453125,0.0
126.6328125,-36.62109375,-116.2109375,-38.57421875,-20.01953125,-24.90234375,0.0
126.63671875,-26.3671875,-104.00390625,-19.04296875,-16.6015625,-47.8515625,0.0
126.640625,-11.71875,-2.44140625,-15.625,-17.08984375,-14.16015625,0.0
126.64453125,-30.76171875,25.87890625,-33.203125,-25.390625,54.6875,0.0
126.6484375,-43.9453125,-6.34765625,-34.66796875,-42.48046875,54.6875,0.0
126.65234375,-44.43359375,-28.80859375,-38.57421875,-35.15625,42.48046875,0.0
126.65625,-37.109375,-9.765625,-35.15625,-30.76171875,-19.53125,0.0
126.66015625,-34.66796875,8.30078125,-34.1796875,-40.0390625,-56.640625,0.0
126.6640625,-41.015625,-83.0078125,-35.15625,-44.43359375,-4.8828125,0.0
126.66796875,-40.52734375,-122.0703125,-32.2265625,-52.24609375,8.30078125,0.0
126.671875,-39.55078125,5.859375,-33.69140625,-40.52734375,-30.2734375,0.0
126.67578125,-29.296875,41.9921875,-32.71484375,-29.296875,-31.73828125,0.0
126.6796875,-36.1328125,0.48828125,-36.62109375,-51.26953125,9.27734375,0.0
126.68359375,-41.50390625,-1.953125,-36.1328125,-61.03515625,-3.41796875,0.0
126.6875,-41.9921875,-6.34765625,-36.1328125,-52.24609375,-10.7421875,0.0
126.69140625,-37.59765625,-57.6171875,-30.76171875,-38.0859375,-25.87890625,0.0
126.6953125,-36.1328125,-86.42578125,-33.203125,-36.1328125,-41.9921875,0.0
126.69921875,-41.50390625,-5.859375,-40.52734375,-49.8046875,-44.921875,0.0
126.703125,-27.34375,14.16015625,-35.15625,-50.78125,-23.4375,0.0
126.70703125,-33.69140625,-51.26953125,-34.1796875,-43.9453125,-50.78125,0.0
126.7109375,-40.0390625,-9.27734375,-31.73828125,-31.73828125,-32.71484375,0.0
126.71484375,-30.76171875,12.20703125,-27.34375,-23.92578125,12.6953125,0.0
126.71875,-20.99609375,2.44140625,-31.73828125,-25.390625,20.5078125,0.0
126.72265625,-16.11328125,-5.859375,-39.0625,-22.4609375,-7.32421875,0.0
126.7265625,-30.2734375,-52.24609375,-35.64453125,-22.4609375,-46.38671875,0.0
126.73046875,-37.109375,-77.1484375,-32.71484375,-25.390625,-77.63671875,0.0
126.734375,-32.71484375,-31.73828125,-35.15625,-34.1796875,-74.21875,0.0
126.73828125,-17.578125,35.15625,-22.4609375,-15.625,-39.55078125,0.0
126.7421875,-8.7890625,37.59765625,-16.11328125,3.90625,-41.50390625,0.0
126.74609375,-34.1796875,-3.90625,-30.2734375,-14.16015625,32.71484375,0.0
126.75,-44.921875,-75.1953125,-32.2265625,-22.4609375,-11.23046875,0.0
126.75390625,-32.71484375,-106.93359375,-23.4375,-17.578125,-46.875,0.0
126.7578125,-21.97265625,4.8828125,-18.06640625,-2.44140625,42.96875,0.0
126.76171875,-19.53125,73.2421875,-25.87890625,-4.8828125,-6.8359375,0.0
126.765625,-26.85546875,-9.765625,-31.73828125,-25.390625,-44.43359375,0.0
126.76953125,-40.52734375,-17.578125,-36.1328125,-35.15625,-0.9765625,0.0
126.7734375,-43.9453125,-18.5546875,-33.69140625,-27.83203125,0.9765625,0.0
126.77734375,-26.3671875,-49.31640625,-22.94921875,-20.5078125,29.296875,0.0
126.78125,-26.85546875,-30.2734375,-24.4140625,-33.69140625,55.17578125,0.0
126.78515625,-49.8046875,2.44140625,-41.50390625,-47.8515625,51.26953125,0.0
126.7890625,-61.03515625,1.953125,-50.29296875,-53.22265625,-12.20703125,0.0
126.79296875,-51.26953125,0.9765625,-39.55078125,-39.0625,-44.43359375,0.0
126.796875,-36.62109375,-43.9453125,-33.69140625,-24.90234375,-24.4140625,0.0
126.80078125,-22.4609375,-38.0859375,-28.3203125,-25.390625,-25.87890625,0.0
126.8046875,-29.78515625,-3.90625,-32.2265625,-37.109375,-36.1328125,0.0
126.80859375,-42.48046875,-26.85546875,-35.15625,-44.43359375,-78.125,0.0
126.8125,-30.76171875,-30.2734375,-32.2265625,-28.3203125,-74.70703125,0.0
126.81640625,-23.4375,4.39453125,-24.4140625,-30.2734375,-62.01171875,0.0
126.8203125,-29.78515625,-33.203125,-24.4140625,-41.015625,-69.82421875,0.0
126.82421875,-32.2265625,-124.0234375,-32.2265625,-42.48046875,-41.9921875,0.0
126.828125,-39.0625,-65.91796875,-27.83203125,-39.55078125,-48.828125,0.0
126.83203125,-45.8984375,26.3671875,-36.1328125,-33.203125,-82.03125,0.0
126.8359375,-46.38671875,-35.64453125,-48.33984375,-27.34375,-90.8203125,0.0
126.83984375,-28.80859375,-72.265625,-33.69140625,-24.4140625,-37.59765625,0.0
126.84375,-17.578125,-98.6328125,-23.4375,-20.5078125,24.90234375,0.0
126.84765625,-35.15625,-124.51171875,-26.85546875,-35.64453125,26.3671875,0.0
126.8515625,-43.9453125,-46.38671875,-22.94921875,-33.69140625,-7.8125,0.0
126.85546875,-36.62109375,-58.10546875,-23.4375,-9.27734375,-27.34375,0.0
126.859375,-30.2734375,-81.0546875,-22.94921875,-13.18359375,-13.18359375,0.0
126.86328125,-20.01953125,-126.953125,-18.06640625,-20.99609375,11.23046875,0.0
126.8671875,-26.3671875,-165.52734375,-23.4375,-32.2265625,-23.4375,0.0
126.87109375,-38.0859375,-159.1796875,-23.4375,-38.57421875,-75.68359375,0.0
126.875,-30.2734375,-126.46484375,-25.87890625,-25.87890625,-81.54296875,0.0
126.87890625,-43.9453125,-130.37109375,-30.2734375,-43.45703125,-6.8359375,0.0
126.8828125,-55.17578125,-198.2421875,-34.66796875,-60.05859375,-9.765625,0.0
126.88671875,-54.19921875,-211.9140625,-37.109375,-42.96875,-59.5703125,0.0
126.890625,-48.828125,-258.7890625,-34.66796875,-41.50390625,-94.23828125,0.0
126.89453125,-40.0390625,-36.62109375,-30.2734375,-44.43359375,-113.76953125,0.0
126.8984375,-34.1796875,-44.43359375,-30.76171875,-37.109375,-104.00390625,0.0
126.90234375,-35.15625,-34.66796875,-34.1796875,-45.8984375,-60.05859375,0.0
126.90625,-52.734375,-24.4140625,-33.69140625,-67.87109375,-18.06640625,0.0
126.91015625,-56.640625,-32.2265625,-27.83203125,-58.59375,-49.31640625,0.0
126.9140625,-46.875,-50.29296875,-24.90234375,-49.8046875,-58.59375,0.0
126.91796875,-36.62109375,-27.34375,-32.71484375,-51.7578125,-22.4609375,0.0
126.921875,-27.83203125,-23.4375,-32.71484375,-47.8515625,-71.2890625,0.0
126.92578125,-35.15625,-33.69140625,-34.1796875,-55.17578125,-122.55859375,0.0
126.9296875,-42.96875,-33.203125,-39.55078125,-64.94140625,-69.82421875,0.0
126.93359375,-46.38671875,-33.69140625,-35.15625,-45.8984375,-40.52734375,0.0
126.9375,-32.71484375,-32.71484375,-30.2734375,-34.66796875,-75.68359375,0.0
126.94140625,-31.25,-318.84765625,-30.76171875,-42.48046875,-115.72265625,0.0
126.9453125,-52.24609375,-305.17578125,-33.69140625,-48.33984375,-147.4609375,0.0
126.94921875,-51.26953125,-312.5,-35.64453125,-36.1328125,-52.24609375,0.0
126.953125,-34.1796875,-285.64453125,-35.15625,-29.78515625,-42.96875,0.0
126.95703125,-35.15625,-245.60546875,-28.80859375,-36.1328125,-125.0,0.0
126.9609375,-31.25,-217.7734375,-34.66796875,-42.48046875,-96.6796875,0.0
126.96484375,-20.5078125,-311.5234375,-41.015625,-35.64453125,-92.28515625,0.0
126.96875,-38.0859375,-301.7578125,-40.0390625,-35.64453125,-53.22265625,0.0
126.97265625,-44.921875,-235.3515625,-40.0390625,-34.66796875,12.6953125,0.0
126.9765625,-31.25,-264.6484375,-39.55078125,-39.55078125,-11.71875,0.0
126.98046875,-29.78515625,-245.1171875,-33.203125,-44.43359375,2.44140625,0.0
126.984375,-30.76171875,-230.46875,-29.78515625,-38.57421875,55.17578125,0.0
126.98828125,-44.43359375,-230.95703125,-32.71484375,-39.0625,38.0859375,0.0
126.9921875,-45.8984375,-251.953125,-28.80859375,-32.71484375,17.08984375,0.0
126.99609375,-32.2265625,-212.890625,-20.99609375,-30.76171875,-28.80859375,0.0
127.0,-28.3203125,-215.8203125,-20.5078125,-33.69140625,-24.4140625,0.0
127.00390625,-28.3203125,-302.734375,-29.296875,-37.109375,-31.25,0.0
127.0078125,-43.45703125,-264.6484375,-36.62109375,-50.78125,-58.10546875,0.0
127.01171875,-38.0859375,-215.33203125,-27.34375,-38.57421875,-110.83984375,0.0
127.015625,-40.0390625,-264.6484375,-32.71484375,-31.73828125,-80.078125,0.0
127.01953125,-38.0859375,-205.56640625,-37.109375,-47.8515625,-20.01953125,0.0
127.0234375,-28.3203125,-157.71484375,-23.92578125,-50.78125,32.71484375,0.0
127.02734375,-37.59765625,-161.1328125,-23.4375,-54.19921875,18.06640625,0.0
127.03125,-38.0859375,-149.90234375,-25.87890625,-46.38671875,-78.61328125,0.0
127.03515625,-36.1328125,-232.91015625,-29.296875,-47.8515625,-127.44140625,0.0
127.0390625,-25.390625,-306.15234375,-30.2734375,-41.015625,-163.57421875,0.0
127.04296875,-24.90234375,-202.1484375,-34.1796875,-37.109375,-109.375,0.0
127.046875,-39.0625,-165.52734375,-35.64453125,-47.36328125,-44.921875,0.0
127.05078125,-46.875,-124.0234375,-29.296875,-38.57421875,-88.8671875,0.0
127.0546875,-31.73828125,-44.921875,-28.3203125,-28.3203125,-92.28515625,0.0
127.05859375,-14.6484375,-162.109375,-22.4609375,-26.3671875,-64.94140625,0.0
127.0625,-31.73828125,-210.9375,-26.3671875,-47.36328125,-71.2890625,0.0
127.06640625,-44.43359375,-78.61328125,-34.66796875,-57.12890625,-43.45703125,0.0
127.0703125,-46.875,-26.85546875,-33.203125,-39.0625,-31.25,0.0
127.07421875,-39.55078125,-136.23046875,-31.25,-28.80859375,-26.85546875,0.0
127.078125,-30.2734375,-190.91796875,-33.203125,-32.71484375,-10.25390625,0.0
127.08203125,-23.92578125,-89.84375,-35.64453125,-33.203125,-2.9296875,0.0
127.0859375,-38.0859375,-34.66796875,-44.921875,-50.78125,27.83203125,0.0
127.08984375,-42.96875,-61.5234375,-39.55078125,-49.8046875,49.8046875,0.0
127.09375,-31.73828125,-102.05078125,-27.83203125,-30.2734375,-104.98046875,0.0
127.09765625,-32.2265625,-130.859375,-34.66796875,-37.109375,-107.91015625,0.0
127.1015625,-31.73828125,-93.75,-31.73828125,-37.59765625,-50.78125,0.0
127.10546875,-40.0390625,-91.30859375,-29.78515625,-41.50390625,-116.69921875,0.0
127.109375,-49.31640625,-172.36328125,-38.57421875,-46.38671875,-54.6875,0.0
127.11328125,-44.921875,-241.69921875,-33.203125,-32.71484375,-5.37109375,0.0
127.1171875,-37.109375,-159.66796875,-24.4140625,-29.296875,-17.578125,0.0
127.12109375,-33.203125,-44.921875,-28.80859375,-50.29296875,-4.39453125,0.0
127.125,-42.48046875,-35.15625,-34.66796875,-66.89453125,-22.94921875,0.0
127.12890625,-55.6640625,-19.04296875,-34.1796875,-55.6640625,7.32421875,0.0
127.1328125,-60.546875,-64.94140625,-33.203125,-46.875,26.3671875,0.0
127.13671875,-53.7109375,-108.88671875,-33.69140625,-48.33984375,-25.390625,0.0
127.140625,-48.33984375,-146.484375,-37.109375,-52.734375,-53.7109375,0.0
127.14453125,-53.22265625,-188.4765625,-34.66796875,-51.7578125,5.859375,0.0
127.1484375,-56.640625,-137.20703125,-28.3203125,-48.828125,26.85546875,0.0
127.15234375,-55.17578125,-47.36328125,-26.3671875,-44.43359375,-59.5703125,0.0
127.15625,-41.9921875,-7.8125,-29.78515625,-41.50390625,-83.984375,0.0
127.16015625,-35.15625,-11.71875,-28.80859375,-42.96875,-33.203125,0.0
127.1640625,-39.55078125,-61.03515625,-28.3203125,-48.828125,27.34375,0.0
127.16796875,-43.9453125,-98.6328125,-35.64453125,-41.50390625,19.04296875,0.0
127.171875,-41.9921875,-85.9375,-33.203125,-33.203125,-77.63671875,0.0
127.17578125,-33.69140625,-68.359375,-28.80859375,-34.66796875,-73.2421875,0.0
127.1796875,-19.53125,-85.9375,-29.296875,-28.3203125,-14.6484375,0.0
127.18359375,-10.7421875,-55.6640625,-32.71484375,-29.296875,-56.640625,0.0
127.1875,-12.20703125,-19.04296875,-38.0859375,-34.1796875,-28.80859375,0.0
127.19140625,-22.94921875,-56.640625,-37.109375,-28.80859375,5.37109375,0.0
127.1953125,-20.5078125,-73.2421875,-29.78515625,-8.7890625,-114.74609375,0.0
127.19921875,-6.8359375,-56.640625,-23.4375,-9.765625,-195.3125,0.0
127.203125,-14.16015625,-48.33984375,-24.90234375,-29.296875,-96.6796875,0.0
127.20703125,-23.92578125,-59.5703125,-24.90234375,-29.78515625,-24.4140625,0.0
127.2109375,-31.73828125,-128.41796875,-27.34375,-18.5546875,-51.26953125,0.0
127.21484375,-37.109375,-171.875,-29.296875,-18.5546875,-69.82421875,0.0
127.21875,-31.73828125,-84.47265625,-25.87890625,-19.53125,-76.171875,0.0
127.22265625,-13.671875,-28.3203125,-27.34375,-13.18359375,-64.453125,0.0
127.2265625,-27.83203125,-26.3671875,-34.1796875,-31.73828125,-65.4296875,0.0
127.23046875,-49.8046875,-14.6484375,-33.203125,-45.41015625,-40.0390625,0.0
127.234375,-35.15625,-29.296875,-23.4375,-18.5546875,-15.625,0.0
127.23828125,-27.34375,-44.43359375,-28.80859375,-32.2265625,-56.640625,0.0
127.2421875,-31.25,-35.64453125,-36.1328125,-45.41015625,1.953125,0.0
127.24609375,-40.52734375,-32.71484375,-30.2734375,-41.9921875,40.0390625,0.0
127.25,-51.26953125,-31.25,-24.4140625,-42.96875,10.25390625,0.0
127.25390625,-40.52734375,-32.71484375,-27.83203125,-31.73828125,-4.39453125,0.0
127.2578125,-26.3671875,-24.90234375,-27.83203125,-31.25,-4.8828125,0.0
127.26171875,-20.01953125,-20.99609375,-20.5078125,-28.80859375,33.69140625,0.0
127.265625,-32.2265625,-34.66796875,-21.484375,-32.2265625,61.5234375,0.0
127.26953125,-45.41015625,-68.84765625,-27.34375,-35.15625,-41.9921875,0.0
127.2734375,-37.59765625,-69.3359375,-28.80859375,-26.3671875,-78.61328125,0.0
127.27734375,-20.99609375,10.25390625,-20.99609375,-27.83203125,-20.5078125,0.0
127.28125,-8.30078125,26.85546875,-20.01953125,-32.71484375,-39.55078125,0.0
127.28515625,-17.578125,21.484375,-29.78515625,-30.2734375,7.32421875,0.0
127.2890625,-35.15625,52.24609375,-30.76171875,-33.69140625,59.08203125,0.0
127.29296875,-36.1328125,-68.84765625,-27.34375,-28.80859375,24.4140625,0.0
127.296875,-18.5546875,-108.88671875,-25.390625,-23.92578125,23.92578125,0.0
127.30078125,-16.11328125,27.34375,-28.80859375,-29.78515625,13.18359375,0.0
127.3046875,-34.1796875,79.1015625,-28.80859375,-28.3203125,-14.6484375,0.0
127.30859375,-44.43359375,25.87890625,-30.2734375,-23.92578125,-34.1796875,0.0
127.3125,-21.484375,-16.11328125,-22.94921875,-11.71875,-78.125,0.0
127.31640625,-12.6953125,43.45703125,-14.6484375,-7.8125,-39.0625,0.0
127.3203125,-22.4609375,26.3671875,-23.4375,-13.671875,21.97265625,0.0
127.32421875,-28.80859375,-53.7109375,-30.76171875,-28.3203125,-14.6484375,0.0
127.328125,-37.109375,-46.875,-25.390625,-34.66796875,8.30078125,0.0
127.33203125,-40.52734375,-18.06640625,-20.01953125,-34.66796875,11.71875,0.0
127.3359375,-34.66796875,-37.59765625,-24.4140625,-32.2265625,-57.12890625,0.0
127.33984375,-26.3671875,-30.76171875,-23.92578125,-18.06640625,-23.4375,0.0
127.34375,-31.25,1.953125,-35.64453125,-29.296875,16.11328125,0.0
127.34765625,-43.9453125,-2.9296875,-41.9921875,-47.8515625,10.25390625,0.0
127.3515625,-51.26953125,22.94921875,-33.203125,-40.52734375,-26.3671875,0.0
127.35546875,-35.64453125,-13.18359375,-32.2265625,-30.2734375,-67.87109375,0.0
127.359375,-30.2734375,-41.015625,-35.64453125,-38.0859375,-58.59375,0.0
127.36328125,-35.64453125,-25.390625,-37.59765625,-48.828125,-43.9453125,0.0
127.3671875,-42.96875,-5.859375,-37.109375,-45.41015625,-46.875,0.0
127.37109375,-56.640625,-9.765625,-29.78515625,-36.1328125,-81.0546875,0.0
127.375,-48.33984375,-27.83203125,-24.4140625,-35.64453125,-97.65625,0.0
127.37890625,-43.9453125,36.1328125,-33.203125,-45.41015625,-98.14453125,0.0
127.3828125,-50.29296875,39.0625,-39.0625,-48.828125,-24.4140625,0.0
127.38671875,-54.19921875,-42.48046875,-40.0390625,-55.6640625,-25.390625,0.0
127.390625,-63.4765625,-95.21484375,-43.45703125,-57.6171875,-25.87890625,0.0
127.39453125,-56.640625,-16.11328125,-39.55078125,-45.8984375,-52.24609375,0.0
127.3984375,-33.203125,44.43359375,-34.66796875,-40.52734375,-107.421875,0.0
127.40234375,-24.4140625,-5.859375,-35.15625,-44.921875,-13.671875,0.0
127.40625,-43.9453125,-31.25,-27.83203125,-49.8046875,0.9765625,0.0
127.41015625,-47.36328125,17.08984375,-29.78515625,-41.50390625,30.2734375,0.0
127.4140625,-24.90234375,43.45703125,-27.83203125,-20.99609375,5.859375,0.0
127.41796875,-17.08984375,-10.7421875,-23.4375,-14.16015625,-44.43359375,0.0
127.421875,-25.390625,-46.38671875,-32.2265625,-28.80859375,-31.25,0.0
127.42578125,-28.3203125,-18.06640625,-35.64453125,-28.3203125,-35.15625,0.0
127.4296875,-41.015625,7.32421875,-34.1796875,-31.25,-130.37109375,0.0
127.43359375,-45.41015625,12.20703125,-37.59765625,-32.2265625,-186.5234375,0.0
127.4375,-36.1328125,-46.38671875,-36.62109375,-25.390625,-85.44921875,0.0
127.44140625,-34.1796875,-57.6171875,-37.59765625,-45.41015625,-16.6015625,0.0
127.4453125,-41.9921875,-39.0625,-43.9453125,-45.41015625,-4.8828125,0.0
127.44921875,-53.22265625,-83.984375,-40.52734375,-27.83203125,-9.765625,0.0
127.453125,-34.1796875,-67.3828125,-24.4140625,-16.11328125,-45.8984375,0.0
127.45703125,-32.71484375,41.9921875,-20.99609375,-20.01953125,-74.70703125,0.0
127.4609375,-43.9453125,85.9375,-25.390625,-25.390625,-121.58203125,0.0
127.46484375,-45.8984375,23.4375,-34.66796875,-37.109375,-146.484375,0.0
127.46875,-53.7109375,-18.06640625,-38.0859375,-45.41015625,-145.01953125,0.0
127.47265625,-45.8984375,-45.8984375,-33.69140625,-36.1328125,-214.35546875,0.0
127.4765625,-39.0625,-81.0546875,-35.64453125,-35.15625,-257.32421875,0.0
127.48046875,-35.15625,-21.97265625,-31.73828125,-39.0625,-245.1171875,0.0
127.484375,-45.41015625,56.15234375,-32.2265625,-45.41015625,-234.375,0.0
127.48828125,-47.8515625,43.45703125,-31.25,-40.0390625,-259.27734375,0.0
127.4921875,-47.8515625,31.73828125,-36.62109375,-51.7578125,-279.78515625,0.0
127.49609375,-39.0625,39.55078125,-36.62109375,-39.0625,-93.75,0.0
127.5,-26.85546875,-25.390625,-31.73828125,-25.87890625,-0.48828125,0.0
127.50390625,-41.015625,-64.94140625,-33.69140625,-40.52734375,5.859375,0.0
127.5078125,-44.921875,-36.1328125,-26.3671875,-31.73828125,35.15625,0.0
127.51171875,-42.96875,21.484375,-14.16015625,-23.4375,-23.4375,0.0
127.515625,-40.0390625,80.078125,-19.04296875,-27.34375,-5.37109375,0.0
127.51953125,-29.78515625,83.984375,-30.2734375,-41.9921875,21.484375,0.0
127.5234375,-36.62109375,2.44140625,-33.203125,-52.734375,-42.48046875,0.0
127.52734375,-47.8515625,-33.69140625,-36.62109375,-49.31640625,-142.578125,0.0
127.53125,-40.52734375,25.87890625,-22.4609375,-29.78515625,-150.390625,0.0
127.53515625,-43.45703125,61.03515625,-20.99609375,-32.2265625,-42.96875,0.0
127.5390625,-50.78125,32.71484375,-35.15625,-49.8046875,-18.06640625,0.0
127.54296875,-46.875,-20.01953125,-32.2265625,-49.8046875,-41.9921875,0.0
127.546875,-41.9921875,-29.296875,-28.3203125,-45.41015625,-21.484375,0.0
127.55078125,-36.62109375,18.5546875,-27.83203125,-45.8984375,63.96484375,0.0
127.5546875,-32.71484375,74.70703125,-30.2734375,-40.52734375,20.5078125,0.0
127.55859375,-33.203125,43.9453125,-34.1796875,-31.73828125,-50.78125,0.0
127.5625,-40.0390625,-32.2265625,-31.25,-46.38671875,-37.109375,0.0
127.56640625,-50.78125,28.80859375,-34.1796875,-52.24609375,-60.546875,0.0
127.5703125,-41.50390625,63.96484375,-36.1328125,-37.59765625,-174.31640625,0.0
127.57421875,-28.80859375,13.18359375,-34.1796875,-29.78515625,-170.8984375,0.0
127.578125,-23.4375,30.2734375,-25.390625,-25.390625,-5.37109375,0.0
127.58203125,-17.08984375,24.4140625,-25.390625,-21.97265625,13.18359375,0.0
127.5859375,-25.390625,-51.26953125,-33.69140625,-28.3203125,-64.94140625,0.0
127.58984375,-32.71484375,-25.390625,-36.1328125,-29.296875,-31.25,0.0
127.59375,-22.4609375,88.8671875,-30.76171875,-20.99609375,84.47265625,0.0
127.59765625,-14.16015625,103.02734375,-23.92578125,-9.765625,85.44921875,0.0
127.6015625,-9.765625,59.5703125,-21.97265625,-9.27734375,20.5078125,0.0
127.60546875,-22.4609375,-4.39453125,-20.99609375,-27.83203125,-1.46484375,0.0
127.609375,-33.203125,-22.4609375,-21.97265625,-40.52734375,22.94921875,0.0
127.61328125,-29.78515625,32.71484375,-29.78515625,-22.4609375,-27.34375,0.0
127.6171875,-28.80859375,38.57421875,-33.203125,-19.53125,-89.84375,0.0
127.62109375,-20.99609375,28.80859375,-30.2734375,-27.83203125,-45.41015625,0.0
127.625,-34.66796875,-4.39453125,-32.71484375,-38.0859375,-72.265625,0.0
127.62890625,-52.734375,-26.3671875,-31.25,-41.50390625,-124.0234375,0.0
127.6328125,-46.38671875,12.20703125,-29.296875,-34.66796875,-56.15234375,0.0
127.63671875,-39.55078125,12.6953125,-31.25,-40.52734375,-33.203125,0.0
127.640625,-37.109375,50.78125,-29.78515625,-52.24609375,-18.5546875,0.0
127.64453125,-42.48046875,19.04296875,-34.1796875,-58.59375,-64.94140625,0.0
127.6484375,-53.7109375,-22.4609375,-40.0390625,-56.640625,-59.08203125,0.0
127.65234375,-54.19921875,53.22265625,-30.76171875,-43.9453125,-11.71875,0.0
127.65625,-41.015625,73.73046875,-22.4609375,-37.109375,0.9765625,0.0
127.66015625,-46.38671875,17.578125,-29.296875,-44.921875,4.39453125,0.0
127.6640625,-50.29296875,-2.44140625,-34.1796875,-38.57421875,-103.515625,0.0
127.66796875,-42.96875,15.13671875,-37.109375,-40.52734375,-99.609375,0.0
127.671875,-44.921875,87.890625,-36.1328125,-43.45703125,-31.25,0.0
127.67578125,-43.45703125,110.3515625,-32.71484375,-26.85546875,-76.66015625,0.0
127.6796875,-28.80859375,2.9296875,-32.2265625,-26.3671875,-99.609375,0.0
127.68359375,-32.71484375,-71.77734375,-41.9921875,-39.0625,-78.125,0.0
127.6875,-32.2265625,-26.3671875,-41.50390625,-33.203125,-13.671875,0.0
127.69140625,-28.3203125,4.39453125,-30.76171875,-17.578125,-48.33984375,0.0
127.6953125,-24.90234375,50.78125,-28.80859375,-1.953125,-78.61328125,0.0
127.69921875,-12.6953125,86.42578125,-27.83203125,-10.7421875,26.85546875,0.0
127.703125,-19.53125,29.296875,-23.92578125,-19.04296875,139.6484375,0.0
127.70703125,-25.390625,-22.4609375,-25.390625,-16.11328125,115.72265625,0.0
127.7109375,-28.3203125,-21.484375,-35.15625,-18.5546875,69.82421875,0.0
127.71484375,-22.94921875,28.3203125,-27.83203125,-16.11328125,68.84765625,0.0
127.71875,-9.27734375,75.1953125,-19.04296875,-19.04296875,-57.6171875,0.0
127.72265625,-24.90234375,55.17578125,-27.83203125,-21.484375,-191.89453125,0.0
127.7265625,-39.0625,20.5078125,-34.66796875,-29.78515625,-134.27734375,0.0
127.73046875,-43.45703125,38.0859375,-26.85546875,-27.83203125,-12.6953125,0.0
127.734375,-38.0859375,26.85546875,-24.90234375,-15.625,-1.953125,0.0
127.73828125,-16.11328125,-54.19921875,-29.78515625,-20.5078125,-45.41015625,0.0
127.7421875,-24.4140625,-57.6171875,-33.69140625,-40.0390625,-66.89453125,0.0
127.74609375,-52.24609375,37.109375,-33.203125,-47.36328125,-106.4453125,0.0
127.75,-49.8046875,60.546875,-29.296875,-41.50390625,-53.7109375,0.0
127.75390625,-38.57421875,5.859375,-20.99609375,-31.73828125,25.390625,0.0
127.7578125,-42.48046875,19.53125,-18.5546875,-35.15625,-41.9921875,0.0
127.76171875,-44.43359375,80.078125,-22.94921875,-57.12890625,-43.9453125,0.0
127.765625,-53.7109375,74.70703125,-31.25,-72.265625,32.71484375,0.0
127.76953125,-63.96484375,83.984375,-34.1796875,-58.59375,7.8125,0.0
127.7734375,-49.8046875,46.875,-29.78515625,-53.22265625,-30.76171875,0.0
127.77734375,-32.71484375,-22.94921875,-22.4609375,-48.33984375,46.38671875,0.0
127.78125,-41.9921875,12.20703125,-27.83203125,-37.109375,87.40234375,0.0
127.78515625,-46.875,27.34375,-33.69140625,-45.41015625,42.48046875,0.0
127.7890625,-48.828125,-13.18359375,-31.73828125,-45.41015625,-40.0390625,0.0
127.79296875,-50.78125,-5.37109375,-31.73828125,-40.0390625,-37.109375,0.0
127.796875,-39.55078125,39.55078125,-30.2734375,-34.66796875,0.48828125,0.0
127.80078125,-34.1796875,58.10546875,-31.73828125,-32.71484375,-74.21875,0.0
127.8046875,-41.015625,73.2421875,-35.15625,-44.921875,-35.15625,0.0
127.80859375,-45.41015625,22.4609375,-34.1796875,-50.78125,-53.7109375,0.0
127.8125,-45.8984375,35.64453125,-23.92578125,-33.203125,-71.77734375,0.0
127.81640625,-38.57421875,68.359375,-23.4375,-21.484375,-99.609375,0.0
127.8203125,-24.4140625,7.8125,-31.25,-23.92578125,-82.51953125,0.0
127.82421875,-31.73828125,-61.5234375,-34.66796875,-44.43359375,13.671875,0.0
127.828125,-49.8046875,-8.7890625,-36.1328125,-41.9921875,-9.765625,0.0
127.83203125,-51.26953125,78.61328125,-33.203125,-24.90234375,-34.1796875,0.0
127.8359375,-29.296875,68.84765625,-26.3671875,-15.13671875,11.23046875,0.0
127.83984375,-15.13671875,-4.39453125,-25.87890625,-17.578125,56.640625,0.0
127.84375,-22.94921875,-23.92578125,-32.71484375,-26.85546875,49.31640625,0.0
127.84765625,-39.55078125,25.87890625,-33.203125,-30.2734375,11.23046875,0.0
127.8515625,-51.26953125,18.5546875,-25.87890625,-40.0390625,-37.59765625,0.0
127.85546875,-39.55078125,33.203125,-23.92578125,-37.109375,-59.5703125,0.0
127.859375,-39.55078125,36.62109375,-34.1796875,-37.59765625,-31.73828125,0.0
127.86328125,-40.52734375,-19.53125,-37.59765625,-43.45703125,-22.4609375,0.0
127.8671875,-33.69140625,-24.4140625,-33.69140625,-36.62109375,-43.45703125,0.0
127.87109375,-38.57421875,13.18359375,-34.1796875,-32.2265625,-27.83203125,0.0
127.875,-33.203125,29.296875,-31.25,-30.2734375,-56.15234375,0.0
127.87890625,-24.90234375,1.46484375,-28.3203125,-33.69140625,-184.08203125,0.0
127.8828125,-28.80859375,19.04296875,-32.2265625,-49.31640625,-250.9765625,0.0
127.88671875,-36.62109375,70.80078125,-36.62109375,-45.8984375,-228.515625,0.0
127.890625,-35.64453125,29.296875,-29.78515625,-20.99609375,-200.68359375,0.0
127.89453125,-23.4375,-60.546875,-20.5078125,-19.53125,-175.29296875,0.0
127.8984375,-14.6484375,-37.59765625,-23.92578125,-24.90234375,-129.39453125,0.0
127.90234375,-26.3671875,30.2734375,-31.73828125,-39.0625,-78.125,0.0
127.90625,-40.52734375,-2.44140625,-32.71484375,-48.828125,43.9453125,0.0
127.91015625,-47.36328125,0.48828125,-39.55078125,-41.015625,58.59375,0.0
127.9140625,-43.45703125,76.171875,-49.31640625,-37.109375,-3.41796875,0.0
127.91796875,-24.4140625,83.984375,-45.41015625,-45.41015625,65.91796875,0.0
127.921875,-17.08984375,27.34375,-39.0625,-35.64453125,99.609375,0.0
127.92578125,-18.06640625,-16.6015625,-33.69140625,-22.94921875,80.078125,0.0
127.9296875,-19.53125,-11.71875,-39.0625,-27.34375,106.4453125,0.0
127.93359375,-19.53125,-0.9765625,-36.1328125,-24.90234375,65.4296875,0.0
127.9375,-15.13671875,-7.32421875,-34.66796875,-27.34375,20.99609375,0.0
127.94140625,-25.87890625,-34.66796875,-50.78125,-54.19921875,-33.203125,0.0
127.9453125,-43.9453125,11.23046875,-44.921875,-54.19921875,-31.25,0.0
127.94921875,-52.24609375,61.5234375,-34.1796875,-39.0625,-41.9921875,0.0
127.953125,-49.8046875,42.96875,-34.66796875,-29.296875,-123.53515625,0.0
127.95703125,-31.25,35.64453125,-30.76171875,-25.390625,-91.796875,0.0
127.9609375,-18.06640625,37.59765625,-30.76171875,-37.59765625,-21.484375,0.0
127.96484375,-33.203125,41.9921875,-32.71484375,-43.45703125,-20.99609375,0.0
127.96875,-59.08203125,15.625,-36.1328125,-45.41015625,-24.90234375,0.0
127.97265625,-51.7578125,-15.13671875,-32.71484375,-35.64453125,-18.5546875,0.0
127.9765625,-40.52734375,-10.25390625,-29.296875,-33.69140625,6.8359375,0.0
127.98046875,-41.50390625,8.7890625,-30.2734375,-41.50390625,59.08203125,0.0
127.984375,-48.828125,17.08984375,-33.203125,-45.8984375,114.2578125,0.0
127.98828125,-52.734375,-49.31640625,-32.2265625,-42.48046875,90.33203125,0.0
127.9921875,-39.0625,-58.10546875,-31.25,-28.80859375,19.53125,0.0
127.99609375,-27.83203125,23.4375,-29.78515625,-27.83203125,-41.50390625,0.0
128.0,-32.71484375,62.98828125,-35.15625,-34.66796875,-32.2265625,0.0
128.00390625,-46.875,3.41796875,-51.26953125,-43.45703125,-3.90625,0.0
128.0078125,-42.96875,-58.59375,-42.96875,-35.64453125,-70.80078125,0.0
128.01171875,-21.97265625,10.25390625,-26.3671875,-15.13671875,-129.39453125,0.0
128.015625,-15.13671875,52.24609375,-28.80859375,-6.34765625,-59.08203125,0.0
128.01953125,-11.71875,47.8515625,-34.66796875,-13.18359375,-41.50390625,0.0
128.0234375,-9.27734375,1.953125,-30.76171875,-23.92578125,-3.41796875,0.0
128.02734375,-23.92578125,-43.45703125,-31.73828125,-27.34375,9.27734375,0.0
128.03125,-38.0859375,-48.33984375,-34.1796875,-23.92578125,-22.4609375,0.0
128.03515625,-25.390625,21.484375,-28.80859375,-14.16015625,-83.0078125,0.0
128.0390625,-14.16015625,81.0546875,-24.4140625,-20.01953125,-45.41015625,0.0
128.04296875,-24.90234375,40.52734375,-24.90234375,-34.1796875,25.87890625,0.0
128.046875,-50.29296875,-4.39453125,-38.0859375,-58.10546875,91.796875,0.0
128.05078125,-53.22265625,-1.953125,-44.43359375,-58.59375,98.6328125,0.0
128.0546875,-34.1796875,-25.87890625,-33.203125,-34.1796875,-6.34765625,0.0
128.05859375,-27.83203125,-69.3359375,-30.2734375,-38.0859375,-34.66796875,0.0
128.0625,-35.64453125,-16.6015625,-37.109375,-47.8515625,27.83203125,0.0
128.06640625,-43.45703125,37.59765625,-37.109375,-50.29296875,17.578125,0.0
128.0703125,-33.203125,53.22265625,-36.62109375,-37.109375,-2.44140625,0.0
128.07421875,-27.34375,31.73828125,-36.62109375,-30.2734375,-1.46484375,0.0
128.078125,-28.80859375,-14.16015625,-31.73828125,-35.64453125,-7.8125,0.0
128.08203125,-33.69140625,-34.66796875,-33.69140625,-42.48046875,9.765625,0.0
128.0859375,-38.0859375,-49.8046875,-35.15625,-43.9453125,55.17578125,0.0
128.08984375,-48.33984375,-44.921875,-42.96875,-45.8984375,61.03515625,0.0
128.09375,-64.453125,-6.34765625,-53.22265625,-56.15234375,-83.0078125,0.0
128.09765625,-45.41015625,2.44140625,-41.015625,-40.0390625,-130.37109375,0.0
128.1015625,-35.64453125,-5.37109375,-38.57421875,-39.55078125,-7.32421875,0.0
128.10546875,-54.19921875,-7.32421875,-48.33984375,-72.75390625,19.53125,0.0
128.109375,-53.7109375,-19.53125,-38.0859375,-62.5,1.953125,0.0
128.11328125,-36.62109375,16.11328125,-27.34375,-20.5078125,-27.34375,0.0
128.1171875,-27.83203125,-32.71484375,-38.57421875,-25.87890625,-108.3984375,0.0
128.12109375,-20.5078125,-125.0,-41.015625,-32.71484375,-76.66015625,0.0
128.125,-33.69140625,-36.1328125,-41.50390625,-36.1328125,-14.6484375,0.0
128.12890625,-46.875,42.48046875,-42.96875,-37.59765625,-45.8984375,0.0
128.1328125,-35.15625,2.44140625,-39.0625,-21.97265625,-8.7890625,0.0
128.13671875,-31.73828125,-10.25390625,-45.8984375,-19.04296875,47.8515625,0.0
128.140625,-24.4140625,56.640625,-42.96875,-24.4140625,34.1796875,0.0
128.14453125,-18.06640625,63.96484375,-32.2265625,-23.92578125,-64.94140625,0.0
128.1484375,-31.25,31.25,-32.71484375,-30.2734375,-135.25390625,0.0
128.15234375,-21.97265625,-19.53125,-41.015625,-25.87890625,-178.7109375,0.0
128.15625,-13.671875,-66.40625,-41.015625,-20.5078125,-220.703125,0.0
128.16015625,-18.5546875,-41.015625,-33.69140625,-29.296875,-170.8984375,0.0
128.1640625,-31.25,-34.1796875,-35.64453125,-49.31640625,-153.3203125,0.0
128.16796875,-42.48046875,-20.5078125,-42.48046875,-39.0625,-147.4609375,0.0
128.171875,-35.15625,-30.2734375,-36.62109375,-17.08984375,-66.89453125,0.0
128.17578125,-24.4140625,1.46484375,-24.90234375,-15.13671875,50.29296875,0.0
128.1796875,-32.2265625,54.19921875,-29.78515625,-29.296875,128.41796875,0.0
128.18359375,-36.62109375,33.69140625,-33.203125,-41.50390625,147.94921875,0.0
128.1875,-29.296875,10.25390625,-30.76171875,-37.109375,103.515625,0.0
128.19140625,-38.0859375,6.8359375,-29.296875,-33.69140625,34.1796875,0.0
128.1953125,-28.80859375,-11.71875,-31.25,-27.83203125,31.25,0.0
128.19921875,-25.87890625,-33.69140625,-37.59765625,-23.92578125,24.90234375,0.0
128.203125,-30.2734375,-26.3671875,-35.64453125,-27.83203125,-33.69140625,0.0
128.20703125,-24.90234375,-12.6953125,-33.69140625,-30.2734375,-25.87890625,0.0
128.2109375,-32.2265625,-13.671875,-23.4375,-22.94921875,35.15625,0.0
128.21484375,-31.73828125,-7.8125,-24.90234375,-21.97265625,69.3359375,0.0
128.21875,-15.13671875,-13.18359375,-26.3671875,-30.2734375,33.69140625,0.0
128.22265625,-14.6484375,-36.1328125,-22.4609375,-43.9453125,-24.90234375,0.0
128.2265625,-23.92578125,22.4609375,-26.3671875,-39.0625,-50.78125,0.0
128.23046875,-18.06640625,62.5,-26.3671875,-17.08984375,-67.3828125,0.0
128.234375,-16.6015625,21.484375,-28.80859375,-16.6015625,-70.80078125,0.0
128.23828125,-20.99609375,16.6015625,-34.66796875,-22.94921875,-129.8828125,0.0
128.2421875,-21.484375,35.64453125,-37.59765625,-31.25,-48.33984375,0.0
128.24609375,-20.5078125,3.90625,-34.1796875,-28.3203125,26.85546875,0.0
128.25,-23.4375,-47.36328125,-34.1796875,-12.20703125,-47.8515625,0.0
128.25390625,-13.18359375,-36.1328125,-38.0859375,-14.6484375,-71.2890625,0.0
128.2578125,-12.6953125,32.2265625,-37.59765625,-23.4375,-13.18359375,0.0
128.26171875,-19.53125,71.2890625,-34.66796875,-24.4140625,-62.5,0.0
128.265625,-20.01953125,47.36328125,-35.15625,-29.296875,-106.4453125,0.0
128.26953125,-38.57421875,19.04296875,-44.43359375,-37.109375,-105.46875,0.0
128.2734375,-29.78515625,-55.17578125,-41.015625,-24.4140625,-119.140625,0.0
128.27734375,-14.16015625,-39.0625,-33.69140625,-16.11328125,-115.234375,0.0
128.28125,-24.4140625,36.62109375,-34.1796875,-23.92578125,-104.4921875,0.0
128.28515625,-31.73828125,36.1328125,-38.0859375,-35.64453125,-46.38671875,0.0
128.2890625,-41.50390625,22.4609375,-36.1328125,-40.0390625,42.48046875,0.0
128.29296875,-29.78515625,0.9765625,-27.34375,-2.9296875,53.22265625,0.0
128.296875,-22.4609375,-49.31640625,-25.87890625,0.48828125,-30.76171875,0.0
128.30078125,-19.04296875,-2.44140625,-29.296875,-15.13671875,-46.875,0.0
128.3046875,-21.97265625,45.41015625,-30.2734375,-13.671875,10.25390625,0.0
128.30859375,-36.62109375,25.390625,-33.69140625,-20.99609375,-17.08984375,0.0
128.3125,-34.1796875,-3.41796875,-26.3671875,-11.23046875,-72.265625,0.0
128.31640625,-21.484375,13.18359375,-20.01953125,-8.7890625,-77.1484375,0.0
128.3203125,-24.4140625,-3.90625,-32.2265625,-16.6015625,-121.58203125,0.0
128.32421875,-30.76171875,-5.859375,-38.57421875,-24.90234375,-64.453125,0.0
128.328125,-32.2265625,36.1328125,-33.203125,-25.87890625,87.890625,0.0
128.33203125,-39.55078125,-47.8515625,-28.80859375,-17.578125,32.2265625,0.0
128.3359375,-28.3203125,-82.03125,-33.69140625,-19.53125,-114.74609375,0.0
128.33984375,-11.23046875,5.37109375,-30.76171875,-13.18359375,-128.41796875,0.0
128.34375,-10.7421875,35.15625,-28.3203125,-20.01953125,-50.78125,0.0
128.34765625,-19.04296875,12.20703125,-39.0625,-29.296875,-114.74609375,0.0
128.3515625,-14.6484375,-29.78515625,-38.0859375,-17.578125,-274.90234375,0.0
128.35546875,-10.7421875,-33.69140625,-29.296875,-6.34765625,-265.13671875,0.0
128.359375,-12.6953125,-90.33203125,-36.1328125,-21.484375,-127.44140625,0.0
128.36328125,-14.6484375,-38.57421875,-38.57421875,-24.4140625,-118.65234375,0.0
128.3671875,-19.53125,60.05859375,-34.66796875,-19.04296875,-78.125,0.0
128.37109375,-14.6484375,46.38671875,-30.76171875,-13.671875,40.0390625,0.0
128.375,-15.625,-12.6953125,-30.2734375,-21.97265625,34.66796875,0.0
128.37890625,-23.92578125,-55.6640625,-29.78515625,-31.25,49.31640625,0.0
128.3828125,-25.87890625,1.953125,-34.1796875,-40.0390625,41.50390625,0.0
128.38671875,-27.34375,34.1796875,-39.0625,-41.015625,-46.875,0.0
128.390625,-20.01953125,-9.765625,-29.78515625,-23.92578125,-22.94921875,0.0
128.39453125,-19.04296875,-56.640625,-26.85546875,-18.5546875,-20.5078125,0.0
128.3984375,-6.8359375,-47.36328125,-31.73828125,-14.16015625,-45.41015625,0.0
128.40234375,-13.18359375,-40.52734375,-29.78515625,-27.34375,-17.578125,0.0
128.40625,-39.0625,-44.921875,-32.71484375,-40.52734375,51.7578125,0.0
128.41015625,-39.0625,-41.50390625,-38.0859375,-24.90234375,99.609375,0.0
128.4140625,-27.83203125,-40.52734375,-34.66796875,-15.13671875,43.9453125,0.0
128.41796875,-17.08984375,-29.78515625,-29.78515625,-17.08984375,6.8359375,0.0
128.421875,-22.4609375,-29.296875,-28.80859375,-27.34375,-32.71484375,0.0
128.42578125,-33.203125,-60.546875,-20.5078125,-20.5078125,-88.37890625,0.0
128.4296875,-35.64453125,-61.5234375,-24.90234375,-11.71875,-55.17578125,0.0
128.43359375,-22.4609375,-52.734375,-28.80859375,-13.18359375,13.671875,0.0
128.4375,-13.671875,-38.57421875,-22.4609375,-12.6953125,-41.015625,0.0
128.44140625,-4.8828125,-41.015625,-20.5078125,-6.8359375,-125.0,0.0
128.4453125,-12.20703125,-8.7890625,-24.90234375,-15.625,-97.16796875,0.0
128.44921875,-19.53125,-5.859375,-31.25,-9.27734375,-30.2734375,0.0
128.453125,-17.08984375,-41.50390625,-31.25,-0.48828125,42.48046875,0.0
128.45703125,-9.765625,-80.56640625,-26.85546875,-9.765625,28.3203125,0.0
128.4609375,-8.30078125,-36.1328125,-19.04296875,-23.4375,-8.30078125,0.0
128.46484375,-16.11328125,10.7421875,-23.92578125,-26.85546875,13.18359375,0.0
128.46875,-17.08984375,-3.90625,-31.73828125,-11.71875,34.66796875,0.0
128.47265625,-14.6484375,-1.46484375,-31.25,-5.37109375,3.41796875,0.0
128.4765625,-7.32421875,-36.1328125,-31.25,-7.32421875,-53.22265625,0.0
128.48046875,-15.13671875,-19.53125,-38.57421875,-25.87890625,-23.4375,0.0
128.484375,-41.9921875,11.71875,-40.0390625,-38.0859375,60.05859375,0.0
128.48828125,-44.43359375,-4.8828125,-34.1796875,-29.296875,29.78515625,0.0
128.4921875,-33.69140625,-8.7890625,-28.80859375,-30.2734375,-41.50390625,0.0
128.49609375,-28.3203125,-49.8046875,-27.34375,-30.2734375,14.6484375,0.0
128.5,-41.015625,-48.828125,-34.1796875,-42.96875,25.87890625,0.0
128.50390625,-48.828125,32.2265625,-34.1796875,-54.6875,-10.25390625,0.0
128.5078125,-50.78125,66.40625,-30.76171875,-49.8046875,-2.44140625,0.0
128.51171875,-56.640625,27.83203125,-23.92578125,-53.7109375,-100.09765625,0.0
128.515625,-53.22265625,-13.671875,-18.06640625,-47.36328125,-67.87109375,0.0
128.51953125,-56.15234375,-19.04296875,-25.87890625,-48.828125,41.015625,0.0
128.5234375,-65.4296875,-57.12890625,-34.1796875,-67.87109375,17.578125,0.0
128.52734375,-70.80078125,-99.12109375,-29.296875,-74.21875,52.24609375,0.0
128.53125,-74.70703125,-71.2890625,-31.25,-59.08203125,40.52734375,0.0
128.53515625,-69.82421875,3.41796875,-29.296875,-52.24609375,-16.11328125,0.0
128.5390625,-56.15234375,44.921875,-25.390625,-50.29296875,59.5703125,0.0
128.54296875,-65.91796875,33.203125,-31.73828125,-63.96484375,-7.32421875,0.0
128.546875,-74.70703125,-34.1796875,-23.4375,-72.75390625,-24.4140625,0.0
128.55078125,-66.40625,-64.453125,-18.06640625,-62.01171875,-49.31640625,0.0
128.5546875,-59.08203125,9.765625,-20.01953125,-47.8515625,-146.97265625,0.0
128.55859375,-50.78125,23.92578125,-19.53125,-49.8046875,-99.609375,0.0
128.5625,-45.41015625,-13.671875,-23.92578125,-52.734375,-84.47265625,0.0
128.56640625,-59.08203125,-7.8125,-29.296875,-56.15234375,-88.37890625,0.0
128.5703125,-68.84765625,-20.01953125,-29.296875,-60.05859375,-76.171875,0.0
128.57421875,-51.26953125,-25.390625,-23.4375,-45.41015625,-25.390625,0.0
128.578125,-45.41015625,-26.85546875,-31.25,-45.41015625,52.24609375,0.0
128.58203125,-47.8515625,-33.203125,-28.80859375,-50.29296875,64.453125,0.0
128.5859375,-55.6640625,0.0,-26.3671875,-63.96484375,79.58984375,0.0
128.58984375,-57.12890625,1.953125,-34.1796875,-59.5703125,-22.94921875,0.0
128.59375,-43.9453125,-39.55078125,-34.66796875,-32.71484375,-80.078125,0.0
128.59765625,-35.64453125,-47.8515625,-40.0390625,-41.015625,-52.734375,0.0
128.6015625,-25.87890625,-17.578125,-49.31640625,-43.9453125,6.8359375,0.0
128.60546875,-22.94921875,-1.953125,-48.33984375,-41.50390625,83.49609375,0.0
128.609375,-30.76171875,5.37109375,-38.0859375,-36.62109375,83.49609375,0.0
128.61328125,-34.66796875,3.90625,-41.015625,-21.484375,27.83203125,0.0
128.6171875,-34.1796875,-2.44140625,-44.43359375,-21.484375,49.8046875,0.0
128.62109375,-29.296875,-34.1796875,-39.55078125,-24.90234375,-9.27734375,0.0
128.625,-27.34375,-43.9453125,-41.015625,-28.3203125,-20.01953125,0.0
128.62890625,-37.59765625,-3.90625,-41.9921875,-25.87890625,-13.18359375,0.0
128.6328125,-27.83203125,-16.6015625,-42.48046875,-12.6953125,-99.12109375,0.0
128.63671875,-9.27734375,-24.4140625,-40.52734375,-9.765625,-43.45703125,0.0
128.640625,-8.7890625,30.2734375,-41.50390625,-24.4140625,-25.87890625,0.0
128.64453125,-8.7890625,26.3671875,-44.921875,-37.109375,-41.015625,0.0
128.6484375,-20.01953125,-20.01953125,-41.50390625,-24.4140625,-53.22265625,0.0
128.65234375,-26.3671875,-41.9921875,-41.50390625,-2.44140625,-75.68359375,0.0
128.65625,-8.7890625,-49.8046875,-41.50390625,0.48828125,-84.9609375,0.0
128.66015625,0.48828125,-42.96875,-41.50390625,-9.27734375,-23.4375,0.0
128.6640625,-14.16015625,-13.671875,-48.828125,-32.71484375,-74.21875,0.0
128.66796875,-21.484375,36.1328125,-43.45703125,-28.3203125,-100.09765625,0.0
128.671875,-23.92578125,37.59765625,-36.62109375,-17.578125,15.625,0.0
128.67578125,-21.97265625,6.34765625,-37.109375,-20.5078125,-35.64453125,0.0
128.6796875,-8.7890625,-19.53125,-41.9921875,-20.01953125,-74.70703125,0.0
128.68359375,-16.11328125,-72.75390625,-49.8046875,-27.83203125,-27.83203125,0.0
128.6875,-36.1328125,-43.9453125,-50.29296875,-30.76171875,37.59765625,0.0
128.69140625,-33.69140625,-33.69140625,-46.38671875,-23.4375,14.6484375,0.0
128.6953125,-20.01953125,-1.953125,-41.9921875,-17.578125,-59.5703125,0.0
128.69921875,-18.5546875,54.6875,-39.0625,-30.2734375,-62.5,0.0
128.703125,-23.92578125,22.4609375,-38.0859375,-36.1328125,-7.8125,0.0
128.70703125,-31.25,-20.99609375,-33.69140625,-48.33984375,-42.48046875,0.0
128.7109375,-35.15625,-28.80859375,-35.15625,-45.41015625,-187.98828125,0.0
128.71484375,-45.8984375,-29.296875,-38.0859375,-40.0390625,-160.64453125,0.0
128.71875,-37.109375,-17.578125,-34.1796875,-42.96875,-73.2421875,0.0
128.72265625,-30.2734375,13.671875,-34.1796875,-43.45703125,-13.18359375,0.0
128.7265625,-46.38671875,27.83203125,-36.1328125,-46.875,-15.13671875,0.0
128.73046875,-41.50390625,-10.7421875,-33.69140625,-23.4375,-94.23828125,0.0
128.734375,-33.203125,-33.203125,-34.1796875,-20.01953125,-104.4921875,0.0
128.73828125,-28.80859375,-19.53125,-34.66796875,-27.83203125,-56.15234375,0.0
128.7421875,-18.06640625,-27.83203125,-32.2265625,-28.80859375,-53.22265625,0.0
128.74609375,-22.94921875,-26.3671875,-33.203125,-31.25,-72.75390625,0.0
128.75,-38.57421875,2.44140625,-34.1796875,-22.4609375,-43.45703125,0.0
128.75390625,-30.2734375,-15.625,-24.4140625,-12.20703125,4.39453125,0.0
128.7578125,-24.4140625,-91.30859375,-22.94921875,-22.4609375,55.17578125,0.0
128.76171875,-22.94921875,-56.640625,-28.3203125,-29.78515625,16.6015625,0.0
128.765625,-24.90234375,22.94921875,-36.1328125,-35.15625,-34.1796875,0.0
128.76953125,-30.76171875,13.18359375,-37.109375,-29.78515625,11.71875,0.0
128.7734375,-16.11328125,4.8828125,-31.73828125,-5.37109375,-11.23046875,0.0
128.77734375,-3.41796875,13.671875,-33.69140625,4.8828125,-63.96484375,0.0
128.78125,-5.859375,-4.8828125,-41.50390625,-9.765625,-16.11328125,0.0
128.78515625,-15.13671875,-81.54296875,-38.57421875,-21.97265625,2.9296875,0.0
128.7890625,-16.6015625,-70.80078125,-32.2265625,-17.08984375,-13.671875,0.0
128.79296875,-14.16015625,18.06640625,-28.80859375,-11.23046875,-79.1015625,0.0
128.796875,-10.25390625,7.8125,-35.15625,-13.18359375,-77.63671875,0.0
128.80078125,-4.39453125,-24.4140625,-39.0625,-22.4609375,24.4140625,0.0
128.8046875,-6.34765625,-5.859375,-39.0625,-25.87890625,5.37109375,0.0
128.80859375,-8.30078125,22.94921875,-40.52734375,-20.5078125,-36.62109375,0.0
128.8125,-13.18359375,-36.1328125,-33.69140625,-14.6484375,-48.33984375,0.0
128.81640625,-12.20703125,-84.47265625,-33.69140625,-15.625,-146.97265625,0.0
128.8203125,-18.06640625,6.8359375,-38.0859375,-21.484375,-140.13671875,0.0
128.82421875,-35.15625,64.453125,-34.66796875,-24.4140625,-59.5703125,0.0
128.828125,-34.66796875,32.2265625,-29.78515625,-39.55078125,-46.38671875,0.0
128.83203125,-28.80859375,2.44140625,-31.73828125,-39.0625,-73.73046875,0.0
128.8359375,-24.4140625,-4.39453125,-33.203125,-25.390625,-88.8671875,0.0
128.83984375,-18.06640625,-60.546875,-35.64453125,-25.390625,-59.08203125,0.0
128.84375,-28.3203125,-79.58984375,-37.109375,-33.203125,-27.83203125,0.0
128.84765625,-29.296875,-5.859375,-37.59765625,-33.69140625,-38.57421875,0.0
128.8515625,-19.04296875,-4.8828125,-37.109375,-10.7421875,-30.76171875,0.0
128.85546875,-26.3671875,-49.31640625,-37.109375,-19.04296875,-15.13671875,0.0
128.859375,-25.390625,-28.80859375,-33.69140625,-30.2734375,45.41015625,0.0
128.86328125,-21.484375,12.20703125,-23.92578125,-27.83203125,87.890625,0.0
128.8671875,-30.2734375,2.44140625,-25.390625,-25.87890625,52.24609375,0.0
128.87109375,-41.50390625,-59.08203125,-39.55078125,-28.80859375,-2.44140625,0.0
128.875,-26.85546875,-38.0859375,-39.55078125,-18.06640625,-83.0078125,0.0
128.87890625,-14.6484375,-12.20703125,-32.71484375,-15.625,-88.8671875,0.0
128.8828125,-24.90234375,-40.0390625,-30.2734375,-28.3203125,-44.43359375,0.0
128.88671875,-39.55078125,-32.2265625,-33.203125,-35.64453125,-35.15625,0.0
128.890625,-31.73828125,-48.828125,-31.73828125,-27.34375,-46.38671875,0.0
128.89453125,-29.296875,-12.20703125,-28.3203125,-21.97265625,-51.26953125,0.0
128.8984375,-20.99609375,41.50390625,-20.99609375,-20.01953125,-20.99609375,0.0
128.90234375,-12.6953125,2.44140625,-20.5078125,-22.94921875,103.02734375,0.0
128.90625,-40.0390625,-48.828125,-43.45703125,-46.38671875,42.48046875,0.0
128.91015625,-42.96875,-36.1328125,-41.50390625,-39.0625,-130.859375,0.0
128.9140625,-36.1328125,-6.34765625,-26.85546875,-24.4140625,-178.22265625,0.0
128.91796875,-32.71484375,4.39453125,-35.64453125,-30.2734375,-154.296875,0.0
128.921875,-26.85546875,2.44140625,-42.48046875,-32.2265625,-87.890625,0.0
128.92578125,-33.69140625,-15.625,-37.109375,-39.0625,-45.8984375,0.0
128.9296875,-44.921875,-41.50390625,-29.78515625,-32.2265625,-80.56640625,0.0
128.93359375,-34.1796875,-9.765625,-27.83203125,-30.2734375,-31.25,0.0
128.9375,-22.94921875,9.27734375,-32.2265625,-39.55078125,4.8828125,0.0
128.94140625,-32.71484375,-42.96875,-37.109375,-33.69140625,-12.20703125,0.0
128.9453125,-44.43359375,-27.34375,-41.50390625,-38.57421875,1.953125,0.0
128.94921875,-52.24609375,0.9765625,-37.59765625,-38.57421875,16.11328125,0.0
128.953125,-44.921875,-17.08984375,-38.0859375,-35.64453125,-60.05859375,0.0
128.95703125,-26.85546875,-35.15625,-44.43359375,-27.83203125,-57.12890625,0.0
128.9609375,-21.97265625,-35.15625,-45.41015625,-26.85546875,-59.5703125,0.0
128.96484375,-27.83203125,-40.0390625,-42.48046875,-35.15625,-58.10546875,0.0
128.96875,-39.55078125,-3.41796875,-37.109375,-41.9921875,0.0,0.0
128.97265625,-37.59765625,-4.8828125,-35.15625,-32.71484375,-82.03125,0.0
128.9765625,-25.87890625,-8.7890625,-39.0625,-18.5546875,-87.890625,0.0
128.98046875,-19.53125,12.20703125,-39.0625,-25.390625,1.953125,0.0
128.984375,-18.06640625,-54.6875,-31.25,-27.83203125,-0.48828125,0.0
128.98828125,-30.76171875,-63.4765625,-34.66796875,-18.5546875,-89.84375,0.0
128.9921875,-41.50390625,14.16015625,-35.15625,-22.4609375,-149.90234375,0.0
128.99609375,-35.15625,28.80859375,-30.76171875,-24.90234375,-161.62109375,0.0
129.0,-23.4375,-34.66796875,-28.80859375,-20.01953125,-183.10546875,0.0
129.00390625,-24.4140625,-45.41015625,-29.296875,-28.3203125,-217.7734375,0.0
129.0078125,-28.3203125,-19.04296875,-36.62109375,-28.80859375,-217.7734375,0.0
129.01171875,-29.296875,-64.453125,-34.1796875,-22.4609375,-250.0,0.0
129.015625,-21.97265625,-49.8046875,-28.3203125,-15.625,-234.86328125,0.0
129.01953125,-25.87890625,13.671875,-33.203125,-36.62109375,-154.296875,0.0
129.0234375,-37.109375,17.08984375,-37.59765625,-43.9453125,-143.06640625,0.0
129.02734375,-45.41015625,4.39453125,-41.015625,-35.64453125,-105.95703125,0.0
129.03125,-44.43359375,-37.109375,-41.015625,-23.92578125,-97.16796875,0.0
129.03515625,-32.2265625,-79.58984375,-31.25,-22.94921875,-116.69921875,0.0
129.0390625,-16.11328125,-39.0625,-30.2734375,-26.3671875,-66.89453125,0.0
129.04296875,-18.5546875,9.27734375,-38.57421875,-27.34375,-40.52734375,0.0
129.046875,-37.59765625,-38.0859375,-39.55078125,-33.69140625,-105.95703125,0.0
129.05078125,-36.1328125,-69.3359375,-36.62109375,-30.76171875,-192.3828125,0.0
129.0546875,-25.390625,-8.30078125,-36.62109375,-22.94921875,-192.87109375,0.0
129.05859375,-25.390625,31.25,-40.0390625,-24.4140625,-61.5234375,0.0
129.0625,-37.109375,-4.39453125,-40.0390625,-40.0390625,-1.953125,0.0
129.06640625,-31.73828125,-48.33984375,-30.2734375,-34.1796875,-83.984375,0.0
129.0703125,-34.1796875,-33.203125,-26.3671875,-29.78515625,-53.7109375,0.0
129.07421875,-35.64453125,-40.0390625,-34.1796875,-25.87890625,-23.92578125,0.0
129.078125,-24.90234375,-9.27734375,-36.1328125,-32.2265625,0.48828125,0.0
129.08203125,-27.83203125,14.16015625,-27.34375,-45.41015625,36.1328125,0.0
129.0859375,-44.921875,-6.34765625,-34.1796875,-36.62109375,-14.16015625,0.0
129.08984375,-49.31640625,-26.3671875,-37.59765625,-36.1328125,-73.73046875,0.0
129.09375,-37.59765625,-39.0625,-33.203125,-25.87890625,-50.78125,0.0
129.09765625,-30.76171875,-20.01953125,-38.0859375,-24.4140625,-38.57421875,0.0
129.1015625,-35.15625,-17.578125,-31.73828125,-39.55078125,-34.66796875,0.0
129.10546875,-50.78125,-63.96484375,-32.2265625,-45.41015625,-24.4140625,0.0
129.109375,-50.78125,-49.8046875,-34.66796875,-44.921875,5.37109375,0.0
129.11328125,-36.1328125,-28.80859375,-22.4609375,-24.4140625,-48.828125,0.0
129.1171875,-18.5546875,-25.87890625,-17.08984375,-16.11328125,-60.546875,0.0
129.12109375,-22.4609375,-33.69140625,-26.3671875,-30.2734375,-77.1484375,0.0
129.125,-42.48046875,-45.41015625,-33.203125,-49.31640625,-137.20703125,0.0
129.12890625,-48.33984375,-47.8515625,-32.71484375,-47.8515625,-132.32421875,0.0
129.1328125,-42.48046875,-44.921875,-25.87890625,-30.76171875,-15.625,0.0
129.13671875,-34.66796875,-39.55078125,-22.94921875,-31.25,11.71875,0.0
129.140625,-34.66796875,-34.66796875,-29.296875,-29.78515625,26.3671875,0.0
129.14453125,-27.83203125,-63.96484375,-28.80859375,-32.71484375,67.3828125,0.0
129.1484375,-26.85546875,0.9765625,-25.87890625,-25.390625,32.71484375,0.0
129.15234375,-30.76171875,-13.671875,-22.94921875,-7.32421875,146.484375,0.0
129.15625,-28.3203125,-10.7421875,-33.203125,-20.5078125,102.05078125,0.0
129.16015625,-23.4375,-12.20703125,-36.62109375,-28.3203125,34.66796875,0.0
129.1640625,-28.3203125,-54.6875,-28.80859375,-36.1328125,13.671875,0.0
129.16796875,-33.69140625,-52.24609375,-30.2734375,-41.015625,6.34765625,0.0
129.171875,-37.109375,-27.34375,-34.1796875,-35.64453125,14.16015625,0.0
129.17578125,-31.25,-49.8046875,-39.0625,-32.2265625,30.2734375,0.0
129.1796875,-24.90234375,-56.640625,-38.57421875,-30.76171875,19.04296875,0.0
129.18359375,-34.1796875,-4.39453125,-35.15625,-41.9921875,38.57421875,0.0
129.1875,-39.0625,7.32421875,-34.1796875,-38.0859375,41.9921875,0.0
129.19140625,-32.2265625,-6.34765625,-26.85546875,-19.04296875,13.671875,0.0
129.1953125,-28.3203125,-35.64453125,-24.4140625,-13.18359375,104.00390625,0.0
129.19921875,-32.71484375,-101.07421875,-33.203125,-38.0859375,145.99609375,0.0
129.203125,-26.3671875,-47.36328125,-34.1796875,-43.45703125,74.70703125,0.0
129.20703125,-33.203125,11.23046875,-25.87890625,-33.69140625,-18.06640625,0.0
129.2109375,-38.0859375,30.76171875,-22.4609375,-30.76171875,-53.22265625,0.0
129.21484375,-29.78515625,36.1328125,-29.296875,-34.66796875,-93.26171875,0.0
129.21875,-24.90234375,-37.109375,-33.69140625,-35.15625,-89.35546875,0.0
129.22265625,-25.390625,-120.1171875,-31.25,-37.59765625,-41.9921875,0.0
129.2265625,-38.57421875,-111.328125,-36.1328125,-46.38671875,-41.50390625,0.0
129.23046875,-43.45703125,54.6875,-35.64453125,-27.83203125,31.25,0.0
129.234375,-25.390625,57.12890625,-29.78515625,-17.578125,31.25,0.0
129.23828125,-19.53125,-59.5703125,-32.2265625,-13.671875,-40.52734375,0.0
129.2421875,-35.64453125,-1.46484375,-34.66796875,-20.99609375,-41.9921875,0.0
129.24609375,-42.96875,-4.39453125,-41.015625,-37.59765625,-58.10546875,0.0
129.25,-34.66796875,-40.52734375,-35.15625,-27.83203125,-27.83203125,0.0
129.25390625,-34.1796875,-11.23046875,-35.64453125,-27.34375,-53.22265625,0.0
129.2578125,-20.5078125,1.953125,-39.0625,-30.2734375,-68.359375,0.0
129.26171875,-11.23046875,-32.2265625,-29.78515625,-25.87890625,-14.6484375,0.0
129.265625,-34.1796875,-40.0390625,-32.2265625,-28.3203125,20.99609375,0.0
129.26953125,-40.52734375,7.32421875,-35.64453125,-19.04296875,-16.11328125,0.0
129.2734375,-35.15625,27.83203125,-31.25,-13.18359375,-29.296875,0.0
129.27734375,-24.90234375,-20.01953125,-31.73828125,-20.01953125,42.96875,0.0
129.28125,-23.92578125,-75.68359375,-32.71484375,-28.3203125,-6.34765625,0.0
129.28515625,-41.9921875,-20.5078125,-30.2734375,-32.71484375,-14.16015625,0.0
129.2890625,-53.22265625,0.48828125,-30.76171875,-29.78515625,25.87890625,0.0
129.29296875,-41.50390625,3.41796875,-31.25,-20.5078125,11.71875,0.0
129.296875,-22.94921875,40.0390625,-29.78515625,-19.04296875,76.66015625,0.0
129.30078125,-31.25,-41.9921875,-37.59765625,-38.0859375,41.015625,0.0
129.3046875,-48.33984375,-47.8515625,-32.71484375,-50.29296875,-34.1796875,0.0
129.30859375,-44.43359375,38.57421875,-23.92578125,-30.2734375,-83.49609375,0.0
129.3125,-38.0859375,59.5703125,-29.296875,-28.80859375,-129.39453125,0.0
129.31640625,-36.1328125,51.26953125,-32.2265625,-35.64453125,-26.85546875,0.0
129.3203125,-20.99609375,6.34765625,-22.94921875,-35.64453125,1.953125,0.0
129.32421875,-28.3203125,-28.3203125,-19.53125,-34.1796875,-66.40625,0.0
129.328125,-50.29296875,-10.25390625,-28.3203125,-37.59765625,-42.48046875,0.0
129.33203125,-48.33984375,-11.71875,-21.97265625,-34.1796875,-98.14453125,0.0
129.3359375,-31.73828125,8.7890625,-20.01953125,-23.4375,-97.16796875,0.0
129.33984375,-24.90234375,41.9921875,-30.76171875,-37.59765625,-14.6484375,0.0
129.34375,-32.71484375,-40.0390625,-34.1796875,-48.33984375,-68.359375,0.0
129.34765625,-46.875,-49.31640625,-28.3203125,-32.2265625,-61.03515625,0.0
129.3515625,-43.45703125,42.48046875,-22.4609375,-18.06640625,-25.390625,0.0
129.35546875,-34.66796875,0.48828125,-26.85546875,-22.4609375,-44.921875,0.0
129.359375,-43.45703125,-34.1796875,-39.0625,-34.66796875,-17.578125,0.0
129.36328125,-38.0859375,44.43359375,-36.62109375,-44.43359375,-18.5546875,0.0
129.3671875,-26.85546875,-85.9375,-25.87890625,-32.2265625,0.9765625,0.0
129.37109375,-37.109375,-97.16796875,-25.87890625,-24.4140625,-29.78515625,0.0
129.375,-20.01953125,45.41015625,-22.4609375,-7.8125,-54.6875,0.0
129.37890625,-7.32421875,31.25,-14.6484375,-0.9765625,-37.59765625,0.0
129.3828125,-21.97265625,17.578125,-30.2734375,-10.7421875,-51.26953125,0.0
129.38671875,-20.99609375,-37.109375,-39.0625,-8.30078125,-30.2734375,0.0
129.390625,-17.578125,-144.53125,-32.2265625,-6.8359375,-26.85546875,0.0
129.39453125,-14.16015625,-106.93359375,-33.203125,-3.90625,-10.25390625,0.0
129.3984375,-5.859375,68.359375,-29.78515625,-2.9296875,23.4375,0.0
129.40234375,-7.32421875,115.234375,-30.76171875,-15.13671875,-6.34765625,0.0
129.40625,-27.34375,58.59375,-32.2265625,-25.390625,-77.63671875,0.0
129.41015625,-32.71484375,9.27734375,-29.78515625,-20.5078125,-114.74609375,0.0
129.4140625,-27.34375,-102.05078125,-35.64453125,-22.94921875,-74.21875,0.0
129.41796875,-32.2265625,-95.21484375,-36.62109375,-33.69140625,-54.19921875,0.0
129.421875,-29.296875,20.01953125,-31.73828125,-41.015625,-59.08203125,0.0
129.42578125,-33.203125,30.76171875,-36.62109375,-39.55078125,24.4140625,0.0
129.4296875,-41.015625,24.4140625,-42.48046875,-34.66796875,13.671875,0.0
129.43359375,-34.66796875,31.25,-36.62109375,-35.64453125,-61.5234375,0.0
129.4375,-24.90234375,-31.73828125,-32.2265625,-41.50390625,10.7421875,0.0
129.44140625,-19.53125,-74.21875,-32.71484375,-46.38671875,37.109375,0.0
129.4453125,-19.04296875,-24.90234375,-26.3671875,-35.15625,-65.4296875,0.0
129.44921875,-39.55078125,-8.30078125,-23.92578125,-40.0390625,-90.33203125,0.0
129.453125,-44.43359375,-85.44921875,-25.87890625,-35.64453125,-31.73828125,0.0
129.45703125,-38.0859375,-13.18359375,-28.80859375,-50.29296875,-60.05859375,0.0
129.4609375,-40.0390625,77.63671875,-26.85546875,-52.24609375,-39.0625,0.0
129.46484375,-44.43359375,45.8984375,-26.3671875,-38.57421875,-49.8046875,0.0
129.46875,-57.6171875,-31.73828125,-31.25,-47.8515625,-41.015625,0.0
129.47265625,-54.19921875,-100.09765625,-33.69140625,-41.9921875,19.04296875,0.0
129.4765625,-46.875,-107.91015625,-35.64453125,-39.55078125,1.46484375,0.0
129.48046875,-42.48046875,-37.59765625,-32.71484375,-49.31640625,-27.34375,0.0
129.484375,-46.38671875,41.50390625,-27.83203125,-49.31640625,1.46484375,0.0
129.48828125,-59.08203125,94.23828125,-28.80859375,-51.26953125,-16.11328125,0.0
129.4921875,-47.8515625,93.26171875,-31.25,-39.0625,-104.00390625,0.0
129.49609375,-27.34375,21.97265625,-20.99609375,-24.4140625,-104.00390625,0.0
129.5,-31.25,-20.99609375,-22.4609375,-37.59765625,-113.76953125,0.0
129.50390625,-47.8515625,-44.43359375,-38.0859375,-50.29296875,-70.3125,0.0
129.5078125,-45.8984375,-41.9921875,-26.3671875,-45.41015625,-17.08984375,0.0
129.51171875,-32.71484375,-23.92578125,-19.53125,-27.83203125,-23.92578125,0.0
129.515625,-25.390625,3.41796875,-20.99609375,-28.80859375,0.48828125,0.0
129.51953125,-27.34375,27.83203125,-26.85546875,-36.1328125,-74.70703125,0.0
129.5234375,-38.0859375,20.5078125,-32.2265625,-49.8046875,-109.375,0.0
129.52734375,-57.6171875,2.9296875,-32.71484375,-60.05859375,-76.66015625,0.0
129.53125,-49.8046875,-24.4140625,-43.9453125,-55.6640625,-27.83203125,0.0
129.53515625,-29.78515625,-9.765625,-40.52734375,-58.59375,-7.8125,0.0
129.5390625,-30.2734375,2.9296875,-35.15625,-61.03515625,20.01953125,0.0
129.54296875,-41.015625,7.8125,-39.55078125,-60.05859375,36.1328125,0.0
129.546875,-42.48046875,6.8359375,-36.62109375,-67.3828125,90.33203125,0.0
129.55078125,-43.45703125,-23.92578125,-38.0859375,-55.6640625,83.984375,0.0
129.5546875,-40.0390625,-26.85546875,-39.0625,-37.109375,-4.39453125,0.0
129.55859375,-35.64453125,-76.66015625,-39.0625,-45.41015625,-13.671875,0.0
129.5625,-46.38671875,-132.32421875,-34.1796875,-59.5703125,-21.97265625,0.0
129.56640625,-57.6171875,-6.8359375,-26.85546875,-58.59375,51.26953125,0.0
129.5703125,-54.19921875,-8.7890625,-28.3203125,-51.7578125,29.78515625,0.0
129.57421875,-48.828125,-20.99609375,-33.203125,-48.828125,-34.66796875,0.0
129.578125,-51.7578125,-21.484375,-37.59765625,-56.15234375,5.859375,0.0
129.58203125,-46.38671875,-20.01953125,-36.62109375,-57.6171875,-2.9296875,0.0
129.5859375,-48.828125,-17.08984375,-29.78515625,-60.05859375,-72.265625,0.0
129.58984375,-48.828125,-7.8125,-21.97265625,-51.7578125,-8.30078125,0.0
129.59375,-48.828125,-8.30078125,-27.83203125,-41.015625,71.2890625,0.0
129.59765625,-40.0390625,-13.18359375,-35.15625,-51.7578125,82.03125,0.0
129.6015625,-41.50390625,4.8828125,-31.25,-53.7109375,49.31640625,0.0
129.60546875,-56.640625,-9.27734375,-33.69140625,-52.734375,-33.69140625,0.0
129.609375,-51.26953125,-37.109375,-34.1796875,-45.41015625,-33.203125,0.0
129.61328125,-41.50390625,25.390625,-27.34375,-35.15625,40.0390625,0.0
129.6171875,-27.83203125,-24.4140625,-29.296875,-36.1328125,-19.04296875,0.0
129.62109375,-35.64453125,-27.34375,-34.66796875,-45.8984375,14.16015625,0.0
129.625,-48.828125,-41.015625,-35.15625,-39.0625,66.40625,0.0
129.62890625,-50.78125,-40.52734375,-38.57421875,-40.0390625,20.01953125,0.0
129.6328125,-43.9453125,-12.20703125,-35.64453125,-37.59765625,-20.5078125,0.0
129.63671875,-37.59765625,-18.5546875,-44.43359375,-39.55078125,-11.71875,0.0
129.640625,-34.1796875,-85.44921875,-47.8515625,-62.01171875,-63.4765625,0.0
129.64453125,-40.52734375,-31.73828125,-43.9453125,-52.24609375,-190.91796875,0.0
129.6484375,-52.24609375,22.94921875,-46.875,-44.43359375,-254.39453125,0.0
129.65234375,-30.76171875,-6.34765625,-40.52734375,-33.203125,-163.0859375,0.0
129.65625,-20.99609375,-15.625,-42.48046875,-25.390625,-175.29296875,0.0
129.66015625,-19.04296875,-27.34375,-41.9921875,-37.59765625,-231.93359375,0.0
129.6640625,-18.06640625,-21.97265625,-33.203125,-37.109375,-242.1875,0.0
129.66796875,-33.203125,-25.390625,-27.34375,-26.85546875,-215.8203125,0.0
129.671875,-31.25,-55.17578125,-30.76171875,-19.04296875,-167.48046875,0.0
129.67578125,-22.94921875,-64.94140625,-42.48046875,-18.06640625,-150.390625,0.0
129.6796875,-20.99609375,-95.21484375,-41.50390625,-29.296875,-118.1640625,0.0
129.68359375,-20.99609375,-59.08203125,-41.50390625,-30.76171875,-48.828125,0.0
129.6875,-27.34375,9.27734375,-45.41015625,-27.34375,20.5078125,0.0
129.69140625,-15.625,24.4140625,-39.0625,-6.8359375,-24.90234375,0.0
129.6953125,-9.765625,4.8828125,-36.1328125,-6.8359375,-49.31640625,0.0
129.69921875,-12.20703125,-20.5078125,-33.203125,-23.92578125,-26.3671875,0.0
129.703125,-19.53125,-44.921875,-34.66796875,-22.94921875,-19.53125,0.0
129.70703125,-27.34375,-89.35546875,-28.80859375,-19.04296875,-47.8515625,0.0
129.7109375,-20.5078125,-110.3515625,-32.2265625,-15.625,-99.12109375,0.0
129.71484375,-14.6484375,-41.50390625,-43.9453125,-15.625,-119.140625,0.0
129.71875,-11.71875,18.06640625,-41.9921875,-18.5546875,-21.484375,0.0
129.72265625,-6.8359375,-58.10546875,-37.59765625,-25.87890625,60.546875,0.0
129.7265625,-12.20703125,-54.6875,-34.1796875,-19.04296875,55.17578125,0.0
129.73046875,-26.85546875,41.9921875,-35.64453125,-16.11328125,71.77734375,0.0
129.734375,-20.01953125,25.87890625,-35.15625,-8.7890625,59.5703125,0.0
129.73828125,-4.39453125,-50.29296875,-32.71484375,-4.39453125,56.640625,0.0
129.7421875,-19.04296875,-80.078125,-33.69140625,-18.06640625,20.99609375,0.0
129.74609375,-26.85546875,-6.34765625,-36.1328125,-28.3203125,-33.69140625,0.0
129.75,-14.6484375,11.71875,-37.59765625,-20.01953125,-31.25,0.0
129.75390625,-16.11328125,-30.76171875,-33.69140625,-1.953125,0.48828125,0.0
129.7578125,-17.08984375,-45.41015625,-27.34375,-3.90625,-58.10546875,0.0
129.76171875,-13.18359375,-72.75390625,-32.71484375,-15.13671875,-48.828125,0.0
129.765625,-26.3671875,-69.82421875,-34.66796875,-23.4375,-37.59765625,0.0
129.76953125,-33.69140625,-34.1796875,-30.2734375,-23.4375,-46.875,0.0
129.7734375,-12.6953125,-20.01953125,-35.15625,-15.13671875,-26.85546875,0.0
129.77734375,-4.39453125,-17.578125,-33.69140625,-18.5546875,24.4140625,0.0
129.78125,-29.296875,-11.71875,-38.0859375,-38.0859375,9.27734375,0.0
129.78515625,-37.109375,-2.44140625,-42.48046875,-43.45703125,2.9296875,0.0
129.7890625,-30.76171875,-37.109375,-28.80859375,-35.15625,-11.23046875,0.0
129.79296875,-31.25,-111.81640625,-30.76171875,-34.66796875,8.7890625,0.0
129.796875,-31.73828125,-33.203125,-36.62109375,-36.1328125,89.84375,0.0
129.80078125,-47.36328125,44.921875,-31.73828125,-55.6640625,106.4453125,0.0
129.8046875,-47.36328125,-1.46484375,-20.99609375,-54.19921875,79.58984375,0.0
129.80859375,-45.8984375,-36.1328125,-17.578125,-50.78125,18.06640625,0.0
129.8125,-56.15234375,-49.8046875,-24.90234375,-52.734375,-5.37109375,0.0
129.81640625,-53.7109375,-18.06640625,-29.78515625,-41.9921875,10.7421875,0.0
129.8203125,-49.8046875,6.34765625,-20.5078125,-58.10546875,10.7421875,0.0
129.82421875,-57.6171875,-24.90234375,-16.6015625,-72.265625,-34.1796875,0.0
129.828125,-72.265625,-38.57421875,-24.90234375,-71.2890625,32.2265625,0.0
129.83203125,-86.42578125,-74.70703125,-26.85546875,-74.70703125,28.3203125,0.0
129.8359375,-79.1015625,-62.98828125,-33.203125,-81.54296875,-40.52734375,0.0
129.83984375,-59.08203125,-2.9296875,-25.87890625,-72.75390625,-58.59375,0.0
129.84375,-52.24609375,29.296875,-12.20703125,-74.70703125,-15.13671875,0.0
129.84765625,-63.4765625,37.59765625,-17.08984375,-73.73046875,-33.69140625,0.0
129.8515625,-68.84765625,-59.08203125,-22.4609375,-57.12890625,-20.99609375,0.0
129.85546875,-65.91796875,-83.0078125,-23.4375,-58.10546875,-13.18359375,0.0
129.859375,-57.6171875,-2.44140625,-24.4140625,-60.05859375,-37.109375,0.0
129.86328125,-55.6640625,46.875,-17.08984375,-72.75390625,-71.77734375,0.0
129.8671875,-67.3828125,-0.9765625,-13.671875,-65.4296875,-154.296875,0.0
129.87109375,-69.82421875,-114.74609375,-14.16015625,-48.828125,-125.48828125,0.0
129.875,-56.640625,-37.109375,-6.8359375,-52.734375,7.32421875,0.0
129.87890625,-62.98828125,69.3359375,-17.08984375,-66.89453125,31.25,0.0
129.8828125,-76.66015625,-5.37109375,-37.109375,-81.54296875,0.0,0.0
129.88671875,-68.359375,-59.08203125,-30.76171875,-74.21875,-12.20703125,0.0
129.890625,-68.84765625,10.7421875,-25.87890625,-61.03515625,-52.734375,0.0
129.89453125,-58.59375,17.578125,-26.3671875,-58.10546875,-53.22265625,0.0
129.8984375,-41.50390625,-34.1796875,-26.3671875,-61.03515625,-23.92578125,0.0
129.90234375,-42.48046875,-57.12890625,-26.85546875,-56.640625,-7.8125,0.0
129.90625,-56.15234375,-41.9921875,-31.73828125,-60.05859375,-14.6484375,0.0
129.91015625,-61.5234375,-21.484375,-37.59765625,-56.15234375,-41.9921875,0.0
129.9140625,-45.8984375,-5.37109375,-28.80859375,-41.50390625,-54.6875,0.0
129.91796875,-41.015625,16.11328125,-32.71484375,-38.57421875,-21.97265625,0.0
129.921875,-53.7109375,-5.37109375,-42.48046875,-57.12890625,25.87890625,0.0
129.92578125,-62.01171875,-70.80078125,-43.9453125,-75.1953125,8.30078125,0.0
129.9296875,-62.01171875,-42.96875,-33.69140625,-55.6640625,-18.5546875,0.0
129.93359375,-53.7109375,-4.39453125,-33.69140625,-32.71484375,4.8828125,0.0
129.9375,-48.33984375,-29.78515625,-39.55078125,-51.26953125,69.82421875,0.0
129.94140625,-42.48046875,-23.92578125,-36.1328125,-64.453125,28.3203125,0.0
129.9453125,-44.43359375,-20.5078125,-35.64453125,-54.6875,-78.61328125,0.0
129.94921875,-39.55078125,0.9765625,-35.15625,-35.64453125,-86.42578125,0.0
129.953125,-28.3203125,-16.11328125,-35.64453125,-35.15625,-63.96484375,0.0
129.95703125,-24.4140625,-93.26171875,-36.62109375,-41.9921875,-38.0859375,0.0
129.9609375,-18.5546875,-85.9375,-33.69140625,-36.62109375,-4.39453125,0.0
129.96484375,-31.73828125,-22.94921875,-38.57421875,-36.1328125,14.6484375,0.0
129.96875,-33.69140625,30.76171875,-41.015625,-31.25,-44.43359375,0.0
129.97265625,-25.87890625,3.41796875,-36.1328125,-16.11328125,-81.0546875,0.0
129.9765625,-25.390625,-24.4140625,-40.52734375,-20.5078125,-2.44140625,0.0
129.98046875,-24.4140625,-12.20703125,-47.36328125,-31.25,-6.8359375,0.0
129.984375,-20.5078125,-27.34375,-39.55078125,-33.69140625,-33.203125,0.0
129.98828125,-21.484375,-82.51953125,-32.71484375,-29.78515625,-37.59765625,0.0
129.9921875,-23.92578125,-58.59375,-28.80859375,0.9765625,-23.4375,0.0
129.99609375,-18.06640625,1.46484375,-19.53125,9.27734375,13.671875,0.0
130.0,-21.97265625,-16.6015625,-29.78515625,-14.6484375,-5.859375,0.0
130.00390625,-21.484375,-17.578125,-42.48046875,-27.83203125,83.0078125,0.0
130.0078125,-20.99609375,-57.6171875,-33.203125,-28.80859375,91.796875,0.0
130.01171875,-37.109375,-33.203125,-38.0859375,-22.94921875,-93.75,0.0
130.015625,-23.92578125,30.76171875,-39.55078125,-11.71875,-73.73046875,0.0
130.01953125,-2.44140625,-8.7890625,-33.203125,-15.625,-55.6640625,0.0
130.0234375,-19.04296875,-75.1953125,-36.62109375,-30.2734375,-90.8203125,0.0
130.02734375,-31.73828125,-31.73828125,-36.1328125,-26.85546875,-52.734375,0.0
130.03125,-18.5546875,0.9765625,-27.34375,-8.7890625,-115.72265625,0.0
130.03515625,-18.06640625,-57.6171875,-27.83203125,-12.6953125,-132.32421875,0.0
130.0390625,-18.06640625,-37.109375,-35.64453125,-23.92578125,-27.83203125,0.0
130.04296875,-11.71875,2.44140625,-39.0625,-21.484375,18.5546875,0.0
130.046875,-24.90234375,-5.37109375,-28.80859375,-36.62109375,-61.03515625,0.0
130.05078125,-29.78515625,10.25390625,-22.94921875,-30.2734375,-56.15234375,0.0
130.0546875,-12.6953125,5.37109375,-29.296875,-22.4609375,-25.87890625,0.0
130.05859375,-6.8359375,-35.64453125,-33.203125,-22.94921875,-61.5234375,0.0
130.0625,-20.99609375,-22.94921875,-43.45703125,-27.83203125,-67.87109375,0.0
130.06640625,-25.390625,-81.54296875,-41.015625,-33.203125,-114.74609375,0.0
130.0703125,-23.92578125,-102.5390625,-30.2734375,-27.34375,-138.671875,0.0
130.07421875,-10.7421875,-10.25390625,-27.83203125,-17.08984375,-29.296875,0.0
130.078125,-8.7890625,7.8125,-31.73828125,-8.30078125,78.125,0.0
130.08203125,-20.99609375,-10.25390625,-39.55078125,-25.390625,22.94921875,0.0
130.0859375,-25.390625,-22.94921875,-41.50390625,-32.71484375,-13.18359375,0.0
130.08984375,-36.62109375,-58.10546875,-38.57421875,-22.4609375,44.921875,0.0
130.09375,-28.3203125,-29.78515625,-36.1328125,-14.6484375,-60.546875,0.0
130.09765625,-16.6015625,24.4140625,-34.66796875,-15.13671875,-116.2109375,0.0
130.1015625,-32.71484375,19.53125,-40.52734375,-33.203125,-35.15625,0.0
130.10546875,-42.96875,-55.17578125,-39.55078125,-41.9921875,40.0390625,0.0
130.109375,-28.80859375,-55.17578125,-34.66796875,-35.15625,27.34375,0.0
130.11328125,-24.90234375,-10.7421875,-39.0625,-18.5546875,-28.80859375,0.0
130.1171875,-22.4609375,-8.30078125,-29.296875,-2.9296875,-27.34375,0.0
130.12109375,-23.4375,3.41796875,-29.78515625,-18.5546875,-22.94921875,0.0
130.125,-38.57421875,-28.80859375,-37.59765625,-27.34375,-13.18359375,0.0
130.12890625,-41.50390625,-115.72265625,-31.25,-21.97265625,0.48828125,0.0
130.1328125,-27.83203125,-75.1953125,-26.3671875,-21.97265625,-65.4296875,0.0
130.13671875,-17.578125,9.27734375,-25.87890625,-21.484375,-41.50390625,0.0
130.140625,-24.4140625,-7.8125,-34.66796875,-28.3203125,49.8046875,0.0
130.14453125,-21.484375,-55.17578125,-35.64453125,-26.3671875,20.01953125,0.0
130.1484375,-26.85546875,-71.77734375,-27.34375,-25.390625,-46.38671875,0.0
130.15234375,-20.99609375,-7.8125,-30.2734375,-23.4375,-75.68359375,0.0
130.15625,-10.7421875,7.32421875,-30.76171875,-14.16015625,-125.0,0.0
130.16015625,-27.34375,-8.30078125,-38.0859375,-36.62109375,-129.39453125,0.0
130.1640625,-39.0625,-20.01953125,-54.19921875,-54.6875,-0.9765625,0.0
130.16796875,-35.64453125,-76.171875,-47.36328125,-36.62109375,-65.91796875,0.0
130.171875,-32.2265625,-88.37890625,-41.9921875,-29.78515625,-133.7890625,0.0
130.17578125,-24.4140625,-36.1328125,-36.62109375,-28.3203125,-52.24609375,0.0
130.1796875,-18.5546875,-6.34765625,-28.3203125,-20.99609375,-83.0078125,0.0
130.18359375,-29.78515625,-10.7421875,-33.69140625,-28.80859375,-131.8359375,0.0
130.1875,-27.83203125,-20.5078125,-22.4609375,-23.92578125,-21.484375,0.0
130.19140625,-26.85546875,-81.54296875,-19.53125,-21.97265625,101.5625,0.0
130.1953125,-28.80859375,-42.48046875,-28.3203125,-28.80859375,66.89453125,0.0
130.19921875,-20.01953125,28.80859375,-36.62109375,-42.48046875,9.27734375,0.0
130.203125,-29.78515625,-16.11328125,-37.59765625,-53.7109375,-17.578125,0.0
130.20703125,-36.62109375,-40.0390625,-29.296875,-43.45703125,16.6015625,0.0
130.2109375,-45.8984375,-16.6015625,-36.62109375,-36.62109375,-16.11328125,0.0
130.21484375,-34.66796875,-18.5546875,-40.52734375,-26.3671875,-65.91796875,0.0
130.21875,-20.5078125,-34.1796875,-30.2734375,-32.71484375,0.9765625,0.0
130.22265625,-28.80859375,-62.01171875,-31.25,-41.9921875,20.01953125,0.0
130.2265625,-22.4609375,-81.0546875,-33.69140625,-25.87890625,-48.33984375,0.0
130.23046875,-21.484375,-56.640625,-29.296875,-18.06640625,10.7421875,0.0
130.234375,-28.3203125,-45.8984375,-30.2734375,-38.0859375,60.05859375,0.0
130.23828125,-18.06640625,-29.78515625,-27.34375,-32.2265625,17.578125,0.0
130.2421875,-27.34375,-41.015625,-27.34375,-32.2265625,38.57421875,0.0
130.24609375,-42.96875,-38.0859375,-34.1796875,-42.96875,55.17578125,0.0
130.25,-41.015625,-15.13671875,-32.2265625,-31.25,15.13671875,0.0
130.25390625,-44.921875,-0.9765625,-33.69140625,-44.921875,13.671875,0.0
130.2578125,-39.55078125,20.99609375,-32.71484375,-49.31640625,56.15234375,0.0
130.26171875,-32.71484375,25.87890625,-29.296875,-39.0625,20.01953125,0.0
130.265625,-44.921875,-14.6484375,-28.3203125,-50.29296875,-77.1484375,0.0
130.26953125,-54.19921875,-52.24609375,-29.78515625,-50.78125,-133.7890625,0.0
130.2734375,-56.15234375,-38.57421875,-28.80859375,-27.83203125,-136.71875,0.0
130.27734375,-49.31640625,-14.6484375,-25.390625,-30.76171875,-185.546875,0.0
130.28125,-53.7109375,-99.12109375,-31.73828125,-47.8515625,-139.6484375,0.0
130.28515625,-62.01171875,-85.44921875,-37.59765625,-53.22265625,-70.3125,0.0
130.2890625,-62.5,14.6484375,-32.71484375,-55.6640625,-63.4765625,0.0
130.29296875,-55.17578125,8.30078125,-26.3671875,-49.31640625,-51.7578125,0.0
130.296875,-44.921875,-10.7421875,-26.3671875,-39.0625,-18.06640625,0.0
130.30078125,-44.43359375,-37.109375,-26.3671875,-51.26953125,-79.58984375,0.0
130.3046875,-40.52734375,-33.69140625,-24.4140625,-54.19921875,-49.8046875,0.0
130.30859375,-47.36328125,-43.9453125,-25.87890625,-48.828125,29.296875,0.0
130.3125,-45.8984375,-58.10546875,-24.90234375,-38.57421875,-56.640625,0.0
130.31640625,-32.2265625,-27.34375,-21.97265625,-39.55078125,-84.47265625,0.0
130.3203125,-34.1796875,-7.32421875,-14.6484375,-46.875,7.8125,0.0
130.32421875,-51.26953125,-31.73828125,-20.99609375,-52.734375,39.0625,0.0
130.328125,-56.640625,-81.0546875,-24.90234375,-55.17578125,30.2734375,0.0
130.33203125,-39.0625,-53.22265625,-11.71875,-28.3203125,-37.59765625,0.0
130.3359375,-28.80859375,-5.37109375,-11.71875,-25.87890625,-41.9921875,0.0
130.33984375,-50.78125,6.8359375,-34.66796875,-57.6171875,-24.90234375,0.0
130.34375,-63.4765625,0.0,-46.875,-65.91796875,-124.51171875,0.0
130.34765625,-55.6640625,-38.57421875,-29.78515625,-51.26953125,-113.76953125,0.0
130.3515625,-55.17578125,-44.921875,-26.85546875,-47.36328125,-28.3203125,0.0
130.35546875,-54.6875,-4.8828125,-37.109375,-64.453125,-10.7421875,0.0
130.359375,-36.1328125,-11.71875,-31.25,-52.24609375,-30.2734375,0.0
130.36328125,-34.66796875,-24.90234375,-22.94921875,-42.48046875,-53.22265625,0.0
130.3671875,-60.05859375,-17.08984375,-25.87890625,-56.15234375,-57.12890625,0.0
130.37109375,-57.12890625,-12.6953125,-27.83203125,-43.45703125,-21.97265625,0.0
130.375,-38.0859375,-14.16015625,-25.87890625,-30.76171875,-30.76171875,0.0
130.37890625,-31.73828125,-20.99609375,-35.64453125,-32.71484375,-51.26953125,0.0
130.3828125,-33.203125,-6.8359375,-40.0390625,-40.0390625,-45.8984375,0.0
130.38671875,-47.36328125,-81.54296875,-40.0390625,-53.7109375,-136.71875,0.0
130.390625,-49.8046875,-84.47265625,-42.96875,-56.640625,-155.2734375,0.0
130.39453125,-38.57421875,-5.859375,-26.3671875,-45.41015625,-183.10546875,0.0
130.3984375,-43.9453125,-16.6015625,-26.85546875,-46.875,-115.72265625,0.0
130.40234375,-47.8515625,-26.3671875,-38.57421875,-51.7578125,46.38671875,0.0
130.40625,-53.22265625,27.34375,-32.71484375,-42.48046875,88.37890625,0.0
130.41015625,-57.6171875,22.94921875,-24.90234375,-50.29296875,47.36328125,0.0
130.4140625,-47.36328125,-23.4375,-26.85546875,-46.875,-11.71875,0.0
130.41796875,-28.80859375,-15.13671875,-32.71484375,-32.2265625,36.62109375,0.0
130.421875,-25.390625,-11.23046875,-31.73828125,-43.9453125,39.0625,0.0
130.42578125,-37.59765625,-14.16015625,-28.3203125,-43.45703125,-74.21875,0.0
130.4296875,-41.9921875,-8.30078125,-25.87890625,-40.0390625,-100.09765625,0.0
130.43359375,-35.15625,-50.78125,-28.3203125,-33.69140625,-62.5,0.0
130.4375,-34.66796875,-97.16796875,-32.2265625,-44.921875,-17.08984375,0.0
130.44140625,-36.1328125,-63.96484375,-33.203125,-54.19921875,-94.23828125,0.0
130.4453125,-41.50390625,-15.625,-42.48046875,-53.22265625,-124.0234375,0.0
130.44921875,-52.24609375,19.04296875,-48.828125,-52.24609375,-86.9140625,0.0
130.453125,-44.921875,0.9765625,-42.48046875,-45.41015625,-82.51953125,0.0
130.45703125,-26.3671875,20.01953125,-33.203125,-36.62109375,-37.59765625,0.0
130.4609375,-19.04296875,16.6015625,-33.203125,-37.109375,-39.0625,0.0
130.46484375,-37.59765625,-82.51953125,-34.1796875,-40.0390625,-17.578125,0.0
130.46875,-50.29296875,-45.8984375,-31.25,-46.38671875,-34.66796875,0.0
130.47265625,-20.01953125,29.78515625,-26.3671875,-23.4375,-48.828125,0.0
130.4765625,-7.8125,-16.11328125,-32.71484375,-8.7890625,-80.078125,0.0
130.48046875,-16.6015625,-33.69140625,-32.2265625,-24.90234375,-168.45703125,0.0
130.484375,-24.90234375,-48.828125,-25.390625,-33.69140625,-155.2734375,0.0
130.48828125,-41.9921875,-2.9296875,-27.34375,-31.73828125,-148.4375,0.0
130.4921875,-31.25,29.296875,-19.53125,-9.765625,-171.38671875,0.0
130.49609375,-21.484375,-10.7421875,-20.01953125,-13.671875,-138.671875,0.0
130.5,-28.3203125,-35.15625,-31.73828125,-31.73828125,37.109375,0.0
130.50390625,-29.78515625,-62.5,-32.71484375,-28.80859375,151.3671875,0.0
130.5078125,-33.203125,-83.984375,-29.296875,-33.69140625,185.546875,0.0
130.51171875,-33.69140625,-52.24609375,-24.4140625,-29.78515625,158.69140625,0.0
130.515625,-29.296875,22.94921875,-24.4140625,-22.4609375,64.453125,0.0
130.51953125,-20.99609375,56.15234375,-28.3203125,-45.8984375,20.01953125,0.0
130.5234375,-31.25,1.953125,-28.3203125,-49.31640625,45.8984375,0.0
130.52734375,-49.31640625,-22.4609375,-35.64453125,-32.2265625,71.2890625,0.0
130.53125,-58.10546875,-71.2890625,-37.59765625,-38.57421875,26.85546875,0.0
130.53515625,-40.52734375,-86.9140625,-28.80859375,-39.0625,11.71875,0.0
130.5390625,-25.390625,-2.9296875,-28.80859375,-38.57421875,-0.9765625,0.0
130.54296875,-32.71484375,16.11328125,-35.64453125,-39.0625,-31.25,0.0
130.546875,-35.15625,-32.71484375,-39.0625,-42.48046875,-4.39453125,0.0
130.55078125,-38.0859375,-25.390625,-32.2265625,-34.66796875,11.71875,0.0
130.5546875,-38.57421875,-17.578125,-27.83203125,-25.390625,52.24609375,0.0
130.55859375,-31.73828125,-57.6171875,-29.78515625,-26.85546875,-3.90625,0.0
130.5625,-27.34375,-32.2265625,-30.76171875,-32.2265625,-127.9296875,0.0
130.56640625,-32.71484375,-18.5546875,-30.76171875,-30.76171875,-130.859375,0.0
130.5703125,-42.48046875,-24.90234375,-30.2734375,-24.90234375,-56.15234375,0.0
130.57421875,-25.87890625,-65.91796875,-27.83203125,-25.87890625,-41.015625,0.0
130.578125,-4.39453125,-55.6640625,-20.01953125,-35.15625,-16.11328125,0.0
130.58203125,-17.578125,-17.08984375,-29.296875,-37.109375,58.59375,0.0
130.5859375,-42.48046875,-57.12890625,-38.57421875,-39.55078125,33.69140625,0.0
130.58984375,-38.0859375,-38.57421875,-26.3671875,-29.78515625,-18.5546875,0.0
130.59375,-20.99609375,-6.34765625,-18.06640625,-8.7890625,53.22265625,0.0
130.59765625,-22.94921875,-26.3671875,-22.94921875,-22.4609375,31.73828125,0.0
130.6015625,-32.2265625,-16.6015625,-28.80859375,-46.875,-42.48046875,0.0
130.60546875,-41.015625,3.90625,-26.85546875,-41.50390625,-34.1796875,0.0
130.609375,-48.828125,-7.32421875,-29.296875,-42.48046875,-6.8359375,0.0
130.61328125,-50.78125,-59.08203125,-29.78515625,-47.8515625,-30.2734375,0.0
130.6171875,-43.9453125,-87.40234375,-27.83203125,-40.0390625,-40.52734375,0.0
130.62109375,-40.52734375,-18.5546875,-25.87890625,-59.5703125,-72.75390625,0.0
130.625,-50.78125,-1.953125,-32.71484375,-68.84765625,-46.875,0.0
130.62890625,-66.40625,-47.36328125,-35.15625,-66.89453125,4.8828125,0.0
130.6328125,-60.05859375,-12.6953125,-32.2265625,-60.05859375,-56.15234375,0.0
130.63671875,-41.015625,37.59765625,-28.3203125,-50.29296875,-60.546875,0.0
130.640625,-44.43359375,5.859375,-21.484375,-57.12890625,1.953125,0.0
130.64453125,-62.01171875,-62.5,-22.94921875,-65.4296875,-53.7109375,0.0
130.6484375,-71.77734375,-59.08203125,-26.85546875,-57.6171875,-103.515625,0.0
130.65234375,-62.5,-0.48828125,-28.3203125,-53.7109375,-38.57421875,0.0
130.65625,-45.8984375,-23.92578125,-26.85546875,-55.17578125,41.50390625,0.0
130.66015625,-39.55078125,-59.08203125,-26.3671875,-56.15234375,76.171875,0.0
130.6640625,-51.26953125,-60.05859375,-20.01953125,-56.15234375,7.32421875,0.0
130.66796875,-61.5234375,-44.43359375,-11.23046875,-52.24609375,-51.7578125,0.0
130.671875,-53.7109375,-27.34375,-18.5546875,-39.0625,40.0390625,0.0
130.67578125,-44.921875,-81.0546875,-24.4140625,-29.296875,-13.671875,0.0
130.6796875,-52.24609375,-40.0390625,-21.484375,-43.45703125,-74.70703125,0.0
130.68359375,-58.59375,30.76171875,-29.78515625,-52.734375,-76.171875,0.0
130.6875,-51.7578125,28.3203125,-27.83203125,-48.33984375,-96.19140625,0.0
130.69140625,-53.7109375,15.13671875,-26.3671875,-40.0390625,-19.53125,0.0
130.6953125,-37.59765625,-64.94140625,-20.01953125,-27.83203125,7.32421875,0.0
130.69921875,-22.4609375,-79.58984375,-22.94921875,-30.2734375,-21.97265625,0.0
130.703125,-43.9453125,-13.671875,-39.55078125,-62.01171875,-50.29296875,0.0
130.70703125,-49.8046875,9.765625,-26.85546875,-59.08203125,-104.98046875,0.0
130.7109375,-35.64453125,-30.76171875,-20.5078125,-22.4609375,-89.35546875,0.0
130.71484375,-33.69140625,-56.15234375,-24.4140625,-22.4609375,-36.1328125,0.0
130.71875,-47.8515625,-11.23046875,-24.4140625,-43.9453125,14.6484375,0.0
130.72265625,-54.6875,-13.671875,-30.76171875,-58.59375,-0.48828125,0.0
130.7265625,-52.734375,-64.453125,-30.2734375,-57.6171875,-99.609375,0.0
130.73046875,-54.6875,-45.8984375,-29.296875,-53.22265625,-76.171875,0.0
130.734375,-47.36328125,10.25390625,-28.3203125,-43.9453125,6.34765625,0.0
130.73828125,-42.48046875,-7.32421875,-34.66796875,-43.9453125,-24.90234375,0.0
130.7421875,-44.921875,-59.5703125,-35.64453125,-59.08203125,-14.16015625,0.0
130.74609375,-46.38671875,-12.20703125,-35.64453125,-66.89453125,15.13671875,0.0
130.75,-45.8984375,19.53125,-39.0625,-53.7109375,-71.77734375,0.0
130.75390625,-41.50390625,-6.34765625,-40.0390625,-49.8046875,-66.89453125,0.0
130.7578125,-24.90234375,-3.90625,-38.57421875,-46.875,11.23046875,0.0
130.76171875,-31.25,-16.6015625,-42.96875,-50.29296875,-50.29296875,0.0
130.765625,-41.015625,-40.0390625,-49.31640625,-59.08203125,-81.54296875,0.0
130.76953125,-30.2734375,-45.41015625,-43.45703125,-51.26953125,-89.35546875,0.0
130.7734375,-24.90234375,-48.33984375,-39.0625,-37.109375,6.8359375,0.0
130.77734375,-20.99609375,-63.96484375,-38.0859375,-41.015625,-10.7421875,0.0
130.78125,-20.01953125,-77.63671875,-37.59765625,-46.875,-67.3828125,0.0
130.78515625,-24.4140625,-32.71484375,-38.0859375,-42.96875,-33.203125,0.0
130.7890625,-34.66796875,23.92578125,-37.59765625,-40.52734375,0.48828125,0.0
130.79296875,-27.83203125,-35.64453125,-38.57421875,-21.484375,30.2734375,0.0
130.796875,-9.765625,-76.66015625,-35.15625,-22.4609375,-34.1796875,0.0
130.80078125,-20.99609375,-25.390625,-32.2265625,-46.875,-37.109375,0.0
130.8046875,-23.92578125,22.4609375,-26.85546875,-27.83203125,16.11328125,0.0
130.80859375,-15.13671875,36.62109375,-22.4609375,-4.39453125,-15.625,0.0
130.8125,-22.94921875,-8.30078125,-25.87890625,-8.7890625,-44.43359375,0.0
130.81640625,-16.11328125,-103.02734375,-32.71484375,-7.8125,-20.01953125,0.0
130.8203125,-13.18359375,-45.41015625,-42.48046875,-18.5546875,-51.7578125,0.0
130.82421875,-36.1328125,38.0859375,-40.0390625,-38.0859375,-41.9921875,0.0
130.828125,-41.015625,2.44140625,-32.2265625,-30.2734375,-30.2734375,0.0
130.83203125,-23.4375,10.25390625,-26.3671875,-14.6484375,-17.578125,0.0
130.8359375,-13.671875,-31.25,-31.73828125,-16.6015625,-32.2265625,0.0
130.83984375,-21.484375,-121.09375,-35.15625,-18.06640625,-41.9921875,0.0
130.84375,-33.203125,-89.35546875,-32.71484375,-23.4375,-19.04296875,0.0
130.84765625,-37.109375,-49.31640625,-34.66796875,-27.83203125,-83.49609375,0.0
130.8515625,-33.203125,-3.41796875,-35.15625,-18.5546875,-127.9296875,0.0
130.85546875,-26.3671875,41.015625,-33.69140625,-8.30078125,-51.7578125,0.0
130.859375,-29.78515625,12.6953125,-31.73828125,-20.5078125,-43.45703125,0.0
130.86328125,-38.57421875,-13.671875,-38.0859375,-39.0625,-5.37109375,0.0
130.8671875,-36.1328125,-45.41015625,-35.15625,-39.0625,-0.48828125,0.0
130.87109375,-28.3203125,-97.65625,-34.1796875,-33.69140625,12.6953125,0.0
130.875,-26.85546875,-51.7578125,-42.48046875,-38.0859375,27.83203125,0.0
130.87890625,-19.04296875,15.625,-40.52734375,-41.015625,-42.96875,0.0
130.8828125,-27.34375,30.2734375,-39.55078125,-42.48046875,-65.4296875,0.0
130.88671875,-34.1796875,3.41796875,-40.0390625,-40.0390625,-27.83203125,0.0
130.890625,-9.27734375,-15.13671875,-33.203125,-26.3671875,13.671875,0.0
130.89453125,-0.9765625,-28.80859375,-22.94921875,-12.6953125,5.859375,0.0
130.8984375,-4.8828125,-46.875,-30.2734375,-22.4609375,-30.2734375,0.0
130.90234375,-24.4140625,-70.3125,-40.52734375,-39.55078125,14.6484375,0.0
130.90625,-37.59765625,-79.1015625,-37.109375,-33.203125,-0.48828125,0.0
130.91015625,-34.66796875,3.41796875,-34.1796875,-24.4140625,-34.1796875,0.0
130.9140625,-33.203125,38.0859375,-34.1796875,-27.34375,-28.80859375,0.0
130.91796875,-21.484375,11.71875,-33.203125,-25.390625,-90.8203125,0.0
130.921875,-26.85546875,-7.8125,-38.57421875,-30.76171875,-59.08203125,0.0
130.92578125,-36.1328125,-75.1953125,-35.64453125,-36.1328125,30.2734375,0.0
130.9296875,-34.1796875,-55.17578125,-25.390625,-20.01953125,-46.875,0.0
130.93359375,-34.1796875,1.953125,-26.3671875,-16.6015625,-64.453125,0.0
130.9375,-32.71484375,-10.25390625,-37.109375,-25.390625,-20.5078125,0.0
130.94140625,-32.2265625,-49.31640625,-31.73828125,-27.34375,-38.57421875,0.0
130.9453125,-39.0625,-63.96484375,-30.76171875,-27.34375,-58.10546875,0.0
130.94921875,-45.41015625,-33.203125,-34.66796875,-25.390625,-89.84375,0.0
130.953125,-29.78515625,6.34765625,-22.94921875,-21.97265625,-87.40234375,0.0
130.95703125,-23.4375,26.3671875,-20.99609375,-28.80859375,-31.73828125,0.0
130.9609375,-31.73828125,-19.04296875,-28.3203125,-41.50390625,33.69140625,0.0
130.96484375,-39.0625,-100.5859375,-36.1328125,-47.36328125,93.26171875,0.0
130.96875,-42.96875,-95.703125,-33.69140625,-42.48046875,47.36328125,0.0
130.97265625,-28.80859375,-31.25,-23.92578125,-18.06640625,20.01953125,0.0
130.9765625,-19.53125,-6.34765625,-24.4140625,-13.671875,12.6953125,0.0
130.98046875,-12.6953125,-21.484375,-26.3671875,-26.85546875,-50.78125,0.0
130.984375,-10.25390625,-2.44140625,-31.25,-26.85546875,-0.48828125,0.0
130.98828125,-26.3671875,8.30078125,-33.203125,-30.2734375,18.5546875,0.0
130.9921875,-34.1796875,6.8359375,-28.3203125,-28.80859375,-85.44921875,0.0
130.99609375,-28.80859375,-7.8125,-31.25,-21.484375,-81.54296875,0.0
131.0,-35.64453125,-40.52734375,-41.50390625,-36.1328125,-33.203125,0.0
131.00390625,-51.7578125,-45.8984375,-51.7578125,-62.5,-33.69140625,0.0
131.0078125,-57.6171875,-61.03515625,-55.6640625,-57.12890625,-112.3046875,0.0
131.01171875,-41.50390625,-51.7578125,-41.50390625,-41.50390625,-62.01171875,0.0
131.015625,-19.04296875,-44.921875,-28.80859375,-36.1328125,-75.68359375,0.0
131.01953125,-24.4140625,-35.64453125,-29.78515625,-35.15625,-106.4453125,0.0
131.0234375,-42.96875,-28.3203125,-34.66796875,-40.52734375,-9.765625,0.0
131.02734375,-41.9921875,-11.71875,-21.97265625,-37.109375,-38.57421875,0.0
131.03125,-38.0859375,-5.37109375,-20.5078125,-34.66796875,-96.6796875,0.0
131.03515625,-31.73828125,-55.6640625,-22.4609375,-23.92578125,-134.765625,0.0
131.0390625,-18.06640625,-34.66796875,-22.4609375,-26.3671875,-130.859375,0.0
131.04296875,-23.4375,30.76171875,-26.3671875,-27.83203125,-66.89453125,0.0
131.046875,-42.96875,1.953125,-31.73828125,-31.25,-68.359375,0.0
131.05078125,-49.31640625,-24.4140625,-38.57421875,-28.80859375,-82.51953125,0.0
131.0546875,-35.15625,-37.59765625,-30.76171875,-13.671875,-31.73828125,0.0
131.05859375,-30.2734375,-82.03125,-35.64453125,-20.01953125,-52.734375,0.0
131.0625,-38.0859375,-58.59375,-43.45703125,-36.1328125,7.8125,0.0
131.06640625,-44.43359375,-41.015625,-37.109375,-33.69140625,29.78515625,0.0
131.0703125,-37.109375,-87.890625,-27.83203125,-23.4375,1.953125,0.0
131.07421875,-31.73828125,-30.76171875,-29.296875,-19.04296875,-49.8046875,0.0
131.078125,-29.78515625,7.8125,-36.62109375,-32.2265625,-165.0390625,0.0
131.08203125,-23.92578125,6.8359375,-35.15625,-38.0859375,-133.30078125,0.0
131.0859375,-25.390625,10.25390625,-27.83203125,-27.34375,-33.203125,0.0
131.08984375,-26.3671875,-35.64453125,-26.85546875,-22.94921875,4.39453125,0.0
131.09375,-15.625,-46.875,-29.78515625,-15.13671875,3.41796875,0.0
131.09765625,-4.8828125,-37.59765625,-28.80859375,-1.46484375,37.59765625,0.0
131.1015625,-7.8125,-42.48046875,-25.87890625,-23.92578125,0.0,0.0
131.10546875,-24.4140625,-26.85546875,-28.3203125,-36.1328125,-38.57421875,0.0
131.109375,-30.76171875,-29.296875,-27.83203125,-19.53125,32.71484375,0.0
131.11328125,-13.18359375,-20.01953125,-20.99609375,-13.671875,-50.29296875,0.0
131.1171875,-15.625,-24.4140625,-28.3203125,-23.92578125,-35.64453125,0.0
131.12109375,-24.90234375,-26.3671875,-39.55078125,-34.1796875,28.3203125,0.0
131.125,-34.1796875,-13.671875,-42.96875,-40.52734375,-12.20703125,0.0
131.12890625,-41.015625,-50.78125,-29.78515625,-36.1328125,9.765625,0.0
131.1328125,-27.83203125,-24.4140625,-20.99609375,-20.99609375,-4.8828125,0.0
131.13671875,-26.3671875,-1.953125,-32.71484375,-27.34375,-22.94921875,0.0
131.140625,-24.4140625,-37.59765625,-27.34375,-37.109375,-6.34765625,0.0
131.14453125,-27.34375,-29.296875,-29.296875,-44.921875,-82.03125,0.0
131.1484375,-38.0859375,-9.765625,-33.69140625,-33.69140625,-96.19140625,0.0
131.15234375,-32.71484375,-14.6484375,-29.296875,-25.390625,-59.08203125,0.0
131.15625,-17.08984375,-1.46484375,-32.2265625,-31.25,-44.43359375,0.0
131.16015625,-23.4375,-32.2265625,-34.1796875,-29.296875,-7.32421875,0.0
131.1640625,-36.62109375,-57.6171875,-33.203125,-37.59765625,-6.34765625,0.0
131.16796875,-39.0625,-20.5078125,-26.3671875,-40.52734375,-116.2109375,0.0
131.171875,-32.71484375,-25.390625,-23.4375,-41.9921875,-137.20703125,0.0
131.17578125,-20.01953125,-52.24609375,-28.3203125,-31.25,-98.6328125,0.0
131.1796875,-22.94921875,-13.18359375,-30.76171875,-24.4140625,-102.05078125,0.0
131.18359375,-52.734375,-14.6484375,-40.0390625,-49.31640625,-59.5703125,0.0
131.1875,-58.10546875,-52.734375,-37.109375,-44.921875,-12.20703125,0.0
131.19140625,-42.96875,-69.3359375,-26.3671875,-29.296875,-41.9921875,0.0
131.1953125,-36.62109375,-31.73828125,-22.94921875,-28.80859375,-48.33984375,0.0
131.19921875,-42.96875,15.625,-26.3671875,-46.38671875,23.4375,0.0
131.203125,-56.640625,-6.34765625,-36.1328125,-56.640625,14.6484375,0.0
131.20703125,-55.17578125,-16.6015625,-33.69140625,-51.26953125,1.953125,0.0
131.2109375,-54.6875,-57.6171875,-20.01953125,-43.45703125,-10.25390625,0.0
131.21484375,-47.8515625,-45.41015625,-19.04296875,-46.875,-63.96484375,0.0
131.21875,-42.96875,-11.23046875,-23.4375,-62.01171875,-27.83203125,0.0
