timestamp,TP9,AF7,AF8,TP10,AUX,Marker,
124.00390625,-23.92578125,-33.69140625,-31.73828125,-15.625,-112.3046875,0.0
124.0078125,-18.5546875,-31.73828125,-24.90234375,-10.25390625,-212.890625,0.0
124.01171875,-29.296875,-24.90234375,-23.4375,-8.30078125,-229.00390625,0.0
124.015625,-35.15625,-32.2265625,-25.87890625,-10.25390625,-177.24609375,0.0
124.01953125,-31.73828125,-41.50390625,-23.92578125,-15.13671875,-149.4140625,0.0
124.0234375,-42.96875,-33.203125,-21.484375,-23.4375,-78.125,0.0
124.02734375,-40.0390625,-26.3671875,-25.390625,-27.34375,-59.08203125,0.0
124.03125,-32.2265625,-32.2265625,-27.83203125,-26.85546875,-33.203125,0.0
124.03515625,-37.109375,-35.15625,-30.76171875,-31.25,114.74609375,0.0
124.0390625,-47.36328125,-32.71484375,-35.15625,-40.52734375,118.1640625,0.0
124.04296875,-54.6875,-36.1328125,-35.64453125,-36.1328125,50.78125,0.0
124.046875,-55.6640625,-38.0859375,-33.203125,-29.78515625,89.35546875,0.0
124.05078125,-52.24609375,-39.0625,-36.1328125,-27.83203125,-0.48828125,0.0
124.0546875,-41.9921875,-33.69140625,-35.15625,-31.73828125,-50.78125,0.0
124.05859375,-37.59765625,-31.73828125,-33.203125,-40.52734375,-37.59765625,0.0
124.0625,-33.203125,-40.52734375,-30.2734375,-28.3203125,-11.23046875,0.0
124.06640625,-40.0390625,-49.31640625,-34.66796875,-22.94921875,-23.4375,0.0
124.0703125,-41.50390625,-52.734375,-25.390625,-25.390625,-19.04296875,0.0
124.07421875,-27.34375,-44.921875,-12.20703125,-14.16015625,-31.73828125,0.0
124.078125,-27.34375,-42.48046875,-31.73828125,-14.16015625,-67.3828125,0.0
124.08203125,-38.0859375,-35.15625,-41.50390625,-14.16015625,-28.3203125,0.0
124.0859375,-35.64453125,-29.78515625,-35.64453125,-7.8125,-67.3828125,0.0
124.08984375,-21.97265625,-34.66796875,-27.34375,-12.6953125,-121.58203125,0.0
124.09375,-23.92578125,-41.015625,-25.87890625,-15.625,-129.8828125,0.0
124.09765625,-30.76171875,-34.1796875,-33.203125,-8.30078125,-184.5703125,0.0
124.1015625,-26.3671875,-23.4375,-33.203125,-4.39453125,-64.94140625,0.0
124.10546875,-34.66796875,-26.85546875,-28.80859375,-4.8828125,29.296875,0.0
124.109375,-44.43359375,-41.50390625,-30.2734375,-20.5078125,4.39453125,0.0
124.11328125,-31.25,-39.0625,-31.73828125,-20.01953125,-46.875,0.0
124.1171875,-13.671875,-30.76171875,-16.6015625,-10.7421875,-26.85546875,0.0
124.12109375,-7.32421875,-38.0859375,-25.87890625,-20.01953125,39.0625,0.0
124.125,-34.66796875,-44.43359375,-33.203125,-20.01953125,-19.04296875,0.0
124.12890625,-52.24609375,-46.875,-24.4140625,-27.34375,-25.87890625,0.0
124.1328125,-36.1328125,-38.57421875,-21.97265625,-35.15625,-50.29296875,0.0
124.13671875,-35.15625,-38.0859375,-22.94921875,-35.64453125,-149.90234375,0.0
124.140625,-33.69140625,-47.36328125,-31.25,-37.59765625,-83.984375,0.0
124.14453125,-23.4375,-46.875,-30.2734375,-36.1328125,35.64453125,0.0
124.1484375,-26.3671875,-33.69140625,-21.484375,-38.0859375,16.6015625,0.0
124.15234375,-34.1796875,-35.15625,-22.94921875,-29.296875,-17.578125,0.0
124.15625,-35.15625,-41.015625,-29.296875,-22.94921875,-11.23046875,0.0
124.16015625,-45.8984375,-43.45703125,-32.71484375,-22.94921875,-50.29296875,0.0
124.1640625,-57.12890625,-42.96875,-30.2734375,-29.78515625,-94.23828125,0.0
124.16796875,-50.29296875,-41.9921875,-26.3671875,-29.296875,-99.609375,0.0
124.171875,-40.0390625,-40.0390625,-28.80859375,-27.34375,-18.06640625,0.0
124.17578125,-38.0859375,-41.50390625,-24.90234375,-28.80859375,-48.33984375,0.0
124.1796875,-29.78515625,-40.52734375,-26.3671875,-29.78515625,-70.3125,0.0
124.18359375,-41.015625,-38.57421875,-37.59765625,-46.38671875,15.625,0.0
124.1875,-47.8515625,-45.8984375,-34.66796875,-52.734375,36.62109375,0.0
124.19140625,-24.90234375,-39.0625,-24.90234375,-41.9921875,47.36328125,0.0
124.1953125,-5.859375,-27.34375,-18.5546875,-35.64453125,17.08984375,0.0
124.19921875,-16.11328125,-24.90234375,-20.5078125,-29.296875,-52.24609375,0.0
124.203125,-43.45703125,-36.1328125,-32.71484375,-38.0859375,-80.078125,0.0
124.20703125,-41.50390625,-41.50390625,-33.203125,-45.8984375,-100.09765625,0.0
124.2109375,-27.34375,-31.73828125,-23.92578125,-39.55078125,-81.54296875,0.0
124.21484375,-29.296875,-23.92578125,-30.2734375,-38.57421875,-31.25,0.0
124.21875,-16.6015625,-28.80859375,-32.2265625,-29.78515625,4.39453125,0.0
124.22265625,-7.32421875,-32.71484375,-26.3671875,-21.97265625,-6.34765625,0.0
124.2265625,-26.3671875,-22.4609375,-29.78515625,-26.85546875,9.765625,0.0
124.23046875,-21.97265625,-22.4609375,-24.4140625,-20.5078125,34.1796875,0.0
124.234375,-3.41796875,-31.73828125,-26.85546875,-13.671875,-35.15625,0.0
124.23828125,-24.4140625,-32.71484375,-28.80859375,-17.578125,-108.88671875,0.0
124.2421875,-40.52734375,-28.3203125,-26.85546875,-16.6015625,-33.203125,0.0
124.24609375,-24.90234375,-33.203125,-29.78515625,-9.765625,47.8515625,0.0
124.25,-26.85546875,-35.15625,-19.53125,-7.8125,40.0390625,0.0
124.25390625,-42.48046875,-38.57421875,-18.5546875,-19.53125,32.71484375,0.0
124.2578125,-52.24609375,-45.8984375,-26.3671875,-23.92578125,36.62109375,0.0
124.26171875,-46.875,-42.96875,-28.80859375,-17.08984375,15.625,0.0
124.265625,-49.31640625,-39.0625,-31.73828125,-24.4140625,-33.69140625,0.0
124.26953125,-45.41015625,-41.9921875,-29.78515625,-27.34375,-27.34375,0.0
124.2734375,-41.50390625,-39.55078125,-21.97265625,-22.4609375,-45.41015625,0.0
124.27734375,-40.0390625,-34.1796875,-24.90234375,-35.64453125,-111.328125,0.0
124.28125,-18.5546875,-40.0390625,-38.0859375,-38.57421875,-123.53515625,0.0
124.28515625,-40.52734375,-41.9921875,-37.59765625,-35.15625,-120.1171875,0.0
124.2890625,-55.6640625,-36.1328125,-34.66796875,-45.41015625,-72.75390625,0.0
124.29296875,-38.57421875,-36.62109375,-29.78515625,-45.8984375,-45.8984375,0.0
124.296875,-41.015625,-37.109375,-25.390625,-40.0390625,-124.0234375,0.0
124.30078125,-51.7578125,-47.8515625,-39.55078125,-55.17578125,-112.3046875,0.0
124.3046875,-77.1484375,-50.29296875,-46.38671875,-69.3359375,-41.015625,0.0
124.30859375,-85.44921875,-48.828125,-39.55078125,-64.94140625,-49.31640625,0.0
124.3125,-64.94140625,-45.8984375,-37.109375,-55.17578125,-31.73828125,0.0
124.31640625,-55.17578125,-40.0390625,-34.66796875,-45.41015625,27.34375,0.0
124.3203125,-64.453125,-36.62109375,-34.66796875,-53.7109375,79.58984375,0.0
124.32421875,-61.03515625,-35.15625,-32.71484375,-55.6640625,-42.48046875,0.0
124.328125,-48.828125,-36.62109375,-38.57421875,-60.05859375,-41.50390625,0.0
124.33203125,-53.22265625,-42.48046875,-43.45703125,-62.01171875,37.59765625,0.0
124.3359375,-60.05859375,-38.0859375,-33.69140625,-52.24609375,-3.90625,0.0
124.33984375,-65.91796875,-34.1796875,-34.1796875,-55.17578125,-32.2265625,0.0
124.34375,-65.91796875,-45.41015625,-32.71484375,-57.12890625,-53.7109375,0.0
124.34765625,-54.19921875,-46.875,-28.3203125,-46.38671875,-20.99609375,0.0
124.3515625,-35.15625,-38.0859375,-24.4140625,-37.109375,-27.83203125,0.0
124.35546875,-26.85546875,-39.55078125,-22.4609375,-39.55078125,-88.8671875,0.0
124.359375,-48.828125,-38.0859375,-27.83203125,-48.828125,-96.19140625,0.0
124.36328125,-60.05859375,-39.55078125,-32.71484375,-57.6171875,-38.57421875,0.0
124.3671875,-44.921875,-43.45703125,-35.15625,-55.17578125,67.87109375,0.0
124.37109375,-26.3671875,-35.64453125,-32.2265625,-44.921875,45.8984375,0.0
124.375,-14.16015625,-28.80859375,-23.4375,-39.0625,-62.01171875,0.0
124.37890625,-17.578125,-23.92578125,-24.4140625,-45.41015625,-60.05859375,0.0
124.3828125,-23.4375,-28.80859375,-29.296875,-62.98828125,-38.57421875,0.0
124.38671875,-13.18359375,-30.2734375,-22.94921875,-62.01171875,-10.7421875,0.0
124.390625,-2.9296875,-36.1328125,-35.15625,-44.43359375,-3.90625,0.0
124.39453125,-5.859375,-37.59765625,-41.9921875,-39.0625,-5.37109375,0.0
124.3984375,-20.01953125,-26.3671875,-30.2734375,-37.109375,55.6640625,0.0
124.40234375,-35.64453125,-26.85546875,-27.34375,-39.0625,18.06640625,0.0
124.40625,-33.203125,-30.76171875,-35.15625,-41.50390625,-43.9453125,0.0
124.41015625,-29.78515625,-28.80859375,-40.52734375,-33.203125,27.83203125,0.0
124.4140625,-33.203125,-22.94921875,-41.015625,-31.25,-10.7421875,0.0
124.41796875,-28.3203125,-22.4609375,-41.015625,-34.66796875,-41.015625,0.0
124.421875,-42.48046875,-28.80859375,-42.48046875,-41.015625,-1.46484375,0.0
124.42578125,-53.7109375,-31.25,-42.96875,-43.45703125,109.86328125,0.0
124.4296875,-34.66796875,-29.78515625,-34.66796875,-32.71484375,52.734375,0.0
124.43359375,-7.32421875,-27.83203125,-32.2265625,-19.04296875,8.7890625,0.0
124.4375,-11.23046875,-35.64453125,-31.73828125,-19.53125,55.6640625,0.0
124.44140625,-29.78515625,-35.64453125,-27.34375,-17.08984375,14.16015625,0.0
124.4453125,-21.484375,-31.25,-25.87890625,-17.578125,-47.36328125,0.0
124.44921875,-23.92578125,-29.296875,-25.87890625,-20.5078125,-18.06640625,0.0
124.453125,-34.66796875,-24.4140625,-23.4375,-15.625,-33.203125,0.0
124.45703125,-26.85546875,-19.53125,-18.06640625,-12.20703125,-137.6953125,0.0
124.4609375,-19.04296875,-21.97265625,-14.6484375,-19.04296875,-88.37890625,0.0
124.46484375,-31.73828125,-26.85546875,-14.6484375,-29.296875,-52.24609375,0.0
124.46875,-46.38671875,-26.85546875,-14.16015625,-34.1796875,-96.19140625,0.0
124.47265625,-35.64453125,-25.390625,-11.71875,-38.57421875,-52.734375,0.0
124.4765625,-35.64453125,-21.97265625,-17.08984375,-35.15625,-99.609375,0.0
124.48046875,-53.22265625,-23.4375,-16.6015625,-30.2734375,-116.2109375,0.0
124.484375,-50.78125,-27.34375,-12.6953125,-26.85546875,-7.8125,0.0
124.48828125,-37.59765625,-32.71484375,-13.18359375,-22.4609375,-20.5078125,0.0
124.4921875,-24.4140625,-26.3671875,-18.5546875,-20.99609375,-133.7890625,0.0
124.49609375,-24.4140625,-20.99609375,-31.25,-15.13671875,-151.3671875,0.0
124.5,-38.57421875,-24.90234375,-29.296875,-13.671875,-85.9375,0.0
124.50390625,-54.6875,-24.90234375,-33.69140625,-20.99609375,-27.83203125,0.0
124.5078125,-41.9921875,-25.390625,-40.0390625,-20.99609375,31.73828125,0.0
124.51171875,-17.578125,-29.296875,-35.15625,-16.11328125,68.84765625,0.0
124.515625,-20.01953125,-26.85546875,-26.3671875,-10.25390625,-16.11328125,0.0
124.51953125,-33.203125,-33.203125,-25.390625,-22.94921875,-52.24609375,0.0
124.5234375,-46.875,-36.62109375,-32.2265625,-34.66796875,-12.20703125,0.0
124.52734375,-69.82421875,-37.59765625,-34.1796875,-41.9921875,-56.640625,0.0
124.53125,-68.84765625,-47.8515625,-37.109375,-51.26953125,-48.33984375,0.0
124.53515625,-50.78125,-49.31640625,-39.0625,-50.29296875,-8.30078125,0.0
124.5390625,-41.9921875,-39.0625,-31.73828125,-51.26953125,-27.34375,0.0
124.54296875,-30.2734375,-31.73828125,-32.71484375,-48.33984375,24.90234375,0.0
124.546875,-33.203125,-31.25,-37.109375,-53.7109375,-8.30078125,0.0
124.55078125,-48.828125,-36.62109375,-31.73828125,-53.22265625,-15.13671875,0.0
124.5546875,-43.45703125,-37.59765625,-24.90234375,-46.875,104.4921875,0.0
124.55859375,-25.87890625,-39.0625,-29.78515625,-57.12890625,103.02734375,0.0
124.5625,-43.45703125,-38.0859375,-31.73828125,-65.4296875,25.390625,0.0
124.56640625,-63.96484375,-32.2265625,-28.80859375,-62.01171875,-11.71875,0.0
124.5703125,-46.875,-31.25,-29.296875,-57.6171875,-56.640625,0.0
124.57421875,-50.29296875,-35.15625,-32.71484375,-60.546875,-83.49609375,0.0
124.578125,-48.33984375,-46.875,-35.64453125,-41.50390625,-79.1015625,0.0
124.58203125,-29.296875,-41.50390625,-34.1796875,-31.25,-93.75,0.0
124.5859375,-31.25,-36.1328125,-29.78515625,-33.69140625,-128.41796875,0.0
124.58984375,-23.4375,-37.109375,-24.90234375,-26.3671875,-134.27734375,0.0
124.59375,-15.13671875,-36.1328125,-29.296875,-25.87890625,-65.4296875,0.0
124.59765625,-9.27734375,-42.96875,-31.25,-24.90234375,-56.15234375,0.0
124.6015625,-21.97265625,-41.50390625,-28.3203125,-29.296875,-112.79296875,0.0
124.60546875,-33.69140625,-34.1796875,-33.69140625,-44.43359375,-117.67578125,0.0
124.609375,-30.2734375,-40.52734375,-31.25,-56.15234375,-23.92578125,0.0
124.61328125,-29.78515625,-35.64453125,-22.4609375,-52.734375,18.5546875,0.0
124.6171875,-19.04296875,-21.97265625,-15.13671875,-49.31640625,-22.94921875,0.0
124.62109375,-27.83203125,-32.2265625,-19.04296875,-55.17578125,-64.453125,0.0
124.625,-27.83203125,-39.55078125,-31.25,-52.734375,6.8359375,0.0
124.62890625,-6.34765625,-35.15625,-26.85546875,-48.828125,74.21875,0.0
124.6328125,-14.16015625,-31.25,-30.76171875,-55.17578125,-8.7890625,0.0
124.63671875,-23.92578125,-29.296875,-35.64453125,-51.26953125,-5.37109375,0.0
124.640625,-26.3671875,-32.71484375,-39.55078125,-58.10546875,49.31640625,0.0
124.64453125,-31.25,-34.1796875,-45.41015625,-66.89453125,-2.44140625,0.0
124.6484375,-12.6953125,-28.3203125,-37.59765625,-57.6171875,-74.21875,0.0
124.65234375,-17.578125,-25.87890625,-35.64453125,-61.5234375,-47.36328125,0.0
124.65625,-33.203125,-27.34375,-30.2734375,-57.12890625,32.71484375,0.0
124.66015625,-20.5078125,-26.3671875,-20.5078125,-41.015625,5.859375,0.0
124.6640625,-28.80859375,-20.99609375,-23.4375,-52.24609375,-7.8125,0.0
124.66796875,-41.015625,-30.2734375,-37.109375,-67.87109375,16.11328125,0.0
124.671875,-38.57421875,-37.109375,-43.45703125,-62.01171875,-4.39453125,0.0
124.67578125,-23.92578125,-26.85546875,-27.34375,-52.734375,-19.04296875,0.0
124.6796875,-2.44140625,-24.90234375,-23.4375,-50.29296875,-38.0859375,0.0
124.68359375,-20.5078125,-37.109375,-34.66796875,-40.52734375,-16.11328125,0.0
124.6875,-35.15625,-35.64453125,-29.296875,-31.25,-19.53125,0.0
124.69140625,-33.69140625,-26.3671875,-23.92578125,-43.45703125,10.25390625,0.0
124.6953125,-38.57421875,-23.92578125,-29.296875,-43.9453125,22.94921875,0.0
124.69921875,-23.92578125,-29.78515625,-25.87890625,-25.87890625,-82.03125,0.0
124.703125,-20.01953125,-35.64453125,-19.04296875,-12.20703125,-90.8203125,0.0
124.70703125,-26.85546875,-28.3203125,-20.5078125,-8.30078125,-93.75,0.0
124.7109375,-23.4375,-19.53125,-26.3671875,-7.32421875,-134.765625,0.0
124.71484375,-14.6484375,-13.671875,-33.203125,-0.48828125,-93.26171875,0.0
124.71875,-18.06640625,-26.3671875,-31.25,-8.30078125,-89.35546875,0.0
124.72265625,-28.80859375,-31.73828125,-26.85546875,-8.7890625,-89.35546875,0.0
124.7265625,-24.4140625,-27.34375,-30.2734375,-13.18359375,-117.67578125,0.0
124.73046875,-24.4140625,-29.296875,-33.69140625,-24.4140625,-169.921875,0.0
124.734375,-20.99609375,-27.34375,-26.85546875,-9.765625,-121.58203125,0.0
124.73828125,-9.27734375,-25.87890625,-25.390625,-6.34765625,-135.25390625,0.0
124.7421875,-26.85546875,-26.3671875,-30.2734375,-20.99609375,-173.33984375,0.0
124.74609375,-38.57421875,-33.203125,-35.15625,-24.90234375,-108.3984375,0.0
124.75,-24.90234375,-36.62109375,-38.0859375,-25.87890625,-32.2265625,0.0
124.75390625,-31.73828125,-40.0390625,-26.85546875,-21.484375,87.890625,0.0
124.7578125,-32.71484375,-32.2265625,-23.4375,-20.01953125,85.9375,0.0
124.76171875,-24.4140625,-27.34375,-25.87890625,-29.78515625,-3.90625,0.0
124.765625,-40.0390625,-35.15625,-25.390625,-28.80859375,44.921875,0.0
124.76953125,-41.50390625,-34.1796875,-20.5078125,-24.4140625,44.921875,0.0
124.7734375,-40.52734375,-30.2734375,-23.92578125,-27.83203125,-40.52734375,0.0
124.77734375,-46.38671875,-34.66796875,-31.73828125,-24.90234375,-53.7109375,0.0
124.78125,-38.0859375,-41.015625,-33.203125,-15.625,11.71875,0.0
124.78515625,-40.0390625,-41.50390625,-34.1796875,-11.71875,74.21875,0.0
124.7890625,-46.875,-34.1796875,-30.2734375,-9.765625,61.03515625,0.0
124.79296875,-46.875,-28.3203125,-26.3671875,-4.39453125,42.96875,0.0
124.796875,-41.9921875,-32.71484375,-23.4375,-6.34765625,62.98828125,0.0
124.80078125,-37.109375,-41.9921875,-29.296875,-11.23046875,100.09765625,0.0
124.8046875,-39.55078125,-40.52734375,-31.25,-12.20703125,29.296875,0.0
124.80859375,-37.109375,-35.64453125,-24.4140625,-23.4375,-38.57421875,0.0
124.8125,-33.203125,-38.0859375,-18.5546875,-25.87890625,-3.90625,0.0
124.81640625,-42.96875,-49.31640625,-26.85546875,-33.69140625,-7.8125,0.0
124.8203125,-48.33984375,-49.31640625,-34.1796875,-45.8984375,-16.11328125,0.0
124.82421875,-42.48046875,-31.25,-29.296875,-43.45703125,-99.609375,0.0
124.828125,-37.109375,-28.3203125,-32.2265625,-45.8984375,-92.28515625,0.0
124.83203125,-27.83203125,-37.109375,-31.25,-36.62109375,-7.8125,0.0
124.8359375,-18.06640625,-29.78515625,-24.90234375,-29.296875,-27.34375,0.0
124.83984375,-19.53125,-20.99609375,-21.97265625,-32.2265625,-36.62109375,0.0
124.84375,-32.71484375,-36.62109375,-26.85546875,-38.57421875,-21.484375,0.0
124.84765625,-30.76171875,-38.57421875,-31.73828125,-34.1796875,-2.44140625,0.0
124.8515625,-8.30078125,-19.53125,-25.87890625,-26.3671875,-69.82421875,0.0
124.85546875,-2.44140625,-23.4375,-17.08984375,-20.01953125,-95.21484375,0.0
124.859375,-25.390625,-28.80859375,-15.625,-16.11328125,-37.109375,0.0
124.86328125,-38.57421875,-33.203125,-16.11328125,-19.53125,-69.3359375,0.0
124.8671875,-37.109375,-33.203125,-20.5078125,-26.3671875,-114.74609375,0.0
124.87109375,-23.92578125,-28.80859375,-25.390625,-24.90234375,-128.41796875,0.0
124.875,-25.87890625,-29.78515625,-22.94921875,-26.3671875,-94.7265625,0.0
124.87890625,-35.64453125,-31.73828125,-28.3203125,-32.2265625,-2.9296875,0.0
124.8828125,-32.71484375,-23.92578125,-25.87890625,-26.85546875,139.6484375,0.0
124.88671875,-29.78515625,-20.01953125,-17.578125,-22.94921875,141.11328125,0.0
124.890625,-27.83203125,-28.3203125,-19.04296875,-23.4375,34.66796875,0.0
124.89453125,-31.25,-29.78515625,-21.484375,-21.484375,-26.3671875,0.0
124.8984375,-30.2734375,-16.11328125,-22.4609375,-10.25390625,-58.59375,0.0
124.90234375,-36.62109375,-21.484375,-27.34375,-11.71875,19.04296875,0.0
124.90625,-41.015625,-42.96875,-31.25,-19.04296875,145.99609375,0.0
124.91015625,-39.0625,-46.38671875,-23.92578125,-23.92578125,109.375,0.0
124.9140625,-47.36328125,-39.0625,-25.87890625,-30.76171875,-14.16015625,0.0
124.91796875,-60.546875,-32.71484375,-32.2265625,-26.3671875,0.9765625,0.0
124.921875,-59.5703125,-36.1328125,-32.71484375,-25.87890625,82.51953125,0.0
124.92578125,-46.875,-37.109375,-27.34375,-25.87890625,-2.44140625,0.0
124.9296875,-37.109375,-32.71484375,-24.90234375,-25.87890625,-63.96484375,0.0
124.93359375,-34.1796875,-27.34375,-27.34375,-23.92578125,16.6015625,0.0
124.9375,-39.0625,-32.2265625,-27.83203125,-20.99609375,-53.7109375,0.0
124.94140625,-45.41015625,-32.71484375,-24.4140625,-29.78515625,-110.3515625,0.0
124.9453125,-40.0390625,-20.99609375,-25.87890625,-34.1796875,-84.47265625,0.0
124.94921875,-22.94921875,-29.296875,-33.69140625,-27.83203125,-132.32421875,0.0
124.953125,-22.94921875,-44.43359375,-42.96875,-27.34375,-117.67578125,0.0
124.95703125,-20.5078125,-37.59765625,-47.36328125,-38.0859375,-54.19921875,0.0
124.9609375,-27.34375,-28.80859375,-37.109375,-39.55078125,-21.97265625,0.0
124.96484375,-39.0625,-33.203125,-33.203125,-43.45703125,-16.11328125,0.0
124.96875,-34.1796875,-41.50390625,-38.0859375,-48.828125,-38.57421875,0.0
124.97265625,-38.57421875,-39.0625,-37.109375,-41.015625,-1.46484375,0.0
124.9765625,-40.0390625,-39.55078125,-41.015625,-41.9921875,-3.90625,0.0
124.98046875,-40.52734375,-44.43359375,-43.9453125,-44.43359375,-6.34765625,0.0
124.984375,-50.29296875,-41.9921875,-36.62109375,-40.52734375,47.36328125,0.0
124.98828125,-51.26953125,-39.55078125,-30.76171875,-41.9921875,-24.4140625,0.0
124.9921875,-45.41015625,-32.71484375,-28.3203125,-36.62109375,-79.58984375,0.0
124.99609375,-58.10546875,-38.57421875,-33.69140625,-31.25,-32.2265625,0.0
125.0,-59.08203125,-50.78125,-38.57421875,-36.62109375,-64.94140625,0.0
125.00390625,-43.45703125,-49.8046875,-36.1328125,-37.59765625,-48.828125,0.0
125.0078125,-60.05859375,-51.26953125,-44.43359375,-42.48046875,3.41796875,0.0
125.01171875,-69.3359375,-49.31640625,-43.45703125,-47.8515625,14.6484375,0.0
125.015625,-52.734375,-44.921875,-33.69140625,-44.43359375,9.765625,0.0
125.01953125,-51.26953125,-52.734375,-34.66796875,-46.38671875,-11.23046875,0.0
125.0234375,-43.9453125,-47.8515625,-36.1328125,-48.33984375,-50.29296875,0.0
125.02734375,-37.59765625,-35.64453125,-30.2734375,-45.41015625,-78.125,0.0
125.03125,-52.734375,-41.015625,-26.85546875,-39.55078125,-116.69921875,0.0
125.03515625,-54.6875,-37.59765625,-26.3671875,-35.64453125,-197.75390625,0.0
125.0390625,-49.8046875,-24.90234375,-29.296875,-34.1796875,-159.66796875,0.0
125.04296875,-49.31640625,-29.78515625,-37.59765625,-34.66796875,-65.91796875,0.0
125.046875,-46.875,-36.62109375,-38.0859375,-45.41015625,-66.89453125,0.0
125.05078125,-41.50390625,-32.71484375,-30.2734375,-41.9921875,-48.33984375,0.0
125.0546875,-33.203125,-25.390625,-29.78515625,-25.87890625,-3.41796875,0.0
125.05859375,-30.76171875,-22.94921875,-31.25,-22.4609375,-55.17578125,0.0
125.0625,-39.0625,-33.203125,-36.62109375,-27.34375,-72.265625,0.0
125.06640625,-34.66796875,-41.015625,-41.50390625,-30.2734375,20.01953125,0.0
125.0703125,-26.3671875,-35.64453125,-39.0625,-35.64453125,16.6015625,0.0
125.07421875,-33.69140625,-34.66796875,-35.64453125,-28.3203125,-11.23046875,0.0
125.078125,-32.71484375,-34.66796875,-29.296875,-7.8125,-30.2734375,0.0
125.08203125,-20.99609375,-31.73828125,-23.92578125,-9.765625,-27.83203125,0.0
125.0859375,-28.80859375,-31.73828125,-27.34375,-24.4140625,18.06640625,0.0
125.08984375,-53.22265625,-32.71484375,-34.66796875,-29.78515625,0.9765625,0.0
125.09375,-60.05859375,-41.015625,-31.73828125,-28.3203125,-40.52734375,0.0
125.09765625,-34.66796875,-43.9453125,-24.90234375,-17.578125,-18.06640625,0.0
125.1015625,-25.390625,-38.0859375,-32.71484375,-24.90234375,35.64453125,0.0
125.10546875,-33.203125,-39.55078125,-36.62109375,-41.50390625,-66.89453125,0.0
125.109375,-42.48046875,-36.1328125,-29.78515625,-36.1328125,-137.6953125,0.0
125.11328125,-48.828125,-30.76171875,-32.71484375,-29.78515625,0.48828125,0.0
125.1171875,-37.59765625,-32.2265625,-36.1328125,-30.76171875,62.01171875,0.0
125.12109375,-34.1796875,-32.71484375,-28.80859375,-34.1796875,-15.625,0.0
125.125,-42.48046875,-36.1328125,-32.2265625,-40.52734375,-54.6875,0.0
125.12890625,-57.12890625,-32.2265625,-35.64453125,-44.921875,9.765625,0.0
125.1328125,-76.171875,-24.4140625,-36.62109375,-44.43359375,51.7578125,0.0
125.13671875,-53.7109375,-25.87890625,-32.2265625,-40.0390625,-53.22265625,0.0
125.140625,-22.4609375,-34.66796875,-29.296875,-35.64453125,-96.6796875,0.0
125.14453125,-57.12890625,-47.36328125,-41.9921875,-34.1796875,-34.1796875,0.0
125.1484375,-70.3125,-47.36328125,-41.9921875,-27.83203125,-2.44140625,0.0
125.15234375,-47.8515625,-39.55078125,-37.59765625,-22.4609375,-34.66796875,0.0
125.15625,-44.43359375,-43.9453125,-39.0625,-22.4609375,-68.84765625,0.0
125.16015625,-42.48046875,-42.48046875,-33.69140625,-28.3203125,-32.2265625,0.0
125.1640625,-35.15625,-36.62109375,-37.109375,-30.2734375,-19.53125,0.0
125.16796875,-25.87890625,-37.109375,-36.1328125,-20.01953125,-68.359375,0.0
125.171875,-26.85546875,-34.1796875,-34.66796875,-9.27734375,-53.7109375,0.0
125.17578125,-5.37109375,-35.15625,-41.50390625,-13.671875,0.48828125,0.0
125.1796875,-3.41796875,-25.390625,-39.0625,-19.53125,13.671875,0.0
125.18359375,-38.0859375,-28.3203125,-41.50390625,-16.11328125,0.48828125,0.0
125.1875,-31.73828125,-36.62109375,-37.109375,-20.99609375,-33.203125,0.0
125.19140625,-29.78515625,-28.80859375,-24.90234375,-20.5078125,-101.5625,0.0
125.1953125,-29.296875,-19.04296875,-23.92578125,-13.671875,-132.8125,0.0
125.19921875,-1.46484375,-25.87890625,-30.2734375,-21.97265625,-51.26953125,0.0
125.203125,-13.18359375,-31.25,-34.1796875,-26.3671875,26.3671875,0.0
125.20703125,-44.43359375,-23.92578125,-28.3203125,-26.3671875,-26.85546875,0.0
125.2109375,-42.96875,-20.5078125,-24.90234375,-27.34375,12.6953125,0.0
125.21484375,-38.0859375,-24.4140625,-25.87890625,-22.94921875,13.18359375,0.0
125.21875,-23.92578125,-34.66796875,-19.53125,-22.4609375,-10.25390625,0.0
125.22265625,-7.8125,-31.73828125,-19.04296875,-28.3203125,-53.7109375,0.0
125.2265625,-37.109375,-22.4609375,-21.484375,-33.69140625,-108.3984375,0.0
125.23046875,-65.4296875,-23.4375,-22.4609375,-34.66796875,-82.51953125,0.0
125.234375,-52.734375,-35.15625,-32.71484375,-36.62109375,-60.546875,0.0
125.23828125,-39.0625,-41.015625,-31.73828125,-34.1796875,-58.10546875,0.0
125.2421875,-40.52734375,-36.1328125,-22.4609375,-27.83203125,76.66015625,0.0
125.24609375,-31.73828125,-29.296875,-20.01953125,-31.25,8.30078125,0.0
125.25,-29.296875,-21.97265625,-26.85546875,-38.0859375,-128.41796875,0.0
125.25390625,-36.62109375,-28.3203125,-29.78515625,-36.62109375,-17.578125,0.0
125.2578125,-41.015625,-30.2734375,-22.4609375,-27.83203125,-6.34765625,0.0
125.26171875,-46.875,-33.203125,-24.4140625,-32.71484375,-25.87890625,0.0
125.265625,-40.0390625,-38.57421875,-30.2734375,-37.109375,92.28515625,0.0
125.26953125,-34.1796875,-31.25,-28.3203125,-32.2265625,67.3828125,0.0
125.2734375,-40.0390625,-21.97265625,-21.484375,-31.73828125,-42.96875,0.0
125.27734375,-46.875,-29.78515625,-21.484375,-26.3671875,-83.49609375,0.0
125.28125,-41.015625,-39.0625,-30.76171875,-21.484375,-65.91796875,0.0
125.28515625,-33.69140625,-32.2265625,-34.66796875,-24.90234375,-77.63671875,0.0
125.2890625,-53.7109375,-34.66796875,-27.83203125,-34.1796875,9.27734375,0.0
125.29296875,-53.7109375,-36.62109375,-27.83203125,-33.203125,11.71875,0.0
125.296875,-32.2265625,-34.1796875,-29.296875,-20.99609375,-63.4765625,0.0
125.30078125,-35.64453125,-30.2734375,-27.34375,-26.3671875,-58.59375,0.0
125.3046875,-58.10546875,-28.3203125,-34.1796875,-41.015625,-36.1328125,0.0
125.30859375,-59.08203125,-34.1796875,-32.71484375,-48.828125,18.5546875,0.0
125.3125,-39.55078125,-39.0625,-27.34375,-42.48046875,51.26953125,0.0
125.31640625,-54.6875,-38.0859375,-30.76171875,-44.43359375,83.984375,0.0
125.3203125,-55.17578125,-30.76171875,-33.203125,-44.43359375,66.40625,0.0
125.32421875,-38.0859375,-36.62109375,-35.64453125,-30.2734375,0.48828125,0.0
125.328125,-22.4609375,-41.50390625,-31.25,-21.484375,19.53125,0.0
125.33203125,-21.97265625,-30.76171875,-27.83203125,-23.92578125,66.40625,0.0
125.3359375,-28.80859375,-25.87890625,-27.83203125,-26.3671875,94.23828125,0.0
125.33984375,-16.6015625,-24.4140625,-29.296875,-17.578125,72.75390625,0.0
125.34375,-8.7890625,-20.99609375,-29.296875,-20.5078125,20.99609375,0.0
125.34765625,-12.20703125,-20.99609375,-20.99609375,-24.90234375,-17.578125,0.0
125.3515625,-4.39453125,-20.99609375,-19.04296875,-19.53125,6.8359375,0.0
125.35546875,-4.39453125,-27.34375,-22.94921875,-17.08984375,-8.7890625,0.0
125.359375,-3.41796875,-25.87890625,-19.53125,-10.7421875,-38.0859375,0.0
125.36328125,-7.32421875,-29.78515625,-19.53125,-17.578125,-46.38671875,0.0
125.3671875,-36.62109375,-32.71484375,-29.78515625,-28.3203125,-57.12890625,0.0
125.37109375,-46.38671875,-26.3671875,-32.71484375,-30.76171875,-123.53515625,0.0
125.375,-46.38671875,-33.203125,-33.69140625,-34.1796875,-141.11328125,0.0
125.37890625,-36.62109375,-34.1796875,-28.80859375,-28.3203125,-145.5078125,0.0
125.3828125,-34.66796875,-28.80859375,-20.01953125,-22.4609375,-193.359375,0.0
125.38671875,-41.50390625,-28.3203125,-20.01953125,-18.5546875,-198.73046875,0.0
125.390625,-40.52734375,-36.1328125,-23.4375,-18.5546875,-127.9296875,0.0
125.39453125,-34.66796875,-40.0390625,-22.94921875,-27.34375,-31.73828125,0.0
125.3984375,-34.66796875,-31.25,-32.71484375,-40.0390625,76.66015625,0.0
125.40234375,-46.875,-28.3203125,-42.48046875,-47.36328125,43.9453125,0.0
125.40625,-53.22265625,-33.69140625,-34.66796875,-39.0625,-32.2265625,0.0
125.41015625,-43.45703125,-32.2265625,-31.25,-24.90234375,39.0625,0.0
125.4140625,-31.73828125,-41.015625,-30.2734375,-18.5546875,-54.19921875,0.0
125.41796875,-16.11328125,-47.8515625,-29.296875,-17.578125,-139.6484375,0.0
125.421875,-8.30078125,-41.015625,-31.73828125,-23.92578125,12.20703125,0.0
125.42578125,-32.2265625,-43.9453125,-30.2734375,-33.203125,16.11328125,0.0
125.4296875,-51.7578125,-41.015625,-27.34375,-35.64453125,-1.953125,0.0
125.43359375,-53.7109375,-31.25,-28.3203125,-33.203125,44.921875,0.0
125.4375,-36.62109375,-37.109375,-30.2734375,-30.76171875,-66.40625,0.0
125.44140625,-20.01953125,-41.50390625,-34.66796875,-28.3203125,-182.12890625,0.0
125.4453125,-22.94921875,-29.296875,-36.62109375,-29.78515625,-39.55078125,0.0
125.44921875,-29.296875,-20.99609375,-36.62109375,-33.203125,9.765625,0.0
125.453125,-32.71484375,-28.3203125,-39.55078125,-32.71484375,-71.77734375,0.0
125.45703125,-40.0390625,-39.0625,-39.0625,-30.2734375,-52.24609375,0.0
125.4609375,-42.48046875,-30.76171875,-31.73828125,-28.3203125,-4.8828125,0.0
125.46484375,-46.875,-29.296875,-36.1328125,-32.2265625,-20.01953125,0.0
125.46875,-45.41015625,-40.0390625,-36.62109375,-28.80859375,-41.015625,0.0
125.47265625,-38.57421875,-39.55078125,-28.3203125,-20.99609375,-63.96484375,0.0
125.4765625,-42.96875,-29.78515625,-30.76171875,-23.4375,-108.3984375,0.0
125.48046875,-45.8984375,-34.1796875,-38.57421875,-28.3203125,-156.25,0.0
125.484375,-47.36328125,-40.0390625,-34.1796875,-31.25,-203.125,0.0
125.48828125,-44.921875,-35.15625,-28.3203125,-36.1328125,-123.53515625,0.0
125.4921875,-43.45703125,-33.203125,-30.76171875,-33.203125,20.01953125,0.0
125.49609375,-49.31640625,-32.2265625,-30.2734375,-26.3671875,-37.109375,0.0
125.5,-45.41015625,-34.1796875,-33.203125,-32.2265625,-65.91796875,0.0
125.50390625,-48.33984375,-41.015625,-34.1796875,-47.36328125,-20.5078125,0.0
125.5078125,-46.38671875,-37.109375,-33.203125,-43.9453125,-49.31640625,0.0
125.51171875,-36.62109375,-33.203125,-33.203125,-29.78515625,-41.50390625,0.0
125.515625,-36.62109375,-39.55078125,-32.71484375,-29.78515625,-33.69140625,0.0
125.51953125,-39.55078125,-44.921875,-36.62109375,-24.90234375,6.8359375,0.0
125.5234375,-41.015625,-43.9453125,-34.1796875,-27.34375,26.3671875,0.0
125.52734375,-37.109375,-38.57421875,-26.3671875,-27.83203125,35.15625,0.0
125.53125,-32.71484375,-38.57421875,-25.390625,-14.6484375,32.71484375,0.0
125.53515625,-26.85546875,-44.921875,-27.34375,-18.06640625,65.4296875,0.0
125.5390625,-26.85546875,-43.9453125,-29.296875,-21.97265625,25.87890625,0.0
125.54296875,-16.6015625,-36.62109375,-32.2265625,-12.6953125,-41.50390625,0.0
125.546875,-8.7890625,-41.50390625,-34.66796875,-14.16015625,30.76171875,0.0
125.55078125,-34.1796875,-44.921875,-29.78515625,-28.80859375,83.49609375,0.0
125.5546875,-61.03515625,-31.73828125,-28.80859375,-51.26953125,19.53125,0.0
125.55859375,-54.19921875,-31.73828125,-35.15625,-61.5234375,-71.77734375,0.0
125.5625,-49.8046875,-42.48046875,-38.0859375,-62.98828125,-50.29296875,0.0
125.56640625,-50.29296875,-41.9921875,-38.57421875,-71.77734375,-4.39453125,0.0
125.5703125,-56.640625,-36.1328125,-36.62109375,-77.1484375,-20.99609375,0.0
125.57421875,-53.22265625,-27.34375,-36.1328125,-62.01171875,-45.8984375,0.0
125.578125,-41.50390625,-21.484375,-35.15625,-52.24609375,-32.71484375,0.0
125.58203125,-61.5234375,-27.34375,-34.66796875,-74.70703125,-103.02734375,0.0
125.5859375,-58.59375,-38.57421875,-39.55078125,-79.58984375,-75.68359375,0.0
125.58984375,-50.29296875,-34.66796875,-43.45703125,-54.6875,59.5703125,0.0
125.59375,-66.89453125,-33.203125,-37.109375,-48.828125,22.4609375,0.0
125.59765625,-61.03515625,-40.0390625,-36.1328125,-48.33984375,-65.91796875,0.0
125.6015625,-47.8515625,-33.203125,-41.015625,-38.0859375,-88.37890625,0.0
125.60546875,-42.96875,-29.78515625,-42.48046875,-40.52734375,-126.953125,0.0
125.609375,-44.921875,-41.015625,-39.55078125,-40.0390625,-152.83203125,0.0
125.61328125,-41.9921875,-46.38671875,-39.0625,-35.64453125,-131.34765625,0.0
125.6171875,-41.9921875,-39.55078125,-40.0390625,-40.52734375,-90.8203125,0.0
125.62109375,-45.8984375,-40.52734375,-43.45703125,-51.7578125,-25.87890625,0.0
125.625,-42.48046875,-49.31640625,-44.43359375,-60.05859375,-23.4375,0.0
125.62890625,-40.0390625,-46.875,-41.50390625,-59.5703125,-50.78125,0.0
125.6328125,-35.15625,-33.69140625,-39.0625,-50.29296875,-84.47265625,0.0
125.63671875,-30.76171875,-32.71484375,-39.0625,-47.8515625,-73.2421875,0.0
125.640625,-34.66796875,-34.66796875,-40.0390625,-47.36328125,-1.46484375,0.0
125.64453125,-24.90234375,-41.9921875,-39.0625,-43.9453125,-21.97265625,0.0
125.6484375,-18.5546875,-36.1328125,-38.57421875,-46.875,-57.12890625,0.0
125.65234375,-29.78515625,-39.55078125,-34.66796875,-47.36328125,-9.765625,0.0
125.65625,-46.38671875,-46.875,-40.52734375,-54.19921875,-24.4140625,0.0
125.66015625,-50.29296875,-44.921875,-40.0390625,-65.4296875,-44.921875,0.0
125.6640625,-43.45703125,-39.55078125,-35.64453125,-65.4296875,-49.8046875,0.0
125.66796875,-41.9921875,-38.0859375,-43.45703125,-64.94140625,-3.41796875,0.0
125.671875,-39.55078125,-46.38671875,-42.96875,-60.05859375,17.578125,0.0
125.67578125,-28.3203125,-36.62109375,-34.1796875,-41.015625,12.6953125,0.0
125.6796875,-45.41015625,-21.97265625,-29.296875,-38.0859375,41.015625,0.0
125.68359375,-59.5703125,-24.4140625,-34.66796875,-49.8046875,32.2265625,0.0
125.6875,-58.10546875,-25.390625,-44.921875,-53.22265625,15.13671875,0.0
125.69140625,-62.5,-14.6484375,-41.50390625,-49.8046875,-12.20703125,0.0
125.6953125,-43.9453125,-7.32421875,-37.59765625,-41.015625,-8.7890625,0.0
125.69921875,-33.69140625,-6.34765625,-37.109375,-41.015625,-25.87890625,0.0
125.703125,-52.24609375,-14.6484375,-32.71484375,-47.8515625,-103.02734375,0.0
125.70703125,-56.15234375,-23.92578125,-33.203125,-49.31640625,-64.453125,0.0
125.7109375,-30.2734375,-15.625,-27.34375,-37.109375,-42.48046875,0.0
125.71484375,-28.80859375,-13.18359375,-26.3671875,-41.015625,-12.6953125,0.0
125.71875,-54.6875,-16.6015625,-28.3203125,-58.59375,66.40625,0.0
125.72265625,-45.41015625,-15.625,-34.1796875,-53.22265625,75.68359375,0.0
125.7265625,-37.109375,-15.625,-41.015625,-50.78125,14.6484375,0.0
125.73046875,-60.05859375,-24.4140625,-35.15625,-57.6171875,9.27734375,0.0
125.734375,-62.5,-24.4140625,-31.25,-50.78125,96.19140625,0.0
125.73828125,-47.8515625,-16.11328125,-35.64453125,-46.875,73.73046875,0.0
125.7421875,-43.45703125,-14.16015625,-39.55078125,-33.203125,34.1796875,0.0
125.74609375,-41.9921875,-21.484375,-38.0859375,-22.94921875,23.4375,0.0
125.75,-42.48046875,-24.90234375,-37.59765625,-33.203125,-46.875,0.0
125.75390625,-39.55078125,-23.92578125,-30.76171875,-32.2265625,-19.04296875,0.0
125.7578125,-23.92578125,-19.04296875,-27.34375,-30.2734375,-12.20703125,0.0
125.76171875,-36.62109375,-19.04296875,-31.25,-35.15625,-101.07421875,0.0
125.765625,-60.05859375,-25.87890625,-32.71484375,-30.2734375,-139.6484375,0.0
125.76953125,-68.84765625,-24.4140625,-24.4140625,-23.92578125,-103.02734375,0.0
125.7734375,-69.3359375,-14.16015625,-23.92578125,-25.87890625,-88.8671875,0.0
125.77734375,-55.6640625,-16.11328125,-27.34375,-26.85546875,-109.375,0.0
125.78125,-60.05859375,-31.73828125,-29.296875,-23.92578125,-135.25390625,0.0
125.78515625,-65.4296875,-27.83203125,-29.296875,-21.97265625,-190.91796875,0.0
125.7890625,-54.19921875,-21.484375,-28.3203125,-20.01953125,-218.75,0.0
125.79296875,-45.8984375,-15.625,-25.87890625,-23.4375,-176.7578125,0.0
125.796875,-42.48046875,-22.94921875,-24.4140625,-23.92578125,-212.890625,0.0
125.80078125,-32.71484375,-25.390625,-21.484375,-25.87890625,-227.05078125,0.0
125.8046875,-39.0625,-7.8125,-24.4140625,-41.015625,-34.1796875,0.0
125.80859375,-53.7109375,-11.71875,-29.296875,-38.0859375,120.1171875,0.0
125.8125,-58.59375,-24.4140625,-20.99609375,-25.87890625,71.2890625,0.0
125.81640625,-54.19921875,-22.94921875,-16.6015625,-26.3671875,46.875,0.0
125.8203125,-50.29296875,-19.04296875,-23.4375,-39.0625,6.34765625,0.0
125.82421875,-63.4765625,-17.08984375,-30.76171875,-39.0625,-49.31640625,0.0
125.828125,-68.359375,-23.92578125,-26.85546875,-33.69140625,-5.859375,0.0
125.83203125,-54.6875,-24.90234375,-20.5078125,-28.3203125,-21.97265625,0.0
125.8359375,-52.24609375,-14.16015625,-19.53125,-18.06640625,-20.99609375,0.0
125.83984375,-44.921875,-15.13671875,-29.296875,-16.11328125,-1.46484375,0.0
125.84375,-37.59765625,-23.92578125,-28.3203125,-5.37109375,-22.4609375,0.0
125.84765625,-49.31640625,-23.4375,-23.92578125,-3.41796875,4.39453125,0.0
125.8515625,-58.10546875,-25.87890625,-27.83203125,-22.4609375,55.17578125,0.0
125.85546875,-52.734375,-30.76171875,-34.66796875,-31.25,49.31640625,0.0
125.859375,-44.921875,-23.92578125,-36.1328125,-30.2734375,16.11328125,0.0
125.86328125,-48.33984375,-24.4140625,-31.73828125,-27.83203125,35.15625,0.0
125.8671875,-47.8515625,-26.3671875,-26.85546875,-20.5078125,-20.99609375,0.0
125.87109375,-53.7109375,-31.25,-27.34375,-22.4609375,-14.16015625,0.0
125.875,-61.03515625,-37.109375,-35.64453125,-24.90234375,9.765625,0.0
125.87890625,-59.08203125,-32.2265625,-37.59765625,-23.92578125,-96.6796875,0.0
125.8828125,-54.19921875,-30.2734375,-39.0625,-15.13671875,-104.4921875,0.0
125.88671875,-46.38671875,-33.69140625,-36.1328125,-8.7890625,-69.3359375,0.0
125.890625,-38.0859375,-39.55078125,-31.73828125,-10.25390625,-38.57421875,0.0
125.89453125,-53.7109375,-51.7578125,-39.55078125,-19.53125,14.16015625,0.0
125.8984375,-59.5703125,-45.41015625,-38.0859375,-21.97265625,-72.75390625,0.0
125.90234375,-55.17578125,-37.59765625,-34.66796875,-22.94921875,-69.3359375,0.0
125.90625,-57.12890625,-36.62109375,-35.15625,-28.80859375,75.1953125,0.0
125.91015625,-42.96875,-30.76171875,-30.76171875,-26.3671875,79.58984375,0.0
125.9140625,-40.0390625,-32.71484375,-31.73828125,-18.5546875,-5.859375,0.0
125.91796875,-42.96875,-32.71484375,-36.1328125,-17.578125,20.01953125,0.0
125.921875,-37.59765625,-36.62109375,-37.109375,-25.390625,10.7421875,0.0
125.92578125,-42.96875,-43.45703125,-38.0859375,-35.15625,-22.94921875,0.0
125.9296875,-51.26953125,-31.25,-36.62109375,-34.1796875,18.06640625,0.0
125.93359375,-32.71484375,-22.4609375,-30.76171875,-29.296875,-5.37109375,0.0
125.9375,-29.296875,-33.203125,-33.69140625,-28.3203125,-61.03515625,0.0
125.94140625,-36.1328125,-39.0625,-34.1796875,-27.34375,-10.7421875,0.0
125.9453125,-28.80859375,-37.109375,-28.80859375,-26.85546875,-15.625,0.0
125.94921875,-22.4609375,-27.34375,-21.484375,-22.94921875,-4.39453125,0.0
125.953125,-30.2734375,-19.53125,-16.11328125,-16.6015625,43.9453125,0.0
125.95703125,-32.71484375,-23.4375,-18.5546875,-13.18359375,33.69140625,0.0
125.9609375,-32.71484375,-30.2734375,-20.99609375,-20.01953125,-27.83203125,0.0
125.96484375,-41.015625,-32.71484375,-26.85546875,-21.484375,-114.74609375,0.0
125.96875,-45.41015625,-33.203125,-28.3203125,-18.5546875,-83.49609375,0.0
125.97265625,-43.45703125,-33.203125,-19.53125,-18.5546875,29.296875,0.0
125.9765625,-49.31640625,-29.78515625,-19.53125,-21.97265625,25.87890625,0.0
125.98046875,-64.453125,-29.296875,-22.4609375,-29.296875,-71.77734375,0.0
125.984375,-63.96484375,-36.1328125,-24.4140625,-27.83203125,-43.9453125,0.0
125.98828125,-52.24609375,-41.50390625,-23.92578125,-17.578125,-96.6796875,0.0
125.9921875,-32.2265625,-35.15625,-15.625,-2.9296875,-113.28125,0.0
125.99609375,-31.25,-28.80859375,-17.578125,0.9765625,-26.85546875,0.0
126.0,-30.76171875,-33.69140625,-26.3671875,-9.27734375,1.46484375,0.0
126.00390625,-20.5078125,-32.2265625,-25.87890625,-10.7421875,23.4375,0.0
126.0078125,-30.76171875,-25.87890625,-25.87890625,-6.8359375,-30.2734375,0.0
126.01171875,-42.96875,-27.83203125,-28.3203125,-3.41796875,-66.40625,0.0
126.015625,-37.59765625,-32.71484375,-27.83203125,-4.39453125,-92.28515625,0.0
126.01953125,-37.59765625,-32.71484375,-22.94921875,-19.53125,-114.74609375,0.0
126.0234375,-44.43359375,-22.94921875,-26.85546875,-29.78515625,-48.828125,0.0
126.02734375,-41.50390625,-20.99609375,-36.62109375,-25.87890625,-27.34375,0.0
126.03125,-40.0390625,-30.2734375,-36.62109375,-24.90234375,-11.71875,0.0
126.03515625,-43.9453125,-35.64453125,-31.25,-28.80859375,-19.53125,0.0
126.0390625,-35.15625,-29.296875,-25.87890625,-28.3203125,-98.6328125,0.0
126.04296875,-45.41015625,-28.80859375,-32.2265625,-37.109375,-44.921875,0.0
126.046875,-45.8984375,-40.0390625,-40.52734375,-37.109375,76.171875,0.0
126.05078125,-20.01953125,-41.015625,-38.0859375,-24.4140625,1.46484375,0.0
126.0546875,-32.71484375,-25.87890625,-32.2265625,-17.08984375,-28.80859375,0.0
126.05859375,-48.33984375,-23.92578125,-28.3203125,-18.06640625,-11.71875,0.0
126.0625,-47.36328125,-29.296875,-33.203125,-22.4609375,-17.08984375,0.0
126.06640625,-45.41015625,-26.3671875,-32.71484375,-16.6015625,-21.484375,0.0
126.0703125,-29.296875,-26.3671875,-18.5546875,-7.8125,13.671875,0.0
126.07421875,-34.66796875,-37.59765625,-21.97265625,-9.765625,-3.90625,0.0
126.078125,-60.05859375,-48.33984375,-29.78515625,-20.01953125,-43.45703125,0.0
126.08203125,-47.36328125,-43.9453125,-28.3203125,-23.92578125,-92.28515625,0.0
126.0859375,-29.296875,-40.52734375,-28.3203125,-14.6484375,-100.09765625,0.0
126.08984375,-27.83203125,-45.41015625,-31.73828125,-19.53125,-136.23046875,0.0
126.09375,-35.15625,-40.0390625,-34.1796875,-24.90234375,-158.69140625,0.0
126.09765625,-37.59765625,-37.109375,-31.73828125,-23.4375,-84.47265625,0.0
126.1015625,-27.83203125,-34.1796875,-26.85546875,-21.484375,5.37109375,0.0
126.10546875,-36.1328125,-29.296875,-21.484375,-16.11328125,-6.34765625,0.0
126.109375,-41.015625,-31.25,-20.5078125,-24.90234375,-8.30078125,0.0
126.11328125,-41.50390625,-33.69140625,-26.85546875,-31.25,-34.1796875,0.0
126.1171875,-46.875,-31.25,-25.87890625,-22.4609375,-121.58203125,0.0
126.12109375,-45.8984375,-30.76171875,-22.94921875,-25.390625,-32.71484375,0.0
126.125,-42.48046875,-37.59765625,-31.25,-31.25,13.18359375,0.0
126.12890625,-39.55078125,-35.64453125,-31.73828125,-28.3203125,-23.92578125,0.0
126.1328125,-31.25,-34.66796875,-23.4375,-26.3671875,20.5078125,0.0
126.13671875,-33.69140625,-42.96875,-29.296875,-30.76171875,17.08984375,0.0
126.140625,-46.875,-35.64453125,-31.73828125,-36.1328125,21.484375,0.0
126.14453125,-58.59375,-34.66796875,-37.109375,-35.15625,8.30078125,0.0
126.1484375,-52.734375,-39.55078125,-41.015625,-27.34375,-33.203125,0.0
126.15234375,-35.64453125,-37.59765625,-35.15625,-17.08984375,-25.87890625,0.0
126.15625,-49.8046875,-39.55078125,-35.15625,-18.5546875,-47.8515625,0.0
126.16015625,-62.01171875,-37.59765625,-31.25,-17.08984375,-30.76171875,0.0
126.1640625,-51.7578125,-26.85546875,-30.76171875,-12.20703125,50.78125,0.0
126.16796875,-44.921875,-27.83203125,-29.78515625,-9.765625,86.9140625,0.0
126.171875,-53.7109375,-41.9921875,-27.34375,-8.30078125,86.42578125,0.0
126.17578125,-56.640625,-42.96875,-28.3203125,-10.7421875,77.1484375,0.0
126.1796875,-47.36328125,-32.71484375,-29.296875,-15.625,-20.01953125,0.0
126.18359375,-51.26953125,-37.109375,-28.3203125,-19.04296875,-72.265625,0.0
126.1875,-53.22265625,-37.59765625,-25.390625,-29.296875,3.90625,0.0
126.19140625,-48.33984375,-35.64453125,-20.01953125,-38.57421875,-41.50390625,0.0
126.1953125,-41.9921875,-28.80859375,-18.5546875,-31.25,-54.6875,0.0
126.19921875,-39.55078125,-28.3203125,-24.90234375,-22.94921875,25.87890625,0.0
126.203125,-47.8515625,-36.1328125,-31.25,-33.69140625,-22.4609375,0.0
126.20703125,-57.12890625,-40.0390625,-30.76171875,-51.26953125,-111.328125,0.0
126.2109375,-47.8515625,-38.0859375,-27.83203125,-49.31640625,-145.01953125,0.0
126.21484375,-38.57421875,-29.296875,-32.71484375,-48.33984375,-132.32421875,0.0
126.21875,-51.26953125,-28.80859375,-41.50390625,-57.6171875,-108.88671875,0.0
126.22265625,-66.40625,-32.2265625,-41.50390625,-62.5,-112.3046875,0.0
126.2265625,-66.89453125,-31.73828125,-37.59765625,-57.6171875,-118.1640625,0.0
126.23046875,-54.19921875,-32.2265625,-37.59765625,-53.7109375,-75.68359375,0.0
126.234375,-34.1796875,-39.0625,-41.015625,-46.875,20.99609375,0.0
126.23828125,-22.4609375,-46.38671875,-37.59765625,-45.41015625,28.3203125,0.0
126.2421875,-43.45703125,-46.38671875,-34.1796875,-53.7109375,9.765625,0.0
126.24609375,-62.98828125,-37.59765625,-39.55078125,-59.5703125,17.578125,0.0
126.25,-56.15234375,-31.73828125,-38.0859375,-54.6875,-19.04296875,0.0
126.25390625,-43.9453125,-33.203125,-35.15625,-50.29296875,9.27734375,0.0
126.2578125,-37.109375,-27.83203125,-31.25,-48.33984375,62.98828125,0.0
126.26171875,-36.1328125,-26.3671875,-30.2734375,-46.38671875,-55.6640625,0.0
126.265625,-38.0859375,-32.71484375,-32.71484375,-39.0625,-102.05078125,0.0
126.26953125,-34.66796875,-29.296875,-29.296875,-30.2734375,-46.38671875,0.0
126.2734375,-25.390625,-23.92578125,-24.4140625,-31.73828125,-63.96484375,0.0
126.27734375,-17.08984375,-28.3203125,-26.85546875,-22.4609375,-0.9765625,0.0
126.28125,-26.3671875,-32.71484375,-30.2734375,-20.5078125,8.30078125,0.0
126.28515625,-34.1796875,-32.71484375,-22.94921875,-28.80859375,-35.15625,0.0
126.2890625,-20.99609375,-30.2734375,-19.04296875,-30.2734375,-48.828125,0.0
126.29296875,-21.97265625,-25.87890625,-21.484375,-24.4140625,-84.47265625,0.0
126.296875,-29.296875,-27.83203125,-21.484375,-23.92578125,-61.5234375,0.0
126.30078125,-34.1796875,-33.69140625,-26.85546875,-33.69140625,-40.52734375,0.0
126.3046875,-27.83203125,-28.3203125,-22.94921875,-34.66796875,8.30078125,0.0
126.30859375,-22.4609375,-29.296875,-19.53125,-28.80859375,33.203125,0.0
126.3125,-26.3671875,-40.0390625,-34.1796875,-32.2265625,-14.16015625,0.0
126.31640625,-30.2734375,-49.8046875,-41.015625,-46.875,-71.77734375,0.0
126.3203125,-31.25,-44.921875,-39.55078125,-45.8984375,-66.89453125,0.0
126.32421875,-30.76171875,-35.64453125,-33.69140625,-41.9921875,-10.7421875,0.0
126.328125,-23.4375,-31.25,-25.390625,-32.71484375,-87.890625,0.0
126.33203125,-22.4609375,-27.83203125,-32.2265625,-35.64453125,-207.03125,0.0
126.3359375,-41.015625,-25.87890625,-36.1328125,-49.31640625,-217.28515625,0.0
126.33984375,-36.62109375,-30.2734375,-27.83203125,-38.0859375,-211.42578125,0.0
126.34375,-28.80859375,-38.57421875,-26.3671875,-33.203125,-96.19140625,0.0
126.34765625,-28.80859375,-27.83203125,-23.4375,-34.1796875,-12.20703125,0.0
126.3515625,-20.01953125,-15.625,-16.6015625,-27.83203125,-127.44140625,0.0
126.35546875,-26.3671875,-28.80859375,-20.5078125,-29.78515625,-227.05078125,0.0
126.359375,-31.25,-35.64453125,-24.4140625,-28.80859375,-117.1875,0.0
126.36328125,-32.71484375,-37.109375,-27.83203125,-30.2734375,55.17578125,0.0
126.3671875,-28.80859375,-42.48046875,-28.3203125,-21.97265625,21.484375,0.0
126.37109375,-29.78515625,-38.0859375,-22.94921875,-6.8359375,13.671875,0.0
126.375,-36.1328125,-39.0625,-26.85546875,-6.8359375,-3.90625,0.0
126.37890625,-29.78515625,-41.015625,-28.3203125,-8.30078125,-27.83203125,0.0
126.3828125,-36.1328125,-44.43359375,-22.4609375,-6.8359375,39.55078125,0.0
126.38671875,-46.38671875,-48.828125,-27.34375,-14.6484375,38.57421875,0.0
126.390625,-44.43359375,-44.921875,-25.87890625,-29.296875,-7.8125,0.0
126.39453125,-35.15625,-38.57421875,-23.92578125,-28.3203125,-23.4375,0.0
126.3984375,-18.5546875,-29.296875,-29.296875,-22.94921875,-64.453125,0.0
126.40234375,-16.11328125,-41.9921875,-30.76171875,-28.3203125,-66.40625,0.0
126.40625,-19.53125,-48.828125,-31.25,-24.90234375,-85.44921875,0.0
126.41015625,-15.13671875,-35.64453125,-28.80859375,-15.13671875,-127.44140625,0.0
126.4140625,-4.8828125,-33.69140625,-23.4375,-13.18359375,-121.58203125,0.0
126.41796875,4.39453125,-32.71484375,-20.5078125,-8.7890625,23.92578125,0.0
126.421875,-1.46484375,-35.64453125,-22.94921875,-4.39453125,53.7109375,0.0
126.42578125,-8.30078125,-30.76171875,-34.1796875,-1.46484375,-25.87890625,0.0
126.4296875,-5.859375,-23.4375,-34.1796875,-10.7421875,-41.9921875,0.0
126.43359375,-2.9296875,-29.78515625,-28.3203125,-24.90234375,-73.2421875,0.0
126.4375,-11.23046875,-36.62109375,-29.296875,-17.08984375,-68.84765625,0.0
126.44140625,-23.4375,-31.25,-28.3203125,-10.25390625,-53.22265625,0.0
126.4453125,-21.97265625,-26.3671875,-25.87890625,-13.18359375,-2.44140625,0.0
126.44921875,-23.4375,-37.59765625,-30.2734375,-18.5546875,40.52734375,0.0
126.453125,-25.87890625,-49.31640625,-32.2265625,-24.4140625,49.8046875,0.0
126.45703125,-31.73828125,-47.8515625,-31.25,-25.390625,20.5078125,0.0
126.4609375,-44.921875,-43.9453125,-36.62109375,-37.109375,4.39453125,0.0
126.46484375,-41.015625,-45.41015625,-37.109375,-45.8984375,1.46484375,0.0
126.46875,-31.73828125,-41.9921875,-30.2734375,-41.9921875,11.71875,0.0
126.47265625,-21.484375,-34.1796875,-24.4140625,-38.57421875,49.8046875,0.0
126.4765625,-23.92578125,-36.62109375,-35.15625,-47.36328125,23.4375,0.0
126.48046875,-38.0859375,-37.109375,-39.55078125,-56.640625,-24.4140625,0.0
126.484375,-52.24609375,-41.50390625,-37.59765625,-67.3828125,-48.33984375,0.0
126.48828125,-72.75390625,-44.43359375,-33.203125,-75.1953125,-49.31640625,0.0
126.4921875,-68.84765625,-29.78515625,-21.484375,-56.15234375,-52.734375,0.0
126.49609375,-54.6875,-34.1796875,-26.3671875,-64.94140625,-49.8046875,0.0
126.5,-50.78125,-41.9921875,-31.73828125,-83.0078125,-65.4296875,0.0
126.50390625,-43.9453125,-36.62109375,-30.2734375,-71.77734375,-47.36328125,0.0
126.5078125,-41.50390625,-33.69140625,-23.92578125,-66.40625,3.41796875,0.0
126.51171875,-34.66796875,-30.76171875,-23.92578125,-68.84765625,-16.11328125,0.0
126.515625,-16.11328125,-32.2265625,-25.87890625,-64.94140625,-121.58203125,0.0
126.51953125,-20.5078125,-38.57421875,-29.78515625,-64.453125,-81.54296875,0.0
126.5234375,-48.828125,-42.48046875,-34.66796875,-70.80078125,46.875,0.0
126.52734375,-48.828125,-41.50390625,-40.52734375,-68.84765625,22.94921875,0.0
126.53125,-21.484375,-39.0625,-42.96875,-49.8046875,12.6953125,0.0
126.53515625,-21.97265625,-31.73828125,-38.57421875,-45.41015625,-17.578125,0.0
126.5390625,-50.29296875,-22.4609375,-43.9453125,-52.24609375,-38.0859375,0.0
126.54296875,-54.19921875,-34.66796875,-45.8984375,-51.26953125,-2.9296875,0.0
126.546875,-40.0390625,-45.8984375,-40.52734375,-48.828125,1.953125,0.0
126.55078125,-28.80859375,-42.96875,-32.71484375,-31.73828125,-38.0859375,0.0
126.5546875,-25.390625,-41.50390625,-27.83203125,-23.92578125,-32.71484375,0.0
126.55859375,-24.90234375,-38.57421875,-27.83203125,-24.4140625,-44.43359375,0.0
126.5625,-38.0859375,-36.62109375,-33.203125,-29.78515625,-95.21484375,0.0
126.56640625,-49.31640625,-34.1796875,-34.1796875,-41.015625,-149.90234375,0.0
126.5703125,-34.1796875,-33.69140625,-28.3203125,-41.9921875,-71.77734375,0.0
126.57421875,-22.94921875,-30.2734375,-23.92578125,-36.62109375,23.92578125,0.0
126.578125,-24.4140625,-32.2265625,-30.2734375,-39.55078125,-42.96875,0.0
126.58203125,-35.15625,-37.59765625,-37.109375,-38.57421875,-59.08203125,0.0
126.5859375,-48.828125,-31.73828125,-28.80859375,-32.2265625,-30.2734375,0.0
126.58984375,-50.29296875,-28.80859375,-25.390625,-31.73828125,-27.83203125,0.0
126.59375,-50.78125,-31.73828125,-28.80859375,-36.1328125,-57.12890625,0.0
126.59765625,-33.203125,-40.52734375,-25.87890625,-31.73828125,-63.4765625,0.0
126.6015625,-31.25,-47.36328125,-30.76171875,-37.109375,-23.92578125,0.0
126.60546875,-45.41015625,-41.015625,-38.57421875,-39.0625,-54.19921875,0.0
126.609375,-42.48046875,-32.2265625,-32.71484375,-33.203125,-103.02734375,0.0
126.61328125,-39.0625,-33.69140625,-31.25,-38.0859375,-132.8125,0.0
126.6171875,-29.296875,-32.71484375,-33.69140625,-43.9453125,-95.703125,0.0
126.62109375,-32.2265625,-30.2734375,-32.71484375,-50.78125,-14.16015625,0.0
126.625,-59.08203125,-36.62109375,-33.69140625,-54.6875,18.06640625,0.0
126.62890625,-71.2890625,-33.69140625,-33.203125,-50.78125,32.71484375,0.0
126.6328125,-66.89453125,-27.34375,-29.78515625,-44.921875,-4.8828125,0.0
126.63671875,-73.73046875,-31.73828125,-34.1796875,-41.9921875,28.3203125,0.0
126.640625,-63.4765625,-37.59765625,-45.8984375,-38.57421875,75.68359375,0.0
126.64453125,-39.55078125,-44.43359375,-40.0390625,-34.1796875,71.77734375,0.0
126.6484375,-40.0390625,-47.36328125,-30.2734375,-35.64453125,38.0859375,0.0
126.65234375,-51.7578125,-45.8984375,-35.15625,-33.69140625,-0.9765625,0.0
126.65625,-59.08203125,-44.43359375,-32.2265625,-30.76171875,-47.36328125,0.0
126.66015625,-58.10546875,-41.9921875,-32.2265625,-36.62109375,-38.57421875,0.0
126.6640625,-51.7578125,-36.62109375,-31.73828125,-41.50390625,41.9921875,0.0
126.66796875,-41.50390625,-33.69140625,-30.76171875,-43.45703125,61.5234375,0.0
126.671875,-34.66796875,-34.66796875,-35.15625,-39.0625,-40.52734375,0.0
126.67578125,-32.71484375,-38.57421875,-38.0859375,-36.1328125,-57.6171875,0.0
126.6796875,-39.55078125,-34.66796875,-37.109375,-36.1328125,-48.33984375,0.0
126.68359375,-51.7578125,-36.1328125,-36.1328125,-44.921875,-63.96484375,0.0
126.6875,-50.29296875,-40.0390625,-37.109375,-51.26953125,-58.59375,0.0
126.69140625,-44.921875,-41.50390625,-38.57421875,-48.33984375,-15.13671875,0.0
126.6953125,-50.78125,-33.203125,-33.69140625,-48.33984375,9.27734375,0.0
126.69921875,-44.43359375,-27.83203125,-36.1328125,-46.38671875,-16.6015625,0.0
126.703125,-32.71484375,-37.59765625,-40.0390625,-45.8984375,-50.29296875,0.0
126.70703125,-28.3203125,-37.109375,-32.71484375,-39.0625,-29.78515625,0.0
126.7109375,-35.64453125,-33.69140625,-29.78515625,-32.2265625,16.6015625,0.0
126.71484375,-43.9453125,-32.71484375,-37.109375,-26.3671875,-1.46484375,0.0
126.71875,-43.9453125,-39.0625,-41.015625,-26.85546875,2.9296875,0.0
126.72265625,-39.55078125,-38.57421875,-30.76171875,-27.83203125,-67.87109375,0.0
126.7265625,-34.1796875,-28.3203125,-23.4375,-26.3671875,-97.65625,0.0
126.73046875,-43.45703125,-30.76171875,-29.296875,-32.71484375,-89.84375,0.0
126.734375,-50.78125,-38.0859375,-30.2734375,-34.66796875,-88.8671875,0.0
126.73828125,-47.8515625,-45.41015625,-29.78515625,-43.9453125,-66.40625,0.0
126.7421875,-39.55078125,-36.1328125,-35.64453125,-30.2734375,-68.84765625,0.0
126.74609375,-36.62109375,-32.2265625,-31.73828125,-16.11328125,25.390625,0.0
126.75,-34.66796875,-40.0390625,-20.5078125,-21.97265625,65.91796875,0.0
126.75390625,-31.25,-36.1328125,-20.99609375,-15.13671875,-67.3828125,0.0
126.7578125,-33.203125,-33.203125,-21.97265625,-5.37109375,-94.23828125,0.0
126.76171875,-27.83203125,-29.296875,-16.6015625,-4.39453125,-112.3046875,0.0
126.765625,-25.87890625,-32.71484375,-24.4140625,-18.06640625,-55.6640625,0.0
126.76953125,-26.3671875,-40.52734375,-29.78515625,-32.71484375,-20.01953125,0.0
126.7734375,-24.4140625,-28.80859375,-23.4375,-26.85546875,-40.0390625,0.0
126.77734375,-27.83203125,-24.4140625,-24.4140625,-28.80859375,-37.109375,0.0
126.78125,-30.76171875,-37.109375,-30.2734375,-43.9453125,-15.625,0.0
126.78515625,-21.97265625,-31.25,-27.83203125,-41.015625,7.32421875,0.0
126.7890625,-14.16015625,-29.296875,-25.87890625,-40.0390625,-9.765625,0.0
126.79296875,-22.4609375,-39.55078125,-26.3671875,-46.38671875,-2.9296875,0.0
126.796875,-27.83203125,-41.015625,-27.34375,-48.828125,56.640625,0.0
126.80078125,-39.55078125,-38.0859375,-29.78515625,-52.24609375,9.765625,0.0
126.8046875,-40.52734375,-27.83203125,-25.87890625,-47.36328125,-81.54296875,0.0
126.80859375,-36.62109375,-29.296875,-26.85546875,-41.015625,-71.2890625,0.0
126.8125,-37.59765625,-37.59765625,-28.80859375,-38.57421875,21.97265625,0.0
126.81640625,-31.25,-30.2734375,-27.34375,-35.15625,25.390625,0.0
126.8203125,-30.76171875,-23.92578125,-30.2734375,-33.69140625,-7.32421875,0.0
126.82421875,-20.5078125,-28.3203125,-27.83203125,-30.2734375,-72.75390625,0.0
126.828125,-18.06640625,-38.0859375,-31.25,-32.2265625,-76.66015625,0.0
126.83203125,-34.66796875,-43.9453125,-39.55078125,-36.1328125,-26.3671875,0.0
126.8359375,-42.96875,-42.96875,-30.76171875,-36.62109375,10.7421875,0.0
126.83984375,-49.8046875,-38.57421875,-28.80859375,-31.25,-26.3671875,0.0
126.84375,-51.26953125,-37.109375,-36.1328125,-29.78515625,-44.921875,0.0
126.84765625,-48.828125,-33.69140625,-33.203125,-26.85546875,-0.9765625,0.0
126.8515625,-43.9453125,-34.1796875,-30.76171875,-25.87890625,16.6015625,0.0
126.85546875,-34.66796875,-34.66796875,-26.3671875,-16.11328125,75.68359375,0.0
126.859375,-34.1796875,-39.55078125,-27.83203125,-12.20703125,-23.4375,0.0
126.86328125,-42.48046875,-42.48046875,-38.0859375,-29.296875,-137.20703125,0.0
126.8671875,-41.015625,-38.57421875,-34.66796875,-28.80859375,-131.8359375,0.0
126.87109375,-25.87890625,-41.50390625,-31.25,-20.01953125,-46.38671875,0.0
126.875,-27.83203125,-40.52734375,-33.69140625,-23.92578125,-39.55078125,0.0
126.87890625,-48.828125,-41.015625,-37.59765625,-25.390625,41.50390625,0.0
126.8828125,-53.7109375,-37.109375,-32.71484375,-26.3671875,97.65625,0.0
126.88671875,-42.48046875,-30.76171875,-27.83203125,-26.3671875,23.4375,0.0
126.890625,-30.76171875,-30.76171875,-27.83203125,-23.4375,-9.27734375,0.0
126.89453125,-24.90234375,-33.203125,-23.92578125,-20.5078125,-28.3203125,0.0
126.8984375,-28.3203125,-29.296875,-25.87890625,-33.69140625,-55.17578125,0.0
126.90234375,-12.6953125,-25.390625,-25.390625,-46.38671875,-95.21484375,0.0
126.90625,-14.6484375,-37.109375,-29.296875,-42.48046875,-46.38671875,0.0
126.91015625,-35.64453125,-35.64453125,-29.296875,-37.59765625,-34.1796875,0.0
126.9140625,-39.0625,-30.76171875,-25.87890625,-37.59765625,-67.87109375,0.0
126.91796875,-39.55078125,-35.64453125,-28.3203125,-36.62109375,12.6953125,0.0
126.921875,-41.015625,-35.64453125,-33.203125,-40.52734375,-26.85546875,0.0
126.92578125,-40.52734375,-42.96875,-35.64453125,-39.55078125,-166.015625,0.0
126.9296875,-17.578125,-36.1328125,-28.80859375,-35.64453125,-102.5390625,0.0
126.93359375,-16.6015625,-27.83203125,-28.80859375,-31.73828125,9.765625,0.0
126.9375,-34.1796875,-34.1796875,-34.1796875,-27.83203125,50.78125,0.0
126.94140625,-41.9921875,-34.1796875,-29.78515625,-42.48046875,137.6953125,0.0
126.9453125,-44.43359375,-27.83203125,-23.92578125,-43.45703125,174.8046875,0.0
126.94921875,-29.296875,-27.83203125,-19.04296875,-27.83203125,5.859375,0.0
126.953125,-34.1796875,-32.2265625,-21.484375,-34.1796875,-48.33984375,0.0
126.95703125,-49.31640625,-32.71484375,-27.83203125,-35.64453125,-55.6640625,0.0
126.9609375,-40.0390625,-31.73828125,-24.4140625,-25.87890625,-51.7578125,0.0
126.96484375,-49.8046875,-35.64453125,-27.34375,-29.78515625,-36.1328125,0.0
126.96875,-48.33984375,-45.8984375,-24.90234375,-21.97265625,-102.05078125,0.0
126.97265625,-12.20703125,-45.8984375,-13.671875,-8.7890625,-68.359375,0.0
126.9765625,-14.6484375,-40.52734375,-15.13671875,-14.6484375,-79.1015625,0.0
126.98046875,-40.52734375,-37.59765625,-27.34375,-20.5078125,-140.13671875,0.0
126.984375,-46.38671875,-41.015625,-29.296875,-21.484375,-133.7890625,0.0
126.98828125,-37.59765625,-40.0390625,-20.5078125,-14.16015625,-89.35546875,0.0
126.9921875,-32.71484375,-29.78515625,-21.97265625,-8.7890625,-28.80859375,0.0
126.99609375,-28.3203125,-28.3203125,-29.296875,-10.25390625,34.66796875,0.0
127.0,-27.83203125,-31.25,-27.34375,-13.671875,81.0546875,0.0
127.00390625,-32.2265625,-30.76171875,-27.34375,-14.16015625,1.953125,0.0
127.0078125,-20.5078125,-25.390625,-24.90234375,-8.30078125,-87.40234375,0.0
127.01171875,-41.9921875,-26.85546875,-25.87890625,-17.08984375,-29.296875,0.0
127.015625,-55.6640625,-35.64453125,-30.2734375,-22.4609375,23.92578125,0.0
127.01953125,-35.15625,-33.69140625,-27.34375,-16.11328125,-33.69140625,0.0
127.0234375,-25.390625,-21.484375,-25.390625,-12.6953125,-77.63671875,0.0
127.02734375,-30.2734375,-20.5078125,-20.5078125,-19.04296875,-36.62109375,0.0
127.03125,-27.83203125,-24.4140625,-18.5546875,-24.4140625,82.51953125,0.0
127.03515625,-25.87890625,-37.109375,-33.203125,-31.73828125,-4.39453125,0.0
127.0390625,-31.25,-39.55078125,-35.64453125,-36.62109375,-41.50390625,0.0
127.04296875,-32.2265625,-41.9921875,-29.78515625,-29.296875,121.09375,0.0
127.046875,-28.80859375,-51.26953125,-26.85546875,-21.484375,63.96484375,0.0
127.05078125,-29.296875,-42.96875,-33.203125,-21.484375,-74.70703125,0.0
127.0546875,-36.62109375,-26.3671875,-41.9921875,-29.296875,-32.71484375,0.0
127.05859375,-45.8984375,-32.2265625,-39.55078125,-31.73828125,-50.29296875,0.0
127.0625,-60.546875,-47.8515625,-35.15625,-28.3203125,-59.5703125,0.0
127.06640625,-62.98828125,-43.9453125,-33.69140625,-24.90234375,-5.859375,0.0
127.0703125,-49.31640625,-33.203125,-36.62109375,-26.3671875,-71.77734375,0.0
127.07421875,-55.17578125,-39.55078125,-39.55078125,-29.78515625,-71.77734375,0.0
127.078125,-58.10546875,-44.921875,-37.59765625,-25.87890625,-2.44140625,0.0
127.08203125,-53.22265625,-40.0390625,-33.69140625,-27.83203125,14.16015625,0.0
127.0859375,-56.15234375,-32.2265625,-30.2734375,-27.34375,-21.97265625,0.0
127.08984375,-53.7109375,-30.2734375,-30.2734375,-17.08984375,-44.43359375,0.0
127.09375,-55.17578125,-34.1796875,-34.1796875,-21.97265625,0.48828125,0.0
127.09765625,-45.8984375,-34.1796875,-37.59765625,-30.76171875,-41.015625,0.0
127.1015625,-43.9453125,-29.78515625,-36.62109375,-34.66796875,-115.234375,0.0
127.10546875,-55.17578125,-31.73828125,-41.50390625,-36.1328125,-67.3828125,0.0
127.109375,-52.24609375,-41.9921875,-43.45703125,-38.57421875,-20.01953125,0.0
127.11328125,-49.31640625,-38.0859375,-34.66796875,-34.66796875,-60.05859375,0.0
127.1171875,-47.36328125,-28.3203125,-32.2265625,-29.296875,-42.48046875,0.0
127.12109375,-46.38671875,-33.69140625,-33.203125,-35.64453125,-11.23046875,0.0
127.125,-43.9453125,-36.62109375,-32.2265625,-26.85546875,-65.4296875,0.0
127.12890625,-34.1796875,-38.57421875,-30.76171875,-15.13671875,-40.52734375,0.0
127.1328125,-44.43359375,-34.1796875,-26.85546875,-24.4140625,-38.0859375,0.0
127.13671875,-48.828125,-35.64453125,-27.83203125,-34.1796875,-92.28515625,0.0
127.140625,-38.0859375,-36.1328125,-35.15625,-30.76171875,-1.953125,0.0
127.14453125,-43.9453125,-30.2734375,-40.52734375,-31.73828125,-11.71875,0.0
127.1484375,-41.9921875,-28.3203125,-30.2734375,-26.3671875,-48.33984375,0.0
127.15234375,-37.109375,-38.0859375,-30.76171875,-15.625,-1.46484375,0.0
127.15625,-35.64453125,-42.96875,-35.64453125,-9.765625,-18.5546875,0.0
127.16015625,-27.83203125,-38.57421875,-32.71484375,-15.13671875,-60.05859375,0.0
127.1640625,-34.1796875,-39.55078125,-36.62109375,-32.2265625,-73.73046875,0.0
127.16796875,-43.45703125,-35.64453125,-42.96875,-41.50390625,17.08984375,0.0
127.171875,-49.8046875,-34.66796875,-40.0390625,-49.31640625,46.875,0.0
127.17578125,-43.45703125,-32.71484375,-41.50390625,-48.33984375,-38.57421875,0.0
127.1796875,-39.55078125,-36.1328125,-46.38671875,-37.59765625,-32.2265625,0.0
127.18359375,-50.29296875,-40.0390625,-42.96875,-36.1328125,19.53125,0.0
127.1875,-48.33984375,-46.875,-43.45703125,-36.62109375,36.1328125,0.0
127.19140625,-47.8515625,-45.8984375,-37.109375,-38.0859375,2.9296875,0.0
127.1953125,-41.50390625,-31.25,-30.76171875,-29.78515625,-23.4375,0.0
127.19921875,-31.73828125,-31.25,-31.25,-24.90234375,-4.39453125,0.0
127.203125,-35.64453125,-41.50390625,-32.2265625,-35.64453125,2.44140625,0.0
127.20703125,-34.66796875,-39.55078125,-27.34375,-37.109375,3.41796875,0.0
127.2109375,-26.3671875,-28.3203125,-18.06640625,-22.94921875,15.625,0.0
127.21484375,-26.3671875,-23.92578125,-18.5546875,-26.85546875,-7.8125,0.0
127.21875,-17.08984375,-27.83203125,-19.04296875,-36.1328125,-83.984375,0.0
127.22265625,-22.94921875,-36.1328125,-28.3203125,-46.38671875,-51.26953125,0.0
127.2265625,-34.1796875,-32.2265625,-27.34375,-49.8046875,3.90625,0.0
127.23046875,-25.87890625,-30.2734375,-17.08984375,-33.203125,8.30078125,0.0
127.234375,-23.4375,-34.1796875,-26.3671875,-35.64453125,-47.8515625,0.0
127.23828125,-28.3203125,-31.73828125,-31.25,-46.875,-78.125,0.0
127.2421875,-39.0625,-22.4609375,-25.87890625,-56.640625,-50.78125,0.0
127.24609375,-43.45703125,-36.1328125,-31.73828125,-56.15234375,-64.453125,0.0
127.25,-28.3203125,-42.48046875,-27.34375,-39.0625,-107.421875,0.0
127.25390625,-16.11328125,-30.2734375,-21.97265625,-26.85546875,-8.7890625,0.0
127.2578125,-27.34375,-23.4375,-24.90234375,-30.2734375,92.28515625,0.0
127.26171875,-48.33984375,-22.4609375,-30.2734375,-48.33984375,37.109375,0.0
127.265625,-65.4296875,-26.3671875,-33.203125,-56.640625,18.06640625,0.0
127.26953125,-62.5,-31.73828125,-27.34375,-46.38671875,-4.39453125,0.0
127.2734375,-54.6875,-35.15625,-23.4375,-44.921875,24.4140625,0.0
127.27734375,-48.33984375,-34.66796875,-30.2734375,-49.8046875,50.78125,0.0
127.28125,-44.43359375,-34.66796875,-31.25,-41.015625,-43.9453125,0.0
127.28515625,-41.50390625,-28.80859375,-22.94921875,-26.85546875,-28.3203125,0.0
127.2890625,-34.66796875,-25.390625,-19.04296875,-21.97265625,-79.1015625,0.0
127.29296875,-35.64453125,-29.296875,-25.390625,-23.92578125,-140.625,0.0
127.296875,-26.85546875,-37.109375,-27.34375,-15.625,-115.72265625,0.0
127.30078125,-26.3671875,-33.203125,-29.296875,-12.6953125,-122.0703125,0.0
127.3046875,-40.0390625,-21.484375,-33.203125,-21.97265625,-28.3203125,0.0
127.30859375,-52.24609375,-21.484375,-31.25,-38.0859375,-25.390625,0.0
127.3125,-49.31640625,-32.2265625,-33.69140625,-52.734375,-113.28125,0.0
127.31640625,-31.25,-35.15625,-35.64453125,-47.8515625,-45.8984375,0.0
127.3203125,-31.25,-24.4140625,-36.1328125,-43.45703125,-35.64453125,0.0
127.32421875,-23.4375,-16.6015625,-30.2734375,-32.71484375,-67.3828125,0.0
127.328125,-11.71875,-19.53125,-21.484375,-25.87890625,-13.18359375,0.0
127.33203125,-6.8359375,-16.11328125,-24.4140625,-30.2734375,-3.90625,0.0
127.3359375,-7.8125,-13.18359375,-32.71484375,-33.69140625,-17.08984375,0.0
127.33984375,-12.20703125,-27.34375,-36.62109375,-38.0859375,-25.390625,0.0
127.34375,-4.8828125,-36.1328125,-39.55078125,-30.2734375,-74.70703125,0.0
127.34765625,-14.16015625,-32.2265625,-38.57421875,-33.69140625,-13.18359375,0.0
127.3515625,-25.87890625,-32.2265625,-39.0625,-34.66796875,95.703125,0.0
127.35546875,-32.71484375,-39.55078125,-34.1796875,-33.69140625,63.4765625,0.0
127.359375,-28.80859375,-45.41015625,-31.25,-32.71484375,-12.20703125,0.0
127.36328125,-32.71484375,-39.55078125,-41.50390625,-37.109375,-15.13671875,0.0
127.3671875,-48.828125,-31.73828125,-42.48046875,-42.96875,-37.59765625,0.0
127.37109375,-49.31640625,-37.59765625,-34.66796875,-41.015625,-97.65625,0.0
127.375,-40.0390625,-47.8515625,-31.73828125,-44.921875,-88.8671875,0.0
127.37890625,-39.55078125,-46.38671875,-29.296875,-42.48046875,-2.9296875,0.0
127.3828125,-41.015625,-33.203125,-32.2265625,-41.015625,22.94921875,0.0
127.38671875,-34.1796875,-28.80859375,-31.25,-35.15625,-56.640625,0.0
127.390625,-41.9921875,-37.59765625,-23.4375,-27.83203125,-41.015625,0.0
127.39453125,-44.921875,-43.45703125,-18.5546875,-27.34375,-10.25390625,0.0
127.3984375,-39.0625,-40.0390625,-26.3671875,-31.73828125,-160.64453125,0.0
127.40234375,-39.0625,-33.69140625,-28.3203125,-27.83203125,-149.90234375,0.0
127.40625,-34.1796875,-35.64453125,-22.4609375,-17.578125,-64.94140625,0.0
127.41015625,-16.6015625,-39.55078125,-22.4609375,-15.13671875,-41.50390625,0.0
127.4140625,-27.83203125,-33.69140625,-22.4609375,-11.23046875,-82.03125,0.0
127.41796875,-42.48046875,-29.296875,-15.625,-4.8828125,-95.703125,0.0
127.421875,-30.76171875,-34.1796875,-13.671875,-1.46484375,-36.62109375,0.0
127.42578125,-31.25,-38.0859375,-20.99609375,-5.859375,19.53125,0.0
127.4296875,-35.15625,-22.4609375,-21.484375,-10.25390625,-18.06640625,0.0
127.43359375,-35.64453125,-22.4609375,-19.04296875,-16.6015625,-5.859375,0.0
127.4375,-32.2265625,-39.55078125,-22.4609375,-14.6484375,-60.05859375,0.0
127.44140625,-30.76171875,-35.64453125,-25.390625,-11.23046875,-81.54296875,0.0
127.4453125,-20.01953125,-25.87890625,-27.34375,-13.18359375,11.71875,0.0
127.44921875,-8.30078125,-24.4140625,-29.296875,-8.7890625,3.41796875,0.0
127.453125,-28.80859375,-30.2734375,-29.78515625,-18.06640625,-45.41015625,0.0
127.45703125,-37.59765625,-26.85546875,-28.80859375,-23.4375,5.37109375,0.0
127.4609375,-46.38671875,-29.296875,-24.90234375,-24.4140625,-0.48828125,0.0
127.46484375,-50.29296875,-34.66796875,-26.85546875,-19.53125,-84.47265625,0.0
127.46875,-41.50390625,-35.15625,-24.90234375,-10.25390625,-87.890625,0.0
127.47265625,-44.921875,-30.2734375,-26.85546875,-13.18359375,6.8359375,0.0
127.4765625,-47.36328125,-26.85546875,-29.296875,-18.5546875,79.1015625,0.0
127.48046875,-41.50390625,-32.2265625,-30.2734375,-26.3671875,45.41015625,0.0
127.484375,-41.9921875,-37.109375,-32.71484375,-26.3671875,35.15625,0.0
127.48828125,-56.15234375,-41.9921875,-33.69140625,-20.99609375,21.97265625,0.0
127.4921875,-49.8046875,-30.2734375,-32.71484375,-24.90234375,-47.36328125,0.0
127.49609375,-42.48046875,-30.2734375,-34.1796875,-32.71484375,-51.7578125,0.0
127.5,-42.96875,-39.55078125,-38.0859375,-37.109375,-39.0625,0.0
127.50390625,-42.48046875,-36.1328125,-37.109375,-38.57421875,-105.95703125,0.0
127.5078125,-42.96875,-31.25,-29.296875,-27.83203125,-120.1171875,0.0
127.51171875,-41.9921875,-33.203125,-25.87890625,-21.97265625,-55.6640625,0.0
127.515625,-45.41015625,-41.50390625,-36.62109375,-34.66796875,-38.0859375,0.0
127.51953125,-47.36328125,-38.0859375,-35.64453125,-34.1796875,-20.01953125,0.0
127.5234375,-55.17578125,-30.76171875,-31.25,-26.85546875,-73.73046875,0.0
127.52734375,-45.8984375,-35.15625,-26.3671875,-20.01953125,-124.51171875,0.0
127.53125,-29.78515625,-44.921875,-26.3671875,-18.5546875,-54.19921875,0.0
127.53515625,-42.48046875,-44.43359375,-33.203125,-22.4609375,-73.73046875,0.0
127.5390625,-58.10546875,-39.0625,-36.62109375,-37.59765625,-91.30859375,0.0
127.54296875,-53.22265625,-38.57421875,-35.15625,-43.9453125,-70.80078125,0.0
127.546875,-36.62109375,-41.9921875,-39.55078125,-36.62109375,-32.2265625,0.0
127.55078125,-38.57421875,-37.59765625,-40.0390625,-34.1796875,-17.08984375,0.0
127.5546875,-46.38671875,-30.76171875,-35.15625,-36.1328125,-23.4375,0.0
127.55859375,-37.59765625,-34.1796875,-31.73828125,-36.1328125,18.06640625,0.0
127.5625,-25.87890625,-33.203125,-26.85546875,-20.01953125,-36.62109375,0.0
127.56640625,-22.94921875,-26.85546875,-24.4140625,-10.7421875,-49.31640625,0.0
127.5703125,-26.3671875,-18.06640625,-21.484375,-12.6953125,-90.8203125,0.0
127.57421875,-18.06640625,-26.3671875,-20.5078125,-13.671875,-104.00390625,0.0
127.578125,-17.578125,-45.41015625,-32.71484375,-19.53125,-118.65234375,0.0
127.58203125,-32.71484375,-43.9453125,-36.1328125,-21.97265625,-188.96484375,0.0
127.5859375,-31.25,-39.0625,-32.71484375,-10.25390625,-118.65234375,0.0
127.58984375,-21.97265625,-39.55078125,-28.3203125,-1.953125,7.8125,0.0
127.59375,-22.4609375,-30.76171875,-22.4609375,-12.6953125,-10.25390625,0.0
127.59765625,-32.2265625,-25.390625,-25.390625,-22.4609375,-112.3046875,0.0
127.6015625,-23.92578125,-31.73828125,-25.390625,-21.97265625,-127.9296875,0.0
127.60546875,-23.4375,-35.15625,-24.4140625,-15.625,12.20703125,0.0
127.609375,-27.83203125,-31.25,-26.3671875,-15.13671875,53.7109375,0.0
127.61328125,-23.92578125,-29.296875,-26.85546875,-21.484375,-7.8125,0.0
127.6171875,-39.0625,-33.69140625,-27.34375,-25.87890625,-29.78515625,0.0
127.62109375,-44.43359375,-41.9921875,-35.64453125,-29.296875,-15.13671875,0.0
127.625,-42.96875,-48.33984375,-38.57421875,-25.390625,38.57421875,0.0
127.62890625,-49.8046875,-39.0625,-35.15625,-17.578125,40.0390625,0.0
127.6328125,-46.875,-31.73828125,-30.76171875,-20.01953125,3.41796875,0.0
127.63671875,-36.1328125,-34.66796875,-28.80859375,-21.97265625,7.32421875,0.0
127.640625,-28.3203125,-30.2734375,-35.15625,-20.99609375,-55.6640625,0.0
127.64453125,-25.390625,-30.2734375,-37.59765625,-27.34375,-114.2578125,0.0
127.6484375,-30.2734375,-33.203125,-33.203125,-32.71484375,-100.5859375,0.0
127.65234375,-40.52734375,-31.73828125,-31.25,-33.69140625,-181.640625,0.0
127.65625,-34.66796875,-30.2734375,-29.78515625,-33.69140625,-116.69921875,0.0
127.66015625,-30.2734375,-18.5546875,-31.25,-34.66796875,-18.06640625,0.0
127.6640625,-36.1328125,-21.484375,-34.66796875,-38.57421875,5.37109375,0.0
127.66796875,-40.0390625,-32.2265625,-35.15625,-47.36328125,41.9921875,0.0
127.671875,-33.203125,-37.59765625,-34.1796875,-33.203125,-3.41796875,0.0
127.67578125,-32.2265625,-40.52734375,-32.71484375,-22.94921875,63.4765625,0.0
127.6796875,-36.62109375,-38.0859375,-26.85546875,-30.2734375,83.49609375,0.0
127.68359375,-36.62109375,-43.45703125,-32.2265625,-38.0859375,58.59375,0.0
127.6875,-24.90234375,-41.50390625,-26.85546875,-27.34375,59.08203125,0.0
127.69140625,-19.53125,-35.15625,-22.4609375,-15.625,-35.15625,0.0
127.6953125,-28.3203125,-30.76171875,-30.2734375,-30.76171875,-82.03125,0.0
127.69921875,-41.50390625,-25.390625,-32.71484375,-34.66796875,-41.015625,0.0
127.703125,-48.33984375,-29.296875,-32.2265625,-23.92578125,-21.97265625,0.0
127.70703125,-40.52734375,-32.2265625,-30.2734375,-18.06640625,-5.859375,0.0
127.7109375,-28.3203125,-32.71484375,-31.73828125,-11.71875,13.671875,0.0
127.71484375,-23.92578125,-34.66796875,-30.2734375,-13.671875,-15.13671875,0.0
127.71875,-25.87890625,-41.015625,-33.203125,-25.87890625,-60.546875,0.0
127.72265625,-33.203125,-48.33984375,-37.59765625,-40.0390625,-97.16796875,0.0
127.7265625,-40.0390625,-35.64453125,-21.484375,-44.921875,-116.69921875,0.0
127.73046875,-33.69140625,-29.296875,-11.23046875,-35.15625,-55.6640625,0.0
127.734375,-29.296875,-39.0625,-22.94921875,-39.0625,-0.9765625,0.0
127.73828125,-31.73828125,-42.96875,-22.94921875,-38.57421875,-89.35546875,0.0
127.7421875,-39.0625,-38.57421875,-25.87890625,-35.15625,-66.89453125,0.0
127.74609375,-41.015625,-36.1328125,-25.87890625,-39.0625,-18.06640625,0.0
127.75,-30.2734375,-26.3671875,-24.4140625,-34.66796875,-42.48046875,0.0
127.75390625,-31.73828125,-24.90234375,-29.78515625,-35.64453125,-38.0859375,0.0
127.7578125,-31.73828125,-29.296875,-32.2265625,-38.0859375,-6.8359375,0.0
127.76171875,-40.0390625,-28.3203125,-34.66796875,-40.52734375,40.0390625,0.0
127.765625,-49.8046875,-33.203125,-32.2265625,-31.25,9.27734375,0.0
127.76953125,-45.41015625,-39.55078125,-27.83203125,-25.390625,-93.75,0.0
127.7734375,-40.0390625,-28.3203125,-28.3203125,-32.2265625,-101.5625,0.0
127.77734375,-37.59765625,-21.97265625,-38.0859375,-38.0859375,-59.5703125,0.0
127.78125,-41.015625,-33.69140625,-40.0390625,-44.921875,-30.2734375,0.0
127.78515625,-44.43359375,-41.9921875,-34.1796875,-44.921875,13.18359375,0.0
127.7890625,-36.62109375,-38.57421875,-31.73828125,-31.25,62.01171875,0.0
127.79296875,-30.2734375,-32.2265625,-37.109375,-22.4609375,29.296875,0.0
127.796875,-27.83203125,-34.1796875,-38.57421875,-23.4375,12.20703125,0.0
127.80078125,-34.66796875,-41.9921875,-30.2734375,-27.34375,-47.8515625,0.0
127.8046875,-53.7109375,-37.109375,-23.92578125,-17.578125,-151.85546875,0.0
127.80859375,-44.43359375,-28.80859375,-23.92578125,-10.7421875,-104.4921875,0.0
127.8125,-22.4609375,-39.0625,-33.69140625,-17.08984375,9.765625,0.0
127.81640625,-25.87890625,-52.734375,-39.55078125,-14.16015625,61.5234375,0.0
127.8203125,-32.71484375,-42.96875,-29.296875,-7.32421875,33.69140625,0.0
127.82421875,-34.1796875,-34.66796875,-24.90234375,-4.8828125,-2.9296875,0.0
127.828125,-39.0625,-28.80859375,-32.2265625,-8.30078125,-21.484375,0.0
127.83203125,-31.25,-22.4609375,-27.34375,-3.90625,2.9296875,0.0
127.8359375,-20.5078125,-25.390625,-22.94921875,-5.859375,2.44140625,0.0
127.83984375,-22.94921875,-34.1796875,-28.3203125,-19.53125,0.0,0.0
127.84375,-29.78515625,-32.71484375,-29.296875,-25.87890625,-79.1015625,0.0
127.84765625,-41.9921875,-20.01953125,-30.76171875,-31.25,-145.99609375,0.0
127.8515625,-36.1328125,-17.08984375,-27.83203125,-21.484375,-60.05859375,0.0
127.85546875,-28.80859375,-29.296875,-28.3203125,-17.578125,-27.83203125,0.0
127.859375,-40.52734375,-44.921875,-36.1328125,-28.3203125,-59.5703125,0.0
127.86328125,-31.73828125,-44.921875,-28.3203125,-16.6015625,-64.453125,0.0
127.8671875,-21.97265625,-38.0859375,-18.06640625,-12.20703125,-95.21484375,0.0
127.87109375,-9.765625,-27.83203125,-20.5078125,-13.18359375,-85.9375,0.0
127.875,-10.25390625,-19.53125,-27.83203125,-20.99609375,13.18359375,0.0
127.87890625,-33.69140625,-25.390625,-30.2734375,-33.203125,77.1484375,0.0
127.8828125,-38.0859375,-27.83203125,-29.296875,-26.3671875,11.23046875,0.0
127.88671875,-31.25,-24.4140625,-24.90234375,-18.5546875,-38.0859375,0.0
127.890625,-29.78515625,-27.34375,-23.4375,-11.23046875,-16.6015625,0.0
127.89453125,-23.4375,-31.25,-18.06640625,4.8828125,-37.109375,0.0
127.8984375,-26.3671875,-20.5078125,-11.71875,6.8359375,-38.57421875,0.0
127.90234375,-29.296875,-21.97265625,-13.671875,-1.953125,-59.5703125,0.0
127.90625,-28.80859375,-37.59765625,-14.16015625,-4.8828125,-78.125,0.0
127.91015625,-34.1796875,-29.78515625,-12.20703125,-2.44140625,-54.6875,0.0
127.9140625,-45.41015625,-28.3203125,-13.671875,-10.25390625,-15.625,0.0
127.91796875,-50.78125,-35.15625,-26.85546875,-19.04296875,56.15234375,0.0
127.921875,-40.0390625,-40.0390625,-31.25,-22.4609375,26.3671875,0.0
127.92578125,-41.50390625,-45.41015625,-29.296875,-31.73828125,-15.625,0.0
127.9296875,-45.41015625,-38.57421875,-30.2734375,-30.2734375,-25.390625,0.0
127.93359375,-40.52734375,-32.71484375,-25.390625,-26.85546875,-74.21875,0.0
127.9375,-40.0390625,-35.15625,-25.390625,-22.4609375,-28.80859375,0.0
127.94140625,-49.31640625,-31.25,-29.296875,-31.25,20.01953125,0.0
127.9453125,-42.96875,-20.99609375,-28.80859375,-37.59765625,-89.35546875,0.0
127.94921875,-32.71484375,-25.87890625,-22.4609375,-26.85546875,-138.671875,0.0
127.953125,-37.109375,-31.73828125,-22.4609375,-20.01953125,1.46484375,0.0
127.95703125,-42.48046875,-33.203125,-24.4140625,-13.671875,43.45703125,0.0
127.9609375,-40.0390625,-33.69140625,-20.99609375,-11.71875,-30.76171875,0.0
127.96484375,-34.66796875,-18.5546875,-19.53125,-6.8359375,-12.6953125,0.0
127.96875,-35.64453125,-27.34375,-26.3671875,-9.27734375,-2.44140625,0.0
127.97265625,-38.0859375,-38.57421875,-25.87890625,-20.99609375,-28.3203125,0.0
127.9765625,-37.59765625,-31.73828125,-23.4375,-23.92578125,-1.46484375,0.0
127.98046875,-35.15625,-38.0859375,-36.1328125,-29.78515625,-11.71875,0.0
127.984375,-24.90234375,-36.1328125,-32.71484375,-32.2265625,-77.1484375,0.0
127.98828125,-33.203125,-31.25,-24.4140625,-34.66796875,-98.6328125,0.0
127.9921875,-34.66796875,-20.5078125,-22.94921875,-28.80859375,-65.91796875,0.0
127.99609375,-25.87890625,-18.06640625,-20.99609375,-19.04296875,-42.96875,0.0
128.0,-38.57421875,-31.25,-33.203125,-32.71484375,-49.8046875,0.0
128.00390625,-36.62109375,-32.2265625,-36.1328125,-37.59765625,-11.71875,0.0
128.0078125,-28.3203125,-24.90234375,-38.0859375,-43.9453125,13.671875,0.0
128.01171875,-36.62109375,-33.203125,-45.8984375,-53.22265625,-19.53125,0.0
128.015625,-42.96875,-40.0390625,-40.52734375,-61.5234375,-6.34765625,0.0
128.01953125,-41.9921875,-34.66796875,-37.59765625,-72.265625,-8.30078125,0.0
128.0234375,-41.50390625,-37.109375,-40.0390625,-73.73046875,1.953125,0.0
128.02734375,-52.734375,-39.55078125,-38.57421875,-78.125,-34.66796875,0.0
128.03125,-51.7578125,-33.69140625,-31.25,-73.73046875,-93.26171875,0.0
128.03515625,-41.9921875,-33.203125,-32.71484375,-78.125,-46.875,0.0
128.0390625,-40.0390625,-30.2734375,-33.69140625,-89.84375,3.90625,0.0
128.04296875,-51.26953125,-32.71484375,-36.1328125,-95.21484375,-50.29296875,0.0
128.046875,-48.33984375,-42.96875,-41.015625,-94.7265625,-85.9375,0.0
128.05078125,-25.390625,-38.0859375,-34.1796875,-84.47265625,-16.11328125,0.0
128.0546875,-32.2265625,-29.296875,-31.25,-80.078125,23.92578125,0.0
128.05859375,-57.6171875,-29.78515625,-33.203125,-74.70703125,16.6015625,0.0
128.0625,-53.22265625,-29.296875,-34.1796875,-64.94140625,-59.08203125,0.0
128.06640625,-43.45703125,-28.80859375,-31.73828125,-66.40625,-88.37890625,0.0
128.0703125,-49.8046875,-26.3671875,-25.390625,-64.453125,-119.140625,0.0
128.07421875,-41.50390625,-29.296875,-21.97265625,-58.10546875,-126.953125,0.0
128.078125,-20.5078125,-43.9453125,-23.4375,-54.19921875,-50.29296875,0.0
128.08203125,-30.76171875,-41.015625,-30.2734375,-47.36328125,9.765625,0.0
128.0859375,-54.19921875,-20.99609375,-37.109375,-54.6875,-17.08984375,0.0
128.08984375,-56.15234375,-19.53125,-32.2265625,-57.6171875,-20.99609375,0.0
128.09375,-47.8515625,-33.69140625,-25.390625,-45.8984375,-41.015625,0.0
128.09765625,-45.41015625,-47.8515625,-36.1328125,-48.828125,-80.56640625,0.0
128.1015625,-30.2734375,-42.48046875,-37.59765625,-44.921875,-120.1171875,0.0
128.10546875,-11.23046875,-31.73828125,-28.80859375,-36.62109375,-175.29296875,0.0
128.109375,-31.25,-27.34375,-30.2734375,-41.015625,-170.8984375,0.0
128.11328125,-51.7578125,-31.73828125,-35.64453125,-49.31640625,-149.90234375,0.0
128.1171875,-48.828125,-36.62109375,-36.62109375,-57.12890625,-141.6015625,0.0
128.12109375,-29.78515625,-37.109375,-36.1328125,-55.17578125,-164.55078125,0.0
128.125,-24.4140625,-39.55078125,-37.109375,-51.26953125,-149.90234375,0.0
128.12890625,-33.69140625,-29.296875,-32.2265625,-55.6640625,-115.234375,0.0
128.1328125,-26.85546875,-19.04296875,-23.4375,-51.26953125,-154.296875,0.0
128.13671875,-18.5546875,-21.484375,-26.85546875,-52.734375,-128.90625,0.0
128.140625,-17.08984375,-26.85546875,-38.0859375,-52.24609375,-76.66015625,0.0
128.14453125,-28.3203125,-37.59765625,-43.9453125,-47.8515625,-39.0625,0.0
128.1484375,-39.0625,-32.71484375,-37.59765625,-47.36328125,37.59765625,0.0
128.15234375,-33.203125,-19.53125,-28.3203125,-45.41015625,42.48046875,0.0
128.15625,-29.296875,-30.2734375,-29.78515625,-37.59765625,59.08203125,0.0
128.16015625,-28.80859375,-34.66796875,-31.25,-31.25,55.6640625,0.0
128.1640625,-22.94921875,-26.85546875,-26.3671875,-27.83203125,76.66015625,0.0
128.16796875,-35.15625,-31.73828125,-25.87890625,-30.2734375,99.12109375,0.0
128.171875,-49.31640625,-45.41015625,-31.73828125,-32.2265625,78.61328125,0.0
128.17578125,-35.64453125,-45.8984375,-29.78515625,-17.08984375,62.5,0.0
128.1796875,-24.4140625,-29.78515625,-24.4140625,-20.5078125,53.22265625,0.0
128.18359375,-28.80859375,-30.2734375,-30.76171875,-36.62109375,121.58203125,0.0
128.1875,-27.83203125,-44.43359375,-37.109375,-40.0390625,92.28515625,0.0
128.19140625,-16.6015625,-41.015625,-28.80859375,-35.15625,71.2890625,0.0
128.1953125,-10.25390625,-25.87890625,-24.90234375,-32.2265625,24.4140625,0.0
128.19921875,-14.16015625,-22.4609375,-31.73828125,-33.203125,-30.2734375,0.0
128.203125,-24.90234375,-32.71484375,-31.25,-30.76171875,32.71484375,0.0
128.20703125,-25.87890625,-36.1328125,-28.3203125,-36.62109375,18.06640625,0.0
128.2109375,-15.13671875,-33.69140625,-25.390625,-31.73828125,23.92578125,0.0
128.21484375,-19.04296875,-34.66796875,-27.34375,-28.80859375,34.66796875,0.0
128.21875,-20.01953125,-36.62109375,-35.15625,-31.25,-86.42578125,0.0
128.22265625,-7.32421875,-35.64453125,-31.25,-20.99609375,-74.70703125,0.0
128.2265625,-19.04296875,-32.71484375,-28.80859375,-20.01953125,-51.26953125,0.0
128.23046875,-29.78515625,-28.3203125,-28.80859375,-19.04296875,-16.6015625,0.0
128.234375,-24.4140625,-38.0859375,-30.2734375,-21.97265625,-41.50390625,0.0
128.23828125,-31.73828125,-46.38671875,-40.52734375,-38.57421875,-63.4765625,0.0
128.2421875,-37.109375,-39.0625,-33.203125,-38.0859375,-20.01953125,0.0
128.24609375,-33.69140625,-35.15625,-29.296875,-38.0859375,-3.90625,0.0
128.25,-32.71484375,-36.62109375,-37.59765625,-55.17578125,8.30078125,0.0
128.25390625,-36.62109375,-35.64453125,-40.0390625,-66.40625,14.6484375,0.0
128.2578125,-28.80859375,-27.83203125,-33.203125,-53.22265625,-9.27734375,0.0
128.26171875,-21.97265625,-27.83203125,-27.34375,-43.9453125,-66.89453125,0.0
128.265625,-29.78515625,-25.390625,-31.73828125,-55.17578125,-79.58984375,0.0
128.26953125,-23.92578125,-19.04296875,-35.64453125,-61.5234375,-26.3671875,0.0
128.2734375,-11.23046875,-20.99609375,-31.25,-56.15234375,-100.5859375,0.0
128.27734375,-32.71484375,-34.1796875,-29.78515625,-57.6171875,-177.24609375,0.0
128.28125,-61.5234375,-40.0390625,-38.0859375,-57.12890625,-81.0546875,0.0
128.28515625,-59.08203125,-29.296875,-34.66796875,-53.7109375,-51.7578125,0.0
128.2890625,-41.50390625,-24.90234375,-26.3671875,-47.36328125,-79.58984375,0.0
128.29296875,-34.66796875,-27.34375,-30.2734375,-30.2734375,-32.2265625,0.0
128.296875,-34.66796875,-30.2734375,-30.2734375,-21.484375,-46.38671875,0.0
128.30078125,-28.80859375,-35.15625,-31.25,-13.18359375,-63.4765625,0.0
128.3046875,-21.97265625,-36.1328125,-25.390625,-0.9765625,-14.16015625,0.0
128.30859375,-20.5078125,-25.390625,-19.04296875,-4.8828125,35.15625,0.0
128.3125,-13.671875,-24.90234375,-24.90234375,2.9296875,-10.7421875,0.0
128.31640625,-7.8125,-23.92578125,-28.80859375,-8.7890625,-74.70703125,0.0
128.3203125,-29.296875,-20.01953125,-30.76171875,-30.2734375,-37.109375,0.0
128.32421875,-42.96875,-25.87890625,-29.296875,-22.4609375,-2.44140625,0.0
128.328125,-34.66796875,-34.1796875,-29.78515625,-21.484375,39.0625,0.0
128.33203125,-26.85546875,-31.73828125,-32.2265625,-30.76171875,20.01953125,0.0
128.3359375,-38.57421875,-23.92578125,-36.1328125,-40.0390625,36.1328125,0.0
128.33984375,-49.31640625,-21.97265625,-34.1796875,-41.015625,70.80078125,0.0
128.34375,-34.66796875,-24.4140625,-30.76171875,-32.2265625,2.9296875,0.0
128.34765625,-13.671875,-24.90234375,-30.76171875,-27.34375,-55.17578125,0.0
128.3515625,-21.97265625,-23.92578125,-28.80859375,-21.97265625,27.34375,0.0
128.35546875,-54.19921875,-29.296875,-35.15625,-23.92578125,139.16015625,0.0
128.359375,-56.640625,-33.69140625,-37.59765625,-34.1796875,60.05859375,0.0
128.36328125,-42.48046875,-27.34375,-36.1328125,-40.52734375,-73.2421875,0.0
128.3671875,-36.62109375,-21.97265625,-31.73828125,-42.48046875,-72.75390625,0.0
128.37109375,-34.1796875,-24.90234375,-31.25,-32.2265625,-49.31640625,0.0
128.375,-38.0859375,-37.59765625,-37.109375,-26.3671875,-107.91015625,0.0
128.37890625,-60.546875,-39.55078125,-33.203125,-34.66796875,-54.6875,0.0
128.3828125,-50.78125,-31.25,-34.66796875,-34.66796875,-7.32421875,0.0
128.38671875,-40.52734375,-35.15625,-35.64453125,-33.203125,-14.16015625,0.0
128.390625,-50.29296875,-36.62109375,-31.73828125,-32.71484375,-21.484375,0.0
128.39453125,-41.015625,-34.66796875,-29.78515625,-22.4609375,-45.41015625,0.0
128.3984375,-36.1328125,-34.1796875,-27.83203125,-20.99609375,55.17578125,0.0
128.40234375,-23.92578125,-30.76171875,-30.76171875,-19.53125,79.1015625,0.0
128.40625,-23.4375,-35.64453125,-26.85546875,-10.7421875,11.71875,0.0
128.41015625,-39.0625,-39.55078125,-21.484375,-19.53125,-7.32421875,0.0
128.4140625,-37.109375,-33.203125,-22.94921875,-20.5078125,16.11328125,0.0
128.41796875,-25.87890625,-43.45703125,-29.296875,-12.20703125,27.83203125,0.0
128.421875,-21.97265625,-47.36328125,-32.71484375,-20.99609375,25.87890625,0.0
128.42578125,-8.30078125,-34.66796875,-27.83203125,-17.578125,-21.97265625,0.0
128.4296875,-15.13671875,-30.76171875,-29.296875,-9.765625,-55.6640625,0.0
128.43359375,-29.78515625,-33.203125,-30.2734375,-9.765625,-51.7578125,0.0
128.4375,-35.15625,-33.69140625,-34.1796875,-11.23046875,-20.99609375,0.0
128.44140625,-37.59765625,-32.2265625,-38.0859375,-18.06640625,-6.8359375,0.0
128.4453125,-32.2265625,-33.203125,-32.2265625,-13.18359375,-80.078125,0.0
128.44921875,-37.59765625,-34.1796875,-27.34375,-3.90625,-63.96484375,0.0
128.453125,-41.9921875,-33.69140625,-26.3671875,-1.46484375,-66.89453125,0.0
128.45703125,-36.62109375,-32.2265625,-23.4375,-4.39453125,-130.37109375,0.0
128.4609375,-27.83203125,-27.34375,-22.4609375,-11.71875,-166.015625,0.0
128.46484375,-19.53125,-27.83203125,-19.04296875,-11.23046875,-172.8515625,0.0
128.46875,-11.71875,-30.76171875,-19.04296875,-1.46484375,-126.46484375,0.0
128.47265625,-20.99609375,-28.3203125,-23.4375,-1.953125,-119.140625,0.0
128.4765625,-37.59765625,-27.83203125,-24.4140625,-14.16015625,-114.2578125,0.0
128.48046875,-26.85546875,-34.66796875,-20.01953125,-15.625,-39.55078125,0.0
128.484375,-23.92578125,-35.15625,-17.08984375,-5.859375,-3.41796875,0.0
128.48828125,-26.85546875,-32.2265625,-20.99609375,0.0,-19.04296875,0.0
128.4921875,-18.06640625,-32.2265625,-20.5078125,9.27734375,10.7421875,0.0
128.49609375,-8.7890625,-36.1328125,-14.6484375,15.625,68.84765625,0.0
128.5,-0.48828125,-37.59765625,-16.6015625,1.953125,13.671875,0.0
128.50390625,-17.08984375,-32.2265625,-22.4609375,-13.671875,-28.3203125,0.0
128.5078125,-26.3671875,-28.80859375,-20.99609375,-14.6484375,24.90234375,0.0
128.51171875,-26.3671875,-29.78515625,-22.4609375,-20.5078125,47.36328125,0.0
128.515625,-26.85546875,-43.45703125,-26.3671875,-27.34375,-22.94921875,0.0
128.51953125,-20.5078125,-41.9921875,-20.99609375,-14.6484375,-34.66796875,0.0
128.5234375,-26.85546875,-34.66796875,-23.92578125,-15.625,-72.75390625,0.0
128.52734375,-40.0390625,-41.015625,-35.64453125,-26.85546875,-37.109375,0.0
128.53125,-39.55078125,-40.0390625,-29.78515625,-18.5546875,-0.9765625,0.0
128.53515625,-27.34375,-37.59765625,-24.4140625,-14.6484375,-160.15625,0.0
128.5390625,-35.15625,-37.109375,-23.4375,-22.94921875,-170.41015625,0.0
128.54296875,-49.31640625,-28.80859375,-21.97265625,-24.4140625,-90.33203125,0.0
128.546875,-34.66796875,-26.85546875,-23.4375,-20.01953125,-8.7890625,0.0
128.55078125,-32.2265625,-35.15625,-23.92578125,-27.83203125,-42.96875,0.0
128.5546875,-40.52734375,-20.99609375,-24.4140625,-31.25,-56.15234375,0.0
128.55859375,-40.52734375,-20.5078125,-27.83203125,-31.73828125,-78.125,0.0
128.5625,-35.15625,-30.2734375,-26.3671875,-34.66796875,-151.85546875,0.0
128.56640625,-23.4375,-29.296875,-27.34375,-28.80859375,-114.74609375,0.0
128.5703125,-26.85546875,-22.4609375,-26.85546875,-27.83203125,-52.24609375,0.0
128.57421875,-25.390625,-16.11328125,-28.80859375,-20.01953125,-107.421875,0.0
128.578125,-28.80859375,-17.578125,-34.1796875,-22.94921875,-115.72265625,0.0
128.58203125,-42.48046875,-26.85546875,-28.3203125,-32.71484375,-19.53125,0.0
128.5859375,-31.73828125,-25.87890625,-26.85546875,-32.71484375,-56.640625,0.0
128.58984375,-39.55078125,-27.34375,-22.94921875,-30.2734375,-109.86328125,0.0
128.59375,-55.17578125,-39.0625,-21.97265625,-36.1328125,-77.63671875,0.0
128.59765625,-51.26953125,-32.71484375,-27.83203125,-42.48046875,-89.84375,0.0
128.6015625,-51.26953125,-20.5078125,-27.83203125,-35.64453125,-104.00390625,0.0
128.60546875,-48.828125,-24.90234375,-32.71484375,-33.69140625,14.6484375,0.0
128.609375,-35.64453125,-34.66796875,-32.2265625,-30.2734375,83.984375,0.0
128.61328125,-40.52734375,-43.45703125,-34.1796875,-31.73828125,101.07421875,0.0
128.6171875,-41.50390625,-38.0859375,-33.69140625,-24.4140625,83.984375,0.0
128.62109375,-35.15625,-34.1796875,-27.34375,-28.80859375,17.578125,0.0
128.625,-42.96875,-38.0859375,-27.83203125,-45.8984375,-57.6171875,0.0
128.62890625,-45.8984375,-36.1328125,-29.78515625,-45.41015625,-27.34375,0.0
128.6328125,-21.484375,-34.1796875,-31.25,-42.96875,1.46484375,0.0
128.63671875,-20.99609375,-33.203125,-32.2265625,-42.48046875,-1.46484375,0.0
128.640625,-40.52734375,-29.78515625,-34.66796875,-43.45703125,7.8125,0.0
128.64453125,-41.015625,-31.73828125,-39.55078125,-41.50390625,-23.4375,0.0
128.6484375,-44.43359375,-33.203125,-37.59765625,-41.9921875,-20.01953125,0.0
128.65234375,-40.0390625,-34.1796875,-34.1796875,-46.875,20.01953125,0.0
128.65625,-29.78515625,-45.8984375,-34.66796875,-52.734375,13.18359375,0.0
128.66015625,-41.9921875,-50.29296875,-39.0625,-61.5234375,-1.46484375,0.0
128.6640625,-52.734375,-46.38671875,-38.0859375,-63.96484375,-50.78125,0.0
128.66796875,-59.08203125,-45.8984375,-33.203125,-62.01171875,-73.2421875,0.0
128.671875,-50.78125,-37.109375,-31.25,-55.17578125,-55.6640625,0.0
128.67578125,-35.15625,-32.71484375,-25.390625,-43.9453125,-64.94140625,0.0
128.6796875,-31.25,-37.109375,-38.57421875,-43.9453125,-44.43359375,0.0
128.68359375,-33.69140625,-39.55078125,-44.43359375,-43.45703125,-5.37109375,0.0
128.6875,-36.1328125,-41.9921875,-40.52734375,-33.69140625,-33.203125,0.0
128.69140625,-24.90234375,-34.66796875,-40.0390625,-26.85546875,-69.82421875,0.0
128.6953125,-29.78515625,-33.69140625,-40.0390625,-27.83203125,-68.84765625,0.0
128.69921875,-42.48046875,-45.41015625,-41.50390625,-27.34375,-68.84765625,0.0
128.703125,-32.71484375,-50.29296875,-40.0390625,-21.484375,-75.1953125,0.0
128.70703125,-29.78515625,-49.8046875,-38.57421875,-20.99609375,-6.34765625,0.0
128.7109375,-35.15625,-44.921875,-33.69140625,-19.53125,2.44140625,0.0
128.71484375,-30.2734375,-43.45703125,-34.1796875,-21.97265625,-62.98828125,0.0
128.71875,-20.99609375,-42.96875,-40.0390625,-31.73828125,-43.45703125,0.0
128.72265625,-37.109375,-42.48046875,-45.41015625,-44.921875,-26.85546875,0.0
128.7265625,-50.78125,-41.9921875,-46.38671875,-45.41015625,-54.6875,0.0
128.73046875,-34.66796875,-40.52734375,-40.52734375,-41.9921875,-53.7109375,0.0
128.734375,-22.4609375,-41.015625,-35.15625,-37.109375,-56.15234375,0.0
128.73828125,-27.34375,-44.43359375,-28.80859375,-42.96875,-104.4921875,0.0
128.7421875,-13.18359375,-40.0390625,-35.64453125,-46.38671875,-68.359375,0.0
128.74609375,4.8828125,-33.69140625,-50.29296875,-46.875,-19.53125,0.0
128.75,-10.7421875,-33.69140625,-34.1796875,-55.6640625,8.30078125,0.0
128.75390625,-35.15625,-35.64453125,-27.34375,-57.6171875,38.0859375,0.0
128.7578125,-41.50390625,-41.9921875,-29.296875,-56.640625,28.80859375,0.0
128.76171875,-40.52734375,-47.36328125,-26.3671875,-51.26953125,-4.39453125,0.0
128.765625,-37.59765625,-47.36328125,-26.3671875,-42.48046875,-12.20703125,0.0
128.76953125,-35.64453125,-46.38671875,-28.3203125,-34.1796875,-14.6484375,0.0
128.7734375,-31.73828125,-41.015625,-27.83203125,-30.76171875,44.921875,0.0
128.77734375,-25.87890625,-42.48046875,-27.83203125,-38.0859375,89.84375,0.0
128.78125,-31.25,-41.50390625,-28.3203125,-44.43359375,33.203125,0.0
128.78515625,-36.62109375,-37.59765625,-24.4140625,-39.55078125,-24.4140625,0.0
128.7890625,-8.7890625,-34.1796875,-17.578125,-26.85546875,47.36328125,0.0
128.79296875,-9.27734375,-34.1796875,-16.11328125,-13.18359375,51.26953125,0.0
128.796875,-46.875,-41.9921875,-21.484375,-11.23046875,-71.2890625,0.0
128.80078125,-52.734375,-44.43359375,-21.97265625,-19.53125,-59.08203125,0.0
128.8046875,-41.50390625,-36.62109375,-20.5078125,-15.625,-68.84765625,0.0
128.80859375,-41.50390625,-34.66796875,-20.99609375,-16.11328125,-92.28515625,0.0
128.8125,-42.96875,-37.59765625,-20.5078125,-20.5078125,-37.59765625,0.0
128.81640625,-29.296875,-44.921875,-26.3671875,-16.6015625,-18.5546875,0.0
128.8203125,-23.4375,-42.96875,-32.71484375,-7.8125,21.484375,0.0
128.82421875,-40.0390625,-37.109375,-32.2265625,-0.48828125,44.921875,0.0
128.828125,-33.69140625,-32.71484375,-29.296875,1.953125,4.39453125,0.0
128.83203125,-22.4609375,-29.296875,-26.3671875,-4.39453125,-44.921875,0.0
128.8359375,-34.66796875,-23.4375,-30.76171875,-11.23046875,-87.890625,0.0
128.83984375,-40.0390625,-30.2734375,-33.203125,-8.7890625,-71.77734375,0.0
128.84375,-34.66796875,-38.57421875,-20.01953125,-9.765625,-25.390625,0.0
128.84765625,-35.15625,-30.76171875,-19.04296875,-14.6484375,-61.5234375,0.0
128.8515625,-19.53125,-22.4609375,-20.99609375,-7.32421875,-113.76953125,0.0
128.85546875,-11.71875,-24.4140625,-24.90234375,-6.34765625,-165.52734375,0.0
128.859375,-12.6953125,-32.71484375,-33.69140625,-18.06640625,-205.078125,0.0
128.86328125,-4.8828125,-23.4375,-30.2734375,-14.16015625,-146.97265625,0.0
128.8671875,-12.20703125,-14.6484375,-28.3203125,-7.8125,-93.26171875,0.0
128.87109375,-31.73828125,-23.92578125,-27.34375,-12.20703125,-81.0546875,0.0
128.875,-41.50390625,-27.34375,-22.94921875,-16.6015625,34.66796875,0.0
128.87890625,-31.25,-24.90234375,-16.11328125,-12.6953125,33.203125,0.0
128.8828125,-22.4609375,-20.5078125,-20.01953125,-8.7890625,-7.32421875,0.0
128.88671875,-21.97265625,-15.625,-26.3671875,-6.34765625,41.015625,0.0
128.890625,-34.66796875,-27.83203125,-30.2734375,-11.71875,102.05078125,0.0
128.89453125,-36.1328125,-37.109375,-33.69140625,-12.20703125,20.01953125,0.0
128.8984375,-27.83203125,-25.87890625,-22.94921875,-11.23046875,-56.15234375,0.0
128.90234375,-32.71484375,-21.97265625,-25.87890625,-26.85546875,29.296875,0.0
128.90625,-41.9921875,-20.5078125,-39.0625,-38.0859375,8.30078125,0.0
128.91015625,-47.8515625,-22.4609375,-38.0859375,-37.59765625,-35.15625,0.0
128.9140625,-44.43359375,-26.85546875,-35.64453125,-41.015625,-6.8359375,0.0
128.91796875,-38.57421875,-24.4140625,-36.1328125,-41.9921875,53.22265625,0.0
128.921875,-31.73828125,-21.97265625,-28.80859375,-37.59765625,38.57421875,0.0
128.92578125,-39.55078125,-29.296875,-30.76171875,-43.9453125,16.11328125,0.0
128.9296875,-43.9453125,-24.90234375,-30.76171875,-43.9453125,54.19921875,0.0
128.93359375,-38.57421875,-22.94921875,-29.78515625,-45.41015625,34.1796875,0.0
128.9375,-46.38671875,-32.71484375,-37.109375,-55.6640625,-106.93359375,0.0
128.94140625,-54.6875,-32.71484375,-33.203125,-57.6171875,-169.43359375,0.0
128.9453125,-39.0625,-26.3671875,-21.97265625,-61.03515625,-116.69921875,0.0
128.94921875,-26.3671875,-27.83203125,-26.3671875,-62.98828125,-96.6796875,0.0
128.953125,-41.9921875,-32.2265625,-40.52734375,-63.4765625,-44.921875,0.0
128.95703125,-49.8046875,-33.69140625,-33.69140625,-59.08203125,81.0546875,0.0
128.9609375,-45.8984375,-37.59765625,-30.2734375,-55.6640625,32.71484375,0.0
128.96484375,-42.96875,-40.0390625,-36.1328125,-59.08203125,-65.91796875,0.0
128.96875,-42.96875,-38.0859375,-35.64453125,-53.22265625,-56.640625,0.0
128.97265625,-56.640625,-32.71484375,-38.57421875,-51.7578125,-47.8515625,0.0
128.9765625,-67.3828125,-27.83203125,-37.109375,-52.734375,-32.71484375,0.0
128.98046875,-55.17578125,-34.1796875,-23.92578125,-41.9921875,-44.43359375,0.0
128.984375,-49.31640625,-45.41015625,-22.4609375,-40.0390625,-66.89453125,0.0
128.98828125,-38.0859375,-42.96875,-28.3203125,-37.109375,-56.15234375,0.0
128.9921875,-18.5546875,-33.203125,-20.01953125,-25.390625,-66.89453125,0.0
128.99609375,-21.97265625,-29.78515625,-15.625,-26.3671875,-67.87109375,0.0
129.0,-26.3671875,-26.85546875,-20.5078125,-27.83203125,-21.484375,0.0
129.00390625,-23.4375,-24.90234375,-22.4609375,-31.73828125,6.8359375,0.0
129.0078125,-22.4609375,-23.4375,-19.04296875,-31.73828125,-73.2421875,0.0
129.01171875,-13.671875,-23.4375,-15.625,-24.4140625,-67.3828125,0.0
129.015625,-24.90234375,-27.83203125,-23.92578125,-31.73828125,-60.546875,0.0
129.01953125,-33.203125,-28.3203125,-27.83203125,-29.296875,-134.765625,0.0
129.0234375,-25.87890625,-16.6015625,-23.4375,-26.3671875,-102.5390625,0.0
129.02734375,-37.109375,-21.484375,-17.578125,-24.90234375,-39.0625,0.0
129.03125,-33.69140625,-36.1328125,-19.53125,-19.04296875,-50.78125,0.0
129.03515625,-11.71875,-36.1328125,-24.90234375,-16.11328125,-90.33203125,0.0
129.0390625,-4.39453125,-34.1796875,-25.390625,-10.25390625,-92.7734375,0.0
129.04296875,-20.5078125,-35.64453125,-24.90234375,-12.6953125,-14.6484375,0.0
129.046875,-40.0390625,-32.2265625,-23.92578125,-13.671875,-0.48828125,0.0
129.05078125,-47.8515625,-28.3203125,-26.3671875,-12.20703125,18.5546875,0.0
129.0546875,-41.015625,-34.1796875,-33.69140625,-23.92578125,41.9921875,0.0
129.05859375,-34.1796875,-32.71484375,-40.52734375,-33.69140625,10.25390625,0.0
129.0625,-34.1796875,-31.25,-42.96875,-33.69140625,-6.8359375,0.0
129.06640625,-38.0859375,-31.73828125,-36.62109375,-34.66796875,-44.43359375,0.0
129.0703125,-47.36328125,-21.97265625,-26.3671875,-28.80859375,10.25390625,0.0
129.07421875,-54.19921875,-25.87890625,-31.25,-23.4375,59.5703125,0.0
129.078125,-58.10546875,-37.59765625,-38.57421875,-22.4609375,-17.08984375,0.0
129.08203125,-54.19921875,-46.875,-39.0625,-14.16015625,-67.87109375,0.0
129.0859375,-44.921875,-41.015625,-35.64453125,-13.671875,-67.3828125,0.0
129.08984375,-43.9453125,-31.25,-30.2734375,-16.6015625,39.0625,0.0
129.09375,-40.0390625,-31.73828125,-31.25,-6.8359375,98.14453125,0.0
129.09765625,-29.296875,-35.15625,-29.78515625,-2.44140625,-22.4609375,0.0
129.1015625,-25.87890625,-39.0625,-23.92578125,7.32421875,-49.8046875,0.0
129.10546875,-25.87890625,-34.66796875,-16.6015625,13.18359375,46.875,0.0
129.109375,-31.25,-25.87890625,-21.484375,0.0,83.49609375,0.0
129.11328125,-26.3671875,-20.5078125,-20.99609375,-8.30078125,18.5546875,0.0
129.1171875,-27.34375,-21.97265625,-19.04296875,-13.18359375,-38.0859375,0.0
129.12109375,-49.8046875,-34.66796875,-32.2265625,-16.6015625,-65.4296875,0.0
129.125,-47.8515625,-38.57421875,-35.15625,-16.11328125,-40.52734375,0.0
129.12890625,-28.80859375,-32.2265625,-25.87890625,-16.6015625,-56.640625,0.0
129.1328125,-20.5078125,-29.296875,-29.78515625,-18.06640625,-51.7578125,0.0
129.13671875,-22.4609375,-28.3203125,-35.15625,-26.3671875,28.3203125,0.0
129.140625,-24.4140625,-27.34375,-31.73828125,-28.80859375,52.24609375,0.0
129.14453125,-23.4375,-30.76171875,-35.64453125,-21.97265625,3.90625,0.0
129.1484375,-17.08984375,-24.4140625,-39.0625,-20.5078125,36.62109375,0.0
129.15234375,-11.71875,-19.53125,-36.1328125,-27.83203125,6.34765625,0.0
129.15625,-15.13671875,-20.01953125,-35.64453125,-31.25,-78.125,0.0
129.16015625,-31.73828125,-20.5078125,-36.62109375,-32.2265625,-47.8515625,0.0
129.1640625,-31.73828125,-25.87890625,-36.1328125,-30.2734375,8.30078125,0.0
129.16796875,-28.80859375,-23.92578125,-32.71484375,-24.4140625,-26.85546875,0.0
129.171875,-42.96875,-29.296875,-37.109375,-43.9453125,-40.52734375,0.0
129.17578125,-37.59765625,-39.55078125,-42.48046875,-57.6171875,-30.2734375,0.0
129.1796875,-26.85546875,-35.64453125,-38.57421875,-47.8515625,-27.83203125,0.0
129.18359375,-33.203125,-31.25,-28.3203125,-44.921875,-29.78515625,0.0
129.1875,-38.57421875,-31.73828125,-25.87890625,-43.45703125,-34.1796875,0.0
129.19140625,-34.1796875,-27.34375,-25.87890625,-38.57421875,-8.30078125,0.0
129.1953125,-41.50390625,-33.69140625,-25.390625,-40.0390625,38.0859375,0.0
129.19921875,-38.0859375,-37.109375,-29.78515625,-41.50390625,38.0859375,0.0
129.203125,-15.13671875,-39.55078125,-22.94921875,-36.62109375,-12.6953125,0.0
129.20703125,-6.8359375,-39.0625,-13.18359375,-30.76171875,-92.28515625,0.0
129.2109375,-15.13671875,-29.78515625,-18.06640625,-29.78515625,-107.91015625,0.0
129.21484375,-11.71875,-33.203125,-23.92578125,-30.2734375,-58.59375,0.0
129.21875,-11.71875,-37.59765625,-25.87890625,-23.92578125,-37.59765625,0.0
129.22265625,-25.390625,-37.109375,-27.83203125,-23.92578125,-26.85546875,0.0
129.2265625,-33.69140625,-36.1328125,-26.3671875,-25.87890625,65.91796875,0.0
129.23046875,-32.2265625,-34.1796875,-21.484375,-21.484375,36.62109375,0.0
129.234375,-22.4609375,-34.1796875,-22.94921875,-22.94921875,18.5546875,0.0
129.23828125,-27.34375,-34.66796875,-31.25,-31.73828125,43.9453125,0.0
129.2421875,-33.203125,-35.64453125,-34.66796875,-40.52734375,-5.37109375,0.0
129.24609375,-20.5078125,-37.109375,-35.64453125,-38.57421875,-87.890625,0.0
129.25,-11.23046875,-30.2734375,-34.1796875,-37.109375,-109.375,0.0
129.25390625,-13.18359375,-27.83203125,-31.73828125,-38.0859375,-89.35546875,0.0
129.2578125,-34.66796875,-32.2265625,-34.1796875,-41.015625,-87.40234375,0.0
129.26171875,-31.73828125,-35.15625,-37.59765625,-36.62109375,-131.8359375,0.0
129.265625,-22.94921875,-37.59765625,-36.62109375,-39.0625,-110.83984375,0.0
129.26953125,-36.62109375,-41.50390625,-36.1328125,-56.15234375,-27.34375,0.0
129.2734375,-45.8984375,-37.59765625,-37.109375,-64.453125,-40.0390625,0.0
129.27734375,-40.52734375,-38.57421875,-34.66796875,-63.4765625,-146.97265625,0.0
129.28125,-39.55078125,-38.57421875,-33.69140625,-71.2890625,-89.35546875,0.0
129.28515625,-41.015625,-32.71484375,-36.1328125,-73.73046875,-20.5078125,0.0
129.2890625,-32.2265625,-30.2734375,-34.1796875,-64.453125,-85.9375,0.0
129.29296875,-38.0859375,-33.69140625,-30.76171875,-62.5,-33.69140625,0.0
129.296875,-61.5234375,-41.9921875,-36.62109375,-57.6171875,-50.29296875,0.0
129.30078125,-59.5703125,-46.38671875,-36.62109375,-52.24609375,-90.8203125,0.0
129.3046875,-44.921875,-36.62109375,-27.83203125,-50.29296875,-62.01171875,0.0
129.30859375,-43.9453125,-34.1796875,-29.296875,-55.17578125,-39.0625,0.0
129.3125,-27.83203125,-39.55078125,-33.203125,-59.08203125,-47.8515625,0.0
129.31640625,-31.73828125,-40.0390625,-34.66796875,-65.91796875,-41.50390625,0.0
129.3203125,-48.33984375,-41.50390625,-39.55078125,-72.265625,-10.7421875,0.0
129.32421875,-44.43359375,-44.921875,-41.50390625,-73.73046875,-24.4140625,0.0
129.328125,-48.33984375,-47.8515625,-47.36328125,-75.1953125,-1.46484375,0.0
129.33203125,-41.50390625,-50.78125,-47.8515625,-67.3828125,-1.953125,0.0
129.3359375,-30.2734375,-45.8984375,-38.0859375,-60.05859375,-63.96484375,0.0
129.33984375,-26.85546875,-41.50390625,-39.0625,-58.59375,-83.49609375,0.0
129.34375,-36.1328125,-45.8984375,-44.921875,-59.5703125,-82.51953125,0.0
129.34765625,-39.0625,-41.50390625,-42.96875,-41.015625,-51.26953125,0.0
129.3515625,-36.62109375,-29.78515625,-37.59765625,-34.1796875,8.7890625,0.0
129.35546875,-41.50390625,-31.25,-35.15625,-54.19921875,-6.34765625,0.0
129.359375,-37.59765625,-42.48046875,-39.0625,-52.734375,-14.16015625,0.0
129.36328125,-28.80859375,-42.96875,-37.109375,-29.78515625,65.91796875,0.0
129.3671875,-34.66796875,-40.52734375,-27.34375,-34.1796875,44.43359375,0.0
129.37109375,-25.87890625,-42.48046875,-24.90234375,-46.875,-18.06640625,0.0
129.375,-19.53125,-42.48046875,-30.2734375,-45.8984375,-10.7421875,0.0
129.37890625,-25.390625,-30.2734375,-39.0625,-55.17578125,-5.37109375,0.0
129.3828125,-32.71484375,-23.4375,-46.38671875,-58.10546875,-37.59765625,0.0
129.38671875,-33.203125,-28.80859375,-40.52734375,-38.0859375,-76.171875,0.0
129.390625,-27.34375,-25.390625,-31.25,-33.69140625,-56.640625,0.0
129.39453125,-25.87890625,-21.484375,-33.69140625,-52.734375,-73.2421875,0.0
129.3984375,-31.73828125,-20.5078125,-37.59765625,-60.546875,-104.4921875,0.0
129.40234375,-46.875,-22.94921875,-29.78515625,-55.17578125,-73.2421875,0.0
129.40625,-37.59765625,-32.2265625,-28.3203125,-52.24609375,-42.96875,0.0
129.41015625,-12.20703125,-32.2265625,-27.83203125,-50.78125,-16.11328125,0.0
129.4140625,-14.16015625,-28.3203125,-25.390625,-32.71484375,15.625,0.0
129.41796875,-37.109375,-39.0625,-35.15625,-37.109375,-30.76171875,0.0
129.421875,-37.59765625,-41.9921875,-32.71484375,-57.6171875,-93.26171875,0.0
129.42578125,-34.1796875,-38.57421875,-28.3203125,-56.640625,-117.1875,0.0
129.4296875,-22.4609375,-32.71484375,-30.2734375,-59.08203125,-117.67578125,0.0
129.43359375,-14.16015625,-33.203125,-36.62109375,-63.96484375,-58.59375,0.0
129.4375,-31.73828125,-39.55078125,-37.59765625,-76.171875,-31.73828125,0.0
129.44140625,-41.015625,-38.57421875,-33.203125,-88.37890625,-19.04296875,0.0
129.4453125,-33.203125,-34.1796875,-33.69140625,-81.54296875,-58.59375,0.0
129.44921875,-28.80859375,-33.69140625,-38.57421875,-83.0078125,-79.1015625,0.0
129.453125,-23.92578125,-38.0859375,-39.0625,-77.63671875,6.34765625,0.0
129.45703125,-26.3671875,-37.109375,-36.62109375,-65.4296875,-10.7421875,0.0
129.4609375,-39.55078125,-41.015625,-33.203125,-62.01171875,-36.62109375,0.0
129.46484375,-46.875,-43.9453125,-29.78515625,-71.2890625,-43.9453125,0.0
129.46875,-43.9453125,-32.71484375,-24.90234375,-70.3125,-19.53125,0.0
129.47265625,-37.59765625,-26.3671875,-19.04296875,-57.12890625,16.11328125,0.0
129.4765625,-27.34375,-22.4609375,-22.4609375,-58.10546875,-34.66796875,0.0
129.48046875,-16.6015625,-30.76171875,-26.85546875,-60.05859375,2.9296875,0.0
129.484375,-26.3671875,-37.59765625,-30.2734375,-74.70703125,45.41015625,0.0
129.48828125,-34.1796875,-26.3671875,-32.71484375,-81.54296875,-3.90625,0.0
129.4921875,-36.1328125,-22.94921875,-31.25,-79.1015625,-36.62109375,0.0
129.49609375,-41.50390625,-32.2265625,-34.1796875,-91.30859375,-119.62890625,0.0
129.5,-38.0859375,-43.9453125,-33.69140625,-92.7734375,-166.9921875,0.0
129.50390625,-38.57421875,-46.875,-24.4140625,-85.9375,-72.265625,0.0
129.5078125,-44.921875,-40.0390625,-21.97265625,-85.44921875,18.5546875,0.0
129.51171875,-42.96875,-40.52734375,-34.1796875,-83.984375,74.21875,0.0
129.515625,-45.41015625,-43.9453125,-42.48046875,-83.984375,40.52734375,0.0
129.51953125,-47.8515625,-46.38671875,-38.0859375,-83.984375,7.32421875,0.0
129.5234375,-52.24609375,-45.8984375,-41.9921875,-87.40234375,69.82421875,0.0
129.52734375,-57.6171875,-44.921875,-41.015625,-88.8671875,41.015625,0.0
129.53125,-43.9453125,-41.9921875,-41.9921875,-77.1484375,-18.5546875,0.0
129.53515625,-41.015625,-41.9921875,-43.9453125,-80.56640625,26.3671875,0.0
129.5390625,-47.8515625,-50.78125,-41.50390625,-85.9375,63.4765625,0.0
129.54296875,-55.17578125,-53.7109375,-46.38671875,-84.9609375,41.50390625,0.0
129.546875,-59.5703125,-56.15234375,-46.875,-76.66015625,-0.9765625,0.0
129.55078125,-49.31640625,-48.33984375,-33.203125,-62.5,-96.6796875,0.0
129.5546875,-41.9921875,-42.96875,-32.71484375,-63.96484375,-86.9140625,0.0
129.55859375,-41.9921875,-47.36328125,-38.0859375,-65.91796875,30.76171875,0.0
129.5625,-30.76171875,-42.96875,-36.1328125,-58.59375,82.51953125,0.0
129.56640625,-36.1328125,-32.2265625,-36.62109375,-59.5703125,61.5234375,0.0
129.5703125,-42.48046875,-33.203125,-37.109375,-62.98828125,-14.6484375,0.0
129.57421875,-44.921875,-37.59765625,-36.62109375,-63.4765625,-38.0859375,0.0
129.578125,-46.38671875,-37.109375,-36.1328125,-62.98828125,-35.15625,0.0
129.58203125,-40.0390625,-33.203125,-30.76171875,-49.31640625,-61.5234375,0.0
129.5859375,-43.45703125,-28.3203125,-30.76171875,-47.8515625,-20.5078125,0.0
129.58984375,-48.828125,-27.83203125,-38.0859375,-52.734375,-44.43359375,0.0
129.59375,-43.45703125,-28.3203125,-42.96875,-41.9921875,-25.390625,0.0
129.59765625,-44.43359375,-35.64453125,-45.41015625,-37.109375,-28.3203125,0.0
129.6015625,-47.8515625,-39.55078125,-39.55078125,-42.48046875,-96.6796875,0.0
129.60546875,-44.43359375,-34.1796875,-29.78515625,-44.43359375,-66.89453125,0.0
129.609375,-41.9921875,-34.66796875,-30.2734375,-48.33984375,30.2734375,0.0
129.61328125,-32.2265625,-37.109375,-26.85546875,-47.8515625,-0.9765625,0.0
129.6171875,-46.38671875,-38.57421875,-27.83203125,-47.8515625,-29.78515625,0.0
129.62109375,-48.33984375,-38.57421875,-33.203125,-44.921875,-23.92578125,0.0
129.625,-29.296875,-33.203125,-33.203125,-46.38671875,-89.35546875,0.0
129.62890625,-42.48046875,-35.15625,-27.83203125,-48.33984375,-29.78515625,0.0
129.6328125,-45.8984375,-29.296875,-33.203125,-43.45703125,77.63671875,0.0
129.63671875,-31.73828125,-28.80859375,-33.69140625,-40.0390625,35.15625,0.0
129.640625,-34.1796875,-47.8515625,-21.97265625,-29.296875,-41.9921875,0.0
129.64453125,-36.1328125,-48.33984375,-19.53125,-30.2734375,15.625,0.0
129.6484375,-34.66796875,-37.109375,-21.484375,-38.0859375,1.46484375,0.0
129.65234375,-29.296875,-34.1796875,-29.78515625,-41.015625,-32.2265625,0.0
129.65625,-24.4140625,-33.69140625,-34.1796875,-43.45703125,-10.7421875,0.0
129.66015625,-44.43359375,-38.57421875,-30.2734375,-53.7109375,-93.75,0.0
129.6640625,-42.48046875,-38.57421875,-28.3203125,-41.50390625,-112.79296875,0.0
129.66796875,-40.0390625,-38.57421875,-26.3671875,-25.87890625,-42.96875,0.0
129.671875,-50.29296875,-36.1328125,-24.90234375,-28.3203125,51.26953125,0.0
129.67578125,-40.52734375,-36.1328125,-29.78515625,-35.64453125,51.7578125,0.0
129.6796875,-51.26953125,-39.55078125,-34.66796875,-42.48046875,-6.34765625,0.0
129.68359375,-47.36328125,-35.64453125,-25.87890625,-36.1328125,-38.0859375,0.0
129.6875,-44.43359375,-36.62109375,-25.390625,-40.52734375,-37.59765625,0.0
129.69140625,-43.45703125,-37.109375,-26.85546875,-46.38671875,-59.5703125,0.0
129.6953125,-32.71484375,-27.83203125,-25.87890625,-46.875,-68.359375,0.0
129.69921875,-33.203125,-28.3203125,-26.3671875,-59.5703125,-12.6953125,0.0
129.703125,-31.73828125,-40.0390625,-25.390625,-57.6171875,-36.62109375,0.0
129.70703125,-28.80859375,-30.2734375,-23.4375,-41.9921875,-60.05859375,0.0
129.7109375,-30.76171875,-20.5078125,-18.5546875,-36.1328125,-44.921875,0.0
129.71484375,-34.66796875,-22.94921875,-24.4140625,-40.52734375,-12.6953125,0.0
129.71875,-39.55078125,-29.78515625,-32.2265625,-45.8984375,-30.2734375,0.0
129.72265625,-40.52734375,-28.80859375,-29.296875,-42.48046875,-35.15625,0.0
129.7265625,-41.9921875,-18.06640625,-25.87890625,-34.1796875,-39.55078125,0.0
129.73046875,-34.1796875,-24.90234375,-27.83203125,-33.203125,-169.921875,0.0
129.734375,-30.2734375,-40.0390625,-30.76171875,-37.59765625,-191.89453125,0.0
129.73828125,-31.73828125,-39.0625,-31.25,-40.0390625,-120.60546875,0.0
129.7421875,-26.3671875,-26.85546875,-29.78515625,-33.69140625,-160.15625,0.0
129.74609375,-25.390625,-20.5078125,-28.3203125,-31.73828125,-183.59375,0.0
129.75,-29.296875,-25.390625,-37.109375,-30.76171875,-90.33203125,0.0
129.75390625,-31.73828125,-21.97265625,-38.0859375,-25.87890625,12.6953125,0.0
129.7578125,-25.87890625,-20.01953125,-38.0859375,-20.5078125,56.15234375,0.0
129.76171875,-27.34375,-25.87890625,-39.0625,-11.71875,-24.4140625,0.0
129.765625,-33.203125,-22.94921875,-30.2734375,-13.671875,-62.01171875,0.0
129.76953125,-22.4609375,-25.390625,-25.390625,-23.92578125,47.36328125,0.0
129.7734375,-20.01953125,-21.484375,-24.90234375,-27.83203125,35.15625,0.0
129.77734375,-36.62109375,-27.83203125,-25.87890625,-26.85546875,-49.8046875,0.0
129.78125,-49.31640625,-44.43359375,-23.92578125,-25.87890625,-90.33203125,0.0
129.78515625,-43.45703125,-31.25,-19.04296875,-22.94921875,-130.859375,0.0
129.7890625,-33.203125,-23.4375,-17.08984375,-11.71875,-122.0703125,0.0
129.79296875,-29.78515625,-25.390625,-19.04296875,11.23046875,-25.390625,0.0
129.796875,-30.2734375,-30.76171875,-19.53125,12.20703125,56.640625,0.0
129.80078125,-40.0390625,-36.62109375,-15.13671875,-2.9296875,50.29296875,0.0
129.8046875,-43.9453125,-31.25,-14.6484375,-2.9296875,10.25390625,0.0
129.80859375,-28.80859375,-25.87890625,-20.01953125,-3.41796875,19.04296875,0.0
129.8125,-28.3203125,-32.2265625,-18.5546875,-6.34765625,52.734375,0.0
129.81640625,-45.8984375,-35.15625,-21.97265625,-7.32421875,77.1484375,0.0
129.8203125,-46.875,-24.4140625,-22.94921875,-8.30078125,17.08984375,0.0
129.82421875,-34.66796875,-30.76171875,-20.5078125,-9.27734375,-42.48046875,0.0
129.828125,-26.85546875,-38.57421875,-23.4375,-14.16015625,37.109375,0.0
129.83203125,-14.6484375,-31.25,-28.80859375,-15.625,-30.76171875,0.0
129.8359375,-16.6015625,-29.78515625,-32.2265625,-8.7890625,-45.41015625,0.0
129.83984375,-36.1328125,-36.62109375,-31.73828125,-11.23046875,55.6640625,0.0
129.84375,-39.55078125,-38.57421875,-30.2734375,-11.71875,-17.578125,0.0
129.84765625,-26.85546875,-31.73828125,-32.2265625,-10.25390625,-23.4375,0.0
129.8515625,-32.2265625,-33.203125,-44.43359375,-18.5546875,13.18359375,0.0
129.85546875,-36.1328125,-36.1328125,-40.52734375,-5.37109375,4.39453125,0.0
129.859375,-35.15625,-36.1328125,-36.62109375,-0.48828125,6.34765625,0.0
129.86328125,-34.1796875,-32.2265625,-32.71484375,-7.32421875,-34.66796875,0.0
129.8671875,-28.80859375,-24.4140625,-28.80859375,5.859375,-43.9453125,0.0
129.87109375,-27.34375,-26.85546875,-26.3671875,10.25390625,-3.41796875,0.0
129.875,-23.4375,-36.62109375,-31.73828125,4.39453125,-12.6953125,0.0
129.87890625,-24.90234375,-42.48046875,-33.69140625,-0.48828125,-58.10546875,0.0
129.8828125,-30.2734375,-32.71484375,-19.53125,-1.46484375,-20.99609375,0.0
129.88671875,-40.52734375,-25.390625,-21.484375,2.44140625,27.34375,0.0
129.890625,-35.15625,-30.2734375,-25.87890625,2.44140625,5.37109375,0.0
129.89453125,-30.76171875,-31.25,-29.296875,-8.7890625,-2.44140625,0.0
129.8984375,-44.43359375,-35.64453125,-34.1796875,-16.6015625,-24.4140625,0.0
129.90234375,-41.9921875,-36.1328125,-29.296875,-11.23046875,-90.33203125,0.0
129.90625,-32.71484375,-41.015625,-26.3671875,-6.8359375,-53.7109375,0.0
129.91015625,-31.25,-37.109375,-29.296875,-1.46484375,-8.7890625,0.0
129.9140625,-33.69140625,-28.80859375,-29.296875,-4.39453125,-39.0625,0.0
129.91796875,-35.64453125,-34.1796875,-36.62109375,-18.06640625,-38.57421875,0.0
129.921875,-23.4375,-30.2734375,-50.29296875,-17.08984375,-58.10546875,0.0
129.92578125,-14.16015625,-27.83203125,-43.9453125,-6.34765625,-63.96484375,0.0
129.9296875,-41.015625,-32.71484375,-32.2265625,-20.5078125,8.7890625,0.0
129.93359375,-55.6640625,-32.2265625,-36.1328125,-32.2265625,-8.30078125,0.0
129.9375,-43.9453125,-39.0625,-40.52734375,-27.83203125,-22.94921875,0.0
129.94140625,-38.0859375,-46.875,-42.96875,-30.2734375,-25.390625,0.0
129.9453125,-43.9453125,-46.875,-39.0625,-30.76171875,-87.890625,0.0
129.94921875,-44.43359375,-43.45703125,-38.57421875,-23.92578125,-97.65625,0.0
129.953125,-33.69140625,-41.50390625,-43.9453125,-21.97265625,-102.05078125,0.0
129.95703125,-40.0390625,-48.33984375,-41.015625,-25.390625,-188.4765625,0.0
129.9609375,-37.59765625,-39.0625,-33.69140625,-21.484375,-167.96875,0.0
129.96484375,-22.94921875,-37.109375,-30.2734375,-21.484375,-110.83984375,0.0
129.96875,-20.5078125,-45.41015625,-33.69140625,-20.01953125,-35.15625,0.0
129.97265625,-26.85546875,-40.52734375,-28.80859375,-3.90625,1.953125,0.0
129.9765625,-42.96875,-33.203125,-29.78515625,-9.765625,-3.41796875,0.0
129.98046875,-59.5703125,-43.9453125,-37.109375,-16.11328125,-18.5546875,0.0
129.984375,-57.6171875,-48.828125,-28.80859375,-5.859375,-79.58984375,0.0
129.98828125,-42.48046875,-41.50390625,-23.92578125,-7.32421875,-20.5078125,0.0
129.9921875,-21.97265625,-37.59765625,-33.69140625,-9.765625,4.8828125,0.0
129.99609375,-13.671875,-33.69140625,-39.0625,-14.16015625,-184.08203125,0.0
130.0,-40.0390625,-33.69140625,-35.64453125,-20.99609375,-248.53515625,0.0
130.00390625,-49.8046875,-37.109375,-30.76171875,-18.06640625,-135.25390625,0.0
130.0078125,-32.71484375,-36.62109375,-26.85546875,-4.39453125,-148.92578125,0.0
130.01171875,-26.85546875,-35.15625,-23.4375,1.46484375,-145.99609375,0.0
130.015625,-26.85546875,-38.0859375,-17.08984375,-5.859375,-93.75,0.0
130.01953125,-35.15625,-31.73828125,-20.99609375,-16.6015625,-122.0703125,0.0
130.0234375,-30.2734375,-28.3203125,-23.92578125,-16.11328125,-155.76171875,0.0
130.02734375,-20.01953125,-26.85546875,-15.625,-11.23046875,-161.1328125,0.0
130.03125,-21.97265625,-16.6015625,-13.18359375,-11.71875,-113.76953125,0.0
130.03515625,-11.71875,-29.296875,-24.4140625,-17.08984375,-5.37109375,0.0
130.0390625,-16.11328125,-43.45703125,-29.78515625,-23.92578125,58.59375,0.0
130.04296875,-32.71484375,-37.59765625,-30.76171875,-31.25,89.84375,0.0
130.046875,-42.96875,-35.15625,-32.71484375,-36.62109375,96.19140625,0.0
130.05078125,-48.828125,-37.59765625,-31.25,-41.50390625,91.796875,0.0
130.0546875,-42.96875,-32.71484375,-26.85546875,-36.1328125,114.2578125,0.0
130.05859375,-43.9453125,-42.48046875,-32.71484375,-40.52734375,51.26953125,0.0
130.0625,-41.015625,-52.24609375,-33.69140625,-48.33984375,54.19921875,0.0
130.06640625,-41.50390625,-47.8515625,-34.1796875,-47.36328125,68.359375,0.0
130.0703125,-43.9453125,-41.015625,-36.1328125,-46.875,12.20703125,0.0
130.07421875,-36.62109375,-42.48046875,-34.1796875,-40.52734375,29.78515625,0.0
130.078125,-37.109375,-47.8515625,-32.71484375,-41.50390625,69.3359375,0.0
130.08203125,-39.55078125,-41.50390625,-25.87890625,-56.15234375,28.3203125,0.0
130.0859375,-32.71484375,-29.296875,-21.484375,-58.59375,-36.62109375,0.0
130.08984375,-31.25,-30.76171875,-21.484375,-53.22265625,12.6953125,0.0
130.09375,-48.828125,-41.50390625,-21.484375,-48.33984375,24.90234375,0.0
130.09765625,-64.94140625,-38.0859375,-25.87890625,-53.7109375,-52.734375,0.0
130.1015625,-59.5703125,-26.85546875,-26.85546875,-56.640625,-49.31640625,0.0
130.10546875,-53.7109375,-30.76171875,-24.90234375,-49.8046875,-55.17578125,0.0
130.109375,-53.7109375,-45.8984375,-26.3671875,-48.828125,-22.4609375,0.0
130.11328125,-51.7578125,-52.24609375,-30.76171875,-56.15234375,-62.5,0.0
130.1171875,-51.7578125,-41.50390625,-37.59765625,-66.89453125,-70.3125,0.0
130.12109375,-56.15234375,-32.71484375,-38.57421875,-72.75390625,-13.18359375,0.0
130.125,-56.15234375,-29.78515625,-36.1328125,-69.82421875,-18.5546875,0.0
130.12890625,-46.38671875,-24.90234375,-29.78515625,-56.640625,-11.23046875,0.0
130.1328125,-38.0859375,-29.296875,-27.83203125,-54.6875,12.20703125,0.0
130.13671875,-47.8515625,-33.203125,-36.62109375,-58.59375,-35.15625,0.0
130.140625,-41.9921875,-31.25,-34.66796875,-58.59375,-62.5,0.0
130.14453125,-34.1796875,-34.66796875,-27.83203125,-62.01171875,-30.2734375,0.0
130.1484375,-34.66796875,-30.76171875,-27.34375,-56.640625,-66.40625,0.0
130.15234375,-22.4609375,-33.203125,-31.25,-47.36328125,-123.53515625,0.0
130.15625,-24.90234375,-39.55078125,-37.59765625,-44.921875,-90.33203125,0.0
130.16015625,-44.921875,-37.109375,-37.109375,-53.7109375,10.7421875,0.0
130.1640625,-50.78125,-39.0625,-25.87890625,-47.8515625,40.52734375,0.0
130.16796875,-39.55078125,-40.52734375,-22.4609375,-34.66796875,61.03515625,0.0
130.171875,-31.25,-32.71484375,-26.3671875,-26.85546875,1.953125,0.0
130.17578125,-15.625,-24.90234375,-25.87890625,-16.11328125,-86.42578125,0.0
130.1796875,-20.01953125,-23.92578125,-23.92578125,-16.6015625,-65.4296875,0.0
130.18359375,-47.36328125,-22.4609375,-24.90234375,-16.6015625,10.25390625,0.0
130.1875,-33.69140625,-24.90234375,-18.5546875,-5.859375,-40.0390625,0.0
