timestamp,TP9,AF7,AF8,TP10,AUX,Marker,
149.00390625,52.24609375,-32.2265625,-21.97265625,-31.25,-59.08203125,0.0
149.0078125,16.6015625,-33.69140625,-18.5546875,-32.71484375,-245.60546875,0.0
149.01171875,-17.578125,-29.78515625,-26.85546875,-41.015625,-66.89453125,0.0
149.015625,0.9765625,-22.94921875,-30.76171875,-54.19921875,216.796875,0.0
149.01953125,12.20703125,-17.08984375,-29.296875,-40.52734375,211.9140625,0.0
149.0234375,-5.859375,-18.06640625,-31.73828125,-34.1796875,-103.02734375,0.0
149.02734375,-6.34765625,-19.04296875,-28.80859375,-41.9921875,-358.88671875,0.0
149.03125,-2.44140625,-20.01953125,-24.90234375,-32.2265625,-278.3203125,0.0
149.03515625,-7.8125,-23.92578125,-22.94921875,-16.6015625,-42.48046875,0.0
149.0390625,-7.8125,-20.01953125,-25.390625,-19.04296875,34.1796875,0.0
149.04296875,-2.9296875,-18.5546875,-27.83203125,-25.390625,-176.7578125,0.0
149.046875,-3.41796875,-28.3203125,-27.83203125,-18.5546875,-328.125,0.0
149.05078125,-11.23046875,-30.76171875,-27.83203125,-18.06640625,-191.89453125,0.0
149.0546875,-27.83203125,-21.484375,-26.85546875,-16.6015625,41.50390625,0.0
149.05859375,-12.20703125,-16.6015625,-25.390625,-0.48828125,156.73828125,0.0
149.0625,11.23046875,-20.01953125,-27.34375,-5.859375,-6.34765625,0.0
149.06640625,-10.25390625,-21.97265625,-31.25,-29.78515625,-224.609375,0.0
149.0703125,-37.109375,-28.3203125,-28.3203125,-35.64453125,-220.703125,0.0
149.07421875,-38.0859375,-33.69140625,-33.69140625,-42.48046875,23.4375,0.0
149.078125,-35.64453125,-26.3671875,-36.62109375,-41.50390625,222.65625,0.0
149.08203125,-34.66796875,-23.92578125,-32.2265625,-29.296875,50.78125,0.0
149.0859375,-23.4375,-28.80859375,-28.3203125,-40.0390625,-290.52734375,0.0
149.08984375,-27.34375,-31.25,-26.3671875,-46.38671875,-255.859375,0.0
149.09375,-33.69140625,-32.71484375,-30.2734375,-52.734375,72.75390625,0.0
149.09765625,-39.0625,-38.0859375,-31.25,-63.4765625,212.890625,0.0
149.1015625,-42.96875,-30.76171875,-29.78515625,-53.22265625,26.85546875,0.0
149.10546875,-37.59765625,-31.25,-25.390625,-47.36328125,-218.75,0.0
149.109375,-35.15625,-37.109375,-29.296875,-57.12890625,-143.06640625,0.0
149.11328125,-37.109375,-27.83203125,-28.3203125,-56.15234375,86.9140625,0.0
149.1171875,-36.62109375,-24.4140625,-28.3203125,-52.734375,186.03515625,0.0
149.12109375,-22.4609375,-26.3671875,-31.25,-54.6875,1.46484375,0.0
149.125,-30.76171875,-23.92578125,-22.94921875,-49.31640625,-299.31640625,0.0
149.12890625,-28.3203125,-28.3203125,-21.97265625,-35.64453125,-329.1015625,0.0
149.1328125,-24.4140625,-31.25,-29.296875,-41.9921875,-30.76171875,0.0
149.13671875,-29.78515625,-30.76171875,-28.80859375,-58.59375,247.0703125,0.0
149.140625,-32.2265625,-39.55078125,-28.80859375,-45.8984375,116.2109375,0.0
149.14453125,-31.73828125,-35.64453125,-32.2265625,-32.2265625,-186.03515625,0.0
149.1484375,-30.2734375,-27.34375,-29.296875,-39.55078125,-269.53125,0.0
149.15234375,-32.2265625,-23.4375,-32.71484375,-41.50390625,-71.2890625,0.0
149.15625,-24.4140625,-19.04296875,-35.15625,-36.62109375,157.2265625,0.0
149.16015625,-25.390625,-19.53125,-33.203125,-29.296875,150.390625,0.0
149.1640625,-39.55078125,-23.92578125,-35.64453125,-26.3671875,-101.5625,0.0
149.16796875,-40.52734375,-32.2265625,-34.1796875,-19.53125,-314.94140625,0.0
149.171875,-39.0625,-37.109375,-30.76171875,-20.01953125,-153.3203125,0.0
149.17578125,-24.90234375,-35.64453125,-29.78515625,-32.71484375,136.23046875,0.0
149.1796875,-13.18359375,-36.62109375,-32.2265625,-30.76171875,193.84765625,0.0
149.18359375,-23.4375,-40.52734375,-34.1796875,-26.3671875,-43.45703125,0.0
149.1875,-47.8515625,-41.015625,-39.55078125,-39.0625,-267.08984375,0.0
149.19140625,-44.43359375,-38.0859375,-38.0859375,-40.52734375,-105.95703125,0.0
149.1953125,-35.64453125,-34.1796875,-31.73828125,-20.99609375,108.88671875,0.0
149.19921875,-31.73828125,-30.76171875,-36.1328125,-29.296875,125.0,0.0
149.203125,-18.5546875,-27.34375,-39.55078125,-46.875,-128.41796875,0.0
149.20703125,-28.80859375,-17.08984375,-32.2265625,-35.64453125,-379.8828125,0.0
149.2109375,-34.66796875,-20.5078125,-24.4140625,-40.0390625,-243.1640625,0.0
149.21484375,-31.25,-28.3203125,-23.92578125,-53.7109375,35.64453125,0.0
149.21875,-37.109375,-28.80859375,-31.25,-50.29296875,131.8359375,0.0
149.22265625,-36.62109375,-33.203125,-33.69140625,-44.921875,-42.48046875,0.0
149.2265625,-35.64453125,-28.3203125,-29.78515625,-36.62109375,-259.27734375,0.0
149.23046875,-35.64453125,-22.94921875,-37.59765625,-44.43359375,-160.64453125,0.0
149.234375,-49.31640625,-25.87890625,-47.8515625,-58.10546875,139.16015625,0.0
149.23828125,-67.87109375,-26.85546875,-41.50390625,-62.01171875,212.890625,0.0
149.2421875,-54.19921875,-26.3671875,-35.15625,-57.6171875,-113.28125,0.0
149.24609375,-42.48046875,-35.64453125,-36.62109375,-49.31640625,-386.23046875,0.0
149.25,-62.5,-41.015625,-39.55078125,-60.546875,-143.06640625,0.0
149.25390625,-59.08203125,-42.48046875,-41.50390625,-71.2890625,186.03515625,0.0
149.2578125,-68.84765625,-41.50390625,-43.45703125,-54.19921875,263.671875,0.0
149.26171875,-74.70703125,-43.45703125,-44.43359375,-46.875,-6.34765625,0.0
149.265625,-61.5234375,-40.52734375,-39.0625,-54.19921875,-175.29296875,0.0
149.26953125,-66.89453125,-36.1328125,-29.78515625,-48.828125,-75.68359375,0.0
149.2734375,-50.29296875,-29.78515625,-30.2734375,-40.0390625,132.8125,0.0
149.27734375,-33.69140625,-24.90234375,-37.109375,-51.26953125,396.97265625,0.0
149.28125,-50.29296875,-37.59765625,-35.64453125,-46.875,170.41015625,0.0
149.28515625,-37.109375,-33.203125,-32.2265625,-26.85546875,-229.4921875,0.0
149.2890625,-20.01953125,-24.4140625,-28.80859375,-24.4140625,-224.609375,0.0
149.29296875,-12.6953125,-25.390625,-22.4609375,-16.6015625,-25.87890625,0.0
149.296875,-12.6953125,-26.85546875,-24.90234375,-5.859375,77.1484375,0.0
149.30078125,-9.765625,-26.3671875,-35.15625,-4.8828125,-35.15625,0.0
149.3046875,1.953125,-20.01953125,-31.73828125,-15.13671875,-271.484375,0.0
149.30859375,-13.671875,-24.90234375,-27.83203125,-17.08984375,-329.1015625,0.0
149.3125,-32.2265625,-28.3203125,-29.78515625,-18.5546875,-50.29296875,0.0
149.31640625,-29.78515625,-25.390625,-27.34375,-20.5078125,239.2578125,0.0
149.3203125,-13.18359375,-24.90234375,-25.390625,-20.99609375,91.796875,0.0
149.32421875,-8.7890625,-31.73828125,-24.4140625,-24.90234375,-252.44140625,0.0
149.328125,-26.85546875,-40.52734375,-20.99609375,-19.53125,-337.40234375,0.0
149.33203125,-32.2265625,-25.390625,-20.5078125,-10.7421875,-87.890625,0.0
149.3359375,-39.0625,-12.20703125,-27.34375,-9.765625,215.33203125,0.0
149.33984375,-35.15625,-14.6484375,-29.78515625,-21.97265625,131.34765625,0.0
149.34375,-12.6953125,-20.99609375,-26.85546875,-31.73828125,-193.84765625,0.0
149.34765625,-18.5546875,-23.4375,-26.85546875,-31.25,-248.53515625,0.0
149.3515625,-35.15625,-24.90234375,-28.80859375,-26.3671875,-73.2421875,0.0
149.35546875,-30.2734375,-31.73828125,-25.87890625,-13.671875,229.98046875,0.0
149.359375,-28.80859375,-33.69140625,-20.5078125,-24.90234375,312.5,0.0
149.36328125,-46.875,-29.296875,-24.90234375,-35.64453125,-10.25390625,0.0
149.3671875,-33.203125,-24.4140625,-28.80859375,-35.64453125,-260.25390625,0.0
149.37109375,-21.97265625,-29.78515625,-30.76171875,-34.1796875,-197.75390625,0.0
149.375,-52.24609375,-36.1328125,-40.52734375,-40.0390625,128.90625,0.0
149.37890625,-60.546875,-24.4140625,-40.0390625,-40.52734375,239.74609375,0.0
149.3828125,-37.109375,-17.08984375,-30.2734375,-19.53125,-6.34765625,0.0
149.38671875,-30.76171875,-16.11328125,-29.78515625,-22.4609375,-212.40234375,0.0
149.390625,-26.3671875,-23.4375,-29.296875,-20.99609375,-135.7421875,0.0
149.39453125,-23.4375,-23.92578125,-27.83203125,-21.484375,93.26171875,0.0
149.3984375,-36.1328125,-16.6015625,-29.78515625,-31.25,192.3828125,0.0
149.40234375,-43.45703125,-16.6015625,-33.69140625,-30.2734375,-29.78515625,0.0
149.40625,-29.296875,-25.390625,-30.2734375,-34.1796875,-255.859375,0.0
149.41015625,-20.5078125,-22.94921875,-24.90234375,-25.87890625,-143.06640625,0.0
149.4140625,-10.25390625,-19.04296875,-21.97265625,-21.484375,21.484375,0.0
149.41796875,-15.625,-27.83203125,-21.484375,-27.83203125,96.19140625,0.0
149.421875,-42.48046875,-30.2734375,-20.99609375,-22.94921875,-50.78125,0.0
149.42578125,-34.66796875,-29.78515625,-17.578125,-27.34375,-290.52734375,0.0
149.4296875,-25.390625,-25.390625,-22.4609375,-33.203125,-317.3828125,0.0
149.43359375,-25.390625,-21.97265625,-25.87890625,-44.921875,5.37109375,0.0
149.4375,-17.578125,-26.3671875,-31.25,-48.33984375,251.953125,0.0
149.44140625,-26.3671875,-29.296875,-34.66796875,-48.33984375,-29.296875,0.0
149.4453125,-39.0625,-22.94921875,-29.78515625,-50.29296875,-48.33984375,0.0
149.44921875,-28.3203125,-14.6484375,-31.25,-51.26953125,-92.7734375,0.0
149.453125,-23.4375,-15.13671875,-37.109375,-53.22265625,-2.44140625,0.0
149.45703125,-23.4375,-23.92578125,-37.109375,-38.0859375,51.7578125,0.0
149.4609375,-10.7421875,-26.3671875,-32.2265625,-24.90234375,35.15625,0.0
149.46484375,-18.06640625,-28.80859375,-34.1796875,-40.52734375,6.8359375,0.0
149.46875,-20.99609375,-34.1796875,-38.57421875,-45.41015625,-29.296875,0.0
149.47265625,-10.25390625,-32.2265625,-38.0859375,-45.8984375,0.9765625,0.0
149.4765625,-9.765625,-32.2265625,-35.15625,-36.62109375,13.18359375,0.0
149.48046875,-21.97265625,-34.66796875,-32.2265625,-25.87890625,11.23046875,0.0
149.484375,-34.1796875,-35.15625,-28.3203125,-34.1796875,-18.06640625,0.0
149.48828125,-14.16015625,-28.3203125,-26.3671875,-38.57421875,-357.421875,0.0
149.4921875,-15.625,-24.90234375,-24.90234375,-44.43359375,-215.33203125,0.0
149.49609375,-28.80859375,-33.203125,-26.85546875,-49.31640625,94.7265625,0.0
149.5,-15.625,-30.76171875,-29.78515625,-53.7109375,121.09375,0.0
149.50390625,-20.01953125,-24.4140625,-25.87890625,-51.26953125,-216.30859375,0.0
149.5078125,-33.69140625,-40.52734375,-22.94921875,-57.6171875,-420.8984375,0.0
149.51171875,-19.53125,-41.9921875,-25.390625,-59.08203125,-155.76171875,0.0
149.515625,-4.8828125,-35.64453125,-32.71484375,-50.29296875,175.78125,0.0
149.51953125,-12.6953125,-34.1796875,-37.59765625,-57.12890625,223.14453125,0.0
149.5234375,-34.1796875,-30.76171875,-30.2734375,-50.78125,-32.2265625,0.0
149.52734375,-33.69140625,-31.25,-31.73828125,-41.9921875,-306.640625,0.0
149.53125,-0.9765625,-31.73828125,-38.57421875,-43.45703125,-210.44921875,0.0
149.53515625,-14.6484375,-31.25,-42.96875,-52.734375,68.359375,0.0
149.5390625,-52.24609375,-32.2265625,-45.8984375,-56.15234375,222.16796875,0.0
149.54296875,-59.08203125,-35.64453125,-33.69140625,-55.17578125,8.30078125,0.0
149.546875,-41.50390625,-33.203125,-24.4140625,-62.01171875,-228.515625,0.0
149.55078125,-30.2734375,-29.78515625,-27.34375,-62.5,-78.61328125,0.0
149.5546875,-34.1796875,-31.73828125,-29.296875,-75.1953125,187.01171875,0.0
149.55859375,-24.4140625,-40.52734375,-29.78515625,-67.3828125,256.8359375,0.0
149.5625,-37.59765625,-45.41015625,-33.69140625,-62.01171875,11.71875,0.0
149.56640625,-42.96875,-41.015625,-31.73828125,-59.5703125,-271.484375,0.0
149.5703125,-26.3671875,-34.1796875,-36.1328125,-49.31640625,-252.44140625,0.0
149.57421875,-23.92578125,-32.2265625,-46.875,-64.453125,41.9921875,0.0
149.578125,-49.31640625,-38.0859375,-48.828125,-60.546875,300.78125,0.0
149.58203125,-54.6875,-39.55078125,-44.43359375,-54.6875,123.046875,0.0
149.5859375,-26.85546875,-39.0625,-41.9921875,-48.33984375,-199.21875,0.0
149.58984375,-28.3203125,-32.2265625,-36.62109375,-38.57421875,-111.328125,0.0
149.59375,-42.48046875,-24.4140625,-35.64453125,-44.921875,99.12109375,0.0
149.59765625,-35.15625,-33.203125,-32.71484375,-40.0390625,198.2421875,0.0
149.6015625,-30.2734375,-31.73828125,-34.1796875,-25.87890625,139.6484375,0.0
149.60546875,-30.2734375,-19.53125,-37.109375,-31.73828125,-174.8046875,0.0
149.609375,-26.3671875,-25.390625,-36.1328125,-27.83203125,-276.3671875,0.0
149.61328125,-26.85546875,-27.34375,-37.109375,-22.94921875,-45.8984375,0.0
149.6171875,-35.15625,-22.94921875,-36.62109375,-37.59765625,188.96484375,0.0
149.62109375,-28.80859375,-21.97265625,-34.66796875,-50.29296875,22.94921875,0.0
149.625,-39.55078125,-27.34375,-37.109375,-47.36328125,-304.6875,0.0
149.62890625,-57.12890625,-28.80859375,-33.69140625,-38.0859375,-254.8828125,0.0
149.6328125,-52.734375,-24.4140625,-33.203125,-40.0390625,-63.4765625,0.0
149.63671875,-46.38671875,-23.4375,-32.71484375,-30.76171875,133.30078125,0.0
149.640625,-41.9921875,-23.4375,-32.71484375,-20.01953125,124.0234375,0.0
149.64453125,-50.29296875,-22.94921875,-30.76171875,-18.5546875,-106.4453125,0.0
149.6484375,-56.15234375,-20.5078125,-30.2734375,-27.34375,-179.6875,0.0
149.65234375,-52.24609375,-20.99609375,-31.25,-30.76171875,-30.76171875,0.0
149.65625,-57.6171875,-27.34375,-31.73828125,-32.71484375,243.65234375,0.0
149.66015625,-51.26953125,-21.484375,-36.1328125,-36.62109375,218.75,0.0
149.6640625,-36.62109375,-15.625,-35.15625,-26.85546875,-88.37890625,0.0
149.66796875,-35.64453125,-20.01953125,-33.69140625,-31.25,-242.1875,0.0
149.671875,-26.85546875,-17.08984375,-34.1796875,-38.0859375,-13.671875,0.0
149.67578125,-31.73828125,-19.53125,-35.15625,-31.73828125,259.765625,0.0
149.6796875,-29.78515625,-27.34375,-35.15625,-26.3671875,232.91015625,0.0
149.68359375,-36.1328125,-25.390625,-35.15625,-39.55078125,-34.66796875,0.0
149.6875,-45.41015625,-19.53125,-29.78515625,-41.9921875,-225.5859375,0.0
149.69140625,-56.15234375,-27.34375,-30.76171875,-38.57421875,-145.5078125,0.0
149.6953125,-46.38671875,-31.25,-39.0625,-40.0390625,133.30078125,0.0
149.69921875,-51.26953125,-29.296875,-34.66796875,-26.3671875,229.4921875,0.0
149.703125,-84.9609375,-39.55078125,-32.2265625,-16.11328125,-62.01171875,0.0
149.70703125,-72.75390625,-43.9453125,-27.34375,-26.3671875,-224.609375,0.0
149.7109375,-56.15234375,-38.57421875,-26.3671875,-31.25,-102.05078125,0.0
149.71484375,-58.10546875,-34.1796875,-36.1328125,-33.69140625,145.01953125,0.0
149.71875,-70.3125,-32.2265625,-36.1328125,-42.96875,169.43359375,0.0
149.72265625,-56.15234375,-21.97265625,-23.92578125,-45.8984375,-93.26171875,0.0
149.7265625,-34.66796875,-15.13671875,-20.5078125,-42.48046875,-226.5625,0.0
149.73046875,-49.31640625,-17.08984375,-23.92578125,-36.62109375,-186.03515625,0.0
149.734375,-52.734375,-22.4609375,-25.390625,-31.25,42.48046875,0.0
149.73828125,-40.52734375,-20.01953125,-24.90234375,-29.296875,166.015625,0.0
149.7421875,-37.59765625,-10.25390625,-26.3671875,-30.2734375,-136.71875,0.0
149.74609375,-32.2265625,-9.765625,-28.80859375,-37.59765625,-348.14453125,0.0
149.75,-45.41015625,-19.04296875,-31.25,-35.64453125,-252.9296875,0.0
149.75390625,-54.6875,-16.11328125,-34.1796875,-30.76171875,9.765625,0.0
149.7578125,-48.33984375,-4.39453125,-32.71484375,-33.69140625,297.36328125,0.0
149.76171875,-51.7578125,-7.8125,-34.66796875,-43.45703125,109.86328125,0.0
149.765625,-57.12890625,-12.20703125,-37.59765625,-50.29296875,-196.77734375,0.0
149.76953125,-57.6171875,-11.71875,-31.25,-38.0859375,-183.59375,0.0
149.7734375,-53.7109375,-14.16015625,-35.15625,-46.38671875,37.59765625,0.0
149.77734375,-40.0390625,-18.06640625,-38.0859375,-50.78125,204.1015625,0.0
149.78125,-35.15625,-16.11328125,-30.76171875,-36.62109375,45.41015625,0.0
149.78515625,-5.859375,-5.859375,-32.71484375,-41.015625,-259.765625,0.0
149.7890625,-6.8359375,-2.9296875,-36.62109375,-42.96875,-321.77734375,0.0
149.79296875,-36.1328125,-11.71875,-35.64453125,-53.7109375,-29.78515625,0.0
149.796875,-32.71484375,-18.06640625,-38.57421875,-54.19921875,272.94921875,0.0
149.80078125,-39.55078125,-13.671875,-37.109375,-48.33984375,140.625,0.0
149.8046875,-32.71484375,-15.13671875,-35.15625,-39.55078125,-130.37109375,0.0
149.80859375,-27.34375,-12.6953125,-34.66796875,-26.85546875,-224.609375,0.0
149.8125,-37.109375,-13.671875,-29.296875,-29.78515625,0.48828125,0.0
149.81640625,-5.859375,-18.06640625,-29.78515625,-21.97265625,294.43359375,0.0
149.8203125,-18.5546875,-26.3671875,-31.73828125,-3.41796875,176.26953125,0.0
149.82421875,-38.0859375,-32.2265625,-33.69140625,-11.71875,-171.38671875,0.0
149.828125,-26.3671875,-26.3671875,-33.203125,-34.66796875,-330.56640625,0.0
149.83203125,-35.15625,-18.5546875,-31.25,-37.59765625,-199.70703125,0.0
149.8359375,-33.203125,-18.5546875,-36.1328125,-27.83203125,57.6171875,0.0
149.83984375,-21.97265625,-24.90234375,-39.0625,-20.99609375,112.3046875,0.0
149.84375,-42.96875,-27.83203125,-35.15625,-18.5546875,-56.15234375,0.0
149.84765625,-52.24609375,-20.01953125,-30.76171875,-15.625,-275.87890625,0.0
149.8515625,-38.0859375,-20.01953125,-31.73828125,-13.671875,-206.54296875,0.0
149.85546875,-37.109375,-18.06640625,-36.1328125,-12.20703125,108.88671875,0.0
149.859375,-30.76171875,-20.99609375,-38.57421875,-9.765625,196.77734375,0.0
149.86328125,-17.08984375,-27.34375,-37.59765625,-9.765625,-4.39453125,0.0
149.8671875,-36.1328125,-25.390625,-37.59765625,-23.4375,-235.83984375,0.0
149.87109375,-26.3671875,-27.34375,-35.15625,-23.92578125,-226.07421875,0.0
149.875,3.41796875,-25.87890625,-32.2265625,-12.6953125,36.1328125,0.0
149.87890625,-10.25390625,-26.85546875,-33.203125,-16.6015625,168.45703125,0.0
149.8828125,-11.71875,-27.83203125,-28.3203125,-12.20703125,-77.63671875,0.0
149.88671875,-17.578125,-21.97265625,-25.87890625,-3.41796875,-278.80859375,0.0
149.890625,-40.52734375,-21.484375,-29.296875,-10.25390625,-187.01171875,0.0
149.89453125,-55.17578125,-20.99609375,-30.76171875,-21.484375,4.8828125,0.0
149.8984375,-55.17578125,-26.3671875,-41.50390625,-24.4140625,149.90234375,0.0
149.90234375,-45.8984375,-30.76171875,-42.48046875,-21.484375,26.85546875,0.0
149.90625,-42.96875,-27.34375,-29.78515625,-18.5546875,-125.9765625,0.0
149.91015625,-55.17578125,-22.94921875,-24.90234375,-23.92578125,-107.91015625,0.0
149.9140625,-37.109375,-25.390625,-27.34375,-27.83203125,31.25,0.0
149.91796875,-51.26953125,-23.4375,-36.1328125,-26.85546875,148.92578125,0.0
149.921875,-78.61328125,-25.390625,-39.0625,-29.78515625,50.78125,0.0
149.92578125,-71.2890625,-25.87890625,-37.109375,-44.43359375,-216.796875,0.0
149.9296875,-59.5703125,-24.90234375,-39.55078125,-65.4296875,-271.484375,0.0
149.93359375,-64.94140625,-26.85546875,-41.9921875,-68.84765625,-32.71484375,0.0
149.9375,-65.91796875,-27.34375,-45.41015625,-67.87109375,64.94140625,0.0
149.94140625,-47.36328125,-28.80859375,-46.875,-66.89453125,8.7890625,0.0
149.9453125,-33.69140625,-28.80859375,-49.31640625,-53.22265625,-218.75,0.0
149.94921875,-39.0625,-24.90234375,-52.24609375,-55.17578125,-340.8203125,0.0
149.953125,-48.33984375,-26.85546875,-48.828125,-56.640625,-70.3125,0.0
149.95703125,-16.6015625,-28.3203125,-46.875,-46.38671875,107.421875,0.0
149.9609375,-9.27734375,-31.25,-43.45703125,-21.97265625,95.21484375,0.0
149.96484375,-26.85546875,-31.25,-33.203125,-1.953125,-130.37109375,0.0
149.96875,-30.76171875,-30.76171875,-26.3671875,-2.9296875,-257.32421875,0.0
149.97265625,-34.1796875,-33.203125,-24.90234375,-2.44140625,-89.35546875,0.0
149.9765625,-50.29296875,-38.57421875,-28.3203125,-8.7890625,135.7421875,0.0
149.98046875,-54.6875,-42.96875,-26.85546875,-6.34765625,165.0390625,0.0
149.984375,-60.546875,-41.50390625,-16.6015625,-0.48828125,-114.2578125,0.0
149.98828125,-64.453125,-43.45703125,-17.08984375,0.0,-313.96484375,0.0
149.9921875,-67.87109375,-47.36328125,-19.04296875,1.953125,-96.6796875,0.0
149.99609375,-84.47265625,-44.43359375,-22.4609375,-18.5546875,145.01953125,0.0
150.0,-60.05859375,-42.48046875,-25.390625,-22.94921875,101.07421875,0.0
150.00390625,-59.5703125,-45.41015625,-26.3671875,-18.5546875,8.30078125,0.0
150.0078125,-79.58984375,-38.57421875,-26.85546875,-18.5546875,-107.91015625,0.0
150.01171875,-71.77734375,-36.62109375,-24.4140625,-12.20703125,-66.89453125,0.0
150.015625,-70.80078125,-34.66796875,-26.3671875,-16.6015625,181.640625,0.0
150.01953125,-68.84765625,-28.3203125,-30.76171875,-17.578125,222.16796875,0.0
150.0234375,-58.10546875,-32.71484375,-32.2265625,-29.78515625,-2.9296875,0.0
150.02734375,-27.83203125,-27.34375,-32.71484375,-31.25,-188.4765625,0.0
150.03125,-27.34375,-28.80859375,-33.203125,-20.01953125,-142.578125,0.0
150.03515625,-35.64453125,-35.64453125,-40.0390625,-15.13671875,87.890625,0.0
150.0390625,-32.71484375,-33.69140625,-43.45703125,-32.2265625,145.01953125,0.0
150.04296875,-30.76171875,-31.25,-34.66796875,-41.9921875,-57.12890625,0.0
150.046875,-27.83203125,-29.78515625,-37.59765625,-25.87890625,-256.8359375,0.0
150.05078125,-38.57421875,-35.15625,-42.96875,-22.4609375,-211.42578125,0.0
150.0546875,-27.34375,-31.73828125,-39.0625,-34.1796875,12.20703125,0.0
150.05859375,-34.66796875,-25.87890625,-37.59765625,-27.34375,94.23828125,0.0
150.0625,-41.9921875,-37.59765625,-33.203125,-12.20703125,36.62109375,0.0
150.06640625,-32.2265625,-37.109375,-33.69140625,-34.66796875,-150.390625,0.0
150.0703125,-56.15234375,-35.15625,-32.71484375,-36.62109375,-186.03515625,0.0
150.07421875,-70.80078125,-43.45703125,-27.83203125,-26.85546875,107.421875,0.0
150.078125,-54.19921875,-48.828125,-31.25,-37.59765625,207.51953125,0.0
150.08203125,-37.59765625,-42.96875,-29.78515625,-33.69140625,-45.8984375,0.0
150.0859375,-44.43359375,-37.59765625,-32.71484375,-26.3671875,-250.48828125,0.0
150.08984375,-44.921875,-41.015625,-32.2265625,-27.83203125,-156.73828125,0.0
150.09375,-37.109375,-41.50390625,-31.25,-27.34375,106.93359375,0.0
150.09765625,-31.25,-30.76171875,-38.0859375,-35.64453125,229.4921875,0.0
150.1015625,-30.2734375,-27.83203125,-39.0625,-38.0859375,48.828125,0.0
150.10546875,-34.66796875,-35.15625,-37.59765625,-28.80859375,-214.35546875,0.0
150.109375,-28.3203125,-33.203125,-38.0859375,-38.0859375,-236.328125,0.0
150.11328125,-26.3671875,-28.3203125,-41.9921875,-41.50390625,-26.3671875,0.0
150.1171875,-39.0625,-30.2734375,-44.921875,-48.33984375,125.0,0.0
150.12109375,-4.39453125,-28.80859375,-43.9453125,-57.12890625,-31.25,0.0
150.125,-2.9296875,-35.64453125,-41.9921875,-45.41015625,-257.32421875,0.0
150.12890625,-36.1328125,-51.26953125,-42.48046875,-39.0625,-251.46484375,0.0
150.1328125,-17.08984375,-41.015625,-36.1328125,-43.9453125,-119.140625,0.0
150.13671875,-4.39453125,-29.78515625,-31.73828125,-38.0859375,49.8046875,0.0
150.140625,-19.53125,-29.78515625,-43.45703125,-40.0390625,0.0,0.0
150.14453125,-27.83203125,-23.92578125,-41.9921875,-44.921875,-186.03515625,0.0
150.1484375,-25.87890625,-26.85546875,-25.87890625,-34.66796875,-203.125,0.0
150.15234375,-23.4375,-31.25,-22.4609375,-23.92578125,-10.25390625,0.0
150.15625,-45.41015625,-32.2265625,-25.390625,-22.94921875,235.3515625,0.0
150.16015625,-67.87109375,-36.62109375,-31.73828125,-42.96875,178.22265625,0.0
150.1640625,-20.01953125,-36.62109375,-29.296875,-44.43359375,-71.77734375,0.0
150.16796875,-19.53125,-35.64453125,-19.53125,-17.08984375,-164.0625,0.0
150.171875,-75.1953125,-36.62109375,-15.625,1.953125,-20.99609375,0.0
150.17578125,-66.89453125,-30.2734375,-15.13671875,-8.30078125,226.5625,0.0
150.1796875,-41.50390625,-34.1796875,-18.06640625,-16.6015625,173.828125,0.0
150.18359375,-31.73828125,-42.48046875,-21.484375,-2.44140625,-191.40625,0.0
150.1875,-26.85546875,-37.109375,-18.5546875,-4.8828125,-391.11328125,0.0
150.19140625,-17.578125,-29.296875,-22.94921875,-10.25390625,-292.48046875,0.0
150.1953125,-33.203125,-31.73828125,-25.87890625,-7.8125,0.48828125,0.0
150.19921875,-27.83203125,-32.2265625,-20.99609375,-9.27734375,54.6875,0.0
150.203125,-13.18359375,-29.78515625,-21.484375,-15.625,-219.7265625,0.0
150.20703125,-22.4609375,-30.2734375,-23.4375,-14.16015625,-340.33203125,0.0
150.2109375,-12.20703125,-27.83203125,-26.3671875,-20.5078125,-128.90625,0.0
150.21484375,-11.23046875,-34.1796875,-29.296875,-32.71484375,172.36328125,0.0
150.21875,-34.1796875,-40.0390625,-30.76171875,-23.4375,196.2890625,0.0
150.22265625,-40.52734375,-33.203125,-27.83203125,-26.3671875,-68.84765625,0.0
150.2265625,-18.06640625,-26.3671875,-18.06640625,-30.2734375,-311.5234375,0.0
150.23046875,-4.8828125,-24.90234375,-20.99609375,-33.69140625,-217.7734375,0.0
150.234375,-23.92578125,-31.25,-26.3671875,-47.36328125,49.31640625,0.0
150.23828125,-43.45703125,-30.2734375,-28.3203125,-54.6875,130.37109375,0.0
150.2421875,-17.578125,-31.25,-30.76171875,-44.921875,10.7421875,0.0
150.24609375,-7.8125,-38.57421875,-24.4140625,-32.2265625,-109.375,0.0
150.25,-31.25,-37.109375,-21.97265625,-24.4140625,-143.06640625,0.0
150.25390625,-26.85546875,-37.59765625,-23.92578125,-22.4609375,58.10546875,0.0
150.2578125,-21.484375,-40.52734375,-24.4140625,-32.2265625,266.6015625,0.0
150.26171875,-40.0390625,-41.9921875,-22.94921875,-22.94921875,122.55859375,0.0
150.265625,-39.55078125,-41.50390625,-20.5078125,-0.9765625,-145.5078125,0.0
150.26953125,-39.0625,-46.875,-17.578125,-11.71875,-212.40234375,0.0
150.2734375,-41.015625,-54.6875,-20.01953125,-26.85546875,-1.46484375,0.0
150.27734375,-55.17578125,-48.828125,-24.4140625,-30.2734375,218.75,0.0
150.28125,-61.03515625,-35.64453125,-29.296875,-34.66796875,66.40625,0.0
150.28515625,-36.1328125,-36.62109375,-36.62109375,-25.390625,-217.7734375,0.0
150.2890625,-33.203125,-36.1328125,-41.50390625,-22.94921875,-130.859375,0.0
150.29296875,-48.33984375,-32.71484375,-46.38671875,-34.66796875,115.234375,0.0
150.296875,-40.52734375,-32.2265625,-44.921875,-43.45703125,279.78515625,0.0
150.30078125,-38.0859375,-30.76171875,-42.48046875,-49.8046875,158.69140625,0.0
150.3046875,-58.10546875,-28.80859375,-38.57421875,-40.52734375,-173.828125,0.0
150.30859375,-48.828125,-36.62109375,-37.59765625,-36.1328125,-221.6796875,0.0
150.3125,-34.66796875,-42.48046875,-37.109375,-41.015625,51.7578125,0.0
150.31640625,-46.875,-40.0390625,-34.1796875,-36.62109375,196.77734375,0.0
150.3203125,-55.6640625,-41.50390625,-32.71484375,-36.1328125,58.10546875,0.0
150.32421875,-44.43359375,-46.38671875,-31.25,-31.73828125,-198.2421875,0.0
150.328125,-53.22265625,-46.38671875,-26.85546875,-26.3671875,-354.4921875,0.0
150.33203125,-58.59375,-43.45703125,-22.4609375,-30.2734375,-177.734375,0.0
150.3359375,-24.90234375,-45.41015625,-22.94921875,-21.484375,111.328125,0.0
150.33984375,-17.08984375,-48.828125,-17.578125,-8.7890625,175.78125,0.0
150.34375,-33.69140625,-55.17578125,-15.13671875,-16.6015625,-51.26953125,0.0
150.34765625,-53.7109375,-54.19921875,-17.578125,-9.27734375,-230.46875,0.0
150.3515625,-62.98828125,-49.31640625,-20.99609375,-14.6484375,-141.6015625,0.0
150.35546875,-64.453125,-55.17578125,-30.2734375,-40.0390625,62.5,0.0
150.359375,-65.91796875,-60.546875,-32.71484375,-39.55078125,124.0234375,0.0
150.36328125,-58.59375,-57.12890625,-31.25,-38.57421875,-8.7890625,0.0
150.3671875,-58.10546875,-45.41015625,-36.1328125,-39.0625,-115.72265625,0.0
150.37109375,-58.59375,-44.921875,-37.59765625,-30.2734375,-119.62890625,0.0
150.375,-53.7109375,-39.55078125,-34.66796875,-26.3671875,21.484375,0.0
150.37890625,-48.33984375,-37.109375,-29.78515625,-39.55078125,202.63671875,0.0
150.3828125,-40.52734375,-47.36328125,-31.25,-39.0625,-20.01953125,0.0
150.38671875,-35.15625,-42.48046875,-32.71484375,-34.1796875,-250.48828125,0.0
150.390625,-39.0625,-33.203125,-28.3203125,-44.921875,-154.296875,0.0
150.39453125,-41.015625,-32.71484375,-32.71484375,-48.33984375,52.24609375,0.0
150.3984375,-56.640625,-35.64453125,-33.69140625,-43.45703125,177.24609375,0.0
150.40234375,-54.19921875,-40.52734375,-31.25,-47.8515625,42.48046875,0.0
150.40625,-31.25,-35.64453125,-22.94921875,-49.31640625,-209.47265625,0.0
150.41015625,-36.1328125,-34.1796875,-18.5546875,-52.734375,-271.484375,0.0
150.4140625,-32.2265625,-35.15625,-19.04296875,-49.8046875,9.27734375,0.0
150.41796875,-18.5546875,-32.71484375,-23.92578125,-33.203125,287.59765625,0.0
150.421875,-41.50390625,-30.76171875,-33.69140625,-27.83203125,62.01171875,0.0
150.42578125,-57.12890625,-30.76171875,-26.85546875,-25.87890625,-230.95703125,0.0
150.4296875,-50.29296875,-34.66796875,-22.94921875,-19.04296875,-209.47265625,0.0
150.43359375,-45.41015625,-31.73828125,-24.4140625,-27.34375,-36.1328125,0.0
150.4375,-52.734375,-27.34375,-26.85546875,-41.015625,142.578125,0.0
150.44140625,-61.03515625,-24.90234375,-29.296875,-37.109375,23.92578125,0.0
150.4453125,-55.17578125,-26.85546875,-35.64453125,-43.45703125,-181.640625,0.0
150.44921875,-31.25,-23.92578125,-39.55078125,-44.921875,-208.984375,0.0
150.453125,-24.90234375,-30.2734375,-35.15625,-35.64453125,-37.59765625,0.0
150.45703125,-25.390625,-39.55078125,-35.15625,-38.57421875,174.31640625,0.0
150.4609375,-25.87890625,-34.66796875,-40.52734375,-34.66796875,131.34765625,0.0
150.46484375,-20.5078125,-26.3671875,-35.64453125,-39.55078125,-154.296875,0.0
150.46875,-16.6015625,-24.90234375,-31.25,-37.109375,-296.38671875,0.0
150.47265625,-16.6015625,-23.4375,-34.1796875,-36.1328125,-55.6640625,0.0
150.4765625,-23.4375,-23.4375,-37.109375,-39.0625,218.26171875,0.0
150.48046875,-24.4140625,-24.90234375,-38.0859375,-37.109375,223.6328125,0.0
150.484375,-16.11328125,-20.99609375,-32.2265625,-27.34375,-54.6875,0.0
150.48828125,-37.59765625,-16.11328125,-31.73828125,-29.78515625,-193.359375,0.0
150.4921875,-65.91796875,-21.484375,-31.73828125,-38.57421875,-48.828125,0.0
150.49609375,-63.96484375,-32.71484375,-29.78515625,-39.55078125,33.203125,0.0
150.5,-44.921875,-35.15625,-32.71484375,-46.875,62.5,0.0
150.50390625,-57.6171875,-34.66796875,-38.57421875,-51.26953125,-100.09765625,0.0
150.5078125,-68.84765625,-31.25,-38.0859375,-55.17578125,-336.42578125,0.0
150.51171875,-49.31640625,-33.203125,-33.203125,-51.7578125,-183.59375,0.0
150.515625,-43.9453125,-35.64453125,-29.78515625,-36.62109375,96.6796875,0.0
150.51953125,-33.203125,-28.3203125,-28.80859375,-32.2265625,186.03515625,0.0
150.5234375,-15.13671875,-25.390625,-33.69140625,-38.57421875,-11.23046875,0.0
150.52734375,-40.0390625,-31.73828125,-36.62109375,-33.203125,-303.7109375,0.0
150.53125,-45.8984375,-36.1328125,-40.0390625,-30.2734375,-229.4921875,0.0
150.53515625,-32.2265625,-31.73828125,-37.109375,-31.73828125,54.6875,0.0
150.5390625,-37.109375,-27.83203125,-35.15625,-25.390625,211.42578125,0.0
150.54296875,-37.59765625,-38.0859375,-38.0859375,-40.52734375,83.984375,0.0
150.546875,-30.76171875,-39.55078125,-38.0859375,-63.96484375,-177.24609375,0.0
150.55078125,-38.57421875,-29.78515625,-35.15625,-62.5,-94.23828125,0.0
150.5546875,-38.57421875,-26.3671875,-37.59765625,-62.98828125,112.3046875,0.0
150.55859375,-43.45703125,-36.62109375,-38.0859375,-75.1953125,196.77734375,0.0
150.5625,-41.50390625,-33.69140625,-34.66796875,-57.12890625,66.40625,0.0
150.56640625,-38.57421875,-21.484375,-37.59765625,-39.55078125,-250.48828125,0.0
150.5703125,-52.24609375,-17.08984375,-38.0859375,-52.734375,-224.609375,0.0
150.57421875,-57.6171875,-20.01953125,-34.1796875,-55.17578125,149.90234375,0.0
150.578125,-61.03515625,-29.296875,-39.55078125,-54.19921875,275.87890625,0.0
150.58203125,-44.43359375,-24.90234375,-36.1328125,-49.8046875,1.953125,0.0
150.5859375,-29.296875,-25.87890625,-27.83203125,-52.24609375,-341.30859375,0.0
150.58984375,-25.390625,-33.203125,-30.2734375,-52.24609375,-381.34765625,0.0
150.59375,-52.24609375,-29.296875,-34.66796875,-58.59375,-94.7265625,0.0
150.59765625,-60.05859375,-31.73828125,-34.1796875,-78.125,76.66015625,0.0
150.6015625,-58.10546875,-31.73828125,-32.2265625,-70.80078125,-66.89453125,0.0
150.60546875,-57.12890625,-34.1796875,-33.69140625,-58.10546875,-296.38671875,0.0
150.609375,-29.296875,-38.57421875,-32.2265625,-38.57421875,-317.3828125,0.0
150.61328125,-44.43359375,-35.64453125,-34.1796875,-35.15625,-80.078125,0.0
150.6171875,-47.8515625,-31.25,-34.1796875,-40.52734375,127.9296875,0.0
150.62109375,-13.18359375,-27.83203125,-34.66796875,-30.76171875,95.21484375,0.0
150.625,-23.92578125,-27.34375,-39.55078125,-32.2265625,-239.74609375,0.0
150.62890625,-32.71484375,-23.4375,-42.48046875,-37.109375,-367.1875,0.0
150.6328125,-17.08984375,-25.87890625,-40.0390625,-26.85546875,-66.89453125,0.0
150.63671875,-29.78515625,-32.2265625,-38.0859375,-34.1796875,181.640625,0.0
150.640625,-43.45703125,-30.76171875,-39.0625,-46.38671875,64.94140625,0.0
150.64453125,-22.4609375,-29.296875,-35.64453125,-41.50390625,-193.84765625,0.0
150.6484375,-23.4375,-30.2734375,-32.2265625,-33.203125,-208.984375,0.0
150.65234375,-50.29296875,-30.2734375,-30.2734375,-36.62109375,-31.73828125,0.0
150.65625,-45.8984375,-24.90234375,-30.76171875,-43.45703125,139.16015625,0.0
150.66015625,-45.41015625,-22.4609375,-29.78515625,-41.015625,163.57421875,0.0
150.6640625,-47.8515625,-30.76171875,-25.87890625,-36.1328125,-68.359375,0.0
150.66796875,-46.38671875,-25.390625,-26.3671875,-38.57421875,-251.953125,0.0
150.671875,-72.265625,-20.01953125,-27.83203125,-37.109375,-175.29296875,0.0
150.67578125,-76.66015625,-20.99609375,-25.87890625,-45.41015625,48.828125,0.0
150.6796875,-46.38671875,-17.578125,-25.390625,-46.875,92.28515625,0.0
150.68359375,-44.921875,-23.92578125,-27.83203125,-26.85546875,-167.48046875,0.0
150.6875,-30.76171875,-26.3671875,-26.3671875,-23.92578125,-363.76953125,0.0
150.69140625,-36.1328125,-30.2734375,-19.04296875,-34.1796875,-200.68359375,0.0
150.6953125,-30.2734375,-30.76171875,-22.94921875,-47.8515625,135.7421875,0.0
150.69921875,-22.94921875,-25.390625,-25.87890625,-44.921875,250.48828125,0.0
150.703125,-41.9921875,-29.78515625,-29.296875,-34.66796875,-34.66796875,0.0
150.70703125,-37.109375,-34.1796875,-33.69140625,-38.0859375,-303.22265625,0.0
150.7109375,-12.20703125,-35.15625,-30.76171875,-31.25,-184.5703125,0.0
150.71484375,-20.5078125,-30.76171875,-30.2734375,-33.203125,39.0625,0.0
150.71875,-24.4140625,-26.85546875,-37.59765625,-53.7109375,192.87109375,0.0
150.72265625,-18.06640625,-27.34375,-36.62109375,-54.6875,84.9609375,0.0
150.7265625,-39.0625,-22.94921875,-27.83203125,-51.7578125,-197.265625,0.0
150.73046875,-38.57421875,-21.97265625,-25.87890625,-40.52734375,-203.125,0.0
150.734375,-29.296875,-29.78515625,-31.73828125,-32.71484375,54.19921875,0.0
150.73828125,-31.25,-35.15625,-37.59765625,-47.8515625,195.80078125,0.0
150.7421875,-39.55078125,-32.2265625,-36.1328125,-53.7109375,4.39453125,0.0
150.74609375,-41.50390625,-32.71484375,-30.2734375,-58.10546875,-259.27734375,0.0
150.75,-38.0859375,-29.296875,-29.296875,-58.10546875,-195.80078125,0.0
150.75390625,-33.203125,-30.2734375,-29.296875,-58.59375,33.69140625,0.0
150.7578125,-43.9453125,-36.1328125,-27.83203125,-59.08203125,215.8203125,0.0
150.76171875,-47.8515625,-42.96875,-24.90234375,-59.5703125,73.2421875,0.0
150.765625,-22.4609375,-38.57421875,-23.92578125,-55.6640625,-269.53125,0.0
150.76953125,-22.4609375,-31.25,-26.85546875,-46.875,-293.9453125,0.0
150.7734375,-53.7109375,-29.78515625,-38.0859375,-46.875,-49.8046875,0.0
150.77734375,-54.19921875,-32.71484375,-40.0390625,-43.45703125,294.43359375,0.0
150.78125,-34.1796875,-31.73828125,-36.62109375,-39.0625,162.59765625,0.0
150.78515625,-25.390625,-26.85546875,-38.57421875,-34.66796875,-142.08984375,0.0
150.7890625,-33.69140625,-22.94921875,-32.2265625,-28.80859375,-174.8046875,0.0
150.79296875,-34.66796875,-30.76171875,-29.78515625,-25.390625,-21.97265625,0.0
150.796875,-34.66796875,-26.85546875,-40.0390625,-25.87890625,267.08984375,0.0
150.80078125,-32.71484375,-21.484375,-45.8984375,-23.92578125,139.16015625,0.0
150.8046875,-25.390625,-25.390625,-42.48046875,-28.3203125,-199.21875,0.0
150.80859375,-30.76171875,-21.97265625,-35.15625,-40.0390625,-268.5546875,0.0
150.8125,-43.45703125,-18.5546875,-33.203125,-37.109375,-91.796875,0.0
150.81640625,-51.26953125,-20.99609375,-36.62109375,-41.015625,265.625,0.0
150.8203125,-35.15625,-19.04296875,-31.25,-39.0625,205.078125,0.0
150.82421875,-32.71484375,-18.5546875,-28.80859375,-20.5078125,-113.76953125,0.0
150.828125,-51.7578125,-28.3203125,-35.64453125,-21.97265625,-151.3671875,0.0
150.83203125,-29.78515625,-31.73828125,-32.71484375,-32.71484375,-83.984375,0.0
150.8359375,-30.76171875,-29.78515625,-29.296875,-35.64453125,116.69921875,0.0
150.83984375,-52.24609375,-32.71484375,-36.62109375,-30.2734375,177.24609375,0.0
150.84375,-39.0625,-26.85546875,-38.0859375,-31.73828125,-100.5859375,0.0
150.84765625,-47.36328125,-24.4140625,-35.64453125,-38.57421875,-252.9296875,0.0
150.8515625,-59.08203125,-30.2734375,-38.0859375,-31.73828125,-83.984375,0.0
150.85546875,-43.45703125,-25.87890625,-37.59765625,-27.34375,229.00390625,0.0
150.859375,-33.203125,-23.92578125,-34.66796875,-35.15625,254.8828125,0.0
150.86328125,-19.53125,-30.2734375,-34.66796875,-30.76171875,17.578125,0.0
150.8671875,-25.87890625,-30.2734375,-37.109375,-27.83203125,-174.8046875,0.0
150.87109375,-36.1328125,-25.390625,-38.0859375,-10.25390625,-183.10546875,0.0
150.875,-21.484375,-24.4140625,-41.50390625,-18.06640625,116.2109375,0.0
150.87890625,-22.4609375,-18.5546875,-40.0390625,-27.34375,327.1484375,0.0
150.8828125,-35.15625,-19.04296875,-43.45703125,-26.85546875,-12.6953125,0.0
150.88671875,-28.3203125,-28.3203125,-48.33984375,-15.13671875,-306.15234375,0.0
150.890625,-21.97265625,-27.34375,-44.43359375,-6.34765625,-233.3984375,0.0
150.89453125,-31.25,-19.53125,-42.48046875,-20.5078125,66.40625,0.0
150.8984375,-28.80859375,-23.4375,-43.45703125,-11.23046875,196.77734375,0.0
150.90234375,-13.671875,-23.92578125,-38.57421875,-7.32421875,24.90234375,0.0
150.90625,-37.109375,-27.34375,-35.64453125,-20.99609375,-136.71875,0.0
150.91015625,-40.0390625,-27.34375,-30.2734375,-18.06640625,-59.08203125,0.0
150.9140625,-37.109375,-25.390625,-29.296875,-23.92578125,158.69140625,0.0
150.91796875,-49.31640625,-37.109375,-35.15625,-35.64453125,168.45703125,0.0
150.921875,-36.1328125,-32.2265625,-36.1328125,-29.78515625,-24.4140625,0.0
150.92578125,-27.83203125,-25.390625,-37.109375,-25.390625,-159.66796875,0.0
150.9296875,-23.4375,-31.25,-38.57421875,-27.34375,-175.29296875,0.0
150.93359375,2.44140625,-31.73828125,-34.66796875,-39.55078125,-58.59375,0.0
150.9375,-18.5546875,-36.1328125,-35.64453125,-36.1328125,145.99609375,0.0
150.94140625,-23.4375,-36.62109375,-33.69140625,-18.06640625,112.3046875,0.0
150.9453125,-28.80859375,-24.90234375,-29.296875,-33.203125,-171.38671875,0.0
150.94921875,-49.8046875,-26.3671875,-35.64453125,-48.33984375,-293.45703125,0.0
150.953125,-30.2734375,-30.2734375,-29.78515625,-38.0859375,-125.0,0.0
150.95703125,-27.83203125,-28.3203125,-24.4140625,-47.8515625,94.23828125,0.0
150.9609375,-40.52734375,-33.203125,-30.2734375,-56.640625,96.19140625,0.0
150.96484375,-34.1796875,-39.0625,-29.296875,-44.43359375,-86.9140625,0.0
150.96875,-19.53125,-34.66796875,-25.390625,-40.52734375,-207.51953125,0.0
150.97265625,-8.7890625,-30.76171875,-21.484375,-32.71484375,-84.47265625,0.0
150.9765625,-15.625,-33.69140625,-28.3203125,-28.80859375,113.76953125,0.0
150.98046875,-21.484375,-33.203125,-31.25,-34.1796875,64.94140625,0.0
150.984375,-6.34765625,-27.34375,-25.87890625,-25.390625,-150.87890625,0.0
150.98828125,-6.34765625,-22.4609375,-28.3203125,-27.83203125,-279.296875,0.0
150.9921875,-12.6953125,-30.76171875,-35.15625,-23.92578125,-166.50390625,0.0
150.99609375,5.859375,-36.1328125,-36.1328125,-17.08984375,44.43359375,0.0
151.0,-16.6015625,-30.2734375,-36.1328125,-24.90234375,88.8671875,0.0
151.00390625,-17.578125,-26.85546875,-32.2265625,-32.2265625,-182.12890625,0.0
151.0078125,5.37109375,-26.85546875,-27.83203125,-36.1328125,-370.1171875,0.0
151.01171875,-21.484375,-34.66796875,-29.78515625,-39.0625,-176.26953125,0.0
151.015625,-19.04296875,-30.76171875,-31.73828125,-47.8515625,76.171875,0.0
151.01953125,15.625,-21.484375,-37.109375,-49.8046875,166.015625,0.0
151.0234375,11.23046875,-22.4609375,-37.59765625,-44.43359375,-27.83203125,0.0
151.02734375,11.23046875,-15.13671875,-36.62109375,-40.0390625,-300.78125,0.0
151.03125,-11.23046875,-11.71875,-33.203125,-44.43359375,-253.90625,0.0
151.03515625,-24.4140625,-14.16015625,-28.80859375,-47.8515625,34.66796875,0.0
151.0390625,-1.46484375,-20.01953125,-31.73828125,-45.41015625,123.53515625,0.0
151.04296875,0.9765625,-14.16015625,-39.0625,-42.48046875,-73.73046875,0.0
151.046875,-17.578125,-19.53125,-39.55078125,-34.66796875,-216.30859375,0.0
151.05078125,-32.71484375,-26.85546875,-39.55078125,-34.1796875,-132.8125,0.0
151.0546875,-38.0859375,-18.06640625,-39.55078125,-36.1328125,136.23046875,0.0
151.05859375,-38.0859375,-27.34375,-35.64453125,-45.41015625,271.97265625,0.0
151.0625,-37.109375,-38.57421875,-34.66796875,-40.52734375,91.30859375,0.0
151.06640625,-26.85546875,-32.2265625,-32.71484375,-36.1328125,-234.86328125,0.0
151.0703125,-37.59765625,-28.3203125,-29.78515625,-37.109375,-258.30078125,0.0
151.07421875,-52.24609375,-23.92578125,-25.87890625,-41.9921875,112.3046875,0.0
151.078125,-58.10546875,-20.5078125,-30.2734375,-36.62109375,253.90625,0.0
151.08203125,-53.22265625,-27.34375,-30.76171875,-25.87890625,77.1484375,0.0
151.0859375,-29.296875,-28.3203125,-33.203125,-35.64453125,-176.7578125,0.0
151.08984375,-23.4375,-17.08984375,-35.64453125,-34.1796875,-238.76953125,0.0
151.09375,-34.66796875,-22.94921875,-35.64453125,-36.1328125,-8.7890625,0.0
151.09765625,-37.109375,-27.34375,-35.15625,-38.57421875,173.828125,0.0
151.1015625,-36.1328125,-24.4140625,-34.1796875,-28.80859375,41.50390625,0.0
151.10546875,-34.66796875,-38.57421875,-38.0859375,-28.3203125,-248.046875,0.0
151.109375,-23.4375,-38.57421875,-38.0859375,-38.57421875,-283.203125,0.0
151.11328125,-21.97265625,-29.296875,-32.2265625,-34.66796875,-14.16015625,0.0
151.1171875,-36.1328125,-31.25,-29.78515625,-29.78515625,158.203125,0.0
151.12109375,-41.9921875,-32.71484375,-36.62109375,-33.69140625,82.03125,0.0
151.125,-29.296875,-30.2734375,-38.57421875,-41.015625,-175.78125,0.0
151.12890625,-39.0625,-31.73828125,-33.69140625,-39.0625,-316.40625,0.0
151.1328125,-44.921875,-30.2734375,-31.25,-30.2734375,-101.5625,0.0
151.13671875,-19.04296875,-33.69140625,-32.2265625,-38.57421875,78.61328125,0.0
151.140625,-23.4375,-36.1328125,-41.50390625,-46.875,156.73828125,0.0
151.14453125,-25.390625,-31.25,-41.50390625,-33.69140625,-131.8359375,0.0
151.1484375,-25.87890625,-29.296875,-27.83203125,-19.04296875,-445.80078125,0.0
151.15234375,-32.2265625,-25.390625,-29.296875,-28.3203125,-148.92578125,0.0
151.15625,-14.6484375,-32.71484375,-37.109375,-29.78515625,265.13671875,0.0
151.16015625,-27.34375,-41.9921875,-34.1796875,-32.71484375,299.8046875,0.0
151.1640625,-55.17578125,-41.9921875,-35.15625,-42.48046875,-4.8828125,0.0
151.16796875,-47.36328125,-37.109375,-32.71484375,-39.0625,-296.38671875,0.0
151.171875,-36.1328125,-38.57421875,-37.59765625,-43.9453125,-125.9765625,0.0
151.17578125,-41.9921875,-41.50390625,-38.57421875,-54.6875,214.35546875,0.0
151.1796875,-20.01953125,-42.48046875,-36.1328125,-41.015625,265.625,0.0
151.18359375,-21.97265625,-38.0859375,-34.66796875,-27.34375,59.08203125,0.0
151.1875,-43.45703125,-32.2265625,-31.25,-44.43359375,-197.265625,0.0
151.19140625,-32.71484375,-27.34375,-34.1796875,-41.50390625,-65.4296875,0.0
151.1953125,-29.296875,-31.25,-34.66796875,-36.62109375,230.46875,0.0
151.19921875,-34.66796875,-30.76171875,-38.0859375,-42.48046875,208.984375,0.0
151.203125,-3.41796875,-27.34375,-39.55078125,-32.2265625,-24.4140625,0.0
151.20703125,-8.30078125,-27.34375,-35.15625,-33.69140625,-201.66015625,0.0
151.2109375,-27.83203125,-21.484375,-31.73828125,-28.80859375,-78.61328125,0.0
151.21484375,-9.27734375,-17.08984375,-26.85546875,-12.20703125,135.7421875,0.0
151.21875,0.48828125,-17.08984375,-29.296875,-15.13671875,182.6171875,0.0
151.22265625,-13.671875,-18.5546875,-31.73828125,-28.3203125,61.03515625,0.0
151.2265625,-31.25,-21.97265625,-33.203125,-40.0390625,74.70703125,0.0
151.23046875,-21.484375,-23.92578125,-36.62109375,-30.2734375,20.01953125,0.0
151.234375,-11.23046875,-17.08984375,-35.15625,-12.6953125,-40.52734375,0.0
151.23828125,-11.71875,-11.23046875,-34.1796875,-15.625,-16.11328125,0.0
151.2421875,-18.06640625,-16.6015625,-30.76171875,-36.1328125,-27.83203125,0.0
151.24609375,-33.203125,-16.11328125,-25.390625,-35.15625,-24.4140625,0.0
151.25,-27.83203125,-12.20703125,-22.94921875,-28.3203125,-1.46484375,0.0
151.25390625,-24.4140625,-20.5078125,-30.2734375,-38.57421875,4.39453125,0.0
151.2578125,-43.45703125,-31.25,-41.50390625,-33.203125,-37.59765625,0.0
151.26171875,-39.0625,-28.80859375,-44.921875,-37.59765625,-79.1015625,0.0
151.265625,-35.64453125,-30.76171875,-40.0390625,-44.921875,-74.21875,0.0
151.26953125,-26.85546875,-34.1796875,-36.1328125,-26.3671875,-125.48828125,0.0
151.2734375,-33.203125,-29.78515625,-39.55078125,-33.69140625,14.6484375,0.0
151.27734375,-47.8515625,-26.3671875,-37.109375,-34.1796875,114.74609375,0.0
151.28125,-39.0625,-26.85546875,-32.71484375,-20.01953125,33.203125,0.0
151.28515625,-26.85546875,-28.3203125,-34.1796875,-24.4140625,-204.1015625,0.0
151.2890625,-19.53125,-31.25,-34.66796875,-22.4609375,-229.98046875,0.0
151.29296875,-27.83203125,-31.73828125,-33.69140625,-17.578125,1.953125,0.0
151.296875,-19.04296875,-27.83203125,-32.71484375,-15.13671875,194.82421875,0.0
151.30078125,-0.9765625,-27.83203125,-35.15625,-13.18359375,145.99609375,0.0
151.3046875,-16.11328125,-31.25,-40.52734375,-15.13671875,-96.6796875,0.0
151.30859375,-10.25390625,-33.203125,-40.52734375,-20.99609375,-279.296875,0.0
151.3125,0.9765625,-32.71484375,-36.1328125,-20.5078125,-153.3203125,0.0
151.31640625,-7.32421875,-32.2265625,-37.59765625,-27.34375,118.1640625,0.0
151.3203125,-13.671875,-26.85546875,-39.0625,-22.94921875,181.15234375,0.0
151.32421875,-17.578125,-27.83203125,-33.69140625,-10.25390625,-130.37109375,0.0
151.328125,-18.06640625,-25.87890625,-29.296875,-23.92578125,-401.85546875,0.0
151.33203125,-29.296875,-21.97265625,-24.4140625,-31.25,-216.30859375,0.0
151.3359375,-13.671875,-19.53125,-29.296875,-27.34375,47.36328125,0.0
151.33984375,-6.34765625,-23.4375,-34.66796875,-20.01953125,125.0,0.0
151.34375,-20.99609375,-32.2265625,-29.296875,-24.4140625,-81.0546875,0.0
151.34765625,-10.25390625,-26.85546875,-26.3671875,-28.3203125,-393.06640625,0.0
151.3515625,-16.6015625,-24.4140625,-25.87890625,-16.6015625,-300.78125,0.0
151.35546875,-28.80859375,-20.01953125,-25.87890625,-20.99609375,23.4375,0.0
151.359375,-19.04296875,-20.99609375,-27.83203125,-24.4140625,178.7109375,0.0
151.36328125,-23.92578125,-27.83203125,-26.85546875,-28.80859375,-12.6953125,0.0
151.3671875,-32.71484375,-28.3203125,-22.4609375,-25.390625,-317.3828125,0.0
151.37109375,-25.390625,-31.25,-22.94921875,-24.4140625,-246.09375,0.0
151.375,-2.9296875,-29.296875,-23.4375,-17.578125,27.83203125,0.0
151.37890625,-11.71875,-21.484375,-30.76171875,-22.4609375,105.46875,0.0
151.3828125,-31.73828125,-28.3203125,-31.73828125,-17.578125,-57.12890625,0.0
151.38671875,-11.23046875,-29.78515625,-29.78515625,-16.6015625,-303.7109375,0.0
151.390625,-10.7421875,-23.4375,-34.66796875,-37.59765625,-277.34375,0.0
151.39453125,-23.4375,-30.2734375,-35.64453125,-41.015625,34.1796875,0.0
151.3984375,-19.04296875,-30.2734375,-38.0859375,-46.38671875,245.1171875,0.0
151.40234375,-3.41796875,-26.3671875,-35.15625,-42.48046875,47.36328125,0.0
151.40625,-9.27734375,-30.76171875,-33.203125,-32.71484375,-246.58203125,0.0
151.41015625,-26.85546875,-33.203125,-37.59765625,-40.52734375,-204.1015625,0.0
151.4140625,-32.71484375,-38.0859375,-33.69140625,-32.71484375,148.92578125,0.0
151.41796875,-42.48046875,-41.015625,-31.73828125,-34.1796875,340.8203125,0.0
151.421875,-42.48046875,-35.64453125,-35.15625,-39.55078125,38.0859375,0.0
151.42578125,-34.66796875,-35.64453125,-33.69140625,-14.16015625,-249.51171875,0.0
151.4296875,-25.390625,-35.15625,-25.390625,7.32421875,-190.91796875,0.0
151.43359375,-28.80859375,-37.59765625,-16.11328125,2.44140625,37.109375,0.0
151.4375,-25.87890625,-37.109375,-21.484375,-16.6015625,244.62890625,0.0
151.44140625,-25.390625,-29.296875,-25.390625,-5.37109375,175.29296875,0.0
151.4453125,-48.33984375,-23.92578125,-22.4609375,5.859375,-163.0859375,0.0
151.44921875,-32.2265625,-20.01953125,-22.4609375,2.9296875,-294.43359375,0.0
151.453125,-29.296875,-21.484375,-26.85546875,-6.8359375,-76.66015625,0.0
151.45703125,-38.57421875,-25.390625,-31.73828125,-13.671875,-108.3984375,0.0
151.4609375,-43.45703125,-31.73828125,-35.64453125,-24.90234375,-63.96484375,0.0
151.46484375,-31.25,-41.50390625,-36.1328125,-35.15625,-75.1953125,0.0
151.46875,-37.109375,-41.50390625,-33.203125,-26.85546875,-124.0234375,0.0
151.47265625,-61.5234375,-41.015625,-30.76171875,-24.4140625,-97.65625,0.0
151.4765625,-45.41015625,-38.0859375,-30.76171875,-33.69140625,-104.4921875,0.0
151.48046875,-34.66796875,-41.015625,-32.2265625,-32.2265625,-116.2109375,0.0
151.484375,-25.87890625,-40.52734375,-28.3203125,-28.80859375,-74.70703125,0.0
151.48828125,-7.8125,-27.34375,-26.85546875,-24.90234375,-44.43359375,0.0
151.4921875,-4.8828125,-34.66796875,-24.4140625,-27.34375,33.203125,0.0
151.49609375,-15.13671875,-34.66796875,-21.484375,-32.71484375,79.58984375,0.0
151.5,-13.671875,-31.25,-26.3671875,-29.296875,130.37109375,0.0
151.50390625,-10.25390625,-34.1796875,-28.3203125,-29.78515625,-86.42578125,0.0
151.5078125,-26.3671875,-31.25,-25.87890625,-29.296875,-285.64453125,0.0
151.51171875,-31.25,-23.92578125,-26.3671875,-19.04296875,-174.8046875,0.0
151.515625,-13.671875,-20.5078125,-31.73828125,-23.92578125,140.625,0.0
151.51953125,11.71875,-28.3203125,-33.203125,-34.1796875,198.2421875,0.0
151.5234375,11.23046875,-31.25,-30.76171875,-31.73828125,-101.5625,0.0
151.52734375,-8.7890625,-26.3671875,-28.3203125,-23.4375,-352.5390625,0.0
151.53125,-21.484375,-35.15625,-26.85546875,-30.2734375,-258.30078125,0.0
151.53515625,-28.80859375,-41.015625,-28.80859375,-32.71484375,43.9453125,0.0
151.5390625,-25.390625,-34.1796875,-29.296875,-35.15625,227.05078125,0.0
151.54296875,-38.0859375,-32.71484375,-31.73828125,-38.57421875,-9.27734375,0.0
151.546875,-42.48046875,-29.296875,-42.48046875,-26.85546875,-303.22265625,0.0
151.55078125,-30.76171875,-18.06640625,-40.0390625,-28.80859375,-197.265625,0.0
151.5546875,-27.83203125,-26.3671875,-32.71484375,-42.96875,112.79296875,0.0
151.55859375,-36.1328125,-37.109375,-38.0859375,-38.57421875,359.86328125,0.0
151.5625,-32.2265625,-36.1328125,-37.109375,-26.3671875,124.0234375,0.0
151.56640625,-23.4375,-33.203125,-33.69140625,-22.4609375,-254.39453125,0.0
151.5703125,-19.53125,-34.1796875,-29.78515625,-29.296875,-260.25390625,0.0
151.57421875,-25.390625,-34.66796875,-26.85546875,-40.0390625,-24.90234375,0.0
151.578125,-35.64453125,-40.0390625,-28.80859375,-34.66796875,213.8671875,0.0
151.58203125,-32.71484375,-35.64453125,-32.2265625,-39.55078125,104.4921875,0.0
151.5859375,-34.1796875,-31.25,-33.69140625,-44.43359375,-170.8984375,0.0
151.58984375,-41.9921875,-39.55078125,-28.80859375,-25.87890625,-221.6796875,0.0
151.59375,-60.05859375,-46.875,-29.296875,-33.69140625,60.546875,0.0
151.59765625,-57.12890625,-44.921875,-26.85546875,-55.6640625,295.41015625,0.0
151.6015625,-49.8046875,-41.50390625,-26.85546875,-50.78125,136.71875,0.0
151.60546875,-65.91796875,-43.9453125,-33.203125,-49.31640625,-180.6640625,0.0
151.609375,-58.59375,-46.38671875,-38.0859375,-55.17578125,-239.74609375,0.0
151.61328125,-28.80859375,-45.8984375,-34.1796875,-72.75390625,-49.8046875,0.0
151.6171875,-31.73828125,-41.50390625,-36.62109375,-69.3359375,197.75390625,0.0
151.62109375,-38.0859375,-41.50390625,-40.0390625,-47.8515625,209.47265625,0.0
151.625,-35.15625,-49.31640625,-34.1796875,-44.921875,-119.62890625,0.0
151.62890625,-27.83203125,-44.43359375,-27.34375,-36.1328125,-327.1484375,0.0
151.6328125,-18.06640625,-32.71484375,-31.25,-35.64453125,-130.859375,0.0
151.63671875,-13.671875,-30.2734375,-33.203125,-30.76171875,211.42578125,0.0
151.640625,-18.5546875,-33.69140625,-26.3671875,-19.04296875,195.3125,0.0
151.64453125,-15.13671875,-37.109375,-23.92578125,-21.97265625,-137.6953125,0.0
151.6484375,-8.7890625,-31.73828125,-26.85546875,-31.25,-288.57421875,0.0
151.65234375,-22.94921875,-32.71484375,-24.90234375,-19.53125,-111.81640625,0.0
151.65625,-33.203125,-35.64453125,-23.92578125,-14.6484375,90.8203125,0.0
151.66015625,-36.1328125,-34.1796875,-32.71484375,-31.25,110.3515625,0.0
151.6640625,-38.0859375,-37.109375,-29.78515625,-31.73828125,-120.1171875,0.0
151.66796875,-35.15625,-34.66796875,-24.90234375,-20.5078125,-325.68359375,0.0
151.671875,-33.69140625,-40.0390625,-28.80859375,-21.97265625,-149.4140625,0.0
151.67578125,-34.1796875,-42.48046875,-33.203125,-21.97265625,74.21875,0.0
151.6796875,-41.50390625,-41.015625,-34.66796875,-22.94921875,156.73828125,0.0
151.68359375,-42.48046875,-42.48046875,-35.64453125,-20.01953125,-32.71484375,0.0
151.6875,-24.4140625,-36.1328125,-34.66796875,-9.27734375,-345.21484375,0.0
151.69140625,-35.15625,-31.73828125,-33.69140625,-10.25390625,-230.95703125,0.0
151.6953125,-23.92578125,-34.1796875,-35.64453125,-8.30078125,76.66015625,0.0
151.69921875,-15.625,-35.15625,-46.38671875,-20.5078125,194.3359375,0.0
151.703125,-18.5546875,-29.296875,-54.19921875,-30.2734375,-65.4296875,0.0
151.70703125,-14.6484375,-30.2734375,-43.9453125,-18.06640625,-326.66015625,0.0
151.7109375,-18.06640625,-31.73828125,-35.64453125,-5.37109375,-196.77734375,0.0
151.71484375,-26.3671875,-32.71484375,-40.52734375,-9.27734375,90.33203125,0.0
151.71875,-36.1328125,-35.64453125,-43.9453125,-21.484375,225.5859375,0.0
151.72265625,-30.76171875,-35.64453125,-41.9921875,-28.3203125,-4.39453125,0.0
151.7265625,-26.3671875,-37.109375,-39.55078125,-30.2734375,-300.29296875,0.0
151.73046875,-34.1796875,-42.48046875,-42.96875,-29.296875,-266.6015625,0.0
151.734375,-42.96875,-44.921875,-45.8984375,-41.50390625,1.953125,0.0
151.73828125,-34.66796875,-35.64453125,-43.9453125,-41.50390625,198.73046875,0.0
151.7421875,-45.8984375,-30.2734375,-42.96875,-34.66796875,65.4296875,0.0
151.74609375,-41.50390625,-31.25,-35.15625,-45.8984375,-263.671875,0.0
151.75,-8.30078125,-22.4609375,-29.296875,-46.875,-300.78125,0.0
151.75390625,-16.6015625,-19.04296875,-26.3671875,-25.87890625,-26.85546875,0.0
151.7578125,-39.55078125,-35.64453125,-21.484375,-21.97265625,234.86328125,0.0
151.76171875,-42.48046875,-39.0625,-23.92578125,-40.0390625,119.140625,0.0
151.765625,-33.203125,-32.2265625,-31.25,-35.64453125,-185.546875,0.0
151.76953125,-24.4140625,-35.64453125,-34.1796875,-22.4609375,-237.3046875,0.0
151.7734375,-19.53125,-39.0625,-33.203125,-14.6484375,-23.4375,0.0
151.77734375,-9.765625,-38.0859375,-33.69140625,-19.04296875,205.56640625,0.0
151.78125,-13.18359375,-41.015625,-42.96875,-31.73828125,71.77734375,0.0
151.78515625,-19.04296875,-41.50390625,-47.8515625,-29.296875,-288.0859375,0.0
151.7890625,-17.08984375,-35.64453125,-44.43359375,-26.85546875,-345.703125,0.0
151.79296875,-18.06640625,-32.2265625,-38.0859375,-22.94921875,-102.05078125,0.0
151.796875,-17.578125,-33.69140625,-44.43359375,-21.484375,118.1640625,0.0
151.80078125,-21.484375,-32.71484375,-49.31640625,-28.80859375,204.58984375,0.0
151.8046875,-16.11328125,-30.76171875,-38.0859375,-19.53125,16.6015625,0.0
151.80859375,-14.16015625,-35.64453125,-35.64453125,-13.18359375,-203.61328125,0.0
151.8125,-30.2734375,-40.52734375,-45.8984375,-23.4375,-57.6171875,0.0
151.81640625,-21.484375,-44.43359375,-45.8984375,-15.625,153.80859375,0.0
151.8203125,-19.53125,-46.875,-44.43359375,-5.859375,175.29296875,0.0
151.82421875,-53.22265625,-41.015625,-45.8984375,-14.16015625,-87.40234375,0.0
151.828125,-45.8984375,-32.2265625,-44.921875,-10.7421875,-302.24609375,0.0
151.83203125,-30.2734375,-33.203125,-38.0859375,-6.8359375,-19.04296875,0.0
151.8359375,-37.109375,-34.1796875,-30.2734375,0.48828125,277.83203125,0.0
151.83984375,-33.69140625,-32.71484375,-31.73828125,-0.9765625,276.3671875,0.0
151.84375,-9.765625,-32.2265625,-34.66796875,-10.25390625,62.98828125,0.0
151.84765625,-23.4375,-29.78515625,-24.4140625,3.41796875,-265.625,0.0
151.8515625,-40.0390625,-26.3671875,-20.5078125,7.32421875,-199.70703125,0.0
151.85546875,-33.203125,-27.83203125,-29.296875,-3.90625,180.17578125,0.0
151.859375,-41.015625,-33.203125,-34.1796875,-3.90625,241.2109375,0.0
151.86328125,-43.9453125,-33.69140625,-30.76171875,-12.20703125,29.78515625,0.0
151.8671875,-37.59765625,-27.34375,-31.73828125,-21.484375,-241.69921875,0.0
151.87109375,-33.203125,-28.3203125,-38.57421875,-23.92578125,-193.84765625,0.0
151.875,-29.78515625,-28.80859375,-34.1796875,-28.80859375,120.1171875,0.0
151.87890625,-26.3671875,-19.04296875,-33.203125,-37.109375,244.140625,0.0
151.8828125,-33.203125,-28.3203125,-39.55078125,-28.3203125,108.88671875,0.0
151.88671875,-30.76171875,-38.0859375,-38.57421875,-21.484375,-176.7578125,0.0
151.890625,-29.296875,-42.96875,-34.1796875,-26.85546875,-231.93359375,0.0
151.89453125,-32.2265625,-42.96875,-27.83203125,-34.1796875,13.671875,0.0
151.8984375,-44.43359375,-36.62109375,-20.01953125,-28.80859375,217.28515625,0.0
151.90234375,-57.6171875,-39.0625,-21.97265625,-23.4375,84.47265625,0.0
151.90625,-43.45703125,-46.38671875,-23.92578125,-17.578125,-192.87109375,0.0
151.91015625,-23.4375,-39.55078125,-23.92578125,-35.64453125,-204.1015625,0.0
151.9140625,-23.92578125,-38.0859375,-24.4140625,-41.50390625,15.13671875,0.0
151.91796875,-26.85546875,-45.41015625,-26.3671875,-20.5078125,226.5625,0.0
151.921875,-27.83203125,-41.9921875,-30.2734375,-33.203125,43.9453125,0.0
151.92578125,-29.296875,-48.828125,-30.2734375,-41.9921875,-149.4140625,0.0
151.9296875,-38.0859375,-46.38671875,-28.80859375,-33.203125,-58.59375,0.0
151.93359375,-47.8515625,-41.9921875,-29.78515625,-35.15625,20.01953125,0.0
151.9375,-36.62109375,-45.8984375,-26.85546875,-25.390625,3.41796875,0.0
151.94140625,-40.0390625,-38.0859375,-25.390625,-19.53125,5.37109375,0.0
151.9453125,-38.0859375,-32.71484375,-26.3671875,-19.53125,-4.8828125,0.0
151.94921875,-41.50390625,-39.55078125,-20.99609375,-32.2265625,-39.55078125,0.0
151.953125,-65.4296875,-46.875,-19.04296875,-37.109375,-69.82421875,0.0
151.95703125,-54.6875,-46.875,-22.4609375,-42.48046875,-45.41015625,0.0
151.9609375,-38.0859375,-47.8515625,-23.92578125,-43.9453125,1.953125,0.0
151.96484375,-59.5703125,-50.29296875,-24.90234375,-31.25,-92.7734375,0.0
151.96875,-51.26953125,-40.0390625,-32.2265625,-19.53125,-70.80078125,0.0
151.97265625,-32.71484375,-37.59765625,-31.25,-14.6484375,46.875,0.0
151.9765625,-34.66796875,-39.55078125,-29.296875,-25.87890625,-41.50390625,0.0
151.98046875,-34.66796875,-37.59765625,-33.69140625,-25.390625,-30.76171875,0.0
151.984375,-38.57421875,-41.9921875,-36.1328125,-24.90234375,27.34375,0.0
151.98828125,-37.109375,-42.48046875,-30.2734375,-7.8125,-23.92578125,0.0
151.9921875,-38.57421875,-34.1796875,-31.73828125,-9.765625,-19.53125,0.0
151.99609375,-61.5234375,-36.62109375,-37.109375,-46.875,-39.55078125,0.0
152.0,-55.6640625,-39.0625,-36.62109375,-42.96875,-64.94140625,0.0
152.00390625,-32.2265625,-32.2265625,-38.57421875,-25.87890625,-27.83203125,0.0
152.0078125,-37.109375,-36.62109375,-38.0859375,-28.80859375,-4.8828125,0.0
152.01171875,-51.7578125,-37.109375,-41.50390625,-26.3671875,-19.04296875,0.0
152.015625,-54.6875,-36.62109375,-46.38671875,-18.5546875,-43.45703125,0.0
152.01953125,-55.17578125,-37.59765625,-47.8515625,-27.34375,269.53125,0.0
152.0234375,-42.96875,-36.62109375,-42.48046875,-30.76171875,18.06640625,0.0
152.02734375,-33.203125,-38.0859375,-37.59765625,-23.4375,-278.3203125,0.0
152.03125,-17.578125,-36.1328125,-40.52734375,-23.92578125,-250.0,0.0
152.03515625,-24.4140625,-34.66796875,-43.9453125,-33.203125,10.25390625,0.0
152.0390625,-64.453125,-35.15625,-42.96875,-33.69140625,206.0546875,0.0
152.04296875,-55.6640625,-41.50390625,-33.69140625,-35.64453125,52.24609375,0.0
152.046875,-40.0390625,-45.8984375,-29.78515625,-33.203125,-244.140625,0.0
152.05078125,-32.71484375,-39.55078125,-22.94921875,-16.6015625,-186.03515625,0.0
152.0546875,-20.01953125,-37.59765625,-20.99609375,-20.5078125,136.23046875,0.0
152.05859375,-30.2734375,-35.64453125,-38.57421875,-41.50390625,222.65625,0.0
152.0625,-41.9921875,-28.80859375,-40.52734375,-47.8515625,-24.90234375,0.0
152.06640625,-41.50390625,-21.97265625,-38.0859375,-46.38671875,-371.58203125,0.0
152.0703125,-38.57421875,-21.484375,-37.109375,-44.43359375,-312.5,0.0
152.07421875,-34.66796875,-27.83203125,-29.78515625,-32.71484375,116.69921875,0.0
152.078125,-32.71484375,-31.25,-31.25,-28.3203125,365.72265625,0.0
152.08203125,-33.203125,-31.25,-34.1796875,-49.31640625,223.14453125,0.0
152.0859375,-35.64453125,-31.25,-33.69140625,-58.10546875,-76.171875,0.0
152.08984375,-38.0859375,-33.69140625,-37.59765625,-49.31640625,-213.37890625,0.0
152.09375,-31.73828125,-32.71484375,-41.50390625,-41.015625,73.2421875,0.0
152.09765625,-38.57421875,-26.85546875,-44.43359375,-43.45703125,287.59765625,0.0
152.1015625,-42.96875,-28.3203125,-47.36328125,-52.24609375,99.12109375,0.0
152.10546875,-30.2734375,-33.69140625,-44.43359375,-48.33984375,-140.13671875,0.0
152.109375,-15.625,-38.0859375,-40.52734375,-32.2265625,-285.64453125,0.0
152.11328125,-21.97265625,-33.203125,-39.55078125,-30.76171875,-146.97265625,0.0
152.1171875,-33.203125,-32.71484375,-40.0390625,-40.0390625,140.13671875,0.0
152.12109375,-39.55078125,-32.2265625,-40.0390625,-45.41015625,145.5078125,0.0
152.125,-43.45703125,-29.78515625,-37.109375,-40.52734375,-163.57421875,0.0
152.12890625,-54.6875,-27.34375,-32.71484375,-35.15625,-367.67578125,0.0
152.1328125,-51.26953125,-29.296875,-29.78515625,-28.3203125,-107.91015625,0.0
152.13671875,-43.45703125,-34.66796875,-32.71484375,-27.34375,253.90625,0.0
152.140625,-35.64453125,-35.15625,-31.25,-22.94921875,243.65234375,0.0
152.14453125,-41.9921875,-36.1328125,-28.3203125,-12.20703125,-140.625,0.0
152.1484375,-50.78125,-38.57421875,-27.83203125,-15.13671875,-333.0078125,0.0
152.15234375,-45.41015625,-41.50390625,-28.3203125,-20.99609375,-95.21484375,0.0
152.15625,-20.01953125,-32.71484375,-32.2265625,-13.18359375,208.0078125,0.0
152.16015625,-20.99609375,-26.85546875,-34.66796875,-11.23046875,200.1953125,0.0
152.1640625,-33.69140625,-31.73828125,-35.15625,-3.41796875,-67.3828125,0.0
152.16796875,-37.109375,-35.64453125,-30.2734375,-13.671875,-290.52734375,0.0
152.171875,-27.34375,-36.1328125,-27.34375,-34.1796875,-192.3828125,0.0
152.17578125,-41.50390625,-33.69140625,-31.73828125,-38.0859375,138.671875,0.0
152.1796875,-60.05859375,-34.1796875,-37.109375,-35.64453125,176.26953125,0.0
152.18359375,-44.921875,-35.64453125,-36.62109375,-33.69140625,5.37109375,0.0
152.1875,-39.0625,-35.64453125,-34.66796875,-41.015625,-281.25,0.0
152.19140625,-24.4140625,-25.390625,-24.4140625,-32.71484375,-241.69921875,0.0
152.1953125,-32.71484375,-21.97265625,-21.484375,-32.2265625,184.5703125,0.0
152.19921875,-39.0625,-28.3203125,-27.83203125,-38.57421875,250.9765625,0.0
152.203125,-41.50390625,-24.90234375,-26.85546875,-30.76171875,-5.37109375,0.0
152.20703125,-50.29296875,-25.87890625,-32.2265625,-22.4609375,-268.5546875,0.0
152.2109375,-46.38671875,-29.78515625,-32.2265625,-14.16015625,-189.453125,0.0
152.21484375,-43.45703125,-28.80859375,-30.2734375,-13.18359375,133.7890625,0.0
152.21875,-41.015625,-36.62109375,-33.203125,-22.94921875,227.5390625,0.0
152.22265625,-21.484375,-39.55078125,-34.1796875,-32.2265625,-26.85546875,0.0
152.2265625,-22.94921875,-29.78515625,-32.71484375,-25.390625,-367.1875,0.0
152.23046875,-37.109375,-37.109375,-28.80859375,-18.5546875,-320.3125,0.0
152.234375,-28.80859375,-39.0625,-31.25,-32.2265625,1.953125,0.0
152.23828125,-14.6484375,-31.25,-29.296875,-27.34375,201.66015625,0.0
152.2421875,-22.94921875,-34.1796875,-31.73828125,-18.06640625,75.68359375,0.0
152.24609375,-44.921875,-31.25,-37.59765625,-20.01953125,-213.8671875,0.0
152.25,-47.36328125,-26.85546875,-40.0390625,-20.5078125,-213.8671875,0.0
152.25390625,-24.90234375,-25.390625,-39.55078125,-12.6953125,-10.7421875,0.0
152.2578125,-29.78515625,-25.390625,-34.66796875,-14.16015625,110.83984375,0.0
152.26171875,-39.0625,-31.73828125,-36.1328125,-12.6953125,-9.765625,0.0
152.265625,-39.55078125,-34.66796875,-41.9921875,-6.34765625,-252.9296875,0.0
152.26953125,-43.9453125,-34.1796875,-42.48046875,-27.34375,-252.9296875,0.0
152.2734375,-48.828125,-37.109375,-38.0859375,-29.78515625,-21.97265625,0.0
152.27734375,-43.45703125,-45.8984375,-41.9921875,-34.1796875,158.69140625,0.0
152.28125,-27.83203125,-51.7578125,-44.921875,-45.8984375,56.15234375,0.0
152.28515625,-26.85546875,-45.41015625,-35.15625,-38.57421875,-139.6484375,0.0
152.2890625,-34.66796875,-33.203125,-31.73828125,-30.2734375,-170.8984375,0.0
152.29296875,-25.87890625,-29.296875,-30.76171875,-29.296875,55.6640625,0.0
152.296875,-21.97265625,-30.76171875,-34.1796875,-37.59765625,288.57421875,0.0
152.30078125,-32.2265625,-33.69140625,-41.9921875,-35.64453125,191.40625,0.0
152.3046875,-25.87890625,-31.73828125,-39.55078125,-16.6015625,-118.65234375,0.0
152.30859375,-11.71875,-30.2734375,-33.69140625,-5.37109375,-252.44140625,0.0
152.3125,-29.296875,-29.78515625,-32.71484375,-18.5546875,-27.34375,0.0
152.31640625,-50.78125,-31.25,-30.2734375,-12.20703125,170.41015625,0.0
152.3203125,-25.87890625,-35.15625,-25.390625,-13.18359375,148.4375,0.0
152.32421875,-23.92578125,-35.64453125,-26.3671875,-22.94921875,-47.8515625,0.0
152.328125,-46.875,-42.48046875,-29.296875,-19.04296875,-229.00390625,0.0
152.33203125,-31.73828125,-41.9921875,-34.66796875,-24.90234375,-139.16015625,0.0
152.3359375,-27.34375,-38.0859375,-31.25,-18.5546875,112.79296875,0.0
152.33984375,-45.41015625,-36.62109375,-25.390625,-18.5546875,193.359375,0.0
152.34375,-41.015625,-34.66796875,-29.296875,-22.94921875,-34.66796875,0.0
152.34765625,-31.73828125,-34.1796875,-31.25,-32.71484375,-269.04296875,0.0
152.3515625,-40.0390625,-34.1796875,-33.69140625,-38.57421875,-190.4296875,0.0
152.35546875,-47.8515625,-39.55078125,-36.1328125,-33.69140625,93.26171875,0.0
152.359375,-53.7109375,-42.96875,-35.64453125,-42.48046875,167.48046875,0.0
152.36328125,-53.7109375,-44.43359375,-32.71484375,-41.015625,-168.9453125,0.0
152.3671875,-44.921875,-46.38671875,-32.2265625,-47.8515625,-448.73046875,0.0
152.37109375,-41.9921875,-44.43359375,-31.73828125,-48.828125,-215.33203125,0.0
152.375,-35.15625,-46.875,-21.484375,-35.15625,183.10546875,0.0
152.37890625,-28.80859375,-40.0390625,-25.87890625,-39.0625,337.890625,0.0
152.3828125,-15.625,-22.4609375,-39.55078125,-58.10546875,144.53125,0.0
152.38671875,-13.671875,-25.87890625,-33.203125,-56.15234375,-157.2265625,0.0
152.390625,-26.85546875,-31.73828125,-28.3203125,-50.29296875,-170.8984375,0.0
152.39453125,-27.83203125,-27.34375,-28.80859375,-50.29296875,87.890625,0.0
152.3984375,-32.2265625,-35.15625,-33.203125,-61.03515625,268.06640625,0.0
152.40234375,-32.2265625,-42.48046875,-34.1796875,-60.546875,83.0078125,0.0
152.40625,-3.90625,-36.1328125,-30.76171875,-53.7109375,-303.7109375,0.0
152.41015625,-10.7421875,-33.69140625,-30.2734375,-40.52734375,-296.875,0.0
152.4140625,-39.0625,-33.203125,-33.69140625,-42.48046875,48.828125,0.0
152.41796875,-27.83203125,-23.4375,-29.296875,-45.8984375,203.61328125,0.0
152.421875,-28.80859375,-23.92578125,-23.92578125,-48.33984375,-3.90625,0.0
152.42578125,-22.94921875,-28.3203125,-22.94921875,-52.24609375,-243.1640625,0.0
152.4296875,-16.6015625,-29.296875,-24.90234375,-56.15234375,-271.97265625,0.0
152.43359375,-10.25390625,-33.203125,-31.73828125,-61.5234375,-47.36328125,0.0
152.4375,-9.765625,-41.9921875,-32.71484375,-65.91796875,186.5234375,0.0
152.44140625,-18.06640625,-39.0625,-28.3203125,-73.2421875,82.51953125,0.0
152.4453125,-4.39453125,-30.2734375,-29.296875,-64.94140625,-247.55859375,0.0
152.44921875,-6.8359375,-26.3671875,-23.92578125,-54.6875,-347.16796875,0.0
152.453125,-28.80859375,-35.64453125,-24.90234375,-44.921875,-83.49609375,0.0
152.45703125,-31.25,-38.57421875,-30.2734375,-42.96875,147.4609375,0.0
152.4609375,-25.390625,-32.2265625,-25.87890625,-51.26953125,98.6328125,0.0
152.46484375,-39.0625,-27.83203125,-27.34375,-59.08203125,-210.44921875,0.0
152.46875,-50.29296875,-33.203125,-29.78515625,-51.7578125,-422.36328125,0.0
152.47265625,-41.9921875,-33.69140625,-30.2734375,-38.57421875,-202.1484375,0.0
152.4765625,-29.296875,-28.80859375,-29.296875,-29.78515625,89.35546875,0.0
152.48046875,-26.85546875,-35.15625,-26.3671875,-38.57421875,55.6640625,0.0
152.484375,-29.78515625,-37.59765625,-25.390625,-47.36328125,-195.80078125,0.0
152.48828125,-33.69140625,-25.390625,-20.5078125,-26.3671875,-318.84765625,0.0
152.4921875,-24.90234375,-18.5546875,-18.5546875,-13.18359375,-104.00390625,0.0
152.49609375,-12.6953125,-31.73828125,-20.99609375,-30.76171875,196.77734375,0.0
152.5,-21.97265625,-36.62109375,-20.99609375,-39.55078125,189.94140625,0.0
152.50390625,-36.1328125,-31.25,-20.99609375,-30.76171875,-91.30859375,0.0
152.5078125,-26.3671875,-26.3671875,-23.92578125,-23.4375,-325.68359375,0.0
152.51171875,-14.6484375,-27.34375,-26.3671875,-25.390625,-237.79296875,0.0
152.515625,-13.671875,-29.296875,-26.85546875,-32.71484375,255.859375,0.0
152.51953125,-27.34375,-24.90234375,-27.83203125,-24.4140625,-203.61328125,0.0
152.5234375,-42.96875,-27.34375,-29.296875,-22.4609375,-871.09375,0.0
152.52734375,-8.7890625,-30.2734375,-28.80859375,-23.92578125,38.0859375,0.0
152.53125,-11.71875,-29.78515625,-26.3671875,-21.97265625,567.87109375,0.0
152.53515625,-46.875,-31.73828125,-29.296875,-39.0625,578.125,0.0
152.5390625,-24.90234375,-31.25,-38.57421875,-41.50390625,569.82421875,0.0
152.54296875,-20.01953125,-29.78515625,-36.1328125,-37.59765625,328.61328125,0.0
152.546875,-27.34375,-36.1328125,-29.78515625,-39.0625,-52.24609375,0.0
152.55078125,-25.87890625,-34.1796875,-26.85546875,-26.3671875,281.25,0.0
152.5546875,-34.1796875,-34.1796875,-24.4140625,-30.2734375,984.86328125,0.0
152.55859375,-42.96875,-46.38671875,-27.83203125,-25.390625,934.5703125,0.0
152.5625,-31.25,-40.0390625,-30.76171875,-25.87890625,509.27734375,0.0
152.56640625,-21.484375,-36.62109375,-39.55078125,-46.875,73.2421875,0.0
152.5703125,-39.55078125,-47.36328125,-41.9921875,-34.1796875,108.88671875,0.0
152.57421875,-44.921875,-43.45703125,-33.69140625,-19.04296875,479.00390625,0.0
152.578125,-29.296875,-38.57421875,-30.2734375,-15.625,535.64453125,0.0
152.58203125,-20.99609375,-34.66796875,-32.71484375,-10.7421875,159.66796875,0.0
152.5859375,-23.92578125,-33.203125,-31.73828125,-11.23046875,-146.97265625,0.0
152.58984375,-19.04296875,-38.57421875,-38.0859375,-21.97265625,-118.1640625,0.0
152.59375,-16.6015625,-40.52734375,-40.52734375,-24.4140625,192.87109375,0.0
152.59765625,-23.92578125,-39.0625,-33.69140625,-18.5546875,302.24609375,0.0
152.6015625,-38.0859375,-37.109375,-34.66796875,-24.4140625,36.62109375,0.0
152.60546875,-44.43359375,-34.1796875,-34.1796875,-26.3671875,-262.20703125,0.0
152.609375,-25.390625,-40.0390625,-32.71484375,-21.97265625,-249.51171875,0.0
152.61328125,-12.20703125,-43.45703125,-30.2734375,-16.11328125,66.40625,0.0
152.6171875,-15.625,-41.9921875,-27.34375,-23.4375,241.2109375,0.0
152.62109375,-24.90234375,-36.62109375,-27.34375,-16.6015625,-12.20703125,0.0
152.625,-30.76171875,-34.1796875,-31.25,-11.23046875,-380.859375,0.0
152.62890625,-28.80859375,-30.76171875,-30.76171875,-21.97265625,-381.8359375,0.0
152.6328125,-20.01953125,-26.3671875,-31.25,-22.4609375,15.13671875,0.0
152.63671875,-18.5546875,-31.25,-40.0390625,-26.3671875,275.87890625,0.0
152.640625,-37.109375,-34.66796875,-43.45703125,-26.3671875,0.0,0.0
152.64453125,-42.96875,-32.71484375,-39.0625,-19.04296875,-403.3203125,0.0
152.6484375,-33.69140625,-26.3671875,-38.57421875,-17.578125,-460.44921875,0.0
152.65234375,-22.94921875,-26.85546875,-37.59765625,-21.97265625,-189.94140625,0.0
152.65625,-23.4375,-29.296875,-35.64453125,-17.08984375,108.88671875,0.0
152.66015625,-18.5546875,-28.80859375,-41.50390625,-17.578125,-49.31640625,0.0
152.6640625,-39.0625,-21.484375,-44.921875,-36.1328125,-515.625,0.0
152.66796875,-54.6875,-22.4609375,-36.1328125,-40.52734375,-664.55078125,0.0
152.671875,-31.25,-27.83203125,-35.15625,-35.15625,-311.5234375,0.0
152.67578125,-39.0625,-27.34375,-40.52734375,-43.9453125,-42.96875,0.0
152.6796875,-47.36328125,-28.80859375,-40.52734375,-44.921875,25.390625,0.0
152.68359375,-34.1796875,-31.73828125,-37.59765625,-41.015625,-3.90625,0.0
152.6875,-24.90234375,-32.71484375,-39.0625,-35.64453125,-68.359375,0.0
152.69140625,-35.15625,-27.34375,-43.45703125,-32.2265625,-67.3828125,0.0
152.6953125,-33.203125,-18.06640625,-38.57421875,-34.1796875,-51.26953125,0.0
152.69921875,-20.5078125,-19.53125,-30.76171875,-24.90234375,-67.3828125,0.0
152.703125,-33.69140625,-32.2265625,-36.1328125,-34.66796875,-66.40625,0.0
152.70703125,-41.50390625,-39.0625,-31.73828125,-41.50390625,-38.0859375,0.0
152.7109375,-28.80859375,-22.94921875,-21.97265625,-32.71484375,-19.04296875,0.0
152.71484375,-24.90234375,-10.25390625,-28.3203125,-46.38671875,16.6015625,0.0
152.71875,-28.3203125,-13.18359375,-36.1328125,-71.77734375,74.21875,0.0
152.72265625,-32.71484375,-7.32421875,-36.1328125,-58.10546875,300.29296875,0.0
152.7265625,-35.64453125,-13.18359375,-32.2265625,-44.43359375,160.64453125,0.0
152.73046875,-28.3203125,-14.16015625,-32.71484375,-47.8515625,680.17578125,0.0
152.734375,-48.828125,-7.8125,-35.15625,-40.52734375,982.91015625,0.0
152.73828125,-44.921875,-15.625,-33.69140625,-38.57421875,952.1484375,0.0
152.7421875,-42.48046875,-19.53125,-34.1796875,-42.96875,816.40625,0.0
152.74609375,-39.0625,-22.94921875,-38.57421875,-42.96875,173.33984375,0.0
152.75,-26.85546875,-31.25,-36.1328125,-39.55078125,-110.3515625,0.0
152.75390625,-30.2734375,-33.69140625,-35.15625,-32.71484375,405.76171875,0.0
152.7578125,-23.92578125,-37.109375,-38.57421875,-29.296875,615.234375,0.0
152.76171875,-20.01953125,-37.59765625,-38.57421875,-27.83203125,313.4765625,0.0
152.765625,-32.2265625,-35.15625,-41.015625,-31.73828125,-179.6875,0.0
152.76953125,-31.73828125,-29.296875,-40.52734375,-40.0390625,-106.4453125,0.0
152.7734375,-42.48046875,-25.87890625,-34.1796875,-30.76171875,446.77734375,0.0
152.77734375,-21.484375,-28.80859375,-28.80859375,-20.5078125,775.87890625,0.0
152.78125,-15.13671875,-25.87890625,-32.71484375,-30.76171875,528.3203125,0.0
152.78515625,-30.76171875,-21.484375,-38.0859375,-40.52734375,-84.9609375,0.0
152.7890625,-19.53125,-18.06640625,-30.76171875,-36.1328125,-101.5625,0.0
152.79296875,-25.87890625,-22.4609375,-29.296875,-29.296875,468.26171875,0.0
152.796875,-39.55078125,-23.4375,-28.3203125,-29.296875,827.1484375,0.0
152.80078125,-23.4375,-18.06640625,-22.94921875,-20.01953125,518.06640625,0.0
152.8046875,-8.30078125,-22.94921875,-25.87890625,-13.18359375,-229.98046875,0.0
152.80859375,-15.625,-32.71484375,-27.34375,-20.99609375,-331.54296875,0.0
152.8125,-24.4140625,-27.83203125,-25.87890625,-13.18359375,458.984375,0.0
152.81640625,-9.765625,-16.6015625,-29.78515625,-18.06640625,993.65234375,0.0
152.8203125,-26.3671875,-17.578125,-34.1796875,-42.48046875,576.171875,0.0
152.82421875,-36.62109375,-17.578125,-35.64453125,-50.29296875,-317.3828125,0.0
152.828125,-33.203125,-21.97265625,-34.1796875,-49.31640625,-633.30078125,0.0
152.83203125,-31.25,-26.85546875,-25.87890625,-35.15625,-26.85546875,0.0
152.8359375,-30.2734375,-22.4609375,-26.85546875,-29.78515625,399.90234375,0.0
152.83984375,-41.015625,-22.94921875,-34.1796875,-36.62109375,56.15234375,0.0
152.84375,-33.203125,-24.90234375,-36.62109375,-42.48046875,-585.9375,0.0
152.84765625,-36.1328125,-28.80859375,-34.66796875,-44.921875,-590.33203125,0.0
152.8515625,-52.24609375,-34.1796875,-31.25,-39.0625,166.9921875,0.0
152.85546875,-37.109375,-32.2265625,-30.76171875,-49.31640625,636.71875,0.0
152.859375,-24.4140625,-31.25,-26.85546875,-59.5703125,483.88671875,0.0
152.86328125,-41.015625,-26.3671875,-23.4375,-49.31640625,-125.48828125,0.0
152.8671875,-45.41015625,-28.80859375,-24.4140625,-38.57421875,-445.80078125,0.0
152.87109375,-29.78515625,-25.390625,-21.484375,-40.52734375,163.0859375,0.0
152.875,-38.0859375,-20.5078125,-20.99609375,-33.69140625,857.421875,0.0
152.87890625,-46.38671875,-26.85546875,-26.85546875,-35.64453125,699.21875,0.0
152.8828125,-27.34375,-19.53125,-29.296875,-30.2734375,-46.38671875,0.0
152.88671875,-31.25,-23.4375,-29.78515625,-29.78515625,-436.03515625,0.0
152.890625,-44.921875,-37.59765625,-26.85546875,-39.0625,35.15625,0.0
152.89453125,-32.71484375,-30.76171875,-22.4609375,-32.2265625,724.609375,0.0
152.8984375,-30.2734375,-23.4375,-15.13671875,-32.2265625,580.56640625,0.0
152.90234375,-38.0859375,-27.83203125,-22.94921875,-34.66796875,-206.0546875,0.0
152.90625,-43.45703125,-29.296875,-25.390625,-35.64453125,-716.30859375,0.0
152.91015625,-41.50390625,-27.83203125,-19.04296875,-41.50390625,-325.68359375,0.0
152.9140625,-34.66796875,-28.80859375,-19.53125,-42.96875,374.0234375,0.0
152.91796875,-50.29296875,-34.1796875,-25.390625,-37.109375,417.96875,0.0
152.921875,-63.96484375,-38.57421875,-26.85546875,-44.43359375,-309.08203125,0.0
152.92578125,-40.52734375,-33.203125,-23.4375,-50.29296875,-524.90234375,0.0
152.9296875,-48.828125,-30.76171875,-20.5078125,-43.45703125,41.50390625,0.0
152.93359375,-49.31640625,-31.25,-21.97265625,-43.9453125,694.3359375,0.0
152.9375,-35.15625,-41.9921875,-23.92578125,-34.66796875,902.34375,0.0
152.94140625,-26.3671875,-41.50390625,-20.99609375,-38.0859375,235.3515625,0.0
152.9453125,-14.6484375,-28.3203125,-20.01953125,-37.59765625,-516.6015625,0.0
152.94921875,-23.92578125,-38.57421875,-25.390625,-21.97265625,-319.3359375,0.0
152.953125,-28.80859375,-48.33984375,-30.2734375,-32.71484375,568.84765625,0.0
152.95703125,-30.2734375,-42.96875,-36.1328125,-41.50390625,962.40234375,0.0
152.9609375,-31.25,-39.0625,-39.55078125,-26.85546875,473.14453125,0.0
152.96484375,-35.64453125,-39.55078125,-44.921875,-27.83203125,4.39453125,0.0
152.96875,-43.45703125,-37.109375,-44.43359375,-33.203125,440.91796875,0.0
152.97265625,-43.45703125,-35.64453125,-30.76171875,-32.2265625,957.51953125,0.0
152.9765625,-44.921875,-36.1328125,-25.390625,-30.76171875,961.42578125,0.0
152.98046875,-65.91796875,-30.76171875,-28.80859375,-41.50390625,410.15625,0.0
152.984375,-39.0625,-38.0859375,-28.80859375,-38.0859375,-716.30859375,0.0
152.98828125,-19.53125,-41.50390625,-29.296875,-23.4375,-844.7265625,0.0
152.9921875,-44.43359375,-31.73828125,-32.71484375,-30.2734375,486.328125,0.0
152.99609375,-57.12890625,-20.01953125,-35.64453125,-39.55078125,-844.7265625,0.0
153.0,-33.69140625,-27.34375,-33.203125,-28.3203125,118.65234375,0.0
153.00390625,-18.06640625,-33.69140625,-28.80859375,-32.2265625,-1000.0,0.0
153.0078125,-34.66796875,-34.1796875,-28.80859375,-46.875,-590.8203125,0.0
153.01171875,-26.85546875,-34.1796875,-29.78515625,-47.36328125,653.3203125,0.0
153.015625,-21.484375,-33.69140625,-33.203125,-54.19921875,-880.37109375,0.0
153.01953125,-32.2265625,-32.2265625,-32.71484375,-55.6640625,133.7890625,0.0
153.0234375,-42.48046875,-26.85546875,-28.80859375,-52.24609375,-1000.0,0.0
153.02734375,-31.73828125,-26.85546875,-29.78515625,-60.546875,-892.08984375,0.0
153.03125,-8.7890625,-27.34375,-35.15625,-56.640625,186.5234375,0.0
153.03515625,-21.484375,-34.1796875,-37.109375,-47.36328125,-850.09765625,0.0
153.0390625,-26.3671875,-35.64453125,-33.203125,-46.38671875,199.70703125,0.0
153.04296875,-25.390625,-34.1796875,-34.1796875,-54.6875,-1000.0,0.0
153.046875,-36.62109375,-37.59765625,-37.59765625,-61.5234375,-1000.0,0.0
153.05078125,-30.2734375,-42.48046875,-28.80859375,-49.8046875,-196.77734375,0.0
153.0546875,-21.97265625,-41.50390625,-27.83203125,-50.78125,-975.09765625,0.0
153.05859375,-22.94921875,-32.71484375,-30.76171875,-56.15234375,320.80078125,0.0
153.0625,-14.6484375,-25.390625,-31.25,-41.015625,-933.10546875,0.0
153.06640625,-17.08984375,-18.5546875,-29.78515625,-41.9921875,-1000.0,0.0
153.0703125,-28.3203125,-27.83203125,-24.4140625,-48.33984375,-138.671875,0.0
153.07421875,-20.01953125,-35.15625,-20.99609375,-35.64453125,951.66015625,0.0
153.078125,-22.4609375,-33.69140625,-18.06640625,-25.87890625,343.75,0.0
153.08203125,-33.203125,-36.1328125,-20.01953125,-34.66796875,-909.1796875,0.0
153.0859375,-30.76171875,-27.83203125,-28.3203125,-41.50390625,-812.5,0.0
153.08984375,-14.6484375,-20.5078125,-27.83203125,-21.484375,213.37890625,0.0
153.09375,-17.578125,-25.390625,-25.390625,-32.71484375,954.1015625,0.0
153.09765625,-33.69140625,-26.85546875,-27.34375,-54.6875,485.83984375,0.0
153.1015625,-34.1796875,-28.80859375,-25.390625,-36.62109375,-724.609375,0.0
153.10546875,-35.15625,-37.109375,-23.92578125,-32.71484375,-794.921875,0.0
153.109375,-27.34375,-34.1796875,-29.296875,-39.0625,-247.0703125,0.0
153.11328125,-44.43359375,-30.76171875,-33.69140625,-46.38671875,15.13671875,0.0
153.1171875,-49.8046875,-31.73828125,-34.1796875,-54.6875,-13.18359375,0.0
153.12109375,-37.109375,-28.3203125,-36.62109375,-52.24609375,-658.203125,0.0
153.125,-41.015625,-33.203125,-38.57421875,-40.52734375,-929.6875,0.0
153.12890625,-31.25,-32.2265625,-38.57421875,-47.36328125,-247.0703125,0.0
153.1328125,-34.66796875,-32.2265625,-42.48046875,-62.5,203.61328125,0.0
153.13671875,-32.71484375,-35.64453125,-37.59765625,-62.5,49.31640625,0.0
153.140625,-17.578125,-35.64453125,-33.69140625,-54.6875,-505.37109375,0.0
153.14453125,-23.92578125,-32.71484375,-42.96875,-45.8984375,-828.61328125,0.0
153.1484375,-41.50390625,-32.2265625,-47.36328125,-44.43359375,-428.7109375,0.0
153.15234375,-27.83203125,-36.1328125,-40.0390625,-37.109375,152.34375,0.0
153.15625,-3.41796875,-33.203125,-34.1796875,-31.25,220.21484375,0.0
153.16015625,-20.01953125,-24.90234375,-34.66796875,-29.78515625,-308.59375,0.0
153.1640625,-28.80859375,-25.390625,-30.2734375,-30.2734375,-776.3671875,0.0
153.16796875,-29.78515625,-25.390625,-30.2734375,-29.78515625,-464.35546875,0.0
153.171875,-34.1796875,-27.34375,-31.25,-28.3203125,231.4453125,0.0
153.17578125,-22.94921875,-28.3203125,-33.69140625,-42.96875,231.4453125,0.0
153.1796875,-20.5078125,-25.87890625,-35.64453125,-46.875,-258.30078125,0.0
153.18359375,-35.64453125,-23.92578125,-33.203125,-48.33984375,-875.0,0.0
153.1875,-37.59765625,-22.94921875,-32.2265625,-34.1796875,-735.83984375,0.0
153.19140625,-47.8515625,-23.4375,-29.296875,-35.15625,57.6171875,0.0
153.1953125,-44.43359375,-20.99609375,-26.85546875,-43.9453125,357.91015625,0.0
153.19921875,-36.62109375,-24.90234375,-25.87890625,-37.109375,34.1796875,0.0
153.203125,-38.0859375,-33.203125,-29.78515625,-32.2265625,-557.12890625,0.0
153.20703125,-30.2734375,-29.78515625,-29.296875,-29.296875,-695.80078125,0.0
153.2109375,-36.1328125,-26.3671875,-26.3671875,-38.0859375,-56.640625,0.0
153.21484375,-49.31640625,-35.15625,-35.15625,-41.9921875,631.34765625,0.0
153.21875,-58.10546875,-39.55078125,-35.64453125,-35.15625,361.328125,0.0
153.22265625,-46.875,-31.73828125,-29.296875,-32.2265625,-366.69921875,0.0
153.2265625,-38.57421875,-30.2734375,-32.2265625,-36.62109375,-627.9296875,0.0
153.23046875,-32.71484375,-32.2265625,-30.76171875,-33.203125,-149.90234375,0.0
153.234375,-22.94921875,-32.71484375,-31.73828125,-40.0390625,350.5859375,0.0
153.23828125,-36.62109375,-29.296875,-32.71484375,-46.875,114.2578125,0.0
153.2421875,-31.73828125,-20.5078125,-33.69140625,-42.96875,-545.8984375,0.0
153.24609375,-16.11328125,-23.92578125,-36.1328125,-41.015625,-718.75,0.0
153.25,-10.25390625,-25.87890625,-30.76171875,-31.73828125,-234.375,0.0
153.25390625,-26.3671875,-27.34375,-28.80859375,-19.04296875,344.23828125,0.0
153.2578125,-46.875,-24.90234375,-25.87890625,-21.484375,213.37890625,0.0
153.26171875,-47.36328125,-15.625,-29.78515625,-38.0859375,-433.59375,0.0
153.265625,-58.10546875,-24.90234375,-34.1796875,-35.64453125,-672.8515625,0.0
153.26953125,-53.7109375,-32.2265625,-28.80859375,-40.52734375,-274.4140625,0.0
153.2734375,-54.19921875,-34.1796875,-25.390625,-31.73828125,194.82421875,0.0
153.27734375,-46.38671875,-33.69140625,-23.92578125,-8.7890625,150.390625,0.0
153.28125,-19.04296875,-33.203125,-29.296875,-21.484375,-276.85546875,0.0
153.28515625,-15.13671875,-30.2734375,-33.203125,-31.25,-515.625,0.0
153.2890625,-16.11328125,-31.25,-26.85546875,-20.99609375,-206.0546875,0.0
153.29296875,-21.97265625,-37.59765625,-23.92578125,-27.34375,313.4765625,0.0
153.296875,-28.80859375,-33.69140625,-21.97265625,-25.390625,294.921875,0.0
153.30078125,-20.5078125,-34.66796875,-28.80859375,-18.5546875,576.171875,0.0
153.3046875,-26.85546875,-39.55078125,-36.1328125,-21.97265625,75.1953125,0.0
153.30859375,-35.15625,-31.25,-37.109375,-17.08984375,-1000.0,0.0
153.3125,-40.52734375,-32.71484375,-34.1796875,-22.4609375,-485.83984375,0.0
153.31640625,-49.31640625,-35.15625,-33.69140625,-28.3203125,-240.234375,0.0
153.3203125,-44.43359375,-27.83203125,-32.71484375,-25.390625,-848.14453125,0.0
153.32421875,-40.0390625,-30.76171875,-31.73828125,-15.625,-1000.0,0.0
153.328125,-30.2734375,-32.71484375,-32.71484375,1.46484375,-878.90625,0.0
153.33203125,-32.2265625,-31.73828125,-32.71484375,-14.6484375,-250.48828125,0.0
153.3359375,-46.875,-36.62109375,-37.59765625,-21.97265625,-365.234375,0.0
153.33984375,-41.015625,-34.66796875,-31.25,-12.20703125,-1000.0,0.0
153.34375,-34.1796875,-31.25,-21.97265625,-8.30078125,-1000.0,0.0
153.34765625,-18.06640625,-30.2734375,-21.97265625,0.0,-924.31640625,0.0
153.3515625,-18.06640625,-31.73828125,-23.4375,4.39453125,-588.8671875,0.0
153.35546875,-12.20703125,-33.69140625,-27.34375,-1.46484375,-594.7265625,0.0
153.359375,-4.8828125,-34.1796875,-35.64453125,-7.8125,-943.359375,0.0
153.36328125,-6.34765625,-25.390625,-33.69140625,-13.671875,-1000.0,0.0
153.3671875,-20.5078125,-33.69140625,-31.25,-24.4140625,-930.6640625,0.0
153.37109375,-5.37109375,-35.64453125,-34.66796875,-33.203125,-518.06640625,0.0
153.375,4.39453125,-33.203125,-37.59765625,-21.97265625,-411.62109375,0.0
153.37890625,-20.01953125,-39.55078125,-37.109375,-22.4609375,-836.42578125,0.0
153.3828125,-24.90234375,-41.50390625,-34.66796875,-33.69140625,-1000.0,0.0
153.38671875,-20.01953125,-40.0390625,-28.80859375,-27.83203125,-991.69921875,0.0
153.390625,-29.296875,-36.62109375,-29.296875,-27.83203125,-842.28515625,0.0
153.39453125,-28.80859375,-30.2734375,-35.15625,-30.76171875,-761.23046875,0.0
153.3984375,-11.23046875,-26.85546875,-36.62109375,-32.2265625,-935.05859375,0.0
153.40234375,-21.97265625,-30.2734375,-34.1796875,-42.96875,-1000.0,0.0
153.40625,-26.85546875,-40.0390625,-37.109375,-41.50390625,-1000.0,0.0
153.41015625,-19.04296875,-40.52734375,-35.64453125,-38.57421875,-962.40234375,0.0
153.4140625,-32.71484375,-34.66796875,-31.73828125,-51.26953125,-900.87890625,0.0
153.41796875,-43.9453125,-25.87890625,-31.73828125,-49.31640625,-985.83984375,0.0
153.421875,-42.48046875,-28.3203125,-36.62109375,-46.875,-1000.0,0.0
153.42578125,-46.875,-41.015625,-37.59765625,-42.48046875,-995.60546875,0.0
153.4296875,-47.36328125,-34.66796875,-34.1796875,-40.0390625,-1000.0,0.0
153.43359375,-48.33984375,-34.66796875,-32.71484375,-32.2265625,-1000.0,0.0
153.4375,-62.01171875,-41.9921875,-34.1796875,-32.2265625,-1000.0,0.0
153.44140625,-52.24609375,-43.9453125,-38.57421875,-48.33984375,-1000.0,0.0
153.4453125,-41.9921875,-42.48046875,-41.9921875,-41.9921875,-1000.0,0.0
153.44921875,-47.8515625,-44.921875,-44.43359375,-35.64453125,-1000.0,0.0
153.453125,-52.734375,-51.26953125,-47.36328125,-40.0390625,-1000.0,0.0
153.45703125,-45.41015625,-47.8515625,-46.38671875,-36.1328125,-1000.0,0.0
153.4609375,-32.2265625,-42.48046875,-40.0390625,-37.59765625,-1000.0,0.0
153.46484375,-49.31640625,-47.36328125,-39.0625,-36.1328125,-1000.0,0.0
153.46875,-47.8515625,-50.29296875,-37.109375,-29.78515625,-1000.0,0.0
153.47265625,-24.90234375,-39.55078125,-34.66796875,-39.55078125,-1000.0,0.0
153.4765625,-29.296875,-29.296875,-35.15625,-33.203125,-1000.0,0.0
153.48046875,-32.71484375,-37.59765625,-33.203125,-20.99609375,-1000.0,0.0
153.484375,-10.7421875,-44.921875,-38.0859375,-15.625,-1000.0,0.0
153.48828125,-7.8125,-39.0625,-37.109375,-6.34765625,-1000.0,0.0
153.4921875,-27.34375,-36.62109375,-29.296875,3.90625,-1000.0,0.0
153.49609375,-32.2265625,-43.9453125,-27.34375,2.44140625,-1000.0,0.0
153.5,-25.390625,-47.36328125,-29.296875,-10.25390625,-998.53515625,0.0
153.50390625,-32.71484375,-46.38671875,-28.80859375,-7.32421875,-1000.0,0.0
153.5078125,-35.64453125,-35.64453125,-22.4609375,0.48828125,-999.0234375,0.0
153.51171875,-32.2265625,-35.15625,-22.4609375,-11.23046875,-940.4296875,0.0
153.515625,-30.76171875,-45.41015625,-27.34375,-24.4140625,-955.56640625,0.0
153.51953125,-36.1328125,-41.50390625,-27.34375,-43.9453125,-1000.0,0.0
153.5234375,-46.875,-40.52734375,-33.69140625,-53.22265625,-1000.0,0.0
153.52734375,-51.7578125,-40.52734375,-37.109375,-44.43359375,-969.7265625,0.0
153.53125,-43.9453125,-34.1796875,-36.62109375,-47.8515625,-799.31640625,0.0
153.53515625,-21.484375,-37.109375,-35.15625,-46.38671875,-833.0078125,0.0
153.5390625,-24.4140625,-34.66796875,-29.296875,-43.45703125,-987.79296875,0.0
153.54296875,-25.87890625,-35.64453125,-30.2734375,-38.0859375,-1000.0,0.0
153.546875,-17.578125,-46.38671875,-30.76171875,-38.57421875,-974.12109375,0.0
153.55078125,-35.15625,-43.45703125,-32.2265625,-45.8984375,-884.765625,0.0
153.5546875,-33.203125,-41.015625,-28.80859375,-43.9453125,-836.9140625,0.0
153.55859375,-29.78515625,-39.55078125,-30.2734375,-48.33984375,-916.50390625,0.0
153.5625,-36.62109375,-38.57421875,-39.55078125,-57.6171875,-999.0234375,0.0
153.56640625,-24.4140625,-41.015625,-41.9921875,-48.828125,-869.62890625,0.0
153.5703125,-24.4140625,-42.48046875,-42.96875,-34.1796875,-651.85546875,0.0
153.57421875,-41.50390625,-52.734375,-45.8984375,-38.57421875,-587.890625,0.0
153.578125,-21.484375,-51.26953125,-41.50390625,-42.96875,-732.91015625,0.0
153.58203125,-30.2734375,-51.7578125,-37.59765625,-45.8984375,-875.9765625,0.0
153.5859375,-51.26953125,-56.15234375,-35.15625,-43.9453125,-742.1875,0.0
153.58984375,-36.1328125,-36.62109375,-31.73828125,-25.390625,-577.1484375,0.0
153.59375,-39.55078125,-33.69140625,-41.015625,-25.87890625,-481.93359375,0.0
153.59765625,-43.45703125,-51.26953125,-39.0625,-41.015625,-575.1953125,0.0
153.6015625,-49.31640625,-47.8515625,-30.76171875,-36.62109375,-792.96875,0.0
153.60546875,-36.1328125,-45.8984375,-35.15625,-21.484375,-727.05078125,0.0
153.609375,-25.390625,-42.96875,-39.55078125,-17.578125,-558.59375,0.0
153.61328125,-37.59765625,-36.62109375,-35.64453125,-27.83203125,-433.59375,0.0
153.6171875,-33.69140625,-38.0859375,-34.1796875,-26.85546875,-437.5,0.0
153.62109375,-31.73828125,-45.41015625,-36.1328125,-33.69140625,-561.03515625,0.0
153.625,-50.78125,-40.0390625,-36.1328125,-49.31640625,-624.51171875,0.0
153.62890625,-61.03515625,-26.85546875,-33.69140625,-39.0625,-520.5078125,0.0
153.6328125,-51.26953125,-34.66796875,-41.9921875,-40.52734375,-329.1015625,0.0
153.63671875,-45.41015625,-40.52734375,-42.48046875,-52.24609375,-300.29296875,0.0
153.640625,-31.73828125,-33.203125,-37.59765625,-58.59375,-418.45703125,0.0
153.64453125,-26.85546875,-24.90234375,-37.59765625,-45.41015625,-412.109375,0.0
153.6484375,-44.921875,-34.1796875,-33.203125,-32.2265625,-336.42578125,0.0
153.65234375,-28.3203125,-41.015625,-24.4140625,-21.97265625,-294.921875,0.0
153.65625,-9.765625,-30.76171875,-24.4140625,-13.18359375,-242.67578125,0.0
153.66015625,-9.27734375,-20.01953125,-33.69140625,-20.99609375,-229.4921875,0.0
153.6640625,-7.32421875,-15.13671875,-36.62109375,-17.08984375,-270.5078125,0.0
153.66796875,-8.7890625,-13.671875,-32.2265625,-8.7890625,-229.00390625,0.0
153.671875,-14.6484375,-18.06640625,-26.85546875,-15.625,-23.92578125,0.0
153.67578125,-24.4140625,-27.34375,-29.296875,-15.13671875,85.44921875,0.0
153.6796875,-33.69140625,-19.04296875,-33.203125,-20.01953125,-30.2734375,0.0
153.68359375,-37.59765625,-11.71875,-29.296875,-20.5078125,-136.23046875,0.0
153.6875,-27.83203125,-14.16015625,-29.296875,-15.625,-72.265625,0.0
153.69140625,-19.04296875,-17.08984375,-29.78515625,-17.08984375,64.453125,0.0
153.6953125,-22.4609375,-21.97265625,-29.296875,-25.390625,70.80078125,0.0
153.69921875,-18.06640625,-25.390625,-33.69140625,-25.390625,-26.3671875,0.0
153.703125,-13.18359375,-26.85546875,-28.3203125,-0.9765625,-88.37890625,0.0
153.70703125,-23.4375,-19.04296875,-16.11328125,-0.9765625,-16.6015625,0.0
153.7109375,-25.87890625,-20.01953125,-19.04296875,-2.9296875,86.9140625,0.0
153.71484375,-10.7421875,-30.2734375,-23.92578125,12.20703125,139.16015625,0.0
153.71875,1.46484375,-27.83203125,-27.83203125,-8.30078125,108.3984375,0.0
153.72265625,-20.5078125,-22.4609375,-27.83203125,-18.06640625,-25.390625,0.0
153.7265625,-22.94921875,-20.5078125,-25.87890625,-13.671875,-47.8515625,0.0
153.73046875,-17.08984375,-17.08984375,-24.4140625,-18.5546875,48.828125,0.0
153.734375,-16.11328125,-21.484375,-25.87890625,-4.8828125,94.7265625,0.0
153.73828125,-11.23046875,-25.390625,-28.3203125,-4.8828125,-3.90625,0.0
153.7421875,-26.85546875,-22.4609375,-28.80859375,-0.9765625,-105.46875,0.0
153.74609375,-8.7890625,-19.04296875,-28.3203125,-1.953125,-59.08203125,0.0
153.75,4.39453125,-19.04296875,-31.73828125,-18.06640625,-59.08203125,0.0
153.75390625,-34.66796875,-23.92578125,-34.66796875,-19.04296875,-49.8046875,0.0
153.7578125,-34.66796875,-22.94921875,-30.76171875,-17.578125,-23.4375,0.0
153.76171875,-20.01953125,-25.87890625,-32.71484375,-24.90234375,-55.17578125,0.0
153.765625,-37.59765625,-28.80859375,-37.59765625,-32.71484375,-60.05859375,0.0
153.76953125,-45.41015625,-26.85546875,-40.52734375,-36.62109375,-76.66015625,0.0
153.7734375,-35.15625,-27.83203125,-34.1796875,-26.3671875,-63.96484375,0.0
153.77734375,-25.87890625,-18.06640625,-27.34375,-21.97265625,64.453125,0.0
153.78125,-28.80859375,-15.13671875,-22.94921875,-34.66796875,53.7109375,0.0
153.78515625,-37.109375,-18.5546875,-24.4140625,-44.43359375,-1.46484375,0.0
153.7890625,-43.45703125,-20.99609375,-26.85546875,-39.55078125,-20.5078125,0.0
153.79296875,-29.78515625,-26.85546875,-29.296875,-31.25,-21.484375,0.0
153.796875,-26.85546875,-36.62109375,-35.15625,-43.9453125,-23.4375,0.0
153.80078125,-41.015625,-40.0390625,-34.66796875,-38.57421875,-27.34375,0.0
153.8046875,-41.015625,-30.76171875,-35.15625,-24.90234375,20.5078125,0.0
153.80859375,-55.6640625,-31.73828125,-37.59765625,-47.8515625,30.2734375,0.0
153.8125,-58.59375,-39.0625,-42.48046875,-53.22265625,-37.109375,0.0
153.81640625,-45.8984375,-30.76171875,-43.45703125,-45.8984375,-51.26953125,0.0
153.8203125,-58.10546875,-26.3671875,-40.52734375,-43.9453125,0.0,0.0
153.82421875,-63.4765625,-36.1328125,-43.9453125,-45.41015625,-83.984375,0.0
153.828125,-60.546875,-31.73828125,-47.36328125,-47.8515625,-91.30859375,0.0
153.83203125,-62.01171875,-21.97265625,-43.45703125,-54.19921875,-8.7890625,0.0
153.8359375,-61.5234375,-17.08984375,-39.55078125,-62.98828125,37.109375,0.0
153.83984375,-54.19921875,-23.92578125,-36.62109375,-50.29296875,30.76171875,0.0
153.84375,-53.7109375,-33.69140625,-37.109375,-45.8984375,-76.66015625,0.0
153.84765625,-66.89453125,-34.66796875,-38.0859375,-56.640625,-112.79296875,0.0
153.8515625,-52.734375,-30.76171875,-34.1796875,-44.921875,-98.14453125,0.0
153.85546875,-73.2421875,-28.3203125,-32.2265625,-45.8984375,-104.00390625,0.0
153.859375,-92.7734375,-29.78515625,-35.15625,-45.8984375,-199.21875,0.0
153.86328125,-78.61328125,-26.3671875,-32.71484375,-45.41015625,-284.1796875,0.0
153.8671875,-74.21875,-28.80859375,-32.71484375,-54.19921875,-257.32421875,0.0
153.87109375,-74.70703125,-35.15625,-38.0859375,-57.6171875,-218.75,0.0
153.875,-78.125,-39.55078125,-37.109375,-57.12890625,-233.3984375,0.0
153.87890625,-69.82421875,-37.59765625,-38.57421875,-54.19921875,-291.50390625,0.0
153.8828125,-51.26953125,-32.2265625,-34.66796875,-41.015625,-305.17578125,0.0
153.88671875,-42.96875,-26.3671875,-27.83203125,-33.69140625,-330.56640625,0.0
153.890625,-44.43359375,-26.3671875,-29.296875,-50.78125,-435.05859375,0.0
153.89453125,-54.6875,-30.2734375,-29.296875,-49.31640625,-364.2578125,0.0
153.8984375,-45.41015625,-25.87890625,-32.71484375,-38.0859375,-318.84765625,0.0
153.90234375,-34.1796875,-29.78515625,-35.64453125,-55.17578125,-414.55078125,0.0
153.90625,-36.62109375,-31.25,-39.0625,-59.08203125,-388.671875,0.0
153.91015625,-35.15625,-25.390625,-38.0859375,-41.9921875,-277.83203125,0.0
153.9140625,-43.45703125,-23.92578125,-37.109375,-49.31640625,-261.23046875,0.0
153.91796875,-28.80859375,-25.87890625,-33.203125,-48.828125,-281.25,0.0
153.921875,-26.85546875,-37.109375,-29.78515625,-37.59765625,-266.6015625,0.0
153.92578125,-38.57421875,-46.38671875,-31.73828125,-48.828125,-203.125,0.0
153.9296875,-18.06640625,-41.015625,-27.34375,-42.48046875,-142.578125,0.0
153.93359375,-28.3203125,-33.203125,-28.80859375,-28.3203125,-198.2421875,0.0
153.9375,-54.6875,-32.71484375,-38.0859375,-32.2265625,-174.31640625,0.0
153.94140625,-48.828125,-35.64453125,-41.015625,-49.8046875,-153.80859375,0.0
153.9453125,-48.33984375,-36.62109375,-38.57421875,-44.921875,-152.34375,0.0
153.94921875,-48.33984375,-31.25,-30.2734375,-27.83203125,-97.16796875,0.0
153.953125,-40.52734375,-29.78515625,-26.85546875,-34.1796875,-20.99609375,0.0
153.95703125,-39.55078125,-32.2265625,-24.90234375,-28.80859375,48.828125,0.0
153.9609375,-52.734375,-30.76171875,-19.53125,-19.04296875,2.44140625,0.0
153.96484375,-54.19921875,-36.1328125,-20.5078125,-18.06640625,-1.953125,0.0
153.96875,-30.76171875,-47.8515625,-26.3671875,-15.625,48.33984375,0.0
153.97265625,-22.4609375,-40.52734375,-21.484375,-4.39453125,89.35546875,0.0
153.9765625,-34.66796875,-29.78515625,-19.04296875,12.6953125,144.04296875,0.0
153.98046875,-45.41015625,-33.69140625,-28.80859375,-6.8359375,166.015625,0.0
153.984375,-49.8046875,-34.66796875,-34.1796875,-14.6484375,180.6640625,0.0
153.98828125,-51.26953125,-37.59765625,-35.15625,-7.32421875,243.1640625,0.0
153.9921875,-43.9453125,-36.62109375,-38.0859375,-12.20703125,229.98046875,0.0
153.99609375,-64.94140625,-38.57421875,-34.1796875,-13.18359375,161.1328125,0.0
154.0,-79.58984375,-37.109375,-23.92578125,-5.37109375,181.15234375,0.0
154.00390625,-48.828125,-28.3203125,-17.578125,-2.44140625,210.9375,0.0
154.0078125,-31.25,-25.87890625,-22.4609375,-21.97265625,227.05078125,0.0
154.01171875,-41.50390625,-29.78515625,-28.80859375,-27.83203125,201.66015625,0.0
154.015625,-31.73828125,-38.0859375,-26.3671875,-21.484375,97.65625,0.0
154.01953125,-28.3203125,-35.64453125,-26.3671875,-8.7890625,89.84375,0.0
154.0234375,-41.9921875,-34.1796875,-29.296875,-7.8125,166.50390625,0.0
154.02734375,-31.25,-32.71484375,-30.2734375,-19.04296875,181.640625,0.0
154.03125,-34.1796875,-39.55078125,-27.83203125,-14.16015625,207.03125,0.0
154.03515625,-36.1328125,-37.109375,-21.484375,0.0,195.80078125,0.0
154.0390625,-39.0625,-21.97265625,-30.2734375,-9.27734375,176.7578125,0.0
154.04296875,-50.29296875,-21.97265625,-37.109375,-22.94921875,196.77734375,0.0
154.046875,-57.12890625,-20.5078125,-34.66796875,-18.5546875,181.15234375,0.0
154.05078125,-40.0390625,-16.6015625,-36.1328125,-21.97265625,188.96484375,0.0
154.0546875,-28.3203125,-20.99609375,-32.2265625,-8.7890625,171.875,0.0
154.05859375,-49.8046875,-26.3671875,-29.296875,-6.8359375,166.015625,0.0
154.0625,-42.48046875,-29.78515625,-32.2265625,-15.13671875,105.95703125,0.0
154.06640625,-33.69140625,-23.4375,-33.69140625,-12.6953125,-24.4140625,0.0
154.0703125,-16.6015625,-19.04296875,-33.69140625,-22.94921875,36.62109375,0.0
154.07421875,-19.53125,-26.3671875,-37.109375,-24.90234375,190.91796875,0.0
154.078125,-40.0390625,-28.80859375,-40.0390625,-15.13671875,199.21875,0.0
154.08203125,-23.4375,-24.90234375,-38.0859375,-24.90234375,169.921875,0.0
154.0859375,-5.859375,-22.4609375,-38.57421875,-34.66796875,129.8828125,0.0
154.08984375,-3.41796875,-25.87890625,-41.015625,-30.2734375,83.49609375,0.0
154.09375,-20.99609375,-25.390625,-38.57421875,-22.4609375,158.203125,0.0
154.09765625,-27.34375,-22.4609375,-31.73828125,-24.4140625,174.8046875,0.0
154.1015625,-22.4609375,-24.90234375,-30.76171875,-28.3203125,164.0625,0.0
154.10546875,-29.296875,-25.87890625,-29.296875,-29.78515625,139.16015625,0.0
154.109375,-39.0625,-31.25,-28.80859375,-26.85546875,156.25,0.0
154.11328125,-36.62109375,-29.296875,-28.3203125,-13.18359375,145.99609375,0.0
154.1171875,-33.203125,-31.73828125,-27.34375,-30.76171875,144.04296875,0.0
154.12109375,-29.296875,-38.57421875,-26.3671875,-43.9453125,211.9140625,0.0
154.125,-17.578125,-41.50390625,-30.76171875,-34.1796875,161.1328125,0.0
154.12890625,-30.76171875,-37.59765625,-32.71484375,-39.55078125,92.7734375,0.0
154.1328125,-53.7109375,-37.59765625,-31.73828125,-42.96875,58.59375,0.0
154.13671875,-41.9921875,-30.76171875,-33.203125,-50.29296875,116.69921875,0.0
154.140625,-17.578125,-20.01953125,-33.203125,-50.29296875,130.859375,0.0
154.14453125,-22.94921875,-21.484375,-30.76171875,-40.52734375,30.76171875,0.0
154.1484375,-29.296875,-26.85546875,-27.83203125,-40.0390625,29.296875,0.0
154.15234375,-16.6015625,-33.69140625,-28.80859375,-35.15625,43.45703125,0.0
154.15625,-33.203125,-36.1328125,-30.76171875,-27.34375,77.63671875,0.0
154.16015625,-44.43359375,-37.59765625,-33.69140625,-33.203125,162.109375,0.0
154.1640625,-32.2265625,-38.0859375,-31.73828125,-34.66796875,160.64453125,0.0
154.16796875,-22.4609375,-29.78515625,-27.83203125,-33.203125,80.078125,0.0
154.171875,-8.30078125,-28.3203125,-27.34375,-27.34375,96.19140625,0.0
154.17578125,-27.83203125,-26.85546875,-26.3671875,-18.5546875,151.85546875,0.0
154.1796875,-47.8515625,-25.87890625,-27.34375,-28.80859375,44.921875,0.0
154.18359375,-32.2265625,-28.3203125,-24.4140625,-29.296875,-41.9921875,0.0
154.1875,-28.3203125,-27.83203125,-20.99609375,-36.1328125,50.78125,0.0
154.19140625,-37.109375,-26.85546875,-18.06640625,-46.38671875,92.7734375,0.0
154.1953125,-26.3671875,-25.87890625,-19.04296875,-48.828125,2.44140625,0.0
154.19921875,-30.2734375,-21.484375,-27.83203125,-56.640625,-104.4921875,0.0
154.203125,-41.9921875,-20.5078125,-28.80859375,-61.5234375,-84.47265625,0.0
154.20703125,-17.578125,-26.85546875,-26.3671875,-65.91796875,-13.18359375,0.0
154.2109375,-30.76171875,-30.2734375,-31.73828125,-75.1953125,-34.1796875,0.0
154.21484375,-41.015625,-34.66796875,-33.203125,-72.75390625,-151.3671875,0.0
154.21875,-28.3203125,-41.9921875,-34.66796875,-63.96484375,-170.8984375,0.0
154.22265625,-31.25,-37.109375,-32.71484375,-61.03515625,-2.44140625,0.0
154.2265625,-8.30078125,-28.80859375,-28.80859375,-40.0390625,21.97265625,0.0
154.23046875,6.34765625,-23.4375,-27.34375,-27.34375,-90.8203125,0.0
154.234375,7.8125,-22.4609375,-31.25,-43.45703125,-144.04296875,0.0
154.23828125,8.7890625,-19.04296875,-30.2734375,-36.62109375,-118.1640625,0.0
154.2421875,2.9296875,-11.71875,-22.94921875,-18.06640625,-163.0859375,0.0
154.24609375,-8.7890625,-16.11328125,-20.5078125,-36.1328125,-145.99609375,0.0
154.25,-28.3203125,-31.73828125,-25.390625,-59.08203125,-96.19140625,0.0
154.25390625,-28.3203125,-31.25,-32.2265625,-59.5703125,-96.6796875,0.0
154.2578125,-27.83203125,-26.85546875,-32.2265625,-56.15234375,28.3203125,0.0
154.26171875,-36.62109375,-27.34375,-27.83203125,-54.19921875,51.26953125,0.0
154.265625,-49.31640625,-28.3203125,-25.87890625,-49.8046875,-40.52734375,0.0
154.26953125,-52.24609375,-25.87890625,-25.390625,-43.9453125,-1.953125,0.0
154.2734375,-36.1328125,-27.83203125,-25.87890625,-45.41015625,42.48046875,0.0
154.27734375,-53.7109375,-23.92578125,-34.1796875,-58.10546875,-35.15625,0.0
154.28125,-68.84765625,-19.53125,-41.9921875,-55.6640625,-102.5390625,0.0
154.28515625,-52.24609375,-18.06640625,-42.48046875,-59.5703125,-161.62109375,0.0
154.2890625,-49.8046875,-13.671875,-40.52734375,-68.84765625,-151.3671875,0.0
154.29296875,-44.43359375,-15.13671875,-41.50390625,-58.10546875,-91.796875,0.0
154.296875,-35.15625,-18.5546875,-37.109375,-46.38671875,-124.0234375,0.0
154.30078125,-26.3671875,-19.04296875,-34.66796875,-42.48046875,-222.16796875,0.0
154.3046875,-30.2734375,-19.04296875,-39.55078125,-55.6640625,-214.84375,0.0
154.30859375,-35.64453125,-18.06640625,-39.55078125,-43.9453125,-214.35546875,0.0
154.3125,-7.32421875,-20.01953125,-37.109375,-21.484375,-249.0234375,0.0
154.31640625,6.8359375,-13.18359375,-31.73828125,-19.04296875,-238.28125,0.0
154.3203125,-23.4375,-16.6015625,-34.66796875,-20.01953125,-253.90625,0.0
154.32421875,-27.34375,-28.3203125,-43.9453125,-20.99609375,-264.6484375,0.0
154.328125,-13.18359375,-24.4140625,-41.015625,-9.27734375,-249.51171875,0.0
154.33203125,-32.71484375,-20.99609375,-37.59765625,-15.625,-217.28515625,0.0
154.3359375,-59.5703125,-23.92578125,-39.0625,-17.08984375,-275.390625,0.0
154.33984375,-64.94140625,-26.3671875,-35.64453125,-7.8125,-333.49609375,0.0
154.34375,-66.40625,-29.78515625,-39.0625,-12.20703125,-308.59375,0.0
154.34765625,-79.1015625,-35.15625,-41.015625,-18.5546875,-279.296875,0.0
154.3515625,-64.94140625,-37.59765625,-39.55078125,-21.484375,-239.74609375,0.0
154.35546875,-51.7578125,-37.109375,-41.9921875,-29.296875,-209.47265625,0.0
154.359375,-41.015625,-43.45703125,-43.45703125,-41.9921875,-219.7265625,0.0
154.36328125,-50.29296875,-46.38671875,-46.38671875,-42.48046875,-233.3984375,0.0
154.3671875,-84.47265625,-43.9453125,-43.9453125,-38.0859375,-245.60546875,0.0
154.37109375,-81.54296875,-46.38671875,-37.109375,-35.64453125,-256.8359375,0.0
154.375,-67.87109375,-41.9921875,-38.0859375,-35.15625,-228.02734375,0.0
154.37890625,-64.453125,-32.71484375,-38.57421875,-39.55078125,-206.0546875,0.0
154.3828125,-62.01171875,-32.2265625,-36.1328125,-50.29296875,-266.6015625,0.0
154.38671875,-54.19921875,-39.55078125,-41.9921875,-40.52734375,-266.11328125,0.0
154.390625,-39.55078125,-35.64453125,-42.48046875,-36.62109375,-232.421875,0.0
154.39453125,-22.94921875,-26.85546875,-30.2734375,-31.73828125,-237.79296875,0.0
154.3984375,-13.671875,-20.99609375,-29.296875,-12.6953125,-176.7578125,0.0
154.40234375,-30.2734375,-20.01953125,-33.203125,-8.7890625,-117.1875,0.0
154.40625,-40.0390625,-25.390625,-29.78515625,-23.4375,-122.0703125,0.0
154.41015625,-38.0859375,-33.69140625,-29.78515625,-25.390625,-60.546875,0.0
154.4140625,-48.33984375,-34.66796875,-32.2265625,-18.06640625,20.99609375,0.0
154.41796875,-54.19921875,-38.0859375,-31.25,-11.23046875,-36.1328125,0.0
154.421875,-43.45703125,-39.55078125,-27.83203125,-8.30078125,-59.5703125,0.0
154.42578125,-24.4140625,-40.52734375,-33.69140625,-10.7421875,-86.42578125,0.0
154.4296875,-23.4375,-32.2265625,-32.71484375,-2.9296875,-75.68359375,0.0
154.43359375,-28.80859375,-25.87890625,-29.78515625,-19.04296875,52.24609375,0.0
154.4375,-40.52734375,-31.25,-31.73828125,-25.390625,35.15625,0.0
154.44140625,-51.7578125,-29.296875,-30.76171875,-13.671875,1.46484375,0.0
154.4453125,-43.9453125,-26.3671875,-30.2734375,-29.78515625,24.90234375,0.0
154.44921875,-42.96875,-28.80859375,-31.73828125,-37.109375,42.48046875,0.0
154.453125,-72.265625,-31.73828125,-37.109375,-41.9921875,59.5703125,0.0
154.45703125,-85.44921875,-41.9921875,-36.62109375,-48.33984375,126.953125,0.0
154.4609375,-80.078125,-41.9921875,-32.71484375,-43.9453125,132.8125,0.0
154.46484375,-77.1484375,-32.71484375,-34.66796875,-32.71484375,11.71875,0.0
154.46875,-64.453125,-41.9921875,-27.83203125,-3.90625,44.921875,0.0
154.47265625,-65.4296875,-43.45703125,-21.97265625,1.953125,146.484375,0.0
154.4765625,-64.94140625,-36.62109375,-24.90234375,-26.3671875,90.33203125,0.0
154.48046875,-56.15234375,-32.71484375,-26.85546875,-42.96875,89.84375,0.0
154.484375,-52.734375,-31.25,-29.296875,-32.71484375,143.06640625,0.0
154.48828125,-41.015625,-36.62109375,-31.25,-33.203125,121.09375,0.0
154.4921875,-53.7109375,-36.62109375,-40.0390625,-40.0390625,107.421875,0.0
154.49609375,-68.84765625,-31.73828125,-44.921875,-39.55078125,97.16796875,0.0
154.5,-31.73828125,-19.53125,-40.52734375,-39.0625,24.90234375,0.0
154.50390625,-27.34375,-13.18359375,-41.015625,-44.921875,94.23828125,0.0
154.5078125,-44.921875,-28.80859375,-42.48046875,-54.6875,232.91015625,0.0
154.51171875,-40.52734375,-31.73828125,-34.66796875,-55.17578125,240.234375,0.0
154.515625,-42.48046875,-22.94921875,-30.2734375,-66.40625,188.4765625,0.0
154.51953125,-38.57421875,-26.85546875,-30.2734375,-58.10546875,124.51171875,0.0
154.5234375,-27.83203125,-29.296875,-27.83203125,-42.48046875,178.22265625,0.0
154.52734375,-38.57421875,-24.90234375,-28.80859375,-51.26953125,233.88671875,0.0
154.53125,-40.0390625,-26.3671875,-35.15625,-51.26953125,253.90625,0.0
154.53515625,-5.37109375,-30.2734375,-33.203125,-36.62109375,211.42578125,0.0
154.5390625,-25.390625,-25.87890625,-30.2734375,-31.25,228.515625,0.0
154.54296875,-51.7578125,-30.2734375,-32.71484375,-33.203125,333.49609375,0.0
154.546875,-41.015625,-36.62109375,-33.203125,-32.2265625,398.4375,0.0
154.55078125,-30.76171875,-28.80859375,-28.80859375,-28.3203125,455.078125,0.0
154.5546875,-41.015625,-31.25,-27.34375,-26.85546875,452.63671875,0.0
154.55859375,-41.50390625,-32.2265625,-26.85546875,-32.71484375,342.28515625,0.0
154.5625,-33.203125,-20.5078125,-22.4609375,-20.99609375,225.09765625,0.0
154.56640625,-40.0390625,-28.80859375,-21.97265625,-27.34375,195.80078125,0.0
154.5703125,-34.1796875,-38.57421875,-23.92578125,-51.26953125,278.80859375,0.0
154.57421875,-44.43359375,-34.1796875,-27.83203125,-50.29296875,334.9609375,0.0
154.578125,-49.8046875,-36.1328125,-32.71484375,-45.41015625,203.61328125,0.0
154.58203125,-42.96875,-36.62109375,-35.15625,-45.41015625,172.36328125,0.0
154.5859375,-42.96875,-39.0625,-31.73828125,-44.921875,236.328125,0.0
154.58984375,-30.2734375,-41.9921875,-32.71484375,-43.9453125,246.58203125,0.0
154.59375,-43.9453125,-48.33984375,-37.109375,-51.7578125,265.13671875,0.0
154.59765625,-40.52734375,-42.48046875,-36.62109375,-50.29296875,349.609375,0.0
154.6015625,-35.64453125,-37.109375,-37.109375,-55.6640625,263.18359375,0.0
154.60546875,-45.41015625,-35.15625,-34.1796875,-50.78125,113.28125,0.0
154.609375,-40.52734375,-31.73828125,-33.203125,-43.9453125,150.87890625,0.0
154.61328125,-37.109375,-25.87890625,-38.0859375,-44.921875,294.43359375,0.0
154.6171875,-31.73828125,-19.04296875,-42.48046875,-57.12890625,322.265625,0.0
154.62109375,-16.6015625,-24.90234375,-50.29296875,-63.4765625,232.91015625,0.0
154.625,-21.484375,-30.2734375,-56.15234375,-51.26953125,262.6953125,0.0
154.62890625,-28.3203125,-31.73828125,-55.17578125,-46.38671875,282.71484375,0.0
154.6328125,-18.06640625,-29.78515625,-49.31640625,-39.55078125,168.45703125,0.0
154.63671875,-11.71875,-30.2734375,-42.96875,-41.015625,196.77734375,0.0
154.640625,-21.484375,-28.3203125,-43.45703125,-40.52734375,248.046875,0.0
154.64453125,-34.66796875,-21.484375,-47.8515625,-26.85546875,207.03125,0.0
154.6484375,-33.203125,-24.90234375,-43.9453125,-13.671875,255.859375,0.0
154.65234375,-29.78515625,-28.3203125,-42.48046875,-3.90625,291.015625,0.0
154.65625,-26.85546875,-26.3671875,-40.52734375,4.39453125,237.79296875,0.0
154.66015625,-34.66796875,-25.87890625,-38.0859375,-1.953125,166.50390625,0.0
154.6640625,-34.66796875,-19.04296875,-38.57421875,-20.5078125,60.546875,0.0
154.66796875,-28.3203125,-24.90234375,-31.73828125,-12.6953125,118.1640625,0.0
154.671875,-24.90234375,-33.203125,-32.71484375,-11.71875,242.67578125,0.0
154.67578125,-20.5078125,-22.94921875,-34.66796875,-16.6015625,218.26171875,0.0
154.6796875,-28.80859375,-22.4609375,-30.2734375,-4.8828125,147.4609375,0.0
154.68359375,-37.109375,-26.85546875,-28.80859375,7.32421875,83.984375,0.0
154.6875,-16.11328125,-28.80859375,-30.76171875,-7.8125,151.85546875,0.0
154.69140625,-15.625,-40.52734375,-28.80859375,-7.8125,115.72265625,0.0
154.6953125,-31.73828125,-34.66796875,-21.97265625,17.578125,101.5625,0.0
154.69921875,-42.48046875,-26.85546875,-25.87890625,8.7890625,177.24609375,0.0
154.703125,-24.90234375,-36.62109375,-28.80859375,-6.34765625,71.2890625,0.0
154.70703125,-20.01953125,-37.59765625,-20.01953125,3.41796875,56.640625,0.0
154.7109375,-44.43359375,-36.1328125,-21.97265625,-0.9765625,152.34375,0.0
154.71484375,-51.26953125,-36.62109375,-33.203125,-9.27734375,170.41015625,0.0
154.71875,-41.50390625,-34.66796875,-36.62109375,-0.9765625,132.32421875,0.0
154.72265625,-47.36328125,-47.36328125,-34.1796875,-3.41796875,28.3203125,0.0
154.7265625,-40.0390625,-46.38671875,-30.76171875,-5.859375,-14.6484375,0.0
154.73046875,-11.23046875,-34.1796875,-31.73828125,-2.9296875,84.9609375,0.0
154.734375,-7.32421875,-28.80859375,-32.71484375,-10.7421875,67.3828125,0.0
154.73828125,-32.71484375,-27.34375,-27.83203125,-24.4140625,28.80859375,0.0
154.7421875,-33.69140625,-26.3671875,-25.390625,-30.76171875,23.4375,0.0
154.74609375,-9.765625,-26.85546875,-26.3671875,-38.0859375,-2.44140625,0.0
154.75,-9.765625,-33.69140625,-30.76171875,-41.9921875,60.05859375,0.0
154.75390625,-17.578125,-33.69140625,-33.69140625,-41.9921875,94.23828125,0.0
154.7578125,-20.5078125,-34.66796875,-32.2265625,-39.0625,67.3828125,0.0
154.76171875,7.8125,-36.62109375,-28.3203125,-36.62109375,6.34765625,0.0
154.765625,-5.37109375,-36.1328125,-30.76171875,-52.24609375,13.671875,0.0
154.76953125,-23.92578125,-26.3671875,-32.71484375,-58.59375,44.921875,0.0
154.7734375,3.90625,-28.3203125,-25.87890625,-39.55078125,70.3125,0.0
154.77734375,7.8125,-32.2265625,-22.94921875,-26.85546875,103.515625,0.0
154.78125,-12.20703125,-25.87890625,-28.80859375,-35.15625,43.45703125,0.0
154.78515625,-21.484375,-25.390625,-28.80859375,-40.52734375,66.40625,0.0
154.7890625,-34.1796875,-26.85546875,-24.4140625,-29.78515625,115.72265625,0.0
154.79296875,-26.85546875,-24.90234375,-28.3203125,-21.97265625,50.29296875,0.0
154.796875,-18.5546875,-24.4140625,-27.34375,-19.53125,80.078125,0.0
154.80078125,-24.4140625,-26.3671875,-26.85546875,-26.85546875,66.40625,0.0
154.8046875,-32.71484375,-28.80859375,-33.69140625,-30.2734375,28.3203125,0.0
154.80859375,-34.1796875,-28.3203125,-32.2265625,-25.390625,147.4609375,0.0
154.8125,-42.48046875,-27.34375,-27.83203125,-14.6484375,150.87890625,0.0
154.81640625,-50.78125,-28.3203125,-30.76171875,-12.6953125,83.0078125,0.0
154.8203125,-40.0390625,-27.83203125,-32.71484375,-16.6015625,6.34765625,0.0
154.82421875,-33.203125,-26.85546875,-37.109375,-7.8125,-107.91015625,0.0
154.828125,-36.1328125,-34.66796875,-37.109375,-10.7421875,-113.76953125,0.0
154.83203125,-44.43359375,-40.0390625,-30.2734375,-30.2734375,-78.61328125,0.0
154.8359375,-39.0625,-30.2734375,-30.2734375,-41.9921875,28.3203125,0.0
154.83984375,-17.08984375,-26.85546875,-33.203125,-36.1328125,80.078125,0.0
154.84375,-24.90234375,-30.2734375,-34.1796875,-38.0859375,-47.36328125,0.0
154.84765625,-25.87890625,-34.1796875,-31.25,-34.66796875,-16.11328125,0.0
154.8515625,-15.625,-28.3203125,-26.85546875,-33.69140625,85.9375,0.0
154.85546875,-27.34375,-28.3203125,-29.296875,-40.0390625,105.46875,0.0
154.859375,-39.0625,-33.69140625,-34.1796875,-40.52734375,99.609375,0.0
154.86328125,-55.17578125,-23.92578125,-33.69140625,-38.57421875,83.0078125,0.0
154.8671875,-49.8046875,-20.5078125,-39.0625,-32.2265625,70.80078125,0.0
154.87109375,-50.78125,-28.80859375,-39.55078125,-46.38671875,75.1953125,0.0
154.875,-66.40625,-25.390625,-35.64453125,-57.6171875,192.3828125,0.0
154.87890625,-75.68359375,-28.3203125,-37.59765625,-60.05859375,212.40234375,0.0
154.8828125,-71.77734375,-36.62109375,-39.55078125,-61.5234375,41.9921875,0.0
154.88671875,-57.12890625,-34.1796875,-34.66796875,-49.8046875,-6.8359375,0.0
154.890625,-63.96484375,-33.69140625,-35.15625,-41.9921875,103.515625,0.0
154.89453125,-56.640625,-32.2265625,-35.64453125,-40.0390625,119.62890625,0.0
154.8984375,-40.0390625,-31.25,-28.3203125,-35.15625,25.390625,0.0
154.90234375,-36.62109375,-34.1796875,-22.94921875,-24.4140625,40.52734375,0.0
154.90625,-28.3203125,-38.0859375,-28.3203125,-20.5078125,98.14453125,0.0
154.91015625,-38.57421875,-37.109375,-29.78515625,-28.80859375,99.12109375,0.0
154.9140625,-34.66796875,-37.59765625,-27.83203125,-29.296875,109.86328125,0.0
154.91796875,-25.390625,-38.57421875,-31.73828125,-22.4609375,2.44140625,0.0
154.921875,-27.83203125,-37.109375,-41.9921875,-20.99609375,-19.04296875,0.0
154.92578125,-16.6015625,-41.50390625,-40.52734375,-32.2265625,56.15234375,0.0
154.9296875,-2.9296875,-46.38671875,-35.64453125,-31.73828125,21.484375,0.0
154.93359375,-23.92578125,-42.48046875,-37.59765625,-22.4609375,50.78125,0.0
154.9375,-21.97265625,-35.15625,-40.0390625,-19.04296875,85.9375,0.0
154.94140625,-5.859375,-28.80859375,-44.43359375,-18.5546875,49.8046875,0.0
154.9453125,-21.484375,-32.71484375,-40.52734375,-18.5546875,83.49609375,0.0
154.94921875,-21.97265625,-39.0625,-40.52734375,-22.94921875,151.3671875,0.0
154.953125,-18.5546875,-32.2265625,-41.9921875,-27.34375,147.4609375,0.0
154.95703125,-20.01953125,-24.4140625,-32.71484375,-16.11328125,41.50390625,0.0
154.9609375,-28.3203125,-26.3671875,-36.1328125,-25.390625,-66.89453125,0.0
154.96484375,-15.13671875,-27.83203125,-41.015625,-38.0859375,-58.59375,0.0
154.96875,-20.01953125,-26.85546875,-35.15625,-40.0390625,69.3359375,0.0
154.97265625,-58.59375,-34.66796875,-35.15625,-32.2265625,123.53515625,0.0
154.9765625,-56.15234375,-26.85546875,-36.1328125,-21.97265625,104.00390625,0.0
154.98046875,-41.015625,-28.3203125,-33.69140625,-14.16015625,19.53125,0.0
154.984375,-43.9453125,-39.55078125,-29.78515625,-13.18359375,-24.4140625,0.0
154.98828125,-53.22265625,-36.62109375,-31.25,-19.04296875,-46.38671875,0.0
154.9921875,-53.22265625,-23.4375,-32.71484375,-12.6953125,-13.671875,0.0
154.99609375,-37.109375,-23.92578125,-28.3203125,5.859375,50.29296875,0.0
155.0,-22.94921875,-28.3203125,-38.57421875,-1.46484375,-19.04296875,0.0
155.00390625,-20.01953125,-27.83203125,-46.875,-16.6015625,-29.78515625,0.0
155.0078125,-41.50390625,-37.109375,-40.52734375,-25.390625,9.27734375,0.0
155.01171875,-58.59375,-42.48046875,-33.203125,-34.66796875,86.42578125,0.0
155.015625,-54.6875,-34.66796875,-30.76171875,-37.59765625,91.30859375,0.0
155.01953125,-46.38671875,-26.85546875,-32.71484375,-45.41015625,-12.6953125,0.0
155.0234375,-20.99609375,-29.296875,-27.34375,-38.0859375,-32.2265625,0.0
155.02734375,-20.5078125,-40.0390625,-23.4375,-29.296875,57.12890625,0.0
155.03125,-47.8515625,-40.52734375,-28.3203125,-27.34375,124.51171875,0.0
155.03515625,-54.19921875,-30.76171875,-22.94921875,-23.4375,40.52734375,0.0
155.0390625,-32.71484375,-20.5078125,-19.04296875,-21.484375,-35.15625,0.0
155.04296875,-14.16015625,-25.390625,-22.4609375,-21.484375,-101.5625,0.0
155.046875,-10.7421875,-36.62109375,-19.53125,-11.71875,-82.51953125,0.0
155.05078125,-3.41796875,-34.66796875,-18.5546875,-8.30078125,12.6953125,0.0
155.0546875,-16.6015625,-31.25,-25.390625,-21.484375,19.04296875,0.0
155.05859375,-21.484375,-35.64453125,-32.2265625,-42.48046875,-28.3203125,0.0
155.0625,-24.4140625,-42.96875,-33.69140625,-53.7109375,-91.796875,0.0
155.06640625,-37.109375,-42.96875,-32.2265625,-45.41015625,-76.66015625,0.0
155.0703125,-23.92578125,-38.0859375,-33.69140625,-41.9921875,-31.25,0.0
155.07421875,-21.484375,-38.57421875,-28.80859375,-43.45703125,-10.25390625,0.0
155.078125,-19.04296875,-39.0625,-22.94921875,-44.921875,-123.046875,0.0
155.08203125,-10.25390625,-42.48046875,-27.34375,-38.57421875,-110.3515625,0.0
155.0859375,-13.671875,-40.52734375,-31.73828125,-37.109375,-67.87109375,0.0
155.08984375,-5.37109375,-34.66796875,-28.3203125,-31.25,-85.9375,0.0
155.09375,-9.27734375,-37.109375,-27.83203125,-25.390625,-27.34375,0.0
155.09765625,-2.9296875,-39.0625,-27.83203125,-41.50390625,-32.71484375,0.0
155.1015625,17.578125,-31.25,-27.83203125,-41.50390625,-110.3515625,0.0
155.10546875,3.41796875,-29.78515625,-26.85546875,-35.64453125,-86.42578125,0.0
155.109375,-10.25390625,-34.66796875,-26.85546875,-42.48046875,-12.20703125,0.0
155.11328125,6.8359375,-38.0859375,-28.80859375,-27.83203125,32.71484375,0.0
155.1171875,-4.8828125,-36.62109375,-31.25,-13.18359375,-25.87890625,0.0
155.12109375,-25.390625,-33.203125,-32.2265625,-23.92578125,-110.83984375,0.0
155.125,-10.7421875,-35.64453125,-29.296875,-18.5546875,-64.453125,0.0
155.12890625,-3.90625,-33.69140625,-30.76171875,-2.9296875,-53.7109375,0.0
155.1328125,1.953125,-33.69140625,-30.2734375,0.0,-68.359375,0.0
155.13671875,2.9296875,-37.59765625,-28.3203125,-12.6953125,-95.21484375,0.0
155.140625,-15.13671875,-39.55078125,-31.73828125,-24.4140625,-146.97265625,0.0
155.14453125,-20.5078125,-37.59765625,-34.66796875,-20.01953125,-70.3125,0.0
155.1484375,-7.32421875,-42.48046875,-39.0625,-22.4609375,-20.5078125,0.0
155.15234375,2.9296875,-38.57421875,-41.50390625,-23.92578125,-77.1484375,0.0
155.15625,-6.34765625,-38.0859375,-39.0625,-18.5546875,-33.69140625,0.0
155.16015625,0.9765625,-40.52734375,-41.9921875,-41.9921875,7.32421875,0.0
155.1640625,12.6953125,-39.55078125,-46.38671875,-39.0625,-16.11328125,0.0
