timestamp,TP9,AF7,AF8,TP10,AUX,Marker,
187.00390625,-16.6015625,-37.59765625,-42.96875,-38.57421875,68.84765625,0.0
187.0078125,-16.6015625,-27.34375,-34.1796875,-25.87890625,37.109375,0.0
187.01171875,-20.01953125,-23.92578125,-37.59765625,-14.16015625,78.125,0.0
187.015625,-20.5078125,-36.62109375,-44.43359375,-16.11328125,30.2734375,0.0
187.01953125,-15.625,-41.50390625,-43.9453125,-30.2734375,-63.4765625,0.0
187.0234375,-13.671875,-34.66796875,-34.1796875,-41.015625,-48.33984375,0.0
187.02734375,-18.06640625,-37.59765625,-32.2265625,-31.25,-109.86328125,0.0
187.03125,-26.3671875,-35.64453125,-31.25,-15.13671875,-131.34765625,0.0
187.03515625,-32.71484375,-30.76171875,-29.78515625,-19.04296875,-32.71484375,0.0
187.0390625,-25.390625,-38.57421875,-31.73828125,-39.55078125,-63.96484375,0.0
187.04296875,-18.06640625,-34.66796875,-28.80859375,-42.96875,-40.0390625,0.0
187.046875,-31.25,-28.80859375,-20.99609375,-35.15625,50.78125,0.0
187.05078125,-21.97265625,-32.2265625,-14.16015625,-22.94921875,1.46484375,0.0
187.0546875,-5.859375,-25.390625,-18.5546875,-18.06640625,-85.9375,0.0
187.05859375,-11.71875,-20.01953125,-29.296875,-32.71484375,-33.69140625,0.0
187.0625,-29.78515625,-33.203125,-37.59765625,-35.64453125,-19.04296875,0.0
187.06640625,-51.26953125,-38.0859375,-40.0390625,-33.203125,-11.23046875,0.0
187.0703125,-56.15234375,-38.0859375,-29.78515625,-27.34375,6.8359375,0.0
187.07421875,-43.9453125,-31.73828125,-19.53125,-20.99609375,-56.15234375,0.0
187.078125,-28.80859375,-28.80859375,-24.4140625,-26.3671875,-37.59765625,0.0
187.08203125,-29.78515625,-33.203125,-22.4609375,-35.15625,-67.87109375,0.0
187.0859375,-44.921875,-31.25,-17.08984375,-39.0625,-59.5703125,0.0
187.08984375,-52.24609375,-42.48046875,-24.90234375,-25.87890625,-9.27734375,0.0
187.09375,-52.734375,-41.50390625,-24.90234375,-17.578125,-79.58984375,0.0
187.09765625,-37.109375,-27.83203125,-22.4609375,-25.390625,-15.625,0.0
187.1015625,-25.87890625,-27.83203125,-22.94921875,-30.2734375,60.05859375,0.0
187.10546875,-39.55078125,-31.25,-33.203125,-34.66796875,-24.4140625,0.0
187.109375,-49.31640625,-35.64453125,-30.2734375,-30.76171875,-25.390625,0.0
187.11328125,-50.78125,-43.9453125,-30.2734375,-25.390625,-46.875,0.0
187.1171875,-33.69140625,-44.43359375,-27.83203125,-26.85546875,-125.48828125,0.0
187.12109375,-20.5078125,-38.57421875,-18.5546875,-42.48046875,-50.29296875,0.0
187.125,-26.85546875,-37.109375,-20.99609375,-45.8984375,49.8046875,0.0
187.12890625,-41.9921875,-39.55078125,-25.390625,-35.64453125,76.171875,0.0
187.1328125,-53.7109375,-45.8984375,-26.85546875,-29.296875,45.41015625,0.0
187.13671875,-42.96875,-45.8984375,-29.296875,-36.1328125,3.41796875,0.0
187.140625,-15.625,-39.55078125,-31.73828125,-36.1328125,-29.78515625,0.0
187.14453125,-21.484375,-43.45703125,-44.43359375,-43.9453125,20.99609375,0.0
187.1484375,-36.62109375,-47.36328125,-51.26953125,-42.96875,-6.34765625,0.0
187.15234375,-23.92578125,-39.0625,-41.9921875,-21.484375,-66.40625,0.0
187.15625,-17.08984375,-41.9921875,-36.62109375,-23.92578125,-109.86328125,0.0
187.16015625,-23.92578125,-51.7578125,-38.57421875,-45.41015625,-186.03515625,0.0
187.1640625,-29.296875,-49.8046875,-40.0390625,-51.26953125,-135.7421875,0.0
187.16796875,-29.78515625,-41.015625,-30.76171875,-40.0390625,-15.13671875,0.0
187.171875,-36.62109375,-42.48046875,-23.92578125,-27.83203125,6.34765625,0.0
187.17578125,-30.2734375,-47.36328125,-26.85546875,-26.3671875,-110.83984375,0.0
187.1796875,-8.7890625,-33.203125,-18.5546875,-25.87890625,-99.609375,0.0
187.18359375,-14.16015625,-21.484375,-13.671875,-24.90234375,-70.3125,0.0
187.1875,-41.9921875,-34.1796875,-27.34375,-32.2265625,-86.42578125,0.0
187.19140625,-46.875,-47.8515625,-35.64453125,-28.3203125,39.0625,0.0
187.1953125,-26.85546875,-41.015625,-33.69140625,-19.04296875,35.64453125,0.0
187.19921875,-16.6015625,-37.59765625,-36.62109375,-29.296875,-20.5078125,0.0
187.203125,-22.94921875,-33.69140625,-33.203125,-40.0390625,37.59765625,0.0
187.20703125,-44.921875,-31.25,-28.80859375,-39.0625,45.8984375,0.0
187.2109375,-60.546875,-43.45703125,-29.78515625,-33.203125,-63.96484375,0.0
187.21484375,-52.734375,-43.45703125,-33.69140625,-26.3671875,-76.66015625,0.0
187.21875,-30.2734375,-28.3203125,-29.296875,-37.59765625,-18.06640625,0.0
187.22265625,-25.87890625,-29.78515625,-23.4375,-50.78125,-31.25,0.0
187.2265625,-48.828125,-35.15625,-24.4140625,-47.8515625,-72.75390625,0.0
187.23046875,-60.546875,-30.76171875,-25.87890625,-39.55078125,-154.78515625,0.0
187.234375,-48.33984375,-29.296875,-21.484375,-26.85546875,-144.04296875,0.0
187.23828125,-32.71484375,-23.92578125,-26.3671875,-30.2734375,-131.34765625,0.0
187.2421875,-26.85546875,-12.6953125,-21.97265625,-34.1796875,-92.7734375,0.0
187.24609375,-36.1328125,-16.11328125,-20.99609375,-30.76171875,12.6953125,0.0
187.25,-54.19921875,-29.296875,-25.390625,-22.94921875,31.25,0.0
187.25390625,-72.75390625,-40.52734375,-31.25,-18.5546875,55.17578125,0.0
187.2578125,-64.94140625,-37.109375,-35.15625,-26.85546875,15.625,0.0
187.26171875,-49.8046875,-28.80859375,-33.69140625,-34.1796875,58.59375,0.0
187.265625,-57.6171875,-30.2734375,-36.1328125,-39.55078125,71.77734375,0.0
187.26953125,-71.77734375,-36.1328125,-36.1328125,-36.1328125,-31.73828125,0.0
187.2734375,-57.6171875,-29.296875,-29.78515625,-26.85546875,-38.57421875,0.0
187.27734375,-41.9921875,-20.99609375,-27.83203125,-22.94921875,-42.48046875,0.0
187.28125,-54.6875,-26.85546875,-30.76171875,-41.015625,-54.6875,0.0
187.28515625,-62.01171875,-34.1796875,-31.73828125,-53.7109375,-60.546875,0.0
187.2890625,-64.453125,-25.87890625,-30.76171875,-41.9921875,-120.1171875,0.0
187.29296875,-65.91796875,-25.87890625,-27.83203125,-35.15625,-83.0078125,0.0
187.296875,-52.24609375,-38.57421875,-24.90234375,-35.15625,21.97265625,0.0
187.30078125,-52.24609375,-48.33984375,-34.66796875,-41.50390625,-4.39453125,0.0
187.3046875,-45.8984375,-41.50390625,-26.3671875,-41.015625,-44.43359375,0.0
187.30859375,-49.8046875,-38.57421875,-18.06640625,-38.57421875,0.9765625,0.0
187.3125,-57.12890625,-40.52734375,-18.5546875,-23.4375,-38.0859375,0.0
187.31640625,-50.29296875,-37.59765625,-14.6484375,-22.94921875,-71.77734375,0.0
187.3203125,-33.203125,-34.66796875,-14.16015625,-38.57421875,-63.4765625,0.0
187.32421875,-30.2734375,-29.78515625,-13.671875,-32.71484375,-12.6953125,0.0
187.328125,-45.41015625,-38.0859375,-18.5546875,-34.66796875,-32.71484375,0.0
187.33203125,-47.36328125,-43.45703125,-24.90234375,-24.4140625,14.6484375,0.0
187.3359375,-40.52734375,-35.64453125,-18.06640625,-15.13671875,25.87890625,0.0
187.33984375,-22.94921875,-32.71484375,-18.06640625,-34.1796875,52.734375,0.0
187.34375,-19.53125,-42.48046875,-28.80859375,-53.7109375,38.0859375,0.0
187.34765625,-19.53125,-45.41015625,-21.484375,-39.55078125,14.16015625,0.0
187.3515625,-20.99609375,-38.0859375,-16.6015625,-27.83203125,-42.96875,0.0
187.35546875,-21.484375,-34.1796875,-23.92578125,-28.80859375,-62.5,0.0
187.359375,-7.8125,-29.296875,-27.34375,-30.2734375,-14.16015625,0.0
187.36328125,-15.13671875,-28.80859375,-32.2265625,-52.24609375,-20.5078125,0.0
187.3671875,-33.69140625,-34.66796875,-29.296875,-47.36328125,55.6640625,0.0
187.37109375,-33.69140625,-40.0390625,-19.04296875,-22.4609375,85.44921875,0.0
187.375,-21.484375,-48.33984375,-16.11328125,-22.4609375,20.99609375,0.0
187.37890625,-12.20703125,-44.921875,-9.765625,-34.66796875,12.20703125,0.0
187.3828125,-6.34765625,-28.80859375,-7.8125,-32.2265625,13.18359375,0.0
187.38671875,-14.16015625,-30.2734375,-18.06640625,-26.85546875,1.953125,0.0
187.390625,-20.01953125,-51.26953125,-20.99609375,-25.390625,-11.23046875,0.0
187.39453125,-5.859375,-52.734375,-16.11328125,-14.6484375,-46.875,0.0
187.3984375,6.34765625,-39.55078125,-12.20703125,-20.01953125,-34.1796875,0.0
187.40234375,4.39453125,-29.78515625,-17.578125,-26.3671875,-12.20703125,0.0
187.40625,-5.37109375,-26.3671875,-25.87890625,-28.3203125,-75.1953125,0.0
187.41015625,-19.53125,-34.66796875,-31.73828125,-17.578125,-50.29296875,0.0
187.4140625,-17.578125,-33.69140625,-26.3671875,-2.44140625,22.4609375,0.0
187.41796875,-1.953125,-26.85546875,-21.97265625,-0.9765625,60.546875,0.0
187.421875,-4.8828125,-27.83203125,-31.25,-17.08984375,55.6640625,0.0
187.42578125,-8.7890625,-36.1328125,-38.57421875,-21.484375,-21.484375,0.0
187.4296875,-0.48828125,-34.1796875,-37.59765625,-17.578125,-40.0390625,0.0
187.43359375,0.0,-32.2265625,-54.19921875,-28.3203125,-54.6875,0.0
187.4375,3.90625,-39.55078125,-63.4765625,-33.203125,-12.20703125,0.0
187.44140625,31.73828125,-39.55078125,-56.640625,-39.55078125,33.203125,0.0
187.4453125,34.1796875,-34.1796875,-53.22265625,-47.8515625,25.390625,0.0
187.44921875,22.4609375,-33.203125,-53.7109375,-25.87890625,-15.625,0.0
187.453125,12.20703125,-36.1328125,-52.734375,-22.94921875,-52.734375,0.0
187.45703125,10.25390625,-36.62109375,-47.8515625,-41.015625,-68.84765625,0.0
187.4609375,14.6484375,-32.71484375,-44.43359375,-45.8984375,-95.21484375,0.0
187.46484375,-10.25390625,-36.1328125,-49.8046875,-55.17578125,-41.9921875,0.0
187.46875,-23.4375,-35.64453125,-46.38671875,-40.52734375,12.6953125,0.0
187.47265625,-13.18359375,-41.015625,-43.9453125,-26.3671875,36.62109375,0.0
187.4765625,2.9296875,-34.66796875,-41.9921875,-32.2265625,49.8046875,0.0
187.48046875,2.9296875,-30.2734375,-37.59765625,-41.015625,-79.58984375,0.0
187.484375,-15.13671875,-38.57421875,-40.52734375,-43.9453125,-194.3359375,0.0
187.48828125,-27.83203125,-40.0390625,-34.1796875,-34.66796875,-92.28515625,0.0
187.4921875,-31.25,-38.57421875,-25.390625,-21.97265625,-68.84765625,0.0
187.49609375,-24.4140625,-43.9453125,-23.92578125,-26.3671875,-159.1796875,0.0
187.5,-18.5546875,-48.33984375,-23.4375,-29.78515625,-111.328125,0.0
187.50390625,-18.06640625,-49.8046875,-23.4375,-23.92578125,-85.44921875,0.0
187.5078125,-18.5546875,-46.38671875,-19.04296875,-14.16015625,-214.35546875,0.0
187.51171875,-30.2734375,-43.45703125,-10.25390625,-4.39453125,-169.921875,0.0
187.515625,-34.66796875,-41.50390625,-12.6953125,-12.6953125,-45.41015625,0.0
187.51953125,-27.83203125,-43.45703125,-18.5546875,-26.85546875,-82.51953125,0.0
187.5234375,-25.390625,-36.62109375,-16.6015625,-30.76171875,-146.484375,0.0
187.52734375,-35.15625,-34.66796875,-18.06640625,-22.94921875,-105.46875,0.0
187.53125,-25.390625,-44.43359375,-20.99609375,-13.671875,-12.6953125,0.0
187.53515625,2.9296875,-45.8984375,-25.390625,-6.8359375,13.18359375,0.0
187.5390625,19.53125,-35.64453125,-32.71484375,-10.7421875,65.4296875,0.0
187.54296875,14.16015625,-31.25,-39.55078125,-19.04296875,160.64453125,0.0
187.546875,-0.48828125,-37.109375,-46.38671875,-19.53125,143.5546875,0.0
187.55078125,-13.18359375,-41.9921875,-49.31640625,-5.37109375,4.8828125,0.0
187.5546875,-23.4375,-40.0390625,-34.66796875,-5.859375,32.71484375,0.0
187.55859375,-12.6953125,-36.1328125,-32.71484375,-21.484375,136.23046875,0.0
187.5625,-13.671875,-39.0625,-39.0625,-33.69140625,51.7578125,0.0
187.56640625,-29.296875,-43.45703125,-32.71484375,-28.80859375,-21.97265625,0.0
187.5703125,-30.76171875,-38.0859375,-30.76171875,-12.6953125,1.46484375,0.0
187.57421875,-24.90234375,-36.62109375,-35.64453125,-7.32421875,24.90234375,0.0
187.578125,-10.25390625,-37.59765625,-40.52734375,-20.99609375,97.65625,0.0
187.58203125,0.48828125,-41.9921875,-39.55078125,-39.55078125,77.63671875,0.0
187.5859375,-8.7890625,-43.45703125,-40.52734375,-33.203125,-7.32421875,0.0
187.58984375,-25.87890625,-47.36328125,-40.0390625,-29.296875,-31.73828125,0.0
187.59375,-14.6484375,-37.109375,-27.83203125,-31.25,-46.38671875,0.0
187.59765625,5.37109375,-33.203125,-38.57421875,-25.390625,-43.45703125,0.0
187.6015625,5.859375,-38.57421875,-42.48046875,-38.57421875,-81.0546875,0.0
187.60546875,4.8828125,-28.3203125,-33.203125,-48.828125,-57.12890625,0.0
187.609375,-0.9765625,-22.94921875,-32.2265625,-28.3203125,29.296875,0.0
187.61328125,-11.71875,-31.25,-33.203125,-27.83203125,-29.78515625,0.0
187.6171875,-3.41796875,-26.3671875,-31.73828125,-40.0390625,-107.421875,0.0
187.62109375,4.39453125,-24.4140625,-29.296875,-48.828125,-56.640625,0.0
187.625,8.7890625,-37.109375,-29.78515625,-41.9921875,-76.171875,0.0
187.62890625,12.20703125,-44.43359375,-25.390625,-30.2734375,-108.88671875,0.0
187.6328125,21.97265625,-38.0859375,-23.4375,-24.4140625,-48.828125,0.0
187.63671875,32.71484375,-26.85546875,-23.4375,-19.53125,3.90625,0.0
187.640625,33.69140625,-31.25,-23.4375,-33.203125,-75.68359375,0.0
187.64453125,32.71484375,-31.25,-23.92578125,-36.62109375,-67.87109375,0.0
187.6484375,7.8125,-27.34375,-28.3203125,-33.203125,16.11328125,0.0
187.65234375,-3.90625,-34.1796875,-31.73828125,-30.76171875,27.34375,0.0
187.65625,8.30078125,-29.296875,-25.390625,-22.4609375,46.875,0.0
187.66015625,8.30078125,-30.2734375,-22.4609375,-34.1796875,13.671875,0.0
187.6640625,0.48828125,-30.76171875,-24.90234375,-33.69140625,-78.125,0.0
187.66796875,-20.5078125,-31.25,-25.390625,-31.73828125,-58.10546875,0.0
187.671875,-28.80859375,-41.9921875,-20.99609375,-27.34375,15.625,0.0
187.67578125,-30.2734375,-48.33984375,-21.484375,-24.90234375,0.48828125,0.0
187.6796875,-28.3203125,-41.50390625,-17.08984375,-33.69140625,-0.9765625,0.0
187.68359375,-22.4609375,-25.87890625,-17.08984375,-31.73828125,-5.37109375,0.0
187.6875,-45.41015625,-28.3203125,-26.85546875,-28.3203125,-71.77734375,0.0
187.69140625,-50.78125,-38.0859375,-26.85546875,-12.20703125,-41.50390625,0.0
187.6953125,-32.2265625,-33.69140625,-23.4375,-5.37109375,-28.3203125,0.0
187.69921875,-20.99609375,-30.76171875,-28.3203125,-20.5078125,-43.45703125,0.0
187.703125,-22.94921875,-33.69140625,-37.59765625,-32.2265625,-5.859375,0.0
187.70703125,-34.1796875,-34.1796875,-45.8984375,-24.4140625,-69.82421875,0.0
187.7109375,-33.69140625,-36.62109375,-43.9453125,-18.06640625,-144.04296875,0.0
187.71484375,-20.5078125,-31.25,-45.8984375,-29.296875,-40.0390625,0.0
187.71875,-1.46484375,-38.57421875,-58.59375,-38.0859375,-5.859375,0.0
187.72265625,0.0,-49.8046875,-60.546875,-36.62109375,-2.9296875,0.0
187.7265625,-18.5546875,-44.43359375,-45.8984375,-36.62109375,13.671875,0.0
187.73046875,-24.4140625,-39.55078125,-35.15625,-32.2265625,-27.83203125,0.0
187.734375,-20.99609375,-45.8984375,-37.59765625,-28.3203125,-24.90234375,0.0
187.73828125,-20.01953125,-45.8984375,-34.1796875,-38.57421875,-52.734375,0.0
187.7421875,-13.18359375,-33.69140625,-28.80859375,-57.12890625,-56.640625,0.0
187.74609375,-26.85546875,-30.76171875,-36.1328125,-41.015625,-51.26953125,0.0
187.75,-47.36328125,-40.0390625,-35.64453125,-19.04296875,-78.61328125,0.0
187.75390625,-48.33984375,-43.9453125,-29.296875,-24.4140625,-28.80859375,0.0
187.7578125,-31.73828125,-38.57421875,-29.78515625,-31.25,-2.9296875,0.0
187.76171875,-26.85546875,-28.80859375,-34.66796875,-30.76171875,38.57421875,0.0
187.765625,-49.8046875,-35.15625,-36.62109375,-33.203125,7.8125,0.0
187.76953125,-62.01171875,-50.29296875,-35.64453125,-21.97265625,-26.85546875,0.0
187.7734375,-47.36328125,-50.78125,-36.62109375,-6.8359375,-47.36328125,0.0
187.77734375,-34.1796875,-38.0859375,-33.203125,-18.06640625,-33.203125,0.0
187.78125,-33.69140625,-26.85546875,-35.64453125,-28.80859375,-75.1953125,0.0
187.78515625,-40.52734375,-30.76171875,-27.34375,-19.04296875,-106.93359375,0.0
187.7890625,-53.7109375,-30.2734375,-19.53125,-17.08984375,-73.2421875,0.0
187.79296875,-41.015625,-31.25,-22.94921875,-11.23046875,-83.49609375,0.0
187.796875,-14.16015625,-26.85546875,-24.4140625,-10.25390625,-62.98828125,0.0
187.80078125,-10.25390625,-25.390625,-22.4609375,-21.97265625,37.59765625,0.0
187.8046875,-28.3203125,-22.94921875,-17.08984375,-28.80859375,85.9375,0.0
187.80859375,-58.10546875,-15.625,-24.4140625,-27.83203125,0.48828125,0.0
187.8125,-79.1015625,-32.2265625,-33.203125,-22.4609375,-0.9765625,0.0
187.81640625,-72.265625,-34.66796875,-38.0859375,-34.66796875,9.27734375,0.0
187.8203125,-60.546875,-25.87890625,-35.64453125,-42.48046875,-21.484375,0.0
187.82421875,-70.3125,-25.390625,-36.62109375,-50.78125,17.578125,0.0
187.828125,-86.9140625,-27.83203125,-36.62109375,-45.8984375,16.6015625,0.0
187.83203125,-96.19140625,-31.73828125,-36.1328125,-27.83203125,-35.15625,0.0
187.8359375,-81.0546875,-27.34375,-37.109375,-25.390625,0.9765625,0.0
187.83984375,-57.6171875,-29.78515625,-42.48046875,-32.71484375,7.8125,0.0
187.84375,-64.94140625,-34.66796875,-50.78125,-39.55078125,-32.2265625,0.0
187.84765625,-71.2890625,-31.73828125,-45.8984375,-31.73828125,14.6484375,0.0
187.8515625,-62.98828125,-29.296875,-37.109375,-20.5078125,43.45703125,0.0
187.85546875,-52.734375,-36.1328125,-34.1796875,-13.671875,-8.7890625,0.0
187.859375,-50.29296875,-39.0625,-35.64453125,-21.97265625,-35.15625,0.0
187.86328125,-53.22265625,-45.41015625,-41.015625,-29.296875,-50.78125,0.0
187.8671875,-58.10546875,-49.31640625,-34.66796875,-15.13671875,-7.32421875,0.0
187.87109375,-62.01171875,-39.55078125,-24.4140625,0.0,28.3203125,0.0
187.875,-50.78125,-41.015625,-29.78515625,-1.953125,23.92578125,0.0
187.87890625,-42.48046875,-42.48046875,-35.64453125,-7.8125,59.08203125,0.0
187.8828125,-49.8046875,-39.0625,-31.73828125,-15.13671875,42.96875,0.0
187.88671875,-60.546875,-42.96875,-37.59765625,-21.97265625,0.9765625,0.0
187.890625,-66.89453125,-49.31640625,-48.33984375,-21.484375,-48.33984375,0.0
187.89453125,-40.52734375,-46.38671875,-39.55078125,-11.23046875,31.25,0.0
187.8984375,-13.18359375,-32.2265625,-31.25,-18.5546875,51.7578125,0.0
187.90234375,-20.01953125,-34.1796875,-36.1328125,-20.5078125,-87.40234375,0.0
187.90625,-23.4375,-43.9453125,-43.45703125,-16.11328125,-107.91015625,0.0
187.91015625,-36.62109375,-45.8984375,-45.8984375,-16.11328125,-8.7890625,0.0
187.9140625,-44.43359375,-48.828125,-47.36328125,-23.4375,-11.71875,0.0
187.91796875,-36.62109375,-41.50390625,-47.36328125,-36.1328125,-72.75390625,0.0
187.921875,-38.0859375,-33.69140625,-41.9921875,-45.8984375,-69.3359375,0.0
187.92578125,-45.8984375,-38.57421875,-44.921875,-50.29296875,-119.62890625,0.0
187.9296875,-54.6875,-36.62109375,-45.8984375,-39.0625,-143.5546875,0.0
187.93359375,-52.734375,-28.80859375,-42.48046875,-30.2734375,-25.390625,0.0
187.9375,-42.96875,-26.3671875,-39.55078125,-47.36328125,41.50390625,0.0
187.94140625,-46.875,-27.34375,-36.1328125,-59.08203125,32.71484375,0.0
187.9453125,-56.640625,-23.4375,-40.0390625,-54.6875,-11.71875,0.0
187.94921875,-69.3359375,-24.4140625,-35.15625,-44.921875,-17.578125,0.0
187.953125,-83.984375,-28.80859375,-32.2265625,-38.0859375,-7.32421875,0.0
187.95703125,-70.3125,-28.80859375,-41.50390625,-43.9453125,-31.73828125,0.0
187.9609375,-60.05859375,-29.296875,-43.45703125,-60.05859375,81.0546875,0.0
187.96484375,-72.75390625,-32.2265625,-43.45703125,-55.6640625,124.0234375,0.0
187.96875,-80.078125,-42.96875,-45.41015625,-41.9921875,62.98828125,0.0
187.97265625,-78.61328125,-52.24609375,-40.52734375,-38.57421875,-7.8125,0.0
187.9765625,-66.89453125,-49.8046875,-37.109375,-37.59765625,-97.65625,0.0
187.98046875,-50.29296875,-35.64453125,-38.0859375,-36.62109375,-85.44921875,0.0
187.984375,-59.5703125,-35.64453125,-38.0859375,-35.64453125,-7.8125,0.0
187.98828125,-66.40625,-39.55078125,-40.0390625,-27.83203125,25.87890625,0.0
187.9921875,-57.12890625,-32.2265625,-31.25,-19.04296875,-43.45703125,0.0
187.99609375,-33.203125,-28.80859375,-24.90234375,-7.32421875,-80.56640625,0.0
188.0,-21.484375,-31.25,-36.62109375,-13.671875,-12.20703125,0.0
188.00390625,-29.78515625,-35.64453125,-48.33984375,-19.04296875,-4.8828125,0.0
188.0078125,-28.3203125,-34.1796875,-46.875,-11.71875,-42.96875,0.0
188.01171875,-36.62109375,-33.69140625,-33.69140625,-9.27734375,19.53125,0.0
188.015625,-41.015625,-36.62109375,-27.83203125,-15.13671875,-6.34765625,0.0
188.01953125,-16.6015625,-26.85546875,-23.92578125,-26.3671875,-9.765625,0.0
188.0234375,-20.5078125,-36.62109375,-24.4140625,-30.2734375,15.13671875,0.0
188.02734375,-35.64453125,-46.875,-20.5078125,-19.04296875,-57.6171875,0.0
188.03125,-36.1328125,-47.8515625,-17.08984375,-10.25390625,-67.87109375,0.0
188.03515625,-36.1328125,-51.26953125,-18.5546875,-15.13671875,-48.33984375,0.0
188.0390625,-22.4609375,-36.1328125,-8.7890625,-32.2265625,-17.578125,0.0
188.04296875,-22.94921875,-23.92578125,-13.671875,-34.1796875,-1.46484375,0.0
188.046875,-51.26953125,-36.1328125,-30.2734375,-34.66796875,-55.17578125,0.0
188.05078125,-58.10546875,-53.7109375,-31.25,-42.96875,-121.58203125,0.0
188.0546875,-40.52734375,-46.38671875,-20.5078125,-29.78515625,-111.81640625,0.0
188.05859375,-32.71484375,-36.1328125,-18.06640625,-29.78515625,-38.57421875,0.0
188.0625,-36.1328125,-28.80859375,-20.99609375,-41.9921875,23.92578125,0.0
188.06640625,-45.8984375,-39.55078125,-29.296875,-34.1796875,18.5546875,0.0
188.0703125,-52.734375,-47.36328125,-28.3203125,-32.71484375,-62.5,0.0
188.07421875,-47.36328125,-41.9921875,-19.53125,-31.25,-115.72265625,0.0
188.078125,-34.1796875,-46.38671875,-28.80859375,-22.94921875,-89.35546875,0.0
188.08203125,-37.59765625,-45.8984375,-34.1796875,-31.25,-89.35546875,0.0
188.0859375,-47.36328125,-32.2265625,-21.484375,-25.390625,-59.5703125,0.0
188.08984375,-47.36328125,-28.3203125,-13.18359375,-14.16015625,-96.6796875,0.0
188.09375,-54.6875,-44.43359375,-20.01953125,-20.5078125,-121.58203125,0.0
188.09765625,-49.31640625,-45.41015625,-21.484375,-25.87890625,-84.47265625,0.0
188.1015625,-34.66796875,-39.0625,-13.18359375,-34.66796875,-109.375,0.0
188.10546875,-28.3203125,-38.57421875,-5.37109375,-27.34375,-115.234375,0.0
188.109375,-35.15625,-36.1328125,-3.90625,-11.71875,-16.11328125,0.0
188.11328125,-45.41015625,-36.1328125,-6.34765625,-4.8828125,-26.3671875,0.0
188.1171875,-42.48046875,-34.66796875,-6.34765625,-17.08984375,-88.37890625,0.0
188.12109375,-43.9453125,-36.62109375,-9.765625,-27.34375,-80.078125,0.0
188.125,-45.8984375,-40.52734375,-7.32421875,-28.3203125,-117.67578125,0.0
188.12890625,-39.0625,-40.52734375,-10.7421875,-24.90234375,-117.1875,0.0
188.1328125,-38.57421875,-36.62109375,-13.671875,-6.34765625,-79.1015625,0.0
188.13671875,-32.71484375,-24.90234375,-11.71875,-6.8359375,-60.546875,0.0
188.140625,-30.2734375,-25.390625,-22.4609375,-17.08984375,3.41796875,0.0
188.14453125,-31.73828125,-38.0859375,-23.92578125,-17.578125,24.4140625,0.0
188.1484375,-41.9921875,-38.57421875,-18.5546875,-16.6015625,17.08984375,0.0
188.15234375,-55.17578125,-43.45703125,-21.484375,-14.16015625,32.71484375,0.0
188.15625,-36.62109375,-42.96875,-27.83203125,-13.671875,38.0859375,0.0
188.16015625,-26.85546875,-36.62109375,-30.2734375,-26.3671875,30.2734375,0.0
188.1640625,-39.0625,-40.52734375,-27.34375,-36.1328125,8.30078125,0.0
188.16796875,-50.29296875,-46.875,-33.203125,-32.2265625,-41.015625,0.0
188.171875,-59.08203125,-46.875,-40.0390625,-25.87890625,10.7421875,0.0
188.17578125,-59.5703125,-46.875,-34.1796875,-34.66796875,-9.27734375,0.0
188.1796875,-47.36328125,-40.52734375,-26.85546875,-43.9453125,-49.31640625,0.0
188.18359375,-52.24609375,-31.73828125,-23.92578125,-47.36328125,1.953125,0.0
188.1875,-62.98828125,-33.203125,-26.85546875,-32.71484375,5.859375,0.0
188.19140625,-62.98828125,-45.41015625,-24.90234375,-5.859375,-14.6484375,0.0
188.1953125,-46.875,-46.875,-21.484375,-3.41796875,-35.15625,0.0
188.19921875,-42.96875,-47.36328125,-34.66796875,-27.83203125,-68.359375,0.0
188.203125,-47.8515625,-50.78125,-38.57421875,-33.203125,-76.171875,0.0
188.20703125,-48.33984375,-47.36328125,-32.71484375,-26.3671875,-41.015625,0.0
188.2109375,-53.22265625,-38.57421875,-29.296875,-15.13671875,22.4609375,0.0
188.21484375,-47.36328125,-34.1796875,-20.5078125,-5.859375,-10.25390625,0.0
188.21875,-36.1328125,-33.203125,-27.34375,-18.06640625,2.9296875,0.0
188.22265625,-41.015625,-32.71484375,-30.76171875,-30.76171875,20.99609375,0.0
188.2265625,-43.45703125,-27.83203125,-19.04296875,-16.11328125,60.546875,0.0
188.23046875,-54.6875,-30.76171875,-22.94921875,-1.46484375,77.1484375,0.0
188.234375,-61.03515625,-48.33984375,-28.3203125,-12.20703125,62.98828125,0.0
188.23828125,-42.96875,-47.36328125,-27.83203125,-19.04296875,78.125,0.0
188.2421875,-40.0390625,-37.59765625,-28.80859375,-35.15625,61.03515625,0.0
188.24609375,-59.5703125,-39.55078125,-30.2734375,-41.50390625,14.16015625,0.0
188.25,-59.08203125,-44.43359375,-28.80859375,-20.5078125,-72.75390625,0.0
188.25390625,-46.875,-38.57421875,-20.01953125,-20.01953125,-41.9921875,0.0
188.2578125,-36.1328125,-35.64453125,-16.11328125,-39.0625,-13.671875,0.0
188.26171875,-35.15625,-37.109375,-21.484375,-49.31640625,-46.38671875,0.0
188.265625,-62.5,-38.57421875,-24.90234375,-58.59375,-72.75390625,0.0
188.26953125,-83.984375,-44.921875,-32.71484375,-52.734375,-100.09765625,0.0
188.2734375,-76.171875,-37.59765625,-33.203125,-35.15625,-71.77734375,0.0
188.27734375,-60.05859375,-26.85546875,-20.5078125,-30.2734375,1.953125,0.0
188.28125,-52.734375,-25.87890625,-20.5078125,-35.64453125,24.4140625,0.0
188.28515625,-49.31640625,-30.76171875,-28.3203125,-32.71484375,-41.015625,0.0
188.2890625,-58.10546875,-42.48046875,-30.76171875,-22.94921875,-74.70703125,0.0
188.29296875,-63.96484375,-40.52734375,-25.87890625,-7.8125,-101.07421875,0.0
188.296875,-33.69140625,-30.76171875,-18.06640625,-13.18359375,-109.375,0.0
188.30078125,0.48828125,-24.4140625,-19.53125,-25.390625,-44.43359375,0.0
188.3046875,-4.8828125,-31.25,-32.2265625,-41.50390625,-52.24609375,0.0
188.30859375,-11.71875,-39.0625,-34.1796875,-20.99609375,-62.98828125,0.0
188.3125,-10.25390625,-42.96875,-28.80859375,-5.37109375,-83.984375,0.0
188.31640625,2.9296875,-40.0390625,-25.87890625,-15.625,-69.3359375,0.0
188.3203125,15.13671875,-22.4609375,-23.92578125,-28.3203125,-38.0859375,0.0
188.32421875,-2.9296875,-25.390625,-32.2265625,-26.3671875,-43.45703125,0.0
188.328125,-19.53125,-35.15625,-40.0390625,-19.04296875,-8.7890625,0.0
188.33203125,-27.83203125,-37.59765625,-37.59765625,-17.578125,16.6015625,0.0
188.3359375,-25.390625,-36.1328125,-38.57421875,-16.11328125,4.8828125,0.0
188.33984375,-15.13671875,-26.85546875,-34.66796875,-27.34375,25.87890625,0.0
188.34375,-25.87890625,-32.71484375,-31.73828125,-43.9453125,41.9921875,0.0
188.34765625,-47.36328125,-41.015625,-30.76171875,-39.55078125,-1.46484375,0.0
188.3515625,-47.36328125,-29.296875,-27.34375,-33.203125,30.76171875,0.0
188.35546875,-41.9921875,-24.4140625,-33.69140625,-39.0625,-33.203125,0.0
188.359375,-30.76171875,-32.71484375,-38.57421875,-47.36328125,-88.37890625,0.0
188.36328125,-33.203125,-30.76171875,-39.0625,-52.734375,-50.29296875,0.0
188.3671875,-41.9921875,-19.04296875,-32.2265625,-52.734375,-36.62109375,0.0
188.37109375,-41.9921875,-23.92578125,-33.69140625,-41.015625,-34.1796875,0.0
188.375,-45.8984375,-40.0390625,-44.43359375,-44.43359375,-38.0859375,0.0
188.37890625,-38.57421875,-43.9453125,-46.875,-51.7578125,-47.36328125,0.0
188.3828125,-30.2734375,-37.59765625,-42.96875,-52.24609375,-54.6875,0.0
188.38671875,-44.43359375,-33.69140625,-41.50390625,-51.26953125,12.20703125,0.0
188.390625,-57.12890625,-30.76171875,-43.9453125,-35.15625,48.33984375,0.0
188.39453125,-51.7578125,-32.71484375,-37.59765625,-25.390625,2.44140625,0.0
188.3984375,-29.78515625,-22.4609375,-33.69140625,-24.90234375,-9.27734375,0.0
188.40234375,-22.4609375,-19.04296875,-34.66796875,-27.83203125,6.34765625,0.0
188.40625,-22.94921875,-27.34375,-31.73828125,-24.90234375,-40.52734375,0.0
188.41015625,-21.484375,-36.1328125,-37.109375,-15.625,-9.27734375,0.0
188.4140625,-8.30078125,-27.34375,-26.85546875,-15.13671875,51.26953125,0.0
188.41796875,-9.27734375,-21.97265625,-23.92578125,-22.94921875,-13.18359375,0.0
188.421875,-23.4375,-32.71484375,-38.0859375,-34.66796875,-80.56640625,0.0
188.42578125,-25.390625,-35.64453125,-35.64453125,-34.66796875,-56.15234375,0.0
188.4296875,-31.73828125,-40.0390625,-37.59765625,-26.3671875,-92.7734375,0.0
188.43359375,-31.25,-39.0625,-38.0859375,-23.4375,-114.74609375,0.0
188.4375,-18.06640625,-37.59765625,-29.78515625,-28.80859375,-67.87109375,0.0
188.44140625,-23.92578125,-44.43359375,-36.62109375,-40.52734375,-85.44921875,0.0
188.4453125,-42.96875,-43.45703125,-38.0859375,-42.96875,-86.42578125,0.0
188.44921875,-61.5234375,-37.109375,-37.109375,-37.109375,-45.8984375,0.0
188.453125,-60.546875,-32.2265625,-32.71484375,-36.62109375,-9.765625,0.0
188.45703125,-47.36328125,-35.64453125,-33.203125,-42.48046875,6.8359375,0.0
188.4609375,-39.0625,-32.2265625,-29.296875,-58.59375,-40.0390625,0.0
188.46484375,-44.43359375,-19.53125,-19.53125,-54.6875,-47.36328125,0.0
188.46875,-62.5,-25.390625,-20.01953125,-42.96875,-22.4609375,0.0
188.47265625,-63.4765625,-34.1796875,-26.85546875,-40.52734375,36.62109375,0.0
188.4765625,-54.19921875,-30.2734375,-20.01953125,-49.8046875,9.27734375,0.0
188.48046875,-48.33984375,-29.296875,-26.3671875,-62.5,-31.73828125,0.0
188.484375,-41.9921875,-29.296875,-37.109375,-63.4765625,71.77734375,0.0
188.48828125,-43.45703125,-36.1328125,-32.2265625,-48.828125,131.34765625,0.0
188.4921875,-46.38671875,-36.1328125,-29.296875,-41.50390625,121.09375,0.0
188.49609375,-30.76171875,-29.78515625,-29.296875,-25.390625,57.12890625,0.0
188.5,-14.16015625,-36.62109375,-36.1328125,-32.71484375,-7.32421875,0.0
188.50390625,-13.671875,-45.41015625,-38.57421875,-36.62109375,-2.44140625,0.0
188.5078125,-25.87890625,-38.57421875,-26.85546875,-20.99609375,-20.5078125,0.0
188.51171875,-33.203125,-36.62109375,-27.83203125,-12.20703125,-47.36328125,0.0
188.515625,-25.390625,-46.38671875,-31.25,-11.71875,-96.6796875,0.0
188.51953125,-16.6015625,-42.48046875,-23.4375,-25.87890625,-121.09375,0.0
188.5234375,-21.484375,-32.2265625,-24.90234375,-28.80859375,-119.140625,0.0
188.52734375,-41.015625,-34.66796875,-26.3671875,-23.92578125,-179.19921875,0.0
188.53125,-48.828125,-42.96875,-27.83203125,-18.5546875,-145.5078125,0.0
188.53515625,-38.57421875,-44.921875,-26.3671875,-22.94921875,-75.1953125,0.0
188.5390625,-13.18359375,-41.50390625,-16.11328125,-34.66796875,-83.0078125,0.0
188.54296875,-11.71875,-34.1796875,-9.27734375,-32.71484375,-80.56640625,0.0
188.546875,-37.109375,-37.59765625,-8.7890625,-29.78515625,-68.84765625,0.0
188.55078125,-46.875,-42.96875,-10.7421875,-20.99609375,-41.015625,0.0
188.5546875,-40.0390625,-36.62109375,-15.625,-24.90234375,-51.7578125,0.0
188.55859375,-22.94921875,-29.296875,-18.5546875,-38.57421875,-76.171875,0.0
188.5625,-17.08984375,-38.57421875,-17.578125,-49.8046875,-51.7578125,0.0
188.56640625,-40.52734375,-47.8515625,-19.04296875,-51.26953125,-32.2265625,0.0
188.5703125,-48.828125,-44.43359375,-17.08984375,-37.109375,-44.43359375,0.0
188.57421875,-36.1328125,-30.76171875,-16.6015625,-29.78515625,-24.4140625,0.0
188.578125,-27.34375,-27.83203125,-10.7421875,-34.66796875,16.6015625,0.0
188.58203125,-21.484375,-29.78515625,-4.8828125,-49.8046875,36.1328125,0.0
188.5859375,-20.99609375,-19.04296875,-12.20703125,-43.9453125,47.8515625,0.0
188.58984375,-41.015625,-37.59765625,-23.4375,-30.2734375,23.92578125,0.0
188.59375,-34.1796875,-46.38671875,-20.99609375,-26.3671875,14.16015625,0.0
188.59765625,-13.18359375,-38.0859375,-16.6015625,-22.4609375,-47.8515625,0.0
188.6015625,-11.23046875,-32.2265625,-17.08984375,-41.50390625,-51.7578125,0.0
188.60546875,-22.94921875,-33.203125,-21.484375,-47.8515625,9.27734375,0.0
188.609375,-37.59765625,-40.0390625,-31.73828125,-35.64453125,-13.18359375,0.0
188.61328125,-39.55078125,-41.50390625,-37.109375,-32.2265625,-38.0859375,0.0
188.6171875,-29.296875,-41.50390625,-34.1796875,-38.57421875,-18.06640625,0.0
188.62109375,-17.578125,-38.0859375,-32.2265625,-47.36328125,-113.28125,0.0
188.625,-7.8125,-31.25,-25.390625,-31.25,-217.28515625,0.0
188.62890625,-22.4609375,-32.71484375,-23.4375,-20.99609375,-243.65234375,0.0
188.6328125,-34.1796875,-35.15625,-29.296875,-26.85546875,-224.609375,0.0
188.63671875,-28.80859375,-36.1328125,-27.83203125,-27.83203125,-186.5234375,0.0
188.640625,-36.62109375,-31.73828125,-24.4140625,-45.41015625,-110.3515625,0.0
188.64453125,-46.875,-32.2265625,-21.97265625,-52.24609375,11.71875,0.0
188.6484375,-52.24609375,-33.203125,-14.16015625,-36.1328125,46.38671875,0.0
188.65234375,-58.59375,-31.25,-16.11328125,-28.3203125,51.7578125,0.0
188.65625,-47.8515625,-35.64453125,-14.16015625,-32.71484375,-11.71875,0.0
188.66015625,-32.71484375,-41.015625,-14.6484375,-40.52734375,-41.015625,0.0
188.6640625,-20.5078125,-38.0859375,-18.06640625,-31.25,-8.30078125,0.0
188.66796875,-21.97265625,-30.2734375,-13.671875,-14.6484375,60.546875,0.0
188.671875,-40.52734375,-33.69140625,-10.25390625,-23.92578125,81.54296875,0.0
188.67578125,-46.38671875,-43.9453125,-5.859375,-31.73828125,98.14453125,0.0
188.6796875,-26.85546875,-32.71484375,-7.32421875,-22.94921875,41.9921875,0.0
188.68359375,-31.73828125,-30.2734375,-13.18359375,-30.76171875,44.43359375,0.0
188.6875,-37.109375,-33.203125,-20.01953125,-18.06640625,14.6484375,0.0
188.69140625,-22.94921875,-32.71484375,-26.85546875,-1.953125,-83.0078125,0.0
188.6953125,-27.83203125,-35.64453125,-24.4140625,-18.06640625,-31.25,0.0
188.69921875,-25.87890625,-34.66796875,-20.5078125,-25.390625,17.578125,0.0
188.703125,-7.32421875,-33.203125,-21.484375,-13.18359375,-25.390625,0.0
188.70703125,-9.765625,-33.69140625,-32.2265625,-11.23046875,-6.34765625,0.0
188.7109375,-16.11328125,-38.57421875,-32.2265625,-6.8359375,47.36328125,0.0
188.71484375,-11.71875,-39.0625,-20.99609375,-4.39453125,9.765625,0.0
188.71875,-1.46484375,-32.2265625,-15.625,-8.30078125,2.9296875,0.0
188.72265625,-13.671875,-25.390625,-16.6015625,-22.94921875,4.8828125,0.0
188.7265625,-36.1328125,-33.69140625,-20.01953125,-25.390625,-95.21484375,0.0
188.73046875,-37.59765625,-38.0859375,-18.06640625,-9.765625,-75.1953125,0.0
188.734375,-27.83203125,-30.76171875,-17.08984375,4.39453125,-11.71875,0.0
188.73828125,-23.92578125,-27.83203125,-15.13671875,-10.7421875,7.8125,0.0
188.7421875,-22.4609375,-25.87890625,-13.18359375,-22.94921875,6.34765625,0.0
188.74609375,-29.78515625,-26.3671875,-14.6484375,-15.625,-14.16015625,0.0
188.75,-43.9453125,-36.62109375,-22.4609375,-16.11328125,28.80859375,0.0
188.75390625,-46.875,-51.7578125,-29.296875,-22.94921875,-43.9453125,0.0
188.7578125,-33.69140625,-45.41015625,-20.5078125,-30.76171875,-41.50390625,0.0
188.76171875,-32.71484375,-35.15625,-24.4140625,-51.26953125,54.19921875,0.0
188.765625,-46.875,-41.50390625,-32.71484375,-58.59375,55.6640625,0.0
188.76953125,-62.98828125,-46.38671875,-41.015625,-45.41015625,43.45703125,0.0
188.7734375,-65.4296875,-27.83203125,-28.80859375,-30.2734375,0.0,0.0
188.77734375,-44.921875,-27.34375,-14.16015625,-25.87890625,-88.37890625,0.0
188.78125,-20.99609375,-28.3203125,-19.04296875,-44.921875,-85.9375,0.0
188.78515625,-17.578125,-20.5078125,-19.04296875,-40.52734375,-141.11328125,0.0
188.7890625,-24.4140625,-17.578125,-12.6953125,-27.83203125,-203.125,0.0
188.79296875,-35.15625,-17.578125,-16.11328125,-37.109375,-70.3125,0.0
188.796875,-31.73828125,-23.4375,-17.08984375,-44.43359375,59.5703125,0.0
188.80078125,-22.4609375,-31.25,-19.04296875,-42.96875,74.70703125,0.0
188.8046875,-27.83203125,-28.80859375,-24.90234375,-45.8984375,0.48828125,0.0
188.80859375,-29.296875,-22.94921875,-24.4140625,-36.1328125,-18.5546875,0.0
188.8125,-31.25,-31.73828125,-38.57421875,-33.203125,-3.41796875,0.0
188.81640625,-28.80859375,-41.50390625,-45.8984375,-48.828125,29.296875,0.0
188.8203125,-10.25390625,-37.59765625,-28.80859375,-37.59765625,69.3359375,0.0
188.82421875,-20.5078125,-30.76171875,-29.78515625,-38.57421875,-0.9765625,0.0
188.828125,-41.9921875,-37.59765625,-31.25,-43.45703125,-70.3125,0.0
188.83203125,-41.015625,-40.0390625,-30.2734375,-29.296875,-28.80859375,0.0
188.8359375,-26.3671875,-28.80859375,-29.78515625,-23.4375,26.3671875,0.0
188.83984375,-10.25390625,-20.99609375,-28.80859375,-33.69140625,45.41015625,0.0
188.84375,-39.55078125,-34.1796875,-34.66796875,-46.38671875,39.55078125,0.0
188.84765625,-70.80078125,-52.24609375,-30.76171875,-45.41015625,-19.04296875,0.0
188.8515625,-52.734375,-47.36328125,-19.04296875,-36.1328125,-74.70703125,0.0
188.85546875,-42.96875,-37.59765625,-20.5078125,-35.15625,-40.52734375,0.0
188.859375,-37.109375,-41.50390625,-22.94921875,-36.62109375,-2.44140625,0.0
188.86328125,-30.2734375,-42.48046875,-15.13671875,-48.33984375,-35.15625,0.0
188.8671875,-49.31640625,-42.48046875,-16.11328125,-48.33984375,-122.0703125,0.0
188.87109375,-59.08203125,-44.921875,-20.99609375,-35.15625,-127.44140625,0.0
188.875,-47.36328125,-43.9453125,-24.4140625,-39.55078125,-51.26953125,0.0
188.87890625,-30.2734375,-39.55078125,-20.5078125,-44.43359375,-32.71484375,0.0
188.8828125,-18.06640625,-18.5546875,-12.20703125,-41.50390625,-68.84765625,0.0
188.88671875,-32.71484375,-15.625,-23.4375,-45.8984375,-68.359375,0.0
188.890625,-53.7109375,-44.921875,-33.69140625,-38.57421875,-75.1953125,0.0
188.89453125,-33.69140625,-46.875,-29.78515625,-26.85546875,-20.01953125,0.0
188.8984375,-10.25390625,-32.2265625,-24.4140625,-30.76171875,18.5546875,0.0
188.90234375,-20.99609375,-36.1328125,-28.3203125,-46.875,-61.5234375,0.0
188.90625,-22.94921875,-36.62109375,-28.3203125,-39.0625,-100.5859375,0.0
188.91015625,-31.25,-33.69140625,-27.34375,-30.2734375,-20.5078125,0.0
188.9140625,-33.203125,-33.203125,-29.296875,-37.59765625,54.6875,0.0
188.91796875,-20.5078125,-32.71484375,-29.296875,-48.828125,21.484375,0.0
188.921875,-21.97265625,-35.15625,-40.0390625,-56.640625,-57.12890625,0.0
188.92578125,-28.3203125,-32.71484375,-43.9453125,-44.921875,-65.4296875,0.0
188.9296875,-39.55078125,-33.203125,-41.015625,-32.2265625,-74.21875,0.0
188.93359375,-45.8984375,-37.59765625,-45.8984375,-40.52734375,-75.1953125,0.0
188.9375,-39.0625,-36.62109375,-42.96875,-57.6171875,-76.66015625,0.0
188.94140625,-34.66796875,-33.69140625,-39.55078125,-62.98828125,-99.12109375,0.0
188.9453125,-44.43359375,-31.25,-40.52734375,-54.19921875,-139.16015625,0.0
188.94921875,-57.12890625,-31.73828125,-43.45703125,-44.43359375,-152.34375,0.0
188.953125,-57.12890625,-39.55078125,-44.43359375,-31.73828125,-88.8671875,0.0
188.95703125,-39.0625,-27.83203125,-41.015625,-41.50390625,-63.96484375,0.0
188.9609375,-39.0625,-16.6015625,-41.015625,-56.15234375,-70.80078125,0.0
188.96484375,-53.7109375,-27.34375,-49.31640625,-57.6171875,-43.9453125,0.0
188.96875,-54.6875,-31.25,-49.8046875,-47.36328125,6.34765625,0.0
188.97265625,-57.12890625,-37.59765625,-44.921875,-33.69140625,20.5078125,0.0
188.9765625,-41.015625,-26.3671875,-43.9453125,-42.96875,41.015625,0.0
188.98046875,-37.109375,-22.4609375,-45.8984375,-61.03515625,70.80078125,0.0
188.984375,-42.96875,-32.71484375,-51.26953125,-54.6875,36.62109375,0.0
188.98828125,-48.33984375,-33.69140625,-57.12890625,-42.48046875,-23.4375,0.0
188.9921875,-41.015625,-33.203125,-56.15234375,-27.83203125,-40.52734375,0.0
188.99609375,-28.3203125,-29.296875,-50.29296875,-30.76171875,18.5546875,0.0
189.0,-11.71875,-22.4609375,-42.96875,-29.296875,42.48046875,0.0
189.00390625,-8.7890625,-23.4375,-46.38671875,-28.3203125,7.8125,0.0
189.0078125,-30.76171875,-23.92578125,-52.24609375,-26.85546875,-16.11328125,0.0
189.01171875,-35.64453125,-22.94921875,-53.7109375,-18.5546875,-29.78515625,0.0
189.015625,-11.71875,-25.390625,-48.33984375,-17.578125,-16.11328125,0.0
189.01953125,0.48828125,-20.5078125,-41.9921875,-25.87890625,-83.49609375,0.0
189.0234375,-11.23046875,-16.6015625,-41.015625,-29.78515625,-29.78515625,0.0
189.02734375,-35.15625,-19.04296875,-45.41015625,-27.83203125,76.171875,0.0
189.03125,-33.69140625,-24.4140625,-45.41015625,-23.4375,27.83203125,0.0
189.03515625,-19.53125,-27.83203125,-50.29296875,-24.4140625,57.12890625,0.0
189.0390625,-17.08984375,-23.92578125,-54.19921875,-40.0390625,52.734375,0.0
189.04296875,-10.25390625,-15.625,-48.33984375,-44.43359375,-44.43359375,0.0
189.046875,-12.6953125,-14.6484375,-44.43359375,-25.390625,16.11328125,0.0
189.05078125,-32.71484375,-23.4375,-48.33984375,-22.4609375,43.9453125,0.0
189.0546875,-38.0859375,-24.90234375,-38.57421875,-34.1796875,-33.203125,0.0
189.05859375,-34.66796875,-26.3671875,-31.73828125,-41.9921875,-79.1015625,0.0
189.0625,-31.73828125,-26.85546875,-35.64453125,-54.6875,-53.22265625,0.0
189.06640625,-31.25,-26.3671875,-35.15625,-55.17578125,-43.9453125,0.0
189.0703125,-20.5078125,-30.76171875,-31.25,-41.015625,-27.34375,0.0
189.07421875,-17.08984375,-31.73828125,-32.2265625,-42.96875,-76.171875,0.0
189.078125,-16.11328125,-27.34375,-34.66796875,-46.875,-163.0859375,0.0
189.08203125,-9.27734375,-32.2265625,-40.0390625,-44.43359375,-111.81640625,0.0
189.0859375,-20.01953125,-28.3203125,-41.015625,-42.96875,-19.53125,0.0
189.08984375,-33.69140625,-21.484375,-37.59765625,-21.484375,-73.2421875,0.0
189.09375,-36.62109375,-24.4140625,-37.109375,-21.484375,-159.66796875,0.0
189.09765625,-37.59765625,-25.87890625,-43.45703125,-46.875,-129.39453125,0.0
189.1015625,-32.2265625,-26.3671875,-48.33984375,-59.5703125,-143.5546875,0.0
189.10546875,-29.78515625,-22.94921875,-41.9921875,-59.08203125,-181.640625,0.0
189.109375,-25.87890625,-20.01953125,-28.3203125,-35.64453125,-106.4453125,0.0
189.11328125,-24.4140625,-21.97265625,-20.01953125,-22.4609375,-37.109375,0.0
189.1171875,-26.85546875,-16.11328125,-24.90234375,-32.71484375,8.7890625,0.0
189.12109375,-15.13671875,-14.6484375,-34.1796875,-39.0625,61.03515625,0.0
189.125,-14.6484375,-23.4375,-34.66796875,-42.96875,74.70703125,0.0
189.12890625,-23.4375,-29.296875,-35.64453125,-29.296875,31.73828125,0.0
189.1328125,-15.625,-25.390625,-36.1328125,-10.7421875,-5.859375,0.0
189.13671875,-0.48828125,-25.390625,-34.1796875,-13.18359375,31.73828125,0.0
189.140625,-1.46484375,-25.87890625,-36.1328125,-36.1328125,123.046875,0.0
189.14453125,-10.25390625,-22.4609375,-33.69140625,-48.33984375,101.07421875,0.0
189.1484375,-8.30078125,-19.53125,-24.4140625,-31.25,32.71484375,0.0
189.15234375,-17.08984375,-26.3671875,-24.90234375,-22.94921875,41.015625,0.0
189.15625,-18.5546875,-40.0390625,-33.69140625,-32.71484375,9.765625,0.0
189.16015625,-8.7890625,-46.875,-37.109375,-50.29296875,-63.4765625,0.0
189.1640625,-11.23046875,-31.25,-27.83203125,-57.12890625,-34.1796875,0.0
189.16796875,-22.94921875,-25.390625,-29.78515625,-49.8046875,-55.6640625,0.0
189.171875,-48.33984375,-38.0859375,-37.59765625,-51.7578125,-76.66015625,0.0
189.17578125,-55.17578125,-46.38671875,-35.15625,-66.89453125,-42.48046875,0.0
189.1796875,-39.55078125,-35.64453125,-30.76171875,-68.359375,17.578125,0.0
189.18359375,-42.96875,-25.390625,-32.71484375,-56.640625,20.01953125,0.0
189.1875,-61.5234375,-31.25,-26.3671875,-55.6640625,-50.78125,0.0
189.19140625,-77.63671875,-39.0625,-27.34375,-52.734375,-64.94140625,0.0
189.1953125,-55.17578125,-24.4140625,-30.76171875,-41.50390625,-48.33984375,0.0
189.19921875,-35.64453125,-21.484375,-26.3671875,-43.45703125,3.90625,0.0
189.203125,-37.109375,-27.34375,-24.4140625,-48.33984375,-20.99609375,0.0
189.20703125,-52.24609375,-34.66796875,-25.87890625,-51.7578125,-27.34375,0.0
189.2109375,-50.78125,-28.3203125,-24.4140625,-38.57421875,41.9921875,0.0
189.21484375,-47.36328125,-17.08984375,-23.92578125,-29.78515625,0.9765625,0.0
189.21875,-54.6875,-29.78515625,-23.92578125,-50.29296875,-80.078125,0.0
189.22265625,-37.109375,-28.80859375,-15.625,-58.59375,-20.01953125,0.0
189.2265625,-20.01953125,-20.99609375,-9.765625,-29.78515625,62.01171875,0.0
189.23046875,-40.0390625,-21.97265625,-12.6953125,-19.04296875,58.59375,0.0
189.234375,-41.015625,-20.5078125,-14.16015625,-16.6015625,-3.90625,0.0
189.23828125,-20.99609375,-25.390625,-17.08984375,-21.97265625,-28.80859375,0.0
189.2421875,-15.13671875,-16.6015625,-29.78515625,-41.015625,-44.921875,0.0
189.24609375,-21.97265625,-9.765625,-31.25,-39.0625,-21.97265625,0.0
189.25,-45.41015625,-24.4140625,-38.57421875,-25.390625,-41.015625,0.0
189.25390625,-49.8046875,-35.15625,-38.57421875,-20.01953125,-44.921875,0.0
189.2578125,-33.69140625,-23.4375,-22.94921875,-30.2734375,-5.37109375,0.0
189.26171875,-13.18359375,-13.671875,-18.06640625,-25.390625,-5.859375,0.0
189.265625,-25.390625,-26.85546875,-21.484375,-15.13671875,-9.27734375,0.0
189.26953125,-44.921875,-36.1328125,-20.01953125,-18.5546875,15.13671875,0.0
189.2734375,-34.1796875,-37.109375,-12.20703125,-25.87890625,29.296875,0.0
189.27734375,-22.4609375,-35.64453125,-19.53125,-38.57421875,-24.90234375,0.0
189.28125,-13.671875,-32.2265625,-24.4140625,-45.41015625,-16.6015625,0.0
189.28515625,-28.3203125,-30.2734375,-25.87890625,-40.52734375,0.48828125,0.0
189.2890625,-53.22265625,-32.71484375,-26.3671875,-37.109375,-78.125,0.0
189.29296875,-42.96875,-37.59765625,-20.01953125,-29.78515625,-129.39453125,0.0
189.296875,-20.01953125,-31.73828125,-16.11328125,-32.2265625,-144.53125,0.0
189.30078125,-25.390625,-23.92578125,-18.06640625,-39.0625,-102.5390625,0.0
189.3046875,-27.34375,-19.53125,-12.20703125,-35.15625,-91.796875,0.0
189.30859375,-33.69140625,-25.87890625,-13.671875,-30.76171875,-113.76953125,0.0
189.3125,-43.9453125,-35.15625,-21.97265625,-24.4140625,-1.953125,0.0
189.31640625,-43.9453125,-33.69140625,-29.296875,-38.57421875,34.1796875,0.0
189.3203125,-38.0859375,-31.25,-30.76171875,-49.31640625,-8.30078125,0.0
189.32421875,-37.59765625,-28.3203125,-27.34375,-47.8515625,-19.04296875,0.0
189.328125,-61.03515625,-29.78515625,-35.64453125,-34.1796875,0.48828125,0.0
189.33203125,-69.82421875,-33.203125,-36.1328125,-23.4375,18.06640625,0.0
189.3359375,-47.8515625,-27.34375,-26.85546875,-31.73828125,6.34765625,0.0
189.33984375,-30.2734375,-26.3671875,-24.4140625,-36.62109375,-38.57421875,0.0
189.34375,-47.8515625,-32.71484375,-28.80859375,-49.8046875,-12.20703125,0.0
189.34765625,-63.96484375,-38.0859375,-34.66796875,-46.875,-44.921875,0.0
189.3515625,-54.6875,-35.15625,-28.80859375,-26.85546875,-53.7109375,0.0
189.35546875,-48.828125,-28.80859375,-25.390625,-26.85546875,-31.73828125,0.0
189.359375,-34.66796875,-33.203125,-28.3203125,-45.41015625,-78.61328125,0.0
189.36328125,-21.484375,-35.64453125,-30.2734375,-46.38671875,-45.8984375,0.0
189.3671875,-40.52734375,-37.109375,-33.203125,-35.64453125,-22.94921875,0.0
189.37109375,-59.5703125,-47.8515625,-34.1796875,-30.76171875,-37.109375,0.0
189.375,-41.015625,-39.55078125,-23.92578125,-26.3671875,39.0625,0.0
189.37890625,-10.7421875,-24.4140625,-12.6953125,-26.3671875,82.51953125,0.0
189.3828125,-7.8125,-30.2734375,-14.6484375,-29.78515625,64.94140625,0.0
189.38671875,-24.90234375,-36.1328125,-24.4140625,-34.1796875,10.25390625,0.0
189.390625,-28.80859375,-37.59765625,-23.4375,-22.4609375,-30.76171875,0.0
189.39453125,-21.484375,-41.9921875,-18.5546875,-24.4140625,5.37109375,0.0
189.3984375,-14.6484375,-36.1328125,-19.04296875,-40.52734375,16.11328125,0.0
189.40234375,-8.7890625,-33.203125,-20.5078125,-43.9453125,-59.5703125,0.0
189.40625,-21.97265625,-38.57421875,-20.5078125,-36.1328125,-73.2421875,0.0
189.41015625,-37.109375,-38.0859375,-20.5078125,-21.97265625,-26.3671875,0.0
189.4140625,-45.8984375,-52.24609375,-30.76171875,-36.1328125,-64.453125,0.0
189.41796875,-26.85546875,-44.43359375,-30.76171875,-51.7578125,-104.4921875,0.0
189.421875,-5.37109375,-27.34375,-29.296875,-42.48046875,-58.10546875,0.0
189.42578125,-17.08984375,-34.66796875,-31.25,-31.73828125,6.8359375,0.0
189.4296875,-30.2734375,-33.203125,-28.80859375,-28.80859375,60.546875,0.0
189.43359375,-33.69140625,-32.71484375,-34.1796875,-34.1796875,-3.90625,0.0
189.4375,-24.4140625,-33.69140625,-37.109375,-40.0390625,-88.37890625,0.0
189.44140625,-18.06640625,-32.2265625,-33.203125,-38.57421875,-56.15234375,0.0
189.4453125,-17.08984375,-24.90234375,-31.73828125,-32.71484375,-61.03515625,0.0
189.44921875,-31.73828125,-24.4140625,-32.2265625,-33.69140625,-53.22265625,0.0
189.453125,-35.64453125,-35.64453125,-28.80859375,-31.25,13.671875,0.0
189.45703125,-21.97265625,-41.9921875,-26.3671875,-27.83203125,-43.45703125,0.0
189.4609375,-28.3203125,-36.62109375,-22.94921875,-34.66796875,-113.28125,0.0
189.46484375,-30.76171875,-25.390625,-24.4140625,-38.0859375,-1.46484375,0.0
189.46875,-30.2734375,-23.92578125,-25.87890625,-25.87890625,78.125,0.0
189.47265625,-37.59765625,-33.203125,-28.3203125,-13.671875,-25.390625,0.0
189.4765625,-38.0859375,-28.3203125,-20.99609375,-20.01953125,-39.55078125,0.0
189.48046875,-31.73828125,-22.94921875,-14.16015625,-40.52734375,24.90234375,0.0
189.484375,-41.015625,-36.1328125,-19.53125,-41.50390625,-49.8046875,0.0
189.48828125,-55.17578125,-47.36328125,-28.3203125,-39.0625,-144.04296875,0.0
189.4921875,-49.31640625,-34.1796875,-30.2734375,-34.66796875,-66.40625,0.0
189.49609375,-41.015625,-29.296875,-28.3203125,-33.203125,-54.19921875,0.0
189.5,-30.2734375,-35.64453125,-23.4375,-32.2265625,-64.94140625,0.0
189.50390625,-32.2265625,-24.4140625,-22.94921875,-36.62109375,-63.4765625,0.0
189.5078125,-37.59765625,-18.06640625,-29.296875,-24.90234375,-94.23828125,0.0
189.51171875,-26.85546875,-23.92578125,-23.92578125,-17.578125,-62.01171875,0.0
189.515625,-13.671875,-17.578125,-20.01953125,-23.4375,36.62109375,0.0
189.51953125,-27.34375,-13.18359375,-21.97265625,-41.9921875,1.46484375,0.0
189.5234375,-34.66796875,-17.578125,-16.6015625,-53.22265625,12.6953125,0.0
189.52734375,-41.015625,-31.25,-21.484375,-25.87890625,47.36328125,0.0
189.53125,-57.6171875,-40.0390625,-21.97265625,-15.625,-42.96875,0.0
189.53515625,-42.96875,-35.15625,-20.99609375,-23.4375,-47.8515625,0.0
189.5390625,-23.4375,-27.83203125,-18.06640625,-24.4140625,-62.5,0.0
189.54296875,-16.11328125,-18.06640625,-20.99609375,-29.296875,-79.58984375,0.0
189.546875,-20.5078125,-20.99609375,-28.3203125,-27.34375,0.48828125,0.0
189.55078125,-41.015625,-38.57421875,-34.66796875,-12.6953125,-47.8515625,0.0
189.5546875,-29.78515625,-32.71484375,-36.1328125,-9.765625,-94.7265625,0.0
189.55859375,-22.94921875,-15.625,-31.25,-25.87890625,15.13671875,0.0
189.5625,-41.9921875,-22.4609375,-30.76171875,-44.921875,12.6953125,0.0
189.56640625,-51.26953125,-36.62109375,-41.9921875,-55.17578125,-14.6484375,0.0
189.5703125,-51.26953125,-41.015625,-41.9921875,-47.36328125,18.5546875,0.0
189.57421875,-42.48046875,-28.3203125,-35.64453125,-39.55078125,-60.546875,0.0
189.578125,-30.2734375,-23.4375,-44.43359375,-48.828125,-86.42578125,0.0
189.58203125,-24.4140625,-32.2265625,-43.9453125,-68.84765625,-64.94140625,0.0
189.5859375,-33.203125,-22.94921875,-30.76171875,-71.2890625,-80.56640625,0.0
189.58984375,-42.48046875,-23.4375,-36.62109375,-51.7578125,29.78515625,0.0
189.59375,-47.8515625,-43.9453125,-51.7578125,-47.8515625,44.43359375,0.0
189.59765625,-41.50390625,-46.38671875,-42.48046875,-69.82421875,2.9296875,0.0
189.6015625,-28.3203125,-34.1796875,-33.203125,-66.40625,70.80078125,0.0
189.60546875,-37.109375,-38.57421875,-40.0390625,-54.6875,34.66796875,0.0
189.609375,-40.0390625,-38.57421875,-40.52734375,-42.48046875,11.23046875,0.0
189.61328125,-37.59765625,-42.96875,-41.015625,-31.25,-47.36328125,0.0
189.6171875,-30.2734375,-36.62109375,-38.0859375,-38.0859375,-101.5625,0.0
189.62109375,-20.99609375,-30.2734375,-43.9453125,-45.41015625,-65.91796875,0.0
189.625,-37.109375,-41.9921875,-48.33984375,-51.26953125,-6.34765625,0.0
189.62890625,-45.41015625,-43.45703125,-42.48046875,-38.0859375,21.484375,0.0
189.6328125,-25.87890625,-35.15625,-33.203125,-27.83203125,-61.5234375,0.0
189.63671875,2.9296875,-18.5546875,-25.390625,-30.76171875,-90.33203125,0.0
189.640625,19.04296875,-21.484375,-31.73828125,-26.3671875,41.015625,0.0
189.64453125,9.27734375,-34.1796875,-42.48046875,-31.25,100.09765625,0.0
189.6484375,-27.83203125,-36.1328125,-38.57421875,-36.1328125,108.3984375,0.0
189.65234375,-39.0625,-36.1328125,-36.62109375,-33.203125,103.02734375,0.0
189.65625,-29.296875,-36.62109375,-46.38671875,-28.80859375,-16.6015625,0.0
189.66015625,-20.5078125,-30.2734375,-47.8515625,-29.296875,-96.6796875,0.0
189.6640625,-23.92578125,-21.484375,-49.31640625,-43.45703125,-22.4609375,0.0
189.66796875,-35.64453125,-30.76171875,-49.31640625,-42.96875,-9.765625,0.0
189.671875,-31.25,-33.203125,-36.62109375,-14.6484375,-38.57421875,0.0
189.67578125,-25.390625,-30.76171875,-30.2734375,-14.6484375,-75.68359375,0.0
189.6796875,-20.5078125,-25.390625,-32.71484375,-37.109375,-106.4453125,0.0
189.68359375,-31.73828125,-27.83203125,-36.62109375,-49.8046875,-70.80078125,0.0
189.6875,-44.921875,-38.0859375,-33.203125,-49.31640625,-68.359375,0.0
189.69140625,-41.9921875,-43.9453125,-33.69140625,-30.2734375,-26.85546875,0.0
189.6953125,-38.0859375,-42.48046875,-31.73828125,-37.109375,33.203125,0.0
189.69921875,-33.69140625,-36.62109375,-28.3203125,-52.24609375,39.0625,0.0
189.703125,-53.7109375,-41.50390625,-34.66796875,-64.94140625,-1.46484375,0.0
189.70703125,-65.91796875,-41.9921875,-35.15625,-58.59375,-52.734375,0.0
189.7109375,-60.05859375,-29.78515625,-29.296875,-41.015625,-85.9375,0.0
189.71484375,-65.4296875,-34.66796875,-34.66796875,-43.45703125,-83.0078125,0.0
189.71875,-53.7109375,-39.55078125,-34.66796875,-41.015625,-22.94921875,0.0
189.72265625,-51.7578125,-33.69140625,-35.64453125,-44.43359375,-74.21875,0.0
189.7265625,-62.01171875,-32.2265625,-38.0859375,-46.875,-68.359375,0.0
189.73046875,-59.5703125,-33.203125,-33.203125,-29.78515625,-45.8984375,0.0
189.734375,-52.24609375,-42.96875,-37.59765625,-29.78515625,-61.5234375,0.0
189.73828125,-29.78515625,-41.9921875,-40.52734375,-41.015625,-40.0390625,0.0
189.7421875,-20.01953125,-33.203125,-34.1796875,-46.38671875,-14.6484375,0.0
189.74609375,-39.55078125,-38.0859375,-48.828125,-49.31640625,-18.5546875,0.0
189.75,-38.57421875,-43.9453125,-55.17578125,-33.203125,-41.50390625,0.0
189.75390625,-30.2734375,-56.15234375,-52.24609375,-31.25,-80.078125,0.0
189.7578125,-7.32421875,-53.7109375,-37.109375,-29.296875,-75.68359375,0.0
189.76171875,16.11328125,-31.25,-25.390625,-28.80859375,-3.41796875,0.0
189.765625,5.859375,-30.2734375,-34.66796875,-30.2734375,13.671875,0.0
189.76953125,-1.953125,-36.62109375,-40.52734375,-27.34375,75.68359375,0.0
189.7734375,-0.9765625,-30.2734375,-37.109375,-17.08984375,97.65625,0.0
189.77734375,0.0,-41.015625,-37.109375,-21.484375,-6.8359375,0.0
189.78125,10.7421875,-48.33984375,-35.64453125,-33.69140625,-9.765625,0.0
189.78515625,-0.48828125,-43.45703125,-34.66796875,-39.55078125,-25.390625,0.0
189.7890625,-11.23046875,-34.1796875,-29.296875,-37.59765625,-61.5234375,0.0
189.79296875,-15.13671875,-35.15625,-13.671875,-28.80859375,-83.0078125,0.0
189.796875,-10.25390625,-37.59765625,-15.625,-38.0859375,-28.3203125,0.0
189.80078125,-3.41796875,-24.4140625,-27.83203125,-54.6875,67.3828125,0.0
189.8046875,-19.04296875,-22.4609375,-36.62109375,-56.15234375,6.8359375,0.0
189.80859375,-47.36328125,-36.62109375,-39.0625,-55.6640625,-75.1953125,0.0
189.8125,-50.29296875,-42.48046875,-29.296875,-41.015625,-154.296875,0.0
189.81640625,-20.5078125,-40.52734375,-25.390625,-40.0390625,-148.4375,0.0
189.8203125,-7.32421875,-25.87890625,-18.5546875,-51.7578125,-43.45703125,0.0
189.82421875,-19.04296875,-20.99609375,-11.23046875,-40.0390625,-52.24609375,0.0
189.828125,-29.78515625,-31.73828125,-13.18359375,-31.25,-95.703125,0.0
189.83203125,-31.73828125,-46.38671875,-17.578125,-31.25,-54.6875,0.0
189.8359375,-21.97265625,-52.24609375,-26.85546875,-43.9453125,-10.7421875,0.0
189.83984375,3.90625,-41.50390625,-28.80859375,-40.0390625,7.8125,0.0
189.84375,13.671875,-31.25,-25.390625,-22.4609375,-6.34765625,0.0
189.84765625,-5.859375,-35.64453125,-30.2734375,-24.90234375,-24.90234375,0.0
189.8515625,-15.13671875,-38.0859375,-20.99609375,-14.16015625,-33.69140625,0.0
189.85546875,12.20703125,-29.296875,-10.25390625,5.37109375,-168.9453125,0.0
189.859375,18.5546875,-32.71484375,-16.6015625,-20.99609375,-225.09765625,0.0
189.86328125,4.8828125,-38.0859375,-25.87890625,-43.9453125,-84.9609375,0.0
189.8671875,17.08984375,-25.390625,-18.5546875,-26.3671875,-16.11328125,0.0
189.87109375,6.34765625,-26.85546875,-17.578125,-19.04296875,-98.6328125,0.0
189.875,4.39453125,-35.64453125,-20.5078125,-20.01953125,-47.36328125,0.0
189.87890625,15.625,-41.9921875,-22.4609375,-23.92578125,9.27734375,0.0
189.8828125,14.16015625,-37.59765625,-19.53125,-38.0859375,10.7421875,0.0
189.88671875,-3.41796875,-30.76171875,-19.04296875,-37.109375,31.25,0.0
189.890625,-28.3203125,-38.0859375,-27.34375,-23.4375,38.57421875,0.0
189.89453125,-26.3671875,-41.015625,-25.390625,-30.76171875,10.7421875,0.0
189.8984375,-4.39453125,-30.2734375,-17.08984375,-40.52734375,-22.4609375,0.0
189.90234375,-4.8828125,-29.296875,-13.18359375,-40.52734375,33.203125,0.0
189.90625,-37.109375,-35.15625,-14.6484375,-40.0390625,31.73828125,0.0
189.91015625,-55.6640625,-43.9453125,-24.4140625,-37.109375,19.53125,0.0
189.9140625,-38.0859375,-34.1796875,-23.4375,-30.76171875,-16.11328125,0.0
189.91796875,-13.18359375,-20.99609375,-20.01953125,-26.3671875,-54.6875,0.0
189.921875,-15.13671875,-25.390625,-29.78515625,-41.9921875,16.6015625,0.0
189.92578125,-36.62109375,-37.59765625,-41.9921875,-46.875,69.82421875,0.0
189.9296875,-48.33984375,-41.50390625,-39.0625,-27.83203125,75.68359375,0.0
189.93359375,-45.41015625,-38.57421875,-39.55078125,-21.97265625,56.640625,0.0
189.9375,-30.2734375,-35.64453125,-29.78515625,-20.01953125,-38.57421875,0.0
189.94140625,-11.23046875,-34.1796875,-21.484375,-22.4609375,-84.9609375,0.0
189.9453125,-8.7890625,-27.83203125,-21.97265625,-31.73828125,-17.578125,0.0
189.94921875,-13.671875,-23.92578125,-20.5078125,-15.13671875,27.34375,0.0
189.953125,-21.97265625,-27.83203125,-20.01953125,-9.765625,24.4140625,0.0
189.95703125,-25.87890625,-31.25,-18.5546875,-23.92578125,35.15625,0.0
189.9609375,2.9296875,-20.5078125,-15.13671875,-29.296875,42.48046875,0.0
189.96484375,2.9296875,-17.08984375,-21.484375,-29.296875,-29.78515625,0.0
189.96875,-31.73828125,-38.0859375,-36.62109375,-36.1328125,-90.33203125,0.0
189.97265625,-39.55078125,-51.26953125,-40.0390625,-46.875,-146.484375,0.0
189.9765625,-13.671875,-31.73828125,-25.390625,-37.59765625,-59.5703125,0.0
189.98046875,-9.27734375,-25.87890625,-28.3203125,-43.9453125,3.41796875,0.0
189.984375,-16.11328125,-28.3203125,-35.64453125,-41.50390625,-64.94140625,0.0
189.98828125,-27.34375,-27.83203125,-29.78515625,-28.3203125,-13.18359375,0.0
189.9921875,-50.78125,-32.2265625,-22.94921875,-34.66796875,-9.765625,0.0
189.99609375,-47.36328125,-36.1328125,-25.87890625,-40.52734375,-76.171875,0.0
190.0,-24.4140625,-38.57421875,-29.296875,-42.48046875,-121.09375,0.0
190.00390625,-29.296875,-33.69140625,-27.34375,-56.640625,-76.171875,0.0
190.0078125,-69.82421875,-31.25,-24.90234375,-71.2890625,-50.78125,0.0
190.01171875,-71.77734375,-35.15625,-24.90234375,-52.24609375,-36.1328125,0.0
190.015625,-55.6640625,-37.109375,-29.296875,-50.78125,24.90234375,0.0
190.01953125,-48.828125,-35.15625,-33.69140625,-62.98828125,33.69140625,0.0
190.0234375,-56.15234375,-28.3203125,-31.73828125,-57.6171875,30.2734375,0.0
190.02734375,-78.125,-31.25,-41.015625,-56.640625,-15.13671875,0.0
190.03125,-75.68359375,-41.50390625,-41.015625,-41.9921875,-48.828125,0.0
190.03515625,-65.91796875,-41.015625,-29.296875,-34.66796875,-49.8046875,0.0
190.0390625,-55.6640625,-32.71484375,-23.92578125,-40.52734375,-145.99609375,0.0
190.04296875,-47.8515625,-31.73828125,-21.484375,-42.96875,-126.46484375,0.0
190.046875,-63.96484375,-33.69140625,-28.80859375,-42.96875,-104.4921875,0.0
190.05078125,-79.58984375,-36.62109375,-32.2265625,-40.52734375,-152.83203125,0.0
190.0546875,-50.29296875,-32.2265625,-21.97265625,-35.64453125,-124.51171875,0.0
190.05859375,-34.66796875,-29.78515625,-32.2265625,-38.57421875,-56.15234375,0.0
190.0625,-44.921875,-38.0859375,-40.52734375,-57.12890625,-72.265625,0.0
190.06640625,-41.50390625,-37.109375,-29.78515625,-53.22265625,6.34765625,0.0
190.0703125,-58.59375,-39.0625,-30.2734375,-36.62109375,20.99609375,0.0
190.07421875,-53.7109375,-37.59765625,-27.34375,-28.3203125,-121.58203125,0.0
190.078125,-28.80859375,-28.80859375,-24.90234375,-35.15625,-102.05078125,0.0
190.08203125,-32.2265625,-32.71484375,-31.25,-53.7109375,-81.0546875,0.0
190.0859375,-42.48046875,-28.80859375,-28.80859375,-55.17578125,-66.89453125,0.0
190.08984375,-65.91796875,-38.0859375,-34.66796875,-47.36328125,-110.3515625,0.0
190.09375,-68.84765625,-48.33984375,-30.76171875,-49.31640625,-111.328125,0.0
190.09765625,-44.43359375,-40.52734375,-20.5078125,-57.12890625,-30.76171875,0.0
190.1015625,-47.8515625,-28.80859375,-20.5078125,-77.1484375,-43.45703125,0.0
190.10546875,-62.98828125,-32.71484375,-24.4140625,-83.0078125,-11.71875,0.0
190.109375,-64.94140625,-45.41015625,-25.390625,-59.08203125,-10.25390625,0.0
190.11328125,-58.10546875,-44.43359375,-26.3671875,-45.8984375,-55.6640625,0.0
190.1171875,-38.57421875,-38.0859375,-27.83203125,-45.8984375,-36.62109375,0.0
190.12109375,-32.2265625,-32.2265625,-35.64453125,-53.22265625,25.87890625,0.0
190.125,-44.43359375,-35.15625,-42.96875,-58.10546875,55.6640625,0.0
190.12890625,-45.8984375,-41.9921875,-49.31640625,-40.0390625,46.38671875,0.0
190.1328125,-40.0390625,-40.0390625,-55.17578125,-33.203125,20.01953125,0.0
190.13671875,-20.99609375,-41.015625,-50.78125,-45.41015625,-98.6328125,0.0
190.140625,5.37109375,-37.59765625,-44.921875,-47.8515625,-68.359375,0.0
190.14453125,6.34765625,-36.62109375,-44.921875,-45.8984375,31.25,0.0
190.1484375,-7.8125,-37.109375,-36.62109375,-41.015625,5.37109375,0.0
190.15234375,-14.6484375,-34.66796875,-31.25,-29.78515625,-6.8359375,0.0
190.15625,-15.13671875,-39.0625,-30.2734375,-28.3203125,10.7421875,0.0
190.16015625,-1.953125,-44.921875,-28.80859375,-35.15625,29.296875,0.0
190.1640625,1.953125,-45.41015625,-32.2265625,-44.43359375,-13.18359375,0.0
190.16796875,-12.20703125,-47.36328125,-37.109375,-41.015625,18.06640625,0.0
190.171875,-6.8359375,-35.15625,-35.15625,-35.15625,67.87109375,0.0
190.17578125,6.34765625,-23.4375,-31.73828125,-35.64453125,83.984375,0.0
190.1796875,7.8125,-24.90234375,-34.1796875,-42.48046875,41.50390625,0.0
190.18359375,-3.90625,-28.3203125,-39.0625,-46.38671875,-70.3125,0.0
190.1875,-21.97265625,-32.2265625,-39.55078125,-46.38671875,-67.3828125,0.0
190.19140625,-28.80859375,-35.15625,-38.57421875,-32.71484375,68.359375,0.0
190.1953125,-25.390625,-32.2265625,-36.62109375,-43.9453125,75.68359375,0.0
190.19921875,-20.01953125,-23.92578125,-31.73828125,-56.640625,-58.59375,0.0
190.203125,-23.4375,-24.90234375,-26.3671875,-52.734375,-67.3828125,0.0
190.20703125,-32.2265625,-29.296875,-20.99609375,-53.7109375,1.46484375,0.0
190.2109375,-48.828125,-29.78515625,-24.4140625,-53.7109375,-61.5234375,0.0
190.21484375,-43.45703125,-21.97265625,-26.85546875,-53.22265625,-39.0625,0.0
190.21875,-32.2265625,-22.4609375,-23.92578125,-63.96484375,16.11328125,0.0
190.22265625,-35.15625,-27.83203125,-30.2734375,-63.4765625,-54.19921875,0.0
190.2265625,-40.0390625,-32.71484375,-29.78515625,-51.26953125,-91.796875,0.0
190.23046875,-32.2265625,-32.2265625,-16.6015625,-32.71484375,30.2734375,0.0
190.234375,-28.3203125,-28.3203125,-13.18359375,-24.4140625,25.390625,0.0
190.23828125,-21.97265625,-26.85546875,-15.13671875,-26.3671875,-66.89453125,0.0
190.2421875,-6.34765625,-18.06640625,-7.8125,-31.25,-82.51953125,0.0
190.24609375,-8.7890625,-14.6484375,-10.7421875,-22.4609375,-57.12890625,0.0
190.25,-40.0390625,-32.71484375,-21.484375,-13.671875,-16.6015625,0.0
190.25390625,-44.921875,-45.41015625,-23.4375,-15.13671875,11.23046875,0.0
190.2578125,-20.5078125,-34.66796875,-15.13671875,-10.25390625,14.6484375,0.0
190.26171875,-11.71875,-24.90234375,-5.859375,-13.671875,71.77734375,0.0
190.265625,-33.69140625,-30.2734375,-11.71875,-20.01953125,50.78125,0.0
190.26953125,-42.96875,-39.55078125,-26.85546875,-12.6953125,-21.97265625,0.0
190.2734375,-41.015625,-39.55078125,-30.76171875,-5.859375,-57.6171875,0.0
190.27734375,-26.85546875,-31.25,-31.25,-1.46484375,-32.71484375,0.0
190.28125,-13.671875,-37.109375,-38.57421875,-19.04296875,-27.83203125,0.0
190.28515625,-25.390625,-42.48046875,-41.9921875,-35.15625,-57.12890625,0.0
190.2890625,-37.59765625,-28.80859375,-35.64453125,-22.4609375,-36.62109375,0.0
190.29296875,-33.203125,-23.92578125,-37.59765625,-5.37109375,-35.64453125,0.0
190.296875,-24.90234375,-36.1328125,-41.9921875,-15.625,-42.48046875,0.0
190.30078125,-28.80859375,-46.38671875,-50.29296875,-45.8984375,39.0625,0.0
190.3046875,-36.62109375,-42.96875,-52.734375,-50.78125,43.45703125,0.0
190.30859375,-39.55078125,-31.73828125,-45.41015625,-32.71484375,-47.36328125,0.0
190.3125,-43.9453125,-34.1796875,-41.9921875,-26.3671875,-168.45703125,0.0
190.31640625,-32.2265625,-34.1796875,-42.96875,-35.15625,-72.265625,0.0
190.3203125,-33.69140625,-26.3671875,-42.96875,-54.6875,89.84375,0.0
190.32421875,-52.734375,-27.34375,-49.8046875,-54.6875,20.99609375,0.0
190.328125,-67.87109375,-31.73828125,-49.31640625,-36.1328125,-15.625,0.0
190.33203125,-69.3359375,-38.0859375,-49.31640625,-26.3671875,-44.921875,0.0
190.3359375,-43.45703125,-31.25,-49.31640625,-26.3671875,-127.44140625,0.0
190.33984375,-22.4609375,-22.4609375,-39.55078125,-35.15625,-79.58984375,0.0
190.34375,-48.828125,-28.80859375,-40.0390625,-51.26953125,-65.4296875,0.0
190.34765625,-67.87109375,-29.78515625,-41.50390625,-51.7578125,-33.203125,0.0
190.3515625,-63.4765625,-34.1796875,-34.66796875,-33.203125,-39.55078125,0.0
190.35546875,-48.828125,-40.52734375,-28.3203125,-26.3671875,-104.98046875,0.0
190.359375,-24.90234375,-36.62109375,-34.1796875,-39.0625,-102.05078125,0.0
190.36328125,-20.99609375,-33.69140625,-37.109375,-46.38671875,-78.61328125,0.0
190.3671875,-23.4375,-28.3203125,-26.3671875,-41.9921875,-42.96875,0.0
190.37109375,-24.4140625,-23.92578125,-29.78515625,-31.25,-68.84765625,0.0
190.375,-26.85546875,-37.109375,-38.0859375,-39.55078125,-54.6875,0.0
190.37890625,-11.23046875,-31.73828125,-29.296875,-44.43359375,-22.4609375,0.0
190.3828125,-3.90625,-17.578125,-23.92578125,-54.19921875,-17.578125,0.0
190.38671875,-32.2265625,-24.4140625,-32.71484375,-59.5703125,-10.7421875,0.0
190.390625,-54.19921875,-39.0625,-36.62109375,-54.6875,30.76171875,0.0
190.39453125,-35.15625,-36.62109375,-30.2734375,-43.45703125,47.8515625,0.0
190.3984375,-17.08984375,-31.73828125,-29.296875,-39.0625,-10.25390625,0.0
190.40234375,-25.390625,-36.62109375,-29.78515625,-54.6875,-55.6640625,0.0
190.40625,-36.62109375,-41.9921875,-26.85546875,-46.38671875,-26.85546875,0.0
190.41015625,-39.55078125,-43.45703125,-25.390625,-32.2265625,-20.5078125,0.0
190.4140625,-34.66796875,-41.50390625,-25.390625,-37.59765625,-34.1796875,0.0
190.41796875,-15.625,-43.45703125,-25.390625,-36.62109375,-17.578125,0.0
190.421875,-9.765625,-41.50390625,-25.87890625,-40.52734375,-6.34765625,0.0
190.42578125,-30.2734375,-38.57421875,-27.34375,-49.31640625,-2.44140625,0.0
190.4296875,-43.45703125,-35.15625,-19.53125,-30.76171875,6.8359375,0.0
190.43359375,-45.8984375,-31.73828125,-25.390625,-23.92578125,13.18359375,0.0
190.4375,-44.921875,-41.015625,-30.76171875,-34.1796875,-3.90625,0.0
190.44140625,-39.0625,-49.8046875,-24.4140625,-37.59765625,-3.41796875,0.0
190.4453125,-41.50390625,-44.921875,-17.08984375,-32.2265625,-4.8828125,0.0
190.44921875,-55.17578125,-43.45703125,-8.30078125,-17.08984375,-31.73828125,0.0
190.453125,-52.24609375,-41.9921875,-8.7890625,-4.8828125,-32.71484375,0.0
190.45703125,-34.66796875,-44.43359375,-3.90625,-16.11328125,-66.89453125,0.0
190.4609375,-28.80859375,-40.52734375,-7.32421875,-28.80859375,-112.3046875,0.0
190.46484375,-40.0390625,-32.71484375,-16.6015625,-30.2734375,-72.75390625,0.0
190.46875,-46.875,-30.2734375,-19.04296875,-19.53125,-42.96875,0.0
190.47265625,-34.1796875,-35.15625,-21.484375,-7.8125,-140.625,0.0
190.4765625,-26.3671875,-24.90234375,-13.671875,-26.85546875,-172.36328125,0.0
190.48046875,-33.69140625,-20.01953125,-16.11328125,-38.57421875,-101.5625,0.0
190.484375,-42.96875,-28.3203125,-12.20703125,-31.25,-76.66015625,0.0
190.48828125,-48.828125,-30.2734375,-12.20703125,-29.296875,-103.515625,0.0
190.4921875,-37.59765625,-24.90234375,-16.6015625,-14.6484375,-42.96875,0.0
190.49609375,-31.25,-30.2734375,-14.16015625,-12.20703125,24.90234375,0.0
190.5,-27.83203125,-37.109375,-19.04296875,-27.83203125,-77.1484375,0.0
190.50390625,-30.76171875,-36.1328125,-19.04296875,-32.71484375,-166.015625,0.0
190.5078125,-45.8984375,-35.15625,-14.6484375,-30.2734375,-210.9375,0.0
190.51171875,-44.921875,-30.76171875,-15.13671875,-27.34375,-244.62890625,0.0
190.515625,-28.3203125,-30.76171875,-23.92578125,-30.76171875,-289.0625,0.0
190.51953125,-19.53125,-30.2734375,-24.90234375,-44.43359375,-170.41015625,0.0
190.5234375,-27.34375,-19.04296875,-18.06640625,-58.10546875,47.8515625,0.0
190.52734375,-28.3203125,-15.13671875,-19.04296875,-45.41015625,29.296875,0.0
190.53125,-22.94921875,-31.25,-29.78515625,-23.4375,37.59765625,0.0
190.53515625,-19.53125,-38.57421875,-39.55078125,-27.34375,65.91796875,0.0
190.5390625,-14.16015625,-39.55078125,-39.55078125,-44.921875,33.203125,0.0
190.54296875,-11.71875,-35.64453125,-40.52734375,-53.7109375,72.265625,0.0
190.546875,-21.484375,-36.1328125,-40.0390625,-43.9453125,88.8671875,0.0
190.55078125,-28.80859375,-40.52734375,-33.203125,-28.3203125,13.18359375,0.0
190.5546875,-10.7421875,-32.2265625,-23.92578125,-18.5546875,-14.16015625,0.0
190.55859375,4.39453125,-30.2734375,-24.4140625,-23.4375,38.0859375,0.0
190.5625,3.41796875,-30.2734375,-34.66796875,-33.69140625,42.96875,0.0
190.56640625,-23.4375,-37.109375,-39.0625,-37.109375,-4.8828125,0.0
190.5703125,-36.62109375,-36.1328125,-27.83203125,-26.3671875,21.97265625,0.0
190.57421875,-28.80859375,-26.3671875,-34.66796875,-24.90234375,7.8125,0.0
190.578125,-21.97265625,-27.83203125,-43.45703125,-29.296875,-24.4140625,0.0
190.58203125,-34.1796875,-41.50390625,-48.33984375,-36.62109375,-12.6953125,0.0
190.5859375,-66.40625,-47.8515625,-46.38671875,-51.7578125,-25.390625,0.0
190.58984375,-73.73046875,-39.55078125,-36.62109375,-42.96875,89.35546875,0.0
190.59375,-73.73046875,-37.109375,-36.62109375,-38.0859375,65.4296875,0.0
190.59765625,-66.89453125,-37.59765625,-39.0625,-41.50390625,-63.4765625,0.0
190.6015625,-47.36328125,-36.1328125,-33.69140625,-41.50390625,-67.3828125,0.0
190.60546875,-54.19921875,-27.83203125,-29.78515625,-38.57421875,-31.73828125,0.0
190.609375,-57.6171875,-31.25,-34.1796875,-29.296875,-14.6484375,0.0
190.61328125,-67.3828125,-38.57421875,-33.69140625,-26.85546875,-21.484375,0.0
190.6171875,-62.5,-30.2734375,-24.4140625,-25.87890625,-18.5546875,0.0
190.62109375,-49.31640625,-28.80859375,-22.94921875,-35.15625,-58.59375,0.0
190.625,-65.91796875,-38.0859375,-31.25,-44.921875,-54.19921875,0.0
190.62890625,-76.66015625,-43.9453125,-44.921875,-34.66796875,-42.48046875,0.0
190.6328125,-70.80078125,-42.48046875,-37.59765625,-32.2265625,1.953125,0.0
190.63671875,-49.8046875,-38.57421875,-22.4609375,-31.25,74.70703125,0.0
190.640625,-38.57421875,-38.57421875,-38.0859375,-33.69140625,0.0,0.0
190.64453125,-53.7109375,-40.52734375,-44.43359375,-42.96875,-62.98828125,0.0
190.6484375,-55.17578125,-31.25,-27.34375,-22.94921875,31.25,0.0
190.65234375,-56.15234375,-29.296875,-38.0859375,-11.71875,82.51953125,0.0
190.65625,-56.640625,-36.62109375,-49.8046875,-22.94921875,-42.96875,0.0
190.66015625,-55.17578125,-39.55078125,-47.36328125,-44.43359375,-136.23046875,0.0
190.6640625,-50.29296875,-28.3203125,-44.43359375,-51.26953125,-221.6796875,0.0
190.66796875,-60.546875,-23.92578125,-42.96875,-45.41015625,-267.08984375,0.0
190.671875,-80.078125,-37.109375,-50.29296875,-38.0859375,-173.33984375,0.0
190.67578125,-70.80078125,-42.48046875,-50.29296875,-42.48046875,-95.21484375,0.0
190.6796875,-59.08203125,-34.66796875,-47.8515625,-58.10546875,-66.40625,0.0
190.68359375,-68.359375,-34.66796875,-44.921875,-53.22265625,-108.88671875,0.0
190.6875,-85.44921875,-36.1328125,-52.24609375,-52.734375,-162.109375,0.0
190.69140625,-91.796875,-34.66796875,-56.15234375,-58.59375,-89.84375,0.0
190.6953125,-77.63671875,-28.80859375,-44.43359375,-43.45703125,-52.24609375,0.0
190.69921875,-66.89453125,-29.296875,-40.0390625,-56.640625,-29.78515625,0.0
190.703125,-83.49609375,-31.25,-40.52734375,-66.40625,-3.41796875,0.0
190.70703125,-104.00390625,-33.203125,-42.48046875,-55.6640625,61.03515625,0.0
190.7109375,-107.421875,-29.78515625,-36.1328125,-52.24609375,100.09765625,0.0
190.71484375,-100.5859375,-28.80859375,-25.390625,-49.8046875,17.578125,0.0
190.71875,-103.515625,-41.9921875,-31.73828125,-58.10546875,-32.71484375,0.0
190.72265625,-99.12109375,-43.9453125,-38.0859375,-75.68359375,-4.8828125,0.0
190.7265625,-98.6328125,-32.2265625,-32.2265625,-70.3125,9.27734375,0.0
190.73046875,-110.3515625,-28.80859375,-37.109375,-51.26953125,-79.58984375,0.0
190.734375,-95.703125,-27.83203125,-34.1796875,-47.36328125,-45.41015625,0.0
190.73828125,-79.1015625,-28.3203125,-31.73828125,-53.7109375,-6.34765625,0.0
190.7421875,-77.63671875,-27.83203125,-32.2265625,-61.03515625,-111.328125,0.0
190.74609375,-88.37890625,-25.87890625,-31.25,-57.6171875,-134.27734375,0.0
190.75,-99.609375,-34.1796875,-35.64453125,-49.8046875,-69.82421875,0.0
190.75390625,-95.21484375,-32.71484375,-41.015625,-44.43359375,7.8125,0.0
190.7578125,-73.73046875,-20.99609375,-32.2265625,-52.734375,62.5,0.0
190.76171875,-77.63671875,-22.4609375,-35.64453125,-65.4296875,122.0703125,0.0
190.765625,-102.5390625,-35.15625,-54.6875,-70.80078125,62.5,0.0
190.76953125,-102.05078125,-37.59765625,-58.10546875,-51.26953125,81.0546875,0.0
190.7734375,-90.8203125,-32.2265625,-52.734375,-33.69140625,77.63671875,0.0
190.77734375,-78.61328125,-26.85546875,-45.41015625,-45.8984375,-66.89453125,0.0
190.78125,-61.03515625,-23.4375,-45.8984375,-58.10546875,-30.76171875,0.0
190.78515625,-69.3359375,-32.71484375,-52.734375,-51.7578125,7.32421875,0.0
190.7890625,-79.58984375,-33.203125,-50.29296875,-45.41015625,25.390625,0.0
190.79296875,-65.91796875,-30.2734375,-41.015625,-40.0390625,14.6484375,0.0
190.796875,-60.546875,-39.0625,-36.62109375,-57.12890625,-22.94921875,0.0
190.80078125,-61.03515625,-28.3203125,-32.71484375,-73.73046875,2.44140625,0.0
190.8046875,-77.1484375,-26.3671875,-35.64453125,-81.54296875,28.3203125,0.0
190.80859375,-88.37890625,-34.1796875,-45.8984375,-76.171875,1.953125,0.0
190.8125,-83.0078125,-41.50390625,-47.36328125,-62.01171875,-9.27734375,0.0
190.81640625,-58.59375,-39.55078125,-40.0390625,-59.08203125,-18.06640625,0.0
190.8203125,-49.8046875,-26.85546875,-35.64453125,-73.2421875,-29.296875,0.0
190.82421875,-66.40625,-32.2265625,-34.66796875,-82.51953125,-65.91796875,0.0
190.828125,-76.171875,-33.69140625,-38.57421875,-70.80078125,-21.484375,0.0
190.83203125,-85.44921875,-30.76171875,-41.50390625,-62.98828125,19.04296875,0.0
190.8359375,-74.70703125,-25.87890625,-32.2265625,-73.2421875,-47.36328125,0.0
190.83984375,-71.2890625,-22.94921875,-33.203125,-84.47265625,-23.92578125,0.0
190.84375,-72.265625,-20.99609375,-43.9453125,-90.33203125,22.4609375,0.0
190.84765625,-66.89453125,-23.92578125,-41.50390625,-74.70703125,-23.4375,0.0
190.8515625,-67.87109375,-21.97265625,-34.66796875,-57.6171875,15.625,0.0
190.85546875,-72.265625,-23.92578125,-35.15625,-60.05859375,20.01953125,0.0
190.859375,-63.96484375,-26.3671875,-35.64453125,-67.87109375,31.25,0.0
190.86328125,-54.6875,-27.83203125,-34.66796875,-68.84765625,-21.484375,0.0
190.8671875,-55.6640625,-21.97265625,-34.1796875,-60.05859375,-23.4375,0.0
190.87109375,-60.05859375,-22.94921875,-30.76171875,-54.6875,22.94921875,0.0
190.875,-40.0390625,-33.69140625,-29.78515625,-60.05859375,-11.71875,0.0
190.87890625,-20.99609375,-33.203125,-30.76171875,-78.61328125,7.32421875,0.0
190.8828125,-24.90234375,-26.85546875,-30.2734375,-68.84765625,1.46484375,0.0
190.88671875,-48.828125,-29.296875,-34.1796875,-58.59375,-31.73828125,0.0
190.890625,-56.640625,-34.66796875,-33.69140625,-56.15234375,-80.56640625,0.0
190.89453125,-50.29296875,-30.2734375,-30.2734375,-56.640625,-106.93359375,0.0
190.8984375,-39.55078125,-19.04296875,-26.85546875,-70.80078125,-101.07421875,0.0
190.90234375,-43.45703125,-21.484375,-32.2265625,-74.21875,-61.5234375,0.0
190.90625,-64.453125,-30.76171875,-32.2265625,-76.171875,-18.5546875,0.0
190.91015625,-68.84765625,-26.3671875,-27.83203125,-65.91796875,-66.40625,0.0
190.9140625,-72.265625,-29.78515625,-32.71484375,-70.3125,-75.1953125,0.0
190.91796875,-64.94140625,-33.203125,-29.78515625,-80.56640625,-58.10546875,0.0
190.921875,-72.265625,-27.83203125,-22.94921875,-95.21484375,-90.33203125,0.0
190.92578125,-81.0546875,-28.3203125,-29.78515625,-92.28515625,-117.1875,0.0
190.9296875,-75.68359375,-25.390625,-24.4140625,-72.265625,-96.6796875,0.0
190.93359375,-77.1484375,-28.80859375,-18.06640625,-73.73046875,-79.58984375,0.0
190.9375,-50.29296875,-29.78515625,-15.13671875,-64.453125,-75.68359375,0.0
190.94140625,-22.94921875,-23.4375,-9.27734375,-62.01171875,-59.08203125,0.0
190.9453125,-31.73828125,-9.765625,-16.6015625,-67.3828125,-49.8046875,0.0
190.94921875,-49.8046875,-14.16015625,-21.97265625,-56.640625,-69.3359375,0.0
190.953125,-59.08203125,-32.2265625,-25.390625,-61.03515625,-117.67578125,0.0
190.95703125,-44.921875,-35.64453125,-27.83203125,-67.87109375,-152.34375,0.0
190.9609375,-32.2265625,-36.1328125,-29.78515625,-72.265625,-159.66796875,0.0
190.96484375,-36.62109375,-35.15625,-32.71484375,-68.359375,-57.6171875,0.0
190.96875,-48.828125,-32.2265625,-41.015625,-54.6875,-68.359375,0.0
190.97265625,-48.33984375,-30.2734375,-43.45703125,-39.0625,-38.0859375,0.0
190.9765625,-21.97265625,-20.99609375,-38.57421875,-37.59765625,16.11328125,0.0
190.98046875,-10.7421875,-10.25390625,-34.1796875,-44.921875,-27.83203125,0.0
190.984375,-19.53125,-14.16015625,-33.69140625,-42.96875,-137.20703125,0.0
190.98828125,-42.96875,-26.3671875,-35.64453125,-42.48046875,-226.5625,0.0
190.9921875,-51.26953125,-16.11328125,-29.296875,-44.43359375,-202.1484375,0.0
190.99609375,-37.59765625,-3.41796875,-24.4140625,-47.8515625,-180.6640625,0.0
191.0,-44.43359375,-14.6484375,-31.25,-64.94140625,-113.28125,0.0
191.00390625,-51.7578125,-18.06640625,-31.25,-70.3125,-24.4140625,0.0
191.0078125,-58.10546875,-23.92578125,-31.73828125,-59.5703125,-32.71484375,0.0
191.01171875,-57.12890625,-28.80859375,-33.69140625,-50.29296875,-86.42578125,0.0
191.015625,-50.78125,-25.390625,-31.25,-58.10546875,-93.26171875,0.0
191.01953125,-47.36328125,-22.94921875,-30.76171875,-75.68359375,-6.8359375,0.0
191.0234375,-54.19921875,-20.99609375,-28.3203125,-80.56640625,-5.859375,0.0
191.02734375,-60.05859375,-25.87890625,-27.34375,-68.359375,-47.36328125,0.0
191.03125,-58.10546875,-32.2265625,-23.4375,-61.03515625,107.91015625,0.0
191.03515625,-73.73046875,-41.015625,-32.71484375,-69.3359375,112.3046875,0.0
191.0390625,-60.546875,-27.34375,-37.59765625,-70.3125,-48.828125,0.0
191.04296875,-42.96875,-17.578125,-31.25,-62.98828125,-71.2890625,0.0
191.046875,-65.91796875,-33.203125,-35.64453125,-54.19921875,-72.265625,0.0
191.05078125,-73.2421875,-38.0859375,-40.52734375,-41.50390625,-125.9765625,0.0
191.0546875,-42.48046875,-31.25,-37.109375,-36.1328125,-64.453125,0.0
191.05859375,-21.484375,-31.25,-39.0625,-44.43359375,86.9140625,0.0
191.0625,-19.53125,-31.73828125,-46.38671875,-56.15234375,118.65234375,0.0
191.06640625,-17.08984375,-26.85546875,-45.8984375,-41.015625,115.72265625,0.0
191.0703125,-28.3203125,-35.15625,-48.828125,-26.85546875,91.30859375,0.0
191.07421875,-32.2265625,-41.9921875,-43.45703125,-31.73828125,53.22265625,0.0
191.078125,-10.7421875,-34.1796875,-35.64453125,-31.25,-38.0859375,0.0
191.08203125,-11.23046875,-31.25,-32.2265625,-40.0390625,6.34765625,0.0
191.0859375,-20.99609375,-30.76171875,-34.66796875,-41.50390625,59.08203125,0.0
191.08984375,-27.83203125,-36.1328125,-44.43359375,-24.4140625,8.7890625,0.0
191.09375,-35.15625,-50.29296875,-45.41015625,-28.80859375,-4.39453125,0.0
191.09765625,-13.18359375,-52.734375,-42.48046875,-46.875,48.828125,0.0
191.1015625,14.6484375,-37.59765625,-37.59765625,-47.8515625,67.3828125,0.0
191.10546875,2.9296875,-27.83203125,-39.0625,-40.0390625,19.04296875,0.0
191.109375,-31.73828125,-31.73828125,-40.0390625,-42.96875,23.92578125,0.0
191.11328125,-39.0625,-39.55078125,-43.9453125,-42.96875,45.8984375,0.0
191.1171875,-21.484375,-33.203125,-39.55078125,-32.71484375,57.6171875,0.0
191.12109375,-23.4375,-31.73828125,-38.57421875,-49.8046875,115.234375,0.0
191.125,-40.52734375,-39.55078125,-51.26953125,-59.5703125,96.19140625,0.0
191.12890625,-55.17578125,-49.31640625,-57.12890625,-46.875,14.16015625,0.0
191.1328125,-39.55078125,-41.015625,-49.31640625,-36.1328125,0.0,0.0
191.13671875,-20.5078125,-23.92578125,-44.43359375,-34.66796875,73.2421875,0.0
191.140625,-39.0625,-36.1328125,-43.9453125,-55.17578125,36.62109375,0.0
191.14453125,-55.17578125,-46.875,-37.59765625,-58.10546875,30.2734375,0.0
191.1484375,-56.640625,-41.50390625,-38.0859375,-32.71484375,112.3046875,0.0
191.15234375,-58.59375,-42.96875,-33.69140625,-17.08984375,133.30078125,0.0
191.15625,-46.38671875,-40.52734375,-22.94921875,-19.53125,47.8515625,0.0
191.16015625,-29.78515625,-44.43359375,-34.1796875,-24.4140625,-90.33203125,0.0
191.1640625,-25.87890625,-36.1328125,-41.50390625,-26.85546875,-46.875,0.0
191.16796875,-34.1796875,-29.296875,-35.64453125,-17.08984375,13.671875,0.0
191.171875,-33.203125,-31.25,-35.15625,1.46484375,10.25390625,0.0
191.17578125,-24.4140625,-37.109375,-37.59765625,1.953125,30.2734375,0.0
191.1796875,-13.18359375,-28.80859375,-31.73828125,-17.578125,31.25,0.0
191.18359375,-19.53125,-18.5546875,-34.1796875,-30.2734375,-58.10546875,0.0
191.1875,-30.76171875,-34.66796875,-45.8984375,-22.4609375,-78.125,0.0
191.19140625,-34.66796875,-43.9453125,-45.41015625,-12.20703125,-85.44921875,0.0
191.1953125,-24.4140625,-38.57421875,-37.59765625,-14.6484375,-67.87109375,0.0
191.19921875,-2.9296875,-33.203125,-34.1796875,-31.25,-38.0859375,0.0
191.203125,1.46484375,-36.1328125,-43.9453125,-43.45703125,-74.21875,0.0
191.20703125,-14.6484375,-37.109375,-55.17578125,-34.1796875,-20.01953125,0.0
191.2109375,-25.87890625,-40.0390625,-51.7578125,-20.99609375,-40.52734375,0.0
191.21484375,-12.20703125,-37.59765625,-43.9453125,-14.16015625,-122.55859375,0.0
191.21875,-6.34765625,-30.76171875,-48.33984375,-22.94921875,-127.44140625,0.0
191.22265625,-5.37109375,-39.55078125,-44.921875,-37.59765625,-132.8125,0.0
191.2265625,-9.765625,-32.2265625,-34.1796875,-35.64453125,-77.1484375,0.0
191.23046875,-28.3203125,-23.92578125,-32.71484375,-22.4609375,-20.5078125,0.0
191.234375,-28.80859375,-31.25,-31.25,-22.4609375,40.0390625,0.0
191.23828125,-15.13671875,-35.15625,-28.3203125,-35.64453125,69.82421875,0.0
191.2421875,-14.6484375,-35.15625,-32.2265625,-36.1328125,44.921875,0.0
191.24609375,-28.3203125,-34.66796875,-39.0625,-36.1328125,53.22265625,0.0
191.25,-31.25,-32.71484375,-35.64453125,-27.83203125,-4.8828125,0.0
191.25390625,-27.34375,-37.59765625,-27.34375,-22.94921875,-38.0859375,0.0
191.2578125,-19.04296875,-40.52734375,-29.296875,-23.92578125,-22.4609375,0.0
191.26171875,-19.53125,-31.73828125,-24.4140625,-28.3203125,-1.953125,0.0
191.265625,-33.69140625,-29.78515625,-24.4140625,-35.15625,44.43359375,0.0
191.26953125,-33.203125,-31.73828125,-32.71484375,-25.390625,42.48046875,0.0
191.2734375,-25.87890625,-27.83203125,-33.203125,-18.06640625,-9.27734375,0.0
191.27734375,-25.390625,-38.0859375,-30.76171875,-20.99609375,-18.5546875,0.0
191.28125,-25.390625,-48.33984375,-38.57421875,-28.3203125,-11.23046875,0.0
191.28515625,-39.0625,-48.33984375,-40.52734375,-38.57421875,-36.1328125,0.0
191.2890625,-38.57421875,-45.41015625,-39.0625,-22.4609375,-10.25390625,0.0
191.29296875,-37.109375,-44.43359375,-39.0625,-15.13671875,-43.9453125,0.0
191.296875,-25.87890625,-41.50390625,-28.80859375,-18.5546875,8.30078125,0.0
191.30078125,-13.18359375,-30.2734375,-30.76171875,-20.5078125,2.9296875,0.0
191.3046875,-42.48046875,-34.66796875,-40.0390625,-36.62109375,-102.5390625,0.0
191.30859375,-40.52734375,-39.55078125,-40.52734375,-23.4375,-46.875,0.0
191.3125,-30.2734375,-38.0859375,-40.0390625,-4.39453125,-5.859375,0.0
191.31640625,-41.9921875,-40.0390625,-31.73828125,-21.484375,-49.31640625,0.0
191.3203125,-31.25,-31.25,-25.87890625,-41.015625,-102.5390625,0.0
191.32421875,-25.390625,-30.76171875,-32.71484375,-40.0390625,-141.11328125,0.0
191.328125,-33.203125,-36.62109375,-36.1328125,-26.85546875,-55.6640625,0.0
191.33203125,-46.38671875,-41.015625,-39.55078125,-24.90234375,-81.0546875,0.0
191.3359375,-48.33984375,-45.8984375,-41.015625,-37.59765625,-190.4296875,0.0
191.33984375,-31.73828125,-38.57421875,-38.0859375,-52.24609375,-70.80078125,0.0
191.34375,-38.57421875,-34.66796875,-38.0859375,-51.7578125,29.296875,0.0
191.34765625,-61.5234375,-44.921875,-36.1328125,-42.96875,28.80859375,0.0
191.3515625,-68.84765625,-47.8515625,-33.203125,-41.015625,-2.9296875,0.0
191.35546875,-59.5703125,-45.41015625,-26.85546875,-38.0859375,-130.37109375,0.0
191.359375,-54.6875,-48.33984375,-27.34375,-49.8046875,-125.0,0.0
191.36328125,-45.8984375,-45.41015625,-33.69140625,-57.12890625,-119.62890625,0.0
191.3671875,-47.36328125,-35.64453125,-22.94921875,-38.0859375,-188.4765625,0.0
191.37109375,-60.546875,-36.62109375,-25.87890625,-25.87890625,-165.0390625,0.0
191.375,-56.640625,-51.7578125,-31.73828125,-28.3203125,-116.69921875,0.0
191.37890625,-51.26953125,-57.6171875,-28.3203125,-25.390625,-155.2734375,0.0
191.3828125,-37.109375,-44.43359375,-21.97265625,-32.2265625,-166.015625,0.0
191.38671875,-43.45703125,-40.0390625,-20.01953125,-36.62109375,-98.14453125,0.0
191.390625,-63.96484375,-48.33984375,-23.92578125,-23.92578125,-33.69140625,0.0
191.39453125,-59.08203125,-47.8515625,-18.06640625,-18.5546875,-2.9296875,0.0
191.3984375,-37.109375,-38.57421875,-11.71875,-39.55078125,31.25,0.0
191.40234375,-32.71484375,-37.109375,-11.23046875,-42.48046875,4.39453125,0.0
191.40625,-41.9921875,-44.43359375,-13.671875,-45.8984375,-27.83203125,0.0
191.41015625,-55.17578125,-51.7578125,-16.11328125,-51.7578125,-27.83203125,0.0
191.4140625,-53.22265625,-50.29296875,-16.11328125,-29.78515625,-73.73046875,0.0
191.41796875,-37.59765625,-41.9921875,-4.39453125,-21.97265625,-110.3515625,0.0
191.421875,-30.76171875,-40.52734375,-5.37109375,-39.0625,-121.58203125,0.0
191.42578125,-52.734375,-58.10546875,-21.97265625,-48.33984375,-187.01171875,0.0
191.4296875,-58.10546875,-59.5703125,-16.11328125,-45.41015625,-187.98828125,0.0
191.43359375,-50.29296875,-41.50390625,-6.34765625,-41.9921875,-16.11328125,0.0
191.4375,-38.57421875,-24.4140625,-4.8828125,-46.875,114.2578125,0.0
191.44140625,-41.50390625,-20.01953125,-11.71875,-60.546875,106.4453125,0.0
191.4453125,-45.8984375,-25.87890625,-18.06640625,-45.8984375,108.88671875,0.0
191.44921875,-63.4765625,-33.203125,-20.99609375,-39.0625,183.10546875,0.0
191.453125,-74.70703125,-40.0390625,-23.4375,-53.7109375,145.01953125,0.0
191.45703125,-57.6171875,-41.015625,-23.4375,-49.31640625,71.77734375,0.0
191.4609375,-35.15625,-33.203125,-16.11328125,-47.36328125,39.0625,0.0
191.46484375,-33.69140625,-28.80859375,-21.97265625,-42.48046875,-24.4140625,0.0
191.46875,-49.8046875,-43.45703125,-40.52734375,-32.71484375,-90.8203125,0.0
191.47265625,-66.89453125,-54.6875,-34.66796875,-33.69140625,10.7421875,0.0
191.4765625,-52.734375,-48.33984375,-31.25,-40.0390625,81.0546875,0.0
191.48046875,-43.45703125,-44.921875,-45.41015625,-52.734375,35.15625,0.0
191.484375,-52.734375,-42.48046875,-43.9453125,-58.10546875,-0.9765625,0.0
191.48828125,-56.640625,-42.96875,-40.52734375,-43.9453125,-54.6875,0.0
191.4921875,-57.6171875,-41.9921875,-37.59765625,-39.0625,-43.45703125,0.0
191.49609375,-51.26953125,-44.921875,-26.3671875,-56.15234375,-19.53125,0.0
191.5,-17.08984375,-40.52734375,-22.94921875,-51.7578125,-54.6875,0.0
191.50390625,-22.94921875,-35.64453125,-29.78515625,-49.8046875,-50.29296875,0.0
191.5078125,-55.17578125,-33.69140625,-30.76171875,-53.7109375,-37.59765625,0.0
191.51171875,-58.10546875,-38.57421875,-27.83203125,-46.38671875,-59.08203125,0.0
191.515625,-48.828125,-48.33984375,-22.94921875,-48.828125,-84.9609375,0.0
191.51953125,-45.41015625,-47.8515625,-24.4140625,-61.5234375,-105.46875,0.0
191.5234375,-50.78125,-39.0625,-28.80859375,-67.3828125,-94.23828125,0.0
191.52734375,-73.2421875,-41.9921875,-31.25,-62.98828125,-109.375,0.0
191.53125,-88.8671875,-43.9453125,-37.59765625,-51.7578125,-103.515625,0.0
191.53515625,-69.3359375,-41.9921875,-33.69140625,-32.71484375,-46.875,0.0
191.5390625,-40.0390625,-41.9921875,-23.4375,-42.48046875,-29.78515625,0.0
191.54296875,-46.38671875,-33.69140625,-21.97265625,-65.91796875,85.9375,0.0
191.546875,-74.21875,-41.50390625,-28.80859375,-55.6640625,76.66015625,0.0
191.55078125,-92.28515625,-51.26953125,-32.2265625,-43.9453125,-31.25,0.0
191.5546875,-83.49609375,-35.64453125,-20.01953125,-36.62109375,-48.33984375,0.0
191.55859375,-72.265625,-27.83203125,-20.01953125,-39.0625,-39.0625,0.0
191.5625,-82.51953125,-41.015625,-23.4375,-52.734375,63.96484375,0.0
191.56640625,-97.65625,-46.38671875,-16.6015625,-67.87109375,72.265625,0.0
191.5703125,-103.02734375,-42.96875,-20.99609375,-52.734375,64.94140625,0.0
191.57421875,-88.37890625,-42.48046875,-22.94921875,-37.59765625,42.48046875,0.0
191.578125,-57.12890625,-40.0390625,-19.04296875,-37.59765625,35.64453125,0.0
191.58203125,-52.734375,-35.64453125,-16.11328125,-36.1328125,2.9296875,0.0
191.5859375,-62.5,-28.3203125,-14.16015625,-30.76171875,-23.4375,0.0
191.58984375,-76.66015625,-33.69140625,-21.484375,-30.2734375,34.66796875,0.0
191.59375,-89.84375,-45.8984375,-27.34375,-39.55078125,26.85546875,0.0
191.59765625,-78.61328125,-36.1328125,-21.484375,-40.52734375,55.6640625,0.0
191.6015625,-67.87109375,-20.01953125,-19.53125,-42.48046875,130.37109375,0.0
191.60546875,-87.40234375,-27.83203125,-30.2734375,-61.5234375,97.16796875,0.0
191.609375,-96.6796875,-39.0625,-36.62109375,-42.96875,51.26953125,0.0
191.61328125,-88.37890625,-38.0859375,-35.15625,-28.3203125,84.9609375,0.0
191.6171875,-76.171875,-36.62109375,-32.71484375,-36.62109375,-2.44140625,0.0
191.62109375,-64.94140625,-35.64453125,-31.73828125,-52.734375,-80.56640625,0.0
191.625,-67.3828125,-35.15625,-37.109375,-60.546875,-40.0390625,0.0
191.62890625,-74.21875,-35.64453125,-41.9921875,-45.41015625,5.37109375,0.0
191.6328125,-77.1484375,-30.76171875,-34.66796875,-41.50390625,-32.2265625,0.0
191.63671875,-59.5703125,-25.87890625,-35.64453125,-36.1328125,-61.03515625,0.0
191.640625,-57.6171875,-29.296875,-36.62109375,-46.875,-46.38671875,0.0
191.64453125,-68.359375,-34.1796875,-35.64453125,-59.08203125,29.296875,0.0
191.6484375,-66.89453125,-26.85546875,-43.45703125,-45.8984375,75.1953125,0.0
191.65234375,-66.40625,-31.25,-40.52734375,-28.80859375,-17.08984375,0.0
191.65625,-53.7109375,-44.921875,-32.2265625,-27.34375,-11.23046875,0.0
191.66015625,-45.8984375,-44.921875,-34.1796875,-44.921875,-31.73828125,0.0
191.6640625,-47.36328125,-38.0859375,-31.25,-40.0390625,-104.00390625,0.0
191.66796875,-45.8984375,-32.71484375,-31.25,-26.3671875,-106.4453125,0.0
191.671875,-45.41015625,-35.15625,-31.73828125,-16.6015625,-80.56640625,0.0
191.67578125,-35.64453125,-36.62109375,-24.4140625,-23.4375,-70.3125,0.0
191.6796875,-20.99609375,-27.34375,-20.5078125,-34.1796875,-38.0859375,0.0
191.68359375,-41.50390625,-36.1328125,-28.80859375,-37.109375,-15.625,0.0
191.6875,-63.4765625,-43.9453125,-29.296875,-42.96875,11.71875,0.0
191.69140625,-50.78125,-44.43359375,-26.85546875,-42.96875,63.4765625,0.0
191.6953125,-36.62109375,-45.8984375,-30.2734375,-45.8984375,-37.109375,0.0
191.69921875,-16.6015625,-38.57421875,-32.2265625,-46.38671875,-41.9921875,0.0
191.703125,-12.20703125,-35.15625,-32.71484375,-49.8046875,39.55078125,0.0
191.70703125,-30.2734375,-39.0625,-31.73828125,-48.828125,12.20703125,0.0
191.7109375,-49.8046875,-44.921875,-31.73828125,-37.59765625,-1.953125,0.0
191.71484375,-52.734375,-46.38671875,-24.4140625,-31.73828125,-1.953125,0.0
191.71875,-47.36328125,-45.8984375,-20.99609375,-38.0859375,-18.06640625,0.0
191.72265625,-38.57421875,-44.43359375,-25.390625,-43.45703125,20.01953125,0.0
191.7265625,-41.9921875,-38.0859375,-30.76171875,-38.0859375,18.5546875,0.0
191.73046875,-63.4765625,-32.2265625,-39.0625,-37.59765625,-54.19921875,0.0
191.734375,-50.29296875,-36.62109375,-41.50390625,-33.69140625,-42.48046875,0.0
191.73828125,-41.50390625,-38.57421875,-38.0859375,-33.203125,-43.45703125,0.0
191.7421875,-24.4140625,-25.390625,-34.66796875,-40.0390625,-50.78125,0.0
191.74609375,-14.6484375,-24.90234375,-32.71484375,-31.25,-50.29296875,0.0
191.75,-39.0625,-30.2734375,-34.1796875,-15.625,-19.53125,0.0
191.75390625,-51.7578125,-33.203125,-47.36328125,-19.04296875,-27.83203125,0.0
191.7578125,-49.31640625,-36.1328125,-47.36328125,-32.2265625,-50.29296875,0.0
191.76171875,-36.62109375,-24.4140625,-38.57421875,-34.66796875,-36.62109375,0.0
191.765625,-38.57421875,-18.06640625,-39.55078125,-38.57421875,-9.765625,0.0
191.76953125,-51.7578125,-26.85546875,-41.015625,-34.66796875,-58.59375,0.0
191.7734375,-39.0625,-22.4609375,-31.25,-25.390625,-111.81640625,0.0
191.77734375,-12.6953125,-10.25390625,-26.85546875,-29.296875,-52.734375,0.0
191.78125,-6.34765625,-16.6015625,-33.203125,-39.55078125,-41.015625,0.0
191.78515625,-23.92578125,-24.90234375,-35.64453125,-46.875,-76.171875,0.0
191.7890625,-21.97265625,-14.16015625,-30.76171875,-28.80859375,-55.17578125,0.0
191.79296875,-26.85546875,-16.6015625,-29.296875,-20.99609375,-53.7109375,0.0
191.796875,-35.15625,-31.25,-36.1328125,-34.1796875,-123.53515625,0.0
191.80078125,-21.97265625,-25.390625,-38.57421875,-50.78125,-69.82421875,0.0
191.8046875,-21.97265625,-19.53125,-36.1328125,-47.36328125,-31.73828125,0.0
191.80859375,-41.9921875,-24.90234375,-39.0625,-32.2265625,-67.3828125,0.0
191.8125,-41.50390625,-26.3671875,-36.1328125,-19.04296875,-86.9140625,0.0
191.81640625,-25.87890625,-26.85546875,-33.203125,-14.6484375,-72.265625,0.0
191.8203125,-12.6953125,-19.53125,-36.1328125,-25.390625,-2.44140625,0.0
191.82421875,-21.484375,-16.6015625,-41.50390625,-26.85546875,-6.34765625,0.0
191.828125,-36.1328125,-23.92578125,-42.48046875,-21.484375,-25.390625,0.0
191.83203125,-30.2734375,-26.3671875,-44.43359375,-11.23046875,-4.39453125,0.0
191.8359375,-11.71875,-21.484375,-34.1796875,-7.8125,-44.921875,0.0
191.83984375,-3.90625,-13.671875,-23.92578125,-19.53125,-85.44921875,0.0
191.84375,-17.08984375,-19.04296875,-28.80859375,-22.4609375,-113.28125,0.0
191.84765625,-24.90234375,-30.76171875,-24.90234375,-17.578125,-78.61328125,0.0
191.8515625,-24.4140625,-24.90234375,-22.94921875,-10.25390625,-71.2890625,0.0
191.85546875,-21.97265625,-15.13671875,-26.85546875,-11.71875,-85.9375,0.0
191.859375,-14.16015625,-15.625,-22.94921875,-16.11328125,-90.8203125,0.0
191.86328125,-9.765625,-25.87890625,-20.01953125,-30.76171875,-38.0859375,0.0
191.8671875,-20.5078125,-17.578125,-24.90234375,-23.92578125,0.0,0.0
191.87109375,-36.62109375,-16.6015625,-23.92578125,-16.11328125,-38.57421875,0.0
191.875,-38.57421875,-34.66796875,-21.484375,-24.90234375,-41.50390625,0.0
191.87890625,-29.78515625,-38.57421875,-21.484375,-30.2734375,0.48828125,0.0
191.8828125,-26.85546875,-24.4140625,-20.5078125,-39.0625,49.8046875,0.0
191.88671875,-41.50390625,-27.83203125,-21.97265625,-36.1328125,37.59765625,0.0
191.890625,-55.6640625,-44.43359375,-22.94921875,-30.2734375,46.875,0.0
191.89453125,-52.24609375,-43.9453125,-21.484375,-28.3203125,55.17578125,0.0
191.8984375,-41.015625,-39.0625,-25.390625,-28.80859375,-11.23046875,0.0
191.90234375,-45.8984375,-34.1796875,-23.92578125,-42.96875,0.48828125,0.0
191.90625,-49.8046875,-32.71484375,-18.06640625,-35.64453125,20.01953125,0.0
191.91015625,-41.50390625,-35.64453125,-21.484375,-20.5078125,-58.59375,0.0
191.9140625,-38.57421875,-32.2265625,-17.578125,-27.83203125,-115.234375,0.0
191.91796875,-36.1328125,-29.296875,-21.484375,-41.50390625,-84.47265625,0.0
191.921875,-32.71484375,-30.76171875,-23.92578125,-45.8984375,-141.11328125,0.0
191.92578125,-40.52734375,-28.80859375,-21.484375,-35.15625,-186.03515625,0.0
191.9296875,-45.8984375,-20.01953125,-13.671875,-20.01953125,-79.1015625,0.0
191.93359375,-38.57421875,-17.08984375,-14.16015625,-10.25390625,40.0390625,0.0
191.9375,-29.296875,-29.78515625,-26.85546875,-13.18359375,21.97265625,0.0
191.94140625,-22.4609375,-27.34375,-29.296875,-19.04296875,-22.94921875,0.0
191.9453125,-26.85546875,-16.11328125,-26.85546875,-15.13671875,83.0078125,0.0
191.94921875,-49.8046875,-30.76171875,-41.015625,-15.13671875,119.62890625,0.0
191.953125,-60.05859375,-37.109375,-41.015625,-9.27734375,41.50390625,0.0
191.95703125,-54.6875,-25.87890625,-28.80859375,-15.625,24.4140625,0.0
191.9609375,-48.33984375,-25.390625,-27.83203125,-37.109375,19.53125,0.0
191.96484375,-53.7109375,-32.71484375,-30.2734375,-35.15625,41.015625,0.0
191.96875,-59.5703125,-27.34375,-25.390625,-17.08984375,56.15234375,0.0
191.97265625,-62.98828125,-30.2734375,-20.99609375,-6.34765625,30.2734375,0.0
191.9765625,-54.6875,-24.90234375,-16.11328125,-12.20703125,-5.859375,0.0
191.98046875,-56.15234375,-28.3203125,-30.76171875,-25.87890625,-45.8984375,0.0
191.984375,-60.546875,-41.015625,-33.203125,-34.66796875,-81.0546875,0.0
191.98828125,-65.4296875,-40.0390625,-30.2734375,-31.73828125,-71.77734375,0.0
191.9921875,-71.2890625,-39.55078125,-30.76171875,-26.3671875,-32.2265625,0.0
191.99609375,-61.03515625,-33.203125,-33.69140625,-35.15625,-14.16015625,0.0
192.0,-36.62109375,-30.2734375,-26.85546875,-44.921875,1.953125,0.0
