timestam,TP9,AF7,AF8,TP10,AUX,Marker
33.00390625,-37.109375,-33.203125,-35.15625,-27.34375,-45.8984375,0.0
33.0078125,-25.390625,-26.85546875,-30.76171875,-25.87890625,-66.40625,0.0
33.01171875,-17.08984375,-24.90234375,-27.83203125,-28.3203125,-65.91796875,0.0
33.015625,-18.5546875,-23.4375,-31.73828125,-29.78515625,-32.71484375,0.0
33.01953125,-35.64453125,-36.62109375,-31.25,-28.3203125,-59.08203125,0.0
33.0234375,-51.7578125,-45.8984375,-31.25,-25.390625,-107.91015625,0.0
33.02734375,-36.62109375,-26.85546875,-29.78515625,-23.4375,-108.88671875,0.0
33.03125,-14.6484375,-25.87890625,-32.2265625,-37.109375,-71.2890625,0.0
33.03515625,-18.06640625,-32.71484375,-37.59765625,-43.45703125,-83.984375,0.0
33.0390625,-28.3203125,-28.3203125,-29.78515625,-22.94921875,-132.8125,0.0
33.04296875,-30.76171875,-22.4609375,-22.94921875,-15.13671875,-67.3828125,0.0
33.046875,-31.73828125,-26.3671875,-28.80859375,-29.78515625,11.71875,0.0
33.05078125,-28.80859375,-41.50390625,-41.015625,-36.1328125,-79.1015625,0.0
33.0546875,-21.97265625,-47.36328125,-41.9921875,-38.57421875,-93.75,0.0
33.05859375,-24.4140625,-34.66796875,-29.78515625,-35.64453125,-5.859375,0.0
33.0625,-42.48046875,-33.69140625,-25.390625,-30.2734375,19.53125,0.0
33.06640625,-41.015625,-37.59765625,-33.203125,-33.69140625,-19.53125,0.0
33.0703125,-18.5546875,-31.73828125,-36.62109375,-45.8984375,-31.25,0.0
33.07421875,-10.25390625,-24.4140625,-30.76171875,-46.38671875,31.73828125,0.0
33.078125,-18.5546875,-22.4609375,-26.85546875,-29.78515625,62.98828125,0.0
33.08203125,-39.55078125,-41.50390625,-37.59765625,-29.78515625,42.96875,0.0
33.0859375,-51.26953125,-52.734375,-36.62109375,-41.9921875,-7.8125,0.0
33.08984375,-24.4140625,-29.78515625,-25.87890625,-37.109375,2.44140625,0.0
33.09375,-16.6015625,-23.4375,-29.78515625,-36.62109375,71.77734375,0.0
33.09765625,-30.76171875,-28.80859375,-29.78515625,-38.57421875,8.30078125,0.0
33.1015625,-38.0859375,-28.80859375,-28.3203125,-23.92578125,-47.8515625,0.0
33.10546875,-36.62109375,-28.3203125,-24.90234375,-25.87890625,-84.47265625,0.0
33.109375,-29.78515625,-26.85546875,-23.4375,-45.8984375,-124.51171875,0.0
33.11328125,-20.5078125,-25.87890625,-26.85546875,-49.8046875,-83.984375,0.0
33.1171875,-25.390625,-24.4140625,-28.3203125,-41.015625,-83.984375,0.0
33.12109375,-35.64453125,-23.92578125,-24.4140625,-19.53125,-60.546875,0.0
33.125,-27.34375,-25.87890625,-21.484375,-15.625,-4.39453125,0.0
33.12890625,-15.625,-32.2265625,-8.30078125,-31.73828125,-52.24609375,0.0
33.1328125,-14.6484375,-30.2734375,-11.71875,-31.73828125,-105.46875,0.0
33.13671875,-25.390625,-31.73828125,-27.34375,-32.71484375,-5.37109375,0.0
33.140625,-39.0625,-36.1328125,-24.90234375,-23.4375,-6.34765625,0.0
33.14453125,-39.55078125,-32.71484375,-23.92578125,-12.6953125,-88.8671875,0.0
33.1484375,-35.15625,-31.73828125,-29.296875,-33.69140625,52.24609375,0.0
33.15234375,-29.78515625,-35.64453125,-30.76171875,-45.8984375,85.9375,0.0
33.15625,-35.64453125,-37.109375,-31.25,-37.109375,-65.4296875,0.0
33.16015625,-49.8046875,-42.48046875,-27.83203125,-24.4140625,-44.921875,0.0
33.1640625,-56.640625,-39.55078125,-28.80859375,-22.94921875,-35.15625,0.0
33.16796875,-43.9453125,-32.2265625,-36.62109375,-36.1328125,-90.8203125,0.0
33.171875,-18.06640625,-29.296875,-19.04296875,-34.66796875,-104.98046875,0.0
33.17578125,-8.30078125,-25.390625,-8.7890625,-27.34375,-120.1171875,0.0
33.1796875,-22.4609375,-30.76171875,-26.3671875,-15.625,-148.4375,0.0
33.18359375,-25.87890625,-29.78515625,-27.34375,-2.9296875,-108.88671875,0.0
33.1875,-18.06640625,-27.34375,-24.90234375,-9.765625,-56.640625,0.0
33.19140625,-15.13671875,-33.203125,-25.87890625,-22.4609375,11.71875,0.0
33.1953125,-22.4609375,-43.9453125,-26.3671875,-28.80859375,82.51953125,0.0
33.19921875,-34.1796875,-47.36328125,-26.85546875,-23.4375,76.171875,0.0
33.203125,-38.0859375,-37.59765625,-25.390625,-12.6953125,105.46875,0.0
33.20703125,-35.15625,-32.71484375,-26.85546875,-19.53125,112.3046875,0.0
33.2109375,-22.94921875,-35.15625,-30.2734375,-35.15625,37.59765625,0.0
33.21484375,-12.6953125,-30.76171875,-22.94921875,-34.66796875,-38.0859375,0.0
33.21875,-17.08984375,-26.3671875,-14.16015625,-15.13671875,-104.98046875,0.0
33.22265625,-35.15625,-28.80859375,-26.85546875,-5.37109375,3.41796875,0.0
33.2265625,-37.59765625,-29.78515625,-26.3671875,-16.11328125,20.01953125,0.0
33.23046875,-18.5546875,-28.3203125,-23.92578125,-26.85546875,-89.84375,0.0
33.234375,-20.99609375,-32.71484375,-29.296875,-30.76171875,-76.66015625,0.0
33.23828125,-30.76171875,-36.62109375,-31.25,-27.34375,-82.03125,0.0
33.2421875,-33.69140625,-36.1328125,-25.87890625,-18.5546875,-86.42578125,0.0
33.24609375,-39.0625,-34.66796875,-12.20703125,-23.4375,-67.3828125,0.0
33.25,-28.3203125,-32.2265625,-18.06640625,-38.57421875,4.39453125,0.0
33.25390625,-29.78515625,-38.57421875,-32.71484375,-53.7109375,-1.953125,0.0
33.2578125,-39.0625,-43.9453125,-35.64453125,-44.921875,-25.87890625,0.0
33.26171875,-38.0859375,-39.55078125,-11.71875,-12.20703125,1.953125,0.0
33.265625,-36.1328125,-30.2734375,6.8359375,-10.7421875,71.77734375,0.0
33.26953125,-25.390625,-36.62109375,-21.484375,-39.0625,61.5234375,0.0
33.2734375,-17.08984375,-42.96875,-34.1796875,-43.9453125,-9.765625,0.0
33.27734375,-26.3671875,-40.0390625,-29.78515625,-35.15625,33.69140625,0.0
33.28125,-38.57421875,-34.1796875,-30.2734375,-22.94921875,5.37109375,0.0
33.28515625,-37.59765625,-33.203125,-30.2734375,-17.08984375,-60.05859375,0.0
33.2890625,-25.87890625,-36.1328125,-30.2734375,-30.76171875,-148.92578125,0.0
33.29296875,-10.25390625,-28.3203125,-31.25,-38.57421875,-100.5859375,0.0
33.296875,-12.20703125,-29.78515625,-29.78515625,-23.4375,-67.87109375,0.0
33.30078125,-33.69140625,-38.0859375,-25.87890625,-12.20703125,-139.6484375,0.0
33.3046875,-38.0859375,-34.66796875,-20.99609375,-14.16015625,-149.4140625,0.0
33.30859375,-9.27734375,-21.97265625,-1.953125,-11.23046875,-134.27734375,0.0
33.3125,-3.41796875,-24.4140625,-15.13671875,-27.83203125,-59.08203125,0.0
33.31640625,-20.5078125,-38.57421875,-32.71484375,-37.109375,1.953125,0.0
33.3203125,-33.69140625,-40.52734375,-24.90234375,-22.94921875,-37.109375,0.0
33.32421875,-40.0390625,-40.0390625,-23.4375,-21.97265625,-13.18359375,0.0
33.328125,-26.3671875,-40.52734375,-23.4375,-35.64453125,43.45703125,0.0
33.33203125,-19.04296875,-39.55078125,-23.92578125,-47.8515625,-0.48828125,0.0
33.3359375,-23.4375,-37.109375,-28.3203125,-41.50390625,-22.94921875,0.0
33.33984375,-40.0390625,-36.1328125,-32.2265625,-30.2734375,-14.6484375,0.0
33.34375,-66.89453125,-47.36328125,-33.69140625,-36.1328125,-18.5546875,0.0
33.34765625,-63.4765625,-50.78125,-30.76171875,-47.36328125,-34.66796875,0.0
33.3515625,-40.52734375,-43.45703125,-29.78515625,-48.33984375,-39.55078125,0.0
33.35546875,-32.2265625,-45.8984375,-28.80859375,-43.45703125,-71.77734375,0.0
33.359375,-36.1328125,-49.31640625,-23.92578125,-33.69140625,-86.42578125,0.0
33.36328125,-43.9453125,-54.19921875,-32.2265625,-22.94921875,-79.58984375,0.0
33.3671875,-42.96875,-52.734375,-28.3203125,-29.78515625,-41.015625,0.0
33.37109375,-31.25,-44.43359375,-26.85546875,-41.9921875,-30.2734375,0.0
33.375,-20.99609375,-50.78125,-39.0625,-43.45703125,16.11328125,0.0
33.37890625,-26.85546875,-50.29296875,-39.0625,-37.109375,92.7734375,0.0
33.3828125,-46.875,-47.8515625,-20.99609375,-31.73828125,-9.27734375,0.0
33.38671875,-49.8046875,-55.17578125,-22.4609375,-36.62109375,-103.02734375,0.0
33.390625,-31.73828125,-44.921875,-37.59765625,-48.828125,-89.35546875,0.0
33.39453125,-26.3671875,-32.2265625,-34.66796875,-51.26953125,-65.4296875,0.0
33.3984375,-40.52734375,-34.1796875,-34.66796875,-29.78515625,-32.71484375,0.0
33.40234375,-56.640625,-44.43359375,-34.66796875,-26.85546875,23.4375,0.0
33.40625,-52.24609375,-41.9921875,-31.25,-34.66796875,26.85546875,0.0
33.41015625,-42.48046875,-45.41015625,-31.73828125,-50.29296875,-42.96875,0.0
33.4140625,-41.50390625,-63.96484375,-31.73828125,-70.80078125,-52.734375,0.0
33.41796875,-28.80859375,-52.734375,-29.296875,-51.26953125,16.6015625,0.0
33.421875,-35.64453125,-44.43359375,-32.2265625,-29.78515625,-20.99609375,0.0
33.42578125,-30.76171875,-43.45703125,-34.1796875,-35.15625,-113.28125,0.0
33.4296875,-8.30078125,-34.66796875,-28.3203125,-45.41015625,-100.5859375,0.0
33.43359375,-11.71875,-34.1796875,-26.3671875,-50.78125,-52.24609375,0.0
33.4375,-26.85546875,-38.0859375,-25.390625,-35.64453125,-83.0078125,0.0
33.44140625,-38.57421875,-39.55078125,-21.97265625,-5.859375,-112.3046875,0.0
33.4453125,-45.8984375,-40.0390625,-23.92578125,-8.7890625,-137.6953125,0.0
33.44921875,-43.45703125,-37.59765625,-32.71484375,-28.3203125,-123.046875,0.0
33.453125,-33.69140625,-37.109375,-36.1328125,-31.25,-21.484375,0.0
33.45703125,-50.29296875,-58.59375,-38.57421875,-43.9453125,-12.6953125,0.0
33.4609375,-76.171875,-68.84765625,-36.1328125,-45.41015625,-21.484375,0.0
33.46484375,-60.05859375,-45.41015625,-23.4375,-18.5546875,-28.80859375,0.0
33.46875,-38.0859375,-34.1796875,-23.4375,-20.99609375,-45.41015625,0.0
33.47265625,-25.390625,-39.0625,-36.1328125,-38.57421875,-7.32421875,0.0
33.4765625,-25.87890625,-38.0859375,-35.15625,-33.203125,-1.46484375,0.0
33.48046875,-50.29296875,-38.0859375,-30.76171875,-20.99609375,-16.11328125,0.0
33.484375,-58.59375,-33.203125,-26.3671875,-11.71875,-23.92578125,0.0
33.48828125,-47.8515625,-31.25,-20.99609375,-20.5078125,-75.1953125,0.0
33.4921875,-30.2734375,-34.1796875,-23.92578125,-35.64453125,-19.04296875,0.0
33.49609375,-24.90234375,-36.1328125,-24.90234375,-33.69140625,20.01953125,0.0
33.5,-42.48046875,-43.45703125,-25.390625,-31.25,0.9765625,0.0
33.50390625,-58.59375,-57.6171875,-29.78515625,-33.203125,-36.62109375,0.0
33.5078125,-51.26953125,-50.78125,-28.80859375,-31.73828125,-38.57421875,0.0
33.51171875,-29.78515625,-41.9921875,-32.71484375,-35.15625,32.2265625,0.0
33.515625,-20.99609375,-39.0625,-31.25,-28.80859375,-20.5078125,0.0
33.51953125,-31.73828125,-31.25,-22.4609375,-9.765625,-48.828125,0.0
33.5234375,-37.109375,-31.73828125,-24.90234375,-5.859375,-9.765625,0.0
33.52734375,-29.296875,-36.1328125,-28.3203125,-20.99609375,-65.91796875,0.0
33.53125,-20.99609375,-36.62109375,-33.203125,-34.66796875,-98.14453125,0.0
33.53515625,-12.20703125,-28.3203125,-33.203125,-28.80859375,-117.67578125,0.0
33.5390625,-21.97265625,-23.4375,-27.34375,-18.06640625,-115.72265625,0.0
33.54296875,-30.76171875,-26.3671875,-27.83203125,-7.32421875,-64.94140625,0.0
33.546875,-25.87890625,-34.1796875,-18.5546875,-12.6953125,-87.890625,0.0
33.55078125,-14.6484375,-41.015625,-8.7890625,-27.34375,-92.28515625,0.0
33.5546875,-9.27734375,-32.2265625,-23.92578125,-29.78515625,32.71484375,0.0
33.55859375,-19.04296875,-32.71484375,-34.1796875,-22.94921875,100.5859375,0.0
33.5625,-37.59765625,-43.9453125,-32.71484375,-16.11328125,34.1796875,0.0
33.56640625,-50.78125,-43.45703125,-31.25,-28.3203125,38.0859375,0.0
33.5703125,-36.1328125,-34.66796875,-30.2734375,-41.015625,38.0859375,0.0
33.57421875,-32.2265625,-38.0859375,-31.73828125,-43.45703125,16.11328125,0.0
33.578125,-41.50390625,-48.33984375,-30.2734375,-41.015625,6.34765625,0.0
33.58203125,-42.48046875,-42.96875,-25.87890625,-28.80859375,-4.8828125,0.0
33.5859375,-56.15234375,-42.48046875,-30.76171875,-39.55078125,-29.296875,0.0
33.58984375,-49.31640625,-44.43359375,-35.15625,-51.26953125,-31.73828125,0.0
33.59375,-34.66796875,-37.109375,-32.71484375,-46.875,39.0625,0.0
33.59765625,-40.0390625,-39.55078125,-31.25,-39.55078125,49.31640625,0.0
33.6015625,-50.29296875,-45.8984375,-29.296875,-28.3203125,29.296875,0.0
33.60546875,-60.546875,-55.6640625,-36.1328125,-30.2734375,-25.87890625,0.0
33.609375,-58.59375,-63.4765625,-40.0390625,-47.36328125,-71.77734375,0.0
33.61328125,-38.0859375,-48.33984375,-32.2265625,-47.8515625,29.78515625,0.0
33.6171875,-32.71484375,-36.1328125,-28.80859375,-40.0390625,2.9296875,0.0
33.62109375,-49.8046875,-35.15625,-29.296875,-33.203125,-49.8046875,0.0
33.625,-51.26953125,-35.64453125,-27.83203125,-34.1796875,-0.48828125,0.0
33.62890625,-35.64453125,-31.73828125,-27.83203125,-51.26953125,7.32421875,0.0
33.6328125,-15.625,-27.83203125,-28.80859375,-57.12890625,-27.83203125,0.0
33.63671875,-40.52734375,-50.29296875,-46.875,-71.2890625,-23.92578125,0.0
33.640625,-92.28515625,-89.35546875,-70.3125,-93.75,-24.4140625,0.0
33.64453125,-73.2421875,-65.91796875,-46.875,-61.03515625,-53.22265625,0.0
33.6484375,-39.0625,-29.78515625,-23.92578125,-40.0390625,-89.84375,0.0
33.65234375,-26.85546875,-27.34375,-27.83203125,-50.29296875,-77.1484375,0.0
33.65625,-18.06640625,-26.3671875,-29.296875,-36.62109375,-34.66796875,0.0
33.66015625,-36.1328125,-25.87890625,-25.390625,-23.92578125,-15.625,0.0
33.6640625,-53.22265625,-27.34375,-27.34375,-23.92578125,-53.7109375,0.0
33.66796875,-41.9921875,-28.3203125,-29.296875,-32.71484375,-103.515625,0.0
33.671875,-14.16015625,-27.83203125,-26.3671875,-37.59765625,-27.83203125,0.0
33.67578125,-13.671875,-27.83203125,-28.80859375,-32.71484375,30.2734375,0.0
33.6796875,-50.29296875,-35.15625,-32.71484375,-30.2734375,-5.37109375,0.0
33.68359375,-67.87109375,-54.19921875,-38.0859375,-35.15625,-13.671875,0.0
33.6875,-46.875,-40.52734375,-32.71484375,-29.78515625,9.765625,0.0
33.69140625,-24.4140625,-24.90234375,-29.296875,-33.69140625,26.85546875,0.0
33.6953125,-32.71484375,-36.1328125,-33.203125,-43.9453125,37.59765625,0.0
33.69921875,-54.6875,-43.9453125,-34.1796875,-39.0625,-1.46484375,0.0
33.703125,-57.12890625,-40.0390625,-35.15625,-24.4140625,-22.4609375,0.0
33.70703125,-43.9453125,-37.59765625,-36.62109375,-27.34375,-25.390625,0.0
33.7109375,-29.296875,-30.76171875,-30.2734375,-40.0390625,-112.79296875,0.0
33.71484375,-34.1796875,-33.69140625,-30.76171875,-47.8515625,-100.5859375,0.0
33.71875,-43.45703125,-32.2265625,-35.15625,-40.52734375,-8.7890625,0.0
33.72265625,-50.78125,-26.85546875,-32.2265625,-26.85546875,47.36328125,0.0
33.7265625,-55.17578125,-34.1796875,-32.71484375,-41.50390625,35.15625,0.0
33.73046875,-33.69140625,-34.1796875,-38.0859375,-56.15234375,3.90625,0.0
33.734375,-14.6484375,-30.76171875,-41.015625,-52.734375,57.6171875,0.0
33.73828125,-33.203125,-35.15625,-32.71484375,-42.96875,28.3203125,0.0
33.7421875,-45.41015625,-31.25,-23.4375,-27.83203125,-63.4765625,0.0
33.74609375,-42.48046875,-28.3203125,-25.87890625,-28.3203125,-42.48046875,0.0
33.75,-26.3671875,-24.90234375,-29.78515625,-36.62109375,-6.8359375,0.0
33.75390625,-11.71875,-26.85546875,-33.203125,-35.15625,-49.31640625,0.0
33.7578125,-15.625,-31.25,-28.3203125,-22.94921875,-99.12109375,0.0
33.76171875,-25.87890625,-26.85546875,-17.08984375,-9.27734375,-131.34765625,0.0
33.765625,-38.57421875,-28.3203125,-26.85546875,-20.99609375,-139.6484375,0.0
33.76953125,-33.203125,-31.73828125,-30.76171875,-38.57421875,-65.91796875,0.0
33.7734375,-21.484375,-33.203125,-24.90234375,-43.45703125,-38.57421875,0.0
33.77734375,-31.73828125,-35.15625,-26.85546875,-38.57421875,-0.9765625,0.0
33.78125,-54.19921875,-36.62109375,-25.87890625,-28.3203125,128.41796875,0.0
33.78515625,-58.10546875,-38.0859375,-26.85546875,-29.78515625,75.68359375,0.0
33.7890625,-39.0625,-37.109375,-31.73828125,-37.59765625,-61.03515625,0.0
33.79296875,-35.15625,-31.73828125,-33.69140625,-41.9921875,-49.31640625,0.0
33.796875,-42.48046875,-31.73828125,-35.15625,-40.0390625,-41.50390625,0.0
33.80078125,-50.78125,-37.59765625,-37.59765625,-33.69140625,-55.6640625,0.0
33.8046875,-60.546875,-38.57421875,-36.62109375,-31.25,-89.84375,0.0
33.80859375,-51.7578125,-43.45703125,-42.96875,-41.50390625,-167.96875,0.0
33.8125,-27.34375,-38.0859375,-44.921875,-46.875,-237.3046875,0.0
33.81640625,-24.90234375,-32.2265625,-40.0390625,-41.015625,-247.55859375,0.0
33.8203125,-39.0625,-32.2265625,-33.69140625,-27.34375,-93.26171875,0.0
33.82421875,-44.43359375,-32.71484375,-30.2734375,-22.94921875,-10.7421875,0.0
33.828125,-36.1328125,-36.62109375,-32.2265625,-28.80859375,-43.9453125,0.0
33.83203125,-14.16015625,-34.1796875,-36.62109375,-27.83203125,-36.62109375,0.0
33.8359375,-14.6484375,-30.2734375,-40.52734375,-38.0859375,30.2734375,0.0
33.83984375,-38.0859375,-30.2734375,-41.50390625,-39.0625,1.953125,0.0
33.84375,-44.921875,-32.71484375,-42.96875,-29.78515625,-58.59375,0.0
33.84765625,-41.015625,-29.78515625,-41.015625,-42.96875,-23.92578125,0.0
33.8515625,-41.9921875,-26.3671875,-42.48046875,-55.17578125,-2.9296875,0.0
33.85546875,-42.96875,-28.80859375,-42.96875,-60.05859375,-8.7890625,0.0
33.859375,-48.828125,-30.2734375,-38.0859375,-48.33984375,-74.21875,0.0
33.86328125,-57.6171875,-28.3203125,-36.1328125,-35.15625,-57.12890625,0.0
33.8671875,-54.6875,-25.87890625,-38.0859375,-43.45703125,-33.203125,0.0
33.87109375,-40.0390625,-29.78515625,-39.55078125,-51.26953125,-48.828125,0.0
33.875,-24.90234375,-28.80859375,-37.109375,-46.38671875,4.8828125,0.0
33.87890625,-28.3203125,-24.4140625,-31.73828125,-33.203125,18.06640625,0.0
33.8828125,-51.26953125,-32.71484375,-34.1796875,-31.25,-15.13671875,0.0
33.88671875,-54.6875,-36.62109375,-40.0390625,-36.1328125,4.39453125,0.0
33.890625,-35.64453125,-35.64453125,-40.52734375,-45.8984375,1.953125,0.0
33.89453125,-20.01953125,-37.109375,-41.9921875,-45.41015625,-56.15234375,0.0
33.8984375,-27.83203125,-35.15625,-45.8984375,-32.2265625,-41.9921875,0.0
33.90234375,-45.41015625,-31.25,-44.43359375,-37.109375,-24.4140625,0.0
33.90625,-50.29296875,-27.83203125,-44.43359375,-51.7578125,-9.27734375,0.0
33.91015625,-36.1328125,-25.87890625,-46.875,-59.08203125,43.9453125,0.0
33.9140625,-27.83203125,-28.3203125,-43.9453125,-59.5703125,19.53125,0.0
33.91796875,-42.48046875,-29.296875,-42.96875,-55.17578125,-1.46484375,0.0
33.921875,-47.36328125,-24.90234375,-38.0859375,-36.1328125,-12.6953125,0.0
33.92578125,-40.52734375,-20.5078125,-25.390625,-25.87890625,-49.31640625,0.0
33.9296875,-40.52734375,-25.87890625,-33.203125,-51.26953125,5.37109375,0.0
33.93359375,-32.71484375,-28.80859375,-41.50390625,-63.4765625,-40.52734375,0.0
33.9375,-39.0625,-28.3203125,-41.50390625,-55.6640625,-98.6328125,0.0
33.94140625,-47.8515625,-26.85546875,-40.52734375,-44.921875,-21.97265625,0.0
33.9453125,-40.52734375,-23.4375,-41.50390625,-43.45703125,-33.69140625,0.0
33.94921875,-31.25,-27.34375,-38.0859375,-53.22265625,-32.2265625,0.0
33.953125,-25.87890625,-24.4140625,-36.1328125,-59.08203125,-6.34765625,0.0
33.95703125,-17.578125,-19.53125,-38.0859375,-51.7578125,-35.15625,0.0
33.9609375,-31.73828125,-19.04296875,-38.57421875,-41.9921875,-110.3515625,0.0
33.96484375,-50.78125,-24.4140625,-40.52734375,-39.55078125,-114.2578125,0.0
33.96875,-26.85546875,-16.6015625,-26.85546875,-36.1328125,-61.5234375,0.0
33.97265625,-18.5546875,-18.06640625,-32.71484375,-56.15234375,-99.609375,0.0
33.9765625,-33.69140625,-24.4140625,-46.38671875,-60.05859375,-103.515625,0.0
33.98046875,-50.78125,-23.4375,-39.0625,-41.9921875,-20.5078125,0.0
33.984375,-61.5234375,-27.34375,-37.59765625,-43.9453125,15.13671875,0.0
33.98828125,-53.7109375,-30.2734375,-40.52734375,-56.640625,-7.32421875,0.0
33.9921875,-46.875,-36.1328125,-42.96875,-66.89453125,-45.41015625,0.0
33.99609375,-41.9921875,-29.78515625,-41.50390625,-60.05859375,-38.57421875,0.0
34.0,-51.26953125,-29.296875,-41.50390625,-47.8515625,0.48828125,0.0
34.00390625,-57.6171875,-28.3203125,-40.0390625,-35.64453125,-48.828125,0.0
34.0078125,-44.43359375,-25.87890625,-37.109375,-36.62109375,-78.125,0.0
34.01171875,-26.85546875,-19.04296875,-31.25,-44.921875,-96.19140625,0.0
34.015625,-25.390625,-11.71875,-25.87890625,-41.9921875,-116.2109375,0.0
34.01953125,-45.8984375,-23.92578125,-35.64453125,-41.015625,-70.3125,0.0
34.0234375,-46.875,-27.83203125,-38.0859375,-32.2265625,-64.94140625,0.0
34.02734375,-41.9921875,-21.97265625,-34.66796875,-38.57421875,-24.90234375,0.0
34.03125,-36.1328125,-23.92578125,-33.203125,-55.17578125,-57.12890625,0.0
34.03515625,-21.97265625,-24.90234375,-31.25,-55.6640625,-123.53515625,0.0
34.0390625,-29.78515625,-25.87890625,-33.69140625,-42.48046875,-108.3984375,0.0
34.04296875,-41.015625,-23.92578125,-34.66796875,-26.85546875,-76.171875,0.0
34.046875,-39.0625,-15.625,-34.66796875,-30.76171875,-24.90234375,0.0
34.05078125,-32.2265625,-16.11328125,-37.109375,-50.29296875,-9.27734375,0.0
34.0546875,-25.390625,-16.6015625,-34.66796875,-46.875,-21.484375,0.0
34.05859375,-22.94921875,-17.578125,-29.78515625,-26.85546875,-38.57421875,0.0
34.0625,-45.41015625,-26.3671875,-32.71484375,-22.94921875,-10.25390625,0.0
34.06640625,-49.31640625,-28.3203125,-34.66796875,-23.92578125,67.87109375,0.0
34.0703125,-29.296875,-23.92578125,-31.25,-34.66796875,33.203125,0.0
34.07421875,-22.4609375,-20.5078125,-30.2734375,-39.55078125,14.16015625,0.0
34.078125,-30.76171875,-21.97265625,-35.15625,-29.78515625,46.38671875,0.0
34.08203125,-42.96875,-25.87890625,-32.2265625,-20.99609375,35.64453125,0.0
34.0859375,-38.57421875,-25.390625,-32.2265625,-25.87890625,50.78125,0.0
34.08984375,-27.34375,-22.4609375,-37.59765625,-48.33984375,7.8125,0.0
34.09375,-19.04296875,-24.90234375,-41.015625,-56.640625,-26.3671875,0.0
34.09765625,-17.08984375,-21.484375,-36.1328125,-40.0390625,-18.5546875,0.0
34.1015625,-29.78515625,-18.5546875,-30.76171875,-21.97265625,-0.9765625,0.0
34.10546875,-39.55078125,-26.3671875,-32.2265625,-31.25,9.27734375,0.0
34.109375,-33.69140625,-32.71484375,-41.50390625,-47.8515625,42.48046875,0.0
34.11328125,-20.5078125,-29.78515625,-46.875,-46.38671875,1.953125,0.0
34.1171875,-22.4609375,-36.1328125,-47.8515625,-41.015625,-41.50390625,0.0
34.12109375,-30.76171875,-36.1328125,-44.921875,-30.76171875,-5.37109375,0.0
34.125,-36.1328125,-22.4609375,-41.50390625,-27.34375,-68.359375,0.0
34.12890625,-31.73828125,-23.92578125,-47.8515625,-42.96875,-136.71875,0.0
34.1328125,-23.4375,-35.15625,-55.17578125,-53.7109375,-27.34375,0.0
34.13671875,-18.06640625,-25.87890625,-49.8046875,-40.52734375,38.0859375,0.0
34.140625,-28.80859375,-15.625,-44.43359375,-30.76171875,16.11328125,0.0
34.14453125,-41.015625,-22.94921875,-47.8515625,-32.71484375,-12.20703125,0.0
34.1484375,-27.34375,-21.97265625,-48.828125,-39.0625,-134.765625,0.0
34.15234375,-8.7890625,-16.11328125,-43.9453125,-42.96875,-103.02734375,0.0
34.15625,-11.23046875,-16.6015625,-44.921875,-43.45703125,-41.50390625,0.0
34.16015625,-28.3203125,-22.94921875,-49.8046875,-41.9921875,-39.55078125,0.0
34.1640625,-41.9921875,-29.78515625,-50.29296875,-38.0859375,-46.875,0.0
34.16796875,-26.85546875,-18.5546875,-43.45703125,-36.1328125,-54.19921875,0.0
34.171875,-9.765625,-15.13671875,-45.41015625,-45.41015625,-13.671875,0.0
34.17578125,-0.9765625,-21.484375,-48.828125,-40.52734375,-15.625,0.0
34.1796875,-12.6953125,-21.97265625,-41.50390625,-24.90234375,15.625,0.0
34.18359375,-32.2265625,-23.92578125,-37.59765625,-19.04296875,70.3125,0.0
34.1875,-24.90234375,-22.4609375,-40.52734375,-26.3671875,14.16015625,0.0
34.19140625,-20.01953125,-25.87890625,-42.48046875,-47.36328125,-60.05859375,0.0
34.1953125,-18.5546875,-28.3203125,-33.69140625,-46.875,-46.875,0.0
34.19921875,-16.11328125,-24.90234375,-26.85546875,-20.5078125,-20.5078125,0.0
34.203125,-27.34375,-21.97265625,-30.2734375,-15.13671875,-20.5078125,0.0
34.20703125,-33.203125,-28.3203125,-33.69140625,-29.78515625,-20.5078125,0.0
34.2109375,-19.53125,-30.2734375,-32.71484375,-40.52734375,7.8125,0.0
34.21484375,-9.27734375,-23.92578125,-35.15625,-37.59765625,18.5546875,0.0
34.21875,-16.6015625,-25.87890625,-33.69140625,-29.296875,1.953125,0.0
34.22265625,-27.83203125,-23.4375,-29.78515625,-19.53125,9.27734375,0.0
34.2265625,-29.296875,-21.97265625,-32.71484375,-28.80859375,28.3203125,0.0
34.23046875,-4.8828125,-18.5546875,-37.59765625,-45.8984375,50.78125,0.0
34.234375,8.7890625,-23.92578125,-43.45703125,-48.828125,-5.37109375,0.0
34.23828125,-5.37109375,-26.3671875,-44.921875,-39.55078125,-58.59375,0.0
34.2421875,-20.01953125,-20.99609375,-42.48046875,-36.1328125,-38.0859375,0.0
34.24609375,-25.87890625,-27.34375,-41.015625,-41.9921875,-46.875,0.0
34.25,-24.4140625,-35.15625,-46.38671875,-54.6875,-98.14453125,0.0
34.25390625,-36.62109375,-45.8984375,-54.19921875,-71.77734375,-69.82421875,0.0
34.2578125,-41.9921875,-40.0390625,-48.828125,-50.78125,-52.24609375,0.0
34.26171875,-45.8984375,-24.90234375,-35.64453125,-20.99609375,-85.9375,0.0
34.265625,-48.33984375,-23.92578125,-28.3203125,-20.99609375,-44.43359375,0.0
34.26953125,-33.203125,-27.83203125,-34.1796875,-36.62109375,-14.6484375,0.0
34.2734375,-14.16015625,-24.90234375,-35.15625,-39.55078125,20.01953125,0.0
34.27734375,-11.71875,-20.01953125,-27.34375,-25.87890625,46.38671875,0.0
34.28125,-25.390625,-22.4609375,-26.85546875,-14.16015625,21.97265625,0.0
34.28515625,-32.2265625,-31.25,-30.2734375,-15.13671875,2.44140625,0.0
34.2890625,-22.94921875,-34.66796875,-34.1796875,-27.83203125,-71.77734375,0.0
34.29296875,-14.16015625,-34.66796875,-45.41015625,-41.9921875,-95.21484375,0.0
34.296875,-11.71875,-22.4609375,-20.01953125,-24.90234375,6.34765625,0.0
34.30078125,-23.4375,-15.13671875,-4.8828125,-4.8828125,-2.9296875,0.0
34.3046875,-48.33984375,-30.76171875,-34.66796875,-20.01953125,-52.24609375,0.0
34.30859375,-41.50390625,-31.73828125,-35.15625,-29.296875,-53.7109375,0.0
34.3125,-22.4609375,-26.3671875,-27.83203125,-40.0390625,-66.89453125,0.0
34.31640625,-34.66796875,-33.69140625,-35.15625,-45.8984375,-68.84765625,0.0
34.3203125,-54.6875,-43.45703125,-39.0625,-32.71484375,-95.703125,0.0
34.32421875,-58.10546875,-41.015625,-36.1328125,-27.83203125,-95.703125,0.0
34.328125,-39.55078125,-31.25,-29.78515625,-36.62109375,-25.390625,0.0
34.33203125,-25.390625,-33.69140625,-42.48046875,-50.78125,-27.83203125,0.0
34.3359375,-28.3203125,-38.57421875,-56.15234375,-47.36328125,-57.6171875,0.0
34.33984375,-38.0859375,-35.64453125,-44.921875,-26.85546875,-70.3125,0.0
34.34375,-43.45703125,-35.64453125,-28.3203125,-20.5078125,-52.734375,0.0
34.34765625,-38.57421875,-40.52734375,-35.64453125,-29.296875,21.484375,0.0
34.3515625,-24.90234375,-37.109375,-44.921875,-33.69140625,-8.7890625,0.0
34.35546875,-29.78515625,-39.55078125,-44.43359375,-40.0390625,-23.4375,0.0
34.359375,-37.59765625,-43.45703125,-40.0390625,-28.3203125,-65.4296875,0.0
34.36328125,-39.0625,-37.109375,-37.109375,-12.6953125,-67.3828125,0.0
34.3671875,-41.50390625,-34.1796875,-38.57421875,-25.390625,-112.79296875,0.0
34.37109375,-28.3203125,-38.57421875,-37.109375,-43.9453125,-159.1796875,0.0
34.375,-12.6953125,-38.0859375,-31.25,-44.43359375,-97.16796875,0.0
34.37890625,-14.16015625,-33.69140625,-31.73828125,-29.296875,-99.12109375,0.0
34.3828125,-27.83203125,-33.69140625,-39.55078125,-19.04296875,-92.7734375,0.0
34.38671875,-36.1328125,-36.1328125,-26.3671875,-30.2734375,-45.8984375,0.0
34.390625,-27.83203125,-39.55078125,-20.01953125,-47.8515625,-27.34375,0.0
34.39453125,-14.6484375,-35.64453125,-39.55078125,-48.828125,-88.8671875,0.0
34.3984375,-24.90234375,-29.296875,-40.0390625,-37.59765625,-42.48046875,0.0
34.40234375,-45.8984375,-32.2265625,-35.15625,-29.78515625,21.484375,0.0
34.40625,-41.50390625,-31.73828125,-28.3203125,-31.73828125,-37.59765625,0.0
34.41015625,-27.34375,-24.90234375,-26.85546875,-42.48046875,-80.56640625,0.0
34.4140625,-29.78515625,-28.3203125,-31.25,-53.22265625,-50.29296875,0.0
34.41796875,-39.55078125,-32.2265625,-30.2734375,-46.875,-37.59765625,0.0
34.421875,-51.26953125,-33.203125,-27.34375,-35.15625,-30.2734375,0.0
34.42578125,-53.22265625,-36.62109375,-35.15625,-36.1328125,-31.73828125,0.0
34.4296875,-30.2734375,-32.71484375,-27.34375,-38.0859375,-46.38671875,0.0
34.43359375,-17.578125,-29.296875,-6.34765625,-37.109375,-24.4140625,0.0
34.4375,-28.3203125,-30.2734375,-20.01953125,-30.76171875,-19.53125,0.0
34.44140625,-40.0390625,-32.2265625,-27.34375,-20.5078125,-29.78515625,0.0
34.4453125,-47.36328125,-36.62109375,-20.01953125,-16.6015625,-88.8671875,0.0
34.44921875,-32.71484375,-31.73828125,-19.04296875,-22.4609375,-87.890625,0.0
34.453125,-20.5078125,-29.78515625,-25.390625,-35.15625,-53.7109375,0.0
34.45703125,-24.4140625,-36.1328125,-29.296875,-37.59765625,-77.63671875,0.0
34.4609375,-33.203125,-35.64453125,-25.87890625,-32.2265625,-74.70703125,0.0
34.46484375,-41.015625,-31.25,-21.97265625,-26.85546875,-9.765625,0.0
34.46875,-30.76171875,-31.25,-23.92578125,-31.73828125,-20.5078125,0.0
34.47265625,-17.578125,-35.64453125,-38.57421875,-47.36328125,-48.33984375,0.0
34.4765625,-13.18359375,-30.2734375,-18.5546875,-36.62109375,-6.8359375,0.0
34.48046875,-21.484375,-26.3671875,0.0,-15.13671875,22.4609375,0.0
34.484375,-37.109375,-28.80859375,-32.2265625,-19.04296875,117.1875,0.0
34.48828125,-32.71484375,-29.296875,-43.9453125,-37.59765625,86.9140625,0.0
34.4921875,-23.92578125,-34.1796875,-40.0390625,-51.26953125,-39.55078125,0.0
34.49609375,-26.85546875,-36.62109375,-39.0625,-46.38671875,-91.796875,0.0
34.5,-35.15625,-33.203125,-38.57421875,-29.78515625,-80.56640625,0.0
34.50390625,-49.31640625,-34.66796875,-38.57421875,-26.3671875,-39.55078125,0.0
34.5078125,-50.29296875,-39.0625,-39.0625,-44.43359375,-19.04296875,0.0
34.51171875,-35.64453125,-37.109375,-41.015625,-54.6875,-10.7421875,0.0
34.515625,-34.1796875,-36.1328125,-42.48046875,-53.22265625,-82.51953125,0.0
34.51953125,-42.96875,-41.50390625,-40.0390625,-43.45703125,-109.86328125,0.0
34.5234375,-49.8046875,-46.38671875,-41.50390625,-42.48046875,-109.375,0.0
34.52734375,-50.78125,-36.62109375,-46.875,-44.921875,-86.42578125,0.0
34.53125,-40.0390625,-32.71484375,-46.875,-52.734375,-36.62109375,0.0
34.53515625,-34.66796875,-35.15625,-43.45703125,-54.6875,11.71875,0.0
34.5390625,-45.8984375,-34.1796875,-41.015625,-39.55078125,69.82421875,0.0
34.54296875,-55.6640625,-31.73828125,-36.62109375,-31.25,75.68359375,0.0
34.546875,-42.48046875,-21.484375,-30.2734375,-29.78515625,-5.859375,0.0
34.55078125,-34.66796875,-31.73828125,-43.45703125,-45.41015625,-83.0078125,0.0
34.5546875,-39.55078125,-38.57421875,-49.31640625,-56.15234375,-98.14453125,0.0
34.55859375,-38.57421875,-22.4609375,-41.015625,-41.015625,-87.40234375,0.0
34.5625,-51.26953125,-24.4140625,-41.9921875,-36.1328125,-56.640625,0.0
34.56640625,-49.8046875,-28.80859375,-44.43359375,-45.41015625,-73.2421875,0.0
34.5703125,-33.69140625,-27.83203125,-49.31640625,-55.17578125,-60.546875,0.0
34.57421875,-18.06640625,-28.80859375,-48.33984375,-54.19921875,-25.390625,0.0
34.578125,-23.4375,-29.296875,-42.48046875,-45.41015625,-17.578125,0.0
34.58203125,-46.38671875,-33.69140625,-39.55078125,-36.1328125,-17.08984375,0.0
34.5859375,-51.7578125,-34.66796875,-42.96875,-38.0859375,-69.3359375,0.0
34.58984375,-42.48046875,-34.1796875,-44.921875,-53.22265625,-65.91796875,0.0
34.59375,-30.76171875,-35.15625,-47.8515625,-55.17578125,-13.18359375,0.0
34.59765625,-36.1328125,-38.57421875,-50.29296875,-45.41015625,-33.203125,0.0
34.6015625,-47.8515625,-41.50390625,-47.8515625,-37.109375,-80.56640625,0.0
34.60546875,-49.31640625,-39.55078125,-45.8984375,-36.62109375,-46.875,0.0
34.609375,-41.50390625,-40.0390625,-45.41015625,-48.828125,-19.04296875,0.0
34.61328125,-29.296875,-38.57421875,-46.38671875,-60.546875,-1.953125,0.0
34.6171875,-25.87890625,-37.59765625,-48.828125,-50.78125,-3.90625,0.0
34.62109375,-37.59765625,-31.73828125,-43.45703125,-34.1796875,-44.43359375,0.0
34.625,-50.29296875,-33.203125,-37.109375,-36.1328125,-75.1953125,0.0
34.62890625,-62.01171875,-54.19921875,-41.50390625,-69.82421875,-57.12890625,0.0
34.6328125,-46.38671875,-45.8984375,-43.9453125,-75.1953125,-20.01953125,0.0
34.63671875,-17.578125,-22.4609375,-41.9921875,-49.8046875,-38.57421875,0.0
34.640625,-28.80859375,-22.94921875,-39.0625,-36.62109375,-61.5234375,0.0
34.64453125,-44.43359375,-31.25,-39.0625,-29.296875,31.73828125,0.0
34.6484375,-31.73828125,-27.83203125,-38.57421875,-33.203125,102.05078125,0.0
34.65234375,-14.6484375,-26.3671875,-36.1328125,-40.52734375,-27.83203125,0.0
34.65625,-14.16015625,-29.78515625,-35.15625,-38.0859375,-98.14453125,0.0
34.66015625,-30.2734375,-31.73828125,-32.2265625,-29.78515625,-19.04296875,0.0
34.6640625,-40.0390625,-35.64453125,-28.80859375,-24.90234375,65.4296875,0.0
34.66796875,-27.83203125,-33.69140625,-31.25,-26.3671875,84.9609375,0.0
34.671875,-40.0390625,-47.8515625,-51.7578125,-62.01171875,4.39453125,0.0
34.67578125,-59.08203125,-62.5,-60.546875,-79.1015625,2.44140625,0.0
34.6796875,-47.8515625,-38.57421875,-36.1328125,-41.9921875,21.484375,0.0
34.68359375,-47.36328125,-21.97265625,-33.69140625,-23.4375,-10.25390625,0.0
34.6875,-44.43359375,-26.85546875,-38.0859375,-30.2734375,-50.78125,0.0
34.69140625,-25.87890625,-30.76171875,-33.203125,-37.109375,-122.55859375,0.0
34.6953125,-12.20703125,-26.3671875,-28.80859375,-37.109375,-81.0546875,0.0
34.69921875,-20.99609375,-22.94921875,-25.390625,-29.296875,-11.71875,0.0
34.703125,-38.0859375,-25.390625,-24.90234375,-24.4140625,47.36328125,0.0
34.70703125,-39.0625,-26.3671875,-32.71484375,-33.203125,62.98828125,0.0
34.7109375,-21.97265625,-21.97265625,-33.69140625,-35.64453125,42.48046875,0.0
34.71484375,-17.578125,-32.2265625,-37.109375,-44.43359375,-8.7890625,0.0
34.71875,-50.78125,-55.6640625,-55.17578125,-54.6875,-44.921875,0.0
34.72265625,-49.31640625,-41.50390625,-42.96875,-28.3203125,8.7890625,0.0
34.7265625,-32.71484375,-29.78515625,-28.3203125,-19.04296875,-49.31640625,0.0
34.73046875,-25.390625,-36.1328125,-31.25,-35.64453125,-214.84375,0.0
34.734375,-13.18359375,-36.1328125,-27.34375,-34.1796875,-192.3828125,0.0
34.73828125,-20.99609375,-36.1328125,-22.4609375,-25.87890625,-47.8515625,0.0
34.7421875,-31.25,-30.76171875,-22.94921875,-13.18359375,-15.625,0.0
34.74609375,-43.45703125,-37.109375,-28.3203125,-23.4375,-13.671875,0.0
34.75,-39.55078125,-38.0859375,-26.85546875,-42.96875,-5.859375,0.0
34.75390625,-16.6015625,-30.76171875,-23.4375,-42.48046875,-175.29296875,0.0
34.7578125,-14.6484375,-27.34375,-14.6484375,-27.34375,-212.890625,0.0
34.76171875,-54.6875,-43.9453125,-20.01953125,-29.78515625,-18.5546875,0.0
34.765625,-68.359375,-59.5703125,-29.78515625,-46.38671875,2.9296875,0.0
34.76953125,-29.78515625,-36.1328125,-19.04296875,-35.15625,-45.8984375,0.0
34.7734375,-12.20703125,-24.90234375,-17.578125,-34.66796875,-94.7265625,0.0
34.77734375,-16.6015625,-27.34375,-11.23046875,-28.3203125,-29.78515625,0.0
34.78125,-30.76171875,-27.34375,-9.27734375,-14.6484375,-8.30078125,0.0
34.78515625,-36.1328125,-29.296875,-12.6953125,-13.18359375,-0.9765625,0.0
34.7890625,-28.80859375,-37.59765625,-18.06640625,-27.34375,-6.34765625,0.0
34.79296875,-18.5546875,-37.59765625,-20.99609375,-38.0859375,27.34375,0.0
34.796875,-19.53125,-31.25,-20.01953125,-32.71484375,86.42578125,0.0
34.80078125,-30.2734375,-36.1328125,-19.53125,-19.53125,34.66796875,0.0
34.8046875,-41.9921875,-41.9921875,-15.625,-22.4609375,-15.625,0.0
34.80859375,-54.6875,-63.4765625,-22.94921875,-52.24609375,-59.08203125,0.0
34.8125,-29.296875,-55.17578125,-17.578125,-53.22265625,-111.328125,0.0
34.81640625,-12.6953125,-36.1328125,-10.25390625,-26.85546875,-91.796875,0.0
34.8203125,-33.69140625,-41.015625,-14.16015625,-15.13671875,7.32421875,0.0
34.82421875,-41.50390625,-35.15625,-13.671875,-12.20703125,6.8359375,0.0
34.828125,-32.2265625,-30.2734375,-15.625,-21.97265625,-50.29296875,0.0
34.83203125,-29.296875,-34.66796875,-20.5078125,-40.0390625,-86.9140625,0.0
34.8359375,-31.25,-34.66796875,-19.53125,-38.57421875,-122.55859375,0.0
34.83984375,-35.15625,-34.1796875,-11.71875,-25.390625,-104.4921875,0.0
34.84375,-45.41015625,-36.62109375,-7.32421875,-18.5546875,-104.00390625,0.0
34.84765625,-46.875,-36.62109375,-13.671875,-29.78515625,-89.35546875,0.0
34.8515625,-42.48046875,-46.875,-18.5546875,-53.7109375,-9.765625,0.0
34.85546875,-35.15625,-50.29296875,-14.16015625,-54.19921875,17.08984375,0.0
34.859375,-35.15625,-38.0859375,-19.04296875,-32.71484375,22.4609375,0.0
34.86328125,-42.48046875,-36.62109375,-21.484375,-26.3671875,32.71484375,0.0
34.8671875,-43.9453125,-41.50390625,-16.6015625,-36.62109375,-86.9140625,0.0
34.87109375,-33.203125,-37.109375,-16.6015625,-45.41015625,-97.65625,0.0
34.875,-20.5078125,-28.3203125,-20.99609375,-42.96875,46.38671875,0.0
34.87890625,-24.90234375,-25.87890625,-19.04296875,-29.78515625,76.66015625,0.0
34.8828125,-38.57421875,-31.25,-11.23046875,-20.5078125,-4.39453125,0.0
34.88671875,-42.48046875,-33.203125,-12.20703125,-25.87890625,-36.62109375,0.0
34.890625,-28.80859375,-32.71484375,-19.53125,-33.203125,-30.76171875,0.0
34.89453125,-20.5078125,-35.15625,-18.5546875,-33.69140625,-27.83203125,0.0
34.8984375,-27.34375,-30.76171875,-13.18359375,-25.390625,-14.6484375,0.0
34.90234375,-36.1328125,-28.3203125,-14.16015625,-15.625,-81.54296875,0.0
34.90625,-40.0390625,-32.2265625,-20.99609375,-21.484375,-62.98828125,0.0
34.91015625,-24.90234375,-30.76171875,-19.04296875,-29.78515625,16.6015625,0.0
34.9140625,0.0,-20.5078125,-5.37109375,-20.5078125,-28.3203125,0.0
34.91796875,-10.7421875,-25.87890625,-13.18359375,-17.578125,-66.89453125,0.0
34.921875,-38.0859375,-32.71484375,-25.390625,-20.99609375,-76.66015625,0.0
34.92578125,-40.52734375,-35.64453125,-32.2265625,-28.3203125,-98.14453125,0.0
34.9296875,-24.4140625,-32.2265625,-37.109375,-35.64453125,-79.58984375,0.0
34.93359375,-15.13671875,-30.76171875,-38.0859375,-37.109375,-35.15625,0.0
34.9375,-26.3671875,-31.73828125,-35.15625,-32.2265625,5.859375,0.0
34.94140625,-45.41015625,-29.78515625,-35.64453125,-24.4140625,-32.71484375,0.0
34.9453125,-48.828125,-31.73828125,-41.015625,-27.34375,-53.7109375,0.0
34.94921875,-31.25,-26.85546875,-40.52734375,-31.73828125,-31.25,0.0
34.953125,-13.18359375,-20.99609375,-41.50390625,-37.59765625,-50.78125,0.0
34.95703125,-27.83203125,-40.52734375,-40.52734375,-43.9453125,-39.0625,0.0
34.9609375,-49.8046875,-54.6875,-34.66796875,-35.15625,34.1796875,0.0
34.96484375,-41.50390625,-37.59765625,-32.71484375,-18.06640625,-1.46484375,0.0
34.96875,-25.87890625,-32.71484375,-35.64453125,-20.99609375,-107.421875,0.0
34.97265625,-20.01953125,-36.1328125,-37.59765625,-32.71484375,-90.8203125,0.0
34.9765625,-21.97265625,-30.76171875,-33.69140625,-31.25,-42.48046875,0.0
34.98046875,-29.78515625,-31.73828125,-30.76171875,-16.11328125,33.69140625,0.0
34.984375,-29.296875,-32.71484375,-28.3203125,-2.9296875,8.30078125,0.0
34.98828125,-25.390625,-28.80859375,-30.76171875,-12.20703125,-67.3828125,0.0
34.9921875,-19.53125,-27.83203125,-33.203125,-28.3203125,-12.6953125,0.0
34.99609375,-10.7421875,-22.94921875,-30.2734375,-21.97265625,-21.97265625,0.0
35.0,-35.64453125,-32.2265625,-33.203125,-18.5546875,-71.2890625,0.0
35.00390625,-62.98828125,-53.22265625,-38.57421875,-31.73828125,-65.4296875,0.0
35.0078125,-40.52734375,-42.48046875,-37.59765625,-29.78515625,-57.12890625,0.0
35.01171875,-12.6953125,-27.34375,-38.57421875,-31.73828125,-77.63671875,0.0
35.015625,-11.71875,-25.390625,-39.55078125,-33.69140625,-58.10546875,0.0
35.01953125,-19.04296875,-30.2734375,-38.57421875,-17.08984375,-18.5546875,0.0
35.0234375,-26.85546875,-33.203125,-32.2265625,-0.48828125,-9.765625,0.0
35.02734375,-24.4140625,-27.34375,-23.4375,-6.34765625,-51.26953125,0.0
35.03125,-15.13671875,-30.76171875,-25.87890625,-32.2265625,-95.703125,0.0
35.03515625,-13.671875,-29.78515625,-24.4140625,-35.64453125,-108.88671875,0.0
35.0390625,-15.625,-17.08984375,-18.06640625,-17.08984375,-186.5234375,0.0
35.04296875,-18.06640625,-6.34765625,-18.5546875,-4.8828125,-217.7734375,0.0
35.046875,-45.41015625,-25.87890625,-31.25,-36.1328125,-137.20703125,0.0
35.05078125,-59.5703125,-52.734375,-44.43359375,-72.265625,1.46484375,0.0
35.0546875,-26.3671875,-38.57421875,-39.55078125,-50.29296875,70.80078125,0.0
35.05859375,-24.4140625,-29.78515625,-37.109375,-30.76171875,96.19140625,0.0
35.0625,-44.43359375,-31.25,-35.64453125,-27.83203125,69.82421875,0.0
35.06640625,-44.43359375,-29.78515625,-37.59765625,-32.2265625,-36.62109375,0.0
35.0703125,-26.85546875,-23.92578125,-39.0625,-33.69140625,-22.94921875,0.0
35.07421875,-20.01953125,-23.4375,-35.64453125,-39.0625,-12.20703125,0.0
35.078125,-34.1796875,-29.296875,-34.66796875,-46.38671875,-28.80859375,0.0
35.08203125,-48.828125,-29.296875,-40.0390625,-41.9921875,32.71484375,0.0
35.0859375,-47.36328125,-28.3203125,-40.0390625,-37.59765625,16.6015625,0.0
35.08984375,-34.66796875,-27.83203125,-36.1328125,-43.9453125,-84.47265625,0.0
35.09375,-24.4140625,-36.1328125,-41.50390625,-51.26953125,-105.95703125,0.0
35.09765625,-23.4375,-36.62109375,-44.921875,-36.1328125,-33.203125,0.0
35.1015625,-32.71484375,-27.34375,-38.0859375,-15.625,44.921875,0.0
35.10546875,-43.45703125,-29.78515625,-36.62109375,-17.578125,115.72265625,0.0
35.109375,-33.203125,-30.2734375,-38.0859375,-25.87890625,92.28515625,0.0
35.11328125,-18.06640625,-23.4375,-39.0625,-33.69140625,-106.4453125,0.0
35.1171875,-24.90234375,-22.94921875,-38.57421875,-30.76171875,-118.65234375,0.0
35.12109375,-37.109375,-28.80859375,-34.1796875,-17.578125,-94.7265625,0.0
35.125,-41.9921875,-31.73828125,-35.64453125,-15.13671875,-181.640625,0.0
35.12890625,-36.62109375,-34.1796875,-37.109375,-21.97265625,-130.859375,0.0
35.1328125,-25.87890625,-32.71484375,-31.25,-28.80859375,-117.67578125,0.0
35.13671875,-46.38671875,-48.33984375,-39.55078125,-47.36328125,-90.33203125,0.0
35.140625,-69.3359375,-60.05859375,-42.96875,-46.875,62.98828125,0.0
35.14453125,-53.22265625,-36.62109375,-30.2734375,-18.06640625,136.23046875,0.0
35.1484375,-34.1796875,-23.92578125,-26.85546875,-16.6015625,113.28125,0.0
35.15234375,-50.78125,-69.82421875,-54.6875,-71.2890625,80.56640625,0.0
35.15625,-64.453125,-78.61328125,-60.05859375,-79.58984375,-12.20703125,0.0
35.16015625,-41.50390625,-27.83203125,-29.296875,-20.5078125,-56.15234375,0.0
35.1640625,-41.50390625,-26.3671875,-29.78515625,-13.671875,-11.71875,0.0
35.16796875,-35.15625,-26.85546875,-31.25,-23.92578125,29.296875,0.0
35.171875,-19.53125,-22.94921875,-31.73828125,-41.50390625,63.4765625,0.0
35.17578125,-5.859375,-17.08984375,-34.1796875,-36.62109375,24.4140625,0.0
35.1796875,-22.4609375,-26.3671875,-36.62109375,-26.85546875,-27.83203125,0.0
35.18359375,-42.96875,-43.9453125,-44.921875,-38.0859375,-61.5234375,0.0
35.1875,-24.4140625,-34.66796875,-38.0859375,-31.25,-124.0234375,0.0
35.19140625,-0.9765625,-21.97265625,-28.80859375,-31.25,-45.8984375,0.0
35.1953125,-17.578125,-35.15625,-40.0390625,-54.19921875,-8.7890625,0.0
35.19921875,-55.17578125,-48.828125,-45.8984375,-55.17578125,-63.4765625,0.0
35.203125,-56.640625,-28.80859375,-26.85546875,-18.06640625,-57.12890625,0.0
35.20703125,-48.33984375,-25.87890625,-22.4609375,-10.7421875,-55.17578125,0.0
35.2109375,-31.73828125,-24.4140625,-27.34375,-24.90234375,-67.87109375,0.0
35.21484375,-23.4375,-18.5546875,-25.87890625,-23.4375,-46.875,0.0
35.21875,-39.55078125,-28.3203125,-26.85546875,-20.99609375,-35.15625,0.0
35.22265625,-37.59765625,-20.5078125,-17.578125,-3.90625,-9.765625,0.0
35.2265625,-61.5234375,-50.29296875,-45.41015625,-35.64453125,0.0,0.0
35.23046875,-71.77734375,-81.54296875,-73.73046875,-71.2890625,-81.54296875,0.0
35.234375,-16.11328125,-36.62109375,-36.62109375,-30.76171875,-146.484375,0.0
35.23828125,-4.39453125,-16.11328125,-17.578125,-8.7890625,-129.8828125,0.0
35.2421875,-50.78125,-47.36328125,-39.0625,-25.87890625,-107.91015625,0.0
35.24609375,-54.19921875,-51.7578125,-42.48046875,-28.80859375,-177.734375,0.0
35.25,-16.11328125,-21.484375,-24.4140625,-17.08984375,-157.71484375,0.0
35.25390625,-11.23046875,-21.484375,-26.3671875,-31.25,-35.64453125,0.0
35.2578125,-16.11328125,-21.97265625,-28.3203125,-25.87890625,-37.109375,0.0
35.26171875,-24.4140625,-22.4609375,-30.2734375,-6.8359375,-38.57421875,0.0
35.265625,-29.78515625,-27.83203125,-31.25,-9.765625,33.69140625,0.0
35.26953125,-21.97265625,-29.78515625,-36.1328125,-26.85546875,45.41015625,0.0
35.2734375,-13.671875,-25.87890625,-35.64453125,-27.34375,-51.7578125,0.0
35.27734375,-17.08984375,-24.90234375,-32.2265625,-19.04296875,-35.64453125,0.0
35.28125,-24.90234375,-21.484375,-27.83203125,-5.37109375,3.90625,0.0
35.28515625,-41.50390625,-35.15625,-31.25,-15.13671875,-82.03125,0.0
35.2890625,-50.29296875,-57.6171875,-49.31640625,-49.31640625,-121.09375,0.0
35.29296875,-22.94921875,-37.109375,-47.8515625,-48.33984375,-72.265625,0.0
35.296875,-9.765625,-20.5078125,-33.69140625,-30.2734375,-64.453125,0.0
35.30078125,-31.73828125,-26.85546875,-28.80859375,-23.4375,-48.828125,0.0
35.3046875,-37.59765625,-28.3203125,-31.73828125,-21.484375,64.94140625,0.0
35.30859375,-21.484375,-21.97265625,-31.73828125,-24.90234375,28.3203125,0.0
35.3125,-3.90625,-13.671875,-32.71484375,-31.25,-29.296875,0.0
35.31640625,-5.859375,-15.13671875,-36.1328125,-33.203125,-4.8828125,0.0
35.3203125,-32.71484375,-27.83203125,-39.55078125,-29.296875,41.015625,0.0
35.32421875,-40.0390625,-26.85546875,-37.109375,-18.5546875,51.26953125,0.0
35.328125,-38.0859375,-24.4140625,-34.1796875,-30.2734375,-5.37109375,0.0
35.33203125,-25.390625,-25.390625,-30.2734375,-42.48046875,3.90625,0.0
35.3359375,-14.6484375,-25.87890625,-25.390625,-28.80859375,-11.71875,0.0
35.33984375,-31.25,-29.78515625,-29.296875,-19.53125,2.44140625,0.0
35.34375,-44.921875,-29.296875,-35.64453125,-15.625,34.66796875,0.0
35.34765625,-38.57421875,-27.83203125,-22.94921875,-22.4609375,20.01953125,0.0
35.3515625,-24.4140625,-28.3203125,-23.4375,-36.1328125,31.25,0.0
35.35546875,-14.16015625,-24.90234375,-31.73828125,-32.71484375,74.70703125,0.0
35.359375,-30.2734375,-31.25,-35.64453125,-31.73828125,58.10546875,0.0
35.36328125,-49.8046875,-35.15625,-41.50390625,-34.66796875,11.71875,0.0
35.3671875,-45.8984375,-30.76171875,-42.48046875,-37.109375,-55.6640625,0.0
35.37109375,-35.15625,-37.59765625,-44.43359375,-47.36328125,-93.75,0.0
35.375,-33.203125,-36.62109375,-42.48046875,-51.7578125,-108.3984375,0.0
35.37890625,-39.55078125,-26.85546875,-32.71484375,-33.203125,-76.66015625,0.0
35.3828125,-41.9921875,-26.85546875,-34.66796875,-16.11328125,47.8515625,0.0
35.38671875,-43.45703125,-27.83203125,-41.9921875,-24.90234375,-10.7421875,0.0
35.390625,-34.66796875,-28.80859375,-43.45703125,-41.50390625,-93.26171875,0.0
35.39453125,-29.78515625,-30.2734375,-41.9921875,-45.8984375,-28.80859375,0.0
35.3984375,-37.59765625,-29.78515625,-41.9921875,-38.0859375,26.85546875,0.0
35.40234375,-43.45703125,-28.80859375,-41.015625,-26.3671875,-0.48828125,0.0
35.40625,-44.921875,-27.34375,-41.9921875,-30.2734375,-63.4765625,0.0
35.41015625,-36.1328125,-24.4140625,-40.0390625,-44.43359375,-34.1796875,0.0
35.4140625,-15.625,-19.53125,-34.1796875,-37.59765625,43.9453125,0.0
35.41796875,-7.8125,-17.578125,-31.25,-18.5546875,41.50390625,0.0
35.421875,-30.76171875,-28.3203125,-27.34375,-11.23046875,-20.01953125,0.0
35.42578125,-36.62109375,-28.3203125,-16.11328125,-17.08984375,-76.171875,0.0
35.4296875,-24.90234375,-21.484375,-24.4140625,-28.3203125,-134.27734375,0.0
35.43359375,-20.99609375,-20.01953125,-43.45703125,-34.66796875,-83.49609375,0.0
35.4375,-20.5078125,-22.94921875,-42.96875,-26.3671875,-70.3125,0.0
35.44140625,-30.76171875,-31.73828125,-34.1796875,-9.27734375,-126.46484375,0.0
35.4453125,-47.36328125,-34.1796875,-32.71484375,-8.7890625,-135.7421875,0.0
35.44921875,-43.9453125,-32.71484375,-31.25,-26.3671875,-78.61328125,0.0
35.453125,-28.3203125,-31.73828125,-31.73828125,-37.59765625,-27.34375,0.0
35.45703125,-32.71484375,-33.69140625,-34.1796875,-37.59765625,-51.7578125,0.0
35.4609375,-47.8515625,-32.71484375,-35.64453125,-28.3203125,-83.984375,0.0
35.46484375,-47.36328125,-27.34375,-31.73828125,-21.97265625,24.90234375,0.0
35.46875,-25.390625,-18.06640625,-11.71875,-21.97265625,45.41015625,0.0
35.47265625,-10.7421875,-20.01953125,-20.99609375,-36.62109375,-38.0859375,0.0
35.4765625,-19.04296875,-26.85546875,-41.9921875,-47.8515625,34.1796875,0.0
35.48046875,-33.203125,-28.3203125,-36.1328125,-36.1328125,101.07421875,0.0
35.484375,-40.52734375,-27.34375,-31.73828125,-25.390625,-92.28515625,0.0
35.48828125,-34.66796875,-30.76171875,-40.52734375,-40.0390625,-162.109375,0.0
35.4921875,-24.90234375,-32.71484375,-41.9921875,-51.7578125,-63.4765625,0.0
35.49609375,-22.94921875,-24.90234375,-37.109375,-45.41015625,-70.3125,0.0
35.5,-36.62109375,-25.390625,-34.66796875,-36.62109375,-27.34375,0.0
35.50390625,-45.41015625,-26.3671875,-31.73828125,-31.25,2.44140625,0.0
35.5078125,-43.9453125,-26.85546875,-34.1796875,-41.9921875,-50.78125,0.0
35.51171875,-19.53125,-25.390625,-23.92578125,-40.52734375,-90.8203125,0.0
35.515625,3.41796875,-18.06640625,-16.11328125,-26.85546875,-48.33984375,0.0
35.51953125,-20.01953125,-28.3203125,-31.73828125,-30.2734375,17.578125,0.0
35.5234375,-41.9921875,-36.62109375,-33.69140625,-29.78515625,4.39453125,0.0
35.52734375,-34.1796875,-30.2734375,-23.92578125,-24.90234375,-85.44921875,0.0
35.53125,-22.94921875,-30.76171875,-26.3671875,-38.0859375,-73.2421875,0.0
35.53515625,-24.90234375,-36.62109375,-35.64453125,-50.78125,-36.62109375,0.0
35.5390625,-34.1796875,-34.66796875,-34.1796875,-41.015625,-83.984375,0.0
35.54296875,-37.109375,-35.15625,-37.109375,-25.390625,-68.84765625,0.0
35.546875,-40.0390625,-35.15625,-39.55078125,-22.94921875,-72.265625,0.0
35.55078125,-32.71484375,-35.64453125,-43.9453125,-37.59765625,-44.921875,0.0
35.5546875,-17.08984375,-31.73828125,-34.66796875,-43.9453125,-16.11328125,0.0
35.55859375,-19.04296875,-26.85546875,-17.578125,-27.34375,-41.015625,0.0
35.5625,-41.50390625,-34.1796875,-36.1328125,-26.85546875,74.70703125,0.0
35.56640625,-47.8515625,-38.0859375,-38.0859375,-28.80859375,35.15625,0.0
35.5703125,-28.80859375,-33.203125,-30.2734375,-27.34375,-99.12109375,0.0
35.57421875,-21.97265625,-33.203125,-37.109375,-41.50390625,-20.99609375,0.0
35.578125,-35.15625,-37.59765625,-35.15625,-42.48046875,38.0859375,0.0
35.58203125,-51.7578125,-37.59765625,-31.73828125,-26.85546875,-10.7421875,0.0
35.5859375,-45.41015625,-29.296875,-24.90234375,-19.53125,-64.453125,0.0
35.58984375,-15.13671875,-24.4140625,-18.5546875,-24.90234375,-80.078125,0.0
35.59375,-15.625,-34.66796875,-30.2734375,-42.96875,-39.55078125,0.0
35.59765625,-33.203125,-43.45703125,-42.48046875,-44.43359375,11.23046875,0.0
35.6015625,-34.66796875,-34.1796875,-25.87890625,-23.92578125,2.9296875,0.0
35.60546875,-26.85546875,-21.97265625,-13.18359375,-15.625,-8.7890625,0.0
35.609375,-27.83203125,-30.76171875,-34.1796875,-33.69140625,-8.7890625,0.0
35.61328125,-28.3203125,-38.0859375,-44.43359375,-48.828125,-8.7890625,0.0
35.6171875,-27.83203125,-31.25,-28.3203125,-38.57421875,-100.5859375,0.0
35.62109375,-42.48046875,-33.203125,-23.4375,-26.3671875,-211.9140625,0.0
35.625,-50.29296875,-38.0859375,-37.109375,-29.296875,-195.80078125,0.0
35.62890625,-36.62109375,-32.71484375,-35.15625,-38.57421875,-140.13671875,0.0
35.6328125,-25.87890625,-37.59765625,-31.25,-43.9453125,-63.4765625,0.0
35.63671875,-17.08984375,-43.45703125,-34.66796875,-38.0859375,36.62109375,0.0
35.640625,-25.87890625,-41.50390625,-37.109375,-22.94921875,104.00390625,0.0
35.64453125,-41.50390625,-44.43359375,-37.109375,-17.08984375,-41.015625,0.0
35.6484375,-36.62109375,-43.9453125,-38.0859375,-27.83203125,-125.48828125,0.0
35.65234375,-21.97265625,-40.52734375,-37.109375,-34.1796875,-18.5546875,0.0
35.65625,-18.5546875,-40.0390625,-37.109375,-36.1328125,-30.2734375,0.0
35.66015625,-25.87890625,-35.15625,-30.76171875,-27.34375,-59.5703125,0.0
35.6640625,-29.296875,-29.78515625,-17.578125,-13.671875,-38.57421875,0.0
35.66796875,-40.0390625,-34.1796875,-23.4375,-28.80859375,0.0,0.0
35.671875,-34.66796875,-42.48046875,-32.71484375,-45.41015625,4.8828125,0.0
35.67578125,-17.08984375,-39.55078125,-34.66796875,-42.48046875,-89.35546875,0.0
35.6796875,-21.484375,-34.66796875,-30.76171875,-28.80859375,-118.65234375,0.0
35.68359375,-48.828125,-38.57421875,-26.3671875,-22.94921875,-99.609375,0.0
35.6875,-59.08203125,-39.55078125,-29.78515625,-33.203125,-128.90625,0.0
35.69140625,-38.57421875,-36.1328125,-23.4375,-39.55078125,-119.62890625,0.0
35.6953125,-26.3671875,-32.71484375,-17.578125,-35.64453125,-68.84765625,0.0
35.69921875,-31.73828125,-29.78515625,-23.92578125,-24.90234375,53.7109375,0.0
35.703125,-40.0390625,-33.203125,-20.01953125,-14.16015625,123.046875,0.0
35.70703125,-43.45703125,-43.45703125,-15.13671875,-21.484375,42.48046875,0.0
35.7109375,-30.76171875,-46.38671875,-18.06640625,-39.0625,-8.30078125,0.0
35.71484375,-15.13671875,-37.59765625,-20.5078125,-36.1328125,35.64453125,0.0
35.71875,-21.97265625,-36.1328125,-20.01953125,-26.85546875,-22.4609375,0.0
35.72265625,-36.62109375,-33.203125,-20.5078125,-17.08984375,0.0,0.0
35.7265625,-30.2734375,-27.83203125,-20.99609375,-18.06640625,-0.48828125,0.0
35.73046875,-17.578125,-29.296875,-23.4375,-32.2265625,-5.37109375,0.0
35.734375,-18.06640625,-30.76171875,-23.4375,-37.59765625,14.16015625,0.0
35.73828125,-28.80859375,-29.78515625,-22.94921875,-29.78515625,-65.4296875,0.0
35.7421875,-40.52734375,-30.2734375,-22.94921875,-20.5078125,-114.74609375,0.0
35.74609375,-37.59765625,-26.3671875,-22.4609375,-17.578125,-22.4609375,0.0
35.75,-34.1796875,-32.2265625,-26.85546875,-30.76171875,20.5078125,0.0
35.75390625,-28.80859375,-47.8515625,-24.4140625,-40.52734375,31.25,0.0
35.7578125,-34.66796875,-45.8984375,-22.4609375,-32.71484375,28.3203125,0.0
35.76171875,-53.7109375,-39.55078125,-31.25,-27.83203125,2.9296875,0.0
35.765625,-59.08203125,-40.0390625,-30.76171875,-31.73828125,38.0859375,0.0
35.76953125,-44.921875,-36.62109375,-28.80859375,-42.96875,49.8046875,0.0
35.7734375,-25.87890625,-34.66796875,-31.73828125,-43.9453125,-37.109375,0.0
35.77734375,-16.11328125,-37.109375,-28.80859375,-39.0625,-27.34375,0.0
35.78125,-33.203125,-38.0859375,-30.76171875,-35.15625,101.5625,0.0
35.78515625,-50.29296875,-41.9921875,-32.71484375,-30.76171875,107.421875,0.0
35.7890625,-44.43359375,-40.52734375,-30.2734375,-38.57421875,8.30078125,0.0
35.79296875,-24.4140625,-36.1328125,-30.76171875,-47.36328125,63.4765625,0.0
35.796875,-17.08984375,-34.1796875,-28.80859375,-43.45703125,79.58984375,0.0
35.80078125,-38.57421875,-47.8515625,-27.83203125,-30.2734375,1.46484375,0.0
35.8046875,-46.875,-49.8046875,-26.85546875,-23.4375,27.34375,0.0
35.80859375,-33.203125,-39.0625,-26.3671875,-32.2265625,40.0390625,0.0
35.8125,-15.13671875,-39.0625,-27.34375,-32.2265625,-26.3671875,0.0
35.81640625,-14.16015625,-42.48046875,-24.4140625,-22.4609375,-25.87890625,0.0
35.8203125,-26.3671875,-44.43359375,-21.97265625,-14.16015625,-86.9140625,0.0
35.82421875,-36.1328125,-41.50390625,-24.90234375,-6.8359375,-136.23046875,0.0
35.828125,-34.1796875,-40.0390625,-30.76171875,-17.08984375,-96.6796875,0.0
35.83203125,-20.01953125,-39.55078125,-28.3203125,-30.76171875,-29.78515625,0.0
35.8359375,-16.11328125,-35.15625,-26.3671875,-30.76171875,-13.18359375,0.0
35.83984375,-32.71484375,-34.66796875,-25.87890625,-24.4140625,-11.23046875,0.0
35.84375,-48.33984375,-37.109375,-22.94921875,-26.3671875,2.44140625,0.0
35.84765625,-40.52734375,-36.1328125,-26.85546875,-38.0859375,-23.4375,0.0
35.8515625,-24.4140625,-31.25,-26.85546875,-43.9453125,-48.33984375,0.0
35.85546875,-18.5546875,-31.25,-25.87890625,-44.43359375,-90.8203125,0.0
35.859375,-35.15625,-40.52734375,-26.85546875,-36.62109375,-57.6171875,0.0
35.86328125,-41.9921875,-40.52734375,-22.4609375,-20.5078125,-9.765625,0.0
35.8671875,-36.62109375,-34.1796875,-20.5078125,-20.5078125,-73.73046875,0.0
35.87109375,-32.71484375,-30.2734375,-21.97265625,-34.1796875,-50.29296875,0.0
35.875,-22.4609375,-32.71484375,-22.4609375,-38.0859375,29.78515625,0.0
35.87890625,-31.25,-32.2265625,-18.5546875,-30.2734375,19.53125,0.0
35.8828125,-41.015625,-23.92578125,-7.8125,-13.18359375,-18.06640625,0.0
35.88671875,-36.62109375,-31.25,-14.16015625,-17.08984375,-91.796875,0.0
35.890625,-27.83203125,-39.0625,-22.94921875,-30.2734375,-166.015625,0.0
35.89453125,-18.5546875,-36.62109375,-22.94921875,-33.203125,-105.95703125,0.0
35.8984375,-25.390625,-33.69140625,-24.4140625,-25.87890625,-110.3515625,0.0
35.90234375,-41.50390625,-31.25,-26.85546875,-16.11328125,-141.6015625,0.0
35.90625,-43.9453125,-31.25,-27.83203125,-17.578125,-88.8671875,0.0
35.91015625,-29.296875,-31.73828125,-24.90234375,-32.2265625,-88.8671875,0.0
35.9140625,-21.484375,-30.76171875,-26.3671875,-42.48046875,-103.02734375,0.0
35.91796875,-23.92578125,-30.2734375,-23.92578125,-32.71484375,-113.76953125,0.0
35.921875,-33.69140625,-34.1796875,-27.83203125,-22.4609375,-96.19140625,0.0
35.92578125,-34.1796875,-36.1328125,-28.80859375,-23.92578125,-53.7109375,0.0
35.9296875,-29.78515625,-37.109375,-32.2265625,-33.203125,27.34375,0.0
35.93359375,-27.83203125,-37.59765625,-33.203125,-44.43359375,0.48828125,0.0
35.9375,-26.85546875,-39.0625,-28.3203125,-39.0625,-64.94140625,0.0
35.94140625,-41.9921875,-40.0390625,-30.76171875,-22.4609375,-28.80859375,0.0
35.9453125,-46.875,-41.50390625,-29.296875,-18.5546875,-29.296875,0.0
35.94921875,-32.71484375,-38.57421875,-27.83203125,-29.78515625,-106.4453125,0.0
35.953125,-19.04296875,-33.69140625,-31.73828125,-39.55078125,-48.828125,0.0
35.95703125,-16.11328125,-34.66796875,-29.78515625,-33.203125,12.20703125,0.0
35.9609375,-32.71484375,-34.1796875,-21.97265625,-19.04296875,9.27734375,0.0
35.96484375,-40.52734375,-36.62109375,-19.53125,-14.6484375,6.8359375,0.0
35.96875,-26.3671875,-41.50390625,-24.90234375,-25.390625,23.4375,0.0
35.97265625,-18.06640625,-37.59765625,-29.78515625,-43.9453125,47.36328125,0.0
35.9765625,-12.20703125,-37.59765625,-31.25,-46.38671875,16.11328125,0.0
35.98046875,-23.4375,-38.0859375,-24.4140625,-29.296875,-21.484375,0.0
35.984375,-43.45703125,-39.0625,-21.97265625,-23.92578125,-39.55078125,0.0
35.98828125,-44.43359375,-44.43359375,-30.2734375,-38.57421875,-19.04296875,0.0
35.9921875,-32.71484375,-40.52734375,-32.2265625,-54.6875,-62.01171875,0.0
35.99609375,-21.97265625,-36.62109375,-30.2734375,-47.36328125,-30.2734375,0.0
36.0,-39.55078125,-41.50390625,-30.2734375,-34.1796875,-17.08984375,0.0
36.00390625,-55.17578125,-41.50390625,-28.80859375,-26.85546875,-82.03125,0.0
36.0078125,-44.43359375,-36.1328125,-26.85546875,-29.78515625,-51.7578125,0.0
36.01171875,-29.78515625,-37.59765625,-33.203125,-44.921875,-67.3828125,0.0
36.015625,-19.53125,-38.57421875,-36.1328125,-44.43359375,-38.0859375,0.0
36.01953125,-27.34375,-34.1796875,-28.3203125,-28.80859375,-8.30078125,0.0
36.0234375,-47.8515625,-31.73828125,-23.92578125,-19.53125,-53.22265625,0.0
36.02734375,-52.734375,-35.15625,-33.203125,-30.2734375,-78.125,0.0
36.03125,-40.0390625,-36.1328125,-34.66796875,-47.36328125,-113.28125,0.0
36.03515625,-26.3671875,-27.83203125,-26.3671875,-44.43359375,-37.109375,0.0
36.0390625,-32.71484375,-28.80859375,-26.85546875,-30.2734375,47.36328125,0.0
36.04296875,-58.10546875,-37.109375,-35.15625,-28.80859375,13.671875,0.0
36.046875,-62.5,-30.76171875,-32.71484375,-31.73828125,-68.84765625,0.0
36.05078125,-40.52734375,-24.90234375,-31.25,-36.62109375,-69.3359375,0.0
36.0546875,-20.99609375,-30.76171875,-31.73828125,-41.50390625,-30.76171875,0.0
36.05859375,-26.85546875,-31.25,-29.78515625,-35.64453125,-70.80078125,0.0
36.0625,-45.8984375,-33.203125,-24.90234375,-20.5078125,-8.30078125,0.0
36.06640625,-35.15625,-25.87890625,-20.99609375,-10.7421875,-0.48828125,0.0
36.0703125,-15.625,-22.4609375,-28.3203125,-20.99609375,-89.84375,0.0
36.07421875,-15.625,-35.64453125,-29.296875,-39.55078125,-131.34765625,0.0
36.078125,-27.83203125,-40.52734375,-29.78515625,-38.57421875,-139.16015625,0.0
36.08203125,-31.73828125,-39.55078125,-26.3671875,-19.04296875,-81.54296875,0.0
36.0859375,-28.3203125,-36.1328125,-17.578125,-12.20703125,21.97265625,0.0
36.08984375,-23.4375,-33.69140625,-23.92578125,-30.2734375,-7.32421875,0.0
36.09375,-10.7421875,-31.73828125,-27.83203125,-36.62109375,-146.484375,0.0
36.09765625,-13.671875,-28.80859375,-25.87890625,-32.71484375,-119.62890625,0.0
36.1015625,-36.1328125,-33.203125,-28.80859375,-29.78515625,15.13671875,0.0
36.10546875,-47.36328125,-39.55078125,-31.73828125,-32.2265625,9.27734375,0.0
36.109375,-40.0390625,-40.0390625,-33.203125,-42.96875,-23.92578125,0.0
36.11328125,-27.34375,-33.69140625,-31.73828125,-54.19921875,35.15625,0.0
36.1171875,-29.78515625,-33.203125,-27.83203125,-48.33984375,35.64453125,0.0
36.12109375,-34.1796875,-37.109375,-24.90234375,-24.90234375,17.08984375,0.0
36.125,-39.0625,-37.109375,-24.4140625,-20.01953125,53.7109375,0.0
36.12890625,-43.9453125,-35.15625,-13.671875,-29.296875,65.4296875,0.0
36.1328125,-35.64453125,-33.69140625,-18.5546875,-41.50390625,39.0625,0.0
36.13671875,-31.25,-34.66796875,-31.73828125,-39.55078125,-50.78125,0.0
36.140625,-40.0390625,-36.1328125,-30.76171875,-28.3203125,-68.359375,0.0
36.14453125,-47.36328125,-36.1328125,-25.87890625,-20.99609375,-23.4375,0.0
36.1484375,-39.0625,-31.25,-25.390625,-24.4140625,-61.03515625,0.0
36.15234375,-22.4609375,-31.73828125,-27.34375,-33.69140625,-23.4375,0.0
36.15625,-6.34765625,-34.1796875,-24.4140625,-26.3671875,-4.8828125,0.0
36.16015625,-11.71875,-35.15625,-22.94921875,-11.71875,-56.640625,0.0
36.1640625,-31.73828125,-40.52734375,-24.4140625,-7.32421875,-45.41015625,0.0
36.16796875,-32.2265625,-35.15625,-27.83203125,-17.08984375,-51.7578125,0.0
36.171875,-23.92578125,-31.73828125,-19.53125,-29.296875,-56.640625,0.0
36.17578125,-27.83203125,-39.0625,-11.23046875,-31.73828125,24.4140625,0.0
36.1796875,-45.41015625,-37.109375,-16.6015625,-26.3671875,19.53125,0.0
36.18359375,-51.7578125,-31.25,-18.5546875,-19.04296875,29.296875,0.0
36.1875,-40.0390625,-31.25,-22.4609375,-22.4609375,133.30078125,0.0
36.19140625,-25.87890625,-34.1796875,-26.85546875,-38.0859375,94.7265625,0.0
36.1953125,-15.625,-32.2265625,-24.4140625,-47.8515625,57.12890625,0.0
36.19921875,-19.53125,-25.87890625,-23.92578125,-41.015625,34.1796875,0.0
36.203125,-32.2265625,-30.76171875,-22.94921875,-33.69140625,8.30078125,0.0
36.20703125,-40.0390625,-37.109375,-22.94921875,-38.0859375,16.11328125,0.0
36.2109375,-39.0625,-29.78515625,-25.87890625,-48.33984375,-31.25,0.0
36.21484375,-31.73828125,-28.3203125,-25.390625,-50.29296875,-3.41796875,0.0
36.21875,-42.96875,-39.55078125,-22.4609375,-37.109375,-17.08984375,0.0
36.22265625,-59.08203125,-40.0390625,-20.99609375,-21.484375,-74.70703125,0.0
36.2265625,-56.15234375,-33.69140625,-16.6015625,-12.6953125,0.0,0.0
36.23046875,-42.48046875,-33.69140625,-19.53125,-24.4140625,2.44140625,0.0
36.234375,-31.25,-38.0859375,-26.85546875,-39.0625,-102.05078125,0.0
36.23828125,-28.80859375,-36.1328125,-20.5078125,-25.87890625,-170.8984375,0.0
36.2421875,-35.15625,-28.80859375,-22.94921875,-10.25390625,-62.5,0.0
36.24609375,-37.109375,-30.76171875,-21.484375,-18.06640625,12.6953125,0.0
36.25,-21.484375,-37.109375,-20.5078125,-24.90234375,-41.9921875,0.0
36.25390625,-12.20703125,-36.62109375,-22.4609375,-34.1796875,-22.94921875,0.0
36.2578125,-21.484375,-30.76171875,-15.13671875,-36.1328125,-4.39453125,0.0
36.26171875,-39.55078125,-34.1796875,-14.16015625,-28.3203125,-10.7421875,0.0
36.265625,-52.24609375,-52.24609375,-21.484375,-30.2734375,51.7578125,0.0
36.26953125,-32.2265625,-45.8984375,-23.4375,-32.71484375,38.57421875,0.0
36.2734375,-14.16015625,-32.71484375,-23.4375,-40.52734375,-43.45703125,0.0
36.27734375,-25.390625,-27.34375,-23.4375,-37.109375,-52.24609375,0.0
36.28125,-41.50390625,-30.76171875,-23.92578125,-22.94921875,-18.5546875,0.0
36.28515625,-52.734375,-31.73828125,-23.92578125,-26.3671875,7.32421875,0.0
36.2890625,-48.33984375,-29.296875,-24.90234375,-43.9453125,-26.3671875,0.0
36.29296875,-30.76171875,-34.66796875,-30.76171875,-55.6640625,-49.31640625,0.0
36.296875,-32.2265625,-32.2265625,-26.3671875,-52.734375,-22.94921875,0.0
36.30078125,-44.921875,-32.71484375,-25.87890625,-34.1796875,-70.80078125,0.0
36.3046875,-57.6171875,-38.57421875,-28.3203125,-30.2734375,-104.00390625,0.0
36.30859375,-49.31640625,-39.55078125,-29.78515625,-50.29296875,-105.95703125,0.0
36.3125,-28.80859375,-41.50390625,-32.2265625,-61.03515625,-161.62109375,0.0
36.31640625,-25.390625,-40.0390625,-33.203125,-49.31640625,-148.4375,0.0
36.3203125,-27.34375,-36.1328125,-28.3203125,-31.73828125,-153.3203125,0.0
36.32421875,-39.55078125,-34.66796875,-26.3671875,-32.71484375,-136.23046875,0.0
36.328125,-38.0859375,-28.3203125,-26.85546875,-40.0390625,0.9765625,0.0
36.33203125,-23.4375,-25.87890625,-24.90234375,-46.875,27.83203125,0.0
36.3359375,-14.6484375,-28.80859375,-25.87890625,-49.31640625,-63.4765625,0.0
36.33984375,-20.5078125,-32.71484375,-25.390625,-40.52734375,-67.87109375,0.0
36.34375,-32.2265625,-34.1796875,-27.34375,-32.2265625,-28.3203125,0.0
36.34765625,-34.1796875,-35.15625,-27.34375,-34.66796875,1.953125,0.0
36.3515625,-20.99609375,-33.69140625,-20.99609375,-42.48046875,11.71875,0.0
36.35546875,-16.11328125,-34.1796875,-18.06640625,-42.96875,-65.4296875,0.0
36.359375,-24.90234375,-35.15625,-21.484375,-31.25,2.44140625,0.0
36.36328125,-36.62109375,-37.109375,-22.94921875,-21.97265625,15.13671875,0.0
36.3671875,-30.76171875,-34.66796875,-17.578125,-21.97265625,-41.50390625,0.0
36.37109375,-25.87890625,-32.2265625,-23.4375,-36.62109375,-37.59765625,0.0
36.375,-25.87890625,-36.62109375,-34.1796875,-49.8046875,-15.625,0.0
36.37890625,-33.203125,-40.0390625,-29.78515625,-48.33984375,-46.875,0.0
36.3828125,-49.31640625,-41.9921875,-22.94921875,-38.57421875,-98.14453125,0.0
36.38671875,-56.15234375,-40.52734375,-28.80859375,-40.0390625,-64.453125,0.0
36.390625,-45.8984375,-36.1328125,-37.59765625,-53.22265625,-82.03125,0.0
36.39453125,-30.2734375,-38.0859375,-40.52734375,-53.7109375,-91.796875,0.0
36.3984375,-39.0625,-36.62109375,-40.52734375,-41.9921875,-65.91796875,0.0
36.40234375,-53.7109375,-38.0859375,-37.59765625,-29.296875,-100.09765625,0.0
36.40625,-48.33984375,-38.0859375,-32.2265625,-26.85546875,-129.8828125,0.0
36.41015625,-30.2734375,-43.45703125,-33.69140625,-43.9453125,-81.54296875,0.0
36.4140625,-25.87890625,-56.640625,-31.73828125,-63.4765625,-66.40625,0.0
36.41796875,-30.2734375,-46.38671875,-30.2734375,-51.26953125,-20.99609375,0.0
36.421875,-40.0390625,-38.0859375,-32.2265625,-32.71484375,-15.13671875,0.0
36.42578125,-49.31640625,-42.96875,-35.15625,-35.64453125,-70.80078125,0.0
36.4296875,-37.109375,-40.52734375,-39.55078125,-48.33984375,-59.08203125,0.0
36.43359375,-26.3671875,-39.55078125,-41.9921875,-54.6875,-29.78515625,0.0
36.4375,-22.4609375,-36.1328125,-39.55078125,-46.875,-58.10546875,0.0
36.44140625,-36.62109375,-38.57421875,-33.69140625,-39.0625,-8.30078125,0.0
36.4453125,-49.31640625,-39.55078125,-38.0859375,-38.57421875,-24.4140625,0.0
36.44921875,-41.9921875,-38.0859375,-45.8984375,-47.36328125,-66.40625,0.0
36.453125,-28.3203125,-40.0390625,-45.8984375,-50.78125,6.34765625,0.0
36.45703125,-31.73828125,-46.38671875,-41.015625,-42.96875,3.41796875,0.0
36.4609375,-37.59765625,-46.875,-35.15625,-29.296875,-9.27734375,0.0
36.46484375,-36.1328125,-41.015625,-35.64453125,-20.5078125,3.90625,0.0
36.46875,-44.43359375,-44.43359375,-40.0390625,-33.69140625,8.7890625,0.0
36.47265625,-37.109375,-41.50390625,-43.45703125,-48.33984375,-1.953125,0.0
36.4765625,-35.15625,-33.69140625,-40.52734375,-45.8984375,-23.4375,0.0
36.48046875,-48.33984375,-32.71484375,-38.0859375,-28.3203125,7.32421875,0.0
36.484375,-57.12890625,-34.66796875,-34.1796875,-21.97265625,10.7421875,0.0
36.48828125,-48.33984375,-33.69140625,-30.2734375,-26.85546875,-41.015625,0.0
36.4921875,-31.73828125,-31.25,-26.85546875,-38.0859375,-59.5703125,0.0
36.49609375,-27.34375,-30.76171875,-27.34375,-41.50390625,-98.14453125,0.0
36.5,-42.48046875,-32.71484375,-30.2734375,-32.71484375,-45.41015625,0.0
36.50390625,-52.24609375,-34.66796875,-27.34375,-24.90234375,-40.0390625,0.0
36.5078125,-42.48046875,-30.76171875,-24.4140625,-27.83203125,-38.57421875,0.0
36.51171875,-23.92578125,-26.3671875,-28.80859375,-39.55078125,9.27734375,0.0
36.515625,-14.16015625,-30.2734375,-29.296875,-45.8984375,-22.94921875,0.0
36.51953125,-31.73828125,-29.78515625,-25.390625,-41.50390625,-1.46484375,0.0
36.5234375,-46.38671875,-34.1796875,-30.76171875,-31.73828125,-12.20703125,0.0
36.52734375,-44.43359375,-41.015625,-36.62109375,-35.64453125,-16.11328125,0.0
36.53125,-33.69140625,-39.55078125,-39.0625,-49.8046875,1.953125,0.0
36.53515625,-26.3671875,-37.109375,-36.62109375,-49.8046875,25.87890625,0.0
36.5390625,-31.25,-37.109375,-32.2265625,-35.15625,-15.625,0.0
36.54296875,-47.8515625,-36.62109375,-30.2734375,-24.90234375,-60.05859375,0.0
36.546875,-57.6171875,-50.78125,-40.52734375,-39.0625,-91.796875,0.0
36.55078125,-44.921875,-62.01171875,-50.78125,-52.24609375,-38.0859375,0.0
36.5546875,-22.94921875,-41.50390625,-39.0625,-43.45703125,79.1015625,0.0
36.55859375,-30.76171875,-33.203125,-32.2265625,-36.1328125,64.453125,0.0
36.5625,-51.26953125,-33.69140625,-33.69140625,-31.25,35.64453125,0.0
36.56640625,-54.19921875,-31.73828125,-33.203125,-35.64453125,69.3359375,0.0
36.5703125,-34.1796875,-29.78515625,-32.2265625,-44.921875,-51.7578125,0.0
36.57421875,-28.80859375,-35.15625,-40.52734375,-56.640625,-203.61328125,0.0
36.578125,-48.33984375,-42.96875,-44.921875,-57.12890625,-146.484375,0.0
36.58203125,-54.6875,-40.52734375,-41.9921875,-36.62109375,-77.63671875,0.0
36.5859375,-56.640625,-34.1796875,-42.96875,-32.71484375,-87.890625,0.0
36.58984375,-52.734375,-37.59765625,-46.38671875,-44.921875,-79.58984375,0.0
36.59375,-45.41015625,-49.8046875,-49.8046875,-60.546875,-89.84375,0.0
36.59765625,-36.1328125,-46.38671875,-41.015625,-46.38671875,-55.17578125,0.0
36.6015625,-45.41015625,-36.62109375,-35.15625,-26.85546875,-49.8046875,0.0
36.60546875,-54.19921875,-39.0625,-40.52734375,-29.78515625,-57.6171875,0.0
36.609375,-39.55078125,-42.48046875,-41.015625,-37.59765625,-59.5703125,0.0
36.61328125,-23.4375,-39.0625,-43.45703125,-45.8984375,-98.14453125,0.0
36.6171875,-23.92578125,-35.64453125,-42.48046875,-33.69140625,-69.82421875,0.0
36.62109375,-37.59765625,-35.64453125,-36.1328125,-19.04296875,-66.40625,0.0
36.625,-38.57421875,-34.66796875,-31.25,-12.6953125,-123.53515625,0.0
36.62890625,-23.92578125,-28.3203125,-35.64453125,-20.01953125,-141.11328125,0.0
36.6328125,-17.578125,-23.4375,-40.0390625,-33.69140625,-101.5625,0.0
36.63671875,-29.296875,-34.1796875,-37.109375,-44.43359375,-99.609375,0.0
36.640625,-56.15234375,-56.640625,-40.0390625,-57.12890625,-122.55859375,0.0
36.64453125,-58.10546875,-51.7578125,-39.55078125,-39.0625,-75.1953125,0.0
36.6484375,-35.64453125,-34.66796875,-37.59765625,-23.92578125,-87.40234375,0.0
36.65234375,-17.08984375,-30.2734375,-32.2265625,-30.76171875,-117.67578125,0.0
36.65625,-10.25390625,-28.3203125,-32.71484375,-31.25,-12.6953125,0.0
36.66015625,-27.34375,-27.83203125,-37.109375,-27.83203125,62.5,0.0
36.6640625,-41.50390625,-24.4140625,-31.25,-18.5546875,-65.91796875,0.0
36.66796875,-36.62109375,-20.5078125,-33.203125,-24.4140625,-142.08984375,0.0
36.671875,-28.3203125,-23.4375,-40.0390625,-42.96875,-69.3359375,0.0
36.67578125,-20.01953125,-19.53125,-37.109375,-37.59765625,-16.11328125,0.0
36.6796875,-24.4140625,-13.671875,-27.83203125,-19.53125,0.48828125,0.0
36.68359375,-43.45703125,-28.80859375,-18.5546875,-19.53125,0.48828125,0.0
36.6875,-29.296875,-29.78515625,-23.4375,-22.4609375,8.7890625,0.0
36.69140625,-6.8359375,-17.578125,-34.66796875,-26.85546875,-10.7421875,0.0
36.6953125,-15.625,-23.4375,-34.66796875,-40.0390625,-33.69140625,0.0
36.69921875,-31.25,-31.73828125,-32.2265625,-41.015625,57.6171875,0.0
36.703125,-39.55078125,-26.3671875,-33.203125,-31.25,108.88671875,0.0
36.70703125,-33.203125,-18.06640625,-34.1796875,-28.3203125,74.70703125,0.0
36.7109375,-23.92578125,-16.11328125,-39.55078125,-44.43359375,46.875,0.0
36.71484375,-13.18359375,-19.04296875,-45.41015625,-48.828125,-107.421875,0.0
36.71875,-13.671875,-22.4609375,-40.52734375,-28.3203125,-127.44140625,0.0
36.72265625,-30.76171875,-25.390625,-35.64453125,-12.6953125,-4.39453125,0.0
36.7265625,-44.921875,-36.62109375,-26.3671875,-23.4375,-16.6015625,0.0
36.73046875,-42.96875,-43.45703125,-24.90234375,-44.43359375,-65.4296875,0.0
36.734375,-21.484375,-30.2734375,-31.25,-39.55078125,-33.69140625,0.0
36.73828125,-17.578125,-24.90234375,-29.296875,-29.78515625,58.10546875,0.0
36.7421875,-43.9453125,-35.64453125,-24.90234375,-29.78515625,51.26953125,0.0
36.74609375,-52.734375,-39.0625,-29.78515625,-29.296875,-34.1796875,0.0
36.75,-32.71484375,-31.25,-37.59765625,-34.66796875,-48.33984375,0.0
36.75390625,-26.85546875,-26.3671875,-41.015625,-42.96875,-22.4609375,0.0
36.7578125,-25.390625,-22.94921875,-38.0859375,-41.9921875,34.66796875,0.0
36.76171875,-34.66796875,-26.85546875,-37.59765625,-38.0859375,27.83203125,0.0
36.765625,-45.41015625,-25.87890625,-36.1328125,-32.71484375,-10.25390625,0.0
36.76953125,-34.66796875,-24.4140625,-31.73828125,-38.0859375,-15.13671875,0.0
36.7734375,-18.5546875,-28.3203125,-35.64453125,-44.921875,-17.578125,0.0
36.77734375,-19.04296875,-30.76171875,-34.66796875,-37.59765625,12.6953125,0.0
36.78125,-32.2265625,-30.2734375,-35.15625,-22.94921875,-20.99609375,0.0
36.78515625,-51.7578125,-34.1796875,-35.64453125,-26.3671875,-86.9140625,0.0
36.7890625,-58.10546875,-44.43359375,-31.73828125,-50.29296875,-56.15234375,0.0
36.79296875,-38.57421875,-38.57421875,-36.62109375,-53.7109375,-53.22265625,0.0
36.796875,-31.73828125,-29.78515625,-40.0390625,-44.43359375,-58.10546875,0.0
36.80078125,-52.24609375,-33.69140625,-30.76171875,-40.52734375,-68.359375,0.0
36.8046875,-62.98828125,-32.2265625,-31.73828125,-40.52734375,15.625,0.0
36.80859375,-53.7109375,-24.4140625,-41.50390625,-44.921875,34.66796875,0.0
36.8125,-44.43359375,-24.4140625,-41.50390625,-53.22265625,-84.47265625,0.0
36.81640625,-42.96875,-32.2265625,-43.45703125,-55.17578125,-101.07421875,0.0
36.8203125,-41.50390625,-32.71484375,-39.0625,-41.50390625,-64.94140625,0.0
36.82421875,-39.0625,-27.34375,-35.64453125,-31.25,-55.6640625,0.0
36.828125,-36.1328125,-27.34375,-36.1328125,-30.76171875,-135.7421875,0.0
36.83203125,-30.76171875,-36.1328125,-41.50390625,-49.8046875,-102.5390625,0.0
36.8359375,-28.3203125,-39.55078125,-44.43359375,-57.6171875,-31.25,0.0
36.83984375,-25.390625,-24.4140625,-38.0859375,-35.15625,-16.6015625,0.0
36.84375,-33.203125,-17.578125,-37.109375,-22.94921875,-6.34765625,0.0
36.84765625,-32.2265625,-20.5078125,-37.109375,-26.85546875,-78.125,0.0
36.8515625,-21.97265625,-22.4609375,-32.2265625,-37.59765625,16.6015625,0.0
36.85546875,-13.18359375,-23.4375,-31.25,-37.59765625,24.90234375,0.0
36.859375,-17.578125,-28.80859375,-28.80859375,-25.390625,-22.4609375,0.0
36.86328125,-38.0859375,-31.73828125,-24.90234375,-19.53125,46.38671875,0.0
36.8671875,-35.15625,-25.390625,-23.4375,-19.04296875,26.85546875,0.0
36.87109375,-20.99609375,-26.3671875,-26.3671875,-28.3203125,48.33984375,0.0
36.875,-12.6953125,-28.80859375,-16.6015625,-27.34375,-5.859375,0.0
36.87890625,-18.06640625,-23.4375,-6.34765625,-13.671875,-79.1015625,0.0
36.8828125,-34.1796875,-23.4375,-21.484375,-8.30078125,-31.25,0.0
36.88671875,-40.52734375,-24.4140625,-29.78515625,-15.625,50.29296875,0.0
36.890625,-35.64453125,-28.80859375,-37.109375,-40.0390625,34.1796875,0.0
36.89453125,-26.3671875,-34.1796875,-42.48046875,-53.22265625,-71.77734375,0.0
36.8984375,-29.78515625,-34.66796875,-38.57421875,-38.57421875,-87.890625,0.0
36.90234375,-42.48046875,-35.15625,-33.69140625,-21.484375,-49.8046875,0.0
36.90625,-50.78125,-33.203125,-34.1796875,-25.87890625,0.0,0.0
36.91015625,-44.921875,-31.73828125,-41.9921875,-40.0390625,41.9921875,0.0
36.9140625,-31.25,-32.2265625,-42.96875,-50.78125,20.5078125,0.0
36.91796875,-31.73828125,-30.76171875,-42.48046875,-47.8515625,13.671875,0.0
36.921875,-51.26953125,-34.1796875,-35.64453125,-36.1328125,-40.0390625,0.0
36.92578125,-66.40625,-43.9453125,-25.87890625,-36.1328125,40.0390625,0.0
36.9296875,-59.08203125,-40.0390625,-38.57421875,-44.921875,75.1953125,0.0
36.93359375,-42.96875,-33.203125,-48.33984375,-53.22265625,-22.4609375,0.0
36.9375,-36.62109375,-32.71484375,-44.43359375,-42.96875,-18.06640625,0.0
36.94140625,-42.48046875,-29.296875,-36.1328125,-23.4375,25.390625,0.0
36.9453125,-48.828125,-30.76171875,-35.64453125,-20.01953125,28.80859375,0.0
36.94921875,-39.55078125,-33.203125,-44.43359375,-31.73828125,35.15625,0.0
36.953125,-26.85546875,-36.1328125,-49.8046875,-42.48046875,52.24609375,0.0
36.95703125,-22.4609375,-37.109375,-46.38671875,-34.1796875,-26.3671875,0.0
36.9609375,-25.87890625,-28.3203125,-38.0859375,-18.5546875,-80.078125,0.0
36.96484375,-37.109375,-30.76171875,-36.1328125,-14.6484375,-58.59375,0.0
36.96875,-32.2265625,-41.015625,-25.87890625,-25.390625,-90.8203125,0.0
36.97265625,-8.7890625,-37.59765625,-28.80859375,-41.50390625,-110.83984375,0.0
36.9765625,-14.16015625,-24.4140625,-38.0859375,-40.0390625,-80.56640625,0.0
36.98046875,-39.0625,-24.4140625,-35.64453125,-32.71484375,-98.6328125,0.0
36.984375,-50.29296875,-26.3671875,-34.66796875,-28.3203125,-117.67578125,0.0
36.98828125,-47.36328125,-26.3671875,-40.0390625,-36.1328125,-67.3828125,0.0
36.9921875,-34.66796875,-29.296875,-42.48046875,-48.33984375,-22.4609375,0.0
36.99609375,-29.78515625,-26.85546875,-40.0390625,-46.38671875,-35.64453125,0.0
37.0,-46.38671875,-27.83203125,-41.015625,-41.015625,-32.2265625,0.0
37.00390625,-56.15234375,-31.25,-39.55078125,-31.73828125,-28.80859375,0.0
37.0078125,-47.36328125,-30.2734375,-44.43359375,-36.62109375,-68.84765625,0.0
37.01171875,-26.3671875,-25.390625,-31.25,-42.96875,-79.58984375,0.0
37.015625,-8.7890625,-23.4375,-9.765625,-35.64453125,-99.609375,0.0
37.01953125,-25.87890625,-30.76171875,-26.85546875,-33.203125,-74.21875,0.0
37.0234375,-31.73828125,-29.78515625,-37.109375,-25.87890625,-32.71484375,0.0
37.02734375,-29.296875,-27.34375,-26.3671875,-25.87890625,-63.4765625,0.0
37.03125,-31.25,-26.3671875,-38.57421875,-47.36328125,-56.640625,0.0
37.03515625,-16.6015625,-21.97265625,-47.8515625,-49.31640625,-70.3125,0.0
37.0390625,-19.53125,-27.83203125,-38.57421875,-32.71484375,-63.4765625,0.0
37.04296875,-34.1796875,-36.62109375,-38.0859375,-24.4140625,-65.4296875,0.0
37.046875,-31.73828125,-37.59765625,-41.50390625,-19.04296875,-52.734375,0.0
37.05078125,-27.83203125,-34.1796875,-44.43359375,-35.15625,-23.4375,0.0
37.0546875,-23.4375,-27.83203125,-42.96875,-52.734375,-93.75,0.0
37.05859375,-21.484375,-22.94921875,-30.76171875,-41.015625,-138.671875,0.0
37.0625,-41.50390625,-31.25,-36.62109375,-32.2265625,-162.59765625,0.0
37.06640625,-56.15234375,-33.203125,-48.33984375,-42.96875,-114.2578125,0.0
37.0703125,-40.0390625,-25.390625,-41.015625,-46.38671875,-5.37109375,0.0
37.07421875,-24.4140625,-26.3671875,-39.0625,-43.45703125,14.6484375,0.0
37.078125,-32.2265625,-28.3203125,-45.41015625,-50.78125,-12.20703125,0.0
37.08203125,-51.26953125,-26.85546875,-42.48046875,-43.9453125,-44.43359375,0.0
37.0859375,-65.4296875,-25.390625,-36.1328125,-41.015625,-30.76171875,0.0
37.08984375,-54.19921875,-21.484375,-35.64453125,-53.7109375,-31.25,0.0
37.09375,-35.64453125,-20.01953125,-42.48046875,-59.5703125,-9.27734375,0.0
37.09765625,-31.73828125,-18.06640625,-46.875,-46.875,-16.11328125,0.0
37.1015625,-33.69140625,-10.7421875,-23.92578125,-16.11328125,-81.54296875,0.0
37.10546875,-41.015625,-11.23046875,-3.41796875,-12.20703125,-80.078125,0.0
37.109375,-43.45703125,-20.99609375,-28.80859375,-33.69140625,-105.95703125,0.0
37.11328125,-34.1796875,-23.4375,-43.45703125,-46.875,-130.859375,0.0
37.1171875,-41.50390625,-23.4375,-38.0859375,-49.8046875,-93.26171875,0.0
37.12109375,-47.8515625,-24.4140625,-34.1796875,-38.57421875,1.953125,0.0
37.125,-45.8984375,-28.80859375,-39.0625,-30.76171875,56.640625,0.0
37.12890625,-41.50390625,-21.97265625,-38.57421875,-39.55078125,4.39453125,0.0
37.1328125,-22.94921875,-20.99609375,-36.1328125,-48.33984375,-36.1328125,0.0
37.13671875,-14.6484375,-24.4140625,-41.50390625,-41.50390625,26.85546875,0.0
37.140625,-21.97265625,-24.4140625,-43.45703125,-32.2265625,86.42578125,0.0
37.14453125,-22.4609375,-24.90234375,-33.203125,-26.3671875,11.23046875,0.0
37.1484375,-15.625,-24.4140625,-32.2265625,-31.25,-68.84765625,0.0
37.15234375,-0.9765625,-25.390625,-41.50390625,-50.29296875,-49.31640625,0.0
37.15625,-0.48828125,-28.3203125,-41.015625,-60.05859375,-21.484375,0.0
37.16015625,-17.578125,-34.1796875,-37.109375,-47.8515625,20.01953125,0.0
37.1640625,-25.87890625,-27.83203125,-24.4140625,-21.97265625,63.4765625,0.0
37.16796875,-40.52734375,-35.64453125,-34.1796875,-31.25,24.90234375,0.0
37.171875,-41.50390625,-43.45703125,-48.828125,-51.26953125,-6.8359375,0.0
37.17578125,-36.62109375,-35.64453125,-42.96875,-43.9453125,23.92578125,0.0
37.1796875,-53.22265625,-36.62109375,-41.015625,-27.83203125,-37.59765625,0.0
37.18359375,-65.91796875,-42.96875,-40.0390625,-22.4609375,-90.8203125,0.0
37.1875,-68.84765625,-41.015625,-41.9921875,-40.0390625,-39.0625,0.0
37.19140625,-40.52734375,-25.87890625,-34.1796875,-40.0390625,-76.171875,0.0
37.1953125,-21.97265625,-23.4375,-31.25,-33.69140625,-46.875,0.0
37.19921875,-44.921875,-34.66796875,-38.57421875,-38.0859375,-46.875,0.0
37.203125,-68.359375,-34.1796875,-42.96875,-36.62109375,-90.33203125,0.0
37.20703125,-56.640625,-18.5546875,-20.01953125,-26.85546875,1.46484375,0.0
37.2109375,-33.203125,-11.71875,-11.23046875,-29.78515625,20.99609375,0.0
37.21484375,-33.203125,-27.34375,-44.921875,-43.9453125,-16.11328125,0.0
37.21875,-36.1328125,-29.296875,-43.9453125,-27.83203125,-63.96484375,0.0
37.22265625,-46.875,-22.4609375,-40.0390625,-13.671875,-104.00390625,0.0
37.2265625,-51.26953125,-23.92578125,-43.45703125,-21.484375,-19.04296875,0.0
37.23046875,-31.25,-20.99609375,-44.43359375,-32.2265625,30.2734375,0.0
37.234375,-16.11328125,-20.5078125,-43.45703125,-36.1328125,-42.96875,0.0
37.23828125,-20.5078125,-23.4375,-37.109375,-22.4609375,-86.9140625,0.0
37.2421875,-35.15625,-24.90234375,-33.69140625,-6.8359375,-29.296875,0.0
37.24609375,-45.8984375,-28.80859375,-38.0859375,-18.06640625,22.94921875,0.0
37.25,-26.85546875,-23.92578125,-32.71484375,-30.2734375,-3.90625,0.0
37.25390625,-7.32421875,-17.08984375,-22.4609375,-31.73828125,-77.63671875,0.0
37.2578125,-23.4375,-21.484375,-29.296875,-37.109375,-32.2265625,0.0
37.26171875,-44.921875,-29.78515625,-38.0859375,-33.69140625,54.19921875,0.0
37.265625,-39.0625,-23.4375,-26.3671875,-18.5546875,40.52734375,0.0
37.26953125,-19.53125,-14.6484375,-20.99609375,-20.99609375,64.94140625,0.0
37.2734375,-13.18359375,-28.3203125,-40.0390625,-45.41015625,-8.30078125,0.0
37.27734375,-11.71875,-30.2734375,-41.015625,-43.9453125,-55.6640625,0.0
37.28125,-30.76171875,-23.92578125,-38.57421875,-38.0859375,31.73828125,0.0
37.28515625,-44.921875,-27.83203125,-44.43359375,-38.0859375,88.8671875,0.0
37.2890625,-34.1796875,-32.71484375,-48.33984375,-45.8984375,115.234375,0.0
37.29296875,-28.3203125,-34.66796875,-47.36328125,-60.05859375,3.41796875,0.0
37.296875,-25.390625,-24.90234375,-36.1328125,-46.875,-74.70703125,0.0
37.30078125,-13.671875,-12.20703125,-13.671875,-16.6015625,-34.66796875,0.0
37.3046875,-30.2734375,-26.85546875,-19.53125,-16.6015625,-36.1328125,0.0
37.30859375,-49.8046875,-40.0390625,-41.50390625,-37.59765625,-11.71875,0.0
37.3125,-31.25,-39.55078125,-44.43359375,-48.33984375,-24.4140625,0.0
37.31640625,-22.94921875,-42.48046875,-39.0625,-53.7109375,-34.1796875,0.0
37.3203125,-36.1328125,-40.0390625,-37.59765625,-41.50390625,-39.0625,0.0
37.32421875,-42.96875,-35.64453125,-40.0390625,-28.3203125,-38.57421875,0.0
37.328125,-41.015625,-33.69140625,-37.59765625,-35.15625,-9.765625,0.0
37.33203125,-30.2734375,-30.76171875,-36.62109375,-46.875,-17.578125,0.0
37.3359375,-31.73828125,-32.71484375,-41.50390625,-54.19921875,-89.35546875,0.0
37.33984375,-33.69140625,-37.109375,-36.1328125,-47.8515625,-102.05078125,0.0
37.34375,-23.4375,-19.53125,-13.18359375,-23.4375,-14.16015625,0.0
37.34765625,-39.0625,-23.92578125,-23.92578125,-41.015625,-41.9921875,0.0
37.3515625,-41.015625,-38.0859375,-45.8984375,-68.84765625,-32.71484375,0.0
37.35546875,-25.87890625,-32.2265625,-41.50390625,-68.359375,-41.9921875,0.0
37.359375,-30.76171875,-33.203125,-37.59765625,-58.59375,-78.125,0.0
37.36328125,-48.33984375,-38.57421875,-40.0390625,-54.19921875,-22.4609375,0.0
37.3671875,-55.6640625,-37.59765625,-38.0859375,-55.6640625,-19.04296875,0.0
37.37109375,-36.62109375,-37.109375,-41.9921875,-56.15234375,-6.34765625,0.0
37.375,-17.08984375,-39.55078125,-48.33984375,-52.734375,11.71875,0.0
37.37890625,-36.62109375,-33.69140625,-48.33984375,-55.6640625,-23.4375,0.0
37.3828125,-55.6640625,-30.76171875,-46.38671875,-47.36328125,-70.80078125,0.0
37.38671875,-44.43359375,-31.73828125,-36.62109375,-29.78515625,-103.515625,0.0
37.390625,-28.80859375,-38.0859375,-25.390625,-34.1796875,-78.125,0.0
37.39453125,-24.4140625,-42.96875,-38.57421875,-57.6171875,2.9296875,0.0
37.3984375,-38.57421875,-40.0390625,-47.8515625,-62.01171875,-27.83203125,0.0
37.40234375,-61.5234375,-42.48046875,-40.0390625,-44.43359375,-29.296875,0.0
37.40625,-62.98828125,-47.36328125,-41.50390625,-38.0859375,40.0390625,0.0
37.41015625,-47.8515625,-46.875,-45.41015625,-45.41015625,44.43359375,0.0
37.4140625,-29.296875,-36.1328125,-43.45703125,-52.734375,-6.34765625,0.0
37.41796875,-26.3671875,-33.69140625,-37.59765625,-48.33984375,-36.1328125,0.0
37.421875,-43.9453125,-35.15625,-39.0625,-39.0625,14.16015625,0.0
37.42578125,-56.640625,-34.1796875,-44.921875,-38.57421875,8.30078125,0.0
37.4296875,-46.875,-35.15625,-44.43359375,-42.96875,-18.5546875,0.0
37.43359375,-30.2734375,-34.66796875,-39.0625,-48.33984375,-49.8046875,0.0
37.4375,-35.15625,-35.64453125,-41.9921875,-52.24609375,-148.92578125,0.0
37.44140625,-48.828125,-40.52734375,-42.48046875,-43.45703125,-149.90234375,0.0
37.4453125,-51.26953125,-41.50390625,-40.52734375,-35.64453125,-62.5,0.0
37.44921875,-41.015625,-39.0625,-43.9453125,-43.9453125,-86.42578125,0.0
37.453125,-35.15625,-37.109375,-43.45703125,-54.6875,-148.92578125,0.0
37.45703125,-45.8984375,-36.62109375,-44.43359375,-51.26953125,-86.9140625,0.0
37.4609375,-49.31640625,-34.66796875,-38.57421875,-31.73828125,-61.03515625,0.0
37.46484375,-50.29296875,-30.2734375,-33.69140625,-22.94921875,-58.10546875,0.0
37.46875,-49.31640625,-29.296875,-37.109375,-34.66796875,-35.15625,0.0
37.47265625,-42.48046875,-32.71484375,-39.55078125,-50.29296875,-64.453125,0.0
37.4765625,-33.203125,-28.80859375,-38.0859375,-49.31640625,-3.90625,0.0
37.48046875,-32.2265625,-23.4375,-24.4140625,-34.1796875,9.765625,0.0
37.484375,-43.45703125,-26.3671875,-29.78515625,-32.71484375,22.94921875,0.0
37.48828125,-43.45703125,-28.80859375,-47.8515625,-43.9453125,38.57421875,0.0
37.4921875,-23.4375,-20.01953125,-48.33984375,-46.38671875,36.1328125,0.0
37.49609375,-13.18359375,-16.6015625,-45.8984375,-47.8515625,90.8203125,0.0
37.5,-24.4140625,-24.4140625,-44.921875,-41.50390625,49.8046875,0.0
37.50390625,-29.78515625,-27.34375,-45.41015625,-23.92578125,-2.44140625,0.0
37.5078125,-18.5546875,-27.34375,-45.41015625,-24.90234375,-25.87890625,0.0
37.51171875,-16.11328125,-28.80859375,-46.38671875,-38.0859375,-34.1796875,0.0
37.515625,-22.94921875,-32.71484375,-45.8984375,-44.921875,-100.09765625,0.0
37.51953125,-25.87890625,-28.3203125,-42.96875,-30.76171875,-176.7578125,0.0
37.5234375,-41.50390625,-19.04296875,-38.57421875,-19.53125,-178.22265625,0.0
37.52734375,-43.45703125,-23.4375,-44.921875,-30.2734375,-154.296875,0.0
37.53125,-28.80859375,-30.2734375,-59.08203125,-45.41015625,-97.16796875,0.0
37.53515625,-12.20703125,-25.87890625,-49.8046875,-37.109375,-98.14453125,0.0
37.5390625,-11.71875,-25.87890625,-27.34375,-18.5546875,-130.37109375,0.0
37.54296875,-37.59765625,-33.69140625,-33.203125,-23.4375,-8.30078125,0.0
37.546875,-43.45703125,-39.55078125,-41.50390625,-31.25,30.76171875,0.0
37.55078125,-25.390625,-33.69140625,-39.0625,-37.59765625,38.57421875,0.0
37.5546875,-13.671875,-27.83203125,-43.45703125,-47.36328125,30.2734375,0.0
37.55859375,-17.578125,-34.1796875,-46.875,-42.48046875,-27.34375,0.0
37.5625,-30.76171875,-29.78515625,-42.48046875,-22.94921875,70.80078125,0.0
37.56640625,-27.34375,-19.04296875,-32.2265625,-10.25390625,58.10546875,0.0
37.5703125,-10.7421875,-21.484375,-27.83203125,-18.5546875,-52.24609375,0.0
37.57421875,-5.37109375,-21.97265625,-33.69140625,-30.76171875,-98.14453125,0.0
37.578125,-17.578125,-26.3671875,-39.0625,-31.73828125,-102.05078125,0.0
37.58203125,-24.90234375,-23.4375,-19.53125,-18.06640625,-65.4296875,0.0
37.5859375,-13.18359375,-8.7890625,-3.41796875,-5.37109375,6.8359375,0.0
37.58984375,-7.32421875,-22.4609375,-26.85546875,-23.92578125,32.2265625,0.0
37.59375,3.90625,-31.73828125,-37.59765625,-32.71484375,-62.01171875,0.0
37.59765625,-3.90625,-29.296875,-34.66796875,-28.3203125,-33.69140625,0.0
37.6015625,-27.83203125,-32.71484375,-35.15625,-24.4140625,-20.5078125,0.0
37.60546875,-36.62109375,-38.0859375,-34.66796875,-15.625,-103.02734375,0.0
37.609375,-31.73828125,-41.015625,-37.109375,-19.53125,-143.06640625,0.0
37.61328125,-21.97265625,-41.50390625,-35.64453125,-34.66796875,-135.25390625,0.0
37.6171875,-30.2734375,-41.015625,-37.109375,-37.59765625,-120.60546875,0.0
37.62109375,-37.109375,-39.0625,-38.57421875,-23.4375,-144.53125,0.0
37.625,-41.9921875,-39.55078125,-34.66796875,-17.578125,-92.28515625,0.0
37.62890625,-41.9921875,-36.1328125,-29.78515625,-25.390625,-91.30859375,0.0
37.6328125,-25.390625,-30.76171875,-35.64453125,-34.1796875,-62.5,0.0
37.63671875,-23.92578125,-33.69140625,-37.59765625,-37.59765625,5.859375,0.0
37.640625,-38.0859375,-36.62109375,-31.25,-26.3671875,-20.99609375,0.0
37.64453125,-45.41015625,-34.1796875,-28.3203125,-18.5546875,23.4375,0.0
37.6484375,-41.50390625,-37.109375,-29.78515625,-30.2734375,63.4765625,0.0
37.65234375,-28.80859375,-40.52734375,-34.66796875,-38.0859375,-5.37109375,0.0
37.65625,-20.99609375,-41.50390625,-38.57421875,-44.43359375,-47.8515625,0.0
37.66015625,-21.97265625,-31.73828125,-36.1328125,-33.203125,-76.66015625,0.0
37.6640625,-33.69140625,-33.203125,-32.71484375,-21.484375,-114.74609375,0.0
37.66796875,-40.0390625,-49.8046875,-34.1796875,-29.296875,-106.4453125,0.0
37.671875,-18.5546875,-44.43359375,-26.3671875,-28.80859375,-66.40625,0.0
37.67578125,0.9765625,-29.296875,-18.5546875,-23.4375,57.6171875,0.0
37.6796875,-14.6484375,-32.2265625,-27.83203125,-20.01953125,-3.90625,0.0
37.68359375,-35.15625,-33.69140625,-31.73828125,-10.7421875,-69.82421875,0.0
37.6875,-33.69140625,-31.25,-30.2734375,-10.7421875,29.78515625,0.0
37.69140625,-16.6015625,-34.66796875,-27.83203125,-22.94921875,66.89453125,0.0
37.6953125,-11.71875,-35.64453125,-31.25,-31.25,-91.30859375,0.0
37.69921875,-28.80859375,-38.57421875,-37.109375,-27.83203125,-106.4453125,0.0
37.703125,-42.96875,-37.59765625,-34.1796875,-20.99609375,24.4140625,0.0
37.70703125,-49.8046875,-30.76171875,-33.203125,-23.92578125,-10.7421875,0.0
37.7109375,-36.1328125,-27.34375,-34.1796875,-29.78515625,-11.71875,0.0
37.71484375,-27.34375,-33.203125,-33.69140625,-36.1328125,64.94140625,0.0
37.71875,-33.203125,-33.69140625,-20.99609375,-24.4140625,-26.85546875,0.0
37.72265625,-49.31640625,-32.2265625,-17.578125,-14.16015625,-57.12890625,0.0
37.7265625,-64.453125,-37.59765625,-29.296875,-33.69140625,15.13671875,0.0
37.73046875,-58.10546875,-40.52734375,-35.15625,-46.38671875,15.625,0.0
37.734375,-36.1328125,-38.0859375,-36.62109375,-34.66796875,17.08984375,0.0
37.73828125,-35.64453125,-36.62109375,-35.64453125,-29.296875,61.03515625,0.0
37.7421875,-51.26953125,-34.66796875,-32.2265625,-25.390625,33.203125,0.0
37.74609375,-49.31640625,-31.73828125,-20.99609375,-10.7421875,4.39453125,0.0
37.75,-49.31640625,-33.69140625,-24.4140625,-28.3203125,35.15625,0.0
37.75390625,-43.45703125,-35.64453125,-31.25,-47.8515625,4.8828125,0.0
37.7578125,-37.109375,-35.64453125,-33.69140625,-34.66796875,-102.5390625,0.0
37.76171875,-33.69140625,-27.83203125,-22.94921875,-15.625,-125.48828125,0.0
37.765625,-32.2265625,-18.5546875,-11.23046875,-7.32421875,-109.375,0.0
37.76953125,-30.2734375,-33.203125,-27.83203125,-22.4609375,-153.80859375,0.0
37.7734375,-22.4609375,-43.9453125,-35.15625,-35.15625,-142.08984375,0.0
37.77734375,-20.5078125,-40.52734375,-32.2265625,-35.15625,-67.87109375,0.0
37.78125,-28.3203125,-42.96875,-28.3203125,-26.3671875,-90.8203125,0.0
37.78515625,-35.64453125,-41.015625,-28.80859375,-19.04296875,-91.30859375,0.0
37.7890625,-33.203125,-30.2734375,-31.25,-26.3671875,-68.359375,0.0
37.79296875,-12.20703125,-24.4140625,-29.78515625,-30.76171875,-51.26953125,0.0
37.796875,-9.27734375,-26.3671875,-26.3671875,-29.296875,-16.6015625,0.0
37.80078125,-36.1328125,-29.78515625,-25.390625,-21.97265625,-37.59765625,0.0
37.8046875,-51.26953125,-33.69140625,-23.92578125,-24.90234375,1.953125,0.0
37.80859375,-36.1328125,-27.34375,-3.41796875,-23.92578125,12.6953125,0.0
37.8125,-22.4609375,-21.97265625,-8.30078125,-34.66796875,18.5546875,0.0
37.81640625,-23.4375,-26.85546875,-23.92578125,-43.45703125,27.34375,0.0
37.8203125,-27.83203125,-28.80859375,-18.5546875,-25.87890625,-55.17578125,0.0
37.82421875,-42.48046875,-32.2265625,-24.4140625,-26.3671875,-48.828125,0.0
37.828125,-47.8515625,-35.64453125,-32.71484375,-38.0859375,-41.015625,0.0
37.83203125,-37.59765625,-36.1328125,-38.0859375,-49.8046875,-29.78515625,0.0
37.8359375,-24.90234375,-38.0859375,-36.62109375,-46.875,-94.23828125,0.0
37.83984375,-26.3671875,-36.1328125,-28.3203125,-15.625,-156.73828125,0.0
37.84375,-34.1796875,-34.1796875,-29.78515625,-6.34765625,-98.14453125,0.0
37.84765625,-41.50390625,-34.66796875,-34.1796875,-26.3671875,-60.546875,0.0
37.8515625,-34.1796875,-32.71484375,-26.3671875,-32.2265625,21.484375,0.0
37.85546875,-21.97265625,-33.69140625,-25.87890625,-35.15625,46.38671875,0.0
37.859375,-30.76171875,-35.64453125,-39.0625,-31.73828125,34.66796875,0.0
37.86328125,-47.36328125,-40.0390625,-43.45703125,-20.01953125,30.76171875,0.0
37.8671875,-53.22265625,-44.921875,-24.90234375,-23.92578125,13.18359375,0.0
37.87109375,-32.71484375,-37.109375,-12.6953125,-27.34375,-35.15625,0.0
37.875,-13.671875,-29.78515625,-24.90234375,-28.3203125,-34.66796875,0.0
37.87890625,-21.97265625,-36.1328125,-27.34375,-25.87890625,-24.90234375,0.0
37.8828125,-32.2265625,-35.64453125,-23.92578125,-15.625,-80.078125,0.0
37.88671875,-35.64453125,-33.69140625,-24.4140625,-24.4140625,-69.3359375,0.0
37.890625,-29.296875,-40.0390625,-25.87890625,-37.109375,-80.56640625,0.0
37.89453125,-17.578125,-38.0859375,-26.85546875,-37.109375,-125.48828125,0.0
37.8984375,-20.01953125,-33.203125,-25.390625,-38.57421875,-97.65625,0.0
37.90234375,-30.2734375,-36.62109375,-25.390625,-34.1796875,-98.6328125,0.0
37.90625,-40.0390625,-33.203125,-25.87890625,-27.34375,-51.7578125,0.0
37.91015625,-31.25,-26.3671875,-21.97265625,-40.0390625,5.859375,0.0
37.9140625,-22.94921875,-29.296875,-26.85546875,-55.17578125,-139.6484375,0.0
37.91796875,-25.87890625,-28.3203125,-28.80859375,-44.921875,-373.046875,0.0
37.921875,-36.1328125,-32.71484375,-29.296875,-28.3203125,-285.64453125,0.0
37.92578125,-44.43359375,-38.0859375,-31.73828125,-20.5078125,-1.46484375,0.0
37.9296875,-33.69140625,-29.296875,-19.04296875,-20.99609375,128.90625,0.0
37.93359375,-22.94921875,-31.73828125,-18.5546875,-27.83203125,97.16796875,0.0
37.9375,-20.99609375,-36.1328125,-29.296875,-22.4609375,-22.4609375,0.0
37.94140625,-27.83203125,-32.2265625,-30.76171875,-6.8359375,-30.76171875,0.0
37.9453125,-26.3671875,-33.203125,-23.4375,-2.44140625,46.38671875,0.0
37.94921875,-14.6484375,-33.203125,-19.53125,-6.34765625,47.8515625,0.0
37.953125,-12.20703125,-34.66796875,-27.83203125,-17.08984375,-4.39453125,0.0
37.95703125,-9.765625,-34.1796875,-30.2734375,-19.53125,-28.3203125,0.0
37.9609375,-17.08984375,-27.83203125,-25.87890625,-13.18359375,10.25390625,0.0
37.96484375,-33.69140625,-30.2734375,-26.3671875,-13.18359375,56.640625,0.0
37.96875,-30.2734375,-32.71484375,-31.73828125,-29.296875,23.4375,0.0
37.97265625,-11.23046875,-29.296875,-37.109375,-41.015625,8.30078125,0.0
37.9765625,-11.23046875,-27.83203125,-33.203125,-34.66796875,-35.15625,0.0
37.98046875,-37.59765625,-28.80859375,-25.390625,-32.71484375,-74.21875,0.0
37.984375,-49.31640625,-29.78515625,-20.5078125,-25.87890625,-84.9609375,0.0
37.98828125,-42.96875,-27.34375,-21.97265625,-27.34375,-38.57421875,0.0
37.9921875,-36.1328125,-24.4140625,-24.90234375,-42.48046875,-34.1796875,0.0
37.99609375,-31.25,-25.390625,-27.83203125,-46.38671875,-120.1171875,0.0
38.0,-36.62109375,-30.2734375,-29.78515625,-32.71484375,-70.80078125,0.0
38.00390625,-46.38671875,-32.2265625,-19.04296875,-25.390625,-30.76171875,0.0
38.0078125,-53.7109375,-32.71484375,-25.390625,-37.59765625,-0.9765625,0.0
38.01171875,-32.71484375,-30.76171875,-34.1796875,-47.36328125,55.6640625,0.0
38.015625,-17.578125,-30.76171875,-35.15625,-47.8515625,64.453125,0.0
38.01953125,-30.2734375,-28.80859375,-34.1796875,-37.59765625,57.6171875,0.0
38.0234375,-42.48046875,-21.484375,-28.80859375,-24.90234375,-25.390625,0.0
38.02734375,-38.0859375,-27.34375,-30.76171875,-27.83203125,-62.5,0.0
38.03125,-18.5546875,-36.62109375,-32.71484375,-41.50390625,12.6953125,0.0
38.03515625,3.90625,-35.15625,-31.25,-41.50390625,24.90234375,0.0
38.0390625,11.23046875,-27.34375,-28.80859375,-26.3671875,-53.7109375,0.0
38.04296875,-2.44140625,-30.76171875,-32.2265625,-18.06640625,-64.94140625,0.0
38.046875,-9.765625,-31.73828125,-29.296875,-16.11328125,-70.3125,0.0
38.05078125,-8.30078125,-29.78515625,-18.5546875,-24.4140625,-29.296875,0.0
38.0546875,-11.71875,-33.203125,-27.34375,-29.78515625,32.71484375,0.0
38.05859375,-17.578125,-30.2734375,-31.73828125,-21.484375,-41.9921875,0.0
38.0625,-38.0859375,-29.296875,-24.4140625,-9.27734375,-61.03515625,0.0
38.06640625,-55.17578125,-30.76171875,-25.87890625,-9.765625,26.3671875,0.0
38.0703125,-44.921875,-30.2734375,-30.2734375,-25.87890625,36.1328125,0.0
38.07421875,-28.3203125,-26.85546875,-24.90234375,-35.64453125,-24.4140625,0.0
38.078125,-30.2734375,-24.4140625,-24.90234375,-37.109375,-11.23046875,0.0
38.08203125,-47.36328125,-25.87890625,-29.78515625,-33.203125,17.578125,0.0
38.0859375,-53.7109375,-28.80859375,-27.83203125,-27.83203125,-43.9453125,0.0
38.08984375,-43.45703125,-31.25,-24.90234375,-28.80859375,-54.6875,0.0
38.09375,-12.6953125,-19.04296875,-14.6484375,-22.94921875,-87.40234375,0.0
38.09765625,-4.39453125,-14.6484375,-19.04296875,-15.13671875,-116.2109375,0.0
38.1015625,-33.203125,-26.85546875,-25.390625,-15.625,-146.97265625,0.0
38.10546875,-51.7578125,-26.3671875,-21.484375,-17.08984375,-139.6484375,0.0
38.109375,-43.9453125,-27.34375,-28.80859375,-26.3671875,-34.66796875,0.0
38.11328125,-34.1796875,-37.59765625,-30.76171875,-36.1328125,20.5078125,0.0
38.1171875,-29.296875,-34.1796875,-24.4140625,-35.64453125,-10.25390625,0.0
38.12109375,-32.71484375,-20.01953125,-19.04296875,-22.94921875,-31.73828125,0.0
38.125,-54.19921875,-29.296875,-24.90234375,-22.4609375,-34.1796875,0.0
38.12890625,-47.36328125,-33.69140625,-26.3671875,-31.73828125,28.3203125,0.0
38.1328125,-33.69140625,-29.78515625,-25.87890625,-42.96875,58.59375,0.0
38.13671875,-10.25390625,-9.765625,-2.9296875,-26.85546875,-62.98828125,0.0
38.140625,29.296875,32.71484375,53.22265625,28.3203125,-111.328125,0.0
38.14453125,-8.30078125,0.9765625,17.578125,3.41796875,-51.7578125,0.0
38.1484375,-49.31640625,-42.48046875,-35.64453125,-53.22265625,-80.078125,0.0
38.15234375,-33.69140625,-43.9453125,-38.0859375,-60.05859375,-63.96484375,0.0
38.15625,-22.94921875,-39.55078125,-43.9453125,-59.08203125,-104.00390625,0.0
38.16015625,-33.69140625,-37.109375,-42.48046875,-48.828125,-96.19140625,0.0
38.1640625,-53.7109375,-41.9921875,-44.921875,-39.0625,-70.80078125,0.0
38.16796875,-51.7578125,-43.45703125,-46.875,-45.8984375,-39.0625,0.0
38.171875,-34.66796875,-41.9921875,-43.45703125,-57.12890625,18.5546875,0.0
38.17578125,-22.94921875,-43.45703125,-44.43359375,-60.05859375,1.46484375,0.0
38.1796875,-28.80859375,-38.57421875,-43.9453125,-51.7578125,-6.34765625,0.0
38.18359375,-16.11328125,-15.13671875,-6.34765625,-3.90625,21.97265625,0.0
38.1875,-20.5078125,-30.2734375,-9.27734375,-1.953125,-12.6953125,0.0
38.19140625,-37.109375,-45.8984375,-44.43359375,-44.921875,-28.80859375,0.0
38.1953125,-21.97265625,-32.2265625,-25.87890625,-47.8515625,-15.625,0.0
38.19921875,-24.90234375,-31.25,-12.20703125,-32.71484375,-31.25,0.0
38.203125,-52.24609375,-47.8515625,-32.2265625,-32.71484375,13.671875,0.0
38.20703125,-56.15234375,-52.734375,-36.62109375,-37.109375,20.5078125,0.0
38.2109375,-44.921875,-49.31640625,-32.71484375,-45.8984375,-15.13671875,0.0
38.21484375,-39.55078125,-43.9453125,-30.76171875,-53.7109375,-94.7265625,0.0
38.21875,-37.59765625,-40.52734375,-28.80859375,-52.734375,-149.90234375,0.0
38.22265625,-52.734375,-49.8046875,-30.76171875,-41.9921875,-86.9140625,0.0
38.2265625,-62.98828125,-55.6640625,-23.92578125,-39.55078125,15.13671875,0.0
38.23046875,-50.29296875,-45.8984375,-7.8125,-46.38671875,52.734375,0.0
38.234375,-43.45703125,-41.9921875,-22.4609375,-58.10546875,53.7109375,0.0
38.23828125,-50.78125,-47.36328125,-41.015625,-63.4765625,-19.53125,0.0
38.2421875,-64.453125,-47.36328125,-39.55078125,-57.6171875,-31.73828125,0.0
38.24609375,-62.01171875,-47.36328125,-36.62109375,-50.78125,31.73828125,0.0
38.25,-48.828125,-46.38671875,-40.52734375,-58.59375,22.4609375,0.0
38.25390625,-36.1328125,-45.8984375,-41.50390625,-71.2890625,-36.62109375,0.0
38.2578125,-35.64453125,-49.8046875,-31.73828125,-63.4765625,-19.53125,0.0
38.26171875,-44.921875,-45.41015625,-24.90234375,-43.9453125,0.9765625,0.0
38.265625,-49.31640625,-38.0859375,-25.390625,-41.9921875,-27.83203125,0.0
38.26953125,-57.12890625,-43.45703125,-33.203125,-58.59375,51.26953125,0.0
38.2734375,-50.29296875,-40.52734375,-39.0625,-68.359375,52.24609375,0.0
38.27734375,-45.41015625,-37.59765625,-34.66796875,-65.91796875,-20.01953125,0.0
38.28125,-53.7109375,-40.52734375,-31.25,-57.12890625,0.48828125,0.0
38.28515625,-54.6875,-42.96875,-23.92578125,-45.8984375,44.921875,0.0
38.2890625,-54.6875,-51.7578125,-15.625,-58.10546875,37.59765625,0.0
38.29296875,-41.015625,-53.7109375,-24.4140625,-65.91796875,-26.85546875,0.0
38.296875,-26.3671875,-44.921875,-35.64453125,-47.8515625,-44.921875,0.0
38.30078125,-30.76171875,-39.55078125,-32.2265625,-33.203125,-49.8046875,0.0
38.3046875,-45.41015625,-47.36328125,-29.296875,-36.62109375,-40.0390625,0.0
38.30859375,-49.8046875,-48.828125,-37.109375,-48.33984375,57.12890625,0.0
38.3125,-27.83203125,-41.50390625,-36.1328125,-49.31640625,44.921875,0.0
38.31640625,-27.83203125,-42.48046875,-35.64453125,-50.78125,-41.015625,0.0
38.3203125,-51.26953125,-44.921875,-34.66796875,-42.96875,-116.69921875,0.0
38.32421875,-61.5234375,-45.8984375,-28.3203125,-31.25,-63.96484375,0.0
38.328125,-56.15234375,-47.36328125,-27.34375,-39.55078125,7.8125,0.0
38.33203125,-43.9453125,-47.8515625,-26.85546875,-51.7578125,57.12890625,0.0
38.3359375,-36.1328125,-42.96875,-21.97265625,-47.8515625,85.44921875,0.0
38.33984375,-38.57421875,-41.9921875,-21.484375,-35.15625,-11.23046875,0.0
38.34375,-48.828125,-42.96875,-21.97265625,-23.92578125,-56.15234375,0.0
38.34765625,-39.55078125,-33.203125,-24.90234375,-19.04296875,-54.6875,0.0
38.3515625,-22.94921875,-27.83203125,-28.80859375,-34.66796875,-106.4453125,0.0
38.35546875,-20.5078125,-34.66796875,-31.25,-40.52734375,-63.4765625,0.0
38.359375,-24.4140625,-41.9921875,-30.76171875,-31.73828125,-16.11328125,0.0
38.36328125,-29.296875,-38.0859375,-24.4140625,-23.92578125,-39.0625,0.0
38.3671875,-44.43359375,-40.52734375,-32.2265625,-26.85546875,-24.4140625,0.0
38.37109375,-41.50390625,-45.8984375,-41.015625,-35.64453125,-67.87109375,0.0
38.375,-18.5546875,-37.109375,-35.15625,-40.52734375,-100.09765625,0.0
38.37890625,-15.625,-24.4140625,-19.53125,-31.25,-133.30078125,0.0
38.3828125,-40.52734375,-25.87890625,-23.92578125,-17.578125,-138.18359375,0.0
38.38671875,-48.828125,-34.1796875,-35.64453125,-24.90234375,-119.62890625,0.0
38.390625,-33.69140625,-35.64453125,-31.73828125,-38.0859375,-92.28515625,0.0
38.39453125,-21.97265625,-37.109375,-34.1796875,-45.8984375,-52.734375,0.0
38.3984375,-26.3671875,-31.25,-33.203125,-40.0390625,-66.40625,0.0
38.40234375,-40.52734375,-29.296875,-27.34375,-24.4140625,-78.125,0.0
38.40625,-47.36328125,-36.1328125,-30.76171875,-20.5078125,-3.41796875,0.0
38.41015625,-44.921875,-29.78515625,-32.71484375,-31.73828125,80.56640625,0.0
38.4140625,-26.85546875,-27.83203125,-24.4140625,-39.55078125,40.0390625,0.0
38.41796875,-22.94921875,-34.66796875,-30.76171875,-41.015625,-20.5078125,0.0
38.421875,-29.296875,-30.76171875,-20.5078125,-15.13671875,-31.73828125,0.0
38.42578125,-26.3671875,-25.390625,8.7890625,3.41796875,-2.9296875,0.0
38.4296875,-34.66796875,-30.76171875,-14.6484375,-25.390625,46.38671875,0.0
38.43359375,-30.2734375,-32.71484375,-37.59765625,-45.8984375,20.99609375,0.0
38.4375,-23.92578125,-29.296875,-32.2265625,-40.0390625,12.6953125,0.0
38.44140625,-37.59765625,-34.66796875,-25.87890625,-29.296875,-10.7421875,0.0
38.4453125,-49.31640625,-41.50390625,-28.80859375,-21.97265625,-42.48046875,0.0
38.44921875,-41.015625,-41.50390625,-33.203125,-30.2734375,-32.71484375,0.0
38.453125,-28.80859375,-41.50390625,-36.1328125,-46.38671875,1.953125,0.0
38.45703125,-24.90234375,-40.0390625,-38.57421875,-42.48046875,-62.98828125,0.0
38.4609375,-34.1796875,-36.1328125,-30.2734375,-25.390625,-91.30859375,0.0
38.46484375,-48.33984375,-34.1796875,-21.484375,-20.99609375,-45.41015625,0.0
38.46875,-45.41015625,-37.59765625,-23.92578125,-37.59765625,-10.25390625,0.0
38.47265625,-22.4609375,-36.1328125,-31.25,-44.43359375,-41.015625,0.0
38.4765625,-11.23046875,-30.2734375,-35.15625,-40.52734375,-61.5234375,0.0
38.48046875,-31.25,-36.1328125,-31.25,-33.203125,-123.53515625,0.0
38.484375,-46.38671875,-35.64453125,-25.87890625,-22.94921875,-179.19921875,0.0
38.48828125,-45.41015625,-29.296875,-25.87890625,-28.80859375,-105.95703125,0.0
38.4921875,-35.64453125,-30.76171875,-31.25,-43.9453125,-72.75390625,0.0
38.49609375,-24.90234375,-32.71484375,-29.78515625,-43.9453125,-6.8359375,0.0
38.5,-37.109375,-29.78515625,-27.34375,-35.15625,42.48046875,0.0
38.50390625,-52.734375,-30.76171875,-26.85546875,-25.390625,27.34375,0.0
38.5078125,-48.33984375,-35.15625,-24.4140625,-27.83203125,-20.99609375,0.0
38.51171875,-31.73828125,-36.1328125,-24.90234375,-35.15625,-12.6953125,0.0
38.515625,-22.4609375,-39.0625,-25.390625,-40.0390625,-46.38671875,0.0
38.51953125,-29.296875,-33.69140625,-26.3671875,-37.109375,-73.2421875,0.0
38.5234375,-40.0390625,-27.83203125,-26.3671875,-30.2734375,-107.421875,0.0
38.52734375,-46.875,-34.1796875,-23.4375,-32.71484375,-71.2890625,0.0
38.53125,-28.80859375,-32.2265625,-21.484375,-38.57421875,17.578125,0.0
38.53515625,-16.6015625,-24.4140625,-25.87890625,-45.41015625,26.85546875,0.0
38.5390625,-24.4140625,-19.04296875,-27.83203125,-28.80859375,51.7578125,0.0
38.54296875,-36.1328125,-19.04296875,-24.4140625,-10.25390625,45.8984375,0.0
38.546875,-49.8046875,-30.2734375,-27.83203125,-22.4609375,17.578125,0.0
38.55078125,-44.43359375,-34.1796875,-37.59765625,-41.50390625,-30.76171875,0.0
38.5546875,-26.85546875,-26.3671875,-37.59765625,-43.45703125,-67.3828125,0.0
38.55859375,-18.5546875,-20.5078125,-24.4140625,-32.2265625,-52.24609375,0.0
38.5625,-40.0390625,-25.390625,-23.4375,-22.4609375,-42.96875,0.0
38.56640625,-46.875,-30.2734375,-33.203125,-23.4375,-47.8515625,0.0
38.5703125,-29.78515625,-27.34375,-25.390625,-35.64453125,-63.96484375,0.0
38.57421875,-20.01953125,-21.484375,-21.97265625,-43.45703125,-58.59375,0.0
38.578125,-20.5078125,-25.390625,-31.73828125,-38.57421875,-110.83984375,0.0
38.58203125,-26.3671875,-33.203125,-34.1796875,-27.34375,-171.875,0.0
38.5859375,-37.59765625,-25.390625,-27.83203125,-16.11328125,-56.15234375,0.0
38.58984375,-40.52734375,-34.1796875,-30.76171875,-20.5078125,15.625,0.0
38.59375,-24.4140625,-41.015625,-37.59765625,-32.2265625,-67.3828125,0.0
38.59765625,-22.94921875,-34.66796875,-35.15625,-31.73828125,-68.84765625,0.0
38.6015625,-40.52734375,-35.64453125,-35.15625,-21.97265625,-69.82421875,0.0
38.60546875,-49.31640625,-35.64453125,-31.25,-21.97265625,-55.6640625,0.0
38.609375,-47.8515625,-32.71484375,-34.66796875,-43.45703125,-31.73828125,0.0
38.61328125,-31.73828125,-28.3203125,-35.64453125,-52.734375,-40.52734375,0.0
38.6171875,-22.4609375,-25.390625,-24.4140625,-41.015625,-37.109375,0.0
38.62109375,-36.62109375,-24.90234375,-27.34375,-30.76171875,-27.34375,0.0
38.625,-46.875,-27.34375,-35.15625,-26.3671875,-48.33984375,0.0
38.62890625,-36.62109375,-32.71484375,-39.55078125,-24.90234375,-48.828125,0.0
38.6328125,-7.8125,-32.2265625,-39.55078125,-23.92578125,2.44140625,0.0
38.63671875,-7.8125,-32.2265625,-40.0390625,-37.109375,-27.83203125,0.0
38.640625,-30.2734375,-33.69140625,-41.50390625,-39.0625,-69.82421875,0.0
38.64453125,-37.109375,-35.64453125,-39.0625,-27.34375,-2.44140625,0.0
38.6484375,-40.0390625,-37.109375,-37.109375,-36.1328125,-7.8125,0.0
38.65234375,-32.2265625,-28.80859375,-33.203125,-51.7578125,-90.8203125,0.0
38.65625,-28.3203125,-29.296875,-31.73828125,-54.19921875,-99.609375,0.0
38.66015625,-41.50390625,-41.015625,-32.71484375,-44.921875,-85.9375,0.0
38.6640625,-53.22265625,-36.62109375,-28.80859375,-30.76171875,-66.40625,0.0
38.66796875,-45.41015625,-27.83203125,-33.203125,-35.15625,-58.59375,0.0
38.671875,-26.3671875,-24.4140625,-37.109375,-50.78125,8.7890625,0.0
38.67578125,-18.06640625,-22.94921875,-35.15625,-53.7109375,92.7734375,0.0
38.6796875,-33.203125,-31.25,-36.1328125,-45.41015625,26.85546875,0.0
38.68359375,-40.52734375,-26.85546875,-26.85546875,-27.83203125,-1.953125,0.0
38.6875,-41.9921875,-22.4609375,-27.34375,-24.4140625,57.12890625,0.0
38.69140625,-33.69140625,-35.15625,-39.55078125,-48.33984375,15.625,0.0
38.6953125,-25.390625,-42.48046875,-43.9453125,-62.01171875,-62.98828125,0.0
38.69921875,-30.76171875,-31.73828125,-36.62109375,-41.9921875,-95.21484375,0.0
38.703125,-41.9921875,-27.34375,-34.1796875,-32.71484375,-91.30859375,0.0
38.70703125,-40.52734375,-28.80859375,-32.71484375,-35.64453125,-50.29296875,0.0
38.7109375,-20.5078125,-28.3203125,-29.78515625,-36.1328125,34.1796875,0.0
38.71484375,-8.7890625,-24.90234375,-32.2265625,-41.50390625,13.671875,0.0
38.71875,-12.6953125,-24.4140625,-35.15625,-35.15625,-33.203125,0.0
38.72265625,-25.390625,-23.4375,-36.1328125,-22.94921875,1.46484375,0.0
38.7265625,-29.78515625,-22.4609375,-29.78515625,-5.859375,28.80859375,0.0
38.73046875,-22.4609375,-23.92578125,-25.390625,-10.25390625,9.765625,0.0
38.734375,-19.04296875,-28.3203125,-28.3203125,-37.109375,30.76171875,0.0
38.73828125,-22.4609375,-30.2734375,-29.296875,-40.0390625,72.265625,0.0
38.7421875,-37.59765625,-29.296875,-23.4375,-28.3203125,46.875,0.0
38.74609375,-43.9453125,-33.203125,-31.73828125,-31.25,28.3203125,0.0
38.75,-32.2265625,-30.76171875,-32.71484375,-39.0625,89.84375,0.0
38.75390625,-9.27734375,-10.25390625,-4.8828125,-17.578125,69.3359375,0.0
38.7578125,-11.71875,-12.6953125,-13.671875,-17.578125,40.52734375,0.0
38.76171875,-35.15625,-32.2265625,-32.71484375,-25.390625,15.13671875,0.0
38.765625,-45.41015625,-36.1328125,-25.87890625,-21.97265625,47.8515625,0.0
38.76953125,-59.5703125,-35.64453125,-34.1796875,-42.48046875,22.94921875,0.0
38.7734375,-44.43359375,-35.64453125,-36.1328125,-46.38671875,-58.59375,0.0
38.77734375,-25.87890625,-33.203125,-24.4140625,-38.0859375,-135.7421875,0.0
38.78125,-47.36328125,-32.2265625,-26.85546875,-40.52734375,-170.41015625,0.0
38.78515625,-57.6171875,-31.73828125,-34.1796875,-46.875,-88.37890625,0.0
38.7890625,-40.0390625,-23.4375,-29.296875,-44.43359375,-59.08203125,0.0
38.79296875,-28.80859375,-26.3671875,-33.69140625,-52.24609375,-38.0859375,0.0
38.796875,-20.99609375,-19.04296875,-22.94921875,-40.52734375,-44.921875,0.0
38.80078125,-24.4140625,-1.46484375,5.859375,-13.671875,-20.01953125,0.0
38.8046875,-52.734375,-20.99609375,-13.18359375,-17.08984375,-25.87890625,0.0
38.80859375,-63.96484375,-40.52734375,-36.1328125,-34.1796875,-61.5234375,0.0
38.8125,-42.96875,-31.25,-32.71484375,-47.36328125,-32.2265625,0.0
38.81640625,-38.0859375,-37.59765625,-30.76171875,-45.8984375,-90.33203125,0.0
38.8203125,-49.31640625,-41.50390625,-31.73828125,-34.1796875,-146.97265625,0.0
38.82421875,-53.22265625,-34.1796875,-28.3203125,-21.97265625,-135.7421875,0.0
38.828125,-46.875,-36.62109375,-29.296875,-26.3671875,-118.65234375,0.0
38.83203125,-34.66796875,-33.69140625,-31.73828125,-38.0859375,-151.85546875,0.0
38.8359375,-33.69140625,-29.296875,-30.76171875,-45.41015625,-136.23046875,0.0
38.83984375,-29.78515625,-24.90234375,-20.5078125,-26.3671875,-111.328125,0.0
38.84375,-17.578125,-20.5078125,-0.9765625,3.90625,-112.79296875,0.0
38.84765625,-28.80859375,-29.78515625,-14.16015625,-13.671875,-1.953125,0.0
38.8515625,-29.296875,-36.1328125,-37.59765625,-45.8984375,8.7890625,0.0
38.85546875,1.953125,-25.87890625,-22.94921875,-41.9921875,-30.76171875,0.0
38.859375,18.5546875,-9.27734375,1.46484375,-18.5546875,20.01953125,0.0
38.86328125,-26.85546875,-27.34375,-18.5546875,-31.25,42.48046875,0.0
38.8671875,-42.48046875,-43.45703125,-28.80859375,-38.0859375,-46.875,0.0
38.87109375,-23.4375,-42.48046875,-27.34375,-37.109375,-80.56640625,0.0
38.875,-21.484375,-41.9921875,-33.69140625,-50.29296875,-41.015625,0.0
38.87890625,-30.76171875,-34.1796875,-33.69140625,-41.9921875,-70.80078125,0.0
38.8828125,-52.24609375,-41.9921875,-38.0859375,-28.80859375,-120.1171875,0.0
38.88671875,-31.73828125,-22.94921875,-10.7421875,-0.9765625,-115.72265625,0.0
38.890625,13.671875,15.625,33.203125,20.01953125,-103.02734375,0.0
38.89453125,-16.11328125,-21.484375,-11.23046875,-26.85546875,-94.23828125,0.0
38.8984375,-37.59765625,-46.875,-40.52734375,-43.45703125,-65.4296875,0.0
38.90234375,-40.0390625,-41.015625,-29.296875,-26.85546875,-43.9453125,0.0
38.90625,-61.5234375,-38.57421875,-30.2734375,-35.64453125,-59.08203125,0.0
38.91015625,-59.5703125,-31.73828125,-37.59765625,-53.7109375,-96.19140625,0.0
38.9140625,-40.0390625,-28.80859375,-44.43359375,-61.03515625,-206.0546875,0.0
38.91796875,-28.80859375,-27.34375,-34.1796875,-41.015625,-270.5078125,0.0
38.921875,-41.015625,-31.25,-32.71484375,-25.390625,-184.08203125,0.0
38.92578125,-70.3125,-46.38671875,-46.875,-41.015625,-111.328125,0.0
38.9296875,-66.89453125,-42.48046875,-41.015625,-41.50390625,-40.0390625,0.0
38.93359375,-12.6953125,-5.37109375,-0.9765625,-19.04296875,-31.25,0.0
38.9375,-15.625,-19.53125,-18.5546875,-42.48046875,-0.48828125,0.0
38.94140625,-48.33984375,-42.96875,-44.921875,-51.7578125,57.12890625,0.0
38.9453125,-47.8515625,-28.80859375,-27.83203125,-32.2265625,19.04296875,0.0
38.94921875,-47.36328125,-31.25,-28.3203125,-36.1328125,50.29296875,0.0
38.953125,-35.64453125,-41.50390625,-40.52734375,-47.8515625,88.37890625,0.0
38.95703125,-26.3671875,-35.64453125,-36.1328125,-43.45703125,28.80859375,0.0
38.9609375,-37.109375,-29.78515625,-31.25,-27.34375,-22.4609375,0.0
38.96484375,-42.48046875,-27.83203125,-35.64453125,-17.08984375,9.27734375,0.0
38.96875,-41.015625,-25.390625,-35.64453125,-27.34375,-40.52734375,0.0
38.97265625,-41.9921875,-38.57421875,-37.59765625,-39.0625,-43.9453125,0.0
38.9765625,-14.6484375,-30.76171875,-31.73828125,-26.3671875,-82.51953125,0.0
38.98046875,5.859375,1.46484375,-7.32421875,-6.34765625,-185.546875,0.0
38.984375,-20.01953125,-10.7421875,-15.13671875,-5.37109375,-131.8359375,0.0
38.98828125,-48.828125,-38.57421875,-41.50390625,-37.59765625,-134.27734375,0.0
38.9921875,-45.41015625,-39.0625,-43.9453125,-54.19921875,-113.28125,0.0
38.99609375,-23.4375,-37.59765625,-42.48046875,-47.8515625,12.20703125,0.0
39.0,-35.64453125,-39.55078125,-36.62109375,-36.1328125,78.125,0.0
39.00390625,-49.31640625,-41.9921875,-28.80859375,-26.3671875,104.98046875,0.0
39.0078125,-42.48046875,-39.55078125,-28.3203125,-30.2734375,60.546875,0.0
39.01171875,-27.34375,-35.15625,-35.15625,-39.55078125,-139.6484375,0.0
39.015625,-18.06640625,-32.71484375,-38.0859375,-53.22265625,-147.4609375,0.0
39.01953125,-30.2734375,-30.2734375,-34.1796875,-57.12890625,-8.7890625,0.0
39.0234375,-45.8984375,-31.25,-32.2265625,-42.96875,-57.6171875,0.0
39.02734375,-46.38671875,-39.0625,-34.1796875,-37.59765625,-83.49609375,0.0
39.03125,-38.57421875,-40.0390625,-37.109375,-50.29296875,-18.06640625,0.0
39.03515625,-28.3203125,-28.80859375,-28.3203125,-54.19921875,-69.3359375,0.0
39.0390625,-7.32421875,-9.765625,-9.27734375,-30.2734375,-94.23828125,0.0
39.04296875,-21.97265625,-24.90234375,-22.4609375,-22.94921875,-10.25390625,0.0
39.046875,-53.22265625,-43.9453125,-37.59765625,-28.3203125,-20.5078125,0.0
39.05078125,-56.15234375,-44.921875,-41.015625,-53.7109375,-6.34765625,0.0
39.0546875,-41.9921875,-47.36328125,-47.36328125,-67.3828125,75.68359375,0.0
39.05859375,-34.1796875,-46.875,-43.45703125,-55.6640625,46.38671875,0.0
39.0625,-42.96875,-42.48046875,-44.43359375,-42.96875,-23.4375,0.0
39.06640625,-55.6640625,-41.9921875,-47.36328125,-36.1328125,-32.71484375,0.0
39.0703125,-51.26953125,-41.9921875,-46.875,-43.45703125,-58.10546875,0.0
39.07421875,-40.0390625,-44.43359375,-43.9453125,-52.734375,-18.06640625,0.0
39.078125,-39.55078125,-38.0859375,-37.59765625,-48.33984375,-27.83203125,0.0
39.08203125,-75.68359375,-52.734375,-58.10546875,-59.5703125,-112.3046875,0.0
39.0859375,-107.91015625,-82.03125,-77.63671875,-78.61328125,-57.6171875,0.0
39.08984375,-72.265625,-57.6171875,-55.6640625,-65.91796875,12.20703125,0.0
39.09375,-28.3203125,-31.73828125,-41.015625,-47.8515625,5.37109375,0.0
39.09765625,-20.99609375,-29.78515625,-41.50390625,-41.50390625,-28.80859375,0.0
39.1015625,-33.69140625,-28.3203125,-37.59765625,-40.0390625,-42.48046875,0.0
39.10546875,-39.55078125,-34.1796875,-34.1796875,-34.66796875,-4.39453125,0.0
39.109375,-36.62109375,-36.1328125,-35.15625,-28.3203125,-28.80859375,0.0
39.11328125,-33.203125,-32.71484375,-43.45703125,-40.52734375,-109.86328125,0.0
39.1171875,-37.109375,-34.1796875,-44.921875,-55.6640625,-84.9609375,0.0
39.12109375,-42.96875,-31.25,-35.15625,-30.2734375,2.9296875,0.0
39.125,-61.5234375,-41.50390625,-41.50390625,-17.578125,3.90625,0.0
39.12890625,-90.33203125,-68.84765625,-63.96484375,-68.359375,-9.765625,0.0
39.1328125,-60.546875,-52.24609375,-51.7578125,-71.2890625,31.73828125,0.0
39.13671875,-26.3671875,-34.1796875,-35.15625,-40.0390625,21.484375,0.0
39.140625,-50.78125,-42.96875,-37.59765625,-35.15625,-45.8984375,0.0
39.14453125,-70.80078125,-47.8515625,-38.57421875,-32.71484375,-4.8828125,0.0
39.1484375,-54.19921875,-42.48046875,-36.1328125,-34.1796875,20.01953125,0.0
39.15234375,-36.1328125,-36.62109375,-32.71484375,-41.9921875,-45.8984375,0.0
39.15625,-22.4609375,-35.15625,-33.203125,-42.96875,-25.87890625,0.0
39.16015625,-33.203125,-36.1328125,-35.64453125,-33.69140625,103.515625,0.0
39.1640625,-55.17578125,-27.83203125,-30.76171875,-23.4375,41.015625,0.0
39.16796875,-53.7109375,-29.296875,-34.1796875,-28.80859375,-13.18359375,0.0
39.171875,-37.59765625,-38.0859375,-34.1796875,-37.59765625,-41.50390625,0.0
39.17578125,-21.97265625,-32.71484375,-22.4609375,-35.15625,-93.75,0.0
39.1796875,-29.78515625,-29.78515625,-26.3671875,-18.06640625,-121.09375,0.0
39.18359375,-41.015625,-36.1328125,-30.2734375,-6.34765625,-125.9765625,0.0
39.1875,-44.43359375,-35.15625,-28.80859375,-10.7421875,-85.9375,0.0
39.19140625,-28.80859375,-32.2265625,-32.71484375,-28.3203125,-84.47265625,0.0
39.1953125,-17.08984375,-39.55078125,-36.62109375,-47.36328125,-104.4921875,0.0
39.19921875,-26.85546875,-38.0859375,-35.15625,-49.31640625,-119.140625,0.0
39.203125,-40.52734375,-29.296875,-31.73828125,-28.80859375,-79.58984375,0.0
39.20703125,-48.33984375,-32.2265625,-36.1328125,-21.97265625,37.109375,0.0
39.2109375,-35.15625,-38.57421875,-41.50390625,-46.38671875,82.03125,0.0
39.21484375,-26.3671875,-34.66796875,-42.48046875,-56.640625,78.125,0.0
39.21875,-28.80859375,-25.87890625,-28.3203125,-38.57421875,46.38671875,0.0
39.22265625,-42.96875,-30.2734375,-26.85546875,-28.80859375,53.7109375,0.0
39.2265625,-44.43359375,-29.296875,-31.25,-22.94921875,15.13671875,0.0
39.23046875,-34.1796875,-24.4140625,-32.2265625,-20.01953125,8.30078125,0.0
39.234375,-23.4375,-31.25,-33.69140625,-30.2734375,19.53125,0.0
39.23828125,-22.94921875,-34.66796875,-32.71484375,-35.15625,-98.6328125,0.0
39.2421875,-40.52734375,-29.78515625,-33.69140625,-26.85546875,-92.28515625,0.0
39.24609375,-51.26953125,-34.66796875,-30.2734375,-24.90234375,-104.4921875,0.0
39.25,-41.015625,-41.9921875,-28.3203125,-32.2265625,-107.421875,0.0
39.25390625,-17.08984375,-34.66796875,-32.2265625,-28.80859375,-52.734375,0.0
39.2578125,-14.16015625,-25.390625,-35.15625,-22.4609375,-100.5859375,0.0
39.26171875,-25.390625,-31.73828125,-36.1328125,-24.4140625,-109.86328125,0.0
39.265625,-35.15625,-40.0390625,-35.15625,-27.34375,-39.55078125,0.0
39.26953125,-37.109375,-32.2265625,-31.73828125,-33.69140625,15.13671875,0.0
