timestam,TP9,AF7,AF8,TP10,AUX,Marker
378.00390625,-10.25390625,-23.4375,-35.15625,-22.4609375,-22.4609375,0.0
378.0078125,-32.71484375,-26.85546875,-38.0859375,-37.59765625,-30.76171875,0.0
378.01171875,-58.59375,-36.1328125,-42.48046875,-58.59375,-46.875,0.0
378.015625,-50.29296875,-37.109375,-41.015625,-52.734375,-107.421875,0.0
378.01953125,-16.11328125,-30.2734375,-35.15625,-39.0625,-82.51953125,0.0
378.0234375,-5.859375,-25.390625,-37.109375,-31.25,-5.37109375,0.0
378.02734375,-34.1796875,-31.25,-41.9921875,-27.83203125,-41.015625,0.0
378.03125,-51.7578125,-37.109375,-41.9921875,-36.62109375,-14.16015625,0.0
378.03515625,-39.55078125,-35.64453125,-43.9453125,-34.66796875,22.4609375,0.0
378.0390625,-16.6015625,-26.85546875,-43.45703125,-24.90234375,-15.13671875,0.0
378.04296875,-2.44140625,-21.484375,-40.52734375,-17.578125,-58.59375,0.0
378.046875,-22.94921875,-22.94921875,-40.0390625,-9.765625,-70.3125,0.0
378.05078125,-51.7578125,-24.4140625,-43.45703125,-25.390625,-75.1953125,0.0
378.0546875,-45.41015625,-25.390625,-41.9921875,-28.80859375,-60.546875,0.0
378.05859375,-20.5078125,-25.390625,-40.52734375,-20.01953125,19.04296875,0.0
378.0625,-7.32421875,-29.78515625,-41.50390625,-15.13671875,-33.203125,0.0
378.06640625,-18.5546875,-34.1796875,-43.45703125,-17.578125,-87.40234375,0.0
378.0703125,-44.921875,-33.69140625,-44.43359375,-36.1328125,-3.41796875,0.0
378.07421875,-44.43359375,-35.15625,-43.45703125,-45.8984375,19.04296875,0.0
378.078125,-16.11328125,-31.73828125,-39.0625,-31.25,-12.20703125,0.0
378.08203125,-2.9296875,-27.34375,-40.0390625,-25.390625,-25.390625,0.0
378.0859375,-19.53125,-25.390625,-39.0625,-30.76171875,-109.375,0.0
378.08984375,-51.26953125,-29.296875,-35.64453125,-40.52734375,-59.5703125,0.0
378.09375,-55.6640625,-33.203125,-37.109375,-44.921875,74.70703125,0.0
378.09765625,-24.4140625,-31.73828125,-34.66796875,-34.66796875,58.59375,0.0
378.1015625,0.0,-28.80859375,-29.78515625,-31.25,-67.87109375,0.0
378.10546875,-14.6484375,-31.25,-33.69140625,-33.203125,-78.61328125,0.0
378.109375,-47.8515625,-35.15625,-40.0390625,-38.0859375,-28.80859375,0.0
378.11328125,-49.31640625,-35.15625,-38.0859375,-37.109375,45.8984375,0.0
378.1171875,-26.85546875,-35.15625,-34.66796875,-25.390625,64.453125,0.0
378.12109375,-13.18359375,-30.2734375,-30.76171875,-20.99609375,-3.41796875,0.0
378.125,-18.5546875,-28.3203125,-29.78515625,-22.94921875,-23.4375,0.0
378.12890625,-43.45703125,-34.1796875,-36.1328125,-29.78515625,-8.30078125,0.0
378.1328125,-56.640625,-39.0625,-37.109375,-36.62109375,-47.8515625,0.0
378.13671875,-34.1796875,-33.69140625,-33.69140625,-34.1796875,-84.9609375,0.0
378.140625,-1.953125,-23.92578125,-27.83203125,-21.97265625,-13.671875,0.0
378.14453125,-9.765625,-27.34375,-23.92578125,-21.484375,22.94921875,0.0
378.1484375,-40.0390625,-34.66796875,-31.73828125,-37.59765625,-12.6953125,0.0
378.15234375,-49.31640625,-35.64453125,-39.0625,-42.96875,-99.12109375,0.0
378.15625,-41.50390625,-34.1796875,-34.66796875,-42.48046875,-120.60546875,0.0
378.16015625,-19.04296875,-30.2734375,-30.76171875,-39.0625,-65.4296875,0.0
378.1640625,-13.671875,-37.109375,-28.3203125,-30.76171875,-33.203125,0.0
378.16796875,-25.390625,-41.9921875,-29.78515625,-36.1328125,24.90234375,0.0
378.171875,-38.0859375,-37.109375,-34.66796875,-39.55078125,39.55078125,0.0
378.17578125,-32.2265625,-29.296875,-33.203125,-38.0859375,11.71875,0.0
378.1796875,-11.23046875,-26.3671875,-26.3671875,-37.109375,45.41015625,0.0
378.18359375,-11.23046875,-29.78515625,-24.4140625,-21.97265625,-9.765625,0.0
378.1875,-32.2265625,-31.25,-30.2734375,-19.53125,-73.2421875,0.0
378.19140625,-50.29296875,-36.1328125,-27.83203125,-37.109375,-14.6484375,0.0
378.1953125,-38.57421875,-38.57421875,-25.87890625,-39.0625,25.390625,0.0
378.19921875,-10.25390625,-36.1328125,-28.80859375,-33.69140625,96.6796875,0.0
378.203125,4.8828125,-34.1796875,-28.80859375,-34.1796875,117.67578125,0.0
378.20703125,-7.32421875,-29.78515625,-30.2734375,-29.296875,9.27734375,0.0
378.2109375,-22.4609375,-29.78515625,-38.57421875,-41.9921875,-75.1953125,0.0
378.21484375,-19.04296875,-33.69140625,-41.015625,-47.8515625,-86.42578125,0.0
378.21875,6.34765625,-30.76171875,-38.57421875,-32.71484375,-83.49609375,0.0
378.22265625,10.7421875,-33.69140625,-36.62109375,-20.01953125,-58.10546875,0.0
378.2265625,-17.578125,-32.71484375,-25.87890625,-14.16015625,7.32421875,0.0
378.23046875,-48.828125,-29.78515625,-25.87890625,-21.97265625,-62.98828125,0.0
378.234375,-50.29296875,-30.76171875,-30.2734375,-31.25,-90.33203125,0.0
378.23828125,-25.87890625,-27.83203125,-25.390625,-13.18359375,-4.8828125,0.0
378.2421875,-10.7421875,-24.90234375,-21.97265625,-3.41796875,18.06640625,0.0
378.24609375,-24.90234375,-27.83203125,-27.34375,-20.5078125,-67.87109375,0.0
378.25,-51.26953125,-33.69140625,-32.71484375,-33.203125,-38.0859375,0.0
378.25390625,-57.12890625,-35.15625,-29.78515625,-31.73828125,-12.20703125,0.0
378.2578125,-35.64453125,-32.71484375,-22.4609375,-17.08984375,-101.5625,0.0
378.26171875,-15.625,-27.34375,-17.08984375,2.9296875,-145.5078125,0.0
378.265625,-33.69140625,-29.78515625,-18.06640625,0.48828125,-152.34375,0.0
378.26953125,-67.3828125,-40.0390625,-22.4609375,-16.11328125,-91.30859375,0.0
378.2734375,-74.70703125,-38.0859375,-27.34375,-33.203125,-16.6015625,0.0
378.27734375,-53.22265625,-31.73828125,-30.76171875,-40.52734375,-15.13671875,0.0
378.28125,-27.83203125,-34.1796875,-25.390625,-38.0859375,-4.8828125,0.0
378.28515625,-31.25,-37.59765625,-21.97265625,-35.64453125,44.921875,0.0
378.2890625,-57.12890625,-43.45703125,-29.296875,-47.36328125,-9.27734375,0.0
378.29296875,-57.6171875,-39.0625,-36.1328125,-53.7109375,-46.875,0.0
378.296875,-28.80859375,-32.71484375,-32.71484375,-41.015625,-117.1875,0.0
378.30078125,-11.71875,-29.78515625,-26.85546875,-30.76171875,-199.21875,0.0
378.3046875,-18.5546875,-26.3671875,-33.203125,-29.296875,-217.28515625,0.0
378.30859375,-41.9921875,-27.34375,-41.015625,-39.0625,-251.46484375,0.0
378.3125,-65.91796875,-33.69140625,-38.57421875,-42.96875,-239.2578125,0.0
378.31640625,-47.36328125,-32.2265625,-24.4140625,-35.64453125,-179.19921875,0.0
378.3203125,-12.20703125,-29.78515625,-21.484375,-23.4375,-47.8515625,0.0
378.32421875,-9.27734375,-32.71484375,-28.80859375,-22.4609375,-26.3671875,0.0
378.328125,-38.0859375,-36.62109375,-34.1796875,-34.1796875,-50.29296875,0.0
378.33203125,-54.6875,-38.57421875,-34.1796875,-41.015625,-65.4296875,0.0
378.3359375,-32.71484375,-33.69140625,-26.3671875,-39.0625,-50.29296875,0.0
378.33984375,-5.37109375,-32.2265625,-21.97265625,-21.97265625,-47.8515625,0.0
378.34375,-10.25390625,-35.64453125,-22.94921875,-17.08984375,-51.7578125,0.0
378.34765625,-45.41015625,-39.55078125,-26.85546875,-32.71484375,-71.2890625,0.0
378.3515625,-64.453125,-38.57421875,-28.80859375,-41.015625,-88.8671875,0.0
378.35546875,-52.24609375,-35.64453125,-29.78515625,-38.57421875,3.90625,0.0
378.359375,-25.87890625,-28.80859375,-20.99609375,-32.71484375,-22.94921875,0.0
378.36328125,-23.4375,-32.2265625,-19.53125,-30.76171875,-159.66796875,0.0
378.3671875,-55.6640625,-45.41015625,-32.71484375,-39.0625,-74.70703125,0.0
378.37109375,-77.63671875,-51.7578125,-37.59765625,-52.734375,89.35546875,0.0
378.375,-63.96484375,-51.7578125,-39.55078125,-52.24609375,48.33984375,0.0
378.37890625,-24.4140625,-40.52734375,-37.109375,-35.64453125,-16.11328125,0.0
378.3828125,-7.8125,-35.64453125,-31.25,-30.2734375,41.9921875,0.0
378.38671875,-33.203125,-38.57421875,-30.76171875,-33.203125,60.546875,0.0
378.390625,-60.05859375,-37.59765625,-35.15625,-47.36328125,21.484375,0.0
378.39453125,-59.5703125,-35.15625,-35.64453125,-52.24609375,51.26953125,0.0
378.3984375,-27.34375,-25.390625,-27.83203125,-34.66796875,30.2734375,0.0
378.40234375,-12.20703125,-29.296875,-28.80859375,-29.78515625,-26.85546875,0.0
378.40625,-36.1328125,-39.55078125,-23.92578125,-38.0859375,45.8984375,0.0
378.41015625,-62.01171875,-46.38671875,-21.484375,-49.31640625,-8.7890625,0.0
378.4140625,-57.6171875,-49.8046875,-35.64453125,-62.5,-91.796875,0.0
378.41796875,-23.92578125,-40.52734375,-36.62109375,-43.45703125,-105.95703125,0.0
378.421875,-1.953125,-26.85546875,-28.3203125,-23.92578125,-166.50390625,0.0
378.42578125,-15.13671875,-24.4140625,-26.3671875,-33.69140625,-63.96484375,0.0
378.4296875,-34.66796875,-27.83203125,-27.34375,-39.0625,57.12890625,0.0
378.43359375,-39.0625,-20.5078125,-25.390625,-34.66796875,35.15625,0.0
378.4375,-22.94921875,-20.5078125,-22.94921875,-24.4140625,-27.34375,0.0
378.44140625,-4.39453125,-31.25,-27.83203125,-23.92578125,-44.921875,0.0
378.4453125,-17.578125,-30.76171875,-29.78515625,-28.3203125,-50.29296875,0.0
378.44921875,-51.7578125,-35.64453125,-23.92578125,-39.55078125,-41.50390625,0.0
378.453125,-61.5234375,-39.0625,-18.06640625,-53.22265625,-26.3671875,0.0
378.45703125,-38.0859375,-37.109375,-21.97265625,-40.0390625,-39.0625,0.0
378.4609375,-18.5546875,-32.71484375,-28.3203125,-24.4140625,-28.80859375,0.0
378.46484375,-16.6015625,-20.5078125,-28.80859375,-26.85546875,-10.25390625,0.0
378.46875,-41.50390625,-27.34375,-37.59765625,-40.52734375,-32.71484375,0.0
378.47265625,-58.10546875,-35.15625,-39.0625,-43.45703125,-74.70703125,0.0
378.4765625,-36.1328125,-28.80859375,-27.83203125,-28.80859375,-17.08984375,0.0
378.48046875,-15.625,-27.34375,-28.80859375,-27.34375,15.625,0.0
378.484375,-24.4140625,-34.1796875,-36.62109375,-36.62109375,-22.94921875,0.0
378.48828125,-54.6875,-40.52734375,-37.59765625,-51.7578125,-53.22265625,0.0
378.4921875,-75.68359375,-35.15625,-34.66796875,-56.15234375,1.46484375,0.0
378.49609375,-62.5,-35.64453125,-29.78515625,-47.36328125,47.8515625,0.0
378.5,-32.2265625,-35.64453125,-29.296875,-33.203125,29.296875,0.0
378.50390625,-25.87890625,-31.73828125,-33.203125,-30.2734375,-33.69140625,0.0
378.5078125,-47.36328125,-32.71484375,-36.1328125,-39.0625,-60.546875,0.0
378.51171875,-64.453125,-35.15625,-32.2265625,-36.62109375,-2.9296875,0.0
378.515625,-50.29296875,-30.2734375,-28.80859375,-34.66796875,-54.19921875,0.0
378.51953125,-18.5546875,-24.90234375,-27.83203125,-29.296875,-175.78125,0.0
378.5234375,-17.578125,-27.34375,-28.3203125,-19.04296875,-125.48828125,0.0
378.52734375,-46.38671875,-36.1328125,-37.109375,-31.25,-80.078125,0.0
378.53125,-62.98828125,-41.50390625,-43.45703125,-40.0390625,-103.02734375,0.0
378.53515625,-51.7578125,-35.64453125,-37.59765625,-36.62109375,-62.01171875,0.0
378.5390625,-20.99609375,-29.78515625,-28.3203125,-30.76171875,-34.66796875,0.0
378.54296875,-9.765625,-22.94921875,-25.87890625,-30.76171875,0.48828125,0.0
378.546875,-36.62109375,-30.76171875,-36.1328125,-38.57421875,-12.20703125,0.0
378.55078125,-62.01171875,-43.45703125,-41.015625,-40.0390625,-34.1796875,0.0
378.5546875,-54.6875,-39.55078125,-36.1328125,-39.55078125,24.4140625,0.0
378.55859375,-24.90234375,-32.2265625,-28.3203125,-29.296875,29.296875,0.0
378.5625,-9.765625,-31.25,-27.83203125,-24.4140625,-103.02734375,0.0
378.56640625,-22.94921875,-33.203125,-37.59765625,-33.203125,-157.2265625,0.0
378.5703125,-48.828125,-32.2265625,-36.1328125,-32.71484375,-107.91015625,0.0
378.57421875,-53.7109375,-34.1796875,-31.73828125,-25.87890625,-68.84765625,0.0
378.578125,-19.04296875,-31.25,-29.78515625,-22.94921875,-60.546875,0.0
378.58203125,1.46484375,-25.390625,-26.3671875,-14.16015625,-69.82421875,0.0
378.5859375,-17.08984375,-22.4609375,-21.97265625,-16.6015625,-94.7265625,0.0
378.58984375,-53.22265625,-30.2734375,-28.80859375,-33.69140625,-67.87109375,0.0
378.59375,-58.10546875,-31.25,-34.1796875,-33.203125,-28.80859375,0.0
378.59765625,-25.390625,-19.04296875,-28.80859375,-30.2734375,8.7890625,0.0
378.6015625,-8.30078125,-24.4140625,-21.484375,-29.78515625,49.31640625,0.0
378.60546875,-24.90234375,-34.66796875,-29.78515625,-26.85546875,33.69140625,0.0
378.609375,-44.921875,-40.0390625,-41.015625,-36.62109375,-7.32421875,0.0
378.61328125,-48.828125,-41.50390625,-40.52734375,-45.8984375,-60.546875,0.0
378.6171875,-24.90234375,-33.203125,-37.59765625,-35.64453125,-32.2265625,0.0
378.62109375,5.37109375,-21.484375,-32.2265625,-18.06640625,6.8359375,0.0
378.625,-0.48828125,-23.4375,-29.78515625,-17.08984375,-13.671875,0.0
378.62890625,-30.76171875,-32.71484375,-28.80859375,-28.3203125,11.23046875,0.0
378.6328125,-48.33984375,-33.69140625,-31.25,-32.2265625,-8.30078125,0.0
378.63671875,-30.2734375,-33.69140625,-36.1328125,-30.2734375,-61.03515625,0.0
378.640625,-5.859375,-32.71484375,-37.109375,-23.92578125,-146.97265625,0.0
378.64453125,-14.6484375,-35.15625,-27.83203125,-23.4375,-223.6328125,0.0
378.6484375,-44.43359375,-36.62109375,-22.4609375,-34.66796875,-197.265625,0.0
378.65234375,-52.24609375,-36.62109375,-39.0625,-41.9921875,-103.515625,0.0
378.65625,-33.203125,-33.203125,-40.52734375,-38.0859375,-7.8125,0.0
378.66015625,-12.20703125,-28.80859375,-29.78515625,-21.97265625,-77.63671875,0.0
378.6640625,-15.13671875,-35.15625,-37.109375,-35.15625,-105.95703125,0.0
378.66796875,-41.9921875,-42.48046875,-41.9921875,-47.8515625,9.765625,0.0
378.671875,-57.6171875,-37.59765625,-34.66796875,-36.62109375,30.76171875,0.0
378.67578125,-44.921875,-30.76171875,-27.34375,-35.64453125,-55.17578125,0.0
378.6796875,-13.18359375,-31.25,-21.484375,-27.34375,-66.89453125,0.0
378.68359375,1.46484375,-27.83203125,-23.92578125,-18.06640625,-29.78515625,0.0
378.6875,-25.87890625,-30.2734375,-29.296875,-27.83203125,-123.53515625,0.0
378.69140625,-59.08203125,-38.0859375,-27.34375,-44.921875,-211.42578125,0.0
378.6953125,-53.22265625,-39.0625,-29.78515625,-41.9921875,-161.62109375,0.0
378.69921875,-17.578125,-34.66796875,-34.1796875,-30.76171875,-195.80078125,0.0
378.703125,-13.671875,-32.2265625,-28.3203125,-23.4375,-228.515625,0.0
378.70703125,-43.45703125,-37.59765625,-25.87890625,-27.83203125,-127.44140625,0.0
378.7109375,-63.4765625,-35.15625,-32.2265625,-41.015625,-80.56640625,0.0
378.71484375,-59.08203125,-31.25,-38.57421875,-41.50390625,15.13671875,0.0
378.71875,-28.80859375,-29.296875,-36.1328125,-31.25,91.796875,0.0
378.72265625,-9.765625,-21.97265625,-33.203125,-32.2265625,59.5703125,0.0
378.7265625,-23.92578125,-24.90234375,-36.62109375,-42.48046875,77.63671875,0.0
378.73046875,-49.31640625,-28.80859375,-41.015625,-35.15625,19.53125,0.0
378.734375,-50.29296875,-27.34375,-33.203125,-33.69140625,1.46484375,0.0
378.73828125,-20.01953125,-31.25,-20.5078125,-36.1328125,28.80859375,0.0
378.7421875,-7.32421875,-30.76171875,-25.390625,-32.71484375,25.87890625,0.0
378.74609375,-31.73828125,-30.2734375,-34.66796875,-33.203125,-15.625,0.0
378.75,-62.5,-36.62109375,-38.57421875,-49.8046875,-52.734375,0.0
378.75390625,-68.359375,-37.59765625,-38.0859375,-51.7578125,-9.765625,0.0
378.7578125,-43.45703125,-36.62109375,-39.0625,-42.48046875,41.015625,0.0
378.76171875,-21.484375,-28.3203125,-36.62109375,-34.1796875,5.37109375,0.0
378.765625,-27.34375,-23.4375,-30.76171875,-30.2734375,-21.484375,0.0
378.76953125,-56.15234375,-29.78515625,-38.57421875,-58.59375,33.69140625,0.0
378.7734375,-61.5234375,-36.1328125,-38.0859375,-56.15234375,-1.46484375,0.0
378.77734375,-35.64453125,-34.1796875,-30.76171875,-39.55078125,7.8125,0.0
378.78125,-14.16015625,-29.296875,-13.18359375,-38.0859375,48.33984375,0.0
378.78515625,-10.7421875,-31.25,-15.625,-30.76171875,51.7578125,0.0
378.7890625,-38.0859375,-30.2734375,-35.64453125,-36.62109375,53.22265625,0.0
378.79296875,-60.05859375,-31.25,-39.0625,-48.33984375,69.82421875,0.0
378.796875,-39.0625,-27.83203125,-38.57421875,-45.8984375,90.33203125,0.0
378.80078125,-16.11328125,-20.99609375,-34.1796875,-26.3671875,17.578125,0.0
378.8046875,-19.04296875,-17.08984375,-35.15625,-30.76171875,-86.42578125,0.0
378.80859375,-45.41015625,-25.87890625,-38.57421875,-38.0859375,-101.07421875,0.0
378.8125,-66.89453125,-42.96875,-48.33984375,-45.41015625,-31.73828125,0.0
378.81640625,-47.8515625,-41.50390625,-51.7578125,-54.6875,27.83203125,0.0
378.8203125,-14.16015625,-33.69140625,-47.8515625,-37.59765625,49.8046875,0.0
378.82421875,-3.90625,-27.34375,-36.62109375,-23.92578125,93.75,0.0
378.828125,-32.2265625,-33.203125,-27.83203125,-38.57421875,26.3671875,0.0
378.83203125,-58.59375,-39.0625,-36.62109375,-54.6875,-45.41015625,0.0
378.8359375,-37.59765625,-35.15625,-39.0625,-37.59765625,-30.2734375,0.0
378.83984375,-12.20703125,-38.57421875,-36.62109375,-23.92578125,25.390625,0.0
378.84375,-8.7890625,-41.015625,-38.57421875,-34.1796875,-9.27734375,0.0
378.84765625,-28.3203125,-38.0859375,-38.0859375,-37.109375,-49.8046875,0.0
378.8515625,-55.17578125,-35.64453125,-38.0859375,-43.9453125,-114.2578125,0.0
378.85546875,-48.33984375,-38.57421875,-42.96875,-55.17578125,-54.19921875,0.0
378.859375,-14.16015625,-34.66796875,-38.57421875,-37.59765625,24.4140625,0.0
378.86328125,-9.27734375,-35.15625,-33.69140625,-23.92578125,-22.94921875,0.0
378.8671875,-33.69140625,-38.0859375,-38.57421875,-31.73828125,-24.90234375,0.0
378.87109375,-54.6875,-37.109375,-31.25,-43.9453125,-33.69140625,0.0
378.875,-49.31640625,-43.9453125,-31.73828125,-41.015625,14.6484375,0.0
378.87890625,-26.85546875,-40.0390625,-35.64453125,-30.2734375,35.64453125,0.0
378.8828125,-12.6953125,-30.2734375,-29.78515625,-23.4375,9.27734375,0.0
378.88671875,-30.76171875,-35.15625,-32.71484375,-22.4609375,-34.1796875,0.0
378.890625,-58.10546875,-36.62109375,-34.1796875,-37.109375,-99.12109375,0.0
378.89453125,-56.15234375,-29.78515625,-34.66796875,-47.8515625,-101.5625,0.0
378.8984375,-34.66796875,-29.78515625,-31.73828125,-43.9453125,-47.8515625,0.0
378.90234375,-16.11328125,-33.203125,-29.296875,-35.64453125,-77.63671875,0.0
378.90625,-26.85546875,-35.64453125,-29.296875,-34.66796875,-84.47265625,0.0
378.91015625,-52.734375,-37.109375,-36.1328125,-44.921875,-70.80078125,0.0
378.9140625,-52.734375,-32.2265625,-34.1796875,-41.50390625,-46.875,0.0
378.91796875,-32.2265625,-25.390625,-27.34375,-35.64453125,-45.41015625,0.0
378.921875,-7.32421875,-27.34375,-38.57421875,-32.71484375,-35.64453125,0.0
378.92578125,-7.32421875,-29.296875,-38.0859375,-27.83203125,-19.53125,0.0
378.9296875,-32.71484375,-29.78515625,-28.3203125,-39.55078125,-45.41015625,0.0
378.93359375,-34.66796875,-31.73828125,-33.69140625,-41.9921875,-79.1015625,0.0
378.9375,-7.32421875,-26.3671875,-40.0390625,-38.0859375,6.34765625,0.0
378.94140625,18.06640625,-16.11328125,-36.62109375,-36.62109375,83.984375,0.0
378.9453125,12.20703125,-10.7421875,-34.1796875,-37.59765625,51.7578125,0.0
378.94921875,-13.18359375,-17.08984375,-36.1328125,-43.45703125,9.765625,0.0
378.953125,-27.83203125,-23.4375,-40.0390625,-44.921875,-49.8046875,0.0
378.95703125,-22.94921875,-21.484375,-38.0859375,-47.36328125,-112.3046875,0.0
378.9609375,-4.8828125,-19.04296875,-29.78515625,-30.76171875,-121.09375,0.0
378.96484375,-21.97265625,-27.83203125,-28.80859375,-24.4140625,-53.7109375,0.0
378.96875,-58.59375,-31.73828125,-36.1328125,-40.52734375,-37.59765625,0.0
378.97265625,-72.265625,-34.1796875,-37.59765625,-46.38671875,-90.33203125,0.0
378.9765625,-56.15234375,-32.2265625,-31.73828125,-43.45703125,-103.515625,0.0
378.98046875,-23.92578125,-24.4140625,-35.64453125,-35.15625,-38.0859375,0.0
378.984375,-23.4375,-20.01953125,-36.62109375,-34.1796875,23.4375,0.0
378.98828125,-49.8046875,-26.85546875,-36.1328125,-46.875,-46.875,0.0
378.9921875,-62.5,-26.85546875,-39.55078125,-51.7578125,-111.81640625,0.0
378.99609375,-46.875,-23.4375,-38.0859375,-50.29296875,-140.13671875,0.0
379.0,-23.4375,-25.390625,-37.109375,-42.96875,-94.7265625,0.0
379.00390625,-11.23046875,-26.3671875,-38.57421875,-39.0625,-80.078125,0.0
379.0078125,-34.1796875,-36.62109375,-40.52734375,-47.8515625,-62.5,0.0
379.01171875,-64.453125,-41.015625,-44.921875,-52.24609375,-33.69140625,0.0
379.015625,-50.78125,-27.83203125,-43.45703125,-42.96875,-62.01171875,0.0
379.01953125,-25.390625,-18.06640625,-32.71484375,-31.25,-55.17578125,0.0
379.0234375,-25.87890625,-22.4609375,-27.34375,-36.1328125,-77.63671875,0.0
379.02734375,-49.31640625,-28.3203125,-38.57421875,-41.50390625,-75.68359375,0.0
379.03125,-69.82421875,-35.64453125,-49.31640625,-64.453125,-70.3125,0.0
379.03515625,-62.5,-34.66796875,-45.41015625,-65.91796875,-51.7578125,0.0
379.0390625,-29.296875,-19.53125,-38.57421875,-38.57421875,13.671875,0.0
379.04296875,-11.71875,-15.13671875,-38.57421875,-41.015625,30.2734375,0.0
379.046875,-25.87890625,-19.53125,-40.0390625,-42.48046875,-47.8515625,0.0
379.05078125,-49.8046875,-25.390625,-41.9921875,-48.828125,-93.26171875,0.0
379.0546875,-39.55078125,-25.87890625,-41.50390625,-53.22265625,-67.3828125,0.0
379.05859375,-11.23046875,-16.6015625,-34.66796875,-43.45703125,32.2265625,0.0
379.0625,1.46484375,-13.671875,-33.69140625,-35.15625,81.54296875,0.0
379.06640625,-21.97265625,-22.94921875,-41.50390625,-47.8515625,26.3671875,0.0
379.0703125,-53.7109375,-29.78515625,-41.015625,-60.05859375,21.97265625,0.0
379.07421875,-55.6640625,-25.87890625,-39.0625,-61.03515625,83.984375,0.0
379.078125,-29.296875,-22.94921875,-38.57421875,-51.26953125,122.55859375,0.0
379.08203125,-8.30078125,-19.53125,-37.59765625,-34.66796875,52.734375,0.0
379.0859375,-21.97265625,-16.11328125,-35.64453125,-24.4140625,-51.7578125,0.0
379.08984375,-51.7578125,-17.08984375,-36.1328125,-41.015625,-74.70703125,0.0
379.09375,-52.24609375,-24.4140625,-37.59765625,-46.38671875,-27.83203125,0.0
379.09765625,-26.85546875,-28.3203125,-38.57421875,-37.109375,-5.37109375,0.0
379.1015625,-8.30078125,-24.90234375,-32.2265625,-33.69140625,-104.98046875,0.0
379.10546875,-22.4609375,-27.83203125,-33.203125,-32.71484375,-92.7734375,0.0
379.109375,-57.6171875,-33.203125,-37.59765625,-48.828125,-36.1328125,0.0
379.11328125,-64.94140625,-33.69140625,-34.66796875,-54.6875,-60.546875,0.0
379.1171875,-37.109375,-34.1796875,-32.2265625,-42.48046875,24.4140625,0.0
379.12109375,-11.23046875,-29.296875,-26.85546875,-32.71484375,42.96875,0.0
379.125,-15.13671875,-27.34375,-30.76171875,-32.2265625,-16.11328125,0.0
379.12890625,-43.45703125,-33.203125,-41.50390625,-41.9921875,14.6484375,0.0
379.1328125,-53.22265625,-35.15625,-41.015625,-41.9921875,56.640625,0.0
379.13671875,-30.2734375,-31.25,-36.1328125,-41.50390625,0.48828125,0.0
379.140625,-3.90625,-29.296875,-31.25,-31.25,-2.44140625,0.0
379.14453125,-6.8359375,-33.203125,-31.25,-27.83203125,-83.0078125,0.0
379.1484375,-45.8984375,-40.0390625,-38.57421875,-42.48046875,-104.98046875,0.0
379.15234375,-68.359375,-43.9453125,-40.0390625,-56.15234375,-41.9921875,0.0
379.15625,-45.41015625,-39.0625,-26.3671875,-44.43359375,-91.30859375,0.0
379.16015625,-13.671875,-30.76171875,-24.90234375,-25.87890625,-108.3984375,0.0
379.1640625,-4.8828125,-29.78515625,-32.71484375,-26.85546875,-104.4921875,0.0
379.16796875,-37.59765625,-36.62109375,-36.62109375,-34.1796875,-47.36328125,0.0
379.171875,-59.08203125,-37.59765625,-37.109375,-40.52734375,-107.91015625,0.0
379.17578125,-41.015625,-35.15625,-33.203125,-33.203125,-62.01171875,0.0
379.1796875,-10.7421875,-29.78515625,-29.78515625,-33.69140625,41.9921875,0.0
379.18359375,-1.46484375,-29.78515625,-21.484375,-22.94921875,42.48046875,0.0
379.1875,-34.1796875,-42.48046875,-26.85546875,-24.90234375,17.578125,0.0
379.19140625,-57.12890625,-48.33984375,-40.0390625,-47.8515625,-21.97265625,0.0
379.1953125,-44.43359375,-39.55078125,-41.9921875,-42.96875,-34.1796875,0.0
379.19921875,-17.578125,-22.94921875,-29.78515625,-36.62109375,-52.24609375,0.0
379.203125,-11.71875,-19.04296875,-22.4609375,-35.64453125,13.18359375,0.0
379.20703125,-27.34375,-22.94921875,-35.15625,-38.57421875,-41.015625,0.0
379.2109375,-45.41015625,-28.80859375,-41.50390625,-45.8984375,-125.9765625,0.0
379.21484375,-46.875,-26.3671875,-37.109375,-42.96875,-151.3671875,0.0
379.21875,-25.87890625,-25.87890625,-30.2734375,-32.71484375,-171.875,0.0
379.22265625,-9.765625,-30.76171875,-31.73828125,-26.3671875,-43.9453125,0.0
379.2265625,-27.83203125,-28.3203125,-36.62109375,-28.3203125,64.94140625,0.0
379.23046875,-59.5703125,-27.83203125,-35.64453125,-42.48046875,32.71484375,0.0
379.234375,-57.6171875,-30.2734375,-33.203125,-40.52734375,-27.83203125,0.0
379.23828125,-32.2265625,-30.2734375,-37.109375,-20.99609375,-22.4609375,0.0
379.2421875,-13.18359375,-26.3671875,-32.2265625,-18.5546875,-58.59375,0.0
379.24609375,-20.5078125,-33.203125,-27.34375,-26.85546875,-76.171875,0.0
379.25,-48.828125,-41.9921875,-38.0859375,-48.33984375,-49.31640625,0.0
379.25390625,-53.22265625,-43.9453125,-41.015625,-47.36328125,-23.4375,0.0
379.2578125,-20.01953125,-38.0859375,-33.69140625,-28.80859375,41.015625,0.0
379.26171875,-0.48828125,-27.83203125,-30.76171875,-32.71484375,38.57421875,0.0
379.265625,-20.01953125,-28.80859375,-37.109375,-33.203125,-67.87109375,0.0
379.26953125,-47.8515625,-34.66796875,-39.0625,-35.64453125,-128.41796875,0.0
379.2734375,-56.640625,-39.0625,-40.52734375,-41.50390625,-37.109375,0.0
379.27734375,-37.109375,-30.76171875,-42.48046875,-32.2265625,41.9921875,0.0
379.28125,-7.32421875,-18.06640625,-39.55078125,-31.25,-28.80859375,0.0
379.28515625,-10.7421875,-25.390625,-36.1328125,-25.390625,-92.7734375,0.0
379.2890625,-41.9921875,-35.64453125,-24.90234375,-22.94921875,-64.94140625,0.0
379.29296875,-57.12890625,-35.64453125,-16.6015625,-39.55078125,-43.9453125,0.0
379.296875,-36.62109375,-33.69140625,-24.90234375,-51.26953125,40.52734375,0.0
379.30078125,-6.8359375,-31.73828125,-31.25,-29.296875,49.8046875,0.0
379.3046875,-6.8359375,-26.85546875,-30.76171875,-7.8125,-34.1796875,0.0
379.30859375,-41.50390625,-31.73828125,-35.64453125,-32.71484375,-7.32421875,0.0
379.3125,-55.6640625,-38.57421875,-37.59765625,-47.8515625,-9.27734375,0.0
379.31640625,-35.64453125,-34.1796875,-33.203125,-44.43359375,-9.27734375,0.0
379.3203125,-17.08984375,-32.2265625,-31.73828125,-36.62109375,-37.109375,0.0
379.32421875,-17.578125,-31.73828125,-35.15625,-41.9921875,-125.0,0.0
379.328125,-43.45703125,-34.1796875,-41.015625,-52.734375,-110.3515625,0.0
379.33203125,-58.59375,-37.109375,-38.0859375,-44.921875,-18.06640625,0.0
379.3359375,-45.41015625,-37.59765625,-33.69140625,-39.0625,-82.51953125,0.0
379.33984375,-27.83203125,-41.50390625,-41.50390625,-41.015625,-125.0,0.0
379.34375,-22.4609375,-39.55078125,-38.57421875,-31.25,-73.2421875,0.0
379.34765625,-37.109375,-35.64453125,-33.69140625,-33.203125,-30.2734375,0.0
379.3515625,-57.6171875,-38.57421875,-25.390625,-44.921875,-2.44140625,0.0
379.35546875,-47.36328125,-35.15625,-21.97265625,-28.80859375,-61.5234375,0.0
379.359375,-20.01953125,-26.85546875,-26.85546875,-21.97265625,-38.0859375,0.0
379.36328125,-4.8828125,-18.5546875,-27.83203125,-22.94921875,-16.11328125,0.0
379.3671875,-21.484375,-27.34375,-33.203125,-29.78515625,-44.921875,0.0
379.37109375,-53.7109375,-41.50390625,-38.57421875,-42.96875,-1.46484375,0.0
379.375,-55.6640625,-38.57421875,-38.0859375,-42.48046875,7.32421875,0.0
379.37890625,-30.2734375,-29.78515625,-33.69140625,-30.76171875,-10.7421875,0.0
379.3828125,-5.37109375,-26.85546875,-29.78515625,-12.6953125,-55.6640625,0.0
379.38671875,-18.5546875,-28.80859375,-31.25,-22.4609375,-85.9375,0.0
379.390625,-47.8515625,-33.203125,-31.25,-33.69140625,-35.64453125,0.0
379.39453125,-45.41015625,-29.296875,-22.4609375,-27.83203125,60.546875,0.0
379.3984375,-24.90234375,-24.90234375,-18.06640625,-30.2734375,91.796875,0.0
379.40234375,-16.6015625,-33.69140625,-27.34375,-31.73828125,78.61328125,0.0
379.40625,-24.4140625,-38.57421875,-36.62109375,-33.203125,51.7578125,0.0
379.41015625,-49.31640625,-38.57421875,-41.9921875,-42.48046875,23.4375,0.0
379.4140625,-60.546875,-34.66796875,-40.52734375,-54.19921875,46.38671875,0.0
379.41796875,-32.2265625,-31.73828125,-35.15625,-38.0859375,27.34375,0.0
379.421875,-10.7421875,-29.296875,-33.69140625,-26.85546875,-29.78515625,0.0
379.42578125,-26.85546875,-26.3671875,-36.1328125,-41.50390625,-21.484375,0.0
379.4296875,-54.6875,-29.78515625,-33.203125,-41.015625,-32.71484375,0.0
379.43359375,-57.12890625,-34.1796875,-35.64453125,-43.9453125,-112.3046875,0.0
379.4375,-35.15625,-31.73828125,-35.64453125,-47.36328125,-195.3125,0.0
379.44140625,-13.671875,-32.71484375,-26.85546875,-36.62109375,-194.82421875,0.0
379.4453125,-19.04296875,-29.296875,-29.78515625,-33.203125,-220.703125,0.0
379.44921875,-31.73828125,-33.69140625,-40.0390625,-40.52734375,-241.2109375,0.0
379.453125,-41.015625,-35.64453125,-38.0859375,-42.48046875,-232.91015625,0.0
379.45703125,-28.80859375,-29.78515625,-32.2265625,-38.0859375,-153.80859375,0.0
379.4609375,-3.41796875,-30.76171875,-37.109375,-34.1796875,44.921875,0.0
379.46484375,-13.18359375,-25.87890625,-33.203125,-33.69140625,7.32421875,0.0
379.46875,-41.015625,-27.34375,-31.73828125,-36.62109375,-5.859375,0.0
379.47265625,-53.7109375,-30.76171875,-40.0390625,-41.9921875,60.05859375,0.0
379.4765625,-37.59765625,-28.3203125,-42.48046875,-50.78125,32.2265625,0.0
379.48046875,-10.7421875,-25.390625,-39.55078125,-41.50390625,-41.9921875,0.0
379.484375,-13.671875,-26.3671875,-29.78515625,-22.94921875,-84.9609375,0.0
379.48828125,-42.48046875,-35.64453125,-20.5078125,-32.71484375,-60.546875,0.0
379.4921875,-49.31640625,-36.62109375,-27.34375,-43.45703125,-34.66796875,0.0
379.49609375,-34.66796875,-28.3203125,-36.62109375,-44.921875,-42.48046875,0.0
379.5,-22.4609375,-31.73828125,-37.59765625,-47.8515625,-79.1015625,0.0
379.50390625,-18.06640625,-33.203125,-30.76171875,-40.52734375,-55.6640625,0.0
379.5078125,-38.57421875,-30.76171875,-29.296875,-41.9921875,-85.9375,0.0
379.51171875,-66.40625,-38.0859375,-45.41015625,-61.5234375,-120.60546875,0.0
379.515625,-52.734375,-33.69140625,-40.52734375,-50.78125,-91.30859375,0.0
379.51953125,-19.53125,-26.85546875,-26.85546875,-34.66796875,-77.1484375,0.0
379.5234375,-9.765625,-25.87890625,-39.0625,-31.73828125,-76.66015625,0.0
379.52734375,-31.25,-32.2265625,-44.921875,-31.25,-127.9296875,0.0
379.53125,-52.734375,-39.55078125,-21.97265625,-42.96875,-111.81640625,0.0
379.53515625,-46.38671875,-38.57421875,-23.92578125,-51.7578125,-38.57421875,0.0
379.5390625,-14.16015625,-30.76171875,-38.0859375,-32.71484375,-53.7109375,0.0
379.54296875,2.9296875,-27.83203125,-30.76171875,-16.6015625,-68.359375,0.0
379.546875,-28.80859375,-32.71484375,-33.69140625,-36.1328125,-24.4140625,0.0
379.55078125,-58.59375,-40.52734375,-41.50390625,-57.12890625,-38.0859375,0.0
379.5546875,-62.98828125,-46.38671875,-44.43359375,-61.03515625,-33.203125,0.0
379.55859375,-36.1328125,-41.015625,-36.1328125,-45.8984375,13.671875,0.0
379.5625,-6.34765625,-28.80859375,-31.73828125,-33.203125,6.8359375,0.0
379.56640625,-19.04296875,-34.1796875,-35.64453125,-42.96875,62.98828125,0.0
379.5703125,-47.8515625,-40.0390625,-43.45703125,-50.78125,62.01171875,0.0
379.57421875,-48.33984375,-39.55078125,-43.45703125,-40.52734375,1.953125,0.0
379.578125,-26.3671875,-47.8515625,-31.25,-40.0390625,-10.25390625,0.0
379.58203125,-7.32421875,-40.0390625,-29.78515625,-33.69140625,-42.96875,0.0
379.5859375,-15.625,-28.3203125,-37.59765625,-29.78515625,-17.578125,0.0
379.58984375,-32.2265625,-30.2734375,-38.57421875,-40.52734375,3.90625,0.0
379.59375,-38.57421875,-29.296875,-34.66796875,-42.48046875,-10.25390625,0.0
379.59765625,-29.78515625,-34.66796875,-40.52734375,-31.73828125,-80.56640625,0.0
379.6015625,-8.7890625,-37.109375,-43.45703125,-27.34375,-69.82421875,0.0
379.60546875,-15.625,-30.2734375,-40.52734375,-30.76171875,-38.57421875,0.0
379.609375,-37.109375,-31.73828125,-41.015625,-29.78515625,-77.63671875,0.0
379.61328125,-47.36328125,-38.57421875,-41.50390625,-37.59765625,-20.5078125,0.0
379.6171875,-27.83203125,-36.1328125,-40.52734375,-40.0390625,-10.25390625,0.0
379.62109375,-4.8828125,-35.15625,-30.2734375,-24.90234375,-42.48046875,0.0
379.625,-18.5546875,-39.0625,-31.25,-23.4375,-12.6953125,0.0
379.62890625,-46.875,-39.55078125,-42.96875,-35.15625,-17.08984375,0.0
379.6328125,-58.10546875,-42.48046875,-38.0859375,-37.109375,58.10546875,0.0
379.63671875,-31.25,-33.203125,-33.203125,-30.76171875,33.69140625,0.0
379.640625,1.953125,-23.4375,-40.52734375,-25.87890625,-88.8671875,0.0
379.64453125,-7.8125,-27.34375,-48.33984375,-27.34375,-80.56640625,0.0
379.6484375,-40.52734375,-31.25,-49.31640625,-36.1328125,20.99609375,0.0
379.65234375,-52.24609375,-32.71484375,-46.38671875,-41.015625,2.9296875,0.0
379.65625,-39.0625,-34.1796875,-38.0859375,-25.87890625,-18.06640625,0.0
379.66015625,-11.23046875,-28.3203125,-28.80859375,-24.4140625,48.828125,0.0
379.6640625,0.0,-21.484375,-28.80859375,-25.87890625,-23.4375,0.0
379.66796875,-28.3203125,-30.2734375,-30.2734375,-30.76171875,-54.6875,0.0
379.671875,-43.45703125,-31.25,-35.15625,-43.45703125,-100.09765625,0.0
379.67578125,-17.578125,-19.04296875,-34.66796875,-45.41015625,-166.50390625,0.0
379.6796875,19.04296875,-20.5078125,-29.296875,-44.921875,-114.74609375,0.0
379.68359375,34.66796875,-26.3671875,-29.296875,-32.2265625,-36.62109375,0.0
379.6875,3.90625,-32.2265625,-40.0390625,-34.66796875,21.484375,0.0
379.69140625,-25.87890625,-35.64453125,-44.43359375,-42.48046875,-1.46484375,0.0
379.6953125,-18.06640625,-26.85546875,-31.25,-29.296875,24.90234375,0.0
379.69921875,-6.8359375,-19.04296875,-25.390625,-18.5546875,42.48046875,0.0
379.703125,-13.671875,-19.04296875,-29.296875,-22.94921875,-3.90625,0.0
379.70703125,-41.50390625,-29.78515625,-36.1328125,-25.87890625,-56.15234375,0.0
379.7109375,-65.91796875,-38.0859375,-37.59765625,-34.66796875,-31.25,0.0
379.71484375,-58.59375,-34.66796875,-35.15625,-36.1328125,-10.25390625,0.0
379.71875,-22.94921875,-34.66796875,-35.15625,-26.3671875,-53.7109375,0.0
379.72265625,-10.7421875,-30.76171875,-24.90234375,-21.97265625,-113.76953125,0.0
379.7265625,-43.45703125,-25.390625,-11.71875,-27.34375,-108.3984375,0.0
379.73046875,-67.3828125,-29.78515625,-20.99609375,-30.76171875,-47.8515625,0.0
379.734375,-61.5234375,-35.15625,-34.1796875,-36.1328125,-32.71484375,0.0
379.73828125,-37.109375,-33.69140625,-30.2734375,-40.0390625,-90.33203125,0.0
379.7421875,-20.01953125,-33.69140625,-20.01953125,-35.64453125,-100.5859375,0.0
379.74609375,-38.0859375,-31.25,-22.94921875,-30.76171875,-46.38671875,0.0
379.75,-70.3125,-37.59765625,-32.71484375,-39.55078125,-57.12890625,0.0
379.75390625,-72.265625,-46.38671875,-35.15625,-50.78125,-49.8046875,0.0
379.7578125,-43.9453125,-38.0859375,-30.76171875,-41.50390625,-44.43359375,0.0
379.76171875,-13.18359375,-32.71484375,-29.78515625,-21.97265625,-94.23828125,0.0
379.765625,-15.13671875,-30.2734375,-33.69140625,-31.25,-89.35546875,0.0
379.76953125,-49.31640625,-35.15625,-32.2265625,-42.48046875,-50.78125,0.0
379.7734375,-64.453125,-43.45703125,-33.203125,-48.828125,-2.9296875,0.0
379.77734375,-36.62109375,-36.1328125,-36.1328125,-49.31640625,26.85546875,0.0
379.78125,-6.8359375,-23.4375,-22.94921875,-29.296875,11.23046875,0.0
379.78515625,-20.5078125,-27.34375,-19.53125,-20.5078125,-27.34375,0.0
379.7890625,-53.22265625,-33.69140625,-27.83203125,-36.1328125,-10.7421875,0.0
379.79296875,-65.91796875,-36.62109375,-34.1796875,-44.921875,10.7421875,0.0
379.796875,-49.31640625,-39.55078125,-38.57421875,-37.59765625,-20.5078125,0.0
379.80078125,-22.94921875,-29.78515625,-31.73828125,-30.76171875,-48.828125,0.0
379.8046875,-24.90234375,-22.94921875,-27.83203125,-29.78515625,-60.546875,0.0
379.80859375,-51.7578125,-31.25,-34.1796875,-38.57421875,-24.4140625,0.0
379.8125,-72.265625,-41.015625,-38.57421875,-50.29296875,-57.6171875,0.0
379.81640625,-54.19921875,-40.52734375,-29.78515625,-46.38671875,-59.08203125,0.0
379.8203125,-11.71875,-34.66796875,-28.80859375,-29.78515625,-70.80078125,0.0
379.82421875,-17.578125,-36.1328125,-35.15625,-30.2734375,-118.1640625,0.0
379.828125,-47.8515625,-35.15625,-35.64453125,-45.8984375,-42.48046875,0.0
379.83203125,-65.4296875,-35.15625,-38.57421875,-53.22265625,-34.1796875,0.0
379.8359375,-54.19921875,-36.62109375,-38.0859375,-41.9921875,6.8359375,0.0
379.83984375,-18.5546875,-25.390625,-30.76171875,-31.25,24.90234375,0.0
379.84375,-14.16015625,-25.87890625,-23.4375,-28.3203125,-36.62109375,0.0
379.84765625,-44.43359375,-34.1796875,-26.85546875,-36.1328125,26.85546875,0.0
379.8515625,-62.01171875,-35.64453125,-34.66796875,-41.9921875,-5.37109375,0.0
379.85546875,-48.828125,-29.296875,-30.2734375,-40.0390625,-74.70703125,0.0
379.859375,-18.5546875,-23.92578125,-27.34375,-35.64453125,5.859375,0.0
379.86328125,-16.6015625,-26.85546875,-26.85546875,-39.55078125,-24.90234375,0.0
379.8671875,-42.48046875,-30.76171875,-37.109375,-38.0859375,-130.37109375,0.0
379.87109375,-62.5,-32.71484375,-48.33984375,-39.0625,-125.9765625,0.0
379.875,-57.12890625,-33.69140625,-50.78125,-46.875,-28.3203125,0.0
379.87890625,-26.85546875,-30.76171875,-45.8984375,-52.24609375,42.48046875,0.0
379.8828125,-5.859375,-26.3671875,-37.109375,-35.15625,49.8046875,0.0
379.88671875,-17.08984375,-30.2734375,-34.1796875,-27.83203125,42.96875,0.0
379.890625,-45.8984375,-37.59765625,-40.52734375,-54.19921875,6.34765625,0.0
379.89453125,-36.1328125,-30.2734375,-43.45703125,-44.921875,-83.0078125,0.0
379.8984375,-0.48828125,-19.04296875,-35.15625,-34.1796875,-21.97265625,0.0
379.90234375,6.8359375,-24.4140625,-32.2265625,-31.73828125,90.8203125,0.0
379.90625,-17.08984375,-27.34375,-24.90234375,-36.62109375,-12.20703125,0.0
379.91015625,-48.828125,-27.83203125,-31.73828125,-47.36328125,-119.62890625,0.0
379.9140625,-44.43359375,-29.78515625,-45.41015625,-44.43359375,-39.0625,0.0
379.91796875,-15.625,-28.3203125,-36.62109375,-39.0625,29.78515625,0.0
379.921875,-3.90625,-28.80859375,-36.62109375,-34.66796875,25.87890625,0.0
379.92578125,-14.6484375,-26.3671875,-41.50390625,-32.2265625,20.5078125,0.0
379.9296875,-40.0390625,-27.34375,-41.015625,-40.0390625,-52.24609375,0.0
379.93359375,-49.8046875,-38.57421875,-37.59765625,-49.8046875,-14.16015625,0.0
379.9375,-34.1796875,-36.1328125,-32.2265625,-44.921875,75.68359375,0.0
379.94140625,-18.06640625,-30.2734375,-37.109375,-39.0625,41.50390625,0.0
379.9453125,-24.90234375,-27.83203125,-41.015625,-35.15625,-50.78125,0.0
379.94921875,-48.828125,-26.85546875,-31.73828125,-37.109375,-39.0625,0.0
379.953125,-62.01171875,-27.34375,-16.11328125,-42.96875,4.8828125,0.0
379.95703125,-49.31640625,-31.73828125,-19.53125,-46.38671875,21.484375,0.0
379.9609375,-32.71484375,-36.62109375,-31.73828125,-39.55078125,3.90625,0.0
379.96484375,-38.0859375,-29.296875,-38.0859375,-41.015625,-93.26171875,0.0
379.96875,-60.546875,-31.73828125,-43.45703125,-52.24609375,-88.37890625,0.0
379.97265625,-66.89453125,-32.71484375,-36.62109375,-45.8984375,-80.078125,0.0
379.9765625,-40.52734375,-22.94921875,-28.80859375,-30.76171875,-97.16796875,0.0
379.98046875,-6.8359375,-18.5546875,-23.4375,-24.90234375,-5.37109375,0.0
379.984375,-3.90625,-23.92578125,-21.97265625,-21.97265625,-17.578125,0.0
379.98828125,-31.73828125,-30.76171875,-29.78515625,-32.2265625,-63.96484375,0.0
379.9921875,-48.828125,-33.69140625,-31.73828125,-43.9453125,-12.20703125,0.0
379.99609375,-34.66796875,-34.66796875,-19.53125,-38.57421875,48.828125,0.0
380.0,-16.11328125,-36.62109375,-21.97265625,-35.15625,74.21875,0.0
380.00390625,-13.18359375,-29.296875,-32.2265625,-36.1328125,-16.11328125,0.0
380.0078125,-41.015625,-28.3203125,-33.69140625,-31.73828125,-60.546875,0.0
380.01171875,-66.40625,-43.9453125,-35.64453125,-42.96875,-48.828125,0.0
380.015625,-58.10546875,-41.50390625,-40.0390625,-47.36328125,-53.7109375,0.0
380.01953125,-30.2734375,-31.25,-39.0625,-42.48046875,-36.62109375,0.0
380.0234375,-21.484375,-29.296875,-33.69140625,-40.52734375,-39.0625,0.0
380.02734375,-43.45703125,-27.34375,-32.2265625,-43.45703125,22.94921875,0.0
380.03125,-65.91796875,-34.66796875,-31.25,-54.19921875,28.3203125,0.0
380.03515625,-60.05859375,-39.55078125,-35.64453125,-58.59375,-7.8125,0.0
380.0390625,-29.296875,-33.69140625,-30.76171875,-53.7109375,-83.0078125,0.0
380.04296875,-22.4609375,-34.1796875,-25.87890625,-42.48046875,-74.70703125,0.0
380.046875,-48.33984375,-33.69140625,-38.0859375,-39.55078125,-44.921875,0.0
380.05078125,-69.3359375,-37.59765625,-44.43359375,-51.26953125,-25.390625,0.0
380.0546875,-59.08203125,-38.0859375,-33.69140625,-55.6640625,-23.4375,0.0
380.05859375,-21.97265625,-32.71484375,-24.4140625,-35.64453125,-83.0078125,0.0
380.0625,-4.39453125,-35.15625,-29.78515625,-27.34375,-34.1796875,0.0
380.06640625,-24.4140625,-38.57421875,-38.0859375,-34.66796875,-26.3671875,0.0
380.0703125,-52.24609375,-39.0625,-35.64453125,-47.36328125,-28.3203125,0.0
380.07421875,-49.8046875,-37.59765625,-26.3671875,-52.734375,-85.44921875,0.0
380.078125,-21.97265625,-33.203125,-25.390625,-38.0859375,-68.359375,0.0
380.08203125,-1.953125,-28.3203125,-32.71484375,-32.71484375,30.2734375,0.0
380.0859375,-12.20703125,-37.59765625,-34.1796875,-40.52734375,-51.26953125,0.0
380.08984375,-41.50390625,-40.52734375,-34.66796875,-47.8515625,-65.4296875,0.0
380.09375,-53.7109375,-35.15625,-33.203125,-43.45703125,13.671875,0.0
380.09765625,-25.87890625,-34.66796875,-29.78515625,-39.0625,-20.01953125,0.0
380.1015625,1.46484375,-29.78515625,-22.4609375,-32.71484375,-78.61328125,0.0
380.10546875,-11.71875,-27.34375,-25.87890625,-27.83203125,-76.171875,0.0
380.109375,-48.33984375,-36.62109375,-35.15625,-40.0390625,-72.75390625,0.0
380.11328125,-58.59375,-41.015625,-40.52734375,-50.29296875,-69.3359375,0.0
380.1171875,-34.66796875,-35.64453125,-37.59765625,-43.9453125,-79.58984375,0.0
380.12109375,-6.34765625,-29.78515625,-31.25,-41.015625,-93.75,0.0
380.125,-7.32421875,-25.390625,-30.76171875,-33.203125,5.859375,0.0
380.12890625,-34.66796875,-34.1796875,-28.80859375,-34.66796875,-2.9296875,0.0
380.1328125,-59.08203125,-45.8984375,-31.25,-44.921875,-51.26953125,0.0
380.13671875,-46.38671875,-36.1328125,-32.71484375,-39.0625,-34.1796875,0.0
380.140625,-12.20703125,-23.92578125,-29.78515625,-32.2265625,-38.57421875,0.0
380.14453125,-14.16015625,-25.390625,-22.94921875,-36.1328125,-75.1953125,0.0
380.1484375,-45.41015625,-28.80859375,-24.4140625,-41.9921875,-40.52734375,0.0
380.15234375,-61.03515625,-36.1328125,-39.55078125,-46.875,27.83203125,0.0
380.15625,-43.9453125,-39.0625,-38.0859375,-43.45703125,42.96875,0.0
380.16015625,-17.578125,-34.1796875,-35.15625,-26.85546875,-33.69140625,0.0
380.1640625,-14.6484375,-32.71484375,-37.59765625,-16.6015625,-44.43359375,0.0
380.16796875,-37.59765625,-36.1328125,-41.9921875,-30.2734375,42.96875,0.0
380.171875,-51.7578125,-42.96875,-44.43359375,-37.109375,4.39453125,0.0
380.17578125,-42.96875,-43.9453125,-40.0390625,-38.0859375,9.765625,0.0
380.1796875,-9.27734375,-23.92578125,-27.34375,-29.296875,-22.94921875,0.0
380.18359375,5.37109375,-14.6484375,-25.390625,-21.97265625,-56.640625,0.0
380.1875,-35.15625,-32.71484375,-31.73828125,-33.69140625,-16.6015625,0.0
380.19140625,-69.3359375,-42.48046875,-23.4375,-45.41015625,4.39453125,0.0
380.1953125,-57.12890625,-39.55078125,-30.2734375,-43.9453125,-27.83203125,0.0
380.19921875,-23.92578125,-29.78515625,-37.59765625,-33.203125,-65.4296875,0.0
380.203125,-13.18359375,-27.34375,-27.34375,-18.5546875,-5.859375,0.0
380.20703125,-36.62109375,-41.50390625,-29.78515625,-30.2734375,-17.08984375,0.0
380.2109375,-65.4296875,-41.50390625,-42.48046875,-44.921875,-66.89453125,0.0
380.21484375,-51.7578125,-34.1796875,-41.015625,-36.62109375,-38.57421875,0.0
380.21875,-10.25390625,-31.73828125,-31.73828125,-20.01953125,28.80859375,0.0
380.22265625,-4.8828125,-35.64453125,-33.69140625,-12.6953125,-4.8828125,0.0
380.2265625,-27.83203125,-39.0625,-37.109375,-17.578125,-41.50390625,0.0
380.23046875,-45.8984375,-41.50390625,-41.9921875,-22.94921875,-44.43359375,0.0
380.234375,-41.9921875,-36.62109375,-31.25,-25.87890625,-47.8515625,0.0
380.23828125,-14.6484375,-27.34375,-5.37109375,-18.5546875,31.73828125,0.0
380.2421875,4.8828125,-28.80859375,-9.27734375,-7.8125,64.453125,0.0
380.24609375,-11.71875,-28.3203125,-28.3203125,-13.18359375,17.578125,0.0
380.25,-34.1796875,-24.4140625,-37.59765625,-27.34375,-21.97265625,0.0
380.25390625,-41.9921875,-30.2734375,-43.45703125,-31.73828125,-48.828125,0.0
380.2578125,-18.5546875,-33.203125,-32.2265625,-27.83203125,-50.78125,0.0
380.26171875,2.44140625,-32.2265625,-30.2734375,-21.97265625,-40.52734375,0.0
380.265625,-13.671875,-36.1328125,-36.1328125,-20.01953125,-39.0625,0.0
380.26953125,-41.50390625,-39.55078125,-32.71484375,-24.90234375,-36.1328125,0.0
380.2734375,-52.24609375,-39.0625,-30.76171875,-32.2265625,13.18359375,0.0
380.27734375,-32.71484375,-35.15625,-27.83203125,-20.01953125,12.6953125,0.0
380.28125,-9.765625,-29.78515625,-22.94921875,-16.11328125,-74.21875,0.0
380.28515625,-14.16015625,-27.83203125,-27.34375,-27.34375,-56.640625,0.0
380.2890625,-41.9921875,-38.0859375,-38.0859375,-39.55078125,-38.0859375,0.0
380.29296875,-56.15234375,-42.96875,-35.15625,-38.0859375,-62.01171875,0.0
380.296875,-32.71484375,-32.71484375,-32.2265625,-46.875,-62.5,0.0
380.30078125,-5.37109375,-30.2734375,-38.0859375,-42.96875,-62.98828125,0.0
380.3046875,-6.34765625,-35.15625,-35.64453125,-25.87890625,-78.125,0.0
380.30859375,-25.390625,-36.62109375,-32.2265625,-33.203125,-27.34375,0.0
380.3125,-45.8984375,-35.15625,-31.25,-46.875,-14.6484375,0.0
380.31640625,-39.55078125,-30.76171875,-31.25,-47.8515625,-94.7265625,0.0
380.3203125,-8.30078125,-23.4375,-26.85546875,-28.3203125,-113.76953125,0.0
380.32421875,-2.44140625,-20.99609375,-15.13671875,-22.94921875,-89.35546875,0.0
380.328125,-29.78515625,-29.296875,-15.13671875,-32.71484375,-62.01171875,0.0
380.33203125,-48.828125,-34.1796875,-29.296875,-38.57421875,-41.50390625,0.0
380.3359375,-40.0390625,-35.15625,-35.64453125,-38.0859375,21.97265625,0.0
380.33984375,-12.20703125,-37.109375,-20.99609375,-33.69140625,84.9609375,0.0
380.34375,1.46484375,-33.69140625,-8.7890625,-29.296875,43.9453125,0.0
380.34765625,-23.92578125,-32.71484375,-31.25,-32.2265625,56.15234375,0.0
380.3515625,-54.6875,-35.15625,-36.62109375,-35.64453125,83.0078125,0.0
380.35546875,-50.78125,-35.64453125,-29.296875,-43.9453125,44.43359375,0.0
380.359375,-30.76171875,-40.0390625,-28.3203125,-38.0859375,-13.18359375,0.0
380.36328125,-19.04296875,-41.015625,-27.34375,-25.390625,-122.55859375,0.0
380.3671875,-32.2265625,-35.15625,-27.83203125,-26.85546875,-132.32421875,0.0
380.37109375,-58.10546875,-41.9921875,-23.92578125,-39.55078125,-29.296875,0.0
380.375,-48.828125,-45.8984375,-22.4609375,-37.109375,-39.0625,0.0
380.37890625,-5.37109375,-34.1796875,-28.80859375,-28.80859375,-104.4921875,0.0
380.3828125,3.41796875,-32.2265625,-30.2734375,-23.92578125,-84.47265625,0.0
380.38671875,-31.73828125,-36.1328125,-34.1796875,-31.73828125,-125.9765625,0.0
380.390625,-54.19921875,-33.203125,-40.52734375,-47.8515625,-125.48828125,0.0
380.39453125,-43.45703125,-33.69140625,-39.0625,-37.109375,20.01953125,0.0
380.3984375,-12.20703125,-30.2734375,-29.78515625,-34.66796875,46.38671875,0.0
380.40234375,5.859375,-28.80859375,-25.390625,-36.1328125,-112.3046875,0.0
380.40625,-16.6015625,-35.64453125,-30.2734375,-32.71484375,-123.53515625,0.0
380.41015625,-44.921875,-41.015625,-35.64453125,-43.45703125,-64.453125,0.0
380.4140625,-43.9453125,-40.0390625,-29.78515625,-44.43359375,-38.57421875,0.0
380.41796875,-25.390625,-38.0859375,-21.97265625,-35.64453125,-23.92578125,0.0
380.421875,2.44140625,-33.203125,-24.4140625,-27.34375,-42.48046875,0.0
380.42578125,-10.7421875,-32.71484375,-31.25,-22.4609375,-54.19921875,0.0
380.4296875,-41.9921875,-32.2265625,-30.2734375,-28.80859375,-55.6640625,0.0
380.43359375,-40.52734375,-36.1328125,-31.25,-41.50390625,-46.38671875,0.0
380.4375,-10.7421875,-38.57421875,-41.50390625,-43.45703125,1.46484375,0.0
380.44140625,21.484375,-28.3203125,-35.64453125,-36.1328125,31.25,0.0
380.4453125,15.13671875,-29.296875,-29.296875,-40.0390625,61.5234375,0.0
380.44921875,-11.23046875,-38.0859375,-34.66796875,-50.78125,-30.76171875,0.0
380.453125,-20.99609375,-40.0390625,-41.50390625,-50.78125,-105.46875,0.0
380.45703125,-3.41796875,-34.66796875,-39.55078125,-41.50390625,-23.4375,0.0
380.4609375,22.4609375,-28.3203125,-24.90234375,-28.80859375,-33.69140625,0.0
380.46484375,4.39453125,-34.1796875,-26.85546875,-21.97265625,-77.1484375,0.0
380.46875,-41.9921875,-42.48046875,-35.15625,-24.4140625,-69.3359375,0.0
380.47265625,-59.08203125,-36.62109375,-32.2265625,-27.83203125,-28.80859375,0.0
380.4765625,-37.59765625,-27.83203125,-28.3203125,-26.85546875,-13.671875,0.0
380.48046875,-6.8359375,-28.80859375,-25.390625,-22.4609375,74.21875,0.0
380.484375,-7.8125,-31.73828125,-29.296875,-11.71875,20.99609375,0.0
380.48828125,-30.2734375,-35.64453125,-31.73828125,-20.01953125,-100.09765625,0.0
380.4921875,-46.875,-43.45703125,-34.66796875,-37.109375,-71.77734375,0.0
380.49609375,-32.2265625,-41.015625,-27.83203125,-30.76171875,-53.7109375,0.0
380.5,-5.37109375,-35.15625,-19.53125,-20.01953125,-41.9921875,0.0
380.50390625,-7.32421875,-38.0859375,-17.08984375,-13.18359375,-1.953125,0.0
380.5078125,-29.78515625,-49.8046875,-20.01953125,-23.4375,20.5078125,0.0
380.51171875,-50.78125,-50.78125,-21.97265625,-22.4609375,21.97265625,0.0
380.515625,-47.36328125,-41.9921875,-22.4609375,-25.87890625,-31.73828125,0.0
380.51953125,-18.5546875,-34.66796875,-14.16015625,-28.3203125,-20.01953125,0.0
380.5234375,-9.27734375,-28.3203125,5.859375,-18.06640625,23.4375,0.0
380.52734375,-30.76171875,-33.69140625,-5.859375,-24.4140625,-24.90234375,0.0
380.53125,-57.6171875,-42.96875,-23.92578125,-38.0859375,-80.078125,0.0
380.53515625,-53.22265625,-39.0625,-22.4609375,-30.2734375,-31.73828125,0.0
380.5390625,-27.83203125,-37.59765625,-18.5546875,-14.6484375,-41.50390625,0.0
380.54296875,-22.94921875,-38.57421875,-21.484375,-19.04296875,-69.82421875,0.0
380.546875,-43.9453125,-38.0859375,-22.94921875,-28.80859375,-75.1953125,0.0
380.55078125,-63.4765625,-41.50390625,-25.390625,-39.0625,-83.0078125,0.0
380.5546875,-62.01171875,-39.55078125,-28.80859375,-45.8984375,-170.41015625,0.0
380.55859375,-34.1796875,-34.66796875,-27.83203125,-34.1796875,-208.49609375,0.0
380.5625,-11.71875,-29.78515625,-23.4375,-28.3203125,-76.171875,0.0
380.56640625,-31.73828125,-30.2734375,-10.7421875,-39.55078125,-59.5703125,0.0
380.5703125,-57.12890625,-27.83203125,-12.20703125,-41.015625,4.39453125,0.0
380.57421875,-60.546875,-33.69140625,-26.3671875,-41.015625,57.6171875,0.0
380.578125,-28.80859375,-32.2265625,-17.578125,-38.0859375,81.0546875,0.0
380.58203125,-1.953125,-23.92578125,-16.6015625,-25.390625,14.6484375,0.0
380.5859375,-16.6015625,-32.71484375,-27.34375,-23.4375,-125.0,0.0
380.58984375,-39.55078125,-39.55078125,-29.78515625,-33.203125,-221.19140625,0.0
380.59375,-43.9453125,-41.015625,-27.83203125,-32.71484375,-259.27734375,0.0
380.59765625,-23.4375,-37.109375,-24.90234375,-26.3671875,-222.16796875,0.0
380.6015625,-13.18359375,-37.109375,-23.92578125,-20.99609375,-220.21484375,0.0
380.60546875,-21.484375,-39.0625,-25.87890625,-18.5546875,-135.25390625,0.0
380.609375,-41.9921875,-41.50390625,-17.578125,-28.80859375,-1.46484375,0.0
380.61328125,-56.640625,-43.45703125,-3.90625,-47.36328125,8.30078125,0.0
380.6171875,-40.52734375,-37.109375,-12.6953125,-47.36328125,-44.921875,0.0
380.62109375,-14.16015625,-39.0625,-19.04296875,-31.73828125,-68.84765625,0.0
380.625,-16.11328125,-41.9921875,-15.625,-31.25,-25.390625,0.0
380.62890625,-46.875,-42.48046875,-24.4140625,-45.41015625,-62.98828125,0.0
380.6328125,-63.96484375,-43.9453125,-33.203125,-47.8515625,-75.1953125,0.0
380.63671875,-41.9921875,-37.59765625,-27.83203125,-42.96875,-3.41796875,0.0
380.640625,-16.11328125,-28.3203125,-19.53125,-34.66796875,-21.484375,0.0
380.64453125,-21.484375,-32.2265625,-25.87890625,-29.78515625,-104.00390625,0.0
380.6484375,-43.45703125,-40.0390625,-26.3671875,-37.109375,3.41796875,0.0
380.65234375,-49.8046875,-37.59765625,-22.94921875,-43.9453125,89.35546875,0.0
380.65625,-51.26953125,-42.48046875,-19.53125,-43.45703125,24.90234375,0.0
380.66015625,-33.69140625,-40.52734375,-14.6484375,-31.73828125,-1.46484375,0.0
380.6640625,-26.3671875,-29.296875,-14.16015625,-25.87890625,-8.30078125,0.0
380.66796875,-55.17578125,-35.64453125,-24.4140625,-41.9921875,-55.17578125,0.0
380.671875,-75.1953125,-44.43359375,-30.76171875,-51.7578125,-38.57421875,0.0
380.67578125,-60.546875,-44.43359375,-22.94921875,-43.9453125,-3.90625,0.0
380.6796875,-35.15625,-41.9921875,-21.484375,-41.015625,30.76171875,0.0
380.68359375,-24.4140625,-39.0625,-20.99609375,-35.15625,45.8984375,0.0
380.6875,-40.52734375,-36.1328125,-21.97265625,-29.296875,27.34375,0.0
380.69140625,-61.03515625,-40.0390625,-28.80859375,-37.109375,-11.23046875,0.0
380.6953125,-48.33984375,-35.64453125,-26.3671875,-39.55078125,-17.08984375,0.0
380.69921875,-28.3203125,-30.76171875,-16.11328125,-22.4609375,15.13671875,0.0
380.703125,-23.92578125,-38.57421875,-1.46484375,-19.53125,-16.11328125,0.0
380.70703125,-40.0390625,-42.96875,-13.671875,-30.2734375,28.3203125,0.0
380.7109375,-65.4296875,-38.0859375,-31.25,-37.59765625,-78.125,0.0
380.71484375,-71.77734375,-38.57421875,-27.34375,-44.921875,-73.2421875,0.0
380.71875,-42.96875,-37.109375,-22.94921875,-46.38671875,24.90234375,0.0
380.72265625,-25.390625,-33.203125,-22.94921875,-41.50390625,-45.41015625,0.0
380.7265625,-36.62109375,-37.109375,-24.4140625,-38.0859375,-9.765625,0.0
380.73046875,-57.12890625,-41.50390625,-21.484375,-48.33984375,28.80859375,0.0
380.734375,-62.98828125,-40.52734375,-22.94921875,-53.22265625,-7.8125,0.0
380.73828125,-34.66796875,-36.1328125,-22.4609375,-36.62109375,-31.25,0.0
380.7421875,-12.20703125,-32.2265625,-17.578125,-33.69140625,-71.2890625,0.0
380.74609375,-32.2265625,-38.57421875,-17.08984375,-44.921875,-143.5546875,0.0
380.75,-60.546875,-44.43359375,-22.4609375,-44.921875,-147.94921875,0.0
380.75390625,-60.546875,-44.921875,-29.78515625,-48.33984375,-99.609375,0.0
380.7578125,-36.62109375,-45.8984375,-30.2734375,-45.41015625,-38.0859375,0.0
380.76171875,-13.671875,-46.875,-25.390625,-26.85546875,45.8984375,0.0
380.765625,-27.83203125,-43.9453125,-28.3203125,-23.4375,38.0859375,0.0
380.76953125,-55.17578125,-38.57421875,-35.64453125,-33.203125,-9.765625,0.0
380.7734375,-62.98828125,-36.1328125,-35.64453125,-38.57421875,-71.77734375,0.0
380.77734375,-36.62109375,-29.296875,-26.85546875,-25.390625,-81.54296875,0.0
380.78125,-5.859375,-31.25,-25.87890625,-14.6484375,-43.9453125,0.0
380.78515625,-13.671875,-39.55078125,-30.2734375,-21.97265625,-17.08984375,0.0
380.7890625,-46.38671875,-39.55078125,-26.3671875,-34.1796875,-26.3671875,0.0
380.79296875,-59.5703125,-35.64453125,-8.7890625,-36.1328125,-63.4765625,0.0
380.796875,-43.45703125,-35.64453125,-14.16015625,-30.76171875,7.8125,0.0
380.80078125,-19.04296875,-34.66796875,-33.203125,-20.01953125,51.7578125,0.0
380.8046875,-18.5546875,-29.296875,-31.73828125,-17.578125,27.34375,0.0
380.80859375,-40.0390625,-37.109375,-30.76171875,-33.69140625,9.27734375,0.0
380.8125,-54.6875,-44.43359375,-36.1328125,-46.875,13.671875,0.0
380.81640625,-38.57421875,-37.59765625,-33.203125,-49.31640625,8.30078125,0.0
380.8203125,-4.8828125,-30.76171875,-20.99609375,-42.96875,19.53125,0.0
380.82421875,5.859375,-22.4609375,-17.578125,-24.90234375,4.39453125,0.0
380.828125,-15.625,-24.4140625,-28.80859375,-24.4140625,-77.63671875,0.0
380.83203125,-41.015625,-32.71484375,-34.66796875,-36.62109375,-59.5703125,0.0
380.8359375,-34.1796875,-30.76171875,-29.296875,-25.390625,-29.296875,0.0
380.83984375,-7.8125,-26.3671875,-30.76171875,-13.18359375,-67.87109375,0.0
380.84375,-2.44140625,-26.85546875,-29.296875,-3.41796875,-40.52734375,0.0
380.84765625,-26.85546875,-30.2734375,-23.92578125,-10.7421875,-24.90234375,0.0
380.8515625,-48.33984375,-32.71484375,-12.6953125,-28.3203125,-38.57421875,0.0
380.85546875,-41.50390625,-36.62109375,-17.08984375,-31.73828125,-37.109375,0.0
380.859375,-14.6484375,-32.71484375,-27.34375,-21.484375,1.953125,0.0
380.86328125,-2.44140625,-27.83203125,-24.4140625,-16.11328125,6.34765625,0.0
380.8671875,-23.92578125,-32.2265625,-25.87890625,-22.4609375,-50.29296875,0.0
380.87109375,-46.38671875,-34.1796875,-28.80859375,-31.73828125,-5.37109375,0.0
380.875,-47.36328125,-35.15625,-33.69140625,-40.52734375,-23.4375,0.0
380.87890625,-24.90234375,-38.57421875,-27.83203125,-30.76171875,-145.5078125,0.0
380.8828125,-2.44140625,-36.62109375,-21.484375,-19.04296875,-111.328125,0.0
380.88671875,-22.94921875,-35.15625,-33.203125,-29.78515625,-35.64453125,0.0
380.890625,-56.640625,-42.48046875,-43.45703125,-40.52734375,-100.5859375,0.0
380.89453125,-57.12890625,-38.57421875,-32.2265625,-44.921875,-122.0703125,0.0
380.8984375,-29.78515625,-28.80859375,-20.5078125,-42.96875,-118.1640625,0.0
380.90234375,-15.13671875,-30.2734375,-28.3203125,-29.78515625,-143.06640625,0.0
380.90625,-19.53125,-33.203125,-31.25,-29.296875,-70.80078125,0.0
380.91015625,-40.52734375,-37.109375,-21.484375,-34.66796875,-1.46484375,0.0
380.9140625,-52.24609375,-38.57421875,-17.08984375,-34.66796875,-15.625,0.0
380.91796875,-27.83203125,-34.1796875,-29.78515625,-34.66796875,-55.17578125,0.0
380.921875,-4.8828125,-26.3671875,-24.90234375,-20.01953125,-128.41796875,0.0
380.92578125,-17.08984375,-26.85546875,-24.4140625,-13.18359375,-113.76953125,0.0
380.9296875,-53.22265625,-36.62109375,-39.55078125,-34.1796875,-127.9296875,0.0
380.93359375,-61.5234375,-38.0859375,-38.57421875,-51.26953125,-181.640625,0.0
380.9375,-35.64453125,-31.73828125,-27.83203125,-30.76171875,-102.05078125,0.0
380.94140625,-1.953125,-22.94921875,-16.11328125,-11.23046875,9.27734375,0.0
380.9453125,0.48828125,-19.53125,-16.6015625,-7.32421875,-16.11328125,0.0
380.94921875,-31.73828125,-22.4609375,-28.3203125,-7.32421875,14.6484375,0.0
380.953125,-43.9453125,-30.2734375,-31.25,-21.97265625,-9.765625,0.0
380.95703125,-23.92578125,-32.2265625,-31.73828125,-24.90234375,-45.8984375,0.0
380.9609375,2.9296875,-21.97265625,-25.87890625,-10.7421875,20.99609375,0.0
380.96484375,-6.34765625,-24.4140625,-28.3203125,-10.7421875,-3.41796875,0.0
380.96875,-45.41015625,-32.2265625,-39.55078125,-25.390625,-55.17578125,0.0
380.97265625,-59.5703125,-40.0390625,-36.62109375,-36.1328125,-47.8515625,0.0
380.9765625,-29.296875,-39.0625,-28.80859375,-23.92578125,-27.83203125,0.0
380.98046875,5.37109375,-27.83203125,-27.83203125,-6.34765625,-114.2578125,0.0
380.984375,0.48828125,-20.5078125,-27.34375,-24.90234375,-152.34375,0.0
380.98828125,-30.2734375,-22.4609375,-21.97265625,-39.0625,-45.8984375,0.0
380.9921875,-47.36328125,-29.78515625,-24.4140625,-33.69140625,-41.015625,0.0
380.99609375,-42.96875,-31.73828125,-28.3203125,-33.203125,-43.45703125,0.0
381.0,-16.11328125,-29.78515625,-28.80859375,-28.3203125,0.48828125,0.0
381.00390625,-1.46484375,-28.3203125,-22.4609375,-21.484375,25.390625,0.0
381.0078125,-30.76171875,-36.1328125,-31.73828125,-28.80859375,17.08984375,0.0
381.01171875,-55.17578125,-35.64453125,-47.8515625,-35.64453125,-45.8984375,0.0
381.015625,-37.109375,-29.78515625,-42.48046875,-26.85546875,-54.19921875,0.0
381.01953125,-9.765625,-30.76171875,-37.109375,-22.4609375,-23.4375,0.0
381.0234375,-6.8359375,-27.34375,-38.57421875,-22.94921875,-16.11328125,0.0
381.02734375,-31.25,-25.87890625,-35.64453125,-23.4375,-67.87109375,0.0
381.03125,-47.8515625,-28.3203125,-25.390625,-37.59765625,-83.0078125,0.0
381.03515625,-36.62109375,-31.73828125,-28.3203125,-40.0390625,-40.52734375,0.0
381.0390625,-15.625,-25.390625,-31.73828125,-34.66796875,13.18359375,0.0
381.04296875,-12.20703125,-31.25,-31.73828125,-27.83203125,51.26953125,0.0
381.046875,-30.2734375,-34.1796875,-33.203125,-14.6484375,39.0625,0.0
381.05078125,-45.41015625,-35.64453125,-35.64453125,-36.62109375,-61.03515625,0.0
381.0546875,-41.50390625,-41.50390625,-40.52734375,-47.36328125,-78.125,0.0
381.05859375,-16.11328125,-39.55078125,-38.0859375,-36.1328125,-71.2890625,0.0
381.0625,1.46484375,-28.3203125,-25.390625,-26.3671875,-67.3828125,0.0
381.06640625,-9.765625,-23.4375,-23.92578125,-19.53125,-1.46484375,0.0
381.0703125,-41.015625,-37.59765625,-38.57421875,-31.25,-91.796875,0.0
381.07421875,-53.7109375,-45.41015625,-44.43359375,-47.8515625,-101.5625,0.0
381.078125,-26.85546875,-43.9453125,-34.1796875,-44.921875,-51.7578125,0.0
381.08203125,-1.953125,-33.69140625,-25.87890625,-23.4375,-65.91796875,0.0
381.0859375,-13.671875,-35.15625,-33.203125,-18.5546875,-16.6015625,0.0
381.08984375,-44.43359375,-39.0625,-37.59765625,-23.92578125,31.73828125,0.0
381.09375,-53.22265625,-31.25,-37.59765625,-28.80859375,64.94140625,0.0
381.09765625,-27.83203125,-29.78515625,-34.1796875,-29.78515625,-7.8125,0.0
381.1015625,-12.20703125,-31.25,-32.2265625,-25.390625,-53.7109375,0.0
381.10546875,-24.90234375,-34.66796875,-31.25,-23.92578125,-37.109375,0.0
381.109375,-46.875,-47.36328125,-26.3671875,-30.76171875,-40.52734375,0.0
381.11328125,-58.59375,-43.9453125,-29.296875,-39.55078125,3.41796875,0.0
381.1171875,-41.015625,-38.0859375,-34.1796875,-37.59765625,-46.38671875,0.0
381.12109375,-10.25390625,-36.62109375,-28.3203125,-26.3671875,-57.6171875,0.0
381.125,-12.6953125,-33.203125,-33.203125,-27.83203125,-2.9296875,0.0
381.12890625,-41.015625,-40.52734375,-38.0859375,-40.0390625,0.0,0.0
381.1328125,-54.6875,-41.50390625,-31.25,-40.0390625,-9.765625,0.0
381.13671875,-34.1796875,-33.203125,-25.390625,-26.85546875,7.8125,0.0
381.140625,-11.71875,-34.1796875,-21.484375,-25.87890625,-35.15625,0.0
381.14453125,-7.32421875,-33.69140625,-25.390625,-26.85546875,-29.296875,0.0
381.1484375,-31.25,-35.64453125,-30.76171875,-30.2734375,-31.25,0.0
381.15234375,-57.12890625,-41.015625,-34.1796875,-42.48046875,-19.53125,0.0
381.15625,-45.41015625,-37.109375,-36.62109375,-41.50390625,-33.203125,0.0
381.16015625,-20.99609375,-22.4609375,-29.78515625,-27.34375,-29.296875,0.0
381.1640625,-20.99609375,-22.4609375,-23.92578125,-27.34375,-6.8359375,0.0
381.16796875,-42.96875,-29.78515625,-28.80859375,-34.1796875,-83.984375,0.0
381.171875,-64.453125,-37.59765625,-32.71484375,-29.296875,-103.515625,0.0
381.17578125,-53.22265625,-36.62109375,-28.80859375,-34.1796875,-81.0546875,0.0
381.1796875,-17.08984375,-27.34375,-20.5078125,-34.66796875,-73.73046875,0.0
381.18359375,-11.23046875,-33.69140625,-16.11328125,-31.73828125,-54.19921875,0.0
381.1875,-24.90234375,-37.59765625,-19.53125,-37.109375,-39.0625,0.0
381.19140625,-32.2265625,-26.85546875,-21.97265625,-50.78125,-62.01171875,0.0
381.1953125,-28.80859375,-24.90234375,-26.3671875,-52.734375,-100.09765625,0.0
381.19921875,-6.8359375,-30.76171875,-34.1796875,-38.0859375,-15.13671875,0.0
381.203125,-0.9765625,-34.66796875,-32.71484375,-28.3203125,105.95703125,0.0
381.20703125,-24.4140625,-39.55078125,-27.83203125,-23.92578125,18.06640625,0.0
381.2109375,-50.78125,-39.0625,-25.390625,-20.5078125,-54.6875,0.0
381.21484375,-52.24609375,-40.52734375,-26.85546875,-19.04296875,-63.4765625,0.0
381.21875,-20.99609375,-34.1796875,-23.92578125,-16.11328125,-56.15234375,0.0
381.22265625,3.41796875,-24.4140625,-18.06640625,-10.25390625,-80.56640625,0.0
381.2265625,-14.16015625,-26.3671875,-19.53125,-18.06640625,-69.3359375,0.0
381.23046875,-41.015625,-35.64453125,-28.3203125,-27.83203125,-24.4140625,0.0
381.234375,-38.57421875,-38.0859375,-36.1328125,-26.3671875,-35.15625,0.0
381.23828125,-8.30078125,-31.73828125,-32.71484375,-20.99609375,88.8671875,0.0
381.2421875,5.859375,-37.59765625,-25.390625,-14.6484375,55.17578125,0.0
381.24609375,-12.6953125,-38.57421875,-25.390625,-20.99609375,-55.6640625,0.0
381.25,-39.0625,-37.109375,-34.1796875,-35.15625,-124.0234375,0.0
381.25390625,-50.29296875,-41.015625,-32.71484375,-36.62109375,-178.7109375,0.0
381.2578125,-26.85546875,-34.1796875,-20.01953125,-26.3671875,-118.1640625,0.0
381.26171875,-2.9296875,-33.203125,-25.390625,-22.4609375,-3.90625,0.0
381.265625,-14.6484375,-34.66796875,-32.71484375,-32.71484375,64.94140625,0.0
381.26953125,-43.9453125,-39.0625,-33.203125,-41.50390625,-0.48828125,0.0
381.2734375,-49.31640625,-38.0859375,-33.203125,-42.48046875,-118.65234375,0.0
381.27734375,-25.390625,-29.296875,-29.296875,-39.0625,-151.85546875,0.0
381.28125,-1.46484375,-29.296875,-33.69140625,-27.34375,-81.0546875,0.0
381.28515625,-6.34765625,-33.203125,-26.3671875,-14.16015625,-73.73046875,0.0
381.2890625,-29.296875,-37.109375,-22.94921875,-22.94921875,-15.13671875,0.0
381.29296875,-43.45703125,-32.2265625,-32.2265625,-29.78515625,36.1328125,0.0
381.296875,-30.2734375,-35.64453125,-30.76171875,-29.78515625,0.48828125,0.0
381.30078125,-3.41796875,-40.52734375,-30.2734375,-23.4375,19.04296875,0.0
381.3046875,0.0,-37.109375,-25.87890625,-11.71875,16.6015625,0.0
381.30859375,-32.71484375,-40.52734375,-27.34375,-20.5078125,-43.45703125,0.0
381.3125,-57.6171875,-43.45703125,-27.83203125,-41.015625,-33.203125,0.0
381.31640625,-40.52734375,-47.8515625,-22.94921875,-38.0859375,74.70703125,0.0
381.3203125,-5.859375,-39.55078125,-23.4375,-13.18359375,61.03515625,0.0
381.32421875,-10.25390625,-35.15625,-29.78515625,-12.20703125,-11.71875,0.0
381.328125,-38.0859375,-38.57421875,-37.109375,-22.94921875,40.0390625,0.0
381.33203125,-52.24609375,-39.0625,-35.64453125,-29.78515625,-60.546875,0.0
381.3359375,-38.0859375,-35.64453125,-29.78515625,-30.2734375,-159.1796875,0.0
381.33984375,-11.23046875,-31.73828125,-30.76171875,-18.5546875,-34.1796875,0.0
381.34375,-3.90625,-30.76171875,-28.80859375,-22.4609375,22.94921875,0.0
381.34765625,-34.1796875,-34.1796875,-22.4609375,-30.2734375,15.13671875,0.0
381.3515625,-69.3359375,-40.52734375,-33.69140625,-40.0390625,2.44140625,0.0
381.35546875,-59.5703125,-38.0859375,-33.69140625,-43.9453125,18.06640625,0.0
381.359375,-30.76171875,-36.62109375,-26.3671875,-29.78515625,-16.6015625,0.0
381.36328125,-21.484375,-39.55078125,-27.34375,-24.4140625,-20.99609375,0.0
381.3671875,-33.69140625,-35.64453125,-27.34375,-31.73828125,-24.4140625,0.0
381.37109375,-54.6875,-33.69140625,-27.34375,-37.59765625,-48.828125,0.0
381.375,-55.6640625,-33.203125,-20.99609375,-30.2734375,-129.39453125,0.0
381.37890625,-27.34375,-28.80859375,-21.97265625,-24.4140625,-152.34375,0.0
381.3828125,-6.34765625,-28.80859375,-26.85546875,-20.01953125,-19.53125,0.0
381.38671875,-19.04296875,-29.78515625,-23.4375,-23.92578125,39.55078125,0.0
381.390625,-55.6640625,-32.71484375,-24.4140625,-42.48046875,1.46484375,0.0
381.39453125,-59.5703125,-36.62109375,-25.87890625,-42.96875,1.953125,0.0
381.3984375,-27.83203125,-30.76171875,-24.4140625,-28.3203125,27.34375,0.0
381.40234375,-1.953125,-31.73828125,-22.94921875,-16.6015625,56.640625,0.0
381.40625,-12.20703125,-38.57421875,-16.11328125,-20.5078125,60.546875,0.0
381.41015625,-39.0625,-39.0625,-19.04296875,-33.203125,40.0390625,0.0
381.4140625,-37.59765625,-36.1328125,-25.87890625,-34.66796875,-8.30078125,0.0
381.41796875,-9.765625,-32.2265625,-22.4609375,-24.4140625,-1.953125,0.0
381.421875,0.0,-32.71484375,-25.87890625,-21.97265625,2.9296875,0.0
381.42578125,-15.13671875,-29.296875,-26.85546875,-25.87890625,-28.3203125,0.0
381.4296875,-36.1328125,-34.1796875,-25.390625,-29.296875,-62.98828125,0.0
381.43359375,-43.45703125,-41.9921875,-29.78515625,-31.73828125,-47.36328125,0.0
381.4375,-18.5546875,-35.15625,-30.2734375,-26.3671875,-68.359375,0.0
381.44140625,1.46484375,-31.25,-24.90234375,-24.90234375,-59.5703125,0.0
381.4453125,-8.30078125,-33.69140625,-25.390625,-23.4375,0.9765625,0.0
381.44921875,-39.55078125,-32.2265625,-30.76171875,-20.99609375,-10.25390625,0.0
381.453125,-54.6875,-33.203125,-24.90234375,-31.73828125,-22.4609375,0.0
381.45703125,-38.0859375,-36.62109375,-27.34375,-34.66796875,-17.578125,0.0
381.4609375,-15.625,-33.203125,-27.83203125,-26.85546875,-35.15625,0.0
381.46484375,-18.5546875,-32.71484375,-22.4609375,-27.83203125,-26.85546875,0.0
381.46875,-47.8515625,-35.15625,-22.94921875,-34.66796875,21.97265625,0.0
381.47265625,-62.98828125,-30.2734375,-27.34375,-37.109375,62.5,0.0
381.4765625,-42.96875,-27.83203125,-34.66796875,-28.3203125,63.96484375,0.0
381.48046875,-9.765625,-31.73828125,-36.1328125,-27.34375,-14.6484375,0.0
381.484375,-14.6484375,-39.0625,-29.78515625,-26.3671875,57.12890625,0.0
381.48828125,-42.96875,-42.48046875,-25.390625,-34.66796875,33.69140625,0.0
381.4921875,-54.6875,-39.0625,-30.2734375,-43.9453125,-91.796875,0.0
381.49609375,-42.96875,-40.0390625,-35.64453125,-49.31640625,22.94921875,0.0
381.5,-11.71875,-34.1796875,-34.1796875,-37.109375,-47.8515625,0.0
381.50390625,-2.44140625,-26.85546875,-33.203125,-22.4609375,-164.0625,0.0
381.5078125,-30.2734375,-31.25,-29.78515625,-33.69140625,-223.14453125,0.0
381.51171875,-57.12890625,-36.62109375,-32.2265625,-48.33984375,-279.296875,0.0
381.515625,-45.8984375,-32.2265625,-36.1328125,-44.43359375,-177.24609375,0.0
381.51953125,-17.08984375,-32.2265625,-33.203125,-35.64453125,-96.6796875,0.0
381.5234375,-3.90625,-30.76171875,-22.4609375,-27.83203125,-22.4609375,0.0
381.52734375,-20.5078125,-25.390625,-21.97265625,-34.1796875,31.25,0.0
381.53125,-46.875,-35.15625,-30.2734375,-41.50390625,-13.671875,0.0
381.53515625,-41.015625,-28.80859375,-28.3203125,-37.109375,-44.43359375,0.0
381.5390625,-4.8828125,-17.08984375,-26.3671875,-40.0390625,-47.8515625,0.0
381.54296875,7.32421875,-26.3671875,-23.4375,-31.25,-6.8359375,0.0
381.546875,-20.5078125,-37.109375,-29.78515625,-32.2265625,20.5078125,0.0
381.55078125,-51.26953125,-41.9921875,-39.55078125,-46.875,-102.5390625,0.0
381.5546875,-43.9453125,-34.1796875,-34.1796875,-41.015625,-145.01953125,0.0
381.55859375,-10.25390625,-23.92578125,-31.73828125,-28.80859375,-80.078125,0.0
381.5625,5.859375,-19.53125,-35.64453125,-25.87890625,-60.05859375,0.0
381.56640625,-12.6953125,-22.94921875,-34.1796875,-30.2734375,-21.97265625,0.0
381.5703125,-42.96875,-30.2734375,-37.59765625,-40.52734375,-20.5078125,0.0
381.57421875,-44.43359375,-31.25,-41.9921875,-44.43359375,38.57421875,0.0
381.578125,-21.484375,-25.87890625,-41.9921875,-43.45703125,64.94140625,0.0
381.58203125,-2.44140625,-19.53125,-36.1328125,-31.73828125,23.4375,0.0
381.5859375,-10.25390625,-21.484375,-35.15625,-35.15625,3.90625,0.0
381.58984375,-30.2734375,-27.34375,-41.015625,-47.36328125,-28.80859375,0.0
381.59375,-44.43359375,-28.80859375,-36.62109375,-43.9453125,-23.92578125,0.0
381.59765625,-26.3671875,-26.85546875,-31.73828125,-40.0390625,28.3203125,0.0
381.6015625,-7.32421875,-31.73828125,-28.3203125,-33.69140625,49.31640625,0.0
381.60546875,-14.6484375,-29.78515625,-30.2734375,-29.296875,-48.33984375,0.0
381.609375,-38.57421875,-23.92578125,-34.1796875,-37.109375,-72.75390625,0.0
381.61328125,-49.8046875,-27.34375,-32.2265625,-48.33984375,-49.31640625,0.0
381.6171875,-32.2265625,-26.85546875,-27.34375,-42.96875,-66.89453125,0.0
381.62109375,-19.53125,-31.73828125,-33.203125,-33.69140625,-70.3125,0.0
381.625,-22.94921875,-33.203125,-34.1796875,-31.25,-72.265625,0.0
381.62890625,-45.8984375,-30.2734375,-27.83203125,-35.15625,-43.45703125,0.0
381.6328125,-65.91796875,-35.15625,-31.25,-46.875,-55.6640625,0.0
381.63671875,-37.59765625,-34.66796875,-35.15625,-42.48046875,-67.3828125,0.0
381.640625,-9.27734375,-28.80859375,-37.59765625,-29.296875,-106.93359375,0.0
381.64453125,-22.94921875,-32.71484375,-35.64453125,-32.71484375,-133.7890625,0.0
381.6484375,-45.41015625,-39.0625,-36.62109375,-41.015625,-93.75,0.0
381.65234375,-51.7578125,-33.203125,-36.1328125,-41.50390625,-110.83984375,0.0
381.65625,-39.0625,-32.2265625,-32.2265625,-36.1328125,-43.45703125,0.0
381.66015625,-13.671875,-23.92578125,-34.66796875,-32.71484375,-11.23046875,0.0
381.6640625,-7.32421875,-12.20703125,-32.71484375,-24.90234375,-5.37109375,0.0
381.66796875,-30.2734375,-24.4140625,-27.83203125,-22.4609375,39.55078125,0.0
381.671875,-59.5703125,-38.0859375,-29.296875,-32.2265625,11.23046875,0.0
381.67578125,-49.31640625,-36.1328125,-29.78515625,-35.15625,76.171875,0.0
381.6796875,-2.9296875,-21.484375,-23.92578125,-23.92578125,63.4765625,0.0
381.68359375,6.8359375,-16.11328125,-23.4375,-9.27734375,-19.53125,0.0
381.6875,-22.4609375,-24.4140625,-27.34375,-16.6015625,-27.83203125,0.0
381.69140625,-37.59765625,-25.87890625,-21.484375,-39.0625,-59.5703125,0.0
381.6953125,-31.25,-22.4609375,-26.85546875,-41.015625,-76.66015625,0.0
381.69921875,-9.27734375,-18.06640625,-33.69140625,-28.3203125,-71.2890625,0.0
381.703125,3.41796875,-18.06640625,-29.78515625,-22.4609375,-11.23046875,0.0
381.70703125,-24.4140625,-23.4375,-29.296875,-26.85546875,-17.08984375,0.0
381.7109375,-54.19921875,-23.4375,-31.73828125,-40.52734375,-50.29296875,0.0
381.71484375,-53.22265625,-28.80859375,-34.1796875,-48.828125,32.2265625,0.0
381.71875,-26.85546875,-26.85546875,-35.64453125,-38.57421875,61.03515625,0.0
381.72265625,-7.8125,-22.94921875,-34.1796875,-32.2265625,10.7421875,0.0
381.7265625,-16.6015625,-24.90234375,-30.76171875,-32.2265625,-77.1484375,0.0
381.73046875,-47.36328125,-28.3203125,-38.57421875,-32.2265625,-150.390625,0.0
381.734375,-53.22265625,-27.83203125,-38.57421875,-36.62109375,-66.40625,0.0
381.73828125,-27.34375,-26.85546875,-25.87890625,-36.1328125,0.9765625,0.0
381.7421875,-3.90625,-20.99609375,-26.85546875,-24.90234375,-56.15234375,0.0
381.74609375,-14.6484375,-15.625,-31.73828125,-22.94921875,-92.28515625,0.0
381.75,-47.8515625,-25.87890625,-39.55078125,-44.43359375,-86.9140625,0.0
381.75390625,-48.33984375,-28.3203125,-46.38671875,-48.33984375,-56.15234375,0.0
381.7578125,-26.3671875,-23.92578125,-42.96875,-33.203125,-73.73046875,0.0
381.76171875,-2.9296875,-21.97265625,-29.78515625,-13.18359375,-46.875,0.0
381.765625,2.44140625,-17.578125,-22.4609375,-11.23046875,-6.34765625,0.0
381.76953125,-29.78515625,-23.92578125,-32.2265625,-29.296875,-12.20703125,0.0
381.7734375,-52.24609375,-26.85546875,-38.0859375,-41.015625,15.625,0.0
381.77734375,-33.203125,-28.80859375,-40.0390625,-36.1328125,-54.19921875,0.0
381.78125,-7.32421875,-28.3203125,-43.9453125,-29.78515625,-67.3828125,0.0
381.78515625,-9.765625,-23.92578125,-38.57421875,-24.90234375,-32.71484375,0.0
381.7890625,-32.2265625,-25.390625,-40.52734375,-28.80859375,-92.7734375,0.0
381.79296875,-47.36328125,-24.90234375,-41.9921875,-36.1328125,-63.96484375,0.0
381.796875,-26.3671875,-22.94921875,-28.80859375,-30.2734375,51.26953125,0.0
381.80078125,4.39453125,-20.99609375,-30.2734375,-22.94921875,50.78125,0.0
381.8046875,0.48828125,-19.04296875,-31.73828125,-25.390625,-16.11328125,0.0
381.80859375,-25.87890625,-25.87890625,-32.2265625,-29.78515625,-27.34375,0.0
381.8125,-47.8515625,-35.64453125,-40.0390625,-39.0625,-25.390625,0.0
381.81640625,-42.96875,-37.59765625,-39.55078125,-42.96875,63.96484375,0.0
381.8203125,-25.87890625,-30.76171875,-33.69140625,-31.25,76.171875,0.0
381.82421875,-18.06640625,-26.3671875,-29.296875,-25.390625,-34.1796875,0.0
381.828125,-35.15625,-27.83203125,-32.71484375,-31.73828125,-84.47265625,0.0
381.83203125,-63.4765625,-36.1328125,-44.921875,-51.7578125,-11.23046875,0.0
381.8359375,-54.6875,-39.0625,-44.921875,-55.6640625,5.37109375,0.0
381.83984375,-18.06640625,-34.66796875,-39.55078125,-37.59765625,-19.04296875,0.0
381.84375,-2.44140625,-34.66796875,-38.0859375,-30.76171875,-86.42578125,0.0
381.84765625,-19.53125,-32.71484375,-37.59765625,-35.64453125,-181.640625,0.0
381.8515625,-40.52734375,-34.1796875,-39.0625,-43.9453125,-182.12890625,0.0
381.85546875,-39.0625,-31.73828125,-32.2265625,-46.38671875,-103.515625,0.0
381.859375,-20.5078125,-28.3203125,-26.85546875,-37.109375,-72.75390625,0.0
381.86328125,-7.8125,-29.78515625,-33.203125,-21.97265625,-165.52734375,0.0
381.8671875,-22.4609375,-27.83203125,-36.1328125,-27.34375,-188.4765625,0.0
381.87109375,-52.24609375,-35.64453125,-32.71484375,-40.52734375,-49.8046875,0.0
381.875,-61.03515625,-40.52734375,-34.1796875,-48.33984375,21.484375,0.0
381.87890625,-28.80859375,-29.296875,-33.69140625,-42.48046875,0.0,0.0
381.8828125,-10.25390625,-29.296875,-34.1796875,-37.59765625,39.0625,0.0
381.88671875,-28.3203125,-34.66796875,-35.15625,-42.96875,3.90625,0.0
381.890625,-56.640625,-36.62109375,-38.0859375,-43.45703125,-177.24609375,0.0
381.89453125,-61.03515625,-36.62109375,-38.57421875,-45.41015625,-215.8203125,0.0
381.8984375,-35.64453125,-32.2265625,-36.1328125,-44.921875,-165.0390625,0.0
381.90234375,-12.6953125,-27.34375,-31.73828125,-36.62109375,-91.796875,0.0
381.90625,-21.97265625,-23.92578125,-27.83203125,-30.2734375,21.484375,0.0
381.91015625,-60.546875,-29.296875,-36.1328125,-47.36328125,69.82421875,0.0
381.9140625,-71.2890625,-34.1796875,-38.0859375,-56.640625,80.078125,0.0
381.91796875,-42.48046875,-35.15625,-22.94921875,-41.9921875,33.203125,0.0
381.921875,-21.97265625,-30.2734375,-21.484375,-34.66796875,4.8828125,0.0
381.92578125,-33.69140625,-28.80859375,-37.109375,-41.9921875,-12.6953125,0.0
381.9296875,-55.6640625,-31.73828125,-37.59765625,-54.19921875,-24.4140625,0.0
381.93359375,-62.5,-31.73828125,-36.62109375,-57.12890625,-5.37109375,0.0
381.9375,-39.0625,-28.80859375,-39.0625,-52.24609375,15.625,0.0
381.94140625,-3.90625,-20.99609375,-35.64453125,-41.9921875,-36.62109375,0.0
381.9453125,8.30078125,-18.5546875,-27.34375,-38.57421875,-34.66796875,0.0
381.94921875,2.44140625,-24.90234375,-33.203125,-49.8046875,68.359375,0.0
381.953125,-12.20703125,-27.83203125,-47.36328125,-63.96484375,27.34375,0.0
381.95703125,-9.27734375,-25.390625,-46.875,-63.4765625,-37.59765625,0.0
381.9609375,10.25390625,-19.53125,-37.59765625,-51.7578125,22.4609375,0.0
381.96484375,3.41796875,-21.484375,-32.71484375,-33.203125,-22.4609375,0.0
381.96875,-32.2265625,-29.296875,-33.69140625,-35.64453125,-89.35546875,0.0
381.97265625,-58.59375,-34.1796875,-36.1328125,-42.48046875,-83.984375,0.0
381.9765625,-46.38671875,-35.15625,-38.0859375,-33.69140625,-77.63671875,0.0
381.98046875,-21.484375,-25.87890625,-36.62109375,-26.3671875,-26.3671875,0.0
381.984375,-17.578125,-27.34375,-37.59765625,-29.78515625,-71.2890625,0.0
381.98828125,-41.015625,-37.109375,-44.43359375,-48.33984375,-140.13671875,0.0
381.9921875,-54.19921875,-34.1796875,-40.52734375,-43.45703125,-90.8203125,0.0
381.99609375,-43.45703125,-25.87890625,-35.15625,-36.62109375,50.29296875,0.0
382.0,-14.6484375,-22.4609375,-35.15625,-43.45703125,87.40234375,0.0
382.00390625,-5.37109375,-24.4140625,-35.15625,-35.64453125,16.6015625,0.0
382.0078125,-37.109375,-30.76171875,-43.45703125,-31.73828125,-48.828125,0.0
382.01171875,-57.12890625,-36.62109375,-44.43359375,-43.9453125,-12.20703125,0.0
382.015625,-43.9453125,-38.0859375,-40.52734375,-49.31640625,20.5078125,0.0
382.01953125,-21.97265625,-35.15625,-37.59765625,-42.96875,-40.0390625,0.0
382.0234375,-18.06640625,-31.73828125,-37.59765625,-35.64453125,-51.7578125,0.0
382.02734375,-30.76171875,-25.87890625,-42.96875,-26.85546875,-38.0859375,0.0
382.03125,-53.7109375,-24.4140625,-42.96875,-29.296875,-61.5234375,0.0
382.03515625,-48.33984375,-32.2265625,-45.8984375,-46.38671875,-128.41796875,0.0
382.0390625,-27.34375,-29.78515625,-48.828125,-48.33984375,-101.5625,0.0
382.04296875,-24.90234375,-23.4375,-43.9453125,-33.203125,-27.83203125,0.0
382.046875,-41.015625,-25.87890625,-39.0625,-34.1796875,4.39453125,0.0
382.05078125,-64.94140625,-34.66796875,-40.52734375,-43.9453125,22.94921875,0.0
382.0546875,-60.546875,-33.69140625,-37.59765625,-37.59765625,48.33984375,0.0
382.05859375,-35.15625,-29.296875,-37.59765625,-32.2265625,25.87890625,0.0
382.0625,-20.01953125,-27.34375,-39.55078125,-28.80859375,3.41796875,0.0
382.06640625,-29.296875,-27.34375,-34.66796875,-30.76171875,23.4375,0.0
382.0703125,-49.8046875,-26.85546875,-34.1796875,-39.55078125,-5.37109375,0.0
382.07421875,-60.05859375,-25.87890625,-44.43359375,-47.8515625,-32.2265625,0.0
382.078125,-33.203125,-27.34375,-42.96875,-40.52734375,-73.2421875,0.0
382.08203125,-2.9296875,-23.92578125,-33.69140625,-25.390625,-91.30859375,0.0
382.0859375,-26.3671875,-24.90234375,-36.1328125,-21.484375,-108.88671875,0.0
382.08984375,-59.5703125,-27.83203125,-40.52734375,-27.83203125,-76.66015625,0.0
382.09375,-69.3359375,-25.87890625,-40.52734375,-37.109375,-20.99609375,0.0
382.09765625,-47.36328125,-22.94921875,-38.57421875,-31.25,54.6875,0.0
382.1015625,-23.4375,-23.4375,-35.64453125,-18.06640625,30.76171875,0.0
382.10546875,-29.296875,-23.92578125,-32.71484375,-18.5546875,-38.57421875,0.0
382.109375,-55.6640625,-22.94921875,-30.76171875,-25.87890625,-0.48828125,0.0
382.11328125,-75.1953125,-30.76171875,-39.0625,-36.1328125,8.7890625,0.0
382.1171875,-51.26953125,-25.87890625,-40.52734375,-36.62109375,-8.30078125,0.0
382.12109375,-19.53125,-19.53125,-29.78515625,-21.97265625,-48.828125,0.0
382.125,-23.92578125,-21.97265625,-33.69140625,-30.2734375,-28.3203125,0.0
382.12890625,-54.19921875,-25.390625,-42.48046875,-41.9921875,-12.20703125,0.0
382.1328125,-82.03125,-24.4140625,-47.8515625,-50.29296875,-29.78515625,0.0
382.13671875,-64.94140625,-18.06640625,-46.38671875,-45.41015625,-41.50390625,0.0
382.140625,-31.73828125,-19.53125,-39.55078125,-34.1796875,-71.77734375,0.0
382.14453125,-26.3671875,-23.4375,-37.59765625,-31.25,-93.75,0.0
382.1484375,-49.8046875,-25.390625,-37.109375,-30.76171875,-64.94140625,0.0
382.15234375,-67.3828125,-19.04296875,-31.73828125,-33.69140625,-76.66015625,0.0
382.15625,-53.22265625,-21.97265625,-27.83203125,-35.64453125,-61.03515625,0.0
382.16015625,-28.80859375,-28.3203125,-29.296875,-33.203125,53.7109375,0.0
382.1640625,-28.80859375,-23.4375,-32.71484375,-22.4609375,33.69140625,0.0
382.16796875,-50.78125,-24.4140625,-38.57421875,-28.80859375,-82.51953125,0.0
382.171875,-68.359375,-29.296875,-42.48046875,-41.50390625,-97.16796875,0.0
382.17578125,-53.22265625,-32.71484375,-43.45703125,-34.1796875,-96.19140625,0.0
382.1796875,-20.99609375,-28.80859375,-47.36328125,-28.80859375,-54.19921875,0.0
382.18359375,-19.53125,-23.92578125,-39.55078125,-25.87890625,-56.15234375,0.0
382.1875,-44.43359375,-27.83203125,-34.1796875,-25.390625,-65.91796875,0.0
382.19140625,-66.89453125,-32.71484375,-40.0390625,-41.9921875,15.13671875,0.0
382.1953125,-63.4765625,-34.66796875,-38.0859375,-48.828125,-19.53125,0.0
382.19921875,-41.9921875,-35.64453125,-34.1796875,-35.64453125,-142.578125,0.0
382.203125,-29.296875,-29.296875,-31.73828125,-32.2265625,-173.33984375,0.0
382.20703125,-41.015625,-29.78515625,-37.109375,-32.71484375,-193.359375,0.0
382.2109375,-63.96484375,-37.59765625,-43.9453125,-42.48046875,-185.05859375,0.0
382.21484375,-62.98828125,-35.15625,-42.96875,-49.31640625,-139.6484375,0.0
382.21875,-32.2265625,-28.3203125,-36.62109375,-36.1328125,-118.1640625,0.0
382.22265625,-15.13671875,-26.3671875,-32.2265625,-30.76171875,-167.96875,0.0
382.2265625,-27.83203125,-25.390625,-25.390625,-31.73828125,-238.76953125,0.0
382.23046875,-50.78125,-31.73828125,-30.76171875,-47.36328125,-139.6484375,0.0
382.234375,-63.96484375,-35.64453125,-40.52734375,-57.6171875,-95.21484375,0.0
382.23828125,-41.50390625,-30.2734375,-36.1328125,-41.9921875,-131.8359375,0.0
382.2421875,-18.5546875,-32.2265625,-28.80859375,-34.66796875,-126.953125,0.0
382.24609375,-29.78515625,-27.83203125,-25.390625,-37.59765625,-92.7734375,0.0
382.25,-60.05859375,-29.78515625,-35.64453125,-39.55078125,85.9375,0.0
382.25390625,-70.3125,-39.0625,-41.9921875,-43.9453125,131.8359375,0.0
382.2578125,-42.96875,-34.66796875,-33.69140625,-37.109375,48.828125,0.0
382.26171875,-14.6484375,-33.69140625,-24.90234375,-22.4609375,76.66015625,0.0
382.265625,-20.01953125,-29.78515625,-20.01953125,-14.16015625,50.29296875,0.0
382.26953125,-45.8984375,-30.2734375,-23.4375,-21.97265625,40.52734375,0.0
382.2734375,-61.5234375,-38.57421875,-35.64453125,-34.1796875,104.00390625,0.0
382.27734375,-27.83203125,-32.2265625,-34.1796875,-26.85546875,58.59375,0.0
382.28125,4.39453125,-20.5078125,-31.25,-16.6015625,17.08984375,0.0
382.28515625,-14.16015625,-23.92578125,-34.1796875,-16.6015625,47.36328125,0.0
382.2890625,-46.875,-33.69140625,-35.15625,-25.87890625,22.4609375,0.0
382.29296875,-58.59375,-36.1328125,-36.62109375,-40.52734375,-27.34375,0.0
382.296875,-35.15625,-27.83203125,-30.76171875,-34.1796875,15.625,0.0
382.30078125,-7.8125,-23.92578125,-27.83203125,-19.53125,75.1953125,0.0
382.3046875,-8.7890625,-30.76171875,-26.85546875,-20.5078125,64.94140625,0.0
382.30859375,-34.1796875,-31.73828125,-27.34375,-27.83203125,47.8515625,0.0
382.3125,-52.24609375,-32.2265625,-38.57421875,-41.015625,-20.01953125,0.0
382.31640625,-38.57421875,-30.2734375,-41.015625,-46.38671875,-56.15234375,0.0
382.3203125,-2.44140625,-18.5546875,-32.2265625,-29.296875,25.390625,0.0
382.32421875,0.9765625,-14.6484375,-28.80859375,-20.99609375,75.1953125,0.0
382.328125,-37.59765625,-29.296875,-38.0859375,-30.76171875,101.07421875,0.0
382.33203125,-55.6640625,-36.1328125,-35.15625,-42.48046875,40.0390625,0.0
382.3359375,-44.921875,-29.296875,-28.80859375,-49.8046875,-84.47265625,0.0
382.33984375,-24.90234375,-24.90234375,-25.87890625,-32.2265625,-64.453125,0.0
382.34375,-16.11328125,-24.90234375,-26.3671875,-22.4609375,-57.6171875,0.0
382.34765625,-42.48046875,-29.296875,-29.78515625,-33.69140625,-102.05078125,0.0
382.3515625,-66.89453125,-40.52734375,-32.71484375,-46.38671875,-55.6640625,0.0
382.35546875,-51.7578125,-40.52734375,-31.25,-41.9921875,-58.10546875,0.0
382.359375,-19.04296875,-29.296875,-27.34375,-28.80859375,-48.33984375,0.0
382.36328125,-2.9296875,-26.3671875,-23.4375,-19.04296875,-34.1796875,0.0
382.3671875,-18.06640625,-24.4140625,-22.94921875,-25.390625,-50.78125,0.0
382.37109375,-46.38671875,-25.87890625,-33.69140625,-41.50390625,-21.97265625,0.0
382.375,-47.8515625,-29.78515625,-33.69140625,-37.109375,-46.38671875,0.0
382.37890625,-20.01953125,-26.85546875,-26.85546875,-23.4375,-38.0859375,0.0
382.3828125,-10.7421875,-25.87890625,-22.94921875,-27.83203125,-14.6484375,0.0
382.38671875,-32.71484375,-27.83203125,-24.90234375,-35.64453125,-75.68359375,0.0
382.390625,-47.36328125,-33.69140625,-38.0859375,-35.15625,-27.34375,0.0
382.39453125,-46.38671875,-31.73828125,-32.71484375,-36.1328125,-15.625,0.0
382.3984375,-34.1796875,-30.2734375,-18.06640625,-37.59765625,-56.640625,0.0
382.40234375,-16.11328125,-31.73828125,-29.78515625,-31.25,-23.92578125,0.0
382.40625,-26.85546875,-31.25,-38.57421875,-22.4609375,-48.828125,0.0
382.41015625,-56.640625,-35.64453125,-40.0390625,-33.203125,-112.79296875,0.0
382.4140625,-63.4765625,-32.71484375,-41.9921875,-41.015625,-109.86328125,0.0
382.41796875,-33.203125,-28.80859375,-41.9921875,-32.71484375,0.0,0.0
382.421875,-3.90625,-23.92578125,-32.2265625,-20.5078125,18.06640625,0.0
382.42578125,-12.20703125,-26.3671875,-26.85546875,-23.4375,-50.78125,0.0
382.4296875,-40.0390625,-30.2734375,-27.83203125,-32.2265625,-83.984375,0.0
382.43359375,-49.31640625,-35.64453125,-29.296875,-35.64453125,-18.5546875,0.0
382.4375,-27.34375,-38.0859375,-30.76171875,-32.71484375,64.453125,0.0
382.44140625,-1.46484375,-29.296875,-20.01953125,-20.5078125,87.40234375,0.0
382.4453125,0.9765625,-26.3671875,-23.92578125,-20.01953125,18.06640625,0.0
382.44921875,-16.11328125,-25.87890625,-34.1796875,-31.25,-34.66796875,0.0
382.453125,-44.921875,-26.85546875,-31.25,-37.59765625,-29.78515625,0.0
382.45703125,-41.015625,-28.80859375,-25.87890625,-31.73828125,16.6015625,0.0
382.4609375,-9.765625,-23.92578125,-31.73828125,-22.94921875,27.83203125,0.0
382.46484375,-7.32421875,-25.87890625,-34.1796875,-20.99609375,-16.11328125,0.0
382.46875,-36.62109375,-35.64453125,-29.296875,-26.3671875,-8.30078125,0.0
382.47265625,-53.7109375,-39.55078125,-32.71484375,-39.55078125,-15.625,0.0
382.4765625,-35.15625,-32.71484375,-35.15625,-38.57421875,-21.97265625,0.0
382.48046875,-6.34765625,-21.484375,-32.2265625,-29.296875,19.04296875,0.0
382.484375,0.9765625,-19.53125,-28.80859375,-19.53125,-73.2421875,0.0
382.48828125,-24.90234375,-28.80859375,-28.80859375,-29.296875,-151.3671875,0.0
382.4921875,-47.8515625,-28.80859375,-30.76171875,-41.015625,-130.37109375,0.0
382.49609375,-35.15625,-25.87890625,-27.83203125,-33.203125,-193.84765625,0.0
382.5,-6.8359375,-22.4609375,-20.5078125,-25.87890625,-172.36328125,0.0
382.50390625,10.25390625,-15.13671875,-12.6953125,-17.578125,-110.83984375,0.0
382.5078125,-21.97265625,-24.4140625,-23.4375,-29.78515625,-115.234375,0.0
382.51171875,-63.96484375,-35.64453125,-38.57421875,-41.015625,-146.484375,0.0
382.515625,-57.6171875,-34.66796875,-31.25,-35.64453125,-113.76953125,0.0
382.51953125,-26.85546875,-30.2734375,-25.390625,-29.296875,-91.796875,0.0
382.5234375,-9.27734375,-25.87890625,-22.94921875,-27.83203125,-191.40625,0.0
382.52734375,-23.92578125,-27.34375,-25.87890625,-25.87890625,-274.90234375,0.0
382.53125,-51.7578125,-35.64453125,-30.76171875,-39.55078125,-263.18359375,0.0
382.53515625,-50.29296875,-41.9921875,-30.76171875,-46.875,-217.7734375,0.0
382.5390625,-20.01953125,-36.1328125,-25.87890625,-29.78515625,-196.2890625,0.0
382.54296875,-4.39453125,-34.1796875,-26.3671875,-21.97265625,-177.734375,0.0
382.546875,-20.5078125,-38.57421875,-33.203125,-27.34375,-90.8203125,0.0
382.55078125,-42.48046875,-38.0859375,-29.78515625,-28.3203125,-62.01171875,0.0
382.5546875,-38.0859375,-29.296875,-25.390625,-23.92578125,20.01953125,0.0
382.55859375,-7.8125,-24.90234375,-23.92578125,-18.06640625,101.5625,0.0
382.5625,4.39453125,-29.296875,-21.97265625,-11.23046875,62.01171875,0.0
382.56640625,-22.94921875,-40.52734375,-23.4375,-14.6484375,71.2890625,0.0
382.5703125,-49.31640625,-43.45703125,-31.73828125,-31.25,49.8046875,0.0
382.57421875,-45.41015625,-39.0625,-31.73828125,-32.71484375,42.48046875,0.0
382.578125,-20.99609375,-35.15625,-22.4609375,-26.3671875,4.8828125,0.0
382.58203125,-2.9296875,-31.25,-21.97265625,-27.34375,-35.64453125,0.0
382.5859375,-7.8125,-32.2265625,-29.296875,-24.4140625,-23.4375,0.0
382.58984375,-31.25,-35.15625,-32.71484375,-39.0625,22.94921875,0.0
382.59375,-45.8984375,-42.48046875,-33.203125,-51.26953125,23.92578125,0.0
382.59765625,-27.83203125,-43.9453125,-33.203125,-42.96875,5.37109375,0.0
382.6015625,-0.48828125,-31.25,-25.87890625,-30.2734375,63.4765625,0.0
382.60546875,-4.8828125,-23.4375,-28.3203125,-32.2265625,123.046875,0.0
382.609375,-41.50390625,-36.1328125,-40.52734375,-45.8984375,60.546875,0.0
382.61328125,-58.10546875,-43.9453125,-38.0859375,-47.8515625,44.43359375,0.0
382.6171875,-32.71484375,-36.62109375,-26.85546875,-42.96875,55.17578125,0.0
382.62109375,-3.90625,-32.2265625,-27.34375,-34.1796875,-30.76171875,0.0
382.625,-5.37109375,-32.2265625,-33.203125,-22.94921875,-125.0,0.0
382.62890625,-34.1796875,-34.66796875,-35.64453125,-34.66796875,-132.32421875,0.0
382.6328125,-50.78125,-41.015625,-38.57421875,-44.43359375,-57.6171875,0.0
382.63671875,-35.64453125,-40.0390625,-32.2265625,-41.015625,4.39453125,0.0
382.640625,-6.34765625,-33.69140625,-25.87890625,-31.25,9.27734375,0.0
382.64453125,-0.48828125,-36.1328125,-28.3203125,-25.390625,8.7890625,0.0
382.6484375,-26.85546875,-37.109375,-31.73828125,-32.2265625,-20.99609375,0.0
382.65234375,-41.9921875,-34.1796875,-30.76171875,-39.55078125,40.52734375,0.0
382.65625,-27.83203125,-34.66796875,-29.78515625,-38.0859375,54.19921875,0.0
382.66015625,-5.37109375,-27.34375,-18.5546875,-24.90234375,-34.66796875,0.0
382.6640625,-12.6953125,-27.83203125,-22.94921875,-29.296875,2.9296875,0.0
382.66796875,-39.0625,-34.66796875,-36.1328125,-37.59765625,-4.8828125,0.0
382.671875,-50.78125,-37.109375,-32.2265625,-36.62109375,-21.484375,0.0
382.67578125,-35.15625,-34.66796875,-31.73828125,-38.57421875,24.4140625,0.0
382.6796875,-17.08984375,-29.78515625,-25.390625,-32.71484375,13.18359375,0.0
382.68359375,-13.18359375,-34.1796875,-23.92578125,-31.73828125,-12.6953125,0.0
382.6875,-23.4375,-34.1796875,-26.85546875,-35.64453125,-52.734375,0.0
382.69140625,-46.875,-34.66796875,-23.4375,-40.52734375,-79.58984375,0.0
382.6953125,-51.7578125,-35.15625,-24.90234375,-45.41015625,-74.70703125,0.0
382.69921875,-21.97265625,-23.92578125,-18.06640625,-30.76171875,-32.71484375,0.0
382.703125,-4.8828125,-20.5078125,-11.71875,-14.6484375,-110.83984375,0.0
382.70703125,-27.83203125,-25.87890625,-18.06640625,-21.484375,-192.3828125,0.0
382.7109375,-57.6171875,-29.78515625,-24.90234375,-35.15625,-61.5234375,0.0
382.71484375,-54.19921875,-33.69140625,-27.34375,-37.59765625,51.7578125,0.0
382.71875,-25.390625,-33.69140625,-25.390625,-27.83203125,82.03125,0.0
382.72265625,-1.953125,-33.69140625,-20.99609375,-21.97265625,45.41015625,0.0
382.7265625,-14.16015625,-34.1796875,-21.484375,-17.08984375,4.39453125,0.0
382.73046875,-49.8046875,-39.55078125,-27.83203125,-24.4140625,12.6953125,0.0
382.734375,-53.7109375,-39.55078125,-28.80859375,-37.109375,28.3203125,0.0
382.73828125,-34.1796875,-37.109375,-32.2265625,-35.64453125,30.76171875,0.0
382.7421875,-12.6953125,-37.59765625,-31.25,-28.80859375,5.859375,0.0
382.74609375,-15.13671875,-37.109375,-29.78515625,-29.78515625,-47.36328125,0.0
382.75,-43.9453125,-38.0859375,-30.76171875,-34.1796875,-63.4765625,0.0
382.75390625,-49.31640625,-37.109375,-34.1796875,-38.0859375,-68.84765625,0.0
382.7578125,-15.625,-27.83203125,-27.34375,-35.64453125,-69.82421875,0.0
382.76171875,14.6484375,-25.87890625,-20.99609375,-23.92578125,-14.16015625,0.0
382.765625,10.25390625,-30.2734375,-25.87890625,-20.99609375,-92.28515625,0.0
382.76953125,-11.23046875,-33.203125,-20.5078125,-33.69140625,-107.91015625,0.0
382.7734375,-15.13671875,-40.0390625,-14.16015625,-44.921875,-39.0625,0.0
382.77734375,-8.7890625,-40.52734375,-25.87890625,-44.43359375,-75.68359375,0.0
382.78125,2.44140625,-33.69140625,-29.78515625,-39.55078125,-16.6015625,0.0
382.78515625,-7.32421875,-34.66796875,-30.2734375,-32.2265625,-49.31640625,0.0
382.7890625,-46.38671875,-41.50390625,-31.25,-34.1796875,-83.49609375,0.0
382.79296875,-68.359375,-36.62109375,-25.390625,-33.203125,-89.84375,0.0
382.796875,-59.5703125,-36.62109375,-27.83203125,-38.57421875,-69.3359375,0.0
382.80078125,-37.59765625,-40.0390625,-31.25,-35.15625,-1.46484375,0.0
382.8046875,-26.85546875,-33.69140625,-23.4375,-21.484375,-16.6015625,0.0
382.80859375,-48.828125,-37.59765625,-19.53125,-31.73828125,0.0,0.0
382.8125,-73.2421875,-51.26953125,-28.3203125,-43.9453125,30.2734375,0.0
382.81640625,-62.01171875,-53.22265625,-20.99609375,-43.45703125,55.17578125,0.0
382.8203125,-27.83203125,-38.0859375,-15.625,-34.66796875,71.2890625,0.0
382.82421875,-14.6484375,-32.71484375,-26.85546875,-30.2734375,30.2734375,0.0
382.828125,-34.1796875,-34.66796875,-29.296875,-32.71484375,37.109375,0.0
382.83203125,-62.01171875,-42.96875,-32.71484375,-41.9921875,13.671875,0.0
382.8359375,-56.640625,-48.33984375,-30.2734375,-41.50390625,-20.99609375,0.0
382.83984375,-20.99609375,-41.015625,-25.390625,-27.83203125,22.94921875,0.0
382.84375,-8.30078125,-39.0625,-22.4609375,-22.4609375,46.875,0.0
382.84765625,-28.80859375,-38.57421875,-25.390625,-33.69140625,23.92578125,0.0
382.8515625,-55.17578125,-37.59765625,-34.1796875,-50.29296875,-78.61328125,0.0
382.85546875,-47.36328125,-37.59765625,-35.15625,-51.26953125,-108.88671875,0.0
382.859375,-17.578125,-41.9921875,-26.85546875,-39.0625,-73.2421875,0.0
382.86328125,-7.8125,-42.96875,-15.13671875,-31.73828125,-91.796875,0.0
382.8671875,-26.85546875,-40.52734375,-23.4375,-32.2265625,-119.140625,0.0
382.87109375,-54.6875,-40.52734375,-35.64453125,-44.921875,-92.7734375,0.0
382.875,-50.78125,-36.62109375,-33.203125,-48.33984375,-90.33203125,0.0
382.87890625,-17.578125,-32.71484375,-30.2734375,-38.0859375,-63.4765625,0.0
382.8828125,-5.859375,-23.92578125,-22.4609375,-25.390625,-72.265625,0.0
382.88671875,-25.87890625,-31.25,-20.01953125,-24.4140625,-22.4609375,0.0
382.890625,-58.10546875,-41.9921875,-32.2265625,-33.69140625,32.2265625,0.0
382.89453125,-58.10546875,-38.0859375,-32.71484375,-39.55078125,-66.40625,0.0
382.8984375,-28.80859375,-32.71484375,-28.3203125,-27.83203125,-81.54296875,0.0
382.90234375,-5.859375,-28.80859375,-27.34375,-11.71875,-41.50390625,0.0
382.90625,-18.06640625,-35.15625,-16.6015625,-20.5078125,-42.48046875,0.0
382.91015625,-51.7578125,-41.015625,-18.06640625,-34.1796875,-63.96484375,0.0
382.9140625,-55.6640625,-40.0390625,-33.69140625,-40.52734375,-26.3671875,0.0
382.91796875,-19.04296875,-35.64453125,-27.34375,-35.64453125,-25.87890625,0.0
382.921875,4.39453125,-29.78515625,-14.16015625,-22.94921875,-9.27734375,0.0
382.92578125,-18.06640625,-32.2265625,-22.4609375,-24.90234375,4.39453125,0.0
382.9296875,-42.96875,-32.71484375,-30.76171875,-32.2265625,-93.26171875,0.0
382.93359375,-53.22265625,-34.66796875,-26.85546875,-38.0859375,-38.0859375,0.0
382.9375,-39.55078125,-37.109375,-23.4375,-39.55078125,-32.2265625,0.0
382.94140625,-11.23046875,-34.66796875,-21.484375,-37.109375,-157.2265625,0.0
382.9453125,-5.37109375,-29.78515625,-24.4140625,-36.62109375,-128.90625,0.0
382.94921875,-33.69140625,-35.64453125,-28.3203125,-34.66796875,-102.5390625,0.0
382.953125,-49.31640625,-44.43359375,-20.99609375,-38.57421875,-40.52734375,0.0
382.95703125,-26.85546875,-38.57421875,-24.90234375,-42.96875,-13.671875,0.0
382.9609375,1.953125,-27.83203125,-32.2265625,-32.71484375,-49.31640625,0.0
382.96484375,-5.37109375,-34.66796875,-34.66796875,-30.2734375,-96.6796875,0.0
382.96875,-30.2734375,-41.50390625,-37.59765625,-40.0390625,-59.08203125,0.0
382.97265625,-40.52734375,-35.15625,-34.66796875,-45.41015625,-24.4140625,0.0
382.9765625,-35.15625,-34.66796875,-35.15625,-41.50390625,-85.44921875,0.0
382.98046875,-12.6953125,-31.25,-30.2734375,-30.2734375,-134.765625,0.0
382.984375,-8.30078125,-29.78515625,-24.4140625,-22.4609375,-83.984375,0.0
382.98828125,-34.1796875,-29.78515625,-23.4375,-23.4375,44.921875,0.0
382.9921875,-55.6640625,-28.80859375,-27.83203125,-41.9921875,91.796875,0.0
382.99609375,-48.828125,-38.57421875,-26.3671875,-39.55078125,51.26953125,0.0
383.0,-21.97265625,-42.96875,-23.4375,-15.625,-0.48828125,0.0
383.00390625,-13.671875,-36.62109375,-31.25,-16.6015625,21.484375,0.0
383.0078125,-34.66796875,-36.1328125,-33.69140625,-27.83203125,30.76171875,0.0
383.01171875,-54.6875,-38.0859375,-34.1796875,-39.55078125,-8.30078125,0.0
383.015625,-54.6875,-44.921875,-37.59765625,-45.41015625,4.39453125,0.0
383.01953125,-30.76171875,-43.45703125,-34.1796875,-40.52734375,34.1796875,0.0
383.0234375,-8.7890625,-35.64453125,-26.85546875,-27.83203125,53.7109375,0.0
383.02734375,-31.25,-41.015625,-28.80859375,-35.15625,23.4375,0.0
383.03125,-71.2890625,-47.36328125,-36.62109375,-48.33984375,-14.6484375,0.0
383.03515625,-69.3359375,-43.9453125,-37.59765625,-46.38671875,-26.3671875,0.0
383.0390625,-36.62109375,-36.1328125,-27.83203125,-36.62109375,-41.9921875,0.0
383.04296875,-14.6484375,-36.1328125,-23.4375,-23.92578125,-41.9921875,0.0
383.046875,-27.83203125,-34.1796875,-28.80859375,-22.94921875,-52.734375,0.0
383.05078125,-57.12890625,-38.0859375,-29.78515625,-28.80859375,-47.8515625,0.0
383.0546875,-57.6171875,-42.96875,-30.76171875,-40.0390625,36.1328125,0.0
383.05859375,-30.2734375,-38.57421875,-28.80859375,-27.83203125,54.6875,0.0
383.0625,-8.7890625,-30.76171875,-21.97265625,-10.25390625,-56.640625,0.0
383.06640625,-28.3203125,-33.203125,-21.97265625,-16.11328125,-91.796875,0.0
383.0703125,-60.05859375,-37.109375,-26.85546875,-24.90234375,6.34765625,0.0
383.07421875,-64.453125,-32.2265625,-27.34375,-35.15625,4.39453125,0.0
383.078125,-41.9921875,-29.78515625,-29.296875,-32.71484375,-82.03125,0.0
383.08203125,-18.06640625,-30.2734375,-25.87890625,-19.53125,-56.15234375,0.0
383.0859375,-20.01953125,-29.296875,-25.87890625,-22.94921875,-112.3046875,0.0
383.08984375,-47.36328125,-32.2265625,-30.2734375,-32.2265625,-92.28515625,0.0
383.09375,-63.96484375,-43.45703125,-30.2734375,-31.25,39.0625,0.0
383.09765625,-31.25,-35.15625,-24.90234375,-21.97265625,-24.4140625,0.0
383.1015625,-3.90625,-29.296875,-15.13671875,-9.27734375,-29.296875,0.0
383.10546875,-20.5078125,-39.0625,-22.94921875,-21.484375,-10.7421875,0.0
383.109375,-48.828125,-40.0390625,-34.66796875,-42.96875,-84.9609375,0.0
383.11328125,-54.19921875,-40.52734375,-27.83203125,-39.0625,-70.3125,0.0
383.1171875,-33.69140625,-34.66796875,-24.4140625,-27.34375,32.2265625,0.0
383.12109375,-9.765625,-28.3203125,-29.78515625,-24.4140625,39.0625,0.0
383.125,-12.20703125,-32.2265625,-30.76171875,-19.53125,-28.3203125,0.0
383.12890625,-34.1796875,-30.2734375,-22.94921875,-22.4609375,-23.92578125,0.0
383.1328125,-55.6640625,-38.0859375,-22.94921875,-33.203125,-73.2421875,0.0
383.13671875,-49.8046875,-42.48046875,-31.73828125,-35.15625,-82.51953125,0.0
383.140625,-22.4609375,-38.0859375,-28.3203125,-30.2734375,-46.875,0.0
383.14453125,-22.4609375,-39.0625,-27.83203125,-26.85546875,-56.640625,0.0
383.1484375,-44.921875,-36.62109375,-34.1796875,-37.109375,-76.66015625,0.0
383.15234375,-60.546875,-33.203125,-30.76171875,-42.48046875,-118.65234375,0.0
383.15625,-55.17578125,-35.15625,-27.83203125,-39.55078125,-59.08203125,0.0
383.16015625,-27.34375,-32.71484375,-26.3671875,-34.66796875,-11.23046875,0.0
383.1640625,-14.6484375,-26.3671875,-24.90234375,-23.4375,-70.3125,0.0
383.16796875,-36.62109375,-27.34375,-27.83203125,-22.4609375,-80.078125,0.0
383.171875,-52.24609375,-32.2265625,-29.296875,-27.83203125,-40.0390625,0.0
383.17578125,-29.78515625,-33.203125,-24.90234375,-26.85546875,-27.83203125,0.0
383.1796875,-5.859375,-28.3203125,-22.4609375,-19.53125,11.23046875,0.0
383.18359375,-9.765625,-29.296875,-28.80859375,-17.08984375,-2.44140625,0.0
383.1875,-30.76171875,-30.2734375,-28.80859375,-23.92578125,-93.26171875,0.0
383.19140625,-54.6875,-41.9921875,-24.4140625,-37.59765625,-20.01953125,0.0
383.1953125,-50.29296875,-40.52734375,-29.296875,-47.8515625,-10.25390625,0.0
383.19921875,-19.04296875,-23.92578125,-29.78515625,-34.66796875,-59.08203125,0.0
383.203125,-8.7890625,-29.296875,-26.85546875,-20.5078125,-90.33203125,0.0
383.20703125,-26.85546875,-35.64453125,-27.34375,-21.97265625,-72.75390625,0.0
383.2109375,-51.7578125,-33.203125,-32.2265625,-33.203125,-78.125,0.0
383.21484375,-60.05859375,-34.66796875,-36.1328125,-38.0859375,-73.2421875,0.0
383.21875,-31.25,-38.57421875,-32.2265625,-26.85546875,19.53125,0.0
383.22265625,-1.953125,-33.203125,-19.53125,-7.32421875,66.89453125,0.0
383.2265625,-17.578125,-30.2734375,-13.18359375,-9.27734375,-7.8125,0.0
383.23046875,-45.8984375,-33.69140625,-25.390625,-30.76171875,-23.92578125,0.0
383.234375,-45.8984375,-33.69140625,-21.484375,-41.9921875,-42.48046875,0.0
383.23828125,-30.76171875,-37.109375,-3.90625,-35.15625,-74.70703125,0.0
383.2421875,-22.4609375,-36.1328125,-16.11328125,-28.80859375,-47.36328125,0.0
383.24609375,-29.296875,-39.55078125,-32.2265625,-26.3671875,-66.89453125,0.0
383.25,-52.24609375,-42.48046875,-29.296875,-28.80859375,-113.28125,0.0
383.25390625,-62.98828125,-36.62109375,-32.2265625,-41.50390625,-61.5234375,0.0
383.2578125,-41.50390625,-36.62109375,-34.1796875,-43.9453125,14.16015625,0.0
383.26171875,-9.27734375,-29.78515625,-23.4375,-28.3203125,-0.9765625,0.0
383.265625,-13.18359375,-26.85546875,-20.01953125,-28.80859375,-11.71875,0.0
383.26953125,-49.31640625,-38.0859375,-35.15625,-47.36328125,-0.9765625,0.0
383.2734375,-60.546875,-42.96875,-39.55078125,-51.7578125,-29.296875,0.0
383.27734375,-29.78515625,-39.55078125,-35.15625,-43.9453125,-66.40625,0.0
383.28125,-0.9765625,-39.0625,-32.71484375,-34.1796875,-14.6484375,0.0
383.28515625,-12.6953125,-40.52734375,-30.2734375,-27.83203125,26.3671875,0.0
383.2890625,-39.0625,-40.52734375,-34.1796875,-38.57421875,-103.515625,0.0
383.29296875,-53.7109375,-34.1796875,-28.80859375,-45.41015625,-129.39453125,0.0
383.296875,-46.38671875,-39.55078125,-22.94921875,-41.9921875,13.18359375,0.0
383.30078125,-20.99609375,-48.828125,-34.1796875,-41.015625,-5.859375,0.0
383.3046875,-18.06640625,-44.43359375,-36.1328125,-29.78515625,-55.17578125,0.0
383.30859375,-45.8984375,-44.43359375,-34.66796875,-32.2265625,-21.97265625,0.0
383.3125,-66.40625,-46.875,-41.015625,-50.29296875,-14.16015625,0.0
383.31640625,-54.19921875,-41.50390625,-39.55078125,-40.0390625,-31.73828125,0.0
383.3203125,-22.4609375,-34.66796875,-36.62109375,-31.25,-56.15234375,0.0
383.32421875,-14.16015625,-34.1796875,-33.203125,-31.25,25.87890625,0.0
383.328125,-44.43359375,-34.66796875,-22.4609375,-24.4140625,43.9453125,0.0
383.33203125,-64.453125,-35.15625,-22.94921875,-25.87890625,4.8828125,0.0
383.3359375,-57.6171875,-40.0390625,-36.1328125,-32.2265625,-24.4140625,0.0
383.33984375,-32.2265625,-41.50390625,-38.57421875,-27.83203125,-86.42578125,0.0
383.34375,-22.4609375,-39.55078125,-36.1328125,-20.01953125,-34.66796875,0.0
383.34765625,-41.9921875,-39.0625,-31.73828125,-28.3203125,-12.6953125,0.0
383.3515625,-65.91796875,-42.96875,-35.15625,-40.52734375,-8.30078125,0.0
383.35546875,-61.03515625,-45.8984375,-41.015625,-47.36328125,101.07421875,0.0
383.359375,-28.80859375,-40.52734375,-32.71484375,-35.64453125,50.29296875,0.0
383.36328125,-6.34765625,-31.73828125,-23.92578125,-22.94921875,-161.62109375,0.0
383.3671875,-26.85546875,-29.78515625,-28.3203125,-34.66796875,-215.33203125,0.0
383.37109375,-58.59375,-41.015625,-36.1328125,-45.41015625,-124.51171875,0.0
383.375,-48.33984375,-38.57421875,-31.73828125,-41.9921875,-41.9921875,0.0
383.37890625,-16.11328125,-31.73828125,-28.80859375,-35.15625,9.765625,0.0
383.3828125,-3.41796875,-37.59765625,-29.296875,-36.62109375,-16.6015625,0.0
383.38671875,-21.97265625,-34.66796875,-23.4375,-36.62109375,-37.109375,0.0
383.390625,-51.7578125,-35.64453125,-24.90234375,-41.50390625,-40.52734375,0.0
383.39453125,-52.734375,-41.015625,-34.66796875,-50.78125,-119.62890625,0.0
383.3984375,-21.484375,-34.1796875,-26.3671875,-41.015625,-61.03515625,0.0
383.40234375,-3.90625,-31.25,-23.4375,-30.2734375,41.015625,0.0
383.40625,-15.625,-30.2734375,-30.76171875,-29.296875,-30.76171875,0.0
383.41015625,-42.96875,-31.73828125,-34.66796875,-36.1328125,-91.30859375,0.0
383.4140625,-53.22265625,-36.62109375,-32.2265625,-42.96875,-36.62109375,0.0
383.41796875,-28.3203125,-36.62109375,-20.5078125,-39.0625,-13.671875,0.0
383.421875,3.41796875,-29.296875,-21.484375,-30.2734375,44.921875,0.0
383.42578125,-7.8125,-25.87890625,-29.78515625,-28.80859375,89.35546875,0.0
383.4296875,-47.8515625,-37.59765625,-32.2265625,-35.15625,39.55078125,0.0
383.43359375,-65.91796875,-44.43359375,-36.62109375,-43.9453125,23.92578125,0.0
383.4375,-37.59765625,-29.296875,-32.2265625,-34.66796875,39.0625,0.0
383.44140625,-10.25390625,-23.4375,-25.390625,-20.99609375,-12.20703125,0.0
383.4453125,-18.5546875,-33.69140625,-35.15625,-27.83203125,-84.47265625,0.0
383.44921875,-40.52734375,-36.62109375,-44.43359375,-39.55078125,-8.7890625,0.0
383.453125,-50.29296875,-34.1796875,-38.0859375,-43.45703125,-13.671875,0.0
383.45703125,-31.73828125,-29.78515625,-26.85546875,-41.50390625,-62.98828125,0.0
383.4609375,-9.27734375,-30.76171875,-19.04296875,-33.69140625,-29.296875,0.0
383.46484375,-20.01953125,-36.62109375,-22.94921875,-34.1796875,-20.99609375,0.0
383.46875,-48.828125,-41.015625,-33.69140625,-39.55078125,36.62109375,0.0
383.47265625,-63.96484375,-41.015625,-34.1796875,-44.43359375,14.6484375,0.0
383.4765625,-46.875,-36.62109375,-30.76171875,-48.828125,-40.0390625,0.0
383.48046875,-10.25390625,-30.2734375,-29.296875,-42.96875,36.1328125,0.0
383.484375,-10.7421875,-28.3203125,-26.3671875,-26.85546875,25.390625,0.0
383.48828125,-42.96875,-30.2734375,-29.296875,-38.0859375,-81.54296875,0.0
383.4921875,-58.59375,-29.78515625,-30.76171875,-44.43359375,-73.2421875,0.0
383.49609375,-45.8984375,-31.25,-26.3671875,-25.87890625,-21.484375,0.0
383.5,-16.11328125,-30.2734375,-27.34375,-21.484375,-58.10546875,0.0
383.50390625,-7.32421875,-30.76171875,-25.390625,-17.578125,-13.18359375,0.0
383.5078125,-28.80859375,-35.15625,-22.4609375,-15.625,-31.25,0.0
383.51171875,-43.45703125,-33.203125,-23.4375,-20.99609375,-123.046875,0.0
383.515625,-39.55078125,-36.1328125,-27.83203125,-30.2734375,-118.65234375,0.0
383.51953125,-18.06640625,-41.50390625,-33.203125,-40.0390625,-88.37890625,0.0
383.5234375,-3.41796875,-35.64453125,-20.01953125,-34.1796875,-28.3203125,0.0
383.52734375,-30.76171875,-39.0625,-20.99609375,-29.78515625,20.01953125,0.0
383.53125,-62.01171875,-41.015625,-34.1796875,-46.38671875,20.5078125,0.0
383.53515625,-57.6171875,-34.1796875,-35.64453125,-50.29296875,-6.8359375,0.0
383.5390625,-30.2734375,-35.64453125,-36.62109375,-42.96875,-55.17578125,0.0
383.54296875,-11.23046875,-29.296875,-30.2734375,-33.203125,-103.515625,0.0
383.546875,-20.99609375,-23.92578125,-28.80859375,-31.73828125,-109.86328125,0.0
383.55078125,-47.8515625,-31.25,-32.71484375,-43.45703125,-114.2578125,0.0
383.5546875,-58.59375,-35.64453125,-26.3671875,-53.22265625,-63.4765625,0.0
383.55859375,-35.64453125,-31.25,-21.97265625,-52.24609375,-20.01953125,0.0
383.5625,-3.41796875,-25.87890625,-24.90234375,-32.2265625,-7.32421875,0.0
383.56640625,-20.5078125,-32.71484375,-24.90234375,-32.71484375,-27.34375,0.0
383.5703125,-49.8046875,-38.57421875,-28.80859375,-46.38671875,-146.484375,0.0
383.57421875,-42.48046875,-30.76171875,-39.0625,-40.0390625,-181.15234375,0.0
383.578125,-26.3671875,-25.390625,-35.64453125,-37.109375,-147.94921875,0.0
383.58203125,-9.27734375,-26.3671875,-25.390625,-27.83203125,-194.82421875,0.0
383.5859375,-18.5546875,-30.2734375,-28.3203125,-23.4375,-201.66015625,0.0
383.58984375,-46.38671875,-34.1796875,-31.73828125,-35.64453125,-65.91796875,0.0
383.59375,-58.10546875,-42.96875,-31.25,-41.015625,59.5703125,0.0
383.59765625,-37.109375,-41.9921875,-32.71484375,-40.52734375,118.65234375,0.0
383.6015625,-5.37109375,-29.78515625,-30.2734375,-27.83203125,86.9140625,0.0
383.60546875,-4.8828125,-22.94921875,-25.87890625,-16.6015625,15.13671875,0.0
383.609375,-33.69140625,-32.2265625,-23.92578125,-29.296875,40.0390625,0.0
383.61328125,-53.22265625,-35.64453125,-25.390625,-41.015625,38.57421875,0.0
383.6171875,-31.25,-30.76171875,-28.80859375,-38.0859375,-69.3359375,0.0
383.62109375,0.48828125,-29.78515625,-29.78515625,-30.76171875,-94.23828125,0.0
383.625,-6.34765625,-29.78515625,-33.203125,-28.3203125,-72.75390625,0.0
383.62890625,-26.85546875,-33.69140625,-31.73828125,-35.64453125,-97.16796875,0.0
383.6328125,-42.96875,-35.64453125,-34.66796875,-42.48046875,-53.7109375,0.0
383.63671875,-39.0625,-30.76171875,-34.1796875,-45.41015625,0.9765625,0.0
383.640625,-8.7890625,-23.4375,-29.296875,-31.73828125,28.3203125,0.0
383.64453125,-2.9296875,-23.92578125,-32.71484375,-21.97265625,11.23046875,0.0
383.6484375,-23.92578125,-26.85546875,-29.296875,-29.296875,-41.50390625,0.0
383.65234375,-41.50390625,-26.85546875,-26.3671875,-37.59765625,-65.4296875,0.0
383.65625,-23.4375,-26.85546875,-27.34375,-45.8984375,14.6484375,0.0
383.66015625,17.578125,-23.4375,-26.3671875,-38.0859375,-0.9765625,0.0
383.6640625,28.80859375,-18.06640625,-27.34375,-36.62109375,-40.52734375,0.0
383.66796875,-2.9296875,-23.92578125,-30.76171875,-44.43359375,-7.8125,0.0
383.671875,-33.203125,-31.25,-31.73828125,-49.31640625,-1.46484375,0.0
383.67578125,-35.15625,-34.1796875,-31.73828125,-49.8046875,-30.2734375,0.0
383.6796875,-10.7421875,-30.2734375,-30.2734375,-33.203125,-119.140625,0.0
383.68359375,0.9765625,-24.4140625,-20.99609375,-18.06640625,-86.9140625,0.0
383.6875,-36.1328125,-29.296875,-22.4609375,-18.5546875,-41.015625,0.0
383.69140625,-68.84765625,-30.76171875,-27.34375,-30.76171875,19.04296875,0.0
383.6953125,-63.96484375,-28.3203125,-22.94921875,-32.71484375,43.9453125,0.0
383.69921875,-36.62109375,-32.71484375,-26.3671875,-27.34375,-32.71484375,0.0
383.703125,-13.18359375,-37.109375,-34.1796875,-28.3203125,-54.19921875,0.0
383.70703125,-20.5078125,-36.62109375,-39.0625,-35.64453125,-40.0390625,0.0
383.7109375,-48.33984375,-34.1796875,-33.69140625,-45.41015625,-30.76171875,0.0
383.71484375,-49.8046875,-29.78515625,-28.80859375,-45.8984375,35.64453125,0.0
383.71875,-17.578125,-26.85546875,-30.76171875,-28.80859375,-16.6015625,0.0
383.72265625,2.44140625,-23.4375,-24.4140625,-22.94921875,-108.3984375,0.0
383.7265625,-13.18359375,-24.4140625,-21.97265625,-32.71484375,-104.98046875,0.0
383.73046875,-42.48046875,-31.73828125,-29.78515625,-33.69140625,-61.03515625,0.0
383.734375,-44.921875,-38.57421875,-30.76171875,-39.55078125,-75.1953125,0.0
383.73828125,-27.34375,-37.109375,-32.2265625,-39.0625,-40.52734375,0.0
383.7421875,-15.625,-30.2734375,-32.2265625,-18.06640625,-11.71875,0.0
383.74609375,-24.90234375,-28.3203125,-29.296875,-21.97265625,-59.5703125,0.0
383.75,-55.17578125,-33.69140625,-31.73828125,-38.0859375,-3.90625,0.0
383.75390625,-58.10546875,-33.69140625,-33.69140625,-33.69140625,-32.71484375,0.0
383.7578125,-31.73828125,-35.15625,-39.0625,-25.390625,-175.29296875,0.0
383.76171875,-5.859375,-35.64453125,-34.66796875,-20.99609375,-123.046875,0.0
383.765625,-12.6953125,-29.78515625,-33.203125,-24.4140625,-83.0078125,0.0
383.76953125,-46.38671875,-35.15625,-37.59765625,-32.2265625,-106.4453125,0.0
383.7734375,-61.5234375,-39.55078125,-33.203125,-36.62109375,-60.05859375,0.0
383.77734375,-38.0859375,-33.203125,-29.296875,-38.0859375,-85.9375,0.0
383.78125,-6.34765625,-22.4609375,-26.85546875,-26.85546875,-45.41015625,0.0
383.78515625,-17.578125,-20.5078125,-29.296875,-21.97265625,-61.03515625,0.0
383.7890625,-48.828125,-28.3203125,-28.80859375,-35.15625,-95.21484375,0.0
383.79296875,-62.01171875,-35.64453125,-32.71484375,-46.875,-35.64453125,0.0
383.796875,-47.8515625,-34.1796875,-40.52734375,-47.8515625,11.71875,0.0
383.80078125,-23.4375,-31.73828125,-32.71484375,-38.0859375,-38.57421875,0.0
383.8046875,-20.01953125,-37.59765625,-27.34375,-38.0859375,-69.3359375,0.0
383.80859375,-41.50390625,-41.015625,-34.66796875,-49.31640625,3.90625,0.0
383.8125,-50.29296875,-37.59765625,-32.71484375,-55.17578125,-11.23046875,0.0
383.81640625,-34.66796875,-35.15625,-33.69140625,-52.734375,2.9296875,0.0
383.8203125,-6.8359375,-31.73828125,-35.15625,-40.0390625,76.171875,0.0
383.82421875,7.8125,-25.87890625,-23.92578125,-26.85546875,80.078125,0.0
383.828125,-22.4609375,-31.25,-22.4609375,-37.59765625,-11.71875,0.0
383.83203125,-55.17578125,-40.0390625,-30.2734375,-47.36328125,-37.59765625,0.0
383.8359375,-41.50390625,-35.64453125,-28.3203125,-33.69140625,-10.7421875,0.0
383.83984375,-13.671875,-27.83203125,-24.4140625,-26.3671875,16.6015625,0.0
383.84375,-12.6953125,-27.83203125,-28.80859375,-17.578125,-1.953125,0.0
383.84765625,-25.87890625,-28.80859375,-29.296875,-16.6015625,-136.71875,0.0
383.8515625,-51.26953125,-36.1328125,-33.203125,-35.64453125,-163.57421875,0.0
383.85546875,-50.78125,-37.109375,-33.203125,-38.57421875,-40.52734375,0.0
383.859375,-15.13671875,-24.90234375,-23.4375,-29.296875,-7.32421875,0.0
383.86328125,-2.9296875,-26.85546875,-23.92578125,-26.85546875,-17.578125,0.0
383.8671875,-29.78515625,-38.0859375,-34.1796875,-30.2734375,19.04296875,0.0
383.87109375,-57.12890625,-38.0859375,-34.66796875,-41.9921875,-25.390625,0.0
383.875,-52.24609375,-29.78515625,-25.87890625,-37.109375,-45.8984375,0.0
383.87890625,-19.04296875,-24.90234375,-20.99609375,-26.85546875,-23.4375,0.0
383.8828125,-7.32421875,-24.4140625,-25.390625,-26.3671875,-40.52734375,0.0
383.88671875,-27.34375,-34.1796875,-32.71484375,-34.66796875,-109.86328125,0.0
383.890625,-51.7578125,-44.921875,-33.69140625,-45.8984375,-127.9296875,0.0
383.89453125,-60.546875,-40.0390625,-37.109375,-50.29296875,-62.01171875,0.0
383.8984375,-31.73828125,-27.34375,-34.66796875,-39.55078125,-4.8828125,0.0
383.90234375,-14.6484375,-28.3203125,-31.25,-32.71484375,3.41796875,0.0
383.90625,-32.71484375,-39.55078125,-37.109375,-41.015625,-3.90625,0.0
383.91015625,-53.7109375,-43.45703125,-35.15625,-41.9921875,64.94140625,0.0
383.9140625,-51.7578125,-36.62109375,-32.71484375,-38.0859375,125.48828125,0.0
383.91796875,-27.34375,-30.2734375,-31.25,-30.76171875,82.03125,0.0
383.921875,0.9765625,-32.2265625,-26.85546875,-25.87890625,17.578125,0.0
383.92578125,-2.9296875,-35.15625,-19.04296875,-19.53125,2.9296875,0.0
383.9296875,-39.55078125,-37.109375,-23.4375,-24.4140625,-79.1015625,0.0
383.93359375,-43.9453125,-37.109375,-35.15625,-36.1328125,-197.265625,0.0
383.9375,-29.296875,-37.59765625,-34.1796875,-33.69140625,-172.8515625,0.0
383.94140625,-17.578125,-25.87890625,-23.4375,-23.4375,-39.0625,0.0
383.9453125,-19.53125,-21.484375,-22.4609375,-23.92578125,-58.59375,0.0
383.94921875,-44.43359375,-35.64453125,-27.34375,-36.62109375,-67.3828125,0.0
383.953125,-63.96484375,-40.0390625,-32.2265625,-47.36328125,-26.3671875,0.0
383.95703125,-51.7578125,-40.0390625,-38.0859375,-50.78125,-39.55078125,0.0
383.9609375,-24.4140625,-41.50390625,-36.62109375,-47.36328125,59.08203125,0.0
383.96484375,-22.94921875,-36.62109375,-30.2734375,-36.1328125,84.9609375,0.0
383.96875,-46.875,-35.15625,-29.78515625,-38.0859375,43.9453125,0.0
383.97265625,-56.15234375,-34.66796875,-28.80859375,-45.8984375,-10.7421875,0.0
383.9765625,-40.52734375,-31.25,-26.85546875,-36.1328125,-54.6875,0.0
383.98046875,-19.04296875,-29.78515625,-31.25,-31.73828125,-51.26953125,0.0
383.984375,-17.08984375,-33.69140625,-30.76171875,-31.73828125,-75.68359375,0.0
383.98828125,-32.2265625,-37.59765625,-30.76171875,-28.80859375,-68.84765625,0.0
383.9921875,-45.41015625,-36.1328125,-29.78515625,-41.015625,-109.86328125,0.0
383.99609375,-50.78125,-29.78515625,-25.390625,-36.1328125,-103.02734375,0.0
384.0,-23.4375,-31.25,-24.4140625,-25.87890625,-38.57421875,0.0
384.00390625,-7.8125,-35.64453125,-27.83203125,-20.5078125,-42.48046875,0.0
384.0078125,-27.34375,-32.71484375,-26.3671875,-16.6015625,-146.484375,0.0
384.01171875,-50.29296875,-34.1796875,-24.4140625,-31.25,-130.37109375,0.0
384.015625,-46.875,-36.1328125,-30.2734375,-39.0625,-68.359375,0.0
384.01953125,-15.625,-31.25,-24.4140625,-25.87890625,-171.875,0.0
384.0234375,-1.953125,-21.484375,-19.04296875,-14.16015625,-258.7890625,0.0
384.02734375,-30.76171875,-24.90234375,-26.85546875,-26.85546875,-291.015625,0.0
384.03125,-63.4765625,-37.59765625,-34.1796875,-39.55078125,-210.9375,0.0
384.03515625,-60.05859375,-39.55078125,-31.25,-43.45703125,-109.86328125,0.0
384.0390625,-25.390625,-30.2734375,-28.3203125,-39.55078125,-9.27734375,0.0
384.04296875,-5.37109375,-24.4140625,-26.85546875,-25.87890625,11.23046875,0.0
384.046875,-26.3671875,-22.4609375,-21.484375,-26.3671875,108.3984375,0.0
384.05078125,-60.05859375,-27.34375,-25.390625,-41.015625,120.60546875,0.0
384.0546875,-64.94140625,-33.69140625,-33.203125,-45.8984375,4.39453125,0.0
384.05859375,-33.69140625,-30.2734375,-32.71484375,-31.73828125,57.12890625,0.0
384.0625,-10.25390625,-29.78515625,-29.78515625,-24.90234375,-3.41796875,0.0
384.06640625,-20.5078125,-27.83203125,-26.85546875,-26.3671875,-45.8984375,0.0
384.0703125,-42.96875,-29.78515625,-26.3671875,-35.64453125,-16.11328125,0.0
384.07421875,-53.22265625,-38.57421875,-31.73828125,-42.48046875,10.25390625,0.0
384.078125,-31.73828125,-46.875,-39.0625,-38.57421875,-24.4140625,0.0
384.08203125,3.90625,-32.71484375,-32.2265625,-30.2734375,-25.390625,0.0
384.0859375,0.48828125,-20.01953125,-24.4140625,-25.87890625,71.2890625,0.0
384.08984375,-36.62109375,-30.2734375,-24.90234375,-27.34375,53.22265625,0.0
384.09375,-53.7109375,-37.59765625,-35.15625,-41.9921875,92.7734375,0.0
384.09765625,-27.34375,-33.203125,-38.0859375,-44.43359375,66.89453125,0.0
384.1015625,-11.23046875,-29.296875,-30.2734375,-31.73828125,32.71484375,0.0
384.10546875,-24.90234375,-29.78515625,-25.390625,-25.87890625,79.1015625,0.0
384.109375,-46.38671875,-31.25,-28.3203125,-32.2265625,50.78125,0.0
384.11328125,-58.10546875,-33.69140625,-35.15625,-37.59765625,12.6953125,0.0
384.1171875,-35.64453125,-24.4140625,-25.87890625,-19.53125,-49.31640625,0.0
384.12109375,-6.8359375,-24.4140625,-28.80859375,-9.765625,-32.2265625,0.0
384.125,-12.20703125,-29.296875,-36.1328125,-14.6484375,45.8984375,0.0
384.12890625,-41.015625,-25.87890625,-27.34375,-27.34375,-6.34765625,0.0
384.1328125,-66.40625,-32.71484375,-29.78515625,-46.38671875,-19.53125,0.0
384.13671875,-59.08203125,-35.15625,-32.2265625,-56.15234375,-6.8359375,0.0
384.140625,-29.296875,-35.15625,-27.83203125,-42.96875,-3.90625,0.0
384.14453125,-21.97265625,-32.2265625,-24.4140625,-25.87890625,-23.4375,0.0
384.1484375,-41.015625,-28.3203125,-25.87890625,-29.78515625,-29.296875,0.0
384.15234375,-62.5,-27.83203125,-26.85546875,-39.55078125,53.7109375,0.0
384.15625,-61.03515625,-35.15625,-29.78515625,-44.43359375,0.9765625,0.0
384.16015625,-32.2265625,-34.66796875,-33.69140625,-41.015625,-78.125,0.0
384.1640625,-15.625,-23.4375,-30.2734375,-32.71484375,-153.80859375,0.0
384.16796875,-36.1328125,-29.296875,-33.203125,-35.64453125,-185.05859375,0.0
384.171875,-59.5703125,-36.1328125,-34.66796875,-57.12890625,-122.55859375,0.0
384.17578125,-48.33984375,-27.83203125,-28.80859375,-44.921875,-125.9765625,0.0
384.1796875,-20.01953125,-23.4375,-31.25,-18.06640625,-84.9609375,0.0
384.18359375,-10.7421875,-28.3203125,-32.2265625,-23.4375,-77.63671875,0.0
384.1875,-30.2734375,-33.203125,-31.25,-36.62109375,-23.4375,0.0
384.19140625,-52.734375,-32.2265625,-35.15625,-47.36328125,40.52734375,0.0
384.1953125,-50.78125,-34.66796875,-35.64453125,-50.29296875,30.76171875,0.0
