timestam,TP9,AF7,AF8,TP10,AUX,Marker
406.00390625,-26.3671875,-30.76171875,-28.80859375,2.44140625,-34.66796875,0.0
406.0078125,-36.1328125,-35.64453125,-24.4140625,1.46484375,-50.78125,0.0
406.01171875,-61.03515625,-38.0859375,-29.78515625,-16.6015625,-68.359375,0.0
406.015625,-56.640625,-36.1328125,-40.52734375,-14.16015625,-35.15625,0.0
406.01953125,-29.78515625,-28.80859375,-32.2265625,-9.27734375,36.1328125,0.0
406.0234375,-6.34765625,-25.390625,-21.484375,13.671875,-62.98828125,0.0
406.02734375,-10.7421875,-31.25,-20.99609375,24.90234375,-89.35546875,0.0
406.03125,-54.19921875,-38.57421875,-28.3203125,7.32421875,20.5078125,0.0
406.03515625,-63.4765625,-44.921875,-27.34375,-7.32421875,21.484375,0.0
406.0390625,-40.0390625,-47.36328125,-21.484375,-11.23046875,37.59765625,0.0
406.04296875,-9.27734375,-35.15625,-19.04296875,-4.39453125,-11.71875,0.0
406.046875,-21.97265625,-37.59765625,-20.5078125,6.8359375,-101.5625,0.0
406.05078125,-72.265625,-42.96875,-21.97265625,0.48828125,-89.35546875,0.0
406.0546875,-81.0546875,-42.48046875,-24.4140625,-11.23046875,-41.9921875,0.0
406.05859375,-63.4765625,-45.41015625,-27.83203125,-4.8828125,46.38671875,0.0
406.0625,-27.34375,-41.015625,-26.85546875,0.9765625,30.2734375,0.0
406.06640625,-27.34375,-42.48046875,-6.34765625,18.06640625,-47.36328125,0.0
406.0703125,-72.265625,-52.24609375,5.37109375,8.7890625,-11.23046875,0.0
406.07421875,-82.51953125,-60.05859375,-18.06640625,-6.8359375,-12.6953125,0.0
406.078125,-63.4765625,-55.17578125,-24.4140625,0.48828125,20.01953125,0.0
406.08203125,-35.15625,-43.9453125,-14.6484375,12.20703125,12.6953125,0.0
406.0859375,-10.7421875,-40.52734375,-13.18359375,22.94921875,15.13671875,0.0
406.08984375,-33.69140625,-41.50390625,-16.6015625,31.73828125,-49.8046875,0.0
406.09375,-75.1953125,-43.9453125,-19.04296875,17.08984375,-73.2421875,0.0
406.09765625,-57.6171875,-43.9453125,-4.8828125,6.8359375,-15.625,0.0
406.1015625,-21.484375,-39.55078125,7.32421875,37.109375,-35.64453125,0.0
406.10546875,-20.99609375,-40.0390625,-7.32421875,49.31640625,-60.05859375,0.0
406.109375,-52.24609375,-46.38671875,-24.4140625,20.99609375,-46.875,0.0
406.11328125,-74.21875,-51.26953125,-23.92578125,5.859375,-59.08203125,0.0
406.1171875,-51.7578125,-49.31640625,-20.99609375,19.53125,-94.7265625,0.0
406.12109375,-34.66796875,-46.38671875,-21.97265625,30.2734375,-92.7734375,0.0
406.125,-38.57421875,-46.38671875,-14.6484375,28.80859375,-65.91796875,0.0
406.12890625,-50.78125,-44.921875,-12.6953125,22.4609375,-92.7734375,0.0
406.1328125,-65.91796875,-45.41015625,-23.4375,-5.37109375,-116.69921875,0.0
406.13671875,-58.59375,-40.0390625,-24.90234375,-5.859375,-31.73828125,0.0
406.140625,-20.01953125,-32.71484375,-15.625,17.578125,-21.97265625,0.0
406.14453125,12.20703125,-25.390625,-12.20703125,24.4140625,-49.31640625,0.0
406.1484375,-8.7890625,-28.80859375,-14.16015625,16.6015625,-77.1484375,0.0
406.15234375,-36.1328125,-38.0859375,-20.01953125,5.37109375,-54.6875,0.0
406.15625,-44.921875,-36.1328125,-21.97265625,12.6953125,-8.7890625,0.0
406.16015625,-23.92578125,-29.78515625,-9.765625,23.4375,31.25,0.0
406.1640625,0.48828125,-25.87890625,-7.8125,26.3671875,56.15234375,0.0
406.16796875,-36.1328125,-31.25,-17.08984375,24.90234375,-22.94921875,0.0
406.171875,-87.890625,-46.38671875,-21.97265625,11.23046875,-68.84765625,0.0
406.17578125,-91.30859375,-53.22265625,-25.87890625,1.46484375,-32.71484375,0.0
406.1796875,-56.15234375,-45.41015625,-21.97265625,16.6015625,-78.61328125,0.0
406.18359375,-29.296875,-39.55078125,-15.625,19.04296875,-76.66015625,0.0
406.1875,-30.76171875,-37.59765625,-15.13671875,5.37109375,15.13671875,0.0
406.19140625,-60.05859375,-37.59765625,-22.4609375,-0.48828125,25.87890625,0.0
406.1953125,-72.265625,-36.62109375,-29.78515625,-8.7890625,0.9765625,0.0
406.19921875,-50.29296875,-30.76171875,-28.80859375,-8.7890625,16.11328125,0.0
406.203125,-21.97265625,-28.80859375,-23.4375,4.8828125,-31.73828125,0.0
406.20703125,-28.3203125,-35.64453125,-26.3671875,3.90625,-90.8203125,0.0
406.2109375,-62.5,-35.64453125,-27.34375,0.48828125,-90.33203125,0.0
406.21484375,-74.21875,-40.52734375,-28.3203125,0.9765625,-97.65625,0.0
406.21875,-44.921875,-44.43359375,-16.6015625,-2.44140625,-22.4609375,0.0
406.22265625,-17.08984375,-34.1796875,-6.34765625,12.20703125,-58.10546875,0.0
406.2265625,-26.85546875,-30.2734375,-18.06640625,20.5078125,-90.8203125,0.0
406.23046875,-50.78125,-30.76171875,-25.87890625,9.27734375,-6.34765625,0.0
406.234375,-68.84765625,-38.0859375,-33.69140625,-4.8828125,15.625,0.0
406.23828125,-49.31640625,-39.55078125,-36.1328125,0.0,2.44140625,0.0
406.2421875,-18.5546875,-30.2734375,-26.85546875,15.13671875,3.41796875,0.0
406.24609375,-19.53125,-26.3671875,-20.5078125,17.08984375,-38.57421875,0.0
406.25,-47.8515625,-34.66796875,-23.92578125,5.37109375,-26.3671875,0.0
406.25390625,-71.2890625,-41.9921875,-28.80859375,-2.9296875,6.8359375,0.0
406.2578125,-63.4765625,-38.57421875,-29.78515625,-3.90625,-12.20703125,0.0
406.26171875,-23.92578125,-35.15625,-28.3203125,9.765625,60.546875,0.0
406.265625,-3.41796875,-35.64453125,-26.85546875,25.87890625,50.78125,0.0
406.26953125,-41.015625,-41.50390625,-29.296875,16.6015625,-47.36328125,0.0
406.2734375,-62.01171875,-44.921875,-31.25,-5.37109375,-26.85546875,0.0
406.27734375,-42.48046875,-37.109375,-28.80859375,1.46484375,40.0390625,0.0
406.28125,-14.6484375,-33.203125,-26.85546875,14.16015625,0.48828125,0.0
406.28515625,-4.8828125,-31.73828125,-22.94921875,10.25390625,-36.62109375,0.0
406.2890625,-46.875,-33.69140625,-28.80859375,-4.8828125,-48.828125,0.0
406.29296875,-72.265625,-38.57421875,-29.78515625,-12.20703125,17.08984375,0.0
406.296875,-62.98828125,-41.50390625,-27.34375,-17.08984375,47.36328125,0.0
406.30078125,-32.2265625,-36.62109375,-30.76171875,-13.18359375,-81.0546875,0.0
406.3046875,-7.8125,-33.69140625,-23.4375,6.34765625,-97.65625,0.0
406.30859375,-29.78515625,-38.0859375,-15.13671875,4.8828125,-125.9765625,0.0
406.3125,-68.84765625,-41.50390625,-25.87890625,-14.6484375,-262.20703125,0.0
406.31640625,-62.5,-42.96875,-35.64453125,-16.6015625,-254.8828125,0.0
406.3203125,-23.92578125,-35.15625,-28.80859375,-7.32421875,-197.265625,0.0
406.32421875,-5.859375,-31.25,-21.484375,0.9765625,-175.78125,0.0
406.328125,-22.94921875,-38.0859375,-30.76171875,-5.859375,-191.40625,0.0
406.33203125,-53.22265625,-45.8984375,-41.015625,-15.13671875,-178.7109375,0.0
406.3359375,-55.17578125,-42.96875,-38.0859375,-32.71484375,-110.83984375,0.0
406.33984375,-24.90234375,-34.1796875,-27.83203125,-21.484375,-92.28515625,0.0
406.34375,5.859375,-25.390625,-27.34375,2.44140625,-117.1875,0.0
406.34765625,-6.34765625,-23.4375,-32.2265625,-8.30078125,-127.9296875,0.0
406.3515625,-45.8984375,-31.25,-31.73828125,-26.3671875,-83.0078125,0.0
406.35546875,-49.31640625,-34.1796875,-34.66796875,-33.203125,14.16015625,0.0
406.359375,-22.94921875,-30.76171875,-32.2265625,-19.04296875,85.9375,0.0
406.36328125,1.953125,-25.390625,-26.3671875,-8.30078125,79.1015625,0.0
406.3671875,-1.46484375,-24.90234375,-31.73828125,-16.6015625,43.45703125,0.0
406.37109375,-32.2265625,-30.2734375,-35.15625,-23.4375,22.4609375,0.0
406.375,-46.38671875,-32.2265625,-33.203125,-34.66796875,10.7421875,0.0
406.37890625,-32.2265625,-30.76171875,-32.2265625,-32.71484375,0.0,0.0
406.3828125,-4.39453125,-22.94921875,-22.94921875,-16.6015625,70.80078125,0.0
406.38671875,-3.41796875,-21.97265625,-26.3671875,-20.99609375,8.7890625,0.0
406.390625,-41.015625,-36.1328125,-37.109375,-34.66796875,-30.76171875,0.0
406.39453125,-62.01171875,-39.55078125,-35.15625,-39.0625,94.23828125,0.0
406.3984375,-47.36328125,-35.15625,-31.73828125,-34.1796875,13.671875,0.0
406.40234375,-21.484375,-30.76171875,-26.3671875,-27.83203125,-37.109375,0.0
406.40625,-10.7421875,-30.76171875,-27.34375,-23.4375,-73.2421875,0.0
406.41015625,-31.25,-34.66796875,-31.73828125,-28.3203125,-61.5234375,0.0
406.4140625,-57.12890625,-37.109375,-31.73828125,-41.9921875,-5.859375,0.0
406.41796875,-51.26953125,-34.1796875,-32.71484375,-40.0390625,11.71875,0.0
406.421875,-20.01953125,-30.2734375,-34.66796875,-27.83203125,32.2265625,0.0
406.42578125,-11.71875,-32.71484375,-34.66796875,-28.3203125,20.01953125,0.0
406.4296875,-39.0625,-30.76171875,-33.69140625,-30.76171875,74.21875,0.0
406.43359375,-65.4296875,-33.69140625,-37.59765625,-40.52734375,124.51171875,0.0
406.4375,-48.33984375,-29.296875,-35.15625,-37.109375,43.45703125,0.0
406.44140625,-14.6484375,-25.390625,-26.3671875,-25.87890625,-20.01953125,0.0
406.4453125,-19.53125,-30.2734375,-23.92578125,-25.87890625,-29.296875,0.0
406.44921875,-43.9453125,-27.34375,-22.94921875,-24.4140625,25.87890625,0.0
406.453125,-64.94140625,-27.83203125,-30.2734375,-37.59765625,8.30078125,0.0
406.45703125,-57.12890625,-32.2265625,-35.64453125,-54.6875,-56.15234375,0.0
406.4609375,-17.08984375,-27.83203125,-29.296875,-43.45703125,-35.15625,0.0
406.46484375,-0.48828125,-21.484375,-23.92578125,-27.83203125,-24.90234375,0.0
406.46875,-26.3671875,-25.87890625,-24.4140625,-25.390625,3.41796875,0.0
406.47265625,-56.640625,-34.66796875,-28.80859375,-45.8984375,16.11328125,0.0
406.4765625,-50.78125,-39.0625,-31.73828125,-55.17578125,56.640625,0.0
406.48046875,-28.80859375,-31.73828125,-29.296875,-35.64453125,34.66796875,0.0
406.484375,-20.01953125,-23.92578125,-24.90234375,-28.80859375,-18.5546875,0.0
406.48828125,-48.33984375,-27.83203125,-21.97265625,-36.1328125,-45.8984375,0.0
406.4921875,-87.40234375,-37.59765625,-28.80859375,-46.875,13.671875,0.0
406.49609375,-73.2421875,-38.0859375,-34.1796875,-52.734375,96.6796875,0.0
406.5,-54.19921875,-37.109375,-33.69140625,-45.41015625,0.48828125,0.0
406.50390625,-43.9453125,-38.0859375,-29.296875,-28.80859375,-86.42578125,0.0
406.5078125,-49.31640625,-36.1328125,-29.78515625,-37.109375,-111.81640625,0.0
406.51171875,-85.9375,-37.109375,-36.1328125,-56.15234375,-102.5390625,0.0
406.515625,-100.09765625,-41.9921875,-37.59765625,-66.40625,-52.734375,0.0
406.51953125,-69.82421875,-41.50390625,-33.69140625,-53.7109375,-76.66015625,0.0
406.5234375,-34.1796875,-33.69140625,-24.4140625,-31.73828125,-130.37109375,0.0
406.52734375,-39.0625,-30.2734375,-26.3671875,-41.015625,-137.6953125,0.0
406.53125,-75.68359375,-32.71484375,-31.25,-53.7109375,-116.2109375,0.0
406.53515625,-92.28515625,-37.109375,-22.94921875,-63.96484375,-34.66796875,0.0
406.5390625,-64.94140625,-32.71484375,-23.92578125,-48.828125,-25.87890625,0.0
406.54296875,-26.85546875,-29.296875,-28.80859375,-28.3203125,-3.41796875,0.0
406.546875,-33.203125,-36.62109375,-28.3203125,-38.0859375,15.625,0.0
406.55078125,-68.84765625,-40.52734375,-32.2265625,-49.31640625,16.11328125,0.0
406.5546875,-87.40234375,-42.96875,-38.57421875,-55.6640625,-23.4375,0.0
406.55859375,-75.1953125,-41.50390625,-35.64453125,-60.05859375,-60.05859375,0.0
406.5625,-36.62109375,-33.69140625,-28.80859375,-43.9453125,35.15625,0.0
406.56640625,-27.34375,-31.25,-27.83203125,-38.0859375,-46.875,0.0
406.5703125,-51.26953125,-33.69140625,-31.25,-55.6640625,-130.859375,0.0
406.57421875,-67.87109375,-30.2734375,-36.1328125,-63.4765625,-70.3125,0.0
406.578125,-50.78125,-30.2734375,-30.76171875,-58.59375,-109.375,0.0
406.58203125,-23.92578125,-33.69140625,-23.92578125,-48.828125,-96.19140625,0.0
406.5859375,-34.1796875,-33.203125,-28.3203125,-36.62109375,18.5546875,0.0
406.58984375,-64.453125,-34.1796875,-34.1796875,-34.66796875,36.1328125,0.0
406.59375,-82.03125,-40.0390625,-36.1328125,-62.98828125,7.32421875,0.0
406.59765625,-63.4765625,-35.15625,-32.2265625,-71.77734375,4.39453125,0.0
406.6015625,-31.73828125,-27.34375,-29.296875,-49.31640625,-44.921875,0.0
406.60546875,-26.3671875,-24.4140625,-27.83203125,-38.57421875,-51.7578125,0.0
406.609375,-48.828125,-25.390625,-27.83203125,-43.45703125,-49.8046875,0.0
406.61328125,-76.66015625,-34.66796875,-33.69140625,-58.59375,-54.19921875,0.0
406.6171875,-67.3828125,-35.64453125,-38.0859375,-62.01171875,-44.43359375,0.0
406.62109375,-28.80859375,-26.3671875,-32.2265625,-42.48046875,-53.7109375,0.0
406.625,-12.6953125,-23.92578125,-24.4140625,-32.71484375,-7.32421875,0.0
406.62890625,-37.59765625,-28.3203125,-27.34375,-37.59765625,60.05859375,0.0
406.6328125,-64.453125,-29.78515625,-33.69140625,-41.015625,67.3828125,0.0
406.63671875,-54.6875,-26.3671875,-31.25,-41.50390625,35.15625,0.0
406.640625,-20.99609375,-26.3671875,-33.203125,-32.71484375,93.26171875,0.0
406.64453125,-9.27734375,-25.87890625,-32.71484375,-31.25,112.3046875,0.0
406.6484375,-35.15625,-30.76171875,-33.203125,-43.45703125,47.8515625,0.0
406.65234375,-62.5,-40.0390625,-35.64453125,-47.36328125,18.5546875,0.0
406.65625,-71.77734375,-41.9921875,-37.59765625,-55.6640625,13.18359375,0.0
406.66015625,-40.52734375,-37.109375,-37.59765625,-57.12890625,0.48828125,0.0
406.6640625,-10.25390625,-26.3671875,-29.296875,-34.66796875,34.66796875,0.0
406.66796875,-33.203125,-24.90234375,-24.4140625,-32.71484375,-28.80859375,0.0
406.671875,-63.96484375,-33.203125,-32.2265625,-46.875,-80.56640625,0.0
406.67578125,-72.75390625,-39.55078125,-39.55078125,-53.7109375,-16.11328125,0.0
406.6796875,-45.8984375,-37.109375,-37.59765625,-41.50390625,-27.83203125,0.0
406.68359375,-18.06640625,-31.25,-24.90234375,-24.90234375,-62.98828125,0.0
406.6875,-28.80859375,-35.64453125,-23.92578125,-26.85546875,-97.65625,0.0
406.69140625,-60.05859375,-41.015625,-34.1796875,-35.64453125,-82.51953125,0.0
406.6953125,-69.82421875,-39.55078125,-30.76171875,-49.31640625,-34.1796875,0.0
406.69921875,-46.38671875,-35.64453125,-27.83203125,-50.78125,-24.4140625,0.0
406.703125,-24.90234375,-31.25,-29.78515625,-39.55078125,-15.13671875,0.0
406.70703125,-36.62109375,-31.73828125,-31.73828125,-41.50390625,-28.80859375,0.0
406.7109375,-57.12890625,-24.4140625,-32.2265625,-53.22265625,-91.796875,0.0
406.71484375,-69.3359375,-20.99609375,-34.1796875,-60.05859375,-99.12109375,0.0
406.71875,-54.19921875,-28.80859375,-33.203125,-55.6640625,-22.4609375,0.0
406.72265625,-15.13671875,-28.3203125,-26.85546875,-46.875,49.31640625,0.0
406.7265625,-16.11328125,-24.90234375,-23.4375,-38.57421875,-13.671875,0.0
406.73046875,-50.78125,-23.92578125,-28.3203125,-44.43359375,-2.44140625,0.0
406.734375,-68.359375,-26.85546875,-32.2265625,-57.12890625,-7.32421875,0.0
406.73828125,-56.15234375,-31.73828125,-29.296875,-45.8984375,-56.15234375,0.0
406.7421875,-21.97265625,-28.80859375,-23.92578125,-37.59765625,-9.27734375,0.0
406.74609375,-16.11328125,-26.3671875,-25.390625,-48.828125,-26.85546875,0.0
406.75,-56.15234375,-34.66796875,-30.2734375,-45.8984375,-87.40234375,0.0
406.75390625,-75.1953125,-38.57421875,-34.66796875,-47.8515625,-66.40625,0.0
406.7578125,-58.10546875,-39.0625,-14.16015625,-48.33984375,12.20703125,0.0
406.76171875,-21.484375,-32.2265625,-1.46484375,-35.15625,2.9296875,0.0
406.765625,-12.20703125,-28.80859375,-28.80859375,-33.203125,-68.359375,0.0
406.76953125,-39.55078125,-34.1796875,-44.43359375,-42.48046875,-140.13671875,0.0
406.7734375,-64.94140625,-40.52734375,-34.1796875,-54.19921875,-68.84765625,0.0
406.77734375,-57.12890625,-39.55078125,-25.87890625,-58.10546875,-32.71484375,0.0
406.78125,-23.4375,-33.69140625,-34.66796875,-48.33984375,-150.390625,0.0
406.78515625,-12.20703125,-32.71484375,-34.66796875,-43.45703125,-127.9296875,0.0
406.7890625,-36.62109375,-34.1796875,-34.66796875,-54.19921875,-73.73046875,0.0
406.79296875,-63.4765625,-40.0390625,-41.50390625,-59.5703125,-73.2421875,0.0
406.796875,-50.78125,-43.9453125,-42.48046875,-53.22265625,-59.08203125,0.0
406.80078125,-17.578125,-34.66796875,-31.25,-45.41015625,-84.9609375,0.0
406.8046875,-3.41796875,-24.4140625,-25.390625,-28.80859375,-156.25,0.0
406.80859375,-17.578125,-31.25,-29.296875,-29.296875,-205.56640625,0.0
406.8125,-58.10546875,-42.96875,-31.25,-52.734375,-129.39453125,0.0
406.81640625,-65.91796875,-39.55078125,-28.3203125,-62.5,-47.36328125,0.0
406.8203125,-31.73828125,-31.25,-20.5078125,-42.96875,-62.5,0.0
406.82421875,-19.04296875,-30.2734375,-22.94921875,-34.66796875,-112.79296875,0.0
406.828125,-40.52734375,-29.78515625,-34.66796875,-47.36328125,-208.0078125,0.0
406.83203125,-67.87109375,-34.66796875,-43.45703125,-59.5703125,-138.18359375,0.0
406.8359375,-73.2421875,-37.59765625,-44.43359375,-53.7109375,-11.23046875,0.0
406.83984375,-49.31640625,-33.69140625,-38.57421875,-54.19921875,42.96875,0.0
406.84375,-20.5078125,-27.34375,-32.71484375,-55.6640625,18.06640625,0.0
406.84765625,-28.80859375,-28.3203125,-27.83203125,-49.31640625,-44.43359375,0.0
406.8515625,-62.5,-34.1796875,-32.2265625,-50.78125,3.90625,0.0
406.85546875,-63.4765625,-38.57421875,-40.0390625,-56.15234375,0.0,0.0
406.859375,-39.0625,-39.55078125,-40.52734375,-50.78125,-32.2265625,0.0
406.86328125,-19.04296875,-38.0859375,-27.34375,-42.48046875,-47.36328125,0.0
406.8671875,-27.34375,-41.015625,-23.92578125,-47.8515625,-64.453125,0.0
406.87109375,-62.98828125,-36.62109375,-37.59765625,-49.8046875,-69.82421875,0.0
406.875,-78.125,-35.15625,-37.59765625,-57.12890625,-49.8046875,0.0
406.87890625,-59.5703125,-33.203125,-28.3203125,-56.640625,-13.671875,0.0
406.8828125,-29.78515625,-30.76171875,-26.85546875,-36.62109375,52.734375,0.0
406.88671875,-30.2734375,-37.109375,-27.34375,-37.59765625,53.22265625,0.0
406.890625,-62.01171875,-45.41015625,-37.59765625,-57.6171875,-31.25,0.0
406.89453125,-78.61328125,-44.921875,-39.0625,-70.80078125,8.7890625,0.0
406.8984375,-60.05859375,-39.0625,-30.76171875,-64.453125,84.47265625,0.0
406.90234375,-19.53125,-32.71484375,-29.78515625,-45.41015625,34.66796875,0.0
406.90625,-21.484375,-32.2265625,-23.92578125,-42.48046875,-52.24609375,0.0
406.91015625,-59.08203125,-39.55078125,-24.4140625,-44.921875,-64.453125,0.0
406.9140625,-75.68359375,-42.48046875,-30.76171875,-56.640625,-58.10546875,0.0
406.91796875,-61.5234375,-39.0625,-34.66796875,-63.96484375,11.71875,0.0
406.921875,-25.390625,-29.296875,-28.3203125,-45.8984375,101.5625,0.0
406.92578125,-6.34765625,-28.3203125,-18.06640625,-31.25,145.5078125,0.0
406.9296875,-20.5078125,-30.76171875,-34.66796875,-39.55078125,54.19921875,0.0
406.93359375,-45.41015625,-33.203125,-45.41015625,-50.78125,-39.55078125,0.0
406.9375,-35.15625,-35.15625,-37.59765625,-56.640625,-11.23046875,0.0
406.94140625,5.37109375,-27.83203125,-30.76171875,-48.33984375,5.859375,0.0
406.9453125,20.5078125,-22.4609375,-26.85546875,-40.0390625,28.3203125,0.0
406.94921875,-3.41796875,-28.80859375,-33.69140625,-48.33984375,-46.875,0.0
406.953125,-35.64453125,-37.59765625,-37.109375,-62.5,-128.90625,0.0
406.95703125,-41.50390625,-37.59765625,-31.73828125,-64.94140625,-217.28515625,0.0
406.9609375,-21.484375,-30.2734375,-36.62109375,-48.33984375,-200.68359375,0.0
406.96484375,-7.32421875,-34.1796875,-35.15625,-31.25,-165.52734375,0.0
406.96875,-34.1796875,-42.48046875,-30.76171875,-39.55078125,-166.9921875,0.0
406.97265625,-74.70703125,-47.36328125,-40.0390625,-57.6171875,-30.2734375,0.0
406.9765625,-67.87109375,-46.38671875,-46.38671875,-50.29296875,-14.16015625,0.0
406.98046875,-26.85546875,-38.57421875,-38.0859375,-32.2265625,-28.80859375,0.0
406.984375,-0.48828125,-32.2265625,-32.71484375,-23.92578125,47.8515625,0.0
406.98828125,-20.99609375,-34.66796875,-42.48046875,-33.203125,0.9765625,0.0
406.9921875,-51.7578125,-35.64453125,-47.36328125,-48.828125,-6.34765625,0.0
406.99609375,-56.15234375,-36.62109375,-42.48046875,-43.9453125,9.27734375,0.0
407.0,-31.25,-37.109375,-31.73828125,-32.2265625,-114.74609375,0.0
407.00390625,0.0,-31.25,-28.80859375,-25.390625,-180.6640625,0.0
407.0078125,-17.578125,-32.71484375,-36.62109375,-34.1796875,-80.56640625,0.0
407.01171875,-60.546875,-41.50390625,-48.33984375,-52.24609375,32.71484375,0.0
407.015625,-65.4296875,-42.96875,-52.24609375,-53.7109375,30.2734375,0.0
407.01953125,-33.69140625,-34.1796875,-41.50390625,-43.45703125,-59.5703125,0.0
407.0234375,-12.20703125,-32.71484375,-36.1328125,-34.66796875,-39.0625,0.0
407.02734375,-30.2734375,-40.52734375,-40.0390625,-40.0390625,18.5546875,0.0
407.03125,-62.98828125,-41.50390625,-45.8984375,-59.08203125,-14.6484375,0.0
407.03515625,-65.4296875,-36.1328125,-44.921875,-60.546875,-69.82421875,0.0
407.0390625,-38.0859375,-30.2734375,-42.48046875,-45.8984375,-90.8203125,0.0
407.04296875,-13.671875,-26.3671875,-31.73828125,-33.203125,-61.03515625,0.0
407.046875,-18.06640625,-32.2265625,-20.5078125,-39.0625,-54.6875,0.0
407.05078125,-51.7578125,-41.50390625,-34.1796875,-55.6640625,-69.82421875,0.0
407.0546875,-64.453125,-37.109375,-40.52734375,-51.26953125,-37.109375,0.0
407.05859375,-43.9453125,-35.15625,-36.62109375,-52.24609375,-48.33984375,0.0
407.0625,-14.6484375,-33.203125,-37.59765625,-49.31640625,-101.07421875,0.0
407.06640625,-17.08984375,-26.85546875,-39.55078125,-43.9453125,-64.94140625,0.0
407.0703125,-58.59375,-34.66796875,-40.52734375,-57.12890625,-58.10546875,0.0
407.07421875,-77.63671875,-37.59765625,-44.43359375,-70.80078125,-93.75,0.0
407.078125,-53.7109375,-31.25,-44.921875,-65.91796875,-124.0234375,0.0
407.08203125,-11.23046875,-24.4140625,-39.55078125,-46.38671875,-55.6640625,0.0
407.0859375,-0.48828125,-21.97265625,-32.2265625,-39.55078125,38.0859375,0.0
407.08984375,-35.15625,-31.25,-20.99609375,-44.43359375,-15.13671875,0.0
407.09375,-65.4296875,-41.50390625,-27.83203125,-43.9453125,5.859375,0.0
407.09765625,-62.01171875,-40.0390625,-34.1796875,-52.24609375,-17.08984375,0.0
407.1015625,-33.203125,-30.76171875,-24.90234375,-51.7578125,-121.58203125,0.0
407.10546875,-16.6015625,-25.390625,-18.06640625,-35.64453125,-75.68359375,0.0
407.109375,-34.1796875,-26.3671875,-25.390625,-45.41015625,-66.89453125,0.0
407.11328125,-63.4765625,-32.71484375,-31.25,-68.359375,-52.24609375,0.0
407.1171875,-61.03515625,-33.203125,-30.76171875,-55.17578125,55.6640625,0.0
407.12109375,-17.578125,-21.97265625,-28.80859375,-44.921875,6.34765625,0.0
407.125,3.90625,-11.71875,-27.34375,-39.0625,-127.9296875,0.0
407.12890625,-35.15625,-22.94921875,-31.25,-37.59765625,-130.859375,0.0
407.1328125,-58.10546875,-29.296875,-30.2734375,-49.8046875,-40.0390625,0.0
407.13671875,-38.0859375,-29.78515625,-28.80859375,-56.15234375,49.31640625,0.0
407.140625,-23.4375,-36.1328125,-31.73828125,-44.43359375,0.48828125,0.0
407.14453125,-13.671875,-32.2265625,-26.3671875,-41.015625,-80.56640625,0.0
407.1484375,-20.01953125,-32.2265625,-21.484375,-41.015625,-123.53515625,0.0
407.15234375,-54.19921875,-39.0625,-25.87890625,-52.734375,-218.75,0.0
407.15625,-53.22265625,-43.9453125,-28.80859375,-62.5,-190.4296875,0.0
407.16015625,-31.73828125,-39.55078125,-28.3203125,-47.8515625,-166.50390625,0.0
407.1640625,-6.34765625,-29.78515625,-24.90234375,-32.2265625,-220.21484375,0.0
407.16796875,-13.18359375,-31.25,-25.390625,-28.3203125,-154.78515625,0.0
407.171875,-62.98828125,-38.0859375,-34.1796875,-46.875,-105.46875,0.0
407.17578125,-71.77734375,-37.59765625,-37.59765625,-54.19921875,-66.40625,0.0
407.1796875,-55.6640625,-30.2734375,-35.64453125,-51.7578125,-25.87890625,0.0
407.18359375,-34.66796875,-25.87890625,-30.2734375,-40.52734375,-70.80078125,0.0
407.1875,-44.921875,-28.3203125,-29.78515625,-39.0625,-125.9765625,0.0
407.19140625,-64.453125,-29.78515625,-30.2734375,-60.546875,-160.64453125,0.0
407.1953125,-68.359375,-34.1796875,-26.3671875,-59.5703125,-135.25390625,0.0
407.19921875,-67.3828125,-37.59765625,-29.296875,-50.29296875,-187.98828125,0.0
407.203125,-39.0625,-33.69140625,-33.203125,-46.38671875,-97.65625,0.0
407.20703125,-49.31640625,-39.0625,-32.2265625,-44.921875,-15.13671875,0.0
407.2109375,-74.70703125,-38.0859375,-28.3203125,-49.31640625,-31.73828125,0.0
407.21484375,-89.84375,-36.1328125,-30.2734375,-53.7109375,-16.11328125,0.0
407.21875,-75.1953125,-36.1328125,-24.4140625,-49.31640625,59.5703125,0.0
407.22265625,-62.98828125,-32.2265625,-19.04296875,-42.48046875,107.91015625,0.0
407.2265625,-65.91796875,-33.203125,-20.99609375,-31.25,25.390625,0.0
407.23046875,-85.9375,-38.57421875,-27.83203125,-55.6640625,57.6171875,0.0
407.234375,-109.86328125,-41.50390625,-34.1796875,-72.75390625,101.5625,0.0
407.23828125,-89.84375,-36.1328125,-18.5546875,-56.640625,56.15234375,0.0
407.2421875,-54.19921875,-33.203125,-8.30078125,-41.9921875,38.57421875,0.0
407.24609375,-49.8046875,-35.15625,-21.97265625,-30.2734375,63.96484375,0.0
407.25,-76.66015625,-32.71484375,-23.92578125,-42.96875,143.5546875,0.0
407.25390625,-87.40234375,-35.64453125,-23.92578125,-56.640625,142.08984375,0.0
407.2578125,-79.1015625,-35.64453125,-25.87890625,-54.6875,57.6171875,0.0
407.26171875,-82.51953125,-34.1796875,-24.4140625,-47.36328125,28.80859375,0.0
407.265625,-79.1015625,-37.109375,-25.390625,-30.2734375,-0.48828125,0.0
407.26953125,-87.890625,-34.66796875,-20.5078125,-36.1328125,30.2734375,0.0
407.2734375,-114.74609375,-39.0625,-26.3671875,-52.734375,49.31640625,0.0
407.27734375,-105.46875,-42.48046875,-34.66796875,-55.17578125,-47.36328125,0.0
407.28125,-73.73046875,-35.15625,-32.2265625,-47.36328125,-54.19921875,0.0
407.28515625,-59.5703125,-32.2265625,-26.3671875,-42.96875,35.64453125,0.0
407.2890625,-87.890625,-38.57421875,-31.25,-54.19921875,32.2265625,0.0
407.29296875,-117.1875,-40.0390625,-39.0625,-65.4296875,4.39453125,0.0
407.296875,-118.1640625,-37.109375,-39.55078125,-65.91796875,88.8671875,0.0
407.30078125,-81.0546875,-36.62109375,-27.34375,-40.52734375,114.2578125,0.0
407.3046875,-54.19921875,-35.15625,-25.87890625,-27.34375,8.7890625,0.0
407.30859375,-87.890625,-29.296875,-27.34375,-51.7578125,-41.9921875,0.0
407.3125,-119.62890625,-35.15625,-24.4140625,-62.98828125,19.04296875,0.0
407.31640625,-99.12109375,-39.55078125,-27.34375,-49.31640625,7.8125,0.0
407.3203125,-77.1484375,-37.59765625,-23.4375,-34.66796875,-97.65625,0.0
407.32421875,-54.6875,-41.50390625,-18.5546875,-35.15625,-135.25390625,0.0
407.328125,-58.59375,-43.9453125,-17.578125,-43.9453125,-130.37109375,0.0
407.33203125,-105.46875,-40.52734375,-20.5078125,-41.015625,-85.44921875,0.0
407.3359375,-102.05078125,-39.0625,-23.92578125,-32.2265625,-9.765625,0.0
407.33984375,-65.4296875,-39.55078125,-22.94921875,-40.0390625,27.83203125,0.0
407.34375,-41.015625,-34.1796875,-19.53125,-40.0390625,-11.23046875,0.0
407.34765625,-55.6640625,-35.15625,-27.34375,-20.99609375,-36.62109375,0.0
407.3515625,-78.61328125,-38.0859375,-32.71484375,-41.50390625,-62.98828125,0.0
407.35546875,-76.171875,-38.0859375,-30.2734375,-52.24609375,-58.10546875,0.0
407.359375,-49.8046875,-33.203125,-27.34375,-35.15625,-24.90234375,0.0
407.36328125,-20.01953125,-31.73828125,-23.92578125,-18.5546875,-18.06640625,0.0
407.3671875,-36.62109375,-33.69140625,-24.90234375,-35.15625,-55.6640625,0.0
407.37109375,-69.3359375,-39.0625,-34.66796875,-52.24609375,-93.26171875,0.0
407.375,-92.28515625,-44.921875,-38.0859375,-49.8046875,-2.44140625,0.0
407.37890625,-71.2890625,-39.55078125,-31.73828125,-43.9453125,122.0703125,0.0
407.3828125,-19.04296875,-30.76171875,-28.3203125,-26.3671875,54.19921875,0.0
407.38671875,-17.578125,-31.73828125,-29.78515625,-31.73828125,-90.8203125,0.0
407.390625,-62.98828125,-36.62109375,-31.25,-21.484375,-131.8359375,0.0
407.39453125,-71.77734375,-39.0625,-33.69140625,-23.4375,-167.48046875,0.0
407.3984375,-36.62109375,-32.2265625,-31.73828125,-24.4140625,-93.26171875,0.0
407.40234375,-20.01953125,-28.80859375,-27.34375,-20.99609375,43.9453125,0.0
407.40625,-4.8828125,-30.76171875,-26.85546875,-15.13671875,97.65625,0.0
407.41015625,-15.625,-30.76171875,-26.3671875,-20.01953125,75.68359375,0.0
407.4140625,-59.08203125,-37.109375,-25.87890625,-35.15625,-27.83203125,0.0
407.41796875,-64.94140625,-41.50390625,-28.3203125,-41.015625,-32.2265625,0.0
407.421875,-20.5078125,-32.71484375,-26.3671875,-37.59765625,-9.765625,0.0
407.42578125,-15.13671875,-29.78515625,-24.4140625,-18.06640625,-94.23828125,0.0
407.4296875,-23.4375,-38.0859375,-25.390625,-21.484375,-157.2265625,0.0
407.43359375,-34.66796875,-42.96875,-23.4375,-24.4140625,-93.26171875,0.0
407.4375,-41.9921875,-42.48046875,-23.92578125,-23.4375,12.6953125,0.0
407.44140625,-16.6015625,-33.203125,-22.4609375,-22.4609375,-57.12890625,0.0
407.4453125,3.90625,-26.85546875,-17.578125,-17.578125,-98.14453125,0.0
407.44921875,-17.578125,-34.1796875,-20.5078125,-18.06640625,-25.390625,0.0
407.453125,-34.66796875,-43.45703125,-28.80859375,-35.15625,-23.4375,0.0
407.45703125,-35.64453125,-45.41015625,-31.25,-48.33984375,-26.3671875,0.0
407.4609375,-13.18359375,-37.59765625,-24.4140625,-37.109375,-20.99609375,0.0
407.46484375,6.34765625,-33.69140625,-17.08984375,-9.27734375,20.99609375,0.0
407.46875,-25.87890625,-41.50390625,-24.4140625,-10.7421875,-34.1796875,0.0
407.47265625,-61.5234375,-47.36328125,-32.2265625,-39.55078125,-153.80859375,0.0
407.4765625,-68.84765625,-48.828125,-31.25,-42.48046875,-85.9375,0.0
407.48046875,-37.109375,-41.015625,-29.296875,-24.90234375,10.25390625,0.0
407.484375,-0.48828125,-33.203125,-28.80859375,-20.99609375,-80.56640625,0.0
407.48828125,-36.1328125,-38.57421875,-29.78515625,-35.64453125,-148.92578125,0.0
407.4921875,-69.82421875,-45.8984375,-39.55078125,-52.24609375,-108.88671875,0.0
407.49609375,-59.5703125,-42.48046875,-39.55078125,-45.41015625,-2.44140625,0.0
407.5,-36.62109375,-40.0390625,-32.2265625,-36.1328125,55.17578125,0.0
407.50390625,-0.48828125,-34.66796875,-32.71484375,-34.66796875,-27.34375,0.0
407.5078125,-15.625,-31.25,-26.85546875,-26.3671875,-44.921875,0.0
407.51171875,-48.828125,-44.921875,-31.25,-44.43359375,2.44140625,0.0
407.515625,-53.22265625,-43.9453125,-40.0390625,-55.17578125,44.921875,0.0
407.51953125,-27.34375,-30.76171875,-34.1796875,-37.59765625,107.91015625,0.0
407.5234375,-5.859375,-30.76171875,-22.94921875,-25.390625,63.4765625,0.0
407.52734375,-12.6953125,-34.66796875,-18.5546875,-33.69140625,-2.9296875,0.0
407.53125,-43.9453125,-37.59765625,-27.83203125,-38.57421875,11.23046875,0.0
407.53515625,-65.91796875,-40.0390625,-32.2265625,-41.50390625,-29.78515625,0.0
407.5390625,-51.26953125,-38.57421875,-25.87890625,-44.43359375,-55.17578125,0.0
407.54296875,-18.06640625,-31.73828125,-28.80859375,-38.57421875,-59.08203125,0.0
407.546875,-22.4609375,-22.4609375,-30.76171875,-35.64453125,-56.15234375,0.0
407.55078125,-59.5703125,-29.296875,-28.3203125,-43.45703125,-46.38671875,0.0
407.5546875,-76.66015625,-35.64453125,-31.25,-53.22265625,-34.66796875,0.0
407.55859375,-60.546875,-31.73828125,-30.76171875,-33.69140625,-96.6796875,0.0
407.5625,-34.66796875,-27.83203125,-24.90234375,-34.1796875,-231.4453125,0.0
407.56640625,-38.57421875,-33.69140625,-19.04296875,-46.875,-180.6640625,0.0
407.5703125,-72.265625,-33.203125,-16.6015625,-52.24609375,36.1328125,0.0
407.57421875,-84.9609375,-33.69140625,-24.4140625,-47.36328125,67.3828125,0.0
407.578125,-63.4765625,-34.1796875,-24.4140625,-41.015625,21.484375,0.0
407.58203125,-29.296875,-31.25,-19.53125,-24.90234375,30.76171875,0.0
407.5859375,-18.5546875,-31.25,-22.4609375,-14.16015625,-16.11328125,0.0
407.58984375,-66.40625,-35.15625,-26.3671875,-43.45703125,-93.75,0.0
407.59375,-86.42578125,-36.1328125,-29.78515625,-50.29296875,-92.28515625,0.0
407.59765625,-56.15234375,-35.64453125,-30.2734375,-34.66796875,-15.625,0.0
407.6015625,-36.62109375,-35.64453125,-27.34375,-34.66796875,-79.1015625,0.0
407.60546875,-28.3203125,-32.71484375,-24.4140625,-34.1796875,-101.5625,0.0
407.609375,-41.9921875,-32.71484375,-22.94921875,-28.80859375,-107.421875,0.0
407.61328125,-59.5703125,-32.71484375,-23.92578125,-37.59765625,-65.4296875,0.0
407.6171875,-56.15234375,-29.296875,-27.34375,-50.78125,-17.08984375,0.0
407.62109375,-27.34375,-26.85546875,-28.80859375,-38.57421875,-101.07421875,0.0
407.625,-15.625,-29.78515625,-26.85546875,-23.4375,-103.02734375,0.0
407.62890625,-39.55078125,-37.59765625,-32.2265625,-33.203125,-35.15625,0.0
407.6328125,-69.82421875,-41.50390625,-38.57421875,-44.43359375,-44.43359375,0.0
407.63671875,-69.82421875,-33.203125,-32.71484375,-41.50390625,-87.890625,0.0
407.640625,-35.64453125,-26.85546875,-23.92578125,-40.52734375,-28.3203125,0.0
407.64453125,-27.83203125,-30.76171875,-23.92578125,-39.0625,10.25390625,0.0
407.6484375,-45.8984375,-36.1328125,-28.80859375,-32.71484375,-33.203125,0.0
407.65234375,-64.94140625,-36.62109375,-30.2734375,-47.8515625,-45.8984375,0.0
407.65625,-74.21875,-39.0625,-27.34375,-59.5703125,-33.203125,0.0
407.66015625,-45.8984375,-35.64453125,-15.625,-53.7109375,-32.71484375,0.0
407.6640625,-20.99609375,-28.3203125,-16.6015625,-39.0625,-14.16015625,0.0
407.66796875,-33.69140625,-32.71484375,-29.78515625,-32.2265625,-35.15625,0.0
407.671875,-68.84765625,-43.9453125,-34.66796875,-44.921875,-38.0859375,0.0
407.67578125,-77.1484375,-42.48046875,-32.71484375,-43.9453125,-36.1328125,0.0
407.6796875,-44.921875,-37.109375,-27.34375,-40.0390625,6.34765625,0.0
407.68359375,-17.08984375,-34.1796875,-27.34375,-53.7109375,-26.85546875,0.0
407.6875,-21.97265625,-32.71484375,-32.2265625,-41.015625,-153.80859375,0.0
407.69140625,-51.26953125,-43.9453125,-35.64453125,-36.1328125,-113.76953125,0.0
407.6953125,-61.03515625,-41.015625,-36.1328125,-48.828125,-134.27734375,0.0
407.69921875,-39.55078125,-34.66796875,-31.73828125,-40.52734375,-117.67578125,0.0
407.703125,-12.20703125,-35.15625,-26.3671875,-31.25,-20.01953125,0.0
407.70703125,-15.625,-37.59765625,-20.5078125,-33.203125,-15.625,0.0
407.7109375,-38.57421875,-41.50390625,-25.390625,-38.57421875,-26.85546875,0.0
407.71484375,-46.38671875,-43.45703125,-34.66796875,-48.828125,-52.24609375,0.0
407.71875,-31.73828125,-39.0625,-34.66796875,-53.7109375,-31.25,0.0
407.72265625,0.48828125,-31.73828125,-36.1328125,-42.48046875,19.04296875,0.0
407.7265625,16.6015625,-30.76171875,-36.62109375,-44.43359375,48.33984375,0.0
407.73046875,-5.37109375,-33.69140625,-37.109375,-53.22265625,34.66796875,0.0
407.734375,-8.7890625,-35.64453125,-40.0390625,-55.6640625,-4.8828125,0.0
407.73828125,7.32421875,-33.69140625,-36.1328125,-46.875,-31.25,0.0
407.7421875,22.4609375,-23.4375,-28.3203125,-37.59765625,-46.38671875,0.0
407.74609375,16.6015625,-23.92578125,-28.3203125,-24.4140625,17.08984375,0.0
407.75,-16.6015625,-40.0390625,-28.3203125,-27.83203125,127.44140625,0.0
407.75390625,-47.8515625,-43.9453125,-39.0625,-49.8046875,161.1328125,0.0
407.7578125,-44.921875,-41.015625,-44.43359375,-42.96875,113.28125,0.0
407.76171875,-7.8125,-38.57421875,-38.57421875,-34.66796875,80.078125,0.0
407.765625,7.8125,-34.1796875,-33.69140625,-34.66796875,32.2265625,0.0
407.76953125,-17.578125,-39.55078125,-31.73828125,-34.1796875,-29.78515625,0.0
407.7734375,-42.96875,-42.96875,-34.66796875,-43.45703125,-56.640625,0.0
407.77734375,-37.109375,-40.0390625,-33.69140625,-42.48046875,-40.0390625,0.0
407.78125,-6.34765625,-32.2265625,-28.80859375,-31.25,-43.9453125,0.0
407.78515625,9.27734375,-24.90234375,-22.94921875,-24.4140625,-90.33203125,0.0
407.7890625,-9.765625,-28.3203125,-30.76171875,-20.01953125,-156.25,0.0
407.79296875,-41.015625,-35.15625,-19.53125,-34.1796875,-150.390625,0.0
407.796875,-43.45703125,-29.78515625,0.48828125,-44.921875,-118.1640625,0.0
407.80078125,-10.7421875,-23.92578125,-18.5546875,-26.85546875,-156.25,0.0
407.8046875,13.671875,-24.4140625,-30.2734375,-30.76171875,-41.50390625,0.0
407.80859375,-16.6015625,-26.85546875,-35.64453125,-38.0859375,44.43359375,0.0
407.8125,-55.17578125,-28.80859375,-37.109375,-35.64453125,-47.36328125,0.0
407.81640625,-48.828125,-28.80859375,-37.59765625,-39.55078125,-12.20703125,0.0
407.8203125,-19.53125,-27.83203125,-33.69140625,-34.66796875,23.92578125,0.0
407.82421875,-5.37109375,-28.3203125,-32.2265625,-27.83203125,-27.34375,0.0
407.828125,-16.11328125,-34.1796875,-35.64453125,-38.0859375,-5.859375,0.0
407.83203125,-46.875,-37.59765625,-35.15625,-44.921875,34.1796875,0.0
407.8359375,-59.5703125,-38.0859375,-29.296875,-49.8046875,70.3125,0.0
407.83984375,-28.3203125,-33.203125,-15.13671875,-42.48046875,41.50390625,0.0
407.84375,-6.34765625,-28.80859375,-18.5546875,-21.97265625,-83.984375,0.0
407.84765625,-20.01953125,-33.203125,-30.76171875,-31.73828125,-117.67578125,0.0
407.8515625,-48.828125,-36.62109375,-33.203125,-53.7109375,18.5546875,0.0
407.85546875,-59.08203125,-37.109375,-30.76171875,-61.03515625,25.390625,0.0
407.859375,-40.0390625,-34.66796875,-31.73828125,-51.26953125,-40.52734375,0.0
407.86328125,-12.20703125,-27.34375,-26.85546875,-26.3671875,-42.48046875,0.0
407.8671875,-19.04296875,-29.78515625,-25.390625,-22.4609375,-28.3203125,0.0
407.87109375,-46.38671875,-34.1796875,-29.296875,-32.71484375,8.7890625,0.0
407.875,-60.05859375,-33.203125,-30.2734375,-36.62109375,16.11328125,0.0
407.87890625,-57.6171875,-35.64453125,-31.25,-29.296875,-16.6015625,0.0
407.8828125,-23.4375,-27.83203125,-16.11328125,-27.34375,0.9765625,0.0
407.88671875,-10.7421875,-19.53125,-3.90625,-31.25,29.296875,0.0
407.890625,-53.22265625,-30.76171875,-18.06640625,-36.1328125,-33.69140625,0.0
407.89453125,-68.359375,-37.109375,-25.87890625,-44.43359375,-56.15234375,0.0
407.8984375,-41.9921875,-31.25,-23.4375,-47.36328125,-5.859375,0.0
407.90234375,-16.6015625,-24.90234375,-23.92578125,-42.48046875,-14.16015625,0.0
407.90625,-15.625,-27.83203125,-27.34375,-40.0390625,8.30078125,0.0
407.91015625,-51.26953125,-37.59765625,-25.390625,-46.38671875,-25.390625,0.0
407.9140625,-77.1484375,-39.0625,-23.92578125,-48.828125,-47.36328125,0.0
407.91796875,-52.24609375,-33.203125,-22.94921875,-50.29296875,-61.03515625,0.0
407.921875,-13.671875,-26.85546875,-18.5546875,-34.1796875,-58.10546875,0.0
407.92578125,-5.859375,-26.85546875,-17.578125,-31.25,-19.53125,0.0
407.9296875,-28.80859375,-35.15625,-20.01953125,-38.57421875,-71.77734375,0.0
407.93359375,-57.6171875,-44.43359375,-31.73828125,-62.98828125,-63.96484375,0.0
407.9375,-53.22265625,-41.9921875,-33.203125,-61.5234375,42.48046875,0.0
407.94140625,-17.578125,-33.69140625,-21.484375,-32.71484375,-42.48046875,0.0
407.9453125,3.41796875,-28.80859375,-17.578125,-27.83203125,-98.14453125,0.0
407.94921875,-14.16015625,-30.2734375,-25.87890625,-32.71484375,-16.6015625,0.0
407.953125,-46.38671875,-33.69140625,-32.2265625,-45.41015625,34.66796875,0.0
407.95703125,-47.36328125,-35.15625,-26.85546875,-50.78125,11.71875,0.0
407.9609375,-11.23046875,-34.66796875,-21.484375,-32.71484375,-40.0390625,0.0
407.96484375,-0.48828125,-36.1328125,-22.94921875,-19.53125,-41.015625,0.0
407.96875,-29.296875,-36.62109375,-24.90234375,-29.78515625,-46.875,0.0
407.97265625,-53.22265625,-42.48046875,-33.69140625,-43.9453125,-123.046875,0.0
407.9765625,-54.19921875,-42.48046875,-37.109375,-47.36328125,-116.2109375,0.0
407.98046875,-19.53125,-31.73828125,-28.3203125,-39.0625,-20.5078125,0.0
407.984375,0.0,-29.78515625,-22.94921875,-29.296875,-52.24609375,0.0
407.98828125,-25.87890625,-33.69140625,-21.484375,-35.64453125,-112.79296875,0.0
407.9921875,-61.5234375,-37.59765625,-25.390625,-50.29296875,-88.37890625,0.0
407.99609375,-58.10546875,-34.1796875,-29.78515625,-51.26953125,-52.734375,0.0
408.0,-20.5078125,-31.25,-25.87890625,-38.57421875,-10.7421875,0.0
408.00390625,-7.32421875,-30.76171875,-16.11328125,-23.92578125,4.39453125,0.0
408.0078125,-25.87890625,-36.1328125,-15.13671875,-29.296875,0.9765625,0.0
408.01171875,-59.08203125,-45.41015625,-29.78515625,-44.921875,-4.39453125,0.0
408.015625,-65.91796875,-43.9453125,-35.64453125,-50.78125,-99.609375,0.0
408.01953125,-39.0625,-36.62109375,-35.64453125,-40.52734375,-184.08203125,0.0
408.0234375,-11.23046875,-34.66796875,-31.73828125,-25.87890625,-166.9921875,0.0
408.02734375,-12.20703125,-35.15625,-27.83203125,-20.99609375,-178.7109375,0.0
408.03125,-48.33984375,-42.96875,-34.1796875,-34.66796875,-184.08203125,0.0
408.03515625,-63.4765625,-50.29296875,-41.50390625,-41.50390625,-146.97265625,0.0
408.0390625,-39.55078125,-41.9921875,-42.48046875,-36.62109375,-129.39453125,0.0
408.04296875,-16.11328125,-36.62109375,-37.59765625,-31.73828125,-73.2421875,0.0
408.046875,-14.6484375,-39.0625,-32.71484375,-25.87890625,22.4609375,0.0
408.05078125,-45.8984375,-35.64453125,-33.203125,-31.25,-8.7890625,0.0
408.0546875,-64.453125,-32.2265625,-31.73828125,-39.0625,-36.62109375,0.0
408.05859375,-41.9921875,-35.15625,-28.80859375,-35.64453125,-44.43359375,0.0
408.0625,-10.25390625,-34.66796875,-26.85546875,-20.5078125,-49.8046875,0.0
408.06640625,-10.7421875,-31.25,-22.4609375,-15.13671875,-46.875,0.0
408.0703125,-47.8515625,-30.2734375,-22.4609375,-30.76171875,-9.765625,0.0
408.07421875,-67.87109375,-36.62109375,-29.78515625,-43.9453125,5.859375,0.0
408.078125,-48.828125,-37.59765625,-19.53125,-41.015625,12.6953125,0.0
408.08203125,-22.4609375,-30.76171875,-8.30078125,-32.2265625,-16.11328125,0.0
408.0859375,-16.11328125,-34.1796875,-20.99609375,-28.3203125,-48.33984375,0.0
408.08984375,-40.0390625,-38.57421875,-24.90234375,-37.59765625,1.953125,0.0
408.09375,-69.82421875,-35.15625,-11.71875,-43.9453125,23.4375,0.0
408.09765625,-54.19921875,-32.2265625,-13.18359375,-43.9453125,16.11328125,0.0
408.1015625,-9.765625,-28.3203125,-22.4609375,-27.34375,-42.48046875,0.0
408.10546875,-0.9765625,-28.3203125,-20.01953125,-14.6484375,-64.94140625,0.0
408.109375,-17.578125,-36.1328125,-27.34375,-37.59765625,0.9765625,0.0
408.11328125,-40.0390625,-40.0390625,-32.71484375,-49.31640625,26.3671875,0.0
408.1171875,-44.921875,-34.1796875,-29.296875,-35.15625,35.64453125,0.0
408.12109375,-19.04296875,-26.85546875,-23.92578125,-27.34375,3.41796875,0.0
408.125,0.0,-23.4375,-9.765625,-19.04296875,35.64453125,0.0
408.12890625,-15.13671875,-26.85546875,-15.13671875,-19.04296875,79.58984375,0.0
408.1328125,-43.9453125,-34.1796875,-29.296875,-29.296875,2.9296875,0.0
408.13671875,-43.9453125,-34.1796875,-32.71484375,-30.76171875,-16.6015625,0.0
408.140625,-20.01953125,-29.78515625,-29.296875,-27.83203125,-57.12890625,0.0
408.14453125,-6.34765625,-28.3203125,-25.87890625,-37.109375,-96.19140625,0.0
408.1484375,-22.94921875,-33.203125,-30.2734375,-32.2265625,-20.5078125,0.0
408.15234375,-52.24609375,-40.52734375,-27.34375,-41.015625,-30.2734375,0.0
408.15625,-57.12890625,-46.38671875,-25.390625,-49.31640625,-81.0546875,0.0
408.16015625,-16.6015625,-37.109375,-26.85546875,-40.52734375,3.90625,0.0
408.1640625,5.859375,-33.203125,-26.85546875,-24.90234375,7.32421875,0.0
408.16796875,-17.578125,-37.59765625,-20.5078125,-36.1328125,-40.52734375,0.0
408.171875,-51.26953125,-34.66796875,-16.11328125,-51.7578125,-6.34765625,0.0
408.17578125,-58.10546875,-39.55078125,-28.3203125,-50.29296875,-1.46484375,0.0
408.1796875,-27.83203125,-43.9453125,-28.80859375,-40.52734375,-36.1328125,0.0
408.18359375,-7.8125,-39.55078125,-26.3671875,-30.76171875,-26.3671875,0.0
408.1875,-23.4375,-37.109375,-29.296875,-37.59765625,-71.77734375,0.0
408.19140625,-45.8984375,-42.96875,-33.203125,-35.64453125,-173.828125,0.0
408.1953125,-53.22265625,-44.43359375,-33.203125,-46.875,-106.93359375,0.0
408.19921875,-40.0390625,-37.109375,-27.34375,-56.15234375,4.8828125,0.0
408.203125,-17.578125,-33.203125,-27.83203125,-30.2734375,27.34375,0.0
408.20703125,-18.5546875,-43.45703125,-31.25,-16.11328125,-1.953125,0.0
408.2109375,-52.734375,-49.8046875,-30.76171875,-43.9453125,-59.08203125,0.0
408.21484375,-67.87109375,-44.921875,-16.11328125,-61.5234375,-66.89453125,0.0
408.21875,-42.48046875,-40.52734375,-13.18359375,-51.26953125,-47.36328125,0.0
408.22265625,-7.32421875,-36.62109375,-24.90234375,-31.25,-74.21875,0.0
408.2265625,-2.44140625,-33.203125,-29.296875,-23.92578125,-41.015625,0.0
408.23046875,-41.9921875,-37.59765625,-31.73828125,-39.55078125,39.55078125,0.0
408.234375,-60.05859375,-41.50390625,-32.2265625,-46.38671875,49.31640625,0.0
408.23828125,-35.64453125,-38.57421875,-30.2734375,-30.76171875,-9.27734375,0.0
408.2421875,-10.25390625,-34.1796875,-25.87890625,-17.578125,-20.01953125,0.0
408.24609375,-14.6484375,-34.1796875,-27.83203125,-21.97265625,-21.97265625,0.0
408.25,-38.57421875,-43.45703125,-31.73828125,-40.52734375,-41.9921875,0.0
408.25390625,-59.08203125,-47.36328125,-40.52734375,-48.33984375,-75.68359375,0.0
408.2578125,-47.36328125,-44.43359375,-29.78515625,-33.203125,-31.73828125,0.0
408.26171875,-11.71875,-41.9921875,-16.11328125,-27.34375,14.6484375,0.0
408.265625,-2.44140625,-41.015625,-28.3203125,-30.76171875,18.5546875,0.0
408.26953125,-29.78515625,-38.57421875,-29.296875,-31.73828125,-26.3671875,0.0
408.2734375,-52.734375,-33.203125,-16.6015625,-33.69140625,30.76171875,0.0
408.27734375,-44.43359375,-40.0390625,-24.4140625,-47.8515625,83.984375,0.0
408.28125,-13.18359375,-38.0859375,-34.66796875,-42.96875,24.90234375,0.0
408.28515625,-6.8359375,-31.73828125,-25.390625,-25.87890625,-58.59375,0.0
408.2890625,-34.1796875,-38.0859375,-26.85546875,-40.0390625,-75.68359375,0.0
408.29296875,-53.7109375,-37.59765625,-32.71484375,-50.29296875,-58.10546875,0.0
408.296875,-55.17578125,-38.57421875,-34.66796875,-52.24609375,-7.8125,0.0
408.30078125,-28.3203125,-37.59765625,-27.83203125,-40.52734375,61.03515625,0.0
408.3046875,-5.37109375,-28.80859375,-24.90234375,-34.66796875,17.578125,0.0
408.30859375,-22.4609375,-33.203125,-32.71484375,-38.0859375,-24.4140625,0.0
408.3125,-49.8046875,-40.0390625,-33.69140625,-36.1328125,23.4375,0.0
408.31640625,-53.22265625,-37.59765625,-27.83203125,-32.71484375,19.04296875,0.0
408.3203125,-27.34375,-37.59765625,-18.5546875,-25.390625,-23.4375,0.0
408.32421875,-7.32421875,-35.64453125,-20.01953125,-25.390625,-37.109375,0.0
408.328125,-17.08984375,-32.71484375,-29.78515625,-28.80859375,9.765625,0.0
408.33203125,-36.62109375,-34.1796875,-33.203125,-39.55078125,-60.05859375,0.0
408.3359375,-47.36328125,-35.64453125,-32.71484375,-47.8515625,-206.0546875,0.0
408.33984375,-28.3203125,-28.80859375,-30.76171875,-35.64453125,-223.14453125,0.0
408.34375,-5.37109375,-26.3671875,-32.2265625,-21.97265625,-178.7109375,0.0
408.34765625,-13.18359375,-31.73828125,-36.1328125,-22.4609375,-134.27734375,0.0
408.3515625,-45.8984375,-40.52734375,-33.203125,-42.48046875,-163.0859375,0.0
408.35546875,-62.01171875,-44.43359375,-31.25,-48.828125,-153.80859375,0.0
408.359375,-47.36328125,-39.0625,-31.73828125,-37.59765625,-146.484375,0.0
408.36328125,-18.5546875,-33.203125,-18.5546875,-25.87890625,-212.40234375,0.0
408.3671875,-13.18359375,-32.71484375,-14.16015625,-23.4375,-190.91796875,0.0
408.37109375,-44.43359375,-35.15625,-26.85546875,-42.48046875,-181.15234375,0.0
408.375,-63.4765625,-35.15625,-28.80859375,-44.921875,-250.9765625,0.0
408.37890625,-50.29296875,-34.66796875,-25.390625,-38.57421875,-153.80859375,0.0
408.3828125,-17.08984375,-31.25,-22.94921875,-27.34375,8.30078125,0.0
408.38671875,-17.578125,-35.64453125,-24.4140625,-17.578125,39.55078125,0.0
408.390625,-47.36328125,-40.52734375,-24.90234375,-24.90234375,62.5,0.0
408.39453125,-63.4765625,-35.15625,-27.83203125,-38.0859375,78.61328125,0.0
408.3984375,-45.8984375,-28.3203125,-29.78515625,-45.41015625,165.0390625,0.0
408.40234375,-9.27734375,-26.3671875,-25.390625,-25.87890625,135.25390625,0.0
408.40625,-7.8125,-30.2734375,-20.5078125,-19.04296875,72.75390625,0.0
408.41015625,-43.9453125,-31.73828125,-21.484375,-29.296875,97.16796875,0.0
408.4140625,-59.5703125,-32.2265625,-26.85546875,-44.43359375,18.5546875,0.0
408.41796875,-41.50390625,-29.296875,-29.296875,-42.48046875,-37.109375,0.0
408.421875,-20.01953125,-28.3203125,-30.2734375,-33.203125,-78.125,0.0
408.42578125,-13.18359375,-32.71484375,-30.76171875,-23.92578125,-39.55078125,0.0
408.4296875,-34.66796875,-33.69140625,-31.73828125,-21.97265625,38.57421875,0.0
408.43359375,-60.546875,-38.57421875,-35.15625,-40.52734375,104.4921875,0.0
408.4375,-50.29296875,-41.9921875,-37.109375,-47.36328125,102.05078125,0.0
408.44140625,-23.92578125,-37.109375,-32.71484375,-39.55078125,101.5625,0.0
408.4453125,-17.08984375,-32.2265625,-29.78515625,-23.92578125,48.33984375,0.0
408.44921875,-37.59765625,-35.64453125,-36.62109375,-33.69140625,-68.84765625,0.0
408.453125,-66.40625,-41.9921875,-41.50390625,-53.22265625,-61.03515625,0.0
408.45703125,-62.98828125,-39.55078125,-38.57421875,-52.24609375,23.92578125,0.0
408.4609375,-23.4375,-33.203125,-32.2265625,-41.9921875,24.4140625,0.0
408.46484375,5.859375,-28.3203125,-30.2734375,-37.109375,-57.12890625,0.0
408.46875,-20.99609375,-32.71484375,-29.78515625,-52.24609375,-18.06640625,0.0
408.47265625,-53.22265625,-38.0859375,-31.73828125,-59.08203125,-8.7890625,0.0
408.4765625,-46.38671875,-39.0625,-36.1328125,-54.6875,-77.63671875,0.0
408.48046875,-19.04296875,-36.62109375,-36.1328125,-56.15234375,-25.87890625,0.0
408.484375,0.48828125,-26.85546875,-29.78515625,-40.52734375,47.8515625,0.0
408.48828125,-18.5546875,-31.25,-28.3203125,-27.83203125,57.6171875,0.0
408.4921875,-54.6875,-42.96875,-35.64453125,-36.62109375,-32.71484375,0.0
408.49609375,-72.265625,-41.50390625,-34.1796875,-34.66796875,-68.84765625,0.0
408.5,-42.96875,-40.0390625,-26.85546875,-30.2734375,-4.8828125,0.0
408.50390625,-10.7421875,-37.59765625,-22.4609375,-29.78515625,-22.4609375,0.0
408.5078125,-24.4140625,-36.1328125,-24.4140625,-26.3671875,-90.33203125,0.0
408.51171875,-60.05859375,-42.48046875,-35.64453125,-41.50390625,-91.796875,0.0
408.515625,-62.01171875,-40.52734375,-36.62109375,-50.78125,5.859375,0.0
408.51953125,-36.1328125,-35.64453125,-26.3671875,-30.2734375,40.0390625,0.0
408.5234375,-19.53125,-32.71484375,-22.4609375,-15.625,-66.40625,0.0
408.52734375,-23.4375,-27.34375,-21.97265625,-20.5078125,-121.09375,0.0
408.53125,-46.875,-30.76171875,-24.4140625,-29.78515625,-105.95703125,0.0
408.53515625,-64.453125,-34.66796875,-26.85546875,-37.59765625,-55.6640625,0.0
408.5390625,-47.36328125,-32.71484375,-24.90234375,-42.48046875,-43.9453125,0.0
408.54296875,-16.11328125,-30.76171875,-9.765625,-40.0390625,-9.765625,0.0
408.546875,-16.6015625,-31.25,8.30078125,-27.83203125,47.36328125,0.0
408.55078125,-53.7109375,-39.55078125,-9.27734375,-38.57421875,0.0,0.0
408.5546875,-75.68359375,-41.015625,-29.296875,-43.45703125,-72.75390625,0.0
408.55859375,-51.7578125,-41.50390625,-25.87890625,-28.80859375,-58.59375,0.0
408.5625,-23.4375,-41.9921875,-25.390625,-35.15625,-3.90625,0.0
408.56640625,-25.390625,-37.109375,-28.3203125,-29.296875,24.4140625,0.0
408.5703125,-50.78125,-29.296875,-27.83203125,-21.484375,17.08984375,0.0
408.57421875,-70.3125,-36.62109375,-30.2734375,-39.0625,-8.7890625,0.0
408.578125,-55.17578125,-43.45703125,-36.62109375,-51.7578125,-32.2265625,0.0
408.58203125,-25.390625,-35.64453125,-37.59765625,-40.52734375,-26.85546875,0.0
408.5859375,-16.6015625,-35.64453125,-30.2734375,-33.69140625,4.8828125,0.0
408.58984375,-40.52734375,-40.52734375,-24.90234375,-40.0390625,-19.04296875,0.0
408.59375,-66.40625,-39.55078125,-35.64453125,-44.921875,1.953125,0.0
408.59765625,-56.15234375,-34.66796875,-41.50390625,-47.36328125,-35.15625,0.0
408.6015625,-24.4140625,-28.80859375,-31.73828125,-47.8515625,-140.13671875,0.0
408.60546875,-12.20703125,-31.25,-27.34375,-46.38671875,-109.375,0.0
408.609375,-39.0625,-34.1796875,-32.2265625,-38.57421875,-103.02734375,0.0
408.61328125,-68.359375,-39.0625,-38.0859375,-44.921875,-91.796875,0.0
408.6171875,-57.6171875,-34.66796875,-37.59765625,-49.8046875,-35.64453125,0.0
408.62109375,-23.4375,-30.76171875,-33.203125,-42.48046875,-6.34765625,0.0
408.625,-10.25390625,-36.62109375,-33.69140625,-38.57421875,-39.0625,0.0
408.62890625,-27.34375,-33.203125,-41.015625,-44.921875,-67.3828125,0.0
408.6328125,-55.17578125,-31.73828125,-35.15625,-56.15234375,-8.30078125,0.0
408.63671875,-51.7578125,-27.34375,-24.90234375,-50.29296875,-4.8828125,0.0
408.640625,-27.34375,-20.01953125,-32.71484375,-39.0625,-25.87890625,0.0
408.64453125,-9.765625,-18.06640625,-35.64453125,-35.15625,-25.87890625,0.0
408.6484375,-26.85546875,-24.90234375,-26.85546875,-44.43359375,-69.3359375,0.0
408.65234375,-52.24609375,-27.34375,-29.78515625,-50.78125,-98.14453125,0.0
408.65625,-51.26953125,-22.94921875,-42.96875,-51.26953125,-61.03515625,0.0
408.66015625,-32.2265625,-27.83203125,-43.9453125,-46.875,-26.85546875,0.0
408.6640625,-11.71875,-25.87890625,-37.59765625,-28.80859375,-80.56640625,0.0
408.66796875,-30.2734375,-26.85546875,-32.2265625,-23.92578125,-84.47265625,0.0
408.671875,-69.3359375,-28.80859375,-32.71484375,-44.43359375,-38.0859375,0.0
408.67578125,-81.54296875,-25.390625,-30.2734375,-59.08203125,-41.9921875,0.0
408.6796875,-51.26953125,-22.4609375,-31.25,-51.26953125,-13.671875,0.0
408.68359375,-21.484375,-23.92578125,-30.76171875,-37.59765625,-34.1796875,0.0
408.6875,-36.1328125,-23.92578125,-27.83203125,-36.62109375,-94.23828125,0.0
408.69140625,-71.2890625,-22.4609375,-32.71484375,-44.43359375,-20.99609375,0.0
408.6953125,-91.796875,-26.3671875,-30.76171875,-55.17578125,50.29296875,0.0
408.69921875,-69.82421875,-26.3671875,-33.69140625,-58.59375,56.640625,0.0
408.703125,-25.87890625,-20.01953125,-35.64453125,-32.2265625,-45.8984375,0.0
408.70703125,-25.87890625,-19.04296875,-29.78515625,-21.484375,-75.1953125,0.0
408.7109375,-57.6171875,-20.99609375,-33.69140625,-43.9453125,-32.71484375,0.0
408.71484375,-70.3125,-16.11328125,-39.0625,-56.640625,-31.25,0.0
408.71875,-57.6171875,-20.01953125,-37.59765625,-50.78125,-13.18359375,0.0
408.72265625,-26.85546875,-24.4140625,-36.1328125,-38.57421875,23.4375,0.0
408.7265625,-17.578125,-24.90234375,-36.62109375,-37.59765625,6.8359375,0.0
408.73046875,-49.8046875,-24.90234375,-40.0390625,-47.8515625,-2.44140625,0.0
408.734375,-75.1953125,-27.34375,-47.36328125,-64.453125,-20.5078125,0.0
408.73828125,-48.828125,-22.4609375,-31.25,-57.6171875,4.8828125,0.0
408.7421875,-8.7890625,-14.16015625,-18.5546875,-29.78515625,-5.37109375,0.0
408.74609375,-6.8359375,-16.11328125,-35.64453125,-19.04296875,-73.2421875,0.0
408.75,-36.62109375,-27.34375,-45.41015625,-38.0859375,-58.59375,0.0
408.75390625,-63.96484375,-37.109375,-49.31640625,-45.41015625,-9.765625,0.0
408.7578125,-50.78125,-24.4140625,-43.45703125,-43.9453125,64.94140625,0.0
408.76171875,-20.99609375,-9.765625,-38.57421875,-38.57421875,11.71875,0.0
408.765625,-17.578125,-10.25390625,-36.62109375,-28.80859375,-10.7421875,0.0
408.76953125,-43.9453125,-22.94921875,-36.62109375,-30.2734375,46.875,0.0
408.7734375,-70.3125,-26.85546875,-41.015625,-43.45703125,66.89453125,0.0
408.77734375,-60.05859375,-19.53125,-41.50390625,-51.26953125,-12.20703125,0.0
408.78125,-27.83203125,-17.08984375,-36.1328125,-44.43359375,-120.1171875,0.0
408.78515625,-18.06640625,-18.5546875,-34.66796875,-34.1796875,-94.7265625,0.0
408.7890625,-30.76171875,-21.97265625,-39.55078125,-37.59765625,-63.96484375,0.0
408.79296875,-60.546875,-26.3671875,-45.41015625,-50.29296875,-104.4921875,0.0
408.796875,-64.453125,-26.85546875,-49.31640625,-45.41015625,-26.85546875,0.0
408.80078125,-30.2734375,-18.06640625,-44.921875,-34.66796875,-1.953125,0.0
408.8046875,-9.765625,-17.578125,-36.62109375,-33.69140625,-55.6640625,0.0
408.80859375,-20.5078125,-22.4609375,-36.62109375,-30.76171875,-46.38671875,0.0
408.8125,-48.33984375,-22.94921875,-41.50390625,-35.15625,25.87890625,0.0
408.81640625,-57.6171875,-21.97265625,-47.8515625,-46.875,11.71875,0.0
408.8203125,-27.34375,-18.06640625,-48.828125,-36.62109375,-52.734375,0.0
408.82421875,-5.37109375,-21.484375,-42.48046875,-27.34375,-39.0625,0.0
408.828125,-20.99609375,-21.484375,-38.57421875,-33.69140625,-39.55078125,0.0
408.83203125,-45.8984375,-22.94921875,-40.0390625,-39.0625,-54.6875,0.0
408.8359375,-56.15234375,-29.78515625,-45.8984375,-45.8984375,-78.61328125,0.0
408.83984375,-25.87890625,-27.83203125,-45.8984375,-41.50390625,17.578125,0.0
408.84375,1.46484375,-23.92578125,-43.9453125,-31.25,106.4453125,0.0
408.84765625,-25.390625,-25.87890625,-49.31640625,-34.1796875,29.296875,0.0
408.8515625,-56.640625,-30.2734375,-47.36328125,-45.41015625,-51.7578125,0.0
408.85546875,-69.82421875,-32.2265625,-45.8984375,-48.828125,-76.66015625,0.0
408.859375,-54.6875,-29.296875,-45.41015625,-41.9921875,-95.21484375,0.0
408.86328125,-20.99609375,-26.85546875,-39.55078125,-35.15625,-78.125,0.0
408.8671875,-28.3203125,-27.34375,-36.62109375,-36.1328125,-82.03125,0.0
408.87109375,-62.01171875,-25.87890625,-40.0390625,-48.33984375,-58.59375,0.0
408.875,-69.82421875,-32.71484375,-47.8515625,-54.19921875,9.765625,0.0
408.87890625,-41.9921875,-36.62109375,-44.43359375,-37.59765625,-95.703125,0.0
408.8828125,-12.20703125,-24.90234375,-36.62109375,-28.80859375,-183.10546875,0.0
408.88671875,-11.23046875,-23.92578125,-38.57421875,-33.203125,-104.4921875,0.0
408.890625,-39.0625,-35.64453125,-42.96875,-40.0390625,-83.0078125,0.0
408.89453125,-55.17578125,-34.1796875,-40.0390625,-50.78125,-160.64453125,0.0
408.8984375,-33.203125,-21.484375,-36.1328125,-45.41015625,-120.1171875,0.0
408.90234375,-10.7421875,-20.5078125,-36.62109375,-38.0859375,36.1328125,0.0
408.90625,-2.9296875,-27.83203125,-40.0390625,-34.1796875,94.23828125,0.0
408.91015625,-22.94921875,-30.2734375,-43.45703125,-45.41015625,42.96875,0.0
408.9140625,-44.921875,-29.78515625,-42.96875,-44.43359375,-17.578125,0.0
408.91796875,-35.64453125,-26.85546875,-36.62109375,-42.96875,-108.3984375,0.0
408.921875,-8.7890625,-22.94921875,-33.69140625,-42.96875,-61.5234375,0.0
408.92578125,2.44140625,-21.97265625,-34.1796875,-24.90234375,-9.765625,0.0
408.9296875,-23.4375,-21.97265625,-32.71484375,-23.4375,-21.97265625,0.0
408.93359375,-54.19921875,-21.97265625,-38.57421875,-36.1328125,28.3203125,0.0
408.9375,-40.52734375,-27.34375,-42.96875,-38.57421875,10.7421875,0.0
408.94140625,-11.23046875,-28.3203125,-40.52734375,-30.2734375,-21.484375,0.0
408.9453125,-6.34765625,-22.4609375,-35.64453125,-23.92578125,0.9765625,0.0
408.94921875,-26.3671875,-25.87890625,-32.71484375,-28.80859375,-54.6875,0.0
408.953125,-56.640625,-27.34375,-36.1328125,-41.015625,-61.03515625,0.0
408.95703125,-50.29296875,-16.11328125,-38.0859375,-45.8984375,-26.85546875,0.0
408.9609375,-15.13671875,-13.671875,-35.15625,-39.55078125,-5.37109375,0.0
408.96484375,2.44140625,-18.5546875,-27.83203125,-35.15625,-57.6171875,0.0
408.96875,-23.4375,-24.90234375,-31.25,-40.0390625,-148.92578125,0.0
408.97265625,-62.5,-33.203125,-41.50390625,-41.50390625,-125.0,0.0
408.9765625,-65.4296875,-30.76171875,-43.45703125,-42.48046875,-75.68359375,0.0
408.98046875,-33.203125,-18.5546875,-39.55078125,-29.296875,-98.14453125,0.0
408.984375,-11.71875,-15.625,-37.109375,-25.87890625,-107.421875,0.0
408.98828125,-26.3671875,-19.53125,-35.64453125,-40.0390625,-14.16015625,0.0
408.9921875,-49.31640625,-25.87890625,-35.64453125,-42.96875,41.50390625,0.0
408.99609375,-61.5234375,-35.15625,-39.55078125,-46.875,24.90234375,0.0
409.0,-37.59765625,-24.4140625,-41.9921875,-36.62109375,-6.8359375,0.0
409.00390625,-1.46484375,-17.578125,-37.59765625,-23.92578125,6.8359375,0.0
409.0078125,-6.8359375,-23.92578125,-28.3203125,-27.83203125,23.4375,0.0
409.01171875,-45.8984375,-31.25,-33.203125,-37.59765625,-26.3671875,0.0
409.015625,-62.98828125,-36.1328125,-44.43359375,-46.38671875,-4.8828125,0.0
409.01953125,-34.66796875,-31.73828125,-39.55078125,-38.0859375,19.53125,0.0
409.0234375,-5.859375,-28.3203125,-36.1328125,-24.4140625,-17.578125,0.0
409.02734375,-17.578125,-28.80859375,-39.0625,-27.34375,-50.78125,0.0
409.03125,-53.7109375,-35.15625,-42.96875,-35.64453125,-10.7421875,0.0
409.03515625,-62.5,-41.015625,-45.8984375,-39.55078125,-1.46484375,0.0
409.0390625,-39.55078125,-34.1796875,-41.9921875,-40.52734375,-7.32421875,0.0
409.04296875,-17.08984375,-34.66796875,-39.55078125,-24.4140625,0.48828125,0.0
409.046875,-17.08984375,-35.64453125,-39.0625,-20.99609375,-20.99609375,0.0
409.05078125,-47.36328125,-34.1796875,-32.71484375,-36.1328125,-9.765625,0.0
409.0546875,-63.4765625,-36.62109375,-31.73828125,-32.71484375,20.5078125,0.0
409.05859375,-51.26953125,-34.1796875,-36.62109375,-42.48046875,-17.578125,0.0
409.0625,-20.99609375,-27.34375,-34.66796875,-43.45703125,-23.4375,0.0
409.06640625,-10.25390625,-20.5078125,-30.76171875,-29.78515625,3.90625,0.0
409.0703125,-42.96875,-25.390625,-33.203125,-41.9921875,-30.2734375,0.0
409.07421875,-70.80078125,-35.15625,-41.015625,-53.22265625,-37.109375,0.0
409.078125,-56.640625,-34.66796875,-43.9453125,-50.78125,-105.46875,0.0
409.08203125,-12.20703125,-25.390625,-34.66796875,-37.109375,-145.5078125,0.0
409.0859375,-5.37109375,-24.4140625,-31.25,-26.85546875,-102.05078125,0.0
409.08984375,-36.1328125,-41.50390625,-40.52734375,-36.1328125,-130.37109375,0.0
409.09375,-58.59375,-43.45703125,-45.41015625,-47.36328125,-176.7578125,0.0
409.09765625,-49.31640625,-31.25,-37.59765625,-48.33984375,-85.44921875,0.0
409.1015625,-18.5546875,-27.34375,-34.1796875,-42.96875,-16.6015625,0.0
409.10546875,-10.7421875,-27.83203125,-40.0390625,-31.73828125,-9.27734375,0.0
409.109375,-38.57421875,-33.69140625,-40.0390625,-35.15625,-89.35546875,0.0
409.11328125,-67.87109375,-37.109375,-37.109375,-45.8984375,-154.78515625,0.0
409.1171875,-66.40625,-35.64453125,-36.62109375,-47.36328125,-125.9765625,0.0
409.12109375,-36.62109375,-32.2265625,-35.64453125,-39.0625,-14.6484375,0.0
409.125,-21.97265625,-31.25,-33.69140625,-28.3203125,-30.76171875,0.0
409.12890625,-35.15625,-33.203125,-38.57421875,-32.2265625,-101.07421875,0.0
409.1328125,-66.89453125,-35.64453125,-43.45703125,-47.36328125,-57.12890625,0.0
409.13671875,-74.70703125,-33.203125,-42.96875,-53.22265625,-18.5546875,0.0
409.140625,-31.25,-24.4140625,-39.0625,-32.71484375,-5.37109375,0.0
409.14453125,-15.13671875,-26.3671875,-34.66796875,-22.4609375,-10.25390625,0.0
409.1484375,-33.69140625,-29.296875,-35.64453125,-29.296875,-52.734375,0.0
409.15234375,-58.10546875,-32.71484375,-42.96875,-39.0625,-39.55078125,0.0
409.15625,-60.546875,-34.66796875,-41.015625,-45.41015625,25.390625,0.0
409.16015625,-28.80859375,-20.01953125,-31.25,-30.76171875,45.8984375,0.0
409.1640625,-10.25390625,-16.11328125,-31.73828125,-22.4609375,13.18359375,0.0
409.16796875,-13.18359375,-25.390625,-33.203125,-21.484375,-25.390625,0.0
409.171875,-42.96875,-35.15625,-37.109375,-38.57421875,-76.171875,0.0
409.17578125,-62.98828125,-34.66796875,-37.59765625,-51.7578125,-40.52734375,0.0
409.1796875,-40.0390625,-31.25,-34.66796875,-47.8515625,-15.13671875,0.0
409.18359375,-12.6953125,-24.90234375,-34.66796875,-43.9453125,-25.390625,0.0
409.1875,-14.16015625,-20.99609375,-36.1328125,-41.015625,-38.57421875,0.0
409.19140625,-35.64453125,-24.4140625,-40.52734375,-49.31640625,-24.4140625,0.0
409.1953125,-42.48046875,-22.94921875,-39.55078125,-51.7578125,42.96875,0.0
409.19921875,-18.06640625,-26.85546875,-45.41015625,-62.01171875,86.9140625,0.0
409.203125,7.32421875,-27.83203125,-35.64453125,-65.4296875,69.3359375,0.0
409.20703125,3.90625,-22.4609375,-12.20703125,-50.29296875,51.26953125,0.0
409.2109375,-24.90234375,-25.87890625,-20.5078125,-50.78125,18.5546875,0.0
409.21484375,-49.8046875,-35.64453125,-37.109375,-56.640625,38.57421875,0.0
409.21875,-42.96875,-37.59765625,-38.57421875,-51.26953125,41.015625,0.0
409.22265625,-18.06640625,-32.71484375,-31.73828125,-40.0390625,-98.14453125,0.0
409.2265625,-16.6015625,-31.25,-29.296875,-29.78515625,-73.73046875,0.0
409.23046875,-47.8515625,-31.25,-34.1796875,-30.2734375,-4.39453125,0.0
409.234375,-67.3828125,-36.62109375,-36.1328125,-41.9921875,-29.78515625,0.0
409.23828125,-55.17578125,-35.15625,-30.76171875,-31.25,-32.71484375,0.0
409.2421875,-21.97265625,-20.01953125,-25.87890625,-20.99609375,-7.8125,0.0
409.24609375,-9.27734375,-22.4609375,-24.4140625,-26.85546875,47.8515625,0.0
409.25,-42.96875,-34.66796875,-26.85546875,-31.73828125,3.41796875,0.0
409.25390625,-74.21875,-40.0390625,-34.66796875,-45.8984375,-59.08203125,0.0
409.2578125,-67.3828125,-39.55078125,-41.015625,-56.15234375,17.08984375,0.0
409.26171875,-30.2734375,-25.87890625,-29.78515625,-34.1796875,-27.34375,0.0
409.265625,-9.765625,-26.85546875,-22.94921875,-24.90234375,-103.515625,0.0
409.26953125,-33.203125,-30.76171875,-31.25,-31.25,-43.45703125,0.0
409.2734375,-56.15234375,-29.78515625,-35.64453125,-34.1796875,30.76171875,0.0
409.27734375,-56.640625,-36.62109375,-41.015625,-42.48046875,66.89453125,0.0
409.28125,-33.69140625,-32.2265625,-39.55078125,-40.52734375,-15.625,0.0
409.28515625,-11.71875,-26.85546875,-34.1796875,-28.3203125,-127.9296875,0.0
409.2890625,-30.76171875,-27.83203125,-34.1796875,-29.296875,-83.49609375,0.0
409.29296875,-61.5234375,-28.80859375,-31.25,-41.015625,-44.43359375,0.0
409.296875,-59.5703125,-32.71484375,-26.3671875,-41.015625,-80.56640625,0.0
409.30078125,-26.85546875,-29.78515625,-30.76171875,-29.296875,-19.53125,0.0
409.3046875,-6.8359375,-26.3671875,-34.1796875,-17.08984375,-33.69140625,0.0
409.30859375,-22.94921875,-27.34375,-36.1328125,-21.484375,-39.0625,0.0
409.3125,-54.19921875,-31.25,-38.57421875,-37.59765625,-48.828125,0.0
409.31640625,-58.59375,-37.59765625,-38.0859375,-44.43359375,-73.73046875,0.0
409.3203125,-25.87890625,-32.2265625,-34.66796875,-36.1328125,-3.41796875,0.0
409.32421875,-9.765625,-27.34375,-29.296875,-24.90234375,-21.484375,0.0
409.328125,-22.4609375,-31.25,-29.296875,-21.484375,-83.0078125,0.0
409.33203125,-54.19921875,-38.0859375,-36.1328125,-39.0625,-56.640625,0.0
409.3359375,-64.453125,-36.62109375,-34.1796875,-43.45703125,-30.76171875,0.0
409.33984375,-24.4140625,-29.296875,-21.484375,-30.76171875,-0.9765625,0.0
409.34375,6.34765625,-26.85546875,-26.85546875,-24.90234375,-22.94921875,0.0
409.34765625,-12.6953125,-30.76171875,-39.0625,-28.3203125,-49.31640625,0.0
409.3515625,-52.24609375,-37.59765625,-43.45703125,-44.921875,-12.20703125,0.0
409.35546875,-76.171875,-46.38671875,-43.45703125,-57.6171875,-23.4375,0.0
409.359375,-55.6640625,-41.9921875,-37.109375,-48.828125,-16.6015625,0.0
409.36328125,-17.578125,-28.3203125,-30.76171875,-31.25,-90.33203125,0.0
409.3671875,-24.4140625,-26.85546875,-27.83203125,-30.2734375,-128.90625,0.0
409.37109375,-57.6171875,-34.66796875,-32.71484375,-48.828125,-63.4765625,0.0
409.375,-66.89453125,-33.203125,-40.52734375,-56.15234375,-51.26953125,0.0
409.37890625,-40.0390625,-30.2734375,-37.59765625,-46.38671875,-64.453125,0.0
409.3828125,-2.44140625,-28.3203125,-25.390625,-36.1328125,-79.58984375,0.0
409.38671875,1.953125,-26.85546875,-20.5078125,-25.87890625,-42.96875,0.0
409.390625,-33.69140625,-36.62109375,-28.3203125,-38.57421875,-73.73046875,0.0
409.39453125,-55.6640625,-40.0390625,-36.1328125,-49.31640625,-170.41015625,0.0
409.3984375,-37.109375,-36.1328125,-27.34375,-37.59765625,-106.4453125,0.0
409.40234375,-3.90625,-25.87890625,-18.5546875,-30.2734375,13.671875,0.0
409.40625,7.8125,-21.484375,-28.80859375,-28.80859375,-22.94921875,0.0
409.41015625,-23.92578125,-28.3203125,-36.1328125,-33.69140625,-72.75390625,0.0
409.4140625,-44.921875,-26.85546875,-35.64453125,-40.0390625,-53.7109375,0.0
409.41796875,-36.1328125,-27.83203125,-36.1328125,-39.0625,-43.9453125,0.0
409.421875,-12.20703125,-34.1796875,-38.57421875,-29.296875,-25.87890625,0.0
409.42578125,-5.37109375,-29.296875,-34.1796875,-32.2265625,-46.875,0.0
409.4296875,-33.203125,-23.92578125,-26.85546875,-38.0859375,-76.171875,0.0
409.43359375,-60.05859375,-33.203125,-34.66796875,-41.9921875,-50.78125,0.0
409.4375,-57.12890625,-38.0859375,-44.921875,-40.52734375,-78.61328125,0.0
409.44140625,-24.90234375,-32.2265625,-35.15625,-33.69140625,-71.2890625,0.0
409.4453125,-10.25390625,-30.2734375,-16.6015625,-41.50390625,7.8125,0.0
409.44921875,-28.80859375,-34.66796875,-28.3203125,-44.921875,-16.11328125,0.0
409.453125,-55.6640625,-35.64453125,-42.96875,-49.8046875,-127.9296875,0.0
409.45703125,-57.12890625,-32.71484375,-42.48046875,-57.12890625,-122.0703125,0.0
409.4609375,-23.92578125,-33.203125,-39.0625,-44.43359375,-72.265625,0.0
409.46484375,-9.765625,-30.76171875,-41.015625,-28.3203125,-113.28125,0.0
409.46875,-30.76171875,-25.390625,-41.015625,-31.73828125,-114.2578125,0.0
409.47265625,-62.5,-27.83203125,-37.59765625,-46.38671875,-76.171875,0.0
409.4765625,-75.1953125,-35.64453125,-40.0390625,-57.12890625,-39.55078125,0.0
409.48046875,-50.29296875,-33.203125,-33.203125,-50.78125,-32.71484375,0.0
409.484375,-23.4375,-25.87890625,-29.78515625,-31.73828125,-64.453125,0.0
409.48828125,-32.71484375,-29.296875,-23.92578125,-30.2734375,-72.75390625,0.0
409.4921875,-60.546875,-34.66796875,-20.5078125,-41.9921875,-29.296875,0.0
409.49609375,-65.91796875,-37.59765625,-36.1328125,-42.96875,34.66796875,0.0
409.5,-36.1328125,-35.64453125,-37.59765625,-34.66796875,17.578125,0.0
409.50390625,-13.18359375,-30.2734375,-34.66796875,-32.2265625,-16.11328125,0.0
409.5078125,-24.90234375,-34.1796875,-37.109375,-32.71484375,-12.6953125,0.0
409.51171875,-43.45703125,-37.59765625,-34.1796875,-34.1796875,-16.6015625,0.0
409.515625,-51.26953125,-37.109375,-38.0859375,-40.0390625,5.37109375,0.0
409.51953125,-37.59765625,-34.1796875,-38.57421875,-36.62109375,0.0,0.0
409.5234375,-9.27734375,-25.87890625,-32.71484375,-26.3671875,-27.34375,0.0
409.52734375,-17.08984375,-26.3671875,-34.66796875,-26.3671875,-53.22265625,0.0
409.53125,-51.7578125,-31.73828125,-35.15625,-38.57421875,-77.63671875,0.0
409.53515625,-70.3125,-33.203125,-30.2734375,-53.7109375,36.62109375,0.0
409.5390625,-53.7109375,-25.87890625,-33.203125,-41.9921875,20.5078125,0.0
409.54296875,-18.06640625,-21.484375,-36.62109375,-26.3671875,17.578125,0.0
409.546875,-20.01953125,-30.76171875,-32.71484375,-33.69140625,-5.859375,0.0
409.55078125,-46.38671875,-35.64453125,-29.296875,-45.41015625,-112.3046875,0.0
409.5546875,-59.5703125,-33.69140625,-32.71484375,-50.29296875,-22.94921875,0.0
409.55859375,-50.78125,-33.69140625,-37.109375,-50.78125,1.953125,0.0
409.5625,-16.6015625,-28.3203125,-34.1796875,-33.69140625,-65.4296875,0.0
409.56640625,-6.34765625,-21.484375,-29.296875,-22.94921875,-61.03515625,0.0
409.5703125,-36.1328125,-24.90234375,-37.109375,-32.71484375,-34.66796875,0.0
409.57421875,-59.08203125,-30.76171875,-42.96875,-42.96875,10.25390625,0.0
409.578125,-45.8984375,-31.73828125,-39.0625,-42.96875,7.32421875,0.0
409.58203125,-13.671875,-33.203125,-33.203125,-30.76171875,-50.29296875,0.0
409.5859375,-4.8828125,-29.78515625,-29.78515625,-27.83203125,6.34765625,0.0
409.58984375,-22.94921875,-29.296875,-37.109375,-36.1328125,64.94140625,0.0
409.59375,-54.6875,-36.1328125,-41.015625,-47.8515625,7.8125,0.0
409.59765625,-60.05859375,-37.109375,-37.59765625,-49.8046875,31.73828125,0.0
409.6015625,-28.80859375,-32.71484375,-40.0390625,-37.59765625,73.2421875,0.0
409.60546875,-15.625,-29.296875,-37.59765625,-32.71484375,0.0,0.0
409.609375,-36.1328125,-33.69140625,-39.55078125,-29.78515625,-51.7578125,0.0
409.61328125,-62.01171875,-41.015625,-43.45703125,-44.921875,-69.3359375,0.0
409.6171875,-55.6640625,-35.64453125,-40.52734375,-52.24609375,-24.4140625,0.0
409.62109375,-22.94921875,-31.73828125,-36.1328125,-32.71484375,-2.9296875,0.0
409.625,-3.90625,-28.3203125,-28.80859375,-28.3203125,-72.75390625,0.0
409.62890625,-30.2734375,-30.2734375,-29.78515625,-35.64453125,-110.3515625,0.0
409.6328125,-62.98828125,-42.96875,-44.43359375,-46.38671875,-34.66796875,0.0
409.63671875,-58.59375,-41.9921875,-45.8984375,-43.9453125,-105.95703125,0.0
409.640625,-29.296875,-35.15625,-36.62109375,-34.1796875,-152.34375,0.0
409.64453125,-14.16015625,-34.66796875,-38.57421875,-30.76171875,-85.44921875,0.0
409.6484375,-27.83203125,-35.15625,-41.50390625,-29.296875,-51.7578125,0.0
409.65234375,-53.22265625,-38.57421875,-42.96875,-29.78515625,-111.328125,0.0
409.65625,-59.5703125,-39.0625,-43.45703125,-36.1328125,-85.9375,0.0
409.66015625,-35.64453125,-33.203125,-37.109375,-43.45703125,114.2578125,0.0
409.6640625,-10.7421875,-34.1796875,-34.1796875,-27.34375,69.3359375,0.0
409.66796875,-20.5078125,-35.64453125,-31.73828125,-22.4609375,-60.546875,0.0
409.671875,-52.24609375,-32.71484375,-26.85546875,-34.1796875,-4.39453125,0.0
409.67578125,-68.84765625,-31.25,-37.109375,-45.41015625,21.484375,0.0
409.6796875,-42.96875,-34.1796875,-43.45703125,-45.41015625,-42.48046875,0.0
409.68359375,-16.11328125,-34.1796875,-36.1328125,-27.83203125,-28.3203125,0.0
409.6875,-23.92578125,-28.3203125,-39.0625,-24.4140625,-15.625,0.0
409.69140625,-49.8046875,-29.78515625,-44.921875,-33.69140625,-0.9765625,0.0
409.6953125,-69.3359375,-33.203125,-48.33984375,-47.8515625,0.0,0.0
409.69921875,-45.8984375,-32.71484375,-46.38671875,-48.33984375,-59.5703125,0.0
409.703125,-13.671875,-29.296875,-34.66796875,-30.2734375,-59.08203125,0.0
409.70703125,-16.6015625,-29.296875,-33.69140625,-28.80859375,-42.48046875,0.0
409.7109375,-39.55078125,-28.3203125,-36.1328125,-29.78515625,-87.890625,0.0
409.71484375,-56.15234375,-32.2265625,-29.78515625,-40.52734375,-100.09765625,0.0
409.71875,-44.43359375,-36.62109375,-36.1328125,-49.31640625,-83.49609375,0.0
409.72265625,-15.13671875,-31.25,-38.0859375,-40.0390625,0.9765625,0.0
409.7265625,-16.6015625,-36.1328125,-32.2265625,-37.109375,24.4140625,0.0
409.73046875,-50.78125,-42.48046875,-36.62109375,-43.9453125,-41.50390625,0.0
409.734375,-66.89453125,-38.0859375,-38.57421875,-48.33984375,1.953125,0.0
409.73828125,-53.22265625,-31.73828125,-40.52734375,-47.36328125,-30.76171875,0.0
409.7421875,-24.90234375,-22.94921875,-38.0859375,-50.29296875,-71.2890625,0.0
409.74609375,-9.27734375,-24.4140625,-31.25,-41.50390625,-53.22265625,0.0
409.75,-29.78515625,-30.2734375,-35.15625,-35.64453125,-46.875,0.0
409.75390625,-58.59375,-32.71484375,-40.0390625,-47.36328125,-57.6171875,0.0
409.7578125,-54.19921875,-35.15625,-34.1796875,-43.9453125,-109.375,0.0
409.76171875,-29.78515625,-34.66796875,-35.15625,-30.2734375,-82.51953125,0.0
409.765625,-13.18359375,-28.80859375,-29.78515625,-21.97265625,0.0,0.0
409.76953125,-26.3671875,-29.296875,-26.3671875,-31.73828125,-28.3203125,0.0
409.7734375,-58.59375,-34.1796875,-34.1796875,-49.31640625,25.390625,0.0
409.77734375,-52.734375,-34.66796875,-36.1328125,-52.734375,44.43359375,0.0
409.78125,-16.11328125,-28.80859375,-36.62109375,-41.015625,-73.2421875,0.0
409.78515625,-4.8828125,-23.92578125,-35.15625,-25.87890625,-125.48828125,0.0
409.7890625,-22.94921875,-28.80859375,-35.15625,-38.0859375,-36.62109375,0.0
409.79296875,-56.15234375,-34.66796875,-38.57421875,-50.29296875,-1.46484375,0.0
409.796875,-58.10546875,-38.0859375,-40.0390625,-48.828125,-14.16015625,0.0
409.80078125,-23.92578125,-35.64453125,-32.2265625,-49.31640625,-34.66796875,0.0
409.8046875,-1.46484375,-22.94921875,-23.4375,-37.109375,-56.640625,0.0
409.80859375,-13.671875,-20.01953125,-24.90234375,-30.2734375,-57.12890625,0.0
409.8125,-46.875,-26.3671875,-31.73828125,-41.015625,-52.734375,0.0
409.81640625,-49.31640625,-26.3671875,-34.1796875,-41.50390625,-17.578125,0.0
409.8203125,-25.390625,-26.3671875,-32.71484375,-34.66796875,54.19921875,0.0
409.82421875,-0.48828125,-28.80859375,-28.80859375,-23.92578125,17.08984375,0.0
409.828125,-5.37109375,-25.390625,-26.85546875,-19.53125,-104.98046875,0.0
409.83203125,-39.0625,-28.3203125,-30.76171875,-34.1796875,-107.421875,0.0
409.8359375,-53.7109375,-30.2734375,-34.1796875,-39.0625,-31.73828125,0.0
409.83984375,-29.296875,-24.90234375,-35.64453125,-22.94921875,-17.578125,0.0
409.84375,-2.9296875,-25.87890625,-35.15625,-19.53125,-76.66015625,0.0
409.84765625,-14.6484375,-26.85546875,-29.296875,-27.34375,-56.15234375,0.0
409.8515625,-46.38671875,-27.34375,-30.2734375,-32.71484375,-38.57421875,0.0
409.85546875,-63.4765625,-33.69140625,-37.59765625,-49.31640625,-88.8671875,0.0
409.859375,-44.43359375,-35.64453125,-39.55078125,-46.875,-52.734375,0.0
409.86328125,-15.13671875,-33.69140625,-33.69140625,-31.25,-39.0625,0.0
409.8671875,-14.16015625,-31.73828125,-32.2265625,-28.80859375,-75.68359375,0.0
409.87109375,-44.921875,-37.109375,-35.64453125,-39.0625,-77.1484375,0.0
409.875,-69.82421875,-40.52734375,-39.55078125,-50.78125,-6.34765625,0.0
409.87890625,-50.78125,-30.76171875,-36.62109375,-47.36328125,-85.44921875,0.0
409.8828125,-24.4140625,-29.296875,-34.1796875,-41.9921875,-260.7421875,0.0
409.88671875,-28.3203125,-34.66796875,-38.0859375,-43.9453125,-295.8984375,0.0
409.890625,-56.15234375,-35.64453125,-40.0390625,-56.15234375,-188.96484375,0.0
409.89453125,-75.1953125,-37.59765625,-42.48046875,-64.94140625,-7.32421875,0.0
409.8984375,-56.640625,-33.203125,-41.9921875,-62.5,118.1640625,0.0
409.90234375,-18.06640625,-22.94921875,-37.59765625,-43.45703125,114.2578125,0.0
409.90625,-4.8828125,-19.04296875,-34.1796875,-28.80859375,-7.8125,0.0
409.91015625,-37.109375,-24.90234375,-41.015625,-47.36328125,-49.31640625,0.0
409.9140625,-57.6171875,-27.34375,-45.8984375,-66.40625,-12.20703125,0.0
409.91796875,-28.80859375,-26.85546875,-41.50390625,-62.5,-13.671875,0.0
409.921875,9.27734375,-24.4140625,-37.109375,-52.734375,-37.59765625,0.0
409.92578125,13.18359375,-20.01953125,-38.0859375,-45.8984375,-48.828125,0.0
409.9296875,-9.765625,-19.53125,-41.9921875,-40.52734375,-65.4296875,0.0
409.93359375,-41.9921875,-26.85546875,-50.78125,-58.10546875,-61.5234375,0.0
409.9375,-50.29296875,-33.203125,-42.48046875,-62.01171875,-74.70703125,0.0
409.94140625,-20.01953125,-27.34375,-29.296875,-38.57421875,-108.88671875,0.0
409.9453125,-6.8359375,-23.92578125,-23.92578125,-23.92578125,-85.9375,0.0
409.94921875,-30.2734375,-23.4375,-22.4609375,-26.3671875,-24.4140625,0.0
409.953125,-61.5234375,-30.2734375,-32.71484375,-47.36328125,1.46484375,0.0
409.95703125,-69.3359375,-37.109375,-41.50390625,-60.05859375,43.45703125,0.0
409.9609375,-36.1328125,-30.2734375,-39.0625,-51.26953125,-14.16015625,0.0
409.96484375,-11.23046875,-30.2734375,-34.1796875,-35.64453125,-19.04296875,0.0
409.96875,-36.1328125,-31.73828125,-34.66796875,-38.57421875,36.62109375,0.0
409.97265625,-67.3828125,-31.73828125,-34.1796875,-47.36328125,62.5,0.0
409.9765625,-70.80078125,-36.62109375,-35.15625,-55.6640625,52.24609375,0.0
409.98046875,-40.52734375,-28.80859375,-31.73828125,-40.52734375,3.90625,0.0
409.984375,-16.11328125,-25.390625,-25.390625,-15.625,-38.57421875,0.0
409.98828125,-24.4140625,-31.73828125,-26.85546875,-24.90234375,-137.6953125,0.0
409.9921875,-48.828125,-37.59765625,-32.2265625,-38.0859375,-94.7265625,0.0
409.99609375,-59.5703125,-40.0390625,-35.15625,-40.52734375,-19.53125,0.0
410.0,-33.203125,-32.71484375,-30.2734375,-35.15625,-46.875,0.0
410.00390625,-1.953125,-25.87890625,-26.3671875,-16.11328125,-37.59765625,0.0
410.0078125,-10.7421875,-30.2734375,-28.3203125,-22.4609375,-38.0859375,0.0
410.01171875,-51.26953125,-35.15625,-33.203125,-42.96875,-131.8359375,0.0
410.015625,-73.2421875,-32.71484375,-32.71484375,-45.8984375,-151.3671875,0.0
410.01953125,-53.22265625,-32.2265625,-28.3203125,-41.015625,-108.3984375,0.0
410.0234375,-22.4609375,-27.83203125,-30.76171875,-36.62109375,-187.98828125,0.0
410.02734375,-21.484375,-24.4140625,-29.296875,-33.203125,-148.92578125,0.0
410.03125,-52.24609375,-30.2734375,-31.25,-44.921875,-72.265625,0.0
410.03515625,-65.91796875,-32.71484375,-38.57421875,-58.59375,-102.05078125,0.0
410.0390625,-45.41015625,-36.1328125,-37.59765625,-55.17578125,-104.98046875,0.0
410.04296875,-10.7421875,-32.71484375,-30.2734375,-43.45703125,-45.41015625,0.0
410.046875,-8.30078125,-31.73828125,-29.296875,-42.48046875,2.9296875,0.0
410.05078125,-43.9453125,-39.55078125,-38.57421875,-52.734375,-4.39453125,0.0
410.0546875,-61.03515625,-39.0625,-38.57421875,-52.734375,37.109375,0.0
410.05859375,-46.38671875,-37.59765625,-38.0859375,-55.17578125,43.45703125,0.0
410.0625,-20.99609375,-35.64453125,-35.64453125,-41.50390625,-49.31640625,0.0
410.06640625,-19.53125,-37.59765625,-33.69140625,-26.3671875,-88.8671875,0.0
410.0703125,-48.33984375,-43.9453125,-38.0859375,-42.48046875,-78.61328125,0.0
410.07421875,-71.77734375,-47.36328125,-46.38671875,-52.734375,-62.5,0.0
410.078125,-56.640625,-43.9453125,-46.38671875,-49.31640625,-41.50390625,0.0
410.08203125,-15.13671875,-27.34375,-38.0859375,-32.71484375,-34.66796875,0.0
410.0859375,-4.39453125,-23.92578125,-35.15625,-20.01953125,-53.22265625,0.0
410.08984375,-32.71484375,-32.71484375,-37.109375,-24.90234375,-64.94140625,0.0
410.09375,-58.10546875,-33.69140625,-38.0859375,-31.25,-38.57421875,0.0
410.09765625,-51.7578125,-34.1796875,-37.109375,-39.0625,-21.97265625,0.0
410.1015625,-27.83203125,-33.69140625,-33.69140625,-41.9921875,-31.73828125,0.0
410.10546875,-11.71875,-37.59765625,-34.66796875,-40.0390625,35.64453125,0.0
410.109375,-28.80859375,-41.50390625,-38.57421875,-41.50390625,91.30859375,0.0
410.11328125,-62.01171875,-44.921875,-42.96875,-46.38671875,5.859375,0.0
410.1171875,-61.03515625,-40.0390625,-41.50390625,-50.29296875,-36.62109375,0.0
410.12109375,-29.296875,-28.80859375,-33.203125,-37.59765625,-21.97265625,0.0
410.125,-10.25390625,-32.2265625,-36.62109375,-32.2265625,38.57421875,0.0
410.12890625,-27.83203125,-35.64453125,-42.96875,-40.0390625,-10.25390625,0.0
410.1328125,-56.640625,-37.109375,-43.9453125,-40.52734375,-105.46875,0.0
410.13671875,-54.19921875,-44.43359375,-40.52734375,-45.8984375,-38.57421875,0.0
410.140625,-27.34375,-37.109375,-36.1328125,-36.62109375,-75.68359375,0.0
410.14453125,2.44140625,-26.3671875,-31.25,-24.4140625,-190.91796875,0.0
410.1484375,-0.48828125,-26.85546875,-28.80859375,-26.85546875,-233.3984375,0.0
410.15234375,-49.31640625,-37.109375,-33.69140625,-39.0625,-262.6953125,0.0
410.15625,-69.82421875,-42.48046875,-38.0859375,-46.875,-152.34375,0.0
410.16015625,-45.41015625,-38.57421875,-39.0625,-40.0390625,-139.16015625,0.0
410.1640625,-22.4609375,-34.1796875,-39.55078125,-26.85546875,-109.86328125,0.0
410.16796875,-33.69140625,-34.1796875,-38.57421875,-28.80859375,-120.1171875,0.0
410.171875,-65.91796875,-33.203125,-40.52734375,-41.9921875,-122.55859375,0.0
410.17578125,-80.56640625,-31.73828125,-42.48046875,-45.8984375,15.625,0.0
410.1796875,-59.5703125,-28.80859375,-37.109375,-37.59765625,118.1640625,0.0
410.18359375,-28.3203125,-22.4609375,-31.73828125,-24.4140625,102.5390625,0.0
410.1875,-33.69140625,-26.3671875,-33.203125,-28.80859375,0.9765625,0.0
410.19140625,-57.12890625,-35.64453125,-36.62109375,-42.96875,-5.859375,0.0
410.1953125,-71.2890625,-37.59765625,-37.109375,-47.8515625,72.75390625,0.0
410.19921875,-54.6875,-31.73828125,-33.69140625,-39.55078125,109.375,0.0
410.203125,-21.484375,-27.83203125,-30.76171875,-31.73828125,107.91015625,0.0
410.20703125,-20.5078125,-28.80859375,-31.73828125,-25.87890625,111.328125,0.0
410.2109375,-48.33984375,-29.296875,-38.0859375,-33.203125,123.53515625,0.0
410.21484375,-64.453125,-32.71484375,-43.9453125,-51.7578125,119.140625,0.0
410.21875,-45.8984375,-32.71484375,-43.45703125,-43.45703125,18.5546875,0.0
410.22265625,-15.13671875,-30.2734375,-36.1328125,-25.87890625,-2.44140625,0.0
410.2265625,-14.16015625,-33.203125,-35.15625,-27.83203125,-38.57421875,0.0
410.23046875,-39.0625,-35.64453125,-40.0390625,-35.64453125,-1.953125,0.0
410.234375,-49.8046875,-33.203125,-37.59765625,-41.9921875,62.5,0.0
410.23828125,-37.59765625,-32.71484375,-31.73828125,-41.015625,46.875,0.0
410.2421875,-12.6953125,-30.76171875,-26.3671875,-24.4140625,41.9921875,0.0
410.24609375,-2.9296875,-30.2734375,-28.3203125,-22.94921875,16.11328125,0.0
410.25,-24.90234375,-36.1328125,-31.73828125,-32.2265625,-64.94140625,0.0
410.25390625,-55.17578125,-34.1796875,-36.62109375,-41.015625,-66.40625,0.0
410.2578125,-51.26953125,-32.71484375,-36.1328125,-42.96875,-57.6171875,0.0
410.26171875,-15.625,-32.71484375,-26.3671875,-32.71484375,-91.796875,0.0
410.265625,-9.765625,-34.1796875,-25.390625,-21.97265625,-64.94140625,0.0
410.26953125,-36.62109375,-38.57421875,-28.80859375,-32.2265625,-46.38671875,0.0
410.2734375,-64.94140625,-36.62109375,-32.71484375,-55.6640625,-13.18359375,0.0
410.27734375,-65.91796875,-36.62109375,-34.66796875,-47.8515625,55.6640625,0.0
410.28125,-36.62109375,-32.71484375,-30.76171875,-32.2265625,18.06640625,0.0
410.28515625,-11.23046875,-28.80859375,-21.484375,-25.390625,-23.92578125,0.0
410.2890625,-24.90234375,-37.59765625,-24.4140625,-38.0859375,-125.9765625,0.0
410.29296875,-46.875,-36.62109375,-27.83203125,-45.8984375,-204.58984375,0.0
410.296875,-43.9453125,-31.73828125,-27.83203125,-43.9453125,-104.98046875,0.0
410.30078125,-23.92578125,-31.73828125,-28.80859375,-40.0390625,-25.87890625,0.0
410.3046875,-4.8828125,-27.83203125,-25.390625,-28.3203125,-54.6875,0.0
410.30859375,-22.4609375,-32.2265625,-26.3671875,-37.109375,-66.40625,0.0
410.3125,-58.10546875,-39.0625,-32.2265625,-51.7578125,-17.578125,0.0
410.31640625,-67.87109375,-41.9921875,-36.1328125,-55.6640625,-2.44140625,0.0
410.3203125,-42.48046875,-37.109375,-28.3203125,-46.875,-31.25,0.0
410.32421875,-13.18359375,-27.83203125,-25.390625,-32.71484375,-26.3671875,0.0
410.328125,-20.01953125,-31.25,-25.87890625,-28.80859375,-41.015625,0.0
410.33203125,-51.26953125,-39.0625,-21.97265625,-35.15625,-85.44921875,0.0
410.3359375,-63.96484375,-36.62109375,-29.296875,-51.7578125,-42.48046875,0.0
410.33984375,-40.0390625,-29.296875,-34.66796875,-51.7578125,-38.0859375,0.0
410.34375,-10.25390625,-25.87890625,-24.90234375,-30.2734375,-56.15234375,0.0
410.34765625,-16.6015625,-30.2734375,-22.94921875,-30.76171875,-37.109375,0.0
410.3515625,-50.29296875,-35.15625,-32.2265625,-41.9921875,-73.73046875,0.0
410.35546875,-71.2890625,-38.57421875,-32.2265625,-48.828125,-38.57421875,0.0
410.359375,-49.8046875,-38.57421875,-29.296875,-47.8515625,-4.39453125,0.0
410.36328125,-20.99609375,-30.76171875,-26.3671875,-39.0625,-51.26953125,0.0
410.3671875,-17.578125,-23.92578125,-25.390625,-31.73828125,-57.12890625,0.0
410.37109375,-48.828125,-29.78515625,-29.78515625,-39.55078125,-31.25,0.0
410.375,-73.2421875,-31.73828125,-18.06640625,-40.52734375,-0.48828125,0.0
410.37890625,-57.6171875,-28.80859375,-19.53125,-33.69140625,50.78125,0.0
410.3828125,-26.3671875,-34.66796875,-28.3203125,-29.296875,-19.04296875,0.0
410.38671875,-14.16015625,-39.55078125,-23.4375,-20.5078125,-64.453125,0.0
410.390625,-37.59765625,-37.59765625,-28.3203125,-25.87890625,-21.484375,0.0
410.39453125,-58.59375,-41.015625,-36.62109375,-40.0390625,5.37109375,0.0
410.3984375,-41.015625,-38.0859375,-35.15625,-37.109375,-10.7421875,0.0
410.40234375,-8.30078125,-26.85546875,-33.203125,-29.78515625,-41.9921875,0.0
410.40625,-7.32421875,-28.80859375,-34.1796875,-34.1796875,-54.6875,0.0
410.41015625,-31.25,-28.3203125,-34.1796875,-31.73828125,-22.94921875,0.0
410.4140625,-47.8515625,-30.76171875,-38.0859375,-41.9921875,0.0,0.0
410.41796875,-44.921875,-33.69140625,-31.25,-54.6875,-49.8046875,0.0
410.421875,-23.92578125,-27.34375,-21.484375,-45.8984375,-59.08203125,0.0
410.42578125,-9.27734375,-24.90234375,-24.4140625,-32.2265625,-32.2265625,0.0
410.4296875,-31.25,-26.85546875,-30.2734375,-31.25,-39.0625,0.0
410.43359375,-64.94140625,-33.203125,-33.69140625,-44.43359375,-59.5703125,0.0
410.4375,-63.96484375,-30.2734375,-36.1328125,-42.48046875,-5.859375,0.0
410.44140625,-31.25,-28.3203125,-39.0625,-28.80859375,-2.9296875,0.0
410.4453125,-16.6015625,-30.2734375,-35.64453125,-23.4375,-53.7109375,0.0
410.44921875,-38.0859375,-31.73828125,-33.203125,-33.203125,-103.515625,0.0
410.453125,-68.84765625,-37.109375,-37.109375,-36.1328125,-107.421875,0.0
410.45703125,-72.75390625,-39.0625,-40.52734375,-39.0625,-171.38671875,0.0
410.4609375,-36.62109375,-31.25,-29.78515625,-33.69140625,-159.1796875,0.0
410.46484375,-15.13671875,-23.4375,-20.99609375,-26.3671875,-80.56640625,0.0
410.46875,-40.0390625,-27.34375,-29.296875,-24.4140625,-99.12109375,0.0
410.47265625,-71.2890625,-36.62109375,-35.64453125,-41.015625,-130.37109375,0.0
410.4765625,-74.21875,-38.57421875,-35.15625,-53.22265625,-139.6484375,0.0
410.48046875,-42.96875,-35.15625,-32.2265625,-36.62109375,-60.05859375,0.0
410.484375,-12.20703125,-32.2265625,-32.2265625,-23.4375,-17.08984375,0.0
410.48828125,-26.3671875,-34.66796875,-37.59765625,-31.25,-78.125,0.0
410.4921875,-62.01171875,-38.57421875,-33.203125,-37.109375,11.23046875,0.0
410.49609375,-65.4296875,-36.1328125,-28.80859375,-39.0625,114.2578125,0.0
410.5,-40.0390625,-33.69140625,-36.1328125,-47.8515625,68.359375,0.0
410.50390625,-15.13671875,-32.71484375,-37.59765625,-36.62109375,49.8046875,0.0
410.5078125,-19.04296875,-37.109375,-30.2734375,-27.83203125,-10.25390625,0.0
410.51171875,-42.96875,-45.41015625,-20.5078125,-34.1796875,-12.20703125,0.0
410.515625,-61.03515625,-48.828125,-31.73828125,-43.9453125,-4.39453125,0.0
410.51953125,-52.24609375,-43.45703125,-37.59765625,-38.0859375,-51.26953125,0.0
410.5234375,-27.34375,-38.0859375,-31.25,-24.4140625,5.37109375,0.0
410.52734375,-28.3203125,-37.109375,-32.2265625,-27.34375,41.015625,0.0
410.53125,-53.22265625,-39.0625,-35.64453125,-32.2265625,46.38671875,0.0
410.53515625,-66.40625,-40.0390625,-34.1796875,-37.59765625,39.0625,0.0
410.5390625,-45.8984375,-27.83203125,-26.85546875,-33.69140625,0.0,0.0
410.54296875,-18.06640625,-21.484375,-27.34375,-25.87890625,4.8828125,0.0
410.546875,-20.5078125,-30.2734375,-29.78515625,-27.83203125,13.18359375,0.0
410.55078125,-46.38671875,-34.1796875,-33.203125,-32.2265625,-15.13671875,0.0
410.5546875,-56.640625,-32.2265625,-33.69140625,-40.52734375,-11.71875,0.0
410.55859375,-40.0390625,-34.66796875,-32.71484375,-39.55078125,-78.125,0.0
410.5625,-16.6015625,-34.1796875,-31.73828125,-27.83203125,-121.58203125,0.0
410.56640625,-9.27734375,-32.71484375,-31.25,-22.4609375,-116.69921875,0.0
410.5703125,-36.1328125,-35.15625,-29.296875,-29.296875,-99.609375,0.0
410.57421875,-62.01171875,-36.1328125,-34.66796875,-47.8515625,-50.78125,0.0
410.578125,-49.31640625,-31.73828125,-36.1328125,-46.875,-49.8046875,0.0
410.58203125,-18.06640625,-27.34375,-27.83203125,-39.55078125,-64.453125,0.0
410.5859375,-10.25390625,-26.3671875,-27.34375,-36.1328125,-78.125,0.0
410.58984375,-36.1328125,-30.2734375,-35.15625,-36.1328125,-66.89453125,0.0
410.59375,-64.453125,-32.2265625,-40.0390625,-44.921875,-6.8359375,0.0
410.59765625,-57.6171875,-29.78515625,-36.62109375,-44.921875,6.34765625,0.0
410.6015625,-24.4140625,-26.85546875,-28.80859375,-34.66796875,-33.69140625,0.0
410.60546875,-7.8125,-23.4375,-28.3203125,-25.390625,-50.78125,0.0
410.609375,-18.06640625,-29.78515625,-31.25,-26.85546875,-38.0859375,0.0
410.61328125,-52.24609375,-40.0390625,-29.296875,-42.96875,-1.953125,0.0
410.6171875,-62.01171875,-37.59765625,-29.296875,-50.29296875,-38.57421875,0.0
410.62109375,-30.76171875,-25.87890625,-31.25,-35.15625,-46.38671875,0.0
410.625,-9.27734375,-21.97265625,-24.4140625,-23.4375,-10.7421875,0.0
410.62890625,-24.90234375,-27.34375,-28.3203125,-29.78515625,-24.90234375,0.0
410.6328125,-49.31640625,-34.66796875,-34.66796875,-39.55078125,25.390625,0.0
410.63671875,-43.45703125,-35.64453125,-31.73828125,-41.9921875,45.41015625,0.0
410.640625,-13.18359375,-31.25,-28.3203125,-31.25,-11.23046875,0.0
410.64453125,6.8359375,-24.4140625,-22.4609375,-20.01953125,-45.8984375,0.0
410.6484375,-13.18359375,-20.5078125,-23.92578125,-24.4140625,-76.66015625,0.0
410.65234375,-37.109375,-27.83203125,-31.25,-32.2265625,-56.15234375,0.0
410.65625,-54.19921875,-33.69140625,-33.203125,-39.55078125,-8.30078125,0.0
410.66015625,-45.8984375,-32.2265625,-22.94921875,-37.109375,-16.11328125,0.0
410.6640625,-25.87890625,-33.203125,-21.97265625,-31.25,-94.7265625,0.0
410.66796875,-35.15625,-38.0859375,-29.296875,-31.73828125,-83.984375,0.0
410.671875,-64.94140625,-39.55078125,-36.1328125,-49.8046875,-45.41015625,0.0
410.67578125,-68.359375,-40.52734375,-41.50390625,-59.08203125,-58.10546875,0.0
410.6796875,-23.4375,-35.64453125,-38.0859375,-41.9921875,42.48046875,0.0
410.68359375,14.6484375,-26.85546875,-31.25,-36.62109375,65.4296875,0.0
410.6875,12.6953125,-27.34375,-31.73828125,-47.8515625,-9.765625,0.0
410.69140625,-15.13671875,-29.78515625,-36.62109375,-55.17578125,31.25,0.0
410.6953125,-33.69140625,-33.203125,-34.66796875,-59.5703125,103.02734375,0.0
410.69921875,-22.94921875,-33.203125,-34.1796875,-60.546875,36.62109375,0.0
410.703125,-6.8359375,-34.1796875,-30.76171875,-48.33984375,16.6015625,0.0
410.70703125,-24.90234375,-41.015625,-20.5078125,-41.50390625,-11.23046875,0.0
410.7109375,-54.6875,-44.921875,-26.85546875,-41.015625,-87.40234375,0.0
410.71484375,-65.4296875,-45.41015625,-39.55078125,-44.921875,-56.640625,0.0
410.71875,-55.17578125,-42.48046875,-36.1328125,-42.96875,-53.7109375,0.0
410.72265625,-26.85546875,-36.62109375,-32.2265625,-30.2734375,-62.01171875,0.0
410.7265625,-26.85546875,-36.1328125,-30.2734375,-22.4609375,-45.8984375,0.0
410.73046875,-64.94140625,-42.96875,-32.2265625,-36.1328125,-18.06640625,0.0
410.734375,-88.8671875,-42.96875,-33.203125,-49.8046875,-41.50390625,0.0
410.73828125,-75.1953125,-35.64453125,-27.83203125,-42.48046875,-153.80859375,0.0
410.7421875,-41.50390625,-30.2734375,-23.92578125,-29.78515625,-137.6953125,0.0
410.74609375,-30.2734375,-31.73828125,-21.97265625,-31.73828125,-81.0546875,0.0
410.75,-54.6875,-40.52734375,-18.5546875,-42.48046875,-104.00390625,0.0
410.75390625,-80.56640625,-41.015625,-22.94921875,-46.875,-146.484375,0.0
410.7578125,-72.265625,-32.71484375,-28.3203125,-48.33984375,-93.26171875,0.0
410.76171875,-38.0859375,-32.71484375,-21.484375,-46.38671875,-66.40625,0.0
410.765625,-26.3671875,-34.1796875,-17.08984375,-38.57421875,-126.46484375,0.0
410.76953125,-43.9453125,-33.69140625,-23.92578125,-37.109375,-57.12890625,0.0
410.7734375,-66.89453125,-34.1796875,-29.296875,-45.41015625,3.41796875,0.0
410.77734375,-57.6171875,-33.203125,-31.25,-51.26953125,-51.7578125,0.0
410.78125,-16.11328125,-29.296875,-25.390625,-46.875,-54.6875,0.0
410.78515625,-0.48828125,-29.78515625,-24.90234375,-32.2265625,-77.1484375,0.0
410.7890625,-20.99609375,-32.71484375,-31.73828125,-33.69140625,-36.1328125,0.0
410.79296875,-50.29296875,-39.55078125,-30.76171875,-51.7578125,-23.92578125,0.0
410.796875,-48.33984375,-42.48046875,-28.3203125,-52.734375,-41.015625,0.0
410.80078125,-10.7421875,-32.71484375,-25.87890625,-33.203125,-24.90234375,0.0
410.8046875,10.25390625,-23.4375,-20.01953125,-22.94921875,19.53125,0.0
410.80859375,-5.37109375,-28.80859375,-16.6015625,-34.1796875,-26.3671875,0.0
410.8125,-46.38671875,-44.921875,-23.4375,-49.31640625,-22.94921875,0.0
410.81640625,-61.03515625,-48.828125,-32.2265625,-54.6875,39.0625,0.0
410.8203125,-32.2265625,-41.50390625,-25.390625,-44.43359375,37.109375,0.0
410.82421875,-8.7890625,-36.1328125,-19.53125,-30.2734375,-17.578125,0.0
410.828125,-18.06640625,-39.0625,-18.5546875,-32.2265625,-107.91015625,0.0
410.83203125,-48.828125,-44.43359375,-20.5078125,-48.828125,-32.2265625,0.0
410.8359375,-61.5234375,-40.0390625,-20.99609375,-55.6640625,-0.48828125,0.0
410.83984375,-40.0390625,-35.15625,-18.5546875,-52.24609375,-130.859375,0.0
410.84375,-18.06640625,-31.25,-21.97265625,-40.0390625,-79.58984375,0.0
410.84765625,-19.04296875,-29.296875,-22.94921875,-33.69140625,-12.20703125,0.0
410.8515625,-50.78125,-35.64453125,-21.484375,-43.9453125,-63.4765625,0.0
410.85546875,-76.66015625,-36.62109375,-25.390625,-53.22265625,-26.3671875,0.0
410.859375,-57.12890625,-31.25,-33.69140625,-50.78125,-14.6484375,0.0
410.86328125,-28.80859375,-34.1796875,-34.66796875,-43.9453125,30.76171875,0.0
410.8671875,-30.76171875,-39.0625,-25.390625,-44.921875,-18.06640625,0.0
410.87109375,-56.640625,-35.64453125,-25.87890625,-44.43359375,-62.5,0.0
410.875,-71.2890625,-38.0859375,-28.80859375,-48.33984375,-50.78125,0.0
410.87890625,-51.26953125,-36.62109375,-23.4375,-42.48046875,-122.55859375,0.0
410.8828125,-22.94921875,-27.83203125,-16.11328125,-28.80859375,-127.9296875,0.0
410.88671875,-23.4375,-37.59765625,-15.625,-36.62109375,-113.28125,0.0
410.890625,-44.921875,-41.50390625,-26.3671875,-46.38671875,-123.53515625,0.0
410.89453125,-56.640625,-41.50390625,-34.66796875,-52.734375,-186.03515625,0.0
410.8984375,-42.48046875,-36.1328125,-31.25,-49.31640625,-111.81640625,0.0
410.90234375,-15.625,-27.34375,-27.83203125,-32.2265625,-4.8828125,0.0
410.90625,-7.32421875,-32.2265625,-30.76171875,-30.76171875,-37.59765625,0.0
410.91015625,-32.2265625,-36.1328125,-32.71484375,-36.62109375,-29.78515625,0.0
410.9140625,-64.94140625,-38.57421875,-36.1328125,-47.36328125,5.859375,0.0
410.91796875,-57.12890625,-44.43359375,-35.15625,-44.921875,38.0859375,0.0
410.921875,-26.85546875,-41.015625,-31.73828125,-35.64453125,-52.24609375,0.0
410.92578125,-15.625,-34.66796875,-28.3203125,-32.2265625,-129.8828125,0.0
410.9296875,-31.73828125,-33.69140625,-26.3671875,-30.2734375,-14.16015625,0.0
410.93359375,-61.03515625,-38.57421875,-27.83203125,-39.0625,8.7890625,0.0
410.9375,-62.98828125,-35.64453125,-30.76171875,-49.8046875,-70.80078125,0.0
410.94140625,-33.203125,-29.78515625,-24.90234375,-40.0390625,-96.6796875,0.0
410.9453125,-19.53125,-36.1328125,-13.18359375,-29.296875,-73.73046875,0.0
410.94921875,-30.76171875,-38.0859375,-21.97265625,-28.80859375,-96.6796875,0.0
410.953125,-63.96484375,-37.59765625,-33.203125,-34.66796875,-21.484375,0.0
410.95703125,-64.453125,-35.15625,-32.2265625,-40.52734375,-7.32421875,0.0
410.9609375,-25.87890625,-32.71484375,-31.73828125,-34.1796875,-68.84765625,0.0
410.96484375,-7.32421875,-34.1796875,-29.296875,-28.3203125,-34.1796875,0.0
410.96875,-18.5546875,-37.59765625,-29.296875,-30.2734375,-55.6640625,0.0
410.97265625,-44.43359375,-42.96875,-30.2734375,-43.9453125,2.44140625,0.0
410.9765625,-51.7578125,-42.48046875,-31.25,-51.7578125,-5.859375,0.0
410.98046875,-25.390625,-34.66796875,-30.76171875,-37.59765625,-125.9765625,0.0
410.984375,-1.953125,-23.4375,-27.34375,-24.90234375,-113.76953125,0.0
410.98828125,-19.04296875,-28.3203125,-16.11328125,-29.296875,-96.6796875,0.0
410.9921875,-52.24609375,-36.62109375,-3.90625,-42.48046875,-68.359375,0.0
410.99609375,-65.91796875,-39.0625,-23.4375,-49.31640625,16.11328125,0.0
411.0,-40.52734375,-35.64453125,-34.1796875,-36.62109375,-22.4609375,0.0
411.00390625,-15.625,-31.73828125,-32.2265625,-34.1796875,-71.77734375,0.0
411.0078125,-23.4375,-34.66796875,-30.2734375,-38.57421875,-44.921875,0.0
411.01171875,-42.48046875,-34.1796875,-29.78515625,-39.0625,-67.3828125,0.0
411.015625,-55.6640625,-36.62109375,-32.71484375,-52.734375,-29.296875,0.0
411.01953125,-33.69140625,-32.71484375,-29.78515625,-49.31640625,26.85546875,0.0
411.0234375,-3.41796875,-23.92578125,-24.4140625,-32.2265625,43.9453125,0.0
411.02734375,-9.765625,-28.3203125,-28.3203125,-31.73828125,66.40625,0.0
411.03125,-39.0625,-39.0625,-32.71484375,-47.36328125,36.62109375,0.0
411.03515625,-57.6171875,-41.9921875,-24.90234375,-60.05859375,-1.46484375,0.0
411.0390625,-46.875,-40.52734375,-28.80859375,-50.78125,-59.08203125,0.0
411.04296875,-11.23046875,-28.80859375,-30.76171875,-34.1796875,-78.125,0.0
411.046875,6.8359375,-21.484375,-23.4375,-31.25,-46.875,0.0
411.05078125,-29.296875,-31.73828125,-27.83203125,-43.45703125,-66.89453125,0.0
411.0546875,-57.6171875,-37.59765625,-39.0625,-48.828125,-78.61328125,0.0
411.05859375,-35.15625,-29.78515625,-35.15625,-45.8984375,-81.54296875,0.0
411.0625,-4.8828125,-23.92578125,-29.78515625,-35.15625,-48.828125,0.0
411.06640625,3.90625,-20.5078125,-32.71484375,-26.85546875,33.203125,0.0
411.0703125,-21.97265625,-22.94921875,-35.64453125,-41.9921875,28.3203125,0.0
411.07421875,-49.31640625,-34.66796875,-39.0625,-52.734375,-0.9765625,0.0
411.078125,-44.43359375,-40.52734375,-27.34375,-45.8984375,12.20703125,0.0
411.08203125,-15.13671875,-31.73828125,-3.90625,-40.52734375,-15.13671875,0.0
411.0859375,2.9296875,-26.85546875,-15.13671875,-36.62109375,-70.80078125,0.0
411.08984375,-27.83203125,-37.109375,-32.2265625,-40.52734375,-42.48046875,0.0
411.09375,-60.546875,-39.55078125,-32.71484375,-54.19921875,-22.4609375,0.0
411.09765625,-46.38671875,-34.66796875,-28.3203125,-47.8515625,3.90625,0.0
411.1015625,-7.8125,-28.80859375,-25.390625,-34.66796875,105.46875,0.0
411.10546875,1.46484375,-27.34375,-24.90234375,-33.69140625,-32.2265625,0.0
411.109375,-31.73828125,-34.66796875,-23.92578125,-41.50390625,-101.5625,0.0
411.11328125,-61.03515625,-36.62109375,-33.203125,-51.7578125,-26.3671875,0.0
411.1171875,-57.6171875,-33.69140625,-41.9921875,-48.828125,58.10546875,0.0
411.12109375,-25.87890625,-32.71484375,-36.1328125,-39.0625,41.015625,0.0
411.125,-8.30078125,-35.64453125,-26.3671875,-34.1796875,10.25390625,0.0
411.12890625,-23.92578125,-37.109375,-23.4375,-33.69140625,43.45703125,0.0
411.1328125,-47.8515625,-32.71484375,-25.87890625,-36.62109375,-7.32421875,0.0
411.13671875,-53.7109375,-34.1796875,-28.3203125,-38.57421875,-46.38671875,0.0
411.140625,-26.3671875,-34.1796875,-27.34375,-29.78515625,-13.671875,0.0
411.14453125,-1.953125,-29.78515625,-22.4609375,-20.5078125,29.296875,0.0
411.1484375,-21.97265625,-33.203125,-24.90234375,-24.90234375,-43.45703125,0.0
411.15234375,-51.7578125,-39.0625,-27.34375,-35.15625,-102.5390625,0.0
411.15625,-56.640625,-35.64453125,-27.83203125,-45.41015625,-24.4140625,0.0
411.16015625,-35.64453125,-26.3671875,-25.87890625,-35.15625,-58.59375,0.0
411.1640625,-6.8359375,-20.01953125,-20.5078125,-17.08984375,-101.5625,0.0
411.16796875,-17.08984375,-25.390625,-20.99609375,-18.06640625,-15.625,0.0
411.171875,-48.828125,-32.2265625,-20.99609375,-32.2265625,20.01953125,0.0
411.17578125,-60.05859375,-34.1796875,-20.5078125,-34.1796875,8.7890625,0.0
411.1796875,-43.9453125,-37.109375,-22.94921875,-19.53125,-5.859375,0.0
411.18359375,-16.6015625,-34.1796875,-5.37109375,-13.671875,-29.78515625,0.0
411.1875,-20.99609375,-32.2265625,2.9296875,-20.01953125,-20.5078125,0.0
411.19140625,-55.17578125,-32.2265625,-16.6015625,-28.80859375,-81.0546875,0.0
411.1953125,-70.80078125,-34.1796875,-26.85546875,-33.203125,-62.5,0.0
411.19921875,-55.17578125,-35.64453125,-28.80859375,-36.1328125,21.484375,0.0
411.203125,-21.484375,-31.73828125,-24.90234375,-28.3203125,-2.9296875,0.0
411.20703125,-15.13671875,-30.2734375,-28.3203125,-21.97265625,-32.71484375,0.0
411.2109375,-43.45703125,-29.78515625,-29.78515625,-27.83203125,-82.51953125,0.0
411.21484375,-60.546875,-36.62109375,-20.01953125,-32.2265625,-23.92578125,0.0
411.21875,-58.59375,-38.57421875,-24.4140625,-40.52734375,-14.6484375,0.0
411.22265625,-29.296875,-29.296875,-30.2734375,-34.66796875,-98.14453125,0.0
411.2265625,-12.6953125,-26.3671875,-27.34375,-22.4609375,-86.42578125,0.0
411.23046875,-37.59765625,-32.71484375,-32.71484375,-27.34375,-35.15625,0.0
411.234375,-62.01171875,-33.69140625,-37.109375,-37.59765625,-45.8984375,0.0
411.23828125,-58.59375,-34.1796875,-38.0859375,-40.0390625,-47.8515625,0.0
411.2421875,-32.2265625,-36.1328125,-32.71484375,-33.203125,-33.69140625,0.0
411.24609375,-20.99609375,-33.203125,-27.34375,-24.90234375,-45.8984375,0.0
411.25,-42.96875,-33.69140625,-28.80859375,-27.83203125,-19.04296875,0.0
411.25390625,-62.98828125,-33.203125,-37.59765625,-41.9921875,-39.55078125,0.0
411.2578125,-52.734375,-34.1796875,-24.90234375,-46.38671875,-14.6484375,0.0
411.26171875,-24.4140625,-30.76171875,-11.23046875,-39.55078125,-24.90234375,0.0
411.265625,-13.671875,-31.73828125,-29.296875,-35.64453125,-111.328125,0.0
411.26953125,-38.57421875,-35.15625,-38.0859375,-40.52734375,-30.76171875,0.0
411.2734375,-67.3828125,-39.0625,-25.390625,-44.921875,44.43359375,0.0
411.27734375,-62.98828125,-41.50390625,-21.484375,-49.31640625,8.7890625,0.0
411.28125,-34.66796875,-29.78515625,-31.25,-40.0390625,-52.24609375,0.0
411.28515625,-17.08984375,-22.4609375,-28.80859375,-20.99609375,-102.05078125,0.0
411.2890625,-35.15625,-24.4140625,-25.390625,-23.4375,-17.578125,0.0
411.29296875,-63.96484375,-26.3671875,-24.90234375,-31.73828125,-33.203125,0.0
411.296875,-61.5234375,-35.64453125,-30.2734375,-34.1796875,-120.60546875,0.0
411.30078125,-33.203125,-34.66796875,-30.76171875,-26.85546875,-17.08984375,0.0
411.3046875,-13.18359375,-29.296875,-23.92578125,-18.5546875,-3.41796875,0.0
411.30859375,-21.484375,-32.2265625,-23.4375,-18.5546875,-106.4453125,0.0
411.3125,-43.45703125,-38.57421875,-33.203125,-29.78515625,-48.828125,0.0
411.31640625,-50.78125,-35.64453125,-27.34375,-28.80859375,-3.41796875,0.0
411.3203125,-34.1796875,-34.66796875,0.0,-19.53125,14.6484375,0.0
411.32421875,-18.06640625,-33.69140625,-6.8359375,-21.97265625,26.3671875,0.0
411.328125,-27.34375,-32.71484375,-28.80859375,-27.34375,-1.46484375,0.0
411.33203125,-51.26953125,-39.55078125,-28.80859375,-38.57421875,54.6875,0.0
411.3359375,-62.5,-39.0625,-32.71484375,-52.734375,48.828125,0.0
411.33984375,-36.62109375,-33.203125,-35.64453125,-53.7109375,-57.6171875,0.0
411.34375,-7.8125,-31.73828125,-29.296875,-35.15625,-44.921875,0.0
411.34765625,-16.6015625,-33.203125,-24.4140625,-41.015625,-73.73046875,0.0
411.3515625,-41.015625,-32.71484375,-28.3203125,-57.12890625,-113.76953125,0.0
411.35546875,-56.640625,-35.15625,-35.64453125,-53.22265625,-30.76171875,0.0
411.359375,-42.96875,-35.15625,-37.109375,-52.24609375,2.44140625,0.0
411.36328125,-12.20703125,-27.34375,-27.83203125,-47.8515625,-18.06640625,0.0
411.3671875,-25.390625,-27.34375,-15.13671875,-42.96875,-43.45703125,0.0
411.37109375,-60.546875,-31.25,-22.4609375,-46.38671875,-88.8671875,0.0
411.375,-76.171875,-32.71484375,-29.78515625,-51.7578125,-87.890625,0.0
411.37890625,-59.5703125,-26.3671875,-22.4609375,-47.36328125,-67.3828125,0.0
411.3828125,-24.4140625,-21.97265625,-19.04296875,-33.69140625,-110.83984375,0.0
411.38671875,-17.578125,-32.2265625,-26.3671875,-23.92578125,-128.90625,0.0
411.390625,-46.38671875,-45.41015625,-29.78515625,-28.3203125,-134.765625,0.0
411.39453125,-68.359375,-45.41015625,-31.25,-42.96875,-191.40625,0.0
411.3984375,-52.734375,-35.64453125,-32.2265625,-38.57421875,-147.4609375,0.0
411.40234375,-21.484375,-32.71484375,-29.78515625,-25.87890625,-103.02734375,0.0
411.40625,-22.4609375,-35.15625,-23.92578125,-24.90234375,-99.609375,0.0
411.41015625,-52.734375,-39.55078125,-9.27734375,-32.2265625,-116.2109375,0.0
411.4140625,-75.1953125,-36.1328125,-16.11328125,-38.0859375,-68.359375,0.0
411.41796875,-65.4296875,-33.203125,-33.203125,-44.921875,50.29296875,0.0
411.421875,-33.203125,-32.2265625,-32.71484375,-41.50390625,11.71875,0.0
411.42578125,-14.6484375,-26.85546875,-21.97265625,-22.94921875,-44.43359375,0.0
411.4296875,-30.2734375,-28.3203125,-20.99609375,-23.92578125,-39.0625,0.0
411.43359375,-58.10546875,-33.203125,-31.73828125,-40.0390625,-76.171875,0.0
411.4375,-60.05859375,-39.55078125,-23.4375,-43.9453125,-30.2734375,0.0
411.44140625,-30.76171875,-42.48046875,-21.484375,-42.48046875,26.3671875,0.0
411.4453125,-7.32421875,-34.66796875,-29.78515625,-43.9453125,-38.57421875,0.0
411.44921875,-19.04296875,-32.71484375,-29.78515625,-52.24609375,-55.6640625,0.0
411.453125,-44.43359375,-34.1796875,-25.390625,-63.4765625,-81.0546875,0.0
411.45703125,-35.64453125,-38.0859375,-18.5546875,-73.2421875,-49.8046875,0.0
411.4609375,-2.44140625,-37.109375,-27.34375,-62.5,17.578125,0.0
411.46484375,14.16015625,-29.296875,-35.64453125,-41.015625,-24.90234375,0.0
411.46875,-10.7421875,-33.69140625,-39.0625,-38.0859375,-17.578125,0.0
411.47265625,-52.24609375,-46.875,-37.59765625,-45.41015625,1.953125,0.0
411.4765625,-68.359375,-47.8515625,-32.71484375,-41.9921875,-16.6015625,0.0
411.48046875,-52.734375,-43.45703125,-27.34375,-31.25,11.71875,0.0
411.484375,-27.34375,-38.0859375,-25.390625,-21.484375,19.04296875,0.0
411.48828125,-29.296875,-34.66796875,-24.90234375,-20.01953125,-20.01953125,0.0
411.4921875,-63.96484375,-37.59765625,-31.25,-40.52734375,21.484375,0.0
411.49609375,-73.73046875,-40.0390625,-36.62109375,-47.8515625,36.62109375,0.0
411.5,-47.8515625,-36.62109375,-17.08984375,-42.96875,71.77734375,0.0
411.50390625,-29.78515625,-32.2265625,-17.578125,-36.1328125,64.94140625,0.0
411.5078125,-27.83203125,-38.0859375,-32.2265625,-26.85546875,-20.99609375,0.0
411.51171875,-52.734375,-46.38671875,-35.15625,-36.1328125,-16.11328125,0.0
411.515625,-75.1953125,-46.875,-39.0625,-42.96875,8.7890625,0.0
411.51953125,-60.05859375,-42.48046875,-39.0625,-42.48046875,38.0859375,0.0
411.5234375,-23.92578125,-32.2265625,-32.2265625,-32.71484375,46.875,0.0
411.52734375,-15.13671875,-31.25,-30.76171875,-18.5546875,67.3828125,0.0
411.53125,-50.78125,-39.55078125,-34.1796875,-33.203125,74.70703125,0.0
411.53515625,-69.82421875,-39.55078125,-29.296875,-48.828125,31.25,0.0
411.5390625,-46.875,-35.15625,-30.2734375,-37.59765625,21.97265625,0.0
411.54296875,-13.18359375,-34.66796875,-21.97265625,-25.87890625,2.9296875,0.0
411.546875,-9.765625,-32.71484375,0.9765625,-23.92578125,-54.19921875,0.0
411.55078125,-45.41015625,-35.64453125,-16.6015625,-38.57421875,-125.9765625,0.0
411.5546875,-65.91796875,-37.109375,-39.0625,-48.828125,-95.21484375,0.0
411.55859375,-48.33984375,-33.203125,-34.1796875,-41.50390625,27.34375,0.0
411.5625,-21.484375,-35.15625,-35.64453125,-30.76171875,5.859375,0.0
411.56640625,-13.671875,-34.1796875,-33.203125,-20.5078125,-31.73828125,0.0
411.5703125,-42.96875,-34.66796875,-32.71484375,-34.1796875,-78.61328125,0.0
411.57421875,-69.82421875,-38.57421875,-39.55078125,-47.8515625,-73.2421875,0.0
411.578125,-59.08203125,-37.59765625,-38.57421875,-44.43359375,-32.71484375,0.0
411.58203125,-25.87890625,-35.15625,-34.1796875,-37.109375,-61.5234375,0.0
411.5859375,-10.7421875,-33.203125,-31.25,-33.69140625,-108.88671875,0.0
411.58984375,-42.48046875,-38.57421875,-34.1796875,-49.8046875,-84.9609375,0.0
411.59375,-70.80078125,-44.921875,-39.55078125,-56.640625,-52.24609375,0.0
411.59765625,-55.6640625,-42.48046875,-40.52734375,-53.22265625,-106.4453125,0.0
411.6015625,-26.3671875,-31.73828125,-27.83203125,-41.9921875,-77.1484375,0.0
411.60546875,-15.625,-23.92578125,-13.671875,-23.92578125,-25.390625,0.0
411.609375,-40.0390625,-28.80859375,-29.296875,-34.1796875,13.671875,0.0
411.61328125,-75.68359375,-38.57421875,-40.0390625,-57.6171875,38.0859375,0.0
411.6171875,-65.4296875,-39.55078125,-36.62109375,-52.734375,33.69140625,0.0
411.62109375,-39.0625,-33.203125,-32.2265625,-29.78515625,2.9296875,0.0
411.625,-27.34375,-36.62109375,-34.1796875,-24.90234375,-50.29296875,0.0
411.62890625,-35.64453125,-42.48046875,-32.2265625,-30.76171875,-72.265625,0.0
411.6328125,-65.4296875,-40.52734375,-26.85546875,-34.66796875,-34.1796875,0.0
411.63671875,-64.94140625,-33.203125,-32.2265625,-42.96875,17.578125,0.0
411.640625,-33.69140625,-35.64453125,-32.71484375,-40.0390625,38.57421875,0.0
411.64453125,-9.765625,-33.69140625,-24.4140625,-29.296875,10.25390625,0.0
411.6484375,-19.04296875,-30.2734375,-19.04296875,-26.3671875,-55.6640625,0.0
411.65234375,-49.8046875,-36.1328125,-8.7890625,-38.0859375,-77.1484375,0.0
411.65625,-59.5703125,-36.1328125,-15.13671875,-41.9921875,-82.51953125,0.0
411.66015625,-36.1328125,-32.2265625,-25.390625,-30.2734375,-94.7265625,0.0
411.6640625,-5.859375,-25.87890625,-22.94921875,-25.390625,-34.66796875,0.0
411.66796875,-13.18359375,-26.85546875,-16.11328125,-23.4375,3.90625,0.0
411.671875,-53.22265625,-34.66796875,-22.4609375,-35.64453125,-19.04296875,0.0
411.67578125,-60.546875,-34.1796875,-25.87890625,-48.828125,0.9765625,0.0
411.6796875,-32.71484375,-30.2734375,-19.04296875,-43.45703125,-20.01953125,0.0
411.68359375,-15.13671875,-27.34375,-20.01953125,-28.80859375,-26.85546875,0.0
411.6875,-17.08984375,-28.80859375,-20.99609375,-25.87890625,-11.23046875,0.0
411.69140625,-47.8515625,-35.15625,-21.484375,-39.55078125,-16.6015625,0.0
411.6953125,-63.96484375,-31.73828125,-20.01953125,-44.43359375,-44.921875,0.0
411.69921875,-41.9921875,-22.94921875,-24.90234375,-36.1328125,1.46484375,0.0
411.703125,-12.20703125,-23.92578125,-29.78515625,-33.203125,62.98828125,0.0
411.70703125,-5.859375,-27.34375,-23.92578125,-29.296875,-35.15625,0.0
411.7109375,-34.66796875,-34.1796875,-24.90234375,-27.34375,-44.43359375,0.0
411.71484375,-61.5234375,-40.52734375,-37.59765625,-43.45703125,-31.25,0.0
411.71875,-41.50390625,-33.69140625,-34.66796875,-40.0390625,-83.49609375,0.0
411.72265625,-13.18359375,-23.92578125,-23.92578125,-22.94921875,-55.6640625,0.0
411.7265625,-20.01953125,-30.2734375,-26.85546875,-22.4609375,-142.578125,0.0
411.73046875,-43.45703125,-31.25,-30.2734375,-28.80859375,-251.953125,0.0
411.734375,-60.546875,-29.78515625,-30.2734375,-35.15625,-203.61328125,0.0
411.73828125,-53.22265625,-33.69140625,-29.78515625,-39.55078125,-145.99609375,0.0
411.7421875,-22.4609375,-28.3203125,-21.97265625,-29.78515625,-136.71875,0.0
411.74609375,-5.859375,-25.390625,-25.390625,-16.6015625,-231.4453125,0.0
411.75,-33.203125,-30.76171875,-32.71484375,-16.6015625,-220.703125,0.0
411.75390625,-63.4765625,-37.59765625,-35.64453125,-32.71484375,-96.6796875,0.0
411.7578125,-49.8046875,-36.1328125,-34.1796875,-38.57421875,-63.4765625,0.0
411.76171875,-24.4140625,-28.3203125,-24.4140625,-28.80859375,-97.16796875,0.0
411.765625,-15.625,-28.80859375,-21.484375,-26.3671875,-9.27734375,0.0
411.76953125,-35.64453125,-33.203125,-26.85546875,-30.76171875,15.625,0.0
411.7734375,-60.546875,-30.2734375,-29.296875,-37.59765625,-40.52734375,0.0
411.77734375,-60.546875,-31.25,-33.69140625,-44.921875,59.08203125,0.0
411.78125,-35.15625,-31.25,-35.15625,-40.0390625,116.2109375,0.0
411.78515625,-15.625,-31.73828125,-28.3203125,-28.3203125,14.6484375,0.0
411.7890625,-34.1796875,-34.66796875,-25.390625,-31.25,-34.1796875,0.0
411.79296875,-63.96484375,-38.0859375,-30.76171875,-41.015625,-17.578125,0.0
411.796875,-69.82421875,-44.921875,-35.64453125,-50.78125,-9.27734375,0.0
411.80078125,-39.0625,-36.1328125,-30.76171875,-37.109375,53.7109375,0.0
411.8046875,-14.16015625,-28.80859375,-28.3203125,-26.3671875,5.859375,0.0
411.80859375,-35.64453125,-33.69140625,-30.76171875,-31.73828125,30.76171875,0.0
411.8125,-67.87109375,-40.0390625,-32.71484375,-38.0859375,105.46875,0.0
411.81640625,-64.453125,-40.0390625,-35.15625,-48.33984375,86.9140625,0.0
411.8203125,-32.2265625,-38.0859375,-36.62109375,-47.8515625,49.8046875,0.0
411.82421875,-14.16015625,-35.15625,-32.2265625,-36.1328125,-7.32421875,0.0
411.828125,-25.390625,-33.203125,-24.4140625,-31.25,-48.828125,0.0
411.83203125,-60.05859375,-41.9921875,-18.06640625,-43.9453125,-48.828125,0.0
411.8359375,-75.1953125,-41.9921875,-23.4375,-54.19921875,-16.6015625,0.0
411.83984375,-49.31640625,-31.25,-27.83203125,-45.8984375,0.48828125,0.0
411.84375,-20.99609375,-28.80859375,-26.3671875,-36.1328125,-6.8359375,0.0
411.84765625,-25.87890625,-27.83203125,-26.85546875,-34.1796875,-50.78125,0.0
411.8515625,-58.10546875,-37.109375,-33.203125,-41.015625,-29.78515625,0.0
411.85546875,-72.75390625,-42.96875,-37.109375,-50.29296875,-29.78515625,0.0
411.859375,-45.41015625,-34.66796875,-31.73828125,-43.45703125,-81.0546875,0.0
411.86328125,-12.6953125,-30.2734375,-28.3203125,-29.296875,-48.828125,0.0
411.8671875,-14.6484375,-30.2734375,-27.34375,-28.3203125,-7.32421875,0.0
411.87109375,-35.15625,-34.66796875,-29.296875,-35.64453125,-9.765625,0.0
411.875,-54.6875,-40.52734375,-15.13671875,-47.36328125,-9.27734375,0.0
411.87890625,-51.26953125,-32.71484375,-12.20703125,-42.96875,31.25,0.0
411.8828125,-21.484375,-22.4609375,-27.83203125,-35.15625,11.71875,0.0
411.88671875,-16.11328125,-23.92578125,-28.3203125,-32.2265625,-37.109375,0.0
411.890625,-37.59765625,-25.87890625,-31.25,-35.15625,9.765625,0.0
411.89453125,-52.24609375,-34.66796875,-33.69140625,-42.96875,35.64453125,0.0
411.8984375,-39.0625,-33.203125,-31.25,-35.64453125,33.69140625,0.0
411.90234375,-13.18359375,-28.80859375,-32.2265625,-30.2734375,83.984375,0.0
411.90625,-4.8828125,-30.2734375,-30.2734375,-25.390625,37.59765625,0.0
411.91015625,-28.80859375,-29.78515625,-26.85546875,-25.390625,-47.36328125,0.0
411.9140625,-55.17578125,-25.87890625,-30.76171875,-35.64453125,-46.875,0.0
411.91796875,-45.8984375,-19.53125,-25.87890625,-38.0859375,-55.6640625,0.0
411.921875,-13.671875,-22.94921875,-10.25390625,-27.83203125,-62.5,0.0
411.92578125,-4.8828125,-29.78515625,-20.01953125,-24.90234375,-89.35546875,0.0
411.9296875,-20.5078125,-29.78515625,-33.203125,-28.80859375,-128.90625,0.0
411.93359375,-49.8046875,-30.76171875,-26.85546875,-33.69140625,-78.61328125,0.0
411.9375,-58.59375,-28.3203125,-27.34375,-38.57421875,-38.57421875,0.0
411.94140625,-28.80859375,-25.87890625,-30.76171875,-40.0390625,7.32421875,0.0
411.9453125,-12.20703125,-28.3203125,-28.3203125,-33.203125,-19.53125,0.0
411.94921875,-27.83203125,-30.76171875,-26.85546875,-26.3671875,-98.6328125,0.0
411.953125,-52.24609375,-35.64453125,-29.296875,-34.1796875,-127.9296875,0.0
411.95703125,-57.12890625,-37.109375,-34.1796875,-42.48046875,-112.3046875,0.0
411.9609375,-24.90234375,-33.69140625,-32.2265625,-36.1328125,-122.0703125,0.0
411.96484375,3.90625,-31.73828125,-16.11328125,-18.5546875,-128.41796875,0.0
411.96875,-6.34765625,-40.52734375,-20.01953125,-21.97265625,-101.07421875,0.0
411.97265625,-32.2265625,-43.45703125,-32.2265625,-35.64453125,-75.1953125,0.0
411.9765625,-45.8984375,-36.1328125,-31.73828125,-31.73828125,-27.34375,0.0
411.98046875,-29.296875,-32.2265625,-32.71484375,-28.3203125,-34.66796875,0.0
411.984375,-3.41796875,-27.83203125,-27.34375,-17.578125,-91.796875,0.0
411.98828125,-16.11328125,-30.2734375,-27.34375,-18.5546875,-31.73828125,0.0
411.9921875,-52.24609375,-33.203125,-32.2265625,-36.62109375,13.671875,0.0
411.99609375,-62.01171875,-32.71484375,-33.69140625,-46.38671875,-16.11328125,0.0
412.0,-37.59765625,-32.2265625,-33.203125,-41.9921875,-40.52734375,0.0
412.00390625,-12.20703125,-33.203125,-32.2265625,-34.1796875,-111.328125,0.0
412.0078125,-18.06640625,-31.25,-29.78515625,-36.1328125,-100.5859375,0.0
412.01171875,-53.22265625,-32.71484375,-32.2265625,-43.9453125,-42.48046875,0.0
412.015625,-70.3125,-37.59765625,-36.62109375,-46.875,-9.765625,0.0
412.01953125,-45.41015625,-30.76171875,-35.15625,-41.9921875,85.9375,0.0
412.0234375,-21.97265625,-24.4140625,-30.76171875,-33.69140625,113.76953125,0.0
412.02734375,-29.296875,-28.80859375,-29.78515625,-32.2265625,77.63671875,0.0
412.03125,-62.01171875,-35.15625,-37.59765625,-43.45703125,105.46875,0.0
412.03515625,-79.58984375,-36.62109375,-40.52734375,-42.96875,58.10546875,0.0
412.0390625,-59.08203125,-29.296875,-32.2265625,-39.55078125,4.8828125,0.0
412.04296875,-23.4375,-23.4375,-25.87890625,-28.3203125,-18.06640625,0.0
412.046875,-13.671875,-26.3671875,-24.4140625,-17.08984375,-34.66796875,0.0
412.05078125,-41.9921875,-30.76171875,-29.296875,-24.4140625,-40.0390625,0.0
412.0546875,-64.94140625,-30.2734375,-29.296875,-37.109375,-61.5234375,0.0
412.05859375,-51.7578125,-33.69140625,-31.73828125,-41.9921875,-26.3671875,0.0
412.0625,-18.5546875,-30.76171875,-33.69140625,-32.2265625,-18.5546875,0.0
412.06640625,-5.37109375,-26.85546875,-21.97265625,-26.3671875,-119.140625,0.0
412.0703125,-31.73828125,-30.76171875,-19.04296875,-34.66796875,-108.88671875,0.0
412.07421875,-52.24609375,-36.62109375,-32.2265625,-49.8046875,11.23046875,0.0
412.078125,-48.33984375,-34.1796875,-37.109375,-49.31640625,26.3671875,0.0
412.08203125,-30.76171875,-26.85546875,-35.64453125,-37.59765625,-19.53125,0.0
412.0859375,-18.06640625,-24.4140625,-31.73828125,-35.64453125,35.64453125,0.0
412.08984375,-38.57421875,-24.90234375,-37.59765625,-43.9453125,-9.27734375,0.0
412.09375,-62.01171875,-29.78515625,-38.57421875,-48.33984375,-22.94921875,0.0
412.09765625,-52.734375,-30.76171875,-38.0859375,-43.9453125,35.15625,0.0
412.1015625,-20.01953125,-27.34375,-37.59765625,-32.71484375,-47.8515625,0.0
412.10546875,2.44140625,-20.01953125,-26.3671875,-20.99609375,-56.640625,0.0
412.109375,-13.671875,-24.4140625,-22.94921875,-17.578125,-42.48046875,0.0
412.11328125,-50.78125,-32.2265625,-40.52734375,-29.78515625,-57.6171875,0.0
412.1171875,-57.12890625,-28.80859375,-50.29296875,-42.96875,-148.4375,0.0
412.12109375,-26.3671875,-25.87890625,-30.76171875,-34.66796875,-133.30078125,0.0
412.125,-4.8828125,-29.296875,-24.90234375,-24.90234375,-12.6953125,0.0
412.12890625,-15.625,-29.296875,-33.69140625,-25.87890625,-37.59765625,0.0
412.1328125,-47.36328125,-28.3203125,-31.25,-35.64453125,-41.50390625,0.0
412.13671875,-58.10546875,-32.2265625,-27.83203125,-38.0859375,9.765625,0.0
412.140625,-28.80859375,-28.3203125,-29.78515625,-30.2734375,16.6015625,0.0
412.14453125,0.9765625,-21.97265625,-30.76171875,-20.01953125,-6.34765625,0.0
412.1484375,-8.7890625,-24.4140625,-31.73828125,-17.578125,-29.78515625,0.0
412.15234375,-46.38671875,-35.15625,-37.59765625,-29.78515625,-10.7421875,0.0
412.15625,-61.5234375,-44.921875,-43.45703125,-43.45703125,-26.85546875,0.0
412.16015625,-35.64453125,-40.52734375,-45.41015625,-42.48046875,-21.484375,0.0
412.1640625,-7.32421875,-34.1796875,-36.1328125,-25.87890625,30.2734375,0.0
412.16796875,-11.71875,-37.109375,-29.296875,-29.78515625,-24.90234375,0.0
412.171875,-51.7578125,-36.1328125,-33.203125,-42.96875,-4.39453125,0.0
412.17578125,-67.87109375,-35.64453125,-36.1328125,-44.921875,-2.44140625,0.0
412.1796875,-41.9921875,-35.15625,-34.66796875,-47.36328125,18.06640625,0.0
412.18359375,-14.6484375,-33.69140625,-30.76171875,-41.9921875,20.01953125,0.0
412.1875,-8.30078125,-32.2265625,-29.78515625,-34.1796875,-130.37109375,0.0
412.19140625,-37.109375,-37.59765625,-32.2265625,-44.921875,-68.359375,0.0
412.1953125,-58.10546875,-40.52734375,-36.62109375,-57.12890625,-4.39453125,0.0
