timestam,TP9,AF7,AF8,TP10,AUX,Marker
121.00390625,-30.76171875,-40.0390625,-27.34375,-51.26953125,-76.171875,0.0
121.0078125,-46.38671875,-43.9453125,-14.16015625,-40.0390625,-109.375,0.0
121.01171875,-63.96484375,-42.48046875,-12.20703125,-38.0859375,-98.14453125,0.0
121.015625,-50.78125,-38.57421875,-22.4609375,-39.55078125,-102.5390625,0.0
121.01953125,-20.01953125,-36.62109375,-15.13671875,-34.66796875,-123.046875,0.0
121.0234375,-22.4609375,-35.64453125,-12.20703125,-32.71484375,-22.94921875,0.0
121.02734375,-45.41015625,-37.109375,-23.4375,-34.66796875,82.03125,0.0
121.03125,-61.03515625,-45.41015625,-27.83203125,-39.55078125,70.3125,0.0
121.03515625,-49.8046875,-47.8515625,-24.90234375,-44.43359375,21.484375,0.0
121.0390625,-25.390625,-41.015625,-21.97265625,-44.43359375,-31.73828125,0.0
121.04296875,-13.18359375,-35.64453125,-22.4609375,-35.64453125,-14.6484375,0.0
121.046875,-38.57421875,-40.52734375,-20.99609375,-26.3671875,-86.9140625,0.0
121.05078125,-59.5703125,-42.96875,-23.92578125,-20.01953125,-72.75390625,0.0
121.0546875,-44.43359375,-38.57421875,-23.92578125,-24.90234375,-50.29296875,0.0
121.05859375,-20.5078125,-34.1796875,-21.97265625,-32.71484375,-168.45703125,0.0
121.0625,-16.11328125,-39.55078125,-29.78515625,-32.71484375,-129.8828125,0.0
121.06640625,-23.4375,-42.96875,-24.4140625,-28.3203125,-84.47265625,0.0
121.0703125,-30.2734375,-40.0390625,-20.99609375,-28.80859375,-51.26953125,0.0
121.07421875,-26.3671875,-36.1328125,-30.2734375,-40.0390625,-50.29296875,0.0
121.078125,-11.71875,-28.80859375,-38.57421875,-53.7109375,-52.24609375,0.0
121.08203125,-2.44140625,-24.4140625,-24.4140625,-52.734375,0.0,0.0
121.0859375,-17.578125,-30.76171875,-19.53125,-41.9921875,-17.578125,0.0
121.08984375,-45.41015625,-34.1796875,-35.15625,-32.2265625,36.62109375,0.0
121.09375,-50.78125,-37.109375,-29.296875,-32.2265625,87.40234375,0.0
121.09765625,-40.52734375,-37.59765625,-24.90234375,-39.55078125,10.7421875,0.0
121.1015625,-40.0390625,-35.64453125,-29.78515625,-38.57421875,-65.91796875,0.0
121.10546875,-47.8515625,-36.62109375,-31.25,-25.390625,-69.82421875,0.0
121.109375,-62.5,-44.921875,-29.296875,-20.99609375,-85.44921875,0.0
121.11328125,-62.98828125,-43.45703125,-14.16015625,-29.78515625,-77.63671875,0.0
121.1171875,-46.875,-36.62109375,-9.765625,-41.015625,-72.265625,0.0
121.12109375,-34.1796875,-26.3671875,-30.76171875,-36.1328125,-11.71875,0.0
121.125,-36.1328125,-24.90234375,-36.62109375,-26.85546875,67.87109375,0.0
121.12890625,-53.7109375,-37.109375,-35.15625,-29.78515625,54.6875,0.0
121.1328125,-55.6640625,-37.59765625,-33.203125,-27.83203125,26.3671875,0.0
121.13671875,-34.1796875,-37.109375,-32.2265625,-28.3203125,49.31640625,0.0
121.140625,-21.97265625,-36.62109375,-36.1328125,-33.203125,11.23046875,0.0
121.14453125,-20.5078125,-32.71484375,-32.71484375,-25.390625,-25.390625,0.0
121.1484375,-44.921875,-36.1328125,-33.203125,-20.01953125,-12.20703125,0.0
121.15234375,-58.59375,-38.0859375,-35.64453125,-24.4140625,26.3671875,0.0
121.15625,-46.38671875,-41.9921875,-26.85546875,-40.0390625,-14.6484375,0.0
121.16015625,-40.52734375,-47.8515625,-23.4375,-54.19921875,-100.5859375,0.0
121.1640625,-39.0625,-45.41015625,-32.71484375,-50.29296875,-62.5,0.0
121.16796875,-52.24609375,-45.41015625,-36.62109375,-41.50390625,-31.73828125,0.0
121.171875,-60.546875,-38.0859375,-34.66796875,-38.0859375,-3.90625,0.0
121.17578125,-42.48046875,-28.80859375,-33.69140625,-40.52734375,4.8828125,0.0
121.1796875,-30.2734375,-31.73828125,-38.57421875,-52.24609375,-25.87890625,0.0
121.18359375,-33.203125,-41.015625,-35.15625,-49.8046875,-2.9296875,0.0
121.1875,-38.57421875,-41.015625,-29.78515625,-29.78515625,7.32421875,0.0
121.19140625,-44.921875,-35.15625,-31.25,-30.2734375,-29.296875,0.0
121.1953125,-38.0859375,-30.76171875,-36.62109375,-45.41015625,-44.921875,0.0
121.19921875,-20.99609375,-32.71484375,-38.57421875,-52.734375,-82.51953125,0.0
121.203125,-20.99609375,-39.0625,-19.53125,-41.015625,-53.22265625,0.0
121.20703125,-39.55078125,-44.921875,-22.94921875,-26.85546875,-88.37890625,0.0
121.2109375,-49.8046875,-41.50390625,-43.9453125,-25.390625,-95.21484375,0.0
121.21484375,-40.0390625,-28.3203125,-41.50390625,-31.25,-45.41015625,0.0
121.21875,-20.5078125,-29.296875,-39.55078125,-37.59765625,-92.28515625,0.0
121.22265625,-19.04296875,-36.62109375,-37.109375,-41.015625,-49.8046875,0.0
121.2265625,-30.76171875,-37.59765625,-35.15625,-28.80859375,-31.73828125,0.0
121.23046875,-45.8984375,-37.59765625,-31.25,-24.90234375,-127.9296875,0.0
121.234375,-46.875,-37.109375,-32.2265625,-36.62109375,-101.5625,0.0
121.23828125,-32.71484375,-33.69140625,-33.69140625,-43.9453125,-75.68359375,0.0
121.2421875,-30.76171875,-25.390625,-34.1796875,-46.38671875,-73.2421875,0.0
121.24609375,-37.109375,-20.5078125,-6.8359375,-33.203125,-28.80859375,0.0
121.25,-46.38671875,-27.83203125,2.9296875,-24.90234375,-4.39453125,0.0
121.25390625,-38.57421875,-31.73828125,-28.3203125,-34.66796875,-14.6484375,0.0
121.2578125,-25.87890625,-29.78515625,-31.73828125,-47.8515625,-65.4296875,0.0
121.26171875,-25.390625,-27.34375,-31.73828125,-44.43359375,20.01953125,0.0
121.265625,-26.85546875,-27.34375,-28.80859375,-34.66796875,82.03125,0.0
121.26953125,-42.48046875,-31.25,-29.296875,-33.69140625,47.36328125,0.0
121.2734375,-41.9921875,-27.34375,-29.296875,-33.69140625,5.37109375,0.0
121.27734375,-18.06640625,-22.4609375,-27.34375,-37.109375,-5.37109375,0.0
121.28125,-7.32421875,-23.92578125,-24.90234375,-41.50390625,-107.91015625,0.0
121.28515625,-16.6015625,-24.4140625,-26.85546875,-32.2265625,-109.86328125,0.0
121.2890625,-26.3671875,-27.83203125,-19.53125,-19.04296875,-38.0859375,0.0
121.29296875,-26.85546875,-31.25,18.5546875,-21.97265625,-85.44921875,0.0
121.296875,-13.671875,-29.296875,17.578125,-31.25,-96.6796875,0.0
121.30078125,-1.46484375,-35.15625,-21.97265625,-28.80859375,-47.36328125,0.0
121.3046875,-2.9296875,-40.0390625,-28.3203125,-19.53125,-48.828125,0.0
121.30859375,-10.7421875,-35.64453125,-24.90234375,-9.27734375,-63.4765625,0.0
121.3125,-30.76171875,-34.66796875,-29.78515625,-10.25390625,-41.50390625,0.0
121.31640625,-26.85546875,-36.62109375,-31.73828125,-20.01953125,-69.82421875,0.0
121.3203125,-10.7421875,-27.34375,-26.3671875,-21.97265625,-88.8671875,0.0
121.32421875,-17.578125,-35.64453125,-30.2734375,-19.53125,-79.1015625,0.0
121.328125,-33.203125,-43.45703125,-33.69140625,-10.25390625,-96.6796875,0.0
121.33203125,-41.50390625,-37.109375,-37.59765625,-10.7421875,-56.15234375,0.0
121.3359375,-25.390625,-27.83203125,-25.87890625,-23.4375,-9.27734375,0.0
121.33984375,-3.90625,-24.90234375,-15.13671875,-25.87890625,47.8515625,0.0
121.34375,-9.765625,-31.25,-28.80859375,-20.01953125,-14.16015625,0.0
121.34765625,-25.390625,-33.69140625,-32.2265625,-15.13671875,-114.2578125,0.0
121.3515625,-34.1796875,-37.59765625,-20.99609375,-19.53125,-74.70703125,0.0
121.35546875,-36.1328125,-40.0390625,-28.3203125,-34.66796875,-37.59765625,0.0
121.359375,-23.4375,-37.59765625,-39.55078125,-42.48046875,-60.05859375,0.0
121.36328125,-22.4609375,-41.50390625,-35.15625,-35.15625,-24.4140625,0.0
121.3671875,-43.45703125,-40.0390625,-34.66796875,-30.2734375,40.52734375,0.0
121.37109375,-55.17578125,-34.66796875,-34.1796875,-30.76171875,40.52734375,0.0
121.375,-40.0390625,-39.55078125,-38.57421875,-34.1796875,-28.3203125,0.0
121.37890625,-10.7421875,-28.80859375,-30.2734375,-37.109375,-138.18359375,0.0
121.3828125,-12.20703125,-27.83203125,-22.4609375,-29.296875,-69.3359375,0.0
121.38671875,-35.64453125,-37.59765625,-27.83203125,-18.06640625,-29.296875,0.0
121.390625,-43.9453125,-37.109375,-29.78515625,-15.625,-71.77734375,0.0
121.39453125,-41.50390625,-34.1796875,-24.4140625,-20.5078125,-21.484375,0.0
121.3984375,-23.92578125,-33.69140625,-2.9296875,-27.34375,-32.71484375,0.0
121.40234375,-15.625,-30.76171875,-6.34765625,-26.85546875,-95.21484375,0.0
121.40625,-33.203125,-25.390625,-20.5078125,-23.92578125,-60.05859375,0.0
121.41015625,-57.12890625,-30.76171875,-20.5078125,-20.99609375,23.92578125,0.0
121.4140625,-49.31640625,-31.25,-24.4140625,-20.5078125,44.921875,0.0
121.41796875,-23.4375,-30.2734375,-25.390625,-27.83203125,-1.46484375,0.0
121.421875,-25.390625,-31.73828125,-28.3203125,-35.15625,-22.4609375,0.0
121.42578125,-36.62109375,-33.69140625,-28.3203125,-27.34375,10.25390625,0.0
121.4296875,-46.38671875,-36.1328125,-25.87890625,-13.671875,36.1328125,0.0
121.43359375,-45.8984375,-36.1328125,-27.34375,-16.6015625,12.20703125,0.0
121.4375,-26.85546875,-31.25,-30.76171875,-26.85546875,-25.87890625,0.0
121.44140625,-12.6953125,-29.296875,-20.01953125,-29.78515625,-96.6796875,0.0
121.4453125,-17.578125,-29.296875,-15.625,-18.06640625,-116.69921875,0.0
121.44921875,-34.1796875,-26.85546875,-30.76171875,-14.6484375,-13.671875,0.0
121.453125,-43.45703125,-34.66796875,-34.1796875,-27.34375,38.57421875,0.0
121.45703125,-32.2265625,-37.59765625,-26.3671875,-37.59765625,-48.828125,0.0
121.4609375,-20.99609375,-35.15625,-27.83203125,-42.96875,-30.76171875,0.0
121.46484375,-26.85546875,-35.64453125,-34.66796875,-31.25,18.5546875,0.0
121.46875,-42.96875,-43.45703125,-34.66796875,-20.99609375,-21.97265625,0.0
121.47265625,-48.828125,-41.015625,-32.2265625,-21.484375,-70.80078125,0.0
121.4765625,-34.66796875,-32.2265625,-30.2734375,-33.203125,-93.26171875,0.0
121.48046875,-19.04296875,-41.015625,-35.15625,-45.41015625,-103.02734375,0.0
121.484375,-26.85546875,-41.015625,-33.203125,-37.59765625,-82.51953125,0.0
121.48828125,-48.828125,-44.921875,-29.78515625,-24.90234375,-79.58984375,0.0
121.4921875,-59.5703125,-49.8046875,-36.1328125,-27.83203125,-83.49609375,0.0
121.49609375,-47.8515625,-46.875,-43.9453125,-43.9453125,-45.41015625,0.0
121.5,-23.92578125,-44.43359375,-35.64453125,-46.38671875,-80.56640625,0.0
121.50390625,-22.94921875,-36.62109375,-6.8359375,-41.9921875,-125.0,0.0
121.5078125,-41.015625,-38.0859375,-12.6953125,-32.2265625,-56.15234375,0.0
121.51171875,-45.41015625,-39.0625,-36.62109375,-24.4140625,-108.88671875,0.0
121.515625,-34.66796875,-37.109375,-40.52734375,-33.69140625,-120.1171875,0.0
121.51953125,-19.04296875,-35.64453125,-36.62109375,-41.9921875,-71.2890625,0.0
121.5234375,-13.18359375,-28.3203125,-29.78515625,-36.1328125,-68.84765625,0.0
121.52734375,-30.2734375,-30.2734375,-33.69140625,-35.15625,-66.89453125,0.0
121.53125,-47.8515625,-37.59765625,-26.3671875,-33.203125,-62.5,0.0
121.53515625,-39.0625,-39.55078125,-24.90234375,-38.0859375,-57.12890625,0.0
121.5390625,-19.04296875,-31.73828125,-35.15625,-42.96875,-38.0859375,0.0
121.54296875,-12.6953125,-23.4375,-29.78515625,-35.64453125,-81.54296875,0.0
121.546875,-25.390625,-31.25,-30.2734375,-25.87890625,-59.5703125,0.0
121.55078125,-33.69140625,-32.71484375,-32.2265625,-18.5546875,26.3671875,0.0
121.5546875,-26.85546875,-22.4609375,-31.25,-26.3671875,-30.76171875,0.0
121.55859375,-16.6015625,-27.34375,-27.34375,-39.0625,-85.44921875,0.0
121.5625,-12.6953125,-29.296875,-22.4609375,-35.64453125,28.3203125,0.0
121.56640625,-26.3671875,-27.34375,-23.92578125,-26.3671875,63.4765625,0.0
121.5703125,-47.8515625,-29.78515625,-28.3203125,-28.80859375,28.80859375,0.0
121.57421875,-42.48046875,-29.296875,-28.80859375,-36.62109375,-18.06640625,0.0
121.578125,-12.20703125,-27.83203125,-4.8828125,-36.62109375,-72.265625,0.0
121.58203125,-9.765625,-29.78515625,-7.32421875,-37.59765625,-28.80859375,0.0
121.5859375,-23.4375,-26.85546875,-26.85546875,-31.25,22.4609375,0.0
121.58984375,-35.15625,-25.390625,-27.83203125,-20.01953125,36.1328125,0.0
121.59375,-40.52734375,-32.71484375,-34.1796875,-26.85546875,10.25390625,0.0
121.59765625,-24.90234375,-33.203125,-34.66796875,-39.0625,-17.08984375,0.0
121.6015625,-12.20703125,-30.76171875,-38.57421875,-41.9921875,4.8828125,0.0
121.60546875,-16.11328125,-31.25,-40.52734375,-30.2734375,-59.08203125,0.0
121.609375,-26.3671875,-32.2265625,-39.0625,-22.4609375,-48.828125,0.0
121.61328125,-26.85546875,-23.92578125,-37.109375,-24.90234375,25.390625,0.0
121.6171875,-21.484375,-18.06640625,-43.45703125,-34.66796875,65.4296875,0.0
121.62109375,-12.6953125,-19.53125,-25.87890625,-36.1328125,52.24609375,0.0
121.625,-19.04296875,-26.85546875,-5.37109375,-28.80859375,35.15625,0.0
121.62890625,-37.59765625,-33.203125,-27.34375,-22.94921875,19.04296875,0.0
121.6328125,-36.1328125,-37.59765625,-42.48046875,-23.92578125,-17.08984375,0.0
121.63671875,-23.92578125,-33.69140625,-41.9921875,-35.64453125,-55.17578125,0.0
121.640625,-17.08984375,-28.80859375,-41.015625,-36.1328125,-36.62109375,0.0
121.64453125,-22.94921875,-31.25,-40.0390625,-30.2734375,-20.99609375,0.0
121.6484375,-42.48046875,-30.2734375,-38.57421875,-23.92578125,8.7890625,0.0
121.65234375,-50.78125,-33.203125,-38.57421875,-24.4140625,41.50390625,0.0
121.65625,-42.48046875,-33.203125,-42.96875,-39.0625,3.90625,0.0
121.66015625,-25.87890625,-28.3203125,-43.9453125,-45.8984375,-27.83203125,0.0
121.6640625,-22.94921875,-26.85546875,-36.62109375,-38.0859375,-1.953125,0.0
121.66796875,-41.015625,-29.296875,-11.23046875,-32.71484375,-109.86328125,0.0
121.671875,-55.6640625,-34.1796875,-13.671875,-31.73828125,-187.98828125,0.0
121.67578125,-29.296875,-31.73828125,-34.1796875,-28.80859375,-142.08984375,0.0
121.6796875,-2.44140625,-26.3671875,-29.296875,-27.83203125,-110.83984375,0.0
121.68359375,-18.06640625,-27.83203125,-29.296875,-29.296875,-17.08984375,0.0
121.6875,-31.25,-31.73828125,-34.1796875,-20.99609375,20.5078125,0.0
121.69140625,-36.62109375,-34.1796875,-40.0390625,-17.578125,20.99609375,0.0
121.6953125,-32.71484375,-33.69140625,-39.55078125,-32.71484375,18.06640625,0.0
121.69921875,-20.5078125,-25.87890625,-38.0859375,-43.45703125,29.78515625,0.0
121.703125,-16.11328125,-17.578125,-36.62109375,-36.62109375,36.1328125,0.0
121.70703125,-35.15625,-26.3671875,-36.1328125,-27.83203125,-28.3203125,0.0
121.7109375,-55.17578125,-40.0390625,-38.0859375,-25.87890625,-32.2265625,0.0
121.71484375,-45.8984375,-40.0390625,-41.015625,-33.203125,25.390625,0.0
121.71875,-22.94921875,-31.73828125,-42.48046875,-35.15625,62.01171875,0.0
121.72265625,-18.06640625,-28.80859375,-38.0859375,-32.71484375,-10.25390625,0.0
121.7265625,-25.390625,-28.3203125,-34.66796875,-30.76171875,-74.70703125,0.0
121.73046875,-39.0625,-24.90234375,-33.69140625,-27.34375,-70.80078125,0.0
121.734375,-43.9453125,-26.85546875,-35.15625,-32.71484375,-47.36328125,0.0
121.73828125,-26.3671875,-30.2734375,-39.55078125,-45.41015625,-22.4609375,0.0
121.7421875,-15.13671875,-24.4140625,-14.6484375,-45.8984375,1.953125,0.0
121.74609375,-24.90234375,-20.99609375,-7.8125,-31.25,4.39453125,0.0
121.75,-40.52734375,-34.1796875,-40.52734375,-29.78515625,31.73828125,0.0
121.75390625,-36.1328125,-35.15625,-42.48046875,-34.66796875,52.24609375,0.0
121.7578125,-20.01953125,-23.92578125,-29.296875,-37.109375,-52.24609375,0.0
121.76171875,-9.765625,-25.390625,-30.76171875,-35.64453125,-92.28515625,0.0
121.765625,-13.18359375,-26.85546875,-32.2265625,-27.34375,-44.43359375,0.0
121.76953125,-26.85546875,-24.90234375,-23.92578125,-19.53125,-41.015625,0.0
121.7734375,-33.203125,-27.83203125,-14.16015625,-21.97265625,-19.53125,0.0
121.77734375,-17.08984375,-26.3671875,-28.3203125,-28.3203125,42.96875,0.0
121.78125,-7.8125,-24.4140625,-38.0859375,-27.83203125,20.5078125,0.0
121.78515625,-16.11328125,-20.99609375,-26.3671875,-25.87890625,-59.08203125,0.0
121.7890625,-35.15625,-18.06640625,-23.4375,-21.484375,-42.48046875,0.0
121.79296875,-44.43359375,-23.92578125,-31.73828125,-24.90234375,3.41796875,0.0
121.796875,-25.87890625,-28.3203125,-34.66796875,-35.64453125,-41.015625,0.0
121.80078125,-10.7421875,-26.85546875,-33.203125,-39.55078125,-153.80859375,0.0
121.8046875,-21.97265625,-25.87890625,-28.3203125,-40.52734375,-186.03515625,0.0
121.80859375,-42.48046875,-36.1328125,-29.296875,-33.203125,-116.2109375,0.0
121.8125,-42.96875,-41.015625,-34.1796875,-21.484375,-39.0625,0.0
121.81640625,-33.69140625,-33.69140625,-21.97265625,-32.71484375,-33.69140625,0.0
121.8203125,-20.01953125,-31.25,-15.625,-41.50390625,-13.671875,0.0
121.82421875,-20.01953125,-31.73828125,-29.78515625,-31.25,25.390625,0.0
121.828125,-40.52734375,-32.71484375,-36.62109375,-18.5546875,28.3203125,0.0
121.83203125,-50.29296875,-29.78515625,-40.0390625,-19.53125,48.33984375,0.0
121.8359375,-36.1328125,-25.390625,-40.52734375,-33.69140625,11.23046875,0.0
121.83984375,-18.5546875,-34.1796875,-45.8984375,-43.9453125,-155.2734375,0.0
121.84375,-19.53125,-36.62109375,-37.109375,-37.59765625,-173.828125,0.0
121.84765625,-35.15625,-32.2265625,-25.390625,-31.73828125,-81.0546875,0.0
121.8515625,-45.41015625,-36.62109375,-35.15625,-38.0859375,-20.99609375,0.0
121.85546875,-27.83203125,-38.57421875,-38.0859375,-42.48046875,-0.9765625,0.0
121.859375,-2.9296875,-27.34375,-35.64453125,-46.875,-78.61328125,0.0
121.86328125,1.46484375,-20.99609375,-29.78515625,-47.8515625,-61.5234375,0.0
121.8671875,-15.13671875,-31.25,-31.25,-37.59765625,-15.13671875,0.0
121.87109375,-32.2265625,-38.0859375,-39.0625,-33.203125,-21.97265625,0.0
121.875,-39.55078125,-33.203125,-39.0625,-45.8984375,-3.90625,0.0
121.87890625,-34.1796875,-28.80859375,-38.57421875,-55.17578125,-52.734375,0.0
121.8828125,-28.80859375,-28.80859375,-41.9921875,-50.78125,-84.9609375,0.0
121.88671875,-46.875,-34.66796875,-43.9453125,-39.55078125,-53.22265625,0.0
121.890625,-67.87109375,-38.57421875,-38.57421875,-39.0625,-28.80859375,0.0
121.89453125,-62.5,-36.62109375,-35.64453125,-42.48046875,-112.79296875,0.0
121.8984375,-41.9921875,-34.66796875,-37.59765625,-45.8984375,-146.97265625,0.0
121.90234375,-27.34375,-29.78515625,-40.0390625,-42.96875,-1.953125,0.0
121.90625,-40.52734375,-31.25,-34.66796875,-37.59765625,6.34765625,0.0
121.91015625,-57.12890625,-34.66796875,-35.64453125,-37.59765625,-116.2109375,0.0
121.9140625,-46.38671875,-31.73828125,-40.52734375,-36.1328125,-108.3984375,0.0
121.91796875,-32.2265625,-28.80859375,-34.66796875,-42.96875,-91.30859375,0.0
121.921875,-26.3671875,-26.3671875,-37.59765625,-47.36328125,-154.78515625,0.0
121.92578125,-29.78515625,-24.4140625,-37.109375,-34.66796875,-95.703125,0.0
121.9296875,-43.9453125,-32.71484375,-31.73828125,-28.3203125,-32.71484375,0.0
121.93359375,-46.38671875,-38.57421875,-33.203125,-46.38671875,-132.8125,0.0
121.9375,-34.1796875,-25.87890625,-33.69140625,-56.15234375,-144.04296875,0.0
121.94140625,-23.4375,-20.01953125,-29.78515625,-45.8984375,-108.3984375,0.0
121.9453125,-27.34375,-24.4140625,-29.296875,-33.203125,-151.3671875,0.0
121.94921875,-48.828125,-26.3671875,-31.25,-30.76171875,-101.5625,0.0
121.953125,-61.03515625,-33.69140625,-27.34375,-37.59765625,-13.671875,0.0
121.95703125,-43.9453125,-32.71484375,-25.390625,-44.921875,-3.41796875,0.0
121.9609375,-29.78515625,-26.85546875,-28.80859375,-45.8984375,-22.94921875,0.0
121.96484375,-36.62109375,-28.80859375,-26.85546875,-34.66796875,-31.73828125,0.0
121.96875,-49.31640625,-30.2734375,-26.3671875,-19.04296875,-20.01953125,0.0
121.97265625,-56.15234375,-34.66796875,-34.1796875,-18.06640625,-30.2734375,0.0
121.9765625,-41.015625,-32.2265625,-35.15625,-24.4140625,-48.33984375,0.0
121.98046875,-17.08984375,-28.3203125,-35.64453125,-29.78515625,-48.828125,0.0
121.984375,-16.6015625,-37.59765625,-35.15625,-20.99609375,-14.16015625,0.0
121.98828125,-41.015625,-41.015625,-29.78515625,-12.6953125,25.390625,0.0
121.9921875,-52.734375,-32.71484375,-28.3203125,-25.87890625,6.34765625,0.0
121.99609375,-40.52734375,-31.25,-22.94921875,-36.1328125,-4.39453125,0.0
122.0,-20.99609375,-31.73828125,-23.4375,-43.45703125,-93.26171875,0.0
122.00390625,-19.04296875,-25.390625,-31.25,-39.0625,-78.125,0.0
122.0078125,-37.109375,-30.76171875,-35.15625,-32.2265625,49.8046875,0.0
122.01171875,-42.48046875,-34.1796875,-37.109375,-32.71484375,33.203125,0.0
122.015625,-34.1796875,-30.76171875,-40.52734375,-39.0625,12.20703125,0.0
122.01953125,-20.99609375,-30.76171875,-41.015625,-48.828125,-1.953125,0.0
122.0234375,-15.13671875,-30.2734375,-36.1328125,-46.38671875,-3.90625,0.0
122.02734375,-23.4375,-28.80859375,-33.69140625,-33.203125,14.16015625,0.0
122.03125,-35.64453125,-26.3671875,-36.1328125,-32.2265625,22.4609375,0.0
122.03515625,-32.71484375,-23.4375,-34.66796875,-41.015625,2.44140625,0.0
122.0390625,-13.671875,-28.80859375,-34.66796875,-37.59765625,-48.828125,0.0
122.04296875,-15.625,-33.203125,-37.59765625,-38.0859375,-53.7109375,0.0
122.046875,-31.25,-34.1796875,-34.1796875,-33.203125,-10.25390625,0.0
122.05078125,-40.0390625,-29.78515625,-33.69140625,-23.4375,-55.17578125,0.0
122.0546875,-30.2734375,-20.99609375,-28.3203125,-22.94921875,-138.18359375,0.0
122.05859375,-11.23046875,-21.97265625,-22.4609375,-32.2265625,-102.5390625,0.0
122.0625,-3.41796875,-26.3671875,-29.78515625,-28.3203125,-76.171875,0.0
122.06640625,-18.06640625,-27.34375,-41.015625,-23.4375,-52.734375,0.0
122.0703125,-33.203125,-26.85546875,-42.96875,-24.4140625,-53.7109375,0.0
122.07421875,-26.85546875,-28.80859375,-42.48046875,-26.3671875,-41.50390625,0.0
122.078125,-9.765625,-27.83203125,-40.52734375,-30.2734375,-33.203125,0.0
122.08203125,-6.34765625,-19.53125,-39.0625,-36.62109375,-66.89453125,0.0
122.0859375,-13.671875,-18.06640625,-36.1328125,-43.45703125,5.37109375,0.0
122.08984375,-34.1796875,-29.296875,-38.0859375,-44.43359375,62.98828125,0.0
122.09375,-41.9921875,-26.85546875,-39.55078125,-43.45703125,0.48828125,0.0
122.09765625,-20.01953125,-19.04296875,-36.62109375,-42.96875,-94.23828125,0.0
122.1015625,-9.27734375,-28.3203125,-35.15625,-42.96875,-96.19140625,0.0
122.10546875,-25.390625,-39.55078125,-35.15625,-40.0390625,-16.6015625,0.0
122.109375,-46.38671875,-42.96875,-39.0625,-35.64453125,0.9765625,0.0
122.11328125,-54.19921875,-43.45703125,-43.9453125,-45.41015625,-50.78125,0.0
122.1171875,-37.59765625,-36.1328125,-43.9453125,-43.9453125,-71.2890625,0.0
122.12109375,-14.6484375,-27.34375,-32.71484375,-40.0390625,-92.28515625,0.0
122.125,-21.97265625,-31.73828125,-31.73828125,-33.69140625,-88.37890625,0.0
122.12890625,-41.015625,-37.59765625,-31.73828125,-16.11328125,-107.91015625,0.0
122.1328125,-44.43359375,-30.76171875,-25.87890625,-26.3671875,-140.13671875,0.0
122.13671875,-25.87890625,-24.90234375,-29.296875,-40.52734375,-107.421875,0.0
122.140625,-4.8828125,-31.73828125,-29.78515625,-37.59765625,-51.26953125,0.0
122.14453125,-17.08984375,-37.59765625,-31.25,-36.62109375,-1.953125,0.0
122.1484375,-44.43359375,-32.2265625,-31.25,-31.25,36.62109375,0.0
122.15234375,-51.7578125,-29.78515625,-32.2265625,-28.80859375,36.62109375,0.0
122.15625,-36.62109375,-32.2265625,-33.69140625,-39.55078125,-12.6953125,0.0
122.16015625,-26.3671875,-30.2734375,-33.203125,-48.33984375,-42.96875,0.0
122.1640625,-32.2265625,-27.83203125,-31.73828125,-37.59765625,17.08984375,0.0
122.16796875,-43.9453125,-27.34375,-28.3203125,-23.92578125,54.6875,0.0
122.171875,-52.734375,-30.76171875,-31.25,-18.06640625,58.59375,0.0
122.17578125,-44.921875,-32.71484375,-26.3671875,-22.4609375,17.578125,0.0
122.1796875,-37.109375,-31.73828125,-19.53125,-43.9453125,33.203125,0.0
122.18359375,-41.015625,-40.0390625,-26.3671875,-47.36328125,51.26953125,0.0
122.1875,-52.734375,-43.9453125,-29.78515625,-25.390625,-34.1796875,0.0
122.19140625,-68.84765625,-44.43359375,-25.390625,-16.11328125,-37.59765625,0.0
122.1953125,-63.4765625,-38.0859375,-30.76171875,-39.0625,-76.171875,0.0
122.19921875,-41.9921875,-28.80859375,-37.59765625,-49.31640625,-161.1328125,0.0
122.203125,-30.76171875,-23.4375,-31.73828125,-32.71484375,-214.35546875,0.0
122.20703125,-39.55078125,-23.4375,-27.34375,-22.4609375,-233.3984375,0.0
122.2109375,-46.875,-29.296875,-30.2734375,-25.390625,-206.54296875,0.0
122.21484375,-35.64453125,-22.94921875,-30.2734375,-25.87890625,-108.88671875,0.0
122.21875,-14.6484375,-20.01953125,-30.76171875,-41.015625,-8.7890625,0.0
122.22265625,-9.27734375,-31.73828125,-29.78515625,-41.015625,-58.10546875,0.0
122.2265625,-25.87890625,-35.15625,-28.80859375,-32.2265625,-45.8984375,0.0
122.23046875,-38.0859375,-31.73828125,-28.80859375,-28.3203125,-46.38671875,0.0
122.234375,-27.83203125,-28.80859375,-27.83203125,-34.66796875,-77.63671875,0.0
122.23828125,-25.390625,-28.80859375,-20.5078125,-44.43359375,-89.84375,0.0
122.2421875,-27.83203125,-29.78515625,-12.6953125,-41.015625,-65.91796875,0.0
122.24609375,-36.62109375,-30.76171875,-23.4375,-42.96875,19.53125,0.0
122.25,-57.12890625,-35.15625,-35.15625,-42.96875,56.15234375,0.0
122.25390625,-59.08203125,-38.0859375,-34.66796875,-47.8515625,34.1796875,0.0
122.2578125,-42.96875,-33.69140625,-34.66796875,-54.19921875,-4.39453125,0.0
122.26171875,-32.2265625,-31.73828125,-35.64453125,-53.7109375,-14.6484375,0.0
122.265625,-37.59765625,-37.59765625,-35.64453125,-41.9921875,-28.80859375,0.0
122.26953125,-48.33984375,-34.1796875,-26.85546875,-30.76171875,-65.4296875,0.0
122.2734375,-46.875,-26.85546875,-26.3671875,-35.15625,-86.9140625,0.0
122.27734375,-31.73828125,-27.34375,-34.1796875,-43.9453125,-3.90625,0.0
122.28125,-25.87890625,-36.62109375,-26.85546875,-51.7578125,28.80859375,0.0
122.28515625,-31.73828125,-40.52734375,-25.390625,-50.29296875,-2.44140625,0.0
122.2890625,-37.109375,-37.109375,-26.3671875,-40.52734375,-20.01953125,0.0
122.29296875,-48.33984375,-30.76171875,-23.4375,-28.80859375,-85.44921875,0.0
122.296875,-48.828125,-31.73828125,-29.296875,-33.203125,-20.5078125,0.0
122.30078125,-29.296875,-35.64453125,-27.34375,-49.31640625,28.80859375,0.0
122.3046875,-27.83203125,-31.25,-25.390625,-39.0625,-35.15625,0.0
122.30859375,-41.50390625,-29.296875,-28.80859375,-36.1328125,-42.48046875,0.0
122.3125,-53.22265625,-35.15625,-33.203125,-48.33984375,38.0859375,0.0
122.31640625,-50.78125,-32.71484375,-38.0859375,-54.6875,15.625,0.0
122.3203125,-30.2734375,-32.71484375,-36.1328125,-54.19921875,-36.1328125,0.0
122.32421875,-29.78515625,-39.0625,-28.80859375,-47.36328125,41.50390625,0.0
122.328125,-47.36328125,-44.43359375,-22.4609375,-30.76171875,-21.97265625,0.0
122.33203125,-55.6640625,-41.9921875,-20.5078125,-26.85546875,-46.38671875,0.0
122.3359375,-37.59765625,-30.2734375,-22.4609375,-34.66796875,-39.55078125,0.0
122.33984375,-19.53125,-35.64453125,-29.296875,-34.1796875,-41.9921875,0.0
122.34375,-26.85546875,-36.62109375,-28.80859375,-29.296875,23.4375,0.0
122.34765625,-44.921875,-31.73828125,-24.4140625,-26.3671875,-18.06640625,0.0
122.3515625,-57.12890625,-37.109375,-26.3671875,-24.4140625,-60.05859375,0.0
122.35546875,-46.38671875,-34.66796875,-24.90234375,-34.1796875,-28.80859375,0.0
122.359375,-22.4609375,-28.80859375,-27.83203125,-41.50390625,-9.765625,0.0
122.36328125,-16.11328125,-31.73828125,-30.2734375,-35.15625,-0.48828125,0.0
122.3671875,-27.34375,-34.66796875,-27.83203125,-27.34375,-14.16015625,0.0
122.37109375,-38.57421875,-38.57421875,-32.2265625,-23.4375,63.4765625,0.0
122.375,-38.57421875,-40.0390625,-36.62109375,-32.2265625,122.55859375,0.0
122.37890625,-13.18359375,-24.4140625,-31.25,-43.9453125,55.17578125,0.0
122.3828125,-7.8125,-21.484375,-29.296875,-41.015625,8.30078125,0.0
122.38671875,-28.3203125,-36.62109375,-34.1796875,-29.296875,28.3203125,0.0
122.390625,-53.7109375,-45.41015625,-39.0625,-30.76171875,58.59375,0.0
122.39453125,-48.828125,-41.9921875,-39.55078125,-41.015625,37.59765625,0.0
122.3984375,-34.1796875,-33.69140625,-34.1796875,-51.7578125,-48.33984375,0.0
122.40234375,-35.15625,-26.85546875,-31.25,-50.78125,-102.05078125,0.0
122.40625,-33.69140625,-27.34375,-24.4140625,-31.25,-4.39453125,0.0
122.41015625,-47.8515625,-37.109375,-23.92578125,-21.484375,-48.33984375,0.0
122.4140625,-41.50390625,-40.52734375,-31.73828125,-28.80859375,-159.1796875,0.0
122.41796875,-25.87890625,-39.55078125,-27.34375,-40.52734375,-111.81640625,0.0
122.421875,-29.78515625,-34.66796875,-29.296875,-44.43359375,-39.0625,0.0
122.42578125,-41.9921875,-35.15625,-31.25,-36.62109375,-15.625,0.0
122.4296875,-56.15234375,-39.0625,-22.4609375,-30.76171875,-41.50390625,0.0
122.43359375,-57.6171875,-39.55078125,-20.5078125,-21.484375,-55.6640625,0.0
122.4375,-41.50390625,-32.2265625,-24.90234375,-34.66796875,-17.08984375,0.0
122.44140625,-31.25,-29.78515625,-29.78515625,-51.7578125,20.5078125,0.0
122.4453125,-41.015625,-29.296875,-31.25,-39.55078125,3.90625,0.0
122.44921875,-48.828125,-34.1796875,-36.62109375,-35.15625,-34.1796875,0.0
122.453125,-57.12890625,-39.55078125,-39.55078125,-35.15625,-24.4140625,0.0
122.45703125,-44.921875,-28.80859375,-35.15625,-42.96875,-4.8828125,0.0
122.4609375,-30.2734375,-29.78515625,-36.62109375,-55.17578125,5.859375,0.0
122.46484375,-39.55078125,-32.71484375,-39.0625,-41.015625,-8.30078125,0.0
122.46875,-48.33984375,-32.2265625,-30.76171875,-29.296875,-27.34375,0.0
122.47265625,-55.6640625,-38.0859375,-29.78515625,-37.59765625,-53.7109375,0.0
122.4765625,-53.22265625,-43.9453125,-37.109375,-53.7109375,-57.6171875,0.0
122.48046875,-34.1796875,-40.0390625,-35.15625,-58.10546875,-48.33984375,0.0
122.484375,-33.203125,-33.203125,-31.73828125,-43.45703125,-70.3125,0.0
122.48828125,-49.8046875,-38.0859375,-35.64453125,-17.578125,-63.96484375,0.0
122.4921875,-57.12890625,-43.9453125,-42.96875,-25.87890625,-38.0859375,0.0
122.49609375,-36.62109375,-38.0859375,-42.96875,-48.33984375,-22.4609375,0.0
122.5,-20.01953125,-28.80859375,-35.64453125,-48.33984375,-59.5703125,0.0
122.50390625,-26.3671875,-29.78515625,-30.2734375,-42.48046875,-50.78125,0.0
122.5078125,-46.38671875,-35.64453125,-31.25,-35.64453125,-16.11328125,0.0
122.51171875,-63.4765625,-37.109375,-33.69140625,-26.85546875,-42.48046875,0.0
122.515625,-47.36328125,-38.0859375,-31.25,-30.2734375,-62.98828125,0.0
122.51953125,-35.15625,-32.2265625,-31.25,-48.33984375,-56.15234375,0.0
122.5234375,-36.62109375,-26.3671875,-30.2734375,-44.43359375,-106.93359375,0.0
122.52734375,-49.31640625,-32.71484375,-28.80859375,-33.69140625,-24.4140625,0.0
122.53125,-58.10546875,-34.66796875,-30.2734375,-32.71484375,52.24609375,0.0
122.53515625,-39.0625,-24.4140625,-29.296875,-27.34375,-39.55078125,0.0
122.5390625,-20.99609375,-20.5078125,-32.71484375,-37.109375,-94.7265625,0.0
122.54296875,-19.53125,-24.90234375,-30.2734375,-42.48046875,-50.29296875,0.0
122.546875,-34.66796875,-32.71484375,-25.87890625,-26.85546875,-26.85546875,0.0
122.55078125,-55.17578125,-35.64453125,-26.3671875,-11.71875,-23.92578125,0.0
122.5546875,-46.38671875,-36.62109375,-30.76171875,-31.25,-30.76171875,0.0
122.55859375,-27.83203125,-33.69140625,-30.2734375,-57.6171875,-21.484375,0.0
122.5625,-18.5546875,-29.78515625,-26.85546875,-44.43359375,10.7421875,0.0
122.56640625,-31.25,-31.25,-23.92578125,-40.0390625,-49.8046875,0.0
122.5703125,-42.48046875,-33.203125,-19.04296875,-36.1328125,-37.109375,0.0
122.57421875,-34.1796875,-30.76171875,-21.97265625,-30.2734375,14.16015625,0.0
122.578125,-21.484375,-30.2734375,-22.94921875,-46.38671875,-4.8828125,0.0
122.58203125,-13.671875,-34.66796875,-25.390625,-48.33984375,-40.0390625,0.0
122.5859375,-22.4609375,-37.59765625,-27.34375,-34.1796875,-35.64453125,0.0
122.58984375,-41.9921875,-37.109375,-26.85546875,-21.484375,20.5078125,0.0
122.59375,-44.921875,-31.73828125,-27.34375,-28.80859375,-30.2734375,0.0
122.59765625,-30.76171875,-32.71484375,-26.3671875,-30.76171875,-139.6484375,0.0
122.6015625,-25.87890625,-41.015625,-24.90234375,-27.34375,-104.00390625,0.0
122.60546875,-37.59765625,-41.9921875,-25.87890625,-36.62109375,-73.73046875,0.0
122.609375,-54.19921875,-43.45703125,-28.80859375,-25.87890625,-4.8828125,0.0
122.61328125,-51.26953125,-43.45703125,-23.92578125,-24.90234375,101.07421875,0.0
122.6171875,-31.25,-36.62109375,-20.99609375,-26.85546875,34.1796875,0.0
122.62109375,-16.11328125,-31.73828125,-19.53125,-29.78515625,-67.3828125,0.0
122.625,-12.6953125,-35.64453125,-20.5078125,-45.41015625,8.30078125,0.0
122.62890625,-24.4140625,-44.921875,-24.4140625,-35.64453125,41.015625,0.0
122.6328125,-27.83203125,-41.9921875,-26.85546875,-34.1796875,-25.87890625,0.0
122.63671875,-10.7421875,-32.2265625,-30.76171875,-52.734375,-44.921875,0.0
122.640625,1.46484375,-30.76171875,-29.296875,-52.24609375,-161.62109375,0.0
122.64453125,-4.39453125,-33.69140625,-27.34375,-40.52734375,-291.50390625,0.0
122.6484375,-34.1796875,-32.2265625,-23.92578125,-27.83203125,-172.36328125,0.0
122.65234375,-56.15234375,-31.25,-18.5546875,-20.5078125,-26.85546875,0.0
122.65625,-47.8515625,-38.0859375,-14.6484375,-34.66796875,-40.52734375,0.0
122.66015625,-37.109375,-40.0390625,-20.99609375,-53.22265625,-96.6796875,0.0
122.6640625,-31.73828125,-36.1328125,-28.80859375,-45.8984375,-88.8671875,0.0
122.66796875,-38.57421875,-39.0625,-28.3203125,-29.78515625,-96.6796875,0.0
122.671875,-50.29296875,-41.9921875,-25.390625,-27.34375,-98.14453125,0.0
122.67578125,-46.875,-41.50390625,-23.92578125,-40.0390625,-20.5078125,0.0
122.6796875,-30.2734375,-29.78515625,-24.90234375,-50.29296875,-92.28515625,0.0
122.68359375,-24.90234375,-27.83203125,-22.4609375,-35.64453125,-69.3359375,0.0
122.6875,-41.50390625,-39.55078125,-18.06640625,-23.4375,26.85546875,0.0
122.69140625,-59.08203125,-41.50390625,-21.484375,-25.390625,1.46484375,0.0
122.6953125,-44.43359375,-34.1796875,-25.87890625,-29.78515625,26.3671875,0.0
122.69921875,-21.97265625,-29.78515625,-22.94921875,-37.59765625,-29.78515625,0.0
122.703125,-29.78515625,-35.64453125,-22.4609375,-42.48046875,-125.9765625,0.0
122.70703125,-46.875,-39.55078125,-19.04296875,-37.59765625,-76.171875,0.0
122.7109375,-56.15234375,-41.9921875,-18.5546875,-25.87890625,26.85546875,0.0
122.71484375,-45.41015625,-38.57421875,-19.04296875,-29.78515625,25.390625,0.0
122.71875,-22.94921875,-32.71484375,-18.5546875,-41.50390625,-79.1015625,0.0
122.72265625,-14.6484375,-29.296875,-19.04296875,-28.3203125,-63.4765625,0.0
122.7265625,-30.2734375,-26.3671875,-21.484375,-6.34765625,-27.34375,0.0
122.73046875,-49.8046875,-28.3203125,-29.78515625,-29.78515625,-24.90234375,0.0
122.734375,-41.015625,-31.73828125,-26.85546875,-42.96875,47.8515625,0.0
122.73828125,-20.01953125,-25.390625,-22.4609375,-41.015625,50.29296875,0.0
122.7421875,-19.53125,-26.3671875,-26.3671875,-41.50390625,-30.2734375,0.0
122.74609375,-33.203125,-31.73828125,-22.94921875,-36.62109375,-62.5,0.0
122.75,-46.875,-36.62109375,-20.99609375,-32.71484375,-88.8671875,0.0
122.75390625,-56.15234375,-35.15625,-27.34375,-36.62109375,-112.79296875,0.0
122.7578125,-42.48046875,-27.34375,-26.3671875,-41.015625,-148.92578125,0.0
122.76171875,-27.83203125,-25.390625,-20.5078125,-36.62109375,-119.62890625,0.0
122.765625,-37.59765625,-31.73828125,-22.4609375,-39.0625,-54.19921875,0.0
122.76953125,-51.26953125,-33.203125,-21.97265625,-32.71484375,-59.5703125,0.0
122.7734375,-52.24609375,-36.62109375,-23.92578125,-37.109375,-68.359375,0.0
122.77734375,-36.62109375,-46.38671875,-29.78515625,-45.41015625,-15.13671875,0.0
122.78125,-24.90234375,-41.50390625,-32.71484375,-43.9453125,0.48828125,0.0
122.78515625,-26.85546875,-31.73828125,-29.78515625,-28.3203125,23.92578125,0.0
122.7890625,-51.26953125,-44.43359375,-30.76171875,-25.87890625,113.28125,0.0
122.79296875,-63.96484375,-46.875,-27.34375,-39.55078125,62.98828125,0.0
122.796875,-46.875,-39.55078125,-22.94921875,-41.50390625,42.96875,0.0
122.80078125,-28.3203125,-41.50390625,-25.87890625,-52.734375,-18.06640625,0.0
122.8046875,-25.390625,-37.59765625,-26.3671875,-48.33984375,-70.80078125,0.0
122.80859375,-41.9921875,-39.0625,-26.85546875,-38.0859375,-52.734375,0.0
122.8125,-48.33984375,-38.57421875,-25.87890625,-35.15625,-57.6171875,0.0
122.81640625,-29.296875,-31.25,-20.5078125,-41.50390625,-48.828125,0.0
122.8203125,-12.6953125,-37.109375,-22.4609375,-51.7578125,-97.65625,0.0
122.82421875,-12.6953125,-44.43359375,-34.1796875,-51.7578125,-64.453125,0.0
122.828125,-26.3671875,-42.48046875,-39.55078125,-40.0390625,-12.6953125,0.0
122.83203125,-32.71484375,-41.50390625,-37.109375,-34.1796875,7.8125,0.0
122.8359375,-16.6015625,-40.52734375,-32.71484375,-41.9921875,39.55078125,0.0
122.83984375,1.953125,-32.71484375,-26.85546875,-35.64453125,23.92578125,0.0
122.84375,0.0,-33.203125,-25.87890625,-29.296875,-75.68359375,0.0
122.84765625,-20.01953125,-39.0625,-29.296875,-32.2265625,-246.09375,0.0
122.8515625,-38.57421875,-45.8984375,-25.87890625,-32.71484375,-290.52734375,0.0
122.85546875,-29.78515625,-42.96875,-27.83203125,-44.921875,-170.41015625,0.0
122.859375,-10.25390625,-36.62109375,-32.2265625,-41.9921875,-43.45703125,0.0
122.86328125,-16.11328125,-44.921875,-32.2265625,-28.80859375,-13.18359375,0.0
122.8671875,-24.90234375,-41.50390625,-29.296875,-33.203125,30.2734375,0.0
122.87109375,-35.15625,-36.62109375,-26.85546875,-31.73828125,23.92578125,0.0
122.875,-37.109375,-37.109375,-30.76171875,-31.73828125,-11.23046875,0.0
122.87890625,-26.85546875,-40.52734375,-30.76171875,-41.015625,0.0,0.0
122.8828125,-22.4609375,-42.48046875,-26.3671875,-39.55078125,9.27734375,0.0
122.88671875,-32.2265625,-38.0859375,-28.80859375,-32.71484375,-24.4140625,0.0
122.890625,-44.921875,-38.57421875,-35.64453125,-28.80859375,-41.015625,0.0
122.89453125,-43.45703125,-41.9921875,-30.2734375,-34.66796875,-31.25,0.0
122.8984375,-25.87890625,-42.48046875,-19.04296875,-46.875,-96.19140625,0.0
122.90234375,-10.7421875,-40.0390625,-27.83203125,-42.96875,-105.95703125,0.0
122.90625,-22.4609375,-38.57421875,-36.62109375,-37.59765625,-83.0078125,0.0
122.91015625,-36.1328125,-33.69140625,-35.15625,-35.64453125,-119.62890625,0.0
122.9140625,-39.55078125,-38.0859375,-37.109375,-35.15625,-63.96484375,0.0
122.91796875,-26.3671875,-41.50390625,-37.109375,-43.9453125,-119.140625,0.0
122.921875,-16.6015625,-36.1328125,-34.66796875,-52.24609375,-173.828125,0.0
122.92578125,-29.296875,-33.69140625,-29.78515625,-45.41015625,-72.75390625,0.0
122.9296875,-47.36328125,-34.66796875,-28.3203125,-30.2734375,-106.4453125,0.0
122.93359375,-49.31640625,-38.57421875,-30.76171875,-35.15625,-143.5546875,0.0
122.9375,-35.15625,-40.0390625,-33.69140625,-45.41015625,-139.16015625,0.0
122.94140625,-28.80859375,-36.1328125,-26.3671875,-50.78125,-82.03125,0.0
122.9453125,-35.15625,-35.15625,-23.92578125,-45.41015625,-161.1328125,0.0
122.94921875,-52.24609375,-38.57421875,-30.76171875,-35.15625,-117.67578125,0.0
122.953125,-57.6171875,-41.50390625,-31.73828125,-33.69140625,49.8046875,0.0
122.95703125,-40.0390625,-39.0625,-25.390625,-39.55078125,69.3359375,0.0
122.9609375,-31.25,-33.203125,-21.484375,-45.41015625,131.8359375,0.0
122.96484375,-45.41015625,-35.64453125,-30.2734375,-41.50390625,105.95703125,0.0
122.96875,-69.82421875,-43.45703125,-36.62109375,-36.62109375,19.04296875,0.0
122.97265625,-67.3828125,-42.96875,-36.1328125,-33.203125,41.9921875,0.0
122.9765625,-44.43359375,-32.71484375,-31.25,-35.15625,38.57421875,0.0
122.98046875,-34.1796875,-29.78515625,-35.15625,-42.96875,-30.2734375,0.0
122.984375,-38.57421875,-40.52734375,-38.57421875,-38.57421875,14.16015625,0.0
122.98828125,-53.22265625,-51.26953125,-24.90234375,-21.484375,42.96875,0.0
122.9921875,-59.08203125,-49.31640625,-25.87890625,-19.53125,45.8984375,0.0
122.99609375,-39.0625,-40.52734375,-37.59765625,-32.2265625,-19.53125,0.0
123.0,-20.99609375,-37.59765625,-35.15625,-36.1328125,20.01953125,0.0
123.00390625,-22.4609375,-41.015625,-37.109375,-30.76171875,110.3515625,0.0
123.0078125,-39.55078125,-37.59765625,-35.64453125,-27.34375,96.19140625,0.0
123.01171875,-41.50390625,-36.62109375,-32.2265625,-22.4609375,-17.08984375,0.0
123.015625,-36.1328125,-41.015625,-29.78515625,-25.87890625,-30.2734375,0.0
123.01953125,-25.87890625,-35.15625,-26.3671875,-35.15625,-30.2734375,0.0
123.0234375,-17.578125,-32.71484375,-26.3671875,-26.3671875,-58.59375,0.0
123.02734375,-40.52734375,-36.62109375,-33.203125,-24.4140625,-47.36328125,0.0
123.03125,-56.15234375,-43.45703125,-16.11328125,-17.578125,16.6015625,0.0
123.03515625,-47.8515625,-46.38671875,-7.32421875,-20.99609375,50.29296875,0.0
123.0390625,-31.73828125,-35.64453125,-30.2734375,-37.109375,-89.35546875,0.0
123.04296875,-29.296875,-30.76171875,-27.83203125,-41.9921875,-112.3046875,0.0
123.046875,-43.9453125,-33.69140625,-31.25,-38.0859375,-45.8984375,0.0
123.05078125,-56.15234375,-44.43359375,-38.57421875,-29.296875,-26.85546875,0.0
123.0546875,-46.38671875,-42.48046875,-34.66796875,-32.71484375,8.30078125,0.0
123.05859375,-30.2734375,-32.71484375,-29.78515625,-40.52734375,-24.4140625,0.0
123.0625,-14.6484375,-36.62109375,-23.92578125,-43.9453125,-30.2734375,0.0
123.06640625,-24.4140625,-40.52734375,-22.4609375,-33.69140625,-54.6875,0.0
123.0703125,-44.43359375,-40.0390625,-27.34375,-24.90234375,-109.375,0.0
123.07421875,-48.33984375,-43.9453125,-33.69140625,-35.15625,-105.46875,0.0
123.078125,-35.15625,-44.43359375,-17.08984375,-42.96875,-71.2890625,0.0
123.08203125,-24.90234375,-39.0625,-12.6953125,-43.45703125,49.8046875,0.0
123.0859375,-39.0625,-39.0625,-34.66796875,-41.9921875,45.41015625,0.0
123.08984375,-55.17578125,-48.828125,-35.64453125,-34.1796875,33.203125,0.0
123.09375,-53.22265625,-46.875,-35.15625,-33.203125,69.82421875,0.0
123.09765625,-35.64453125,-36.62109375,-39.55078125,-42.48046875,19.53125,0.0
123.1015625,-19.04296875,-33.203125,-34.66796875,-43.9453125,21.97265625,0.0
123.10546875,-21.97265625,-30.2734375,-28.3203125,-36.1328125,-55.17578125,0.0
123.109375,-32.2265625,-33.69140625,-32.71484375,-30.76171875,-35.64453125,0.0
123.11328125,-39.55078125,-37.59765625,-34.1796875,-34.1796875,10.7421875,0.0
123.1171875,-24.90234375,-32.2265625,-34.66796875,-41.9921875,-63.96484375,0.0
123.12109375,-5.37109375,-30.2734375,-19.53125,-38.57421875,-53.7109375,0.0
123.125,-12.20703125,-29.78515625,-3.90625,-33.203125,-20.99609375,0.0
123.12890625,-32.2265625,-31.73828125,-24.4140625,-27.83203125,-3.41796875,0.0
123.1328125,-41.015625,-36.1328125,-32.71484375,-21.97265625,18.06640625,0.0
123.13671875,-21.484375,-35.15625,-27.83203125,-27.34375,-38.0859375,0.0
123.140625,-3.90625,-31.73828125,-31.73828125,-36.1328125,-123.046875,0.0
123.14453125,-12.20703125,-23.92578125,-30.2734375,-25.87890625,-124.0234375,0.0
123.1484375,-36.62109375,-26.3671875,-25.87890625,-16.6015625,-63.96484375,0.0
123.15234375,-51.26953125,-35.15625,-30.2734375,-25.87890625,-39.0625,0.0
123.15625,-31.73828125,-34.66796875,-35.15625,-32.2265625,-98.14453125,0.0
123.16015625,-12.20703125,-30.2734375,-36.62109375,-33.69140625,-55.6640625,0.0
123.1640625,-16.6015625,-28.3203125,-31.73828125,-28.3203125,16.6015625,0.0
123.16796875,-39.0625,-41.015625,-18.5546875,-26.3671875,43.9453125,0.0
123.171875,-52.734375,-42.48046875,-18.5546875,-33.203125,68.84765625,0.0
123.17578125,-38.57421875,-36.62109375,-29.78515625,-30.2734375,10.7421875,0.0
123.1796875,-18.06640625,-28.80859375,-28.80859375,-33.69140625,-96.6796875,0.0
123.18359375,-15.625,-24.4140625,-32.2265625,-39.55078125,-125.48828125,0.0
123.1875,-37.109375,-35.15625,-35.64453125,-34.66796875,-56.640625,0.0
123.19140625,-49.8046875,-41.9921875,-27.83203125,-22.94921875,-35.64453125,0.0
123.1953125,-39.55078125,-35.15625,-22.94921875,-23.92578125,-70.80078125,0.0
123.19921875,-22.94921875,-28.80859375,-29.78515625,-45.8984375,-62.01171875,0.0
123.203125,-15.13671875,-27.83203125,-30.2734375,-42.96875,-10.25390625,0.0
123.20703125,-33.69140625,-33.69140625,-29.296875,-28.80859375,-62.01171875,0.0
123.2109375,-51.7578125,-39.0625,-31.25,-20.99609375,-140.625,0.0
123.21484375,-36.62109375,-33.69140625,-25.390625,-23.92578125,-26.85546875,0.0
123.21875,-15.13671875,-31.73828125,-29.78515625,-32.71484375,32.71484375,0.0
123.22265625,-16.6015625,-31.25,-39.55078125,-28.80859375,18.06640625,0.0
123.2265625,-29.296875,-36.62109375,-26.3671875,-20.5078125,-41.9921875,0.0
123.23046875,-44.43359375,-39.55078125,-18.06640625,-24.4140625,-44.921875,0.0
123.234375,-46.875,-32.2265625,-38.0859375,-33.69140625,-14.6484375,0.0
123.23828125,-27.34375,-25.390625,-38.0859375,-38.0859375,-71.2890625,0.0
123.2421875,-13.671875,-20.01953125,-31.73828125,-35.15625,-51.26953125,0.0
123.24609375,-18.06640625,-20.5078125,-31.25,-24.90234375,-2.9296875,0.0
123.25,-38.0859375,-30.76171875,-38.57421875,-21.484375,-1.953125,0.0
123.25390625,-50.78125,-34.66796875,-38.0859375,-23.92578125,-35.64453125,0.0
123.2578125,-36.62109375,-27.34375,-29.296875,-31.73828125,-83.0078125,0.0
123.26171875,-25.390625,-30.2734375,-36.1328125,-41.015625,-54.6875,0.0
123.265625,-34.66796875,-39.0625,-42.96875,-34.66796875,-69.82421875,0.0
123.26953125,-47.8515625,-36.62109375,-40.52734375,-24.90234375,-80.56640625,0.0
123.2734375,-53.22265625,-37.109375,-27.83203125,-33.69140625,17.578125,0.0
123.27734375,-41.015625,-37.109375,-34.1796875,-46.38671875,9.27734375,0.0
123.28125,-19.53125,-31.73828125,-44.43359375,-41.9921875,-31.25,0.0
123.28515625,-26.3671875,-31.73828125,-34.66796875,-39.0625,-0.48828125,0.0
123.2890625,-49.8046875,-30.2734375,-32.2265625,-33.203125,-17.08984375,0.0
123.29296875,-48.828125,-30.76171875,-41.9921875,-29.78515625,-64.94140625,0.0
123.296875,-30.2734375,-26.3671875,-37.59765625,-37.109375,-47.8515625,0.0
123.30078125,-20.5078125,-23.4375,-35.64453125,-39.0625,21.484375,0.0
123.3046875,-28.80859375,-26.85546875,-40.0390625,-35.64453125,9.765625,0.0
123.30859375,-40.52734375,-32.71484375,-41.015625,-28.3203125,14.16015625,0.0
123.3125,-53.7109375,-34.66796875,-44.43359375,-27.83203125,80.56640625,0.0
123.31640625,-55.17578125,-29.296875,-26.3671875,-38.57421875,49.31640625,0.0
123.3203125,-38.57421875,-32.71484375,-16.11328125,-46.875,-9.27734375,0.0
123.32421875,-37.59765625,-33.69140625,-30.2734375,-36.62109375,30.76171875,0.0
123.328125,-50.78125,-33.69140625,-33.203125,-24.4140625,16.6015625,0.0
123.33203125,-55.17578125,-35.15625,-32.71484375,-19.04296875,-24.4140625,0.0
123.3359375,-39.55078125,-30.2734375,-32.2265625,-24.4140625,81.0546875,0.0
123.33984375,-20.99609375,-26.85546875,-34.1796875,-34.1796875,127.44140625,0.0
123.34375,-20.01953125,-24.90234375,-32.71484375,-28.80859375,33.69140625,0.0
123.34765625,-33.203125,-25.390625,-25.87890625,-20.5078125,-104.4921875,0.0
123.3515625,-44.921875,-27.34375,-30.76171875,-21.97265625,-70.3125,0.0
123.35546875,-35.64453125,-28.3203125,-35.64453125,-28.80859375,17.578125,0.0
123.359375,-17.08984375,-29.296875,-31.25,-37.59765625,38.0859375,0.0
123.36328125,-10.7421875,-24.4140625,-9.27734375,-39.55078125,39.55078125,0.0
123.3671875,-22.4609375,-19.04296875,-9.765625,-30.76171875,0.9765625,0.0
123.37109375,-33.203125,-25.87890625,-34.1796875,-33.203125,-0.48828125,0.0
123.375,-7.8125,-23.92578125,-33.69140625,-42.48046875,-17.08984375,0.0
123.37890625,9.765625,-17.578125,-32.71484375,-49.31640625,-78.125,0.0
123.3828125,-4.39453125,-22.94921875,-40.52734375,-49.31640625,-71.77734375,0.0
123.38671875,-20.99609375,-28.80859375,-42.48046875,-35.64453125,-33.69140625,0.0
123.390625,-42.96875,-29.296875,-35.15625,-33.203125,-7.32421875,0.0
123.39453125,-48.828125,-24.4140625,-32.71484375,-41.50390625,-36.62109375,0.0
123.3984375,-27.83203125,-18.06640625,-32.71484375,-37.59765625,-54.19921875,0.0
123.40234375,-16.11328125,-20.99609375,-34.1796875,-31.73828125,-61.03515625,0.0
123.40625,-30.2734375,-28.3203125,-18.06640625,-30.2734375,-103.515625,0.0
123.41015625,-47.8515625,-27.34375,-8.7890625,-26.3671875,-68.359375,0.0
123.4140625,-49.8046875,-27.83203125,-37.59765625,-30.76171875,6.34765625,0.0
123.41796875,-31.25,-31.73828125,-47.36328125,-37.59765625,-54.19921875,0.0
123.421875,-13.671875,-31.25,-40.52734375,-32.71484375,-66.40625,0.0
123.42578125,-28.3203125,-34.1796875,-39.0625,-28.80859375,-3.90625,0.0
123.4296875,-48.828125,-36.62109375,-40.52734375,-29.296875,2.44140625,0.0
123.43359375,-41.50390625,-32.71484375,-41.9921875,-34.66796875,-30.2734375,0.0
123.4375,-26.3671875,-26.3671875,-37.109375,-38.57421875,-65.4296875,0.0
123.44140625,-16.11328125,-22.4609375,-30.76171875,-32.2265625,-168.9453125,0.0
123.4453125,-21.97265625,-25.390625,-35.64453125,-27.34375,-180.6640625,0.0
123.44921875,-44.921875,-30.76171875,-37.109375,-28.80859375,-104.4921875,0.0
123.453125,-55.17578125,-30.76171875,-8.30078125,-38.57421875,-138.671875,0.0
123.45703125,-37.59765625,-31.25,-1.46484375,-47.36328125,-90.33203125,0.0
123.4609375,-14.6484375,-22.94921875,-33.203125,-41.9921875,8.30078125,0.0
123.46484375,-20.99609375,-21.97265625,-37.109375,-32.71484375,2.9296875,0.0
123.46875,-45.41015625,-33.69140625,-31.25,-30.2734375,-35.15625,0.0
123.47265625,-54.19921875,-31.73828125,-35.15625,-31.73828125,-75.68359375,0.0
123.4765625,-42.48046875,-33.203125,-38.0859375,-36.1328125,-67.3828125,0.0
123.48046875,-30.76171875,-36.1328125,-35.64453125,-44.921875,-20.5078125,0.0
123.484375,-32.2265625,-38.57421875,-36.62109375,-46.38671875,-5.37109375,0.0
123.48828125,-34.66796875,-32.71484375,-32.71484375,-29.78515625,-36.62109375,0.0
123.4921875,-39.0625,-29.296875,-29.78515625,-20.99609375,-62.01171875,0.0
123.49609375,-32.71484375,-33.203125,-25.390625,-27.83203125,-82.03125,0.0
123.5,-18.5546875,-32.71484375,-21.97265625,-34.1796875,-91.30859375,0.0
123.50390625,-15.13671875,-29.78515625,-33.203125,-25.87890625,-28.80859375,0.0
123.5078125,-31.73828125,-34.66796875,-30.2734375,-17.08984375,0.0,0.0
123.51171875,-47.36328125,-36.62109375,-20.99609375,-22.94921875,-15.625,0.0
123.515625,-41.50390625,-36.62109375,-25.87890625,-31.25,4.39453125,0.0
123.51953125,-20.99609375,-38.0859375,-32.71484375,-39.0625,-4.39453125,0.0
123.5234375,-14.16015625,-28.80859375,-32.2265625,-40.52734375,-26.85546875,0.0
123.52734375,-35.15625,-28.80859375,-35.15625,-38.57421875,-18.06640625,0.0
123.53125,-49.8046875,-33.69140625,-35.64453125,-33.203125,0.48828125,0.0
123.53515625,-46.38671875,-30.2734375,-33.203125,-34.66796875,11.71875,0.0
123.5390625,-30.2734375,-28.80859375,-32.2265625,-42.48046875,-29.78515625,0.0
123.54296875,-21.97265625,-34.1796875,-22.94921875,-40.52734375,-33.203125,0.0
123.546875,-40.52734375,-37.59765625,-24.90234375,-34.1796875,60.546875,0.0
123.55078125,-52.24609375,-38.0859375,-35.64453125,-23.4375,86.42578125,0.0
123.5546875,-44.43359375,-40.52734375,-32.2265625,-29.78515625,40.0390625,0.0
123.55859375,-24.90234375,-35.64453125,-29.78515625,-38.57421875,-51.7578125,0.0
123.5625,-6.34765625,-27.83203125,-31.25,-33.203125,-52.734375,0.0
123.56640625,-17.578125,-29.78515625,-34.1796875,-25.87890625,-78.125,0.0
123.5703125,-31.25,-37.59765625,-32.2265625,-21.97265625,-69.3359375,0.0
123.57421875,-26.85546875,-40.52734375,-28.80859375,-26.85546875,0.0,0.0
123.578125,-13.18359375,-36.62109375,-33.203125,-36.62109375,-46.875,0.0
123.58203125,-7.32421875,-33.69140625,-32.71484375,-40.52734375,-12.6953125,0.0
123.5859375,-25.87890625,-38.0859375,-28.3203125,-34.1796875,24.4140625,0.0
123.58984375,-44.921875,-41.9921875,-28.80859375,-29.78515625,-42.48046875,0.0
123.59375,-46.38671875,-37.109375,-30.76171875,-39.0625,-59.5703125,0.0
123.59765625,-26.85546875,-32.2265625,-32.71484375,-48.33984375,-37.59765625,0.0
123.6015625,-19.04296875,-27.83203125,-31.73828125,-49.8046875,-40.52734375,0.0
123.60546875,-33.203125,-29.296875,-33.203125,-34.1796875,50.78125,0.0
123.609375,-48.33984375,-37.59765625,-41.9921875,-23.92578125,68.359375,0.0
123.61328125,-62.01171875,-38.57421875,-44.43359375,-38.57421875,4.39453125,0.0
123.6171875,-47.8515625,-34.66796875,-41.50390625,-49.31640625,2.9296875,0.0
123.62109375,-25.87890625,-34.66796875,-37.59765625,-50.78125,0.0,0.0
123.625,-27.83203125,-37.109375,-39.0625,-50.78125,-37.59765625,0.0
123.62890625,-44.921875,-36.62109375,-36.62109375,-41.9921875,-52.734375,0.0
123.6328125,-49.8046875,-29.296875,-29.78515625,-35.15625,-70.3125,0.0
123.63671875,-31.25,-23.92578125,-33.203125,-34.66796875,-94.7265625,0.0
123.640625,-15.13671875,-30.2734375,-40.52734375,-38.0859375,-65.4296875,0.0
123.64453125,-21.484375,-35.64453125,-38.0859375,-38.57421875,-30.76171875,0.0
123.6484375,-33.203125,-29.78515625,-33.69140625,-30.2734375,-18.06640625,0.0
123.65234375,-34.66796875,-25.87890625,-37.109375,-26.3671875,-23.4375,0.0
123.65625,-33.203125,-29.296875,-43.45703125,-33.69140625,-55.17578125,0.0
123.66015625,-24.90234375,-30.2734375,-42.96875,-41.50390625,-128.41796875,0.0
123.6640625,-22.4609375,-30.76171875,-41.015625,-42.96875,-135.25390625,0.0
123.66796875,-38.0859375,-26.3671875,-41.015625,-36.1328125,-33.69140625,0.0
123.671875,-54.19921875,-19.53125,-42.96875,-35.15625,18.5546875,0.0
123.67578125,-46.38671875,-26.3671875,-42.48046875,-38.57421875,-62.98828125,0.0
123.6796875,-23.92578125,-29.78515625,-34.66796875,-39.0625,-83.49609375,0.0
123.68359375,-21.484375,-25.87890625,-32.2265625,-42.48046875,-149.90234375,0.0
123.6875,-42.96875,-28.3203125,-41.50390625,-44.921875,-121.58203125,0.0
123.69140625,-60.05859375,-37.109375,-27.83203125,-36.1328125,-24.4140625,0.0
123.6953125,-56.15234375,-35.64453125,-10.7421875,-32.2265625,-31.25,0.0
123.69921875,-31.73828125,-27.34375,-26.85546875,-46.38671875,-26.3671875,0.0
123.703125,-19.04296875,-25.87890625,-38.57421875,-50.29296875,-128.41796875,0.0
123.70703125,-40.52734375,-28.3203125,-39.0625,-38.0859375,-191.40625,0.0
123.7109375,-56.640625,-27.83203125,-39.55078125,-28.3203125,-54.19921875,0.0
123.71484375,-53.22265625,-30.76171875,-43.45703125,-33.69140625,-61.03515625,0.0
123.71875,-34.66796875,-34.1796875,-39.0625,-43.9453125,-97.16796875,0.0
123.72265625,-22.94921875,-29.296875,-34.1796875,-41.9921875,-30.76171875,0.0
123.7265625,-36.62109375,-27.83203125,-36.62109375,-38.0859375,-44.921875,0.0
123.73046875,-54.6875,-31.25,-33.69140625,-33.69140625,-53.22265625,0.0
123.734375,-43.9453125,-29.296875,-30.2734375,-34.1796875,-47.8515625,0.0
123.73828125,-28.3203125,-29.78515625,-22.94921875,-47.36328125,11.23046875,0.0
123.7421875,-28.3203125,-29.296875,-23.4375,-48.33984375,6.8359375,0.0
123.74609375,-35.64453125,-28.80859375,-38.0859375,-39.0625,-35.15625,0.0
123.75,-54.6875,-33.203125,-42.48046875,-34.1796875,-30.76171875,0.0
123.75390625,-53.7109375,-33.203125,-39.55078125,-30.2734375,-59.08203125,0.0
123.7578125,-31.25,-26.3671875,-39.55078125,-37.109375,-31.73828125,0.0
123.76171875,-13.18359375,-20.99609375,-35.15625,-41.015625,46.875,0.0
123.765625,-20.01953125,-27.83203125,-37.59765625,-34.1796875,86.9140625,0.0
123.76953125,-36.62109375,-33.69140625,-39.0625,-29.78515625,47.8515625,0.0
123.7734375,-48.33984375,-35.15625,-27.83203125,-34.66796875,48.33984375,0.0
123.77734375,-39.0625,-34.66796875,-32.71484375,-46.875,15.13671875,0.0
123.78125,-20.99609375,-30.76171875,-34.66796875,-52.734375,-43.45703125,0.0
123.78515625,-21.97265625,-31.25,-26.3671875,-50.78125,-87.890625,0.0
123.7890625,-42.48046875,-35.64453125,-32.2265625,-44.921875,-152.34375,0.0
123.79296875,-54.19921875,-34.1796875,-36.62109375,-43.9453125,-117.67578125,0.0
123.796875,-37.59765625,-28.3203125,-33.69140625,-48.33984375,-109.375,0.0
123.80078125,-22.94921875,-30.2734375,-30.2734375,-50.29296875,-55.6640625,0.0
123.8046875,-23.4375,-27.83203125,-31.25,-43.45703125,35.64453125,0.0
123.80859375,-35.15625,-30.76171875,-30.2734375,-33.69140625,-15.13671875,0.0
123.8125,-42.48046875,-32.2265625,-29.78515625,-35.15625,-92.28515625,0.0
123.81640625,-33.69140625,-21.484375,-32.71484375,-38.57421875,-63.4765625,0.0
123.8203125,-15.13671875,-24.90234375,-31.25,-40.0390625,-10.25390625,0.0
123.82421875,-17.08984375,-29.296875,-32.2265625,-45.41015625,12.6953125,0.0
123.828125,-32.71484375,-30.2734375,-15.13671875,-34.1796875,-24.4140625,0.0
123.83203125,-40.52734375,-33.203125,-13.18359375,-24.90234375,2.44140625,0.0
123.8359375,-31.25,-33.69140625,-38.0859375,-33.69140625,-50.29296875,0.0
123.83984375,-8.7890625,-29.78515625,-34.66796875,-35.64453125,-129.39453125,0.0
123.84375,-9.765625,-30.2734375,-26.85546875,-30.76171875,-38.57421875,0.0
123.84765625,-29.78515625,-32.2265625,-35.15625,-26.85546875,-76.66015625,0.0
123.8515625,-42.48046875,-31.73828125,-38.0859375,-25.87890625,-158.203125,0.0
123.85546875,-37.109375,-32.71484375,-37.59765625,-34.66796875,-137.6953125,0.0
123.859375,-19.04296875,-29.78515625,-39.0625,-41.50390625,-121.58203125,0.0
123.86328125,-10.25390625,-27.83203125,-39.0625,-37.59765625,-123.046875,0.0
123.8671875,-24.4140625,-29.296875,-39.0625,-27.83203125,-192.87109375,0.0
123.87109375,-40.52734375,-30.2734375,-29.296875,-22.94921875,-166.9921875,0.0
123.875,-39.55078125,-29.78515625,-24.4140625,-32.2265625,-82.51953125,0.0
123.87890625,-27.34375,-26.85546875,-40.0390625,-46.38671875,-34.66796875,0.0
123.8828125,-25.390625,-28.3203125,-45.41015625,-49.8046875,39.55078125,0.0
123.88671875,-33.69140625,-33.203125,-42.48046875,-40.52734375,65.4296875,0.0
123.890625,-47.8515625,-29.78515625,-36.62109375,-37.109375,73.73046875,0.0
123.89453125,-42.48046875,-29.78515625,-38.57421875,-44.921875,23.4375,0.0
123.8984375,-22.4609375,-30.2734375,-36.1328125,-47.8515625,-15.625,0.0
123.90234375,-20.01953125,-29.78515625,-26.3671875,-45.41015625,-4.8828125,0.0
123.90625,-32.2265625,-35.64453125,-32.2265625,-41.9921875,57.12890625,0.0
123.91015625,-47.36328125,-35.15625,-39.55078125,-33.69140625,118.65234375,0.0
123.9140625,-46.38671875,-26.3671875,-33.69140625,-29.296875,97.65625,0.0
123.91796875,-38.0859375,-27.34375,-18.06640625,-41.9921875,44.921875,0.0
123.921875,-28.80859375,-30.2734375,-17.578125,-47.36328125,-19.53125,0.0
123.92578125,-32.2265625,-20.5078125,-36.62109375,-35.64453125,-3.90625,0.0
123.9296875,-49.31640625,-22.4609375,-42.48046875,-26.3671875,-7.8125,0.0
123.93359375,-49.31640625,-29.296875,-38.57421875,-27.34375,-8.30078125,0.0
123.9375,-31.73828125,-22.94921875,-39.55078125,-37.109375,-91.30859375,0.0
123.94140625,-11.71875,-22.94921875,-41.9921875,-41.50390625,-144.53125,0.0
123.9453125,-18.06640625,-26.3671875,-38.0859375,-35.15625,-75.1953125,0.0
123.94921875,-41.50390625,-31.25,-35.64453125,-32.2265625,10.7421875,0.0
123.953125,-47.36328125,-33.203125,-40.0390625,-30.76171875,26.3671875,0.0
123.95703125,-31.25,-24.4140625,-41.015625,-28.3203125,-100.09765625,0.0
123.9609375,-22.4609375,-23.92578125,-33.69140625,-35.15625,-144.04296875,0.0
123.96484375,-29.296875,-27.34375,-28.3203125,-30.76171875,-77.1484375,0.0
123.96875,-40.52734375,-27.34375,-29.78515625,-23.4375,-45.41015625,0.0
123.97265625,-51.26953125,-26.3671875,-29.78515625,-26.85546875,-48.828125,0.0
123.9765625,-39.55078125,-25.390625,-29.78515625,-31.73828125,-68.359375,0.0
123.98046875,-17.578125,-22.94921875,-28.80859375,-33.203125,-26.85546875,0.0
123.984375,-6.8359375,-15.625,-28.80859375,-21.484375,-46.875,0.0
123.98828125,-25.87890625,-15.13671875,-31.25,-16.11328125,-90.33203125,0.0
123.9921875,-46.875,-25.390625,-35.64453125,-24.90234375,-69.82421875,0.0
123.99609375,-32.71484375,-29.296875,-39.55078125,-31.73828125,-128.90625,0.0
124.0,-3.90625,-30.2734375,-38.0859375,-36.62109375,-134.27734375,0.0
124.00390625,-7.8125,-35.64453125,-37.109375,-38.57421875,-44.921875,0.0
124.0078125,-34.66796875,-36.1328125,-30.76171875,-34.1796875,-8.7890625,0.0
124.01171875,-43.9453125,-37.109375,-29.78515625,-22.4609375,-17.08984375,0.0
124.015625,-39.0625,-35.64453125,-37.109375,-29.78515625,-44.921875,0.0
124.01953125,-28.80859375,-35.15625,-34.1796875,-47.36328125,27.34375,0.0
124.0234375,-18.06640625,-27.83203125,-20.5078125,-42.96875,99.12109375,0.0
124.02734375,-29.78515625,-24.4140625,-26.3671875,-34.66796875,68.359375,0.0
124.03125,-48.828125,-35.64453125,-32.2265625,-29.296875,38.57421875,0.0
124.03515625,-45.8984375,-32.2265625,-29.78515625,-25.87890625,-2.9296875,0.0
124.0390625,-25.87890625,-28.3203125,-32.71484375,-31.25,-56.15234375,0.0
124.04296875,-9.765625,-31.25,-32.71484375,-28.3203125,27.34375,0.0
124.046875,-20.01953125,-30.2734375,-29.296875,-16.11328125,23.92578125,0.0
124.05078125,-36.1328125,-34.66796875,-30.76171875,-9.27734375,-49.8046875,0.0
124.0546875,-38.57421875,-36.62109375,-29.78515625,-15.13671875,-94.7265625,0.0
124.05859375,-18.06640625,-30.2734375,-32.2265625,-30.76171875,-18.5546875,0.0
124.0625,-12.6953125,-26.85546875,-39.0625,-38.0859375,85.44921875,0.0
124.06640625,-32.2265625,-32.71484375,-29.78515625,-31.73828125,-8.30078125,0.0
124.0703125,-46.38671875,-27.34375,-14.6484375,-21.484375,7.32421875,0.0
124.07421875,-48.33984375,-22.94921875,-26.3671875,-28.80859375,46.875,0.0
124.078125,-37.109375,-30.2734375,-36.62109375,-48.828125,-59.5703125,0.0
124.08203125,-28.3203125,-33.69140625,-38.57421875,-56.15234375,-70.80078125,0.0
124.0859375,-28.80859375,-30.2734375,-32.2265625,-41.015625,-85.9375,0.0
124.08984375,-35.64453125,-25.87890625,-26.3671875,-28.80859375,-65.91796875,0.0
124.09375,-43.45703125,-26.3671875,-33.69140625,-38.0859375,0.48828125,0.0
124.09765625,-29.296875,-22.4609375,-35.64453125,-42.96875,-56.640625,0.0
124.1015625,-6.34765625,-20.5078125,-33.203125,-40.52734375,-111.81640625,0.0
124.10546875,-12.6953125,-28.80859375,-40.0390625,-37.109375,-104.4921875,0.0
124.109375,-44.43359375,-35.15625,-41.9921875,-33.203125,-124.51171875,0.0
124.11328125,-52.734375,-32.71484375,-20.01953125,-32.2265625,-90.8203125,0.0
124.1171875,-40.52734375,-36.62109375,-11.71875,-42.48046875,-30.2734375,0.0
124.12109375,-23.4375,-37.109375,-30.2734375,-47.36328125,-1.953125,0.0
124.125,-25.390625,-31.25,-31.25,-40.52734375,56.640625,0.0
124.12890625,-43.45703125,-27.83203125,-33.203125,-36.62109375,147.94921875,0.0
124.1328125,-48.33984375,-33.203125,-35.64453125,-40.52734375,165.0390625,0.0
124.13671875,-38.57421875,-38.57421875,-35.15625,-46.875,11.23046875,0.0
124.140625,-26.3671875,-35.64453125,-39.0625,-50.29296875,-97.65625,0.0
124.14453125,-29.296875,-36.1328125,-38.0859375,-46.875,-101.5625,0.0
124.1484375,-38.0859375,-32.2265625,-31.73828125,-33.203125,-53.7109375,0.0
124.15234375,-42.48046875,-33.69140625,-37.109375,-29.78515625,-61.5234375,0.0
124.15625,-31.73828125,-39.55078125,-29.78515625,-42.48046875,-83.49609375,0.0
124.16015625,-5.37109375,-37.59765625,-18.06640625,-49.8046875,-49.8046875,0.0
124.1640625,7.8125,-26.85546875,-31.73828125,-48.828125,-96.19140625,0.0
124.16796875,-2.9296875,-22.94921875,-40.0390625,-45.8984375,-62.98828125,0.0
124.171875,-13.18359375,-29.296875,-37.59765625,-43.45703125,22.94921875,0.0
124.17578125,-16.11328125,-26.85546875,-35.64453125,-45.41015625,-53.7109375,0.0
124.1796875,-5.859375,-18.5546875,-31.25,-40.52734375,6.34765625,0.0
124.18359375,-8.7890625,-24.90234375,-29.296875,-32.2265625,76.171875,0.0
124.1875,-33.203125,-39.0625,-28.3203125,-21.484375,-21.97265625,0.0
124.19140625,-54.6875,-33.69140625,-29.296875,-21.97265625,-2.44140625,0.0
124.1953125,-58.10546875,-32.2265625,-38.57421875,-38.0859375,21.97265625,0.0
124.19921875,-41.50390625,-36.1328125,-41.50390625,-44.921875,-1.46484375,0.0
124.203125,-35.15625,-38.57421875,-38.0859375,-47.8515625,32.2265625,0.0
124.20703125,-38.57421875,-38.57421875,-39.55078125,-38.57421875,23.4375,0.0
124.2109375,-42.96875,-28.80859375,-37.109375,-17.578125,-140.13671875,0.0
124.21484375,-45.8984375,-25.390625,-30.76171875,-19.53125,-162.109375,0.0
124.21875,-35.64453125,-30.76171875,-23.92578125,-34.1796875,-68.359375,0.0
124.22265625,-20.01953125,-28.80859375,-31.25,-30.2734375,14.6484375,0.0
124.2265625,-16.6015625,-25.390625,-32.71484375,-19.04296875,-9.765625,0.0
124.23046875,-42.96875,-30.2734375,-28.3203125,-17.578125,-29.296875,0.0
124.234375,-51.26953125,-31.25,-29.296875,-25.390625,3.90625,0.0
124.23828125,-27.34375,-29.296875,-31.25,-34.66796875,-128.41796875,0.0
124.2421875,-16.6015625,-28.80859375,-37.109375,-36.1328125,-261.23046875,0.0
124.24609375,-25.87890625,-29.78515625,-24.4140625,-31.73828125,-225.5859375,0.0
124.25,-42.96875,-29.78515625,-17.08984375,-24.90234375,-219.23828125,0.0
124.25390625,-43.45703125,-27.83203125,-37.59765625,-18.5546875,-195.3125,0.0
124.2578125,-29.296875,-26.3671875,-39.0625,-27.83203125,-89.35546875,0.0
124.26171875,-21.484375,-28.3203125,-37.59765625,-39.0625,-17.08984375,0.0
124.265625,-32.71484375,-26.3671875,-39.0625,-44.921875,-27.34375,0.0
124.26953125,-41.015625,-24.90234375,-36.1328125,-34.66796875,18.5546875,0.0
124.2734375,-37.109375,-25.87890625,-32.71484375,-24.90234375,71.2890625,0.0
124.27734375,-33.69140625,-29.78515625,-33.203125,-37.59765625,22.94921875,0.0
124.28125,-18.06640625,-28.80859375,-35.64453125,-40.0390625,23.4375,0.0
124.28515625,-15.625,-24.4140625,-32.71484375,-29.296875,7.8125,0.0
124.2890625,-33.203125,-23.4375,-34.66796875,-23.4375,-84.9609375,0.0
124.29296875,-45.41015625,-25.390625,-20.99609375,-27.83203125,-145.99609375,0.0
124.296875,-39.0625,-35.15625,-7.32421875,-40.52734375,-46.38671875,0.0
124.30078125,-22.4609375,-36.62109375,-30.76171875,-46.875,86.9140625,0.0
124.3046875,-21.97265625,-29.78515625,-39.55078125,-41.50390625,55.17578125,0.0
124.30859375,-39.0625,-29.78515625,-37.109375,-34.66796875,33.203125,0.0
124.3125,-53.7109375,-35.64453125,-43.9453125,-39.0625,-4.8828125,0.0
124.31640625,-36.1328125,-37.109375,-46.38671875,-40.52734375,25.390625,0.0
124.3203125,-15.625,-30.2734375,-48.828125,-44.43359375,41.50390625,0.0
124.32421875,-14.16015625,-29.78515625,-46.38671875,-49.31640625,-53.22265625,0.0
124.328125,-31.73828125,-37.109375,-46.875,-43.9453125,-138.671875,0.0
124.33203125,-52.734375,-36.1328125,-48.33984375,-41.015625,-166.50390625,0.0
124.3359375,-50.29296875,-37.109375,-40.0390625,-48.828125,-138.671875,0.0
124.33984375,-31.73828125,-35.64453125,-34.66796875,-55.6640625,-151.3671875,0.0
124.34375,-22.94921875,-32.2265625,-38.57421875,-50.29296875,-160.15625,0.0
124.34765625,-38.0859375,-39.55078125,-44.43359375,-42.96875,-130.37109375,0.0
124.3515625,-56.15234375,-43.45703125,-32.2265625,-34.1796875,-77.1484375,0.0
124.35546875,-53.22265625,-42.48046875,-32.71484375,-37.59765625,-135.7421875,0.0
124.359375,-36.62109375,-44.43359375,-46.38671875,-47.36328125,-141.11328125,0.0
124.36328125,-33.69140625,-44.921875,-41.9921875,-46.38671875,-52.24609375,0.0
124.3671875,-46.875,-41.9921875,-36.62109375,-41.50390625,-37.59765625,0.0
124.37109375,-59.08203125,-42.96875,-39.55078125,-36.62109375,-7.32421875,0.0
124.375,-48.828125,-34.1796875,-41.015625,-35.15625,-41.015625,0.0
124.37890625,-20.01953125,-24.90234375,-35.64453125,-41.50390625,-103.02734375,0.0
124.3828125,-8.7890625,-33.69140625,-26.3671875,-41.50390625,-34.66796875,0.0
124.38671875,-27.34375,-37.109375,-28.80859375,-32.2265625,50.78125,0.0
124.390625,-49.8046875,-41.015625,-46.38671875,-35.64453125,38.0859375,0.0
124.39453125,-49.31640625,-44.921875,-45.8984375,-39.0625,-58.59375,0.0
124.3984375,-36.1328125,-41.015625,-27.83203125,-46.875,-63.4765625,0.0
124.40234375,-26.85546875,-34.1796875,-28.3203125,-44.921875,-5.37109375,0.0
124.40625,-33.203125,-30.2734375,-35.64453125,-31.25,-11.71875,0.0
124.41015625,-51.7578125,-28.80859375,-34.1796875,-31.25,18.06640625,0.0
124.4140625,-58.59375,-34.1796875,-37.59765625,-38.0859375,90.33203125,0.0
124.41796875,-42.48046875,-37.59765625,-41.015625,-46.38671875,59.5703125,0.0
124.421875,-30.76171875,-35.64453125,-39.0625,-53.7109375,-38.57421875,0.0
124.42578125,-39.0625,-39.0625,-36.62109375,-45.8984375,-84.9609375,0.0
124.4296875,-51.26953125,-36.1328125,-36.1328125,-28.3203125,-34.1796875,0.0
124.43359375,-50.29296875,-38.0859375,-37.109375,-28.80859375,-61.03515625,0.0
124.4375,-39.55078125,-36.62109375,-43.9453125,-39.0625,-125.0,0.0
124.44140625,-36.62109375,-33.203125,-37.109375,-40.0390625,-137.20703125,0.0
124.4453125,-33.69140625,-32.71484375,-27.83203125,-32.2265625,-106.4453125,0.0
124.44921875,-47.36328125,-31.73828125,-35.64453125,-24.4140625,-6.34765625,0.0
124.453125,-62.01171875,-31.25,-41.50390625,-27.83203125,-2.9296875,0.0
124.45703125,-49.8046875,-29.78515625,-36.62109375,-35.64453125,-83.49609375,0.0
124.4609375,-36.1328125,-32.71484375,-31.25,-40.0390625,-81.54296875,0.0
124.46484375,-39.0625,-35.64453125,-35.64453125,-39.55078125,-31.73828125,0.0
124.46875,-51.26953125,-35.64453125,-35.64453125,-27.83203125,-14.16015625,0.0
124.47265625,-56.640625,-35.64453125,-34.66796875,-16.11328125,51.26953125,0.0
124.4765625,-47.8515625,-38.0859375,-34.66796875,-26.85546875,69.82421875,0.0
124.48046875,-27.34375,-38.57421875,-33.203125,-40.0390625,20.01953125,0.0
124.484375,-23.4375,-36.1328125,-32.71484375,-33.69140625,-16.6015625,0.0
124.48828125,-42.48046875,-37.109375,-6.8359375,-26.3671875,9.765625,0.0
124.4921875,-52.24609375,-39.0625,-10.7421875,-30.2734375,105.46875,0.0
124.49609375,-41.50390625,-31.73828125,-39.55078125,-28.80859375,89.84375,0.0
124.5,-30.76171875,-33.203125,-38.57421875,-31.25,-7.8125,0.0
124.50390625,-33.203125,-41.50390625,-36.62109375,-38.0859375,-58.59375,0.0
124.5078125,-51.26953125,-42.48046875,-37.109375,-35.64453125,15.625,0.0
124.51171875,-59.08203125,-40.0390625,-35.64453125,-24.90234375,43.9453125,0.0
124.515625,-48.33984375,-35.15625,-21.484375,-27.83203125,-9.27734375,0.0
124.51953125,-31.73828125,-35.64453125,-22.4609375,-37.109375,-59.5703125,0.0
124.5234375,-20.99609375,-35.64453125,-34.1796875,-32.71484375,-62.01171875,0.0
124.52734375,-32.2265625,-26.85546875,-33.69140625,-22.94921875,-0.48828125,0.0
124.53125,-47.8515625,-25.87890625,-25.87890625,-18.5546875,-27.34375,0.0
124.53515625,-43.9453125,-35.15625,-25.87890625,-24.90234375,2.9296875,0.0
124.5390625,-25.390625,-32.2265625,-39.55078125,-33.203125,13.18359375,0.0
124.54296875,-19.04296875,-24.90234375,-40.0390625,-32.71484375,-38.0859375,0.0
124.546875,-36.62109375,-30.76171875,-42.96875,-28.3203125,-48.33984375,0.0
124.55078125,-48.33984375,-31.25,-42.48046875,-22.94921875,-65.4296875,0.0
124.5546875,-39.0625,-24.90234375,-39.0625,-23.92578125,-14.16015625,0.0
124.55859375,-31.73828125,-27.83203125,-35.64453125,-38.57421875,17.578125,0.0
124.5625,-30.2734375,-31.73828125,-33.203125,-44.43359375,-17.578125,0.0
124.56640625,-33.69140625,-29.78515625,-33.203125,-30.2734375,11.71875,0.0
124.5703125,-48.828125,-36.1328125,-33.69140625,-19.53125,-3.90625,0.0
124.57421875,-49.8046875,-37.59765625,-39.55078125,-18.5546875,-14.6484375,0.0
124.578125,-33.69140625,-33.203125,-7.8125,-29.296875,-34.1796875,0.0
124.58203125,-24.4140625,-36.62109375,0.0,-40.0390625,-47.36328125,0.0
124.5859375,-32.71484375,-30.2734375,-36.1328125,-36.62109375,-44.921875,0.0
124.58984375,-45.8984375,-27.34375,-43.9453125,-30.76171875,-42.48046875,0.0
124.59375,-49.31640625,-37.109375,-43.45703125,-37.109375,-68.84765625,0.0
124.59765625,-33.69140625,-35.15625,-41.015625,-46.875,-115.234375,0.0
124.6015625,-18.06640625,-25.87890625,-37.109375,-45.41015625,-92.7734375,0.0
124.60546875,-21.97265625,-21.97265625,-37.59765625,-39.0625,-133.7890625,0.0
124.609375,-39.0625,-27.34375,-38.57421875,-37.59765625,-125.9765625,0.0
124.61328125,-39.55078125,-30.2734375,-34.66796875,-33.203125,5.37109375,0.0
124.6171875,-25.87890625,-25.390625,-37.59765625,-34.66796875,20.01953125,0.0
124.62109375,-8.7890625,-21.97265625,-32.71484375,-41.50390625,-41.50390625,0.0
124.625,-8.30078125,-30.76171875,-21.484375,-41.015625,-69.3359375,0.0
124.62890625,-34.1796875,-31.73828125,-28.80859375,-32.71484375,-49.8046875,0.0
124.6328125,-46.38671875,-25.87890625,-33.69140625,-30.2734375,-48.828125,0.0
124.63671875,-41.50390625,-28.80859375,-37.59765625,-40.0390625,-23.4375,0.0
124.640625,-23.92578125,-27.34375,-41.015625,-40.0390625,24.90234375,0.0
124.64453125,-19.04296875,-23.4375,-40.0390625,-31.73828125,58.59375,0.0
124.6484375,-38.57421875,-22.94921875,-42.96875,-26.85546875,9.27734375,0.0
124.65234375,-52.24609375,-27.34375,-45.8984375,-29.296875,-40.0390625,0.0
124.65625,-42.48046875,-30.76171875,-43.9453125,-33.203125,24.90234375,0.0
124.66015625,-11.71875,-28.80859375,-41.9921875,-35.64453125,-22.4609375,0.0
124.6640625,-5.37109375,-25.390625,-44.43359375,-36.1328125,-93.26171875,0.0
124.66796875,-28.80859375,-24.90234375,-16.6015625,-35.64453125,-113.76953125,0.0
124.671875,-41.50390625,-28.3203125,-3.90625,-32.71484375,-95.21484375,0.0
124.67578125,-36.1328125,-29.296875,-37.59765625,-35.15625,-89.84375,0.0
124.6796875,-12.6953125,-28.80859375,-44.43359375,-41.015625,-173.828125,0.0
124.68359375,-6.34765625,-26.85546875,-41.50390625,-36.1328125,-138.18359375,0.0
124.6875,-24.4140625,-29.78515625,-49.31640625,-28.3203125,-23.4375,0.0
124.69140625,-33.69140625,-33.69140625,-50.29296875,-26.85546875,-10.7421875,0.0
124.6953125,-29.296875,-31.25,-45.41015625,-34.1796875,-64.94140625,0.0
124.69921875,-16.11328125,-21.97265625,-47.36328125,-41.9921875,-110.83984375,0.0
124.703125,-4.8828125,-19.04296875,-48.33984375,-38.0859375,-80.56640625,0.0
124.70703125,-16.6015625,-24.4140625,-42.48046875,-27.34375,-29.78515625,0.0
124.7109375,-40.0390625,-25.390625,-39.0625,-28.3203125,-0.48828125,0.0
124.71484375,-46.38671875,-28.3203125,-45.41015625,-40.0390625,18.06640625,0.0
124.71875,-26.85546875,-28.3203125,-48.828125,-44.921875,-44.921875,0.0
124.72265625,-8.30078125,-29.78515625,-46.38671875,-44.921875,-81.54296875,0.0
124.7265625,-20.5078125,-31.25,-31.73828125,-40.52734375,-62.5,0.0
124.73046875,-43.9453125,-31.25,-29.296875,-33.203125,-39.0625,0.0
124.734375,-41.015625,-34.66796875,-43.45703125,-31.25,-19.53125,0.0
124.73828125,-18.5546875,-32.71484375,-38.57421875,-34.1796875,-106.4453125,0.0
124.7421875,-5.859375,-31.73828125,-38.57421875,-38.57421875,-156.25,0.0
124.74609375,-17.578125,-33.203125,-37.59765625,-37.59765625,-109.375,0.0
124.75,-36.62109375,-37.109375,-38.0859375,-34.1796875,16.6015625,0.0
124.75390625,-43.45703125,-37.59765625,-41.015625,-32.71484375,22.94921875,0.0
124.7578125,-27.34375,-31.25,-29.296875,-35.15625,-34.66796875,0.0
124.76171875,-11.23046875,-26.85546875,-30.76171875,-40.52734375,47.36328125,0.0
124.765625,-27.83203125,-28.80859375,-40.0390625,-38.57421875,87.890625,0.0
124.76953125,-46.38671875,-33.203125,-34.66796875,-32.2265625,46.875,0.0
124.7734375,-41.015625,-38.0859375,-24.90234375,-33.203125,-42.48046875,0.0
124.77734375,-35.15625,-35.15625,-35.15625,-40.52734375,-79.1015625,0.0
124.78125,-22.4609375,-27.34375,-46.875,-42.48046875,1.953125,0.0
124.78515625,-18.5546875,-24.90234375,-35.64453125,-36.1328125,37.59765625,0.0
124.7890625,-37.59765625,-31.25,-23.92578125,-32.2265625,-4.39453125,0.0
124.79296875,-51.26953125,-39.55078125,-35.15625,-34.1796875,-16.6015625,0.0
124.796875,-39.55078125,-34.66796875,-40.52734375,-44.43359375,-0.9765625,0.0
124.80078125,-21.97265625,-21.97265625,-33.203125,-46.38671875,-37.59765625,0.0
124.8046875,-26.85546875,-21.484375,-31.73828125,-43.45703125,-8.7890625,0.0
124.80859375,-52.24609375,-39.55078125,-36.1328125,-43.9453125,0.0,0.0
124.8125,-62.01171875,-45.41015625,-39.55078125,-39.0625,-49.8046875,0.0
124.81640625,-45.41015625,-36.62109375,-30.76171875,-43.45703125,-100.09765625,0.0
124.8203125,-16.11328125,-30.2734375,-22.4609375,-46.875,-139.16015625,0.0
124.82421875,-10.25390625,-33.203125,-28.80859375,-34.1796875,-64.94140625,0.0
124.828125,-34.1796875,-41.50390625,-36.1328125,-25.390625,-29.78515625,0.0
124.83203125,-38.0859375,-37.109375,-30.76171875,-15.13671875,-70.80078125,0.0
124.8359375,-27.34375,-27.83203125,-25.87890625,-18.06640625,-95.21484375,0.0
124.83984375,-9.27734375,-24.90234375,-26.85546875,-26.85546875,-8.30078125,0.0
124.84375,-4.39453125,-29.296875,-26.85546875,-27.34375,81.0546875,0.0
124.84765625,-27.34375,-36.1328125,-27.83203125,-30.2734375,-20.99609375,0.0
124.8515625,-42.96875,-40.0390625,-27.83203125,-29.296875,27.34375,0.0
124.85546875,-39.0625,-40.52734375,-29.78515625,-33.203125,131.8359375,0.0
124.859375,-22.94921875,-38.0859375,-31.25,-39.55078125,34.66796875,0.0
124.86328125,-18.06640625,-38.57421875,-19.04296875,-43.9453125,56.15234375,0.0
124.8671875,-31.73828125,-37.59765625,-17.578125,-33.69140625,66.89453125,0.0
124.87109375,-55.17578125,-36.1328125,-29.78515625,-23.92578125,29.78515625,0.0
124.875,-61.03515625,-37.59765625,-28.3203125,-32.71484375,0.0,0.0
124.87890625,-41.015625,-40.0390625,-28.80859375,-38.0859375,-91.796875,0.0
124.8828125,-29.78515625,-41.015625,-33.69140625,-38.0859375,1.953125,0.0
124.88671875,-39.0625,-40.0390625,-31.73828125,-30.76171875,34.66796875,0.0
124.890625,-52.734375,-43.45703125,-33.203125,-23.92578125,-27.34375,0.0
124.89453125,-53.7109375,-41.015625,-32.2265625,-28.3203125,19.53125,0.0
124.8984375,-36.62109375,-34.1796875,-30.2734375,-36.62109375,39.0625,0.0
124.90234375,-22.4609375,-30.76171875,-35.64453125,-38.0859375,9.765625,0.0
124.90625,-22.94921875,-31.73828125,-23.4375,-29.78515625,-16.6015625,0.0
124.91015625,-43.9453125,-41.015625,-14.6484375,-29.296875,-30.2734375,0.0
124.9140625,-52.24609375,-38.0859375,-29.296875,-28.3203125,-2.9296875,0.0
124.91796875,-38.57421875,-38.0859375,-31.73828125,-34.1796875,-62.98828125,0.0
124.921875,-22.4609375,-41.50390625,-31.73828125,-39.55078125,-164.55078125,0.0
124.92578125,-26.85546875,-38.0859375,-27.83203125,-28.3203125,-16.11328125,0.0
124.9296875,-53.22265625,-38.57421875,-24.4140625,-20.5078125,57.6171875,0.0
124.93359375,-59.08203125,-37.109375,-25.87890625,-20.01953125,-65.91796875,0.0
124.9375,-43.9453125,-35.64453125,-23.92578125,-24.4140625,-89.35546875,0.0
124.94140625,-33.203125,-35.64453125,-26.85546875,-33.69140625,-26.3671875,0.0
124.9453125,-34.1796875,-35.15625,-30.76171875,-37.109375,-63.96484375,0.0
124.94921875,-51.26953125,-39.0625,-30.2734375,-29.296875,-129.39453125,0.0
124.953125,-62.98828125,-43.45703125,-14.6484375,-33.203125,-140.13671875,0.0
124.95703125,-46.38671875,-35.64453125,-8.7890625,-44.921875,-50.78125,0.0
124.9609375,-24.4140625,-23.92578125,-27.34375,-43.9453125,-60.05859375,0.0
124.96484375,-25.87890625,-27.83203125,-33.69140625,-36.62109375,-139.16015625,0.0
124.96875,-42.96875,-33.203125,-35.64453125,-29.296875,-103.515625,0.0
124.97265625,-52.734375,-32.71484375,-39.0625,-27.34375,-34.66796875,0.0
124.9765625,-46.38671875,-35.15625,-37.109375,-35.64453125,-21.484375,0.0
124.98046875,-24.90234375,-37.59765625,-32.71484375,-41.50390625,-44.43359375,0.0
124.984375,-20.5078125,-29.296875,-26.85546875,-30.2734375,-56.640625,0.0
124.98828125,-39.0625,-26.3671875,-23.4375,-18.06640625,-66.89453125,0.0
124.9921875,-49.8046875,-31.73828125,-25.87890625,-14.6484375,-55.6640625,0.0
124.99609375,-43.9453125,-28.3203125,-20.5078125,-27.34375,-28.80859375,0.0
125.0,-24.90234375,-27.34375,-20.01953125,-34.1796875,-65.91796875,0.0
125.00390625,-17.08984375,-30.76171875,-34.1796875,-30.2734375,-100.09765625,0.0
125.0078125,-30.2734375,-31.25,-41.50390625,-25.87890625,-26.3671875,0.0
125.01171875,-40.0390625,-30.76171875,-32.71484375,-20.01953125,-8.30078125,0.0
125.015625,-31.73828125,-31.25,-32.2265625,-25.390625,-44.43359375,0.0
125.01953125,-13.671875,-33.69140625,-39.0625,-32.71484375,-60.546875,0.0
125.0234375,3.90625,-29.296875,-34.1796875,-25.390625,-7.8125,0.0
125.02734375,-7.32421875,-23.4375,-34.1796875,-21.484375,56.15234375,0.0
125.03125,-18.5546875,-21.484375,-31.73828125,-23.92578125,38.0859375,0.0
125.03515625,-13.18359375,-20.99609375,-33.69140625,-29.296875,-43.9453125,0.0
125.0390625,5.859375,-18.5546875,-37.59765625,-36.62109375,-72.265625,0.0
125.04296875,14.16015625,-22.94921875,-21.484375,-42.96875,-57.12890625,0.0
125.046875,-6.34765625,-32.2265625,-19.53125,-38.0859375,-30.2734375,0.0
125.05078125,-26.3671875,-28.3203125,-33.69140625,-22.94921875,3.90625,0.0
125.0546875,-33.203125,-27.34375,-32.2265625,-14.16015625,-17.08984375,0.0
125.05859375,-26.85546875,-29.296875,-31.25,-23.4375,63.4765625,0.0
125.0625,-28.3203125,-26.3671875,-33.203125,-37.109375,54.19921875,0.0
125.06640625,-41.50390625,-31.25,-38.0859375,-30.76171875,-60.05859375,0.0
125.0703125,-46.38671875,-33.69140625,-34.66796875,-18.5546875,-63.96484375,0.0
125.07421875,-41.9921875,-36.1328125,-35.15625,-19.04296875,28.80859375,0.0
125.078125,-35.15625,-36.1328125,-42.48046875,-25.87890625,44.43359375,0.0
125.08203125,-17.08984375,-30.76171875,-36.1328125,-29.78515625,-57.6171875,0.0
125.0859375,-15.625,-30.76171875,-33.203125,-20.5078125,-141.6015625,0.0
125.08984375,-39.55078125,-29.78515625,-30.76171875,-16.11328125,-97.16796875,0.0
125.09375,-46.38671875,-32.71484375,-30.2734375,-20.99609375,6.34765625,0.0
125.09765625,-32.2265625,-34.1796875,-33.69140625,-26.3671875,-47.36328125,0.0
125.1015625,-18.5546875,-29.296875,-22.4609375,-34.1796875,-141.6015625,0.0
125.10546875,-24.4140625,-32.71484375,-21.97265625,-34.1796875,-67.87109375,0.0
125.109375,-41.9921875,-39.0625,-34.66796875,-27.34375,-54.19921875,0.0
125.11328125,-41.50390625,-38.0859375,-30.76171875,-25.390625,-69.3359375,0.0
125.1171875,-32.2265625,-34.1796875,-27.34375,-34.66796875,-25.390625,0.0
125.12109375,-23.4375,-29.78515625,-27.83203125,-41.9921875,5.859375,0.0
125.125,-28.3203125,-34.66796875,-35.64453125,-40.0390625,2.9296875,0.0
125.12890625,-43.9453125,-37.59765625,-36.1328125,-31.73828125,-80.078125,0.0
125.1328125,-42.48046875,-31.25,-22.94921875,-25.390625,-129.39453125,0.0
125.13671875,-30.2734375,-34.1796875,-25.390625,-32.71484375,-144.04296875,0.0
125.140625,-24.90234375,-32.71484375,-38.0859375,-41.50390625,-197.265625,0.0
125.14453125,-25.87890625,-28.80859375,-38.0859375,-42.48046875,-280.2734375,0.0
125.1484375,-35.64453125,-30.76171875,-29.296875,-29.78515625,-233.88671875,0.0
125.15234375,-51.26953125,-36.1328125,-33.69140625,-21.97265625,-138.18359375,0.0
125.15625,-43.45703125,-31.73828125,-38.57421875,-34.1796875,-144.04296875,0.0
125.16015625,-17.08984375,-28.3203125,-33.203125,-40.52734375,-131.34765625,0.0
125.1640625,-11.71875,-29.78515625,-29.78515625,-38.0859375,-114.74609375,0.0
125.16796875,-31.25,-33.203125,-35.15625,-29.78515625,-20.5078125,0.0
125.171875,-48.33984375,-39.0625,-40.0390625,-23.4375,109.375,0.0
125.17578125,-32.71484375,-33.203125,-29.296875,-23.92578125,117.1875,0.0
125.1796875,-9.27734375,-25.390625,-22.94921875,-23.4375,60.05859375,0.0
125.18359375,-5.859375,-22.4609375,-34.66796875,-25.87890625,-39.55078125,0.0
125.1875,-20.99609375,-26.85546875,-38.0859375,-25.390625,-48.828125,0.0
125.19140625,-34.66796875,-33.203125,-23.92578125,-24.4140625,-5.37109375,0.0
125.1953125,-41.50390625,-38.0859375,-20.01953125,-32.2265625,49.31640625,0.0
125.19921875,-28.3203125,-38.57421875,-39.55078125,-40.0390625,-46.875,0.0
125.203125,-17.578125,-36.62109375,-43.9453125,-42.48046875,-113.76953125,0.0
125.20703125,-27.83203125,-36.62109375,-36.62109375,-36.1328125,17.578125,0.0
125.2109375,-39.0625,-34.66796875,-31.73828125,-30.76171875,36.1328125,0.0
125.21484375,-34.66796875,-32.2265625,-35.64453125,-35.64453125,15.625,0.0
125.21875,-17.578125,-29.296875,-36.62109375,-45.41015625,-19.53125,0.0
125.22265625,-12.20703125,-29.78515625,-29.296875,-50.29296875,-74.70703125,0.0
125.2265625,-22.4609375,-31.25,-30.2734375,-41.9921875,-23.92578125,0.0
125.23046875,-40.52734375,-28.80859375,-38.57421875,-30.2734375,-1.953125,0.0
125.234375,-39.55078125,-29.78515625,-39.0625,-33.69140625,4.39453125,0.0
125.23828125,-29.78515625,-35.15625,-13.671875,-45.8984375,-12.6953125,0.0
125.2421875,-12.20703125,-32.2265625,-2.44140625,-42.96875,10.7421875,0.0
125.24609375,-15.625,-33.69140625,-25.390625,-36.1328125,14.6484375,0.0
125.25,-42.96875,-37.109375,-29.296875,-30.76171875,-9.765625,0.0
125.25390625,-47.36328125,-34.1796875,-26.3671875,-26.85546875,41.50390625,0.0
125.2578125,-35.15625,-28.3203125,-31.73828125,-35.64453125,53.22265625,0.0
125.26171875,-22.94921875,-30.2734375,-31.25,-44.43359375,83.0078125,0.0
125.265625,-25.87890625,-36.62109375,-30.76171875,-42.96875,110.83984375,0.0
125.26953125,-38.57421875,-34.66796875,-30.2734375,-31.25,74.70703125,0.0
125.2734375,-43.45703125,-36.1328125,-31.25,-26.3671875,-20.01953125,0.0
125.27734375,-32.2265625,-39.55078125,-35.15625,-40.0390625,39.0625,0.0
125.28125,-19.04296875,-40.0390625,-22.94921875,-48.828125,41.015625,0.0
125.28515625,-17.08984375,-34.66796875,-9.27734375,-38.0859375,-28.3203125,0.0
125.2890625,-26.85546875,-33.69140625,-24.90234375,-28.80859375,-1.46484375,0.0
125.29296875,-41.015625,-40.0390625,-35.15625,-31.25,-68.359375,0.0
125.296875,-39.0625,-40.52734375,-41.015625,-38.0859375,-165.0390625,0.0
125.30078125,-30.2734375,-40.0390625,-44.43359375,-43.9453125,-171.875,0.0
125.3046875,-30.2734375,-39.0625,-45.8984375,-45.41015625,-123.53515625,0.0
125.30859375,-41.50390625,-37.109375,-44.921875,-38.0859375,-132.8125,0.0
125.3125,-54.19921875,-38.0859375,-36.1328125,-40.0390625,-40.52734375,0.0
125.31640625,-46.38671875,-39.0625,-35.15625,-47.36328125,10.25390625,0.0
125.3203125,-21.97265625,-34.66796875,-33.203125,-42.96875,-45.8984375,0.0
125.32421875,-21.484375,-32.71484375,-28.80859375,-42.48046875,-57.6171875,0.0
125.328125,-41.50390625,-36.62109375,-18.5546875,-41.50390625,-62.01171875,0.0
125.33203125,-54.19921875,-41.9921875,-16.11328125,-39.0625,-50.29296875,0.0
125.3359375,-45.8984375,-31.25,-26.3671875,-38.57421875,-41.50390625,0.0
125.33984375,-21.97265625,-25.87890625,-21.97265625,-38.57421875,-42.96875,0.0
125.34375,-21.97265625,-31.73828125,-14.6484375,-40.0390625,-69.82421875,0.0
125.34765625,-42.96875,-34.1796875,-19.04296875,-32.71484375,-66.89453125,0.0
125.3515625,-49.31640625,-36.1328125,-18.06640625,-22.94921875,-14.16015625,0.0
125.35546875,-37.109375,-35.64453125,-18.5546875,-22.4609375,34.1796875,0.0
125.359375,-27.83203125,-33.203125,-21.97265625,-32.2265625,8.7890625,0.0
125.36328125,-23.92578125,-28.80859375,-20.99609375,-34.1796875,-14.6484375,0.0
125.3671875,-33.203125,-29.296875,-22.4609375,-24.4140625,40.52734375,0.0
125.37109375,-53.22265625,-41.50390625,-14.16015625,-21.97265625,69.82421875,0.0
125.375,-53.22265625,-45.41015625,-7.32421875,-26.85546875,9.765625,0.0
125.37890625,-38.57421875,-39.55078125,-18.5546875,-35.15625,-53.22265625,0.0
125.3828125,-32.2265625,-40.0390625,-23.92578125,-38.57421875,-70.80078125,0.0
125.38671875,-34.1796875,-40.52734375,-19.04296875,-28.3203125,-61.5234375,0.0
125.390625,-51.7578125,-38.57421875,-15.13671875,-22.4609375,-42.48046875,0.0
125.39453125,-60.05859375,-32.71484375,-18.06640625,-26.85546875,-103.02734375,0.0
125.3984375,-41.015625,-37.109375,-20.01953125,-36.1328125,-73.2421875,0.0
125.40234375,-30.2734375,-39.0625,-14.6484375,-43.45703125,-30.2734375,0.0
125.40625,-40.52734375,-40.52734375,-21.484375,-37.109375,-33.69140625,0.0
125.41015625,-53.22265625,-40.0390625,-26.85546875,-26.85546875,35.15625,0.0
125.4140625,-50.29296875,-34.1796875,-23.92578125,-23.4375,10.25390625,0.0
125.41796875,-38.0859375,-39.0625,-13.671875,-25.87890625,-29.78515625,0.0
125.421875,-21.484375,-39.55078125,-8.30078125,-19.53125,-31.73828125,0.0
125.42578125,-21.484375,-36.1328125,-19.04296875,-10.25390625,-68.84765625,0.0
125.4296875,-43.45703125,-41.9921875,-21.484375,-8.7890625,-57.12890625,0.0
125.43359375,-50.78125,-43.9453125,-26.85546875,-13.18359375,-53.7109375,0.0
125.4375,-35.64453125,-37.109375,-33.69140625,-20.99609375,-81.0546875,0.0
125.44140625,-22.94921875,-30.76171875,-24.90234375,-22.4609375,-66.89453125,0.0
125.4453125,-23.92578125,-31.25,-17.578125,-18.5546875,-86.42578125,0.0
125.44921875,-37.109375,-35.15625,-23.92578125,-11.71875,29.296875,0.0
125.453125,-47.8515625,-39.0625,-24.90234375,-10.7421875,40.52734375,0.0
125.45703125,-38.0859375,-32.71484375,-22.94921875,-16.11328125,-56.640625,0.0
125.4609375,-20.01953125,-27.83203125,-11.71875,-20.99609375,-35.15625,0.0
125.46484375,-17.578125,-32.2265625,3.41796875,-19.53125,-30.2734375,0.0
125.46875,-35.64453125,-37.109375,-9.765625,-9.765625,12.20703125,0.0
125.47265625,-46.38671875,-33.69140625,-22.94921875,-9.765625,9.27734375,0.0
125.4765625,-38.57421875,-25.390625,-20.01953125,-19.53125,-73.2421875,0.0
125.48046875,-18.5546875,-24.90234375,-18.06640625,-28.80859375,-9.765625,0.0
125.484375,-14.16015625,-26.3671875,-24.4140625,-29.78515625,29.78515625,0.0
125.48828125,-39.55078125,-31.25,-24.90234375,-26.3671875,-38.0859375,0.0
125.4921875,-54.19921875,-33.69140625,-25.87890625,-20.01953125,-25.87890625,0.0
125.49609375,-41.015625,-33.69140625,-26.3671875,-23.4375,-74.21875,0.0
125.5,-16.6015625,-31.73828125,-27.83203125,-30.2734375,-202.1484375,0.0
125.50390625,-13.18359375,-26.3671875,-28.80859375,-30.2734375,-170.8984375,0.0
125.5078125,-26.3671875,-24.4140625,-18.06640625,-20.5078125,-123.53515625,0.0
125.51171875,-41.50390625,-23.4375,-17.578125,-12.20703125,-51.26953125,0.0
125.515625,-45.8984375,-27.83203125,-26.3671875,-26.85546875,29.296875,0.0
125.51953125,-35.64453125,-35.15625,-28.3203125,-41.50390625,-56.15234375,0.0
125.5234375,-28.3203125,-34.66796875,-13.671875,-38.0859375,-175.29296875,0.0
125.52734375,-33.69140625,-31.73828125,-19.04296875,-33.203125,-141.6015625,0.0
125.53125,-41.015625,-33.203125,-34.66796875,-26.3671875,-20.01953125,0.0
125.53515625,-39.0625,-35.15625,-32.2265625,-22.94921875,-20.01953125,0.0
125.5390625,-25.390625,-27.34375,-29.296875,-30.2734375,0.9765625,0.0
125.54296875,-19.04296875,-21.484375,-22.94921875,-33.69140625,-46.875,0.0
125.546875,-32.71484375,-33.203125,-19.04296875,-29.296875,-96.6796875,0.0
125.55078125,-48.828125,-41.015625,-25.87890625,-22.94921875,-16.11328125,0.0
125.5546875,-46.875,-35.15625,-24.90234375,-26.3671875,-4.8828125,0.0
125.55859375,-38.57421875,-35.15625,-21.97265625,-41.9921875,-20.99609375,0.0
125.5625,-33.69140625,-40.52734375,-27.34375,-52.734375,-13.671875,0.0
125.56640625,-35.64453125,-36.1328125,-23.4375,-43.9453125,22.94921875,0.0
125.5703125,-42.96875,-31.25,-16.6015625,-29.296875,25.390625,0.0
125.57421875,-42.96875,-33.203125,-17.08984375,-29.296875,-50.78125,0.0
125.578125,-30.76171875,-37.109375,-26.85546875,-43.9453125,-90.8203125,0.0
125.58203125,-22.94921875,-41.50390625,-19.04296875,-50.29296875,-106.93359375,0.0
125.5859375,-32.71484375,-37.109375,-12.6953125,-42.96875,-127.44140625,0.0
125.58984375,-41.9921875,-35.15625,-25.87890625,-25.87890625,-62.98828125,0.0
125.59375,-43.9453125,-32.71484375,-27.83203125,-22.94921875,70.3125,0.0
125.59765625,-35.64453125,-30.76171875,-28.80859375,-32.2265625,89.84375,0.0
125.6015625,-21.97265625,-32.2265625,-26.85546875,-39.0625,20.01953125,0.0
125.60546875,-20.99609375,-34.66796875,-29.78515625,-39.0625,31.25,0.0
125.609375,-36.1328125,-44.43359375,-28.80859375,-32.71484375,39.55078125,0.0
125.61328125,-50.29296875,-47.36328125,-12.20703125,-33.203125,-15.13671875,0.0
125.6171875,-38.0859375,-38.57421875,-5.37109375,-37.109375,36.62109375,0.0
125.62109375,-20.5078125,-32.2265625,-20.01953125,-43.45703125,10.25390625,0.0
125.625,-22.94921875,-24.90234375,-20.5078125,-42.96875,-95.21484375,0.0
125.62890625,-30.2734375,-21.97265625,-19.53125,-32.71484375,-58.59375,0.0
125.6328125,-37.59765625,-30.76171875,-24.4140625,-24.90234375,-96.6796875,0.0
125.63671875,-40.0390625,-31.25,-21.97265625,-27.34375,-146.484375,0.0
125.640625,-26.3671875,-29.296875,-20.99609375,-34.66796875,-179.19921875,0.0
125.64453125,-26.85546875,-31.25,-23.4375,-33.203125,-203.61328125,0.0
125.6484375,-45.41015625,-31.73828125,-26.85546875,-21.97265625,-102.05078125,0.0
125.65234375,-61.5234375,-33.203125,-31.73828125,-21.97265625,-79.58984375,0.0
125.65625,-58.59375,-33.203125,-20.01953125,-30.2734375,-102.05078125,0.0
125.66015625,-42.96875,-35.15625,-14.6484375,-40.0390625,-48.33984375,0.0
125.6640625,-36.1328125,-35.15625,-32.71484375,-39.55078125,-139.6484375,0.0
125.66796875,-51.7578125,-32.2265625,-34.1796875,-29.296875,-161.62109375,0.0
125.671875,-64.94140625,-35.64453125,-22.94921875,-26.85546875,-110.83984375,0.0
125.67578125,-57.6171875,-37.109375,-21.484375,-29.78515625,-109.375,0.0
125.6796875,-35.15625,-28.80859375,-27.34375,-34.1796875,-12.20703125,0.0
125.68359375,-30.2734375,-32.2265625,-32.71484375,-37.109375,114.74609375,0.0
125.6875,-52.24609375,-39.55078125,-25.87890625,-31.73828125,161.62109375,0.0
125.69140625,-65.91796875,-40.0390625,-24.90234375,-29.78515625,121.58203125,0.0
125.6953125,-60.546875,-34.1796875,-28.80859375,-25.390625,31.25,0.0
125.69921875,-37.109375,-29.78515625,-28.80859375,-31.73828125,64.94140625,0.0
125.703125,-20.99609375,-36.1328125,-18.5546875,-37.109375,56.15234375,0.0
125.70703125,-32.2265625,-40.0390625,-19.53125,-26.85546875,9.765625,0.0
125.7109375,-48.828125,-40.0390625,-37.59765625,-18.06640625,-1.953125,0.0
125.71484375,-47.8515625,-41.015625,-36.62109375,-26.3671875,-65.91796875,0.0
125.71875,-32.71484375,-38.57421875,-34.66796875,-38.0859375,-69.82421875,0.0
125.72265625,-25.390625,-42.96875,-38.57421875,-43.45703125,-63.96484375,0.0
125.7265625,-25.87890625,-38.57421875,-36.1328125,-37.59765625,-62.01171875,0.0
125.73046875,-45.41015625,-31.73828125,-27.83203125,-29.296875,-30.2734375,0.0
125.734375,-64.94140625,-30.2734375,-28.3203125,-32.71484375,-29.296875,0.0
125.73828125,-47.8515625,-32.2265625,-30.76171875,-42.96875,-46.875,0.0
125.7421875,-37.109375,-37.59765625,-33.69140625,-49.8046875,69.3359375,0.0
125.74609375,-44.921875,-38.0859375,-20.01953125,-45.41015625,69.82421875,0.0
125.75,-54.19921875,-41.50390625,-8.30078125,-33.69140625,60.05859375,0.0
125.75390625,-57.6171875,-38.0859375,-25.390625,-25.87890625,83.0078125,0.0
125.7578125,-38.57421875,-32.71484375,-27.34375,-25.87890625,-16.6015625,0.0
125.76171875,-21.484375,-29.296875,-24.90234375,-28.80859375,-77.1484375,0.0
125.765625,-26.85546875,-31.25,-28.3203125,-28.80859375,4.39453125,0.0
125.76953125,-46.875,-39.55078125,-27.34375,-19.53125,79.58984375,0.0
125.7734375,-57.12890625,-37.59765625,-20.5078125,-15.13671875,-13.18359375,0.0
125.77734375,-40.0390625,-37.59765625,-14.6484375,-20.01953125,-88.37890625,0.0
125.78125,-20.5078125,-33.69140625,-11.71875,-25.87890625,-20.99609375,0.0
125.78515625,-25.390625,-34.1796875,-14.6484375,-30.2734375,-16.6015625,0.0
125.7890625,-39.55078125,-41.015625,-16.6015625,-24.90234375,-52.734375,0.0
125.79296875,-42.96875,-39.55078125,1.953125,-20.5078125,-87.890625,0.0
125.796875,-35.15625,-38.57421875,6.34765625,-35.15625,-73.2421875,0.0
125.80078125,-23.92578125,-39.0625,-21.97265625,-50.78125,-48.33984375,0.0
125.8046875,-19.04296875,-37.109375,-27.34375,-46.38671875,-33.69140625,0.0
125.80859375,-26.3671875,-34.1796875,-21.484375,-33.69140625,-25.87890625,0.0
125.8125,-41.015625,-33.203125,-23.92578125,-27.34375,-11.23046875,0.0
125.81640625,-41.50390625,-29.296875,-24.4140625,-39.0625,22.94921875,0.0
125.8203125,-26.85546875,-27.83203125,-24.4140625,-54.6875,34.66796875,0.0
125.82421875,-22.4609375,-32.2265625,-23.4375,-52.24609375,90.8203125,0.0
125.828125,-42.96875,-35.64453125,-24.4140625,-41.9921875,78.125,0.0
125.83203125,-60.05859375,-39.0625,-32.71484375,-35.15625,0.48828125,0.0
125.8359375,-48.33984375,-38.57421875,-21.97265625,-35.15625,-16.11328125,0.0
125.83984375,-26.85546875,-35.15625,-13.18359375,-41.015625,34.1796875,0.0
125.84375,-21.97265625,-31.73828125,-26.3671875,-42.96875,36.62109375,0.0
125.84765625,-32.2265625,-35.15625,-33.69140625,-34.66796875,-30.2734375,0.0
125.8515625,-44.43359375,-38.0859375,-23.92578125,-21.97265625,-76.66015625,0.0
125.85546875,-41.015625,-39.0625,-16.11328125,-27.83203125,-79.1015625,0.0
125.859375,-19.53125,-37.109375,-27.83203125,-39.55078125,-110.3515625,0.0
125.86328125,-20.5078125,-33.69140625,-28.3203125,-43.45703125,-146.484375,0.0
125.8671875,-41.9921875,-41.50390625,-23.92578125,-41.50390625,-123.046875,0.0
125.87109375,-53.7109375,-45.8984375,-26.3671875,-35.15625,-105.46875,0.0
125.875,-47.8515625,-39.55078125,-28.80859375,-38.0859375,-85.44921875,0.0
125.87890625,-31.25,-38.0859375,-31.25,-46.875,-64.453125,0.0
125.8828125,-13.671875,-33.69140625,-25.87890625,-46.875,-122.55859375,0.0
125.88671875,-17.08984375,-28.3203125,-27.83203125,-39.55078125,-127.44140625,0.0
125.890625,-37.59765625,-33.69140625,-35.64453125,-33.203125,-104.98046875,0.0
125.89453125,-47.8515625,-36.62109375,-37.109375,-29.78515625,-148.92578125,0.0
125.8984375,-26.3671875,-29.78515625,-23.92578125,-37.109375,-99.609375,0.0
125.90234375,-13.671875,-27.83203125,-22.4609375,-44.921875,-77.1484375,0.0
125.90625,-35.15625,-30.76171875,-27.34375,-37.59765625,-66.40625,0.0
125.91015625,-51.7578125,-36.1328125,-26.85546875,-29.296875,-71.77734375,0.0
125.9140625,-46.38671875,-37.59765625,-30.2734375,-27.34375,-63.4765625,0.0
125.91796875,-28.3203125,-28.3203125,-30.2734375,-28.3203125,15.13671875,0.0
125.921875,-12.6953125,-22.94921875,-32.2265625,-29.78515625,37.59765625,0.0
125.92578125,-16.11328125,-26.85546875,-35.64453125,-26.3671875,-10.25390625,0.0
125.9296875,-26.3671875,-23.4375,-33.203125,-17.08984375,18.5546875,0.0
125.93359375,-30.2734375,-23.4375,-38.0859375,-16.11328125,-5.37109375,0.0
125.9375,-27.83203125,-37.59765625,-42.96875,-29.296875,-90.33203125,0.0
125.94140625,-13.671875,-40.0390625,-31.25,-35.64453125,-104.00390625,0.0
125.9453125,-11.71875,-36.1328125,-21.97265625,-32.2265625,-98.6328125,0.0
125.94921875,-36.62109375,-36.62109375,-32.2265625,-31.25,-20.99609375,0.0
125.953125,-49.8046875,-37.59765625,-37.59765625,-32.71484375,39.0625,0.0
125.95703125,-34.66796875,-36.1328125,-30.76171875,-41.9921875,4.39453125,0.0
125.9609375,-25.390625,-33.203125,-29.296875,-44.921875,-32.71484375,0.0
125.96484375,-30.76171875,-29.78515625,-35.15625,-37.109375,-37.109375,0.0
125.96875,-43.9453125,-25.87890625,-34.1796875,-26.3671875,24.4140625,0.0
125.97265625,-57.12890625,-24.4140625,-28.80859375,-27.83203125,-41.9921875,0.0
125.9765625,-47.36328125,-21.97265625,-20.5078125,-38.57421875,-50.29296875,0.0
125.98046875,-28.3203125,-24.4140625,-17.578125,-44.43359375,7.32421875,0.0
125.984375,-29.78515625,-31.25,-28.3203125,-50.29296875,38.57421875,0.0
125.98828125,-38.0859375,-38.57421875,-21.484375,-43.9453125,103.515625,0.0
125.9921875,-38.0859375,-39.55078125,-16.11328125,-40.52734375,-12.6953125,0.0
125.99609375,-27.83203125,-37.109375,-31.73828125,-50.78125,-107.421875,0.0
126.0,-1.46484375,-29.78515625,-32.71484375,-47.36328125,-59.5703125,0.0
126.00390625,11.71875,-26.85546875,-31.25,-41.50390625,-65.91796875,0.0
126.0078125,-2.9296875,-25.87890625,-31.73828125,-36.62109375,-40.0390625,0.0
126.01171875,-28.3203125,-27.83203125,-30.2734375,-24.90234375,-78.125,0.0
126.015625,-36.62109375,-31.73828125,-26.3671875,-23.92578125,-85.44921875,0.0
126.01953125,-25.390625,-34.1796875,-27.83203125,-31.73828125,-40.52734375,0.0
126.0234375,-17.578125,-32.71484375,-28.80859375,-26.3671875,-98.14453125,0.0
126.02734375,-29.296875,-31.73828125,-28.80859375,-16.11328125,-100.09765625,0.0
126.03125,-48.828125,-31.25,-27.34375,-17.08984375,-16.11328125,0.0
126.03515625,-50.29296875,-32.71484375,-27.34375,-26.3671875,-10.7421875,0.0
126.0390625,-29.78515625,-35.64453125,-32.2265625,-34.66796875,-55.6640625,0.0
126.04296875,-19.53125,-29.78515625,-28.3203125,-39.0625,-59.5703125,0.0
126.046875,-31.25,-28.80859375,-28.3203125,-38.57421875,-44.921875,0.0
126.05078125,-42.96875,-30.2734375,-28.80859375,-33.69140625,-128.90625,0.0
126.0546875,-45.41015625,-32.71484375,-33.203125,-36.1328125,-213.8671875,0.0
126.05859375,-34.66796875,-30.76171875,-34.66796875,-42.48046875,-126.953125,0.0
126.0625,-20.5078125,-28.80859375,-30.2734375,-41.50390625,-103.515625,0.0
126.06640625,-21.97265625,-28.80859375,-32.2265625,-34.1796875,-11.23046875,0.0
126.0703125,-41.50390625,-31.25,-32.2265625,-23.4375,117.67578125,0.0
126.07421875,-47.8515625,-33.203125,-28.80859375,-20.01953125,40.52734375,0.0
126.078125,-36.1328125,-34.66796875,-14.6484375,-32.2265625,30.2734375,0.0
126.08203125,-25.390625,-36.1328125,-12.20703125,-38.57421875,35.15625,0.0
126.0859375,-19.53125,-32.71484375,-21.97265625,-30.2734375,60.05859375,0.0
126.08984375,-31.73828125,-26.3671875,-23.92578125,-18.06640625,90.8203125,0.0
126.09375,-49.8046875,-27.34375,-28.80859375,-23.4375,70.3125,0.0
126.09765625,-41.50390625,-27.34375,-31.73828125,-40.0390625,56.640625,0.0
126.1015625,-23.4375,-23.4375,-29.296875,-48.828125,-16.6015625,0.0
126.10546875,-26.85546875,-27.34375,-28.80859375,-47.36328125,25.390625,0.0
126.109375,-41.9921875,-34.1796875,-32.71484375,-41.9921875,37.109375,0.0
126.11328125,-41.015625,-38.57421875,-35.64453125,-39.0625,-34.66796875,0.0
126.1171875,-33.203125,-36.62109375,-41.50390625,-45.41015625,-46.875,0.0
126.12109375,-37.109375,-31.73828125,-37.109375,-61.5234375,-119.140625,0.0
126.125,-40.0390625,-33.69140625,-24.4140625,-60.05859375,-163.0859375,0.0
126.12890625,-48.828125,-34.66796875,-29.78515625,-44.921875,-39.55078125,0.0
126.1328125,-57.12890625,-27.83203125,-31.73828125,-38.0859375,3.41796875,0.0
126.13671875,-45.41015625,-29.296875,-29.78515625,-43.9453125,-51.7578125,0.0
126.140625,-29.296875,-37.59765625,-33.203125,-51.7578125,-31.73828125,0.0
126.14453125,-27.34375,-38.57421875,-31.73828125,-43.9453125,-15.13671875,0.0
126.1484375,-42.48046875,-36.62109375,-23.92578125,-29.296875,-12.20703125,0.0
126.15234375,-57.12890625,-35.64453125,-24.90234375,-26.3671875,0.0,0.0
126.15625,-49.31640625,-32.2265625,-28.80859375,-27.34375,6.34765625,0.0
126.16015625,-33.203125,-35.15625,-30.76171875,-31.25,-24.4140625,0.0
126.1640625,-21.484375,-34.66796875,-32.2265625,-29.78515625,-58.59375,0.0
126.16796875,-37.109375,-33.203125,-20.5078125,-20.5078125,-16.11328125,0.0
126.171875,-64.453125,-41.50390625,-23.92578125,-20.99609375,107.91015625,0.0
126.17578125,-59.08203125,-41.50390625,-38.0859375,-27.83203125,76.171875,0.0
126.1796875,-40.0390625,-36.62109375,-35.64453125,-43.45703125,-29.296875,0.0
126.18359375,-25.390625,-32.71484375,-30.76171875,-45.41015625,26.85546875,0.0
126.1875,-37.109375,-34.1796875,-36.1328125,-37.59765625,70.3125,0.0
126.19140625,-57.12890625,-43.9453125,-41.50390625,-41.015625,13.18359375,0.0
126.1953125,-57.6171875,-43.9453125,-39.0625,-48.828125,55.6640625,0.0
126.19921875,-42.48046875,-37.59765625,-35.64453125,-59.08203125,72.265625,0.0
126.203125,-26.85546875,-36.1328125,-38.0859375,-57.6171875,36.1328125,0.0
126.20703125,-39.55078125,-42.48046875,-41.015625,-49.8046875,17.578125,0.0
126.2109375,-56.15234375,-40.0390625,-38.0859375,-41.50390625,-33.69140625,0.0
126.21484375,-48.828125,-37.59765625,-39.0625,-32.2265625,-57.6171875,0.0
126.21875,-29.296875,-43.45703125,-38.0859375,-34.1796875,-54.19921875,0.0
126.22265625,-29.78515625,-45.41015625,-28.3203125,-43.45703125,-92.7734375,0.0
126.2265625,-40.52734375,-49.8046875,-25.390625,-41.9921875,-104.4921875,0.0
126.23046875,-51.7578125,-54.6875,-24.4140625,-31.25,-42.48046875,0.0
126.234375,-60.05859375,-57.12890625,-26.85546875,-26.85546875,-27.83203125,0.0
126.23828125,-43.45703125,-48.828125,-24.90234375,-28.3203125,-42.48046875,0.0
126.2421875,-30.2734375,-43.9453125,-23.92578125,-32.2265625,-64.94140625,0.0
126.24609375,-35.15625,-41.015625,-27.83203125,-24.4140625,-60.05859375,0.0
126.25,-48.33984375,-42.48046875,-28.80859375,-17.578125,-62.98828125,0.0
126.25390625,-51.7578125,-39.55078125,-23.92578125,-17.578125,-70.3125,0.0
126.2578125,-38.0859375,-35.64453125,-20.5078125,-26.85546875,-16.11328125,0.0
126.26171875,-28.80859375,-43.9453125,-24.90234375,-44.43359375,-1.953125,0.0
126.265625,-27.34375,-40.52734375,-29.296875,-43.45703125,-86.42578125,0.0
126.26953125,-43.9453125,-38.57421875,-28.3203125,-39.55078125,-101.5625,0.0
126.2734375,-57.12890625,-42.48046875,-26.3671875,-45.41015625,-71.77734375,0.0
126.27734375,-44.921875,-39.55078125,-22.4609375,-48.33984375,-95.21484375,0.0
126.28125,-39.55078125,-35.15625,-23.4375,-53.7109375,-60.546875,0.0
126.28515625,-41.9921875,-35.15625,-25.87890625,-52.734375,-56.640625,0.0
126.2890625,-52.734375,-42.48046875,-21.484375,-38.0859375,-0.9765625,0.0
126.29296875,-56.640625,-42.96875,-21.97265625,-25.87890625,21.97265625,0.0
126.296875,-43.45703125,-41.50390625,-26.3671875,-23.4375,-14.6484375,0.0
126.30078125,-21.97265625,-45.41015625,-27.83203125,-30.76171875,-67.87109375,0.0
126.3046875,-11.71875,-42.48046875,-22.94921875,-23.92578125,-116.2109375,0.0
126.30859375,-20.5078125,-35.15625,-16.6015625,-4.8828125,-85.9375,0.0
126.3125,-32.71484375,-29.296875,-19.04296875,-0.9765625,-19.04296875,0.0
126.31640625,-38.0859375,-30.76171875,-22.94921875,-15.625,-69.82421875,0.0
126.3203125,-18.5546875,-29.296875,-25.390625,-26.3671875,-153.80859375,0.0
126.32421875,-8.30078125,-27.83203125,-29.78515625,-24.90234375,-36.62109375,0.0
126.328125,-33.203125,-30.2734375,-30.76171875,-19.53125,38.0859375,0.0
126.33203125,-47.36328125,-31.25,-29.78515625,-15.13671875,-28.3203125,0.0
126.3359375,-44.43359375,-30.76171875,-30.2734375,-32.71484375,-15.625,0.0
126.33984375,-22.94921875,-28.80859375,-29.296875,-45.41015625,20.5078125,0.0
126.34375,-12.20703125,-30.76171875,-25.87890625,-48.33984375,25.87890625,0.0
126.34765625,-28.3203125,-35.64453125,-29.78515625,-46.875,29.78515625,0.0
126.3515625,-43.9453125,-37.109375,-29.78515625,-40.0390625,11.71875,0.0
126.35546875,-43.45703125,-39.55078125,-28.80859375,-44.43359375,-54.19921875,0.0
126.359375,-24.4140625,-35.64453125,-28.80859375,-47.8515625,-57.6171875,0.0
126.36328125,-14.16015625,-29.296875,-13.671875,-49.8046875,-18.5546875,0.0
126.3671875,-29.296875,-29.296875,-12.20703125,-41.9921875,11.71875,0.0
126.37109375,-38.0859375,-28.80859375,-23.92578125,-29.78515625,7.8125,0.0
126.375,-34.66796875,-35.64453125,-28.80859375,-31.25,-2.9296875,0.0
126.37890625,-23.4375,-31.73828125,-31.73828125,-33.69140625,1.953125,0.0
126.3828125,-12.20703125,-25.87890625,-23.4375,-29.296875,-17.08984375,0.0
126.38671875,-22.4609375,-30.2734375,-19.53125,-19.53125,-111.328125,0.0
126.390625,-36.1328125,-33.203125,-21.484375,-9.765625,-87.890625,0.0
126.39453125,-41.50390625,-35.15625,-23.92578125,-16.11328125,-62.5,0.0
126.3984375,-30.76171875,-33.203125,-24.90234375,-26.3671875,-113.76953125,0.0
126.40234375,-20.5078125,-28.80859375,-25.87890625,-35.15625,-38.0859375,0.0
126.40625,-36.62109375,-31.73828125,-20.01953125,-38.57421875,-26.3671875,0.0
126.41015625,-51.26953125,-35.15625,-10.7421875,-26.3671875,-77.1484375,0.0
126.4140625,-48.828125,-30.76171875,-21.484375,-25.87890625,-55.17578125,0.0
126.41796875,-32.2265625,-26.3671875,-28.80859375,-34.1796875,-96.6796875,0.0
126.421875,-17.08984375,-29.78515625,-25.87890625,-33.69140625,-115.234375,0.0
126.42578125,-21.484375,-34.1796875,-22.4609375,-26.3671875,-42.96875,0.0
126.4296875,-37.109375,-30.76171875,-15.625,-20.5078125,-38.0859375,0.0
126.43359375,-37.109375,-31.25,-18.5546875,-23.92578125,10.7421875,0.0
126.4375,-28.3203125,-36.1328125,-24.4140625,-30.2734375,4.39453125,0.0
126.44140625,-25.390625,-33.69140625,-25.390625,-41.015625,-100.09765625,0.0
126.4453125,-19.04296875,-30.2734375,-22.94921875,-40.0390625,-60.05859375,0.0
126.44921875,-29.296875,-29.78515625,-23.4375,-28.80859375,-14.6484375,0.0
126.453125,-46.875,-35.64453125,-20.5078125,-31.25,-22.94921875,0.0
126.45703125,-42.48046875,-43.45703125,-19.53125,-40.52734375,35.64453125,0.0
126.4609375,-25.390625,-33.203125,-25.87890625,-42.96875,69.82421875,0.0
126.46484375,-26.85546875,-34.66796875,-30.76171875,-44.921875,26.85546875,0.0
126.46875,-50.78125,-49.31640625,-31.73828125,-43.9453125,5.37109375,0.0
126.47265625,-57.12890625,-44.921875,-30.2734375,-34.1796875,-6.34765625,0.0
126.4765625,-41.015625,-38.0859375,-27.83203125,-28.3203125,-56.640625,0.0
126.48046875,-17.08984375,-37.59765625,-23.4375,-34.66796875,-83.984375,0.0
126.484375,-8.30078125,-30.76171875,-23.4375,-32.2265625,-21.97265625,0.0
126.48828125,-31.73828125,-31.73828125,-25.390625,-21.484375,-74.70703125,0.0
126.4921875,-54.19921875,-40.52734375,-31.25,-22.4609375,-84.9609375,0.0
126.49609375,-54.6875,-40.0390625,-25.390625,-30.76171875,-45.8984375,0.0
126.5,-35.64453125,-36.62109375,-21.484375,-43.9453125,-91.796875,0.0
126.50390625,-28.80859375,-33.69140625,-31.73828125,-49.8046875,-84.9609375,0.0
126.5078125,-40.0390625,-34.1796875,-31.73828125,-37.109375,11.71875,0.0
126.51171875,-58.59375,-39.55078125,-28.80859375,-35.64453125,53.22265625,0.0
126.515625,-54.19921875,-32.71484375,-23.92578125,-38.0859375,-7.32421875,0.0
126.51953125,-27.83203125,-19.04296875,-22.4609375,-39.55078125,-65.4296875,0.0
126.5234375,-22.4609375,-24.4140625,-26.85546875,-43.45703125,-51.7578125,0.0
126.52734375,-31.73828125,-37.109375,-31.25,-35.64453125,-28.80859375,0.0
126.53125,-44.43359375,-41.9921875,-33.203125,-24.90234375,47.8515625,0.0
126.53515625,-52.734375,-37.59765625,-33.69140625,-24.90234375,43.45703125,0.0
126.5390625,-31.73828125,-31.73828125,-29.296875,-29.296875,-12.6953125,0.0
126.54296875,-16.11328125,-32.71484375,-20.01953125,-34.1796875,13.671875,0.0
126.546875,-27.83203125,-37.109375,-19.04296875,-31.25,3.90625,0.0
126.55078125,-43.45703125,-34.66796875,-26.3671875,-19.53125,-44.43359375,0.0
126.5546875,-41.9921875,-30.2734375,-22.94921875,-14.16015625,-28.3203125,0.0
126.55859375,-24.90234375,-34.66796875,-19.04296875,-17.08984375,31.25,0.0
126.5625,-10.25390625,-37.59765625,-21.484375,-19.04296875,0.0,0.0
126.56640625,-15.13671875,-37.59765625,-28.3203125,-17.578125,-114.2578125,0.0
126.5703125,-31.73828125,-38.0859375,-23.92578125,-15.625,-115.72265625,0.0
126.57421875,-48.828125,-38.57421875,-27.34375,-24.4140625,-61.5234375,0.0
126.578125,-42.96875,-35.64453125,-37.59765625,-41.50390625,-136.71875,0.0
126.58203125,-20.99609375,-24.90234375,-38.0859375,-42.96875,-157.2265625,0.0
126.5859375,-16.11328125,-20.99609375,-34.1796875,-38.0859375,-96.19140625,0.0
126.58984375,-34.66796875,-27.34375,-36.1328125,-34.66796875,-150.390625,0.0
126.59375,-48.828125,-26.3671875,-37.109375,-28.3203125,-124.0234375,0.0
126.59765625,-35.64453125,-27.34375,-36.62109375,-33.203125,-44.921875,0.0
126.6015625,-19.53125,-27.34375,-41.50390625,-40.0390625,-42.96875,0.0
126.60546875,-20.99609375,-24.90234375,-42.96875,-36.62109375,-49.8046875,0.0
126.609375,-34.1796875,-24.90234375,-38.0859375,-24.4140625,0.48828125,0.0
126.61328125,-37.59765625,-24.90234375,-33.69140625,-15.625,-1.46484375,0.0
126.6171875,-29.296875,-24.90234375,-36.62109375,-27.83203125,-7.8125,0.0
126.62109375,-13.671875,-27.83203125,-42.48046875,-40.0390625,5.37109375,0.0
126.625,-16.6015625,-31.73828125,-41.50390625,-35.15625,44.921875,0.0
126.62890625,-40.0390625,-33.203125,-40.0390625,-29.78515625,15.13671875,0.0
126.6328125,-53.22265625,-32.2265625,-32.2265625,-35.15625,-42.48046875,0.0
126.63671875,-39.55078125,-25.87890625,-26.3671875,-34.66796875,-48.828125,0.0
126.640625,-19.04296875,-24.90234375,-38.57421875,-41.015625,-4.8828125,0.0
126.64453125,-12.6953125,-33.69140625,-41.50390625,-44.921875,-67.87109375,0.0
126.6484375,-28.3203125,-34.1796875,-37.109375,-32.71484375,-150.87890625,0.0
126.65234375,-51.26953125,-32.71484375,-37.109375,-28.3203125,-48.828125,0.0
126.65625,-45.8984375,-33.203125,-35.15625,-29.296875,-12.20703125,0.0
126.66015625,-26.3671875,-30.76171875,-30.76171875,-30.76171875,-74.21875,0.0
126.6640625,-24.90234375,-33.203125,-33.203125,-35.15625,-146.484375,0.0
126.66796875,-41.50390625,-33.203125,-35.64453125,-26.3671875,-178.7109375,0.0
126.671875,-53.22265625,-28.80859375,-31.73828125,-18.5546875,-38.57421875,0.0
126.67578125,-53.22265625,-33.203125,-30.2734375,-32.2265625,-44.43359375,0.0
126.6796875,-34.1796875,-35.15625,-31.73828125,-38.57421875,-130.37109375,0.0
126.68359375,-17.578125,-28.80859375,-29.78515625,-31.73828125,-105.46875,0.0
126.6875,-33.69140625,-30.2734375,-30.76171875,-29.78515625,-110.83984375,0.0
126.69140625,-57.12890625,-30.76171875,-36.1328125,-32.2265625,-111.81640625,0.0
126.6953125,-51.7578125,-27.34375,-38.0859375,-38.0859375,-176.7578125,0.0
126.69921875,-31.73828125,-25.390625,-38.57421875,-42.48046875,-133.30078125,0.0
126.703125,-26.85546875,-22.4609375,-35.64453125,-45.41015625,-89.84375,0.0
126.70703125,-31.25,-20.5078125,-33.203125,-36.1328125,-114.2578125,0.0
126.7109375,-39.55078125,-24.90234375,-33.203125,-20.01953125,-123.046875,0.0
126.71484375,-36.62109375,-32.2265625,-33.69140625,-14.16015625,-80.56640625,0.0
126.71875,-21.484375,-25.390625,-29.296875,-16.11328125,-37.59765625,0.0
126.72265625,-13.671875,-26.3671875,-30.76171875,-22.4609375,-73.73046875,0.0
126.7265625,-21.484375,-34.66796875,-36.1328125,-18.06640625,-141.6015625,0.0
126.73046875,-36.62109375,-34.1796875,-33.69140625,-1.953125,-90.8203125,0.0
126.734375,-44.921875,-35.15625,-31.73828125,-3.90625,-33.203125,0.0
126.73828125,-32.71484375,-33.203125,-24.4140625,-20.99609375,-161.62109375,0.0
126.7421875,-13.671875,-32.2265625,-26.3671875,-29.296875,-176.26953125,0.0
126.74609375,-17.08984375,-29.296875,-38.0859375,-31.73828125,-106.4453125,0.0
126.75,-36.1328125,-28.3203125,-39.0625,-25.87890625,-73.2421875,0.0
126.75390625,-45.41015625,-35.15625,-38.57421875,-23.92578125,-45.8984375,0.0
126.7578125,-27.83203125,-33.203125,-37.109375,-37.59765625,-96.6796875,0.0
126.76171875,-20.5078125,-25.390625,-36.62109375,-49.8046875,-120.1171875,0.0
126.765625,-35.15625,-25.87890625,-40.52734375,-50.78125,-81.0546875,0.0
126.76953125,-47.36328125,-33.203125,-41.50390625,-43.45703125,-74.21875,0.0
126.7734375,-57.12890625,-34.1796875,-38.57421875,-38.57421875,-118.1640625,0.0
126.77734375,-45.41015625,-33.203125,-39.0625,-47.36328125,-48.828125,0.0
126.78125,-20.99609375,-26.85546875,-28.80859375,-43.45703125,23.92578125,0.0
126.78515625,-18.06640625,-21.484375,-18.5546875,-31.25,9.27734375,0.0
126.7890625,-38.57421875,-29.78515625,-31.25,-25.390625,41.015625,0.0
126.79296875,-47.8515625,-36.1328125,-37.59765625,-20.99609375,24.90234375,0.0
126.796875,-34.1796875,-37.109375,-40.52734375,-27.83203125,40.52734375,0.0
126.80078125,-17.578125,-37.109375,-44.921875,-34.1796875,72.265625,0.0
126.8046875,-20.01953125,-34.66796875,-42.48046875,-27.83203125,76.66015625,0.0
126.80859375,-32.71484375,-33.69140625,-38.57421875,-18.06640625,29.296875,0.0
126.8125,-43.45703125,-30.2734375,-39.0625,-18.06640625,-6.34765625,0.0
126.81640625,-42.96875,-29.296875,-45.8984375,-28.80859375,30.76171875,0.0
126.8203125,-20.01953125,-25.390625,-43.9453125,-34.1796875,98.14453125,0.0
126.82421875,-12.6953125,-23.92578125,-40.52734375,-34.1796875,82.03125,0.0
126.828125,-34.1796875,-25.390625,-38.57421875,-34.66796875,13.18359375,0.0
126.83203125,-46.38671875,-24.90234375,-40.52734375,-30.2734375,104.4921875,0.0
126.8359375,-39.55078125,-29.78515625,-51.26953125,-37.109375,128.90625,0.0
126.83984375,-27.83203125,-28.3203125,-44.921875,-52.734375,32.71484375,0.0
126.84375,-19.53125,-18.06640625,-33.203125,-56.640625,-55.17578125,0.0
126.84765625,-26.3671875,-22.4609375,-40.0390625,-50.29296875,19.53125,0.0
126.8515625,-39.55078125,-31.25,-42.48046875,-44.43359375,75.1953125,0.0
126.85546875,-48.828125,-31.73828125,-34.66796875,-43.9453125,-5.859375,0.0
126.859375,-41.9921875,-30.76171875,-36.62109375,-52.734375,-90.8203125,0.0
126.86328125,-28.80859375,-27.34375,-34.66796875,-52.24609375,-91.796875,0.0
126.8671875,-34.66796875,-29.78515625,-34.66796875,-38.57421875,-5.859375,0.0
126.87109375,-53.22265625,-34.66796875,-33.69140625,-28.3203125,0.0,0.0
126.875,-58.10546875,-36.62109375,-35.64453125,-31.25,-6.34765625,0.0
126.87890625,-40.0390625,-32.2265625,-41.50390625,-34.1796875,34.1796875,0.0
126.8828125,-19.04296875,-24.4140625,-35.64453125,-24.90234375,9.765625,0.0
126.88671875,-11.23046875,-24.4140625,-34.66796875,-11.71875,-37.109375,0.0
126.890625,-32.2265625,-24.90234375,-37.59765625,-3.41796875,10.25390625,0.0
126.89453125,-42.96875,-23.4375,-43.9453125,-5.37109375,11.23046875,0.0
126.8984375,-26.3671875,-24.90234375,-44.43359375,-11.23046875,-38.0859375,0.0
126.90234375,-10.25390625,-22.94921875,-41.50390625,-16.11328125,-87.890625,0.0
126.90625,-12.6953125,-25.87890625,-45.41015625,-15.625,-88.37890625,0.0
126.91015625,-26.85546875,-31.25,-44.43359375,-10.25390625,9.27734375,0.0
126.9140625,-25.87890625,-26.85546875,-44.43359375,-11.71875,-1.953125,0.0
126.91796875,-10.7421875,-20.5078125,-40.0390625,-30.2734375,-28.3203125,0.0
126.921875,2.9296875,-21.97265625,-38.57421875,-51.26953125,24.4140625,0.0
126.92578125,4.8828125,-22.94921875,-42.96875,-55.17578125,41.9921875,0.0
126.9296875,-8.7890625,-28.3203125,-44.43359375,-52.734375,10.25390625,0.0
126.93359375,-18.5546875,-33.203125,-42.48046875,-54.6875,49.8046875,0.0
126.9375,-16.6015625,-33.203125,-41.50390625,-60.05859375,12.20703125,0.0
126.94140625,-8.7890625,-33.69140625,-41.50390625,-65.91796875,-45.8984375,0.0
126.9453125,-18.06640625,-33.69140625,-37.59765625,-54.6875,-38.0859375,0.0
126.94921875,-53.7109375,-34.1796875,-36.62109375,-37.109375,-45.41015625,0.0
126.953125,-74.21875,-43.45703125,-36.62109375,-31.25,-68.84765625,0.0
126.95703125,-62.98828125,-47.8515625,-39.0625,-32.71484375,-60.05859375,0.0
126.9609375,-41.9921875,-36.62109375,-31.25,-34.1796875,-28.80859375,0.0
126.96484375,-37.59765625,-38.57421875,-26.85546875,-31.25,-74.21875,0.0
126.96875,-47.36328125,-43.45703125,-38.0859375,-19.53125,-84.9609375,0.0
126.97265625,-61.03515625,-41.015625,-35.15625,-12.6953125,-14.16015625,0.0
126.9765625,-51.7578125,-34.66796875,-31.73828125,-18.06640625,-44.43359375,0.0
126.98046875,-32.2265625,-30.76171875,-35.64453125,-25.87890625,-16.6015625,0.0
126.984375,-28.80859375,-29.78515625,-37.109375,-27.83203125,53.7109375,0.0
126.98828125,-40.52734375,-29.78515625,-39.0625,-25.390625,19.04296875,0.0
126.9921875,-50.29296875,-26.85546875,-35.64453125,-19.53125,-28.3203125,0.0
126.99609375,-42.48046875,-28.3203125,-31.73828125,-26.3671875,-0.9765625,0.0
127.0,-24.90234375,-29.296875,-35.64453125,-41.50390625,-0.9765625,0.0
127.00390625,-10.25390625,-22.94921875,-39.0625,-45.8984375,-1.953125,0.0
127.0078125,-30.2734375,-28.3203125,-33.203125,-41.50390625,48.33984375,0.0
127.01171875,-53.7109375,-31.73828125,-33.69140625,-36.1328125,44.921875,0.0
127.015625,-46.875,-31.25,-38.57421875,-39.55078125,1.46484375,0.0
127.01953125,-33.203125,-31.25,-39.55078125,-48.828125,-35.64453125,0.0
127.0234375,-24.90234375,-30.76171875,-39.0625,-50.78125,-51.7578125,0.0
127.02734375,-31.25,-28.80859375,-35.15625,-40.52734375,-77.63671875,0.0
127.03125,-48.33984375,-30.2734375,-31.73828125,-29.78515625,-104.00390625,0.0
127.03515625,-49.8046875,-38.0859375,-37.109375,-32.2265625,-100.5859375,0.0
127.0390625,-34.1796875,-36.62109375,-41.9921875,-41.50390625,-72.265625,0.0
127.04296875,-20.5078125,-29.296875,-38.57421875,-40.0390625,-66.40625,0.0
127.046875,-22.4609375,-31.73828125,-34.1796875,-29.296875,-54.19921875,0.0
127.05078125,-44.43359375,-34.66796875,-31.25,-27.34375,35.15625,0.0
127.0546875,-52.734375,-33.203125,-36.1328125,-29.78515625,0.48828125,0.0
127.05859375,-36.1328125,-33.203125,-38.57421875,-31.73828125,-78.61328125,0.0
127.0625,-18.5546875,-35.15625,-38.57421875,-31.25,-25.390625,0.0
127.06640625,-20.5078125,-34.1796875,-37.109375,-26.3671875,-33.203125,0.0
127.0703125,-41.50390625,-36.1328125,-34.1796875,-23.4375,-17.08984375,0.0
127.07421875,-46.38671875,-36.1328125,-41.50390625,-26.85546875,33.203125,0.0
127.078125,-27.83203125,-27.83203125,-41.50390625,-33.203125,-25.87890625,0.0
127.08203125,-12.20703125,-29.78515625,-39.0625,-37.59765625,-42.96875,0.0
127.0859375,-11.71875,-33.69140625,-39.55078125,-34.66796875,-4.39453125,0.0
127.08984375,-24.4140625,-28.3203125,-36.62109375,-25.390625,20.5078125,0.0
127.09375,-34.66796875,-26.85546875,-35.64453125,-20.99609375,-44.921875,0.0
127.09765625,-29.296875,-30.76171875,-35.15625,-32.2265625,-76.66015625,0.0
127.1015625,-5.37109375,-28.3203125,-35.15625,-41.015625,-54.6875,0.0
127.10546875,0.9765625,-25.87890625,-32.2265625,-38.0859375,-78.125,0.0
127.109375,-25.390625,-24.90234375,-30.76171875,-27.83203125,-32.2265625,0.0
127.11328125,-41.015625,-31.73828125,-26.85546875,-26.3671875,-25.87890625,0.0
127.1171875,-30.76171875,-31.25,-25.87890625,-33.69140625,-30.2734375,0.0
127.12109375,-14.6484375,-25.390625,-37.59765625,-43.45703125,-37.59765625,0.0
127.125,-14.6484375,-27.83203125,-33.69140625,-43.9453125,-3.90625,0.0
127.12890625,-27.83203125,-30.2734375,-26.3671875,-36.1328125,26.85546875,0.0
127.1328125,-44.921875,-33.69140625,-38.0859375,-34.66796875,26.85546875,0.0
127.13671875,-43.45703125,-39.0625,-45.41015625,-37.59765625,-6.8359375,0.0
127.140625,-26.3671875,-34.66796875,-42.96875,-41.9921875,-18.5546875,0.0
127.14453125,-23.4375,-33.69140625,-39.0625,-42.96875,-16.11328125,0.0
127.1484375,-34.1796875,-34.1796875,-38.57421875,-32.2265625,-77.1484375,0.0
127.15234375,-38.57421875,-30.76171875,-40.52734375,-27.83203125,-38.57421875,0.0
127.15625,-37.59765625,-38.0859375,-41.015625,-34.66796875,-44.921875,0.0
127.16015625,-25.87890625,-42.48046875,-44.43359375,-40.52734375,-52.24609375,0.0
127.1640625,-16.11328125,-39.55078125,-47.36328125,-39.0625,44.921875,0.0
127.16796875,-24.90234375,-34.66796875,-37.109375,-34.1796875,24.90234375,0.0
127.171875,-43.9453125,-33.203125,-23.92578125,-33.69140625,33.69140625,0.0
127.17578125,-46.875,-37.109375,-26.3671875,-42.48046875,-7.8125,0.0
127.1796875,-30.76171875,-38.57421875,-35.64453125,-56.15234375,-64.94140625,0.0
127.18359375,-23.4375,-38.0859375,-33.203125,-60.05859375,-68.84765625,0.0
127.1875,-33.203125,-38.0859375,-28.3203125,-45.41015625,-24.4140625,0.0
