timestam,TP9,AF7,AF8,TP10,AUX,Marker
213.00390625,-25.87890625,-18.06640625,-35.64453125,-40.0390625,-85.9375,0.0
213.0078125,-20.01953125,-15.13671875,-30.76171875,-28.3203125,30.76171875,0.0
213.01171875,-24.4140625,-14.6484375,-26.3671875,-20.01953125,115.234375,0.0
213.015625,-29.78515625,-16.11328125,-20.01953125,-28.80859375,27.34375,0.0
213.01953125,-36.1328125,-25.87890625,-27.83203125,-41.015625,3.41796875,0.0
213.0234375,-26.3671875,-23.4375,-35.64453125,-39.0625,17.578125,0.0
213.02734375,-18.06640625,-19.53125,-30.2734375,-31.73828125,-26.85546875,0.0
213.03125,-26.85546875,-22.4609375,-34.1796875,-32.71484375,53.7109375,0.0
213.03515625,-35.64453125,-27.83203125,-36.62109375,-43.45703125,41.50390625,0.0
213.0390625,-41.50390625,-33.203125,-41.50390625,-49.8046875,-70.3125,0.0
213.04296875,-29.78515625,-24.4140625,-33.69140625,-38.0859375,-85.44921875,0.0
213.046875,-3.41796875,-7.8125,-3.41796875,-14.16015625,-58.59375,0.0
213.05078125,-15.625,-19.04296875,-17.08984375,-21.97265625,-84.9609375,0.0
213.0546875,-37.59765625,-34.66796875,-42.96875,-42.48046875,-120.1171875,0.0
213.05859375,-30.76171875,-38.57421875,-33.69140625,-41.9921875,-142.08984375,0.0
213.0625,-10.7421875,-29.296875,-12.20703125,-30.2734375,-157.71484375,0.0
213.06640625,-12.6953125,-30.76171875,-33.69140625,-33.69140625,-78.61328125,0.0
213.0703125,-18.5546875,-32.2265625,-42.96875,-36.1328125,-22.94921875,0.0
213.07421875,-21.97265625,-26.85546875,-33.69140625,-34.1796875,-80.078125,0.0
213.078125,-30.2734375,-29.296875,-37.59765625,-43.9453125,-104.98046875,0.0
213.08203125,-28.3203125,-32.71484375,-41.9921875,-45.8984375,-8.30078125,0.0
213.0859375,-25.390625,-26.3671875,-40.0390625,-33.69140625,-1.46484375,0.0
213.08984375,-27.83203125,-19.04296875,-34.66796875,-25.87890625,16.6015625,0.0
213.09375,-37.59765625,-24.4140625,-36.1328125,-31.73828125,-26.3671875,0.0
213.09765625,-46.875,-36.1328125,-42.96875,-41.015625,-227.5390625,0.0
213.1015625,-41.9921875,-35.15625,-43.9453125,-42.96875,-283.69140625,0.0
213.10546875,-23.4375,-23.92578125,-19.04296875,-29.296875,-186.5234375,0.0
213.109375,-16.6015625,-18.06640625,-11.23046875,-13.671875,-65.91796875,0.0
213.11328125,-29.78515625,-20.01953125,-31.73828125,-20.5078125,-64.453125,0.0
213.1171875,-41.9921875,-33.203125,-41.015625,-37.59765625,-165.52734375,0.0
213.12109375,-39.0625,-36.62109375,-40.0390625,-35.64453125,-143.06640625,0.0
213.125,-26.85546875,-27.83203125,-34.1796875,-25.87890625,-66.89453125,0.0
213.12890625,-23.92578125,-22.4609375,-29.78515625,-21.97265625,-23.4375,0.0
213.1328125,-35.64453125,-26.3671875,-34.1796875,-23.4375,-66.40625,0.0
213.13671875,-51.7578125,-34.1796875,-41.015625,-34.66796875,-19.53125,0.0
213.140625,-47.36328125,-35.64453125,-37.59765625,-40.0390625,13.18359375,0.0
213.14453125,-34.66796875,-32.71484375,-37.109375,-32.2265625,16.11328125,0.0
213.1484375,-29.296875,-29.296875,-35.15625,-28.3203125,3.41796875,0.0
213.15234375,-30.76171875,-30.2734375,-24.4140625,-26.3671875,-48.828125,0.0
213.15625,-33.203125,-32.71484375,-25.87890625,-27.83203125,-94.7265625,0.0
213.16015625,-36.62109375,-34.1796875,-35.64453125,-35.64453125,-85.9375,0.0
213.1640625,-30.76171875,-28.80859375,-33.69140625,-34.66796875,13.671875,0.0
213.16796875,-22.94921875,-23.92578125,-31.25,-26.3671875,23.92578125,0.0
213.171875,-30.2734375,-30.2734375,-32.71484375,-25.87890625,-90.8203125,0.0
213.17578125,-40.0390625,-36.1328125,-36.62109375,-32.2265625,-104.00390625,0.0
213.1796875,-41.9921875,-40.0390625,-38.57421875,-39.55078125,-69.82421875,0.0
213.18359375,-32.2265625,-31.73828125,-33.203125,-34.66796875,-39.55078125,0.0
213.1875,-19.04296875,-21.97265625,-29.296875,-22.94921875,65.4296875,0.0
213.19140625,-21.484375,-24.90234375,-28.80859375,-20.99609375,129.8828125,0.0
213.1953125,-34.66796875,-36.62109375,-31.73828125,-31.73828125,43.45703125,0.0
213.19921875,-41.50390625,-42.48046875,-35.64453125,-40.52734375,-47.8515625,0.0
213.203125,-28.3203125,-31.73828125,-29.78515625,-37.59765625,5.859375,0.0
213.20703125,-19.04296875,-23.92578125,-27.83203125,-31.73828125,46.875,0.0
213.2109375,-28.80859375,-30.2734375,-34.1796875,-30.76171875,21.484375,0.0
213.21484375,-32.71484375,-33.69140625,-31.73828125,-31.73828125,-13.18359375,0.0
213.21875,-33.203125,-38.0859375,-32.2265625,-33.203125,0.0,0.0
213.22265625,-23.92578125,-32.71484375,-30.76171875,-27.34375,-14.16015625,0.0
213.2265625,-15.625,-25.87890625,-22.94921875,-15.625,28.80859375,0.0
213.23046875,-20.99609375,-25.87890625,-23.4375,-12.20703125,35.64453125,0.0
213.234375,-32.71484375,-29.296875,-29.296875,-21.484375,-64.94140625,0.0
213.23828125,-48.33984375,-42.96875,-41.9921875,-41.50390625,-60.05859375,0.0
213.2421875,-62.01171875,-64.453125,-45.41015625,-61.03515625,-36.1328125,0.0
213.24609375,-41.9921875,-44.43359375,-36.1328125,-38.57421875,-36.62109375,0.0
213.25,-23.92578125,-23.92578125,-29.78515625,-16.11328125,-18.5546875,0.0
213.25390625,-33.203125,-33.203125,-27.34375,-21.97265625,6.8359375,0.0
213.2578125,-38.57421875,-34.66796875,-29.78515625,-27.34375,36.62109375,0.0
213.26171875,-32.2265625,-30.76171875,-35.64453125,-26.85546875,-15.625,0.0
213.265625,-23.92578125,-30.76171875,-36.1328125,-22.94921875,7.32421875,0.0
213.26953125,-26.3671875,-30.2734375,-31.25,-24.4140625,43.45703125,0.0
213.2734375,-34.1796875,-30.76171875,-33.69140625,-25.87890625,-55.6640625,0.0
213.27734375,-38.57421875,-35.15625,-41.50390625,-33.203125,-181.15234375,0.0
213.28125,-37.109375,-39.0625,-44.43359375,-44.921875,-141.6015625,0.0
213.28515625,-25.390625,-32.2265625,-32.2265625,-34.66796875,24.90234375,0.0
213.2890625,-19.04296875,-23.92578125,-29.78515625,-23.92578125,94.7265625,0.0
213.29296875,-33.203125,-29.296875,-44.921875,-31.25,29.296875,0.0
213.296875,-41.50390625,-34.66796875,-45.41015625,-40.0390625,-75.1953125,0.0
213.30078125,-30.76171875,-30.2734375,-20.5078125,-32.71484375,-53.22265625,0.0
213.3046875,-22.4609375,-29.78515625,-21.97265625,-26.85546875,91.30859375,0.0
213.30859375,-22.4609375,-34.1796875,-32.2265625,-26.3671875,124.51171875,0.0
213.3125,-32.2265625,-34.66796875,-31.25,-24.90234375,61.03515625,0.0
213.31640625,-38.57421875,-37.59765625,-38.0859375,-36.1328125,25.87890625,0.0
213.3203125,-33.203125,-37.59765625,-37.59765625,-47.36328125,-17.08984375,0.0
213.32421875,-23.4375,-31.73828125,-33.69140625,-42.48046875,-55.6640625,0.0
213.328125,-19.04296875,-22.94921875,-27.34375,-27.34375,27.34375,0.0
213.33203125,-26.85546875,-20.5078125,-19.53125,-20.99609375,29.296875,0.0
213.3359375,-41.50390625,-30.76171875,-27.34375,-32.71484375,-56.15234375,0.0
213.33984375,-42.96875,-35.15625,-33.203125,-43.9453125,-9.765625,0.0
213.34375,-26.3671875,-25.390625,-23.92578125,-34.1796875,-0.48828125,0.0
213.34765625,-19.04296875,-20.5078125,-22.4609375,-26.3671875,0.48828125,0.0
213.3515625,-23.92578125,-23.92578125,-29.296875,-22.94921875,-52.734375,0.0
213.35546875,-29.78515625,-26.85546875,-29.296875,-25.87890625,-147.4609375,0.0
213.359375,-32.71484375,-29.78515625,-33.203125,-32.71484375,-135.25390625,0.0
213.36328125,-22.94921875,-24.4140625,-36.62109375,-31.73828125,-6.34765625,0.0
213.3671875,-14.6484375,-20.99609375,-27.34375,-27.83203125,-8.30078125,0.0
213.37109375,-21.484375,-24.90234375,-21.484375,-27.34375,-56.15234375,0.0
213.375,-29.78515625,-21.484375,-14.6484375,-28.80859375,-15.13671875,0.0
213.37890625,-39.0625,-26.3671875,-23.4375,-41.015625,-42.96875,0.0
213.3828125,-37.109375,-32.71484375,-32.2265625,-49.31640625,-40.52734375,0.0
213.38671875,-28.3203125,-30.76171875,-25.87890625,-42.48046875,59.08203125,0.0
213.390625,-28.80859375,-25.87890625,-12.6953125,-29.296875,20.01953125,0.0
213.39453125,-42.96875,-30.76171875,-20.99609375,-38.0859375,-64.94140625,0.0
213.3984375,-46.875,-37.109375,-33.69140625,-45.41015625,-52.24609375,0.0
213.40234375,-38.57421875,-33.69140625,-30.2734375,-37.59765625,-4.39453125,0.0
213.40625,-32.2265625,-32.2265625,-32.71484375,-32.2265625,28.3203125,0.0
213.41015625,-32.71484375,-33.69140625,-31.73828125,-35.15625,-55.17578125,0.0
213.4140625,-44.921875,-37.59765625,-31.25,-41.015625,-105.46875,0.0
213.41796875,-51.26953125,-41.50390625,-33.203125,-38.57421875,-141.6015625,0.0
213.421875,-38.0859375,-35.64453125,-27.34375,-33.69140625,-128.41796875,0.0
213.42578125,-26.3671875,-28.3203125,-25.390625,-28.3203125,-63.96484375,0.0
213.4296875,-24.4140625,-21.97265625,-25.87890625,-23.92578125,-45.41015625,0.0
213.43359375,-32.71484375,-26.85546875,-27.83203125,-28.80859375,-64.94140625,0.0
213.4375,-41.015625,-37.59765625,-33.69140625,-34.66796875,-141.11328125,0.0
213.44140625,-37.59765625,-35.64453125,-37.109375,-39.55078125,-123.53515625,0.0
213.4453125,-24.4140625,-27.34375,-34.1796875,-41.50390625,-43.45703125,0.0
213.44921875,-17.578125,-22.94921875,-25.87890625,-24.4140625,-15.13671875,0.0
213.453125,-24.90234375,-26.85546875,-21.97265625,-22.4609375,4.8828125,0.0
213.45703125,-34.1796875,-30.2734375,-37.109375,-38.0859375,15.625,0.0
213.4609375,-31.25,-30.76171875,-40.0390625,-39.55078125,24.90234375,0.0
213.46484375,-22.4609375,-28.3203125,-31.25,-29.296875,39.55078125,0.0
213.46875,-21.97265625,-22.94921875,-26.3671875,-18.06640625,68.359375,0.0
213.47265625,-34.1796875,-27.34375,-26.85546875,-20.01953125,-26.85546875,0.0
213.4765625,-43.45703125,-31.25,-32.71484375,-32.2265625,-37.59765625,0.0
213.48046875,-40.0390625,-33.203125,-24.90234375,-39.55078125,-35.15625,0.0
213.484375,-29.296875,-28.3203125,-23.4375,-34.1796875,-36.62109375,0.0
213.48828125,-24.90234375,-19.04296875,-31.25,-26.3671875,20.99609375,0.0
213.4921875,-32.2265625,-22.94921875,-29.296875,-26.3671875,-2.9296875,0.0
213.49609375,-46.875,-33.69140625,-29.296875,-34.66796875,-110.83984375,0.0
213.5,-49.8046875,-40.0390625,-38.0859375,-44.921875,-139.6484375,0.0
213.50390625,-39.55078125,-39.0625,-35.15625,-43.9453125,-72.75390625,0.0
213.5078125,-36.1328125,-37.59765625,-32.2265625,-35.15625,35.64453125,0.0
213.51171875,-41.9921875,-33.203125,-31.73828125,-29.296875,37.109375,0.0
213.515625,-50.29296875,-33.203125,-28.3203125,-34.66796875,-97.65625,0.0
213.51953125,-52.734375,-41.015625,-32.2265625,-43.45703125,-116.69921875,0.0
213.5234375,-40.0390625,-36.62109375,-29.78515625,-39.55078125,-39.0625,0.0
213.52734375,-26.85546875,-30.2734375,-3.90625,-23.92578125,26.85546875,0.0
213.53125,-30.76171875,-32.2265625,-12.20703125,-19.53125,-14.6484375,0.0
213.53515625,-38.0859375,-33.203125,-29.78515625,-29.296875,-84.9609375,0.0
213.5390625,-35.15625,-29.78515625,-24.4140625,-32.71484375,-136.23046875,0.0
213.54296875,-25.390625,-25.87890625,-23.4375,-28.3203125,-25.390625,0.0
213.546875,-19.53125,-28.80859375,-28.80859375,-26.3671875,13.18359375,0.0
213.55078125,-19.53125,-25.390625,-24.90234375,-22.4609375,-75.1953125,0.0
213.5546875,-31.25,-25.87890625,-21.97265625,-29.296875,-117.1875,0.0
213.55859375,-43.45703125,-34.1796875,-29.78515625,-42.96875,-118.65234375,0.0
213.5625,-34.66796875,-29.296875,-36.1328125,-42.48046875,-57.12890625,0.0
213.56640625,-25.390625,-21.484375,-32.2265625,-37.109375,-13.18359375,0.0
213.5703125,-24.4140625,-19.04296875,-20.01953125,-26.3671875,-48.33984375,0.0
213.57421875,-33.69140625,-25.87890625,-30.2734375,-25.87890625,-60.05859375,0.0
213.578125,-40.0390625,-30.76171875,-41.50390625,-37.109375,-91.796875,0.0
213.58203125,-38.0859375,-34.66796875,-38.0859375,-39.55078125,-66.40625,0.0
213.5859375,-28.80859375,-34.1796875,-27.34375,-29.296875,21.97265625,0.0
213.58984375,-26.85546875,-28.80859375,-27.34375,-26.85546875,35.15625,0.0
213.59375,-33.203125,-28.80859375,-31.73828125,-31.25,-65.91796875,0.0
213.59765625,-41.9921875,-37.59765625,-34.66796875,-40.52734375,-89.84375,0.0
213.6015625,-39.55078125,-35.15625,-29.78515625,-42.48046875,15.13671875,0.0
213.60546875,-23.92578125,-25.390625,-26.3671875,-29.296875,41.015625,0.0
213.609375,-23.92578125,-25.87890625,-32.71484375,-26.85546875,-76.171875,0.0
213.61328125,-32.71484375,-26.3671875,-31.25,-26.3671875,-105.95703125,0.0
213.6171875,-29.296875,-22.4609375,-11.23046875,-23.92578125,-109.86328125,0.0
213.62109375,-26.3671875,-25.87890625,-21.97265625,-30.2734375,-193.84765625,0.0
213.625,-18.5546875,-23.92578125,-34.1796875,-27.34375,-91.796875,0.0
213.62890625,-16.11328125,-20.5078125,-29.78515625,-22.4609375,33.203125,0.0
213.6328125,-27.34375,-22.4609375,-33.69140625,-24.4140625,-47.8515625,0.0
213.63671875,-33.69140625,-30.2734375,-40.0390625,-28.80859375,-139.16015625,0.0
213.640625,-29.78515625,-31.73828125,-41.50390625,-31.73828125,-52.734375,0.0
213.64453125,-19.04296875,-24.90234375,-36.1328125,-22.4609375,6.34765625,0.0
213.6484375,-14.16015625,-20.5078125,-32.2265625,-12.20703125,-12.6953125,0.0
213.65234375,-22.4609375,-21.97265625,-32.71484375,-9.765625,-3.90625,0.0
213.65625,-33.203125,-33.69140625,-43.9453125,-21.97265625,-0.48828125,0.0
213.66015625,-30.76171875,-33.203125,-33.203125,-24.4140625,-58.10546875,0.0
213.6640625,-15.625,-21.97265625,-22.94921875,-14.6484375,-62.5,0.0
213.66796875,-10.7421875,-19.04296875,-33.203125,-15.13671875,27.34375,0.0
213.671875,-18.06640625,-21.97265625,-28.3203125,-10.25390625,-4.39453125,0.0
213.67578125,-29.296875,-28.80859375,-25.390625,-13.671875,-85.44921875,0.0
213.6796875,-32.71484375,-31.73828125,-31.25,-25.87890625,-3.90625,0.0
213.68359375,-26.3671875,-26.85546875,-34.66796875,-27.83203125,66.89453125,0.0
213.6875,-22.94921875,-23.92578125,-34.66796875,-27.83203125,30.76171875,0.0
213.69140625,-23.92578125,-20.99609375,-30.76171875,-27.83203125,37.59765625,0.0
213.6953125,-31.25,-25.390625,-34.66796875,-36.1328125,24.90234375,0.0
213.69921875,-36.1328125,-29.296875,-42.96875,-42.48046875,-72.75390625,0.0
213.703125,-27.34375,-25.390625,-39.0625,-31.25,-84.47265625,0.0
213.70703125,-10.7421875,-19.04296875,-20.99609375,-15.625,14.6484375,0.0
213.7109375,-17.578125,-20.01953125,-26.3671875,-14.6484375,-28.80859375,0.0
213.71484375,-34.1796875,-26.3671875,-39.0625,-26.3671875,-91.796875,0.0
213.71875,-35.64453125,-28.3203125,-29.78515625,-33.69140625,-96.19140625,0.0
213.72265625,-25.390625,-21.97265625,-16.6015625,-34.1796875,-38.57421875,0.0
213.7265625,-17.578125,-16.11328125,-27.83203125,-33.203125,74.21875,0.0
213.73046875,-21.97265625,-19.53125,-32.2265625,-27.34375,88.8671875,0.0
213.734375,-41.015625,-29.296875,-36.1328125,-40.52734375,-29.78515625,0.0
213.73828125,-48.828125,-33.203125,-41.015625,-48.33984375,-49.8046875,0.0
213.7421875,-40.0390625,-28.3203125,-39.0625,-46.875,-20.99609375,0.0
213.74609375,-29.296875,-23.92578125,-35.15625,-38.57421875,45.41015625,0.0
213.75,-24.90234375,-19.53125,-29.78515625,-23.4375,99.609375,0.0
213.75390625,-36.62109375,-24.4140625,-33.69140625,-29.296875,-5.37109375,0.0
213.7578125,-45.8984375,-34.1796875,-42.48046875,-46.875,-76.171875,0.0
213.76171875,-39.55078125,-33.69140625,-42.96875,-51.7578125,-37.59765625,0.0
213.765625,-31.25,-27.34375,-23.92578125,-41.015625,-48.33984375,0.0
213.76953125,-33.203125,-26.3671875,-25.390625,-39.0625,-62.98828125,0.0
213.7734375,-35.15625,-24.4140625,-41.9921875,-41.9921875,-44.43359375,0.0
213.77734375,-40.0390625,-30.76171875,-44.43359375,-46.875,-123.046875,0.0
213.78125,-38.0859375,-34.1796875,-46.875,-46.38671875,-80.078125,0.0
213.78515625,-23.92578125,-20.01953125,-39.0625,-31.73828125,64.94140625,0.0
213.7890625,-20.99609375,-13.18359375,-37.109375,-23.92578125,99.12109375,0.0
213.79296875,-32.71484375,-21.97265625,-44.43359375,-29.78515625,10.25390625,0.0
213.796875,-41.015625,-31.25,-44.43359375,-41.9921875,-66.89453125,0.0
213.80078125,-41.9921875,-38.57421875,-46.875,-55.6640625,-72.265625,0.0
213.8046875,-36.62109375,-34.66796875,-45.8984375,-52.24609375,47.36328125,0.0
213.80859375,-33.69140625,-26.3671875,-33.203125,-36.62109375,129.39453125,0.0
213.8125,-42.96875,-34.1796875,-18.06640625,-38.0859375,42.96875,0.0
213.81640625,-43.45703125,-29.78515625,-24.4140625,-43.45703125,-44.43359375,0.0
213.8203125,-39.0625,-25.87890625,-41.015625,-52.24609375,-47.8515625,0.0
213.82421875,-33.203125,-29.296875,-35.64453125,-48.828125,-31.73828125,0.0
213.828125,-26.85546875,-25.87890625,-29.78515625,-33.203125,1.953125,0.0
213.83203125,-37.109375,-28.80859375,-37.109375,-31.73828125,41.9921875,0.0
213.8359375,-48.33984375,-36.1328125,-41.9921875,-42.96875,-32.71484375,0.0
213.83984375,-48.828125,-38.0859375,-43.9453125,-52.734375,-75.68359375,0.0
213.84375,-43.45703125,-35.15625,-41.015625,-45.41015625,-33.203125,0.0
213.84765625,-35.15625,-28.80859375,-40.52734375,-31.73828125,17.08984375,0.0
213.8515625,-39.0625,-28.80859375,-41.015625,-32.71484375,26.3671875,0.0
213.85546875,-57.12890625,-41.015625,-34.1796875,-47.36328125,-56.15234375,0.0
213.859375,-57.12890625,-41.50390625,-32.71484375,-46.875,-109.86328125,0.0
213.86328125,-41.015625,-31.25,-40.0390625,-35.64453125,12.6953125,0.0
213.8671875,-28.3203125,-23.92578125,-39.55078125,-28.80859375,49.8046875,0.0
213.87109375,-33.203125,-22.94921875,-37.59765625,-29.78515625,-66.89453125,0.0
213.875,-45.8984375,-24.90234375,-38.57421875,-36.1328125,-111.328125,0.0
213.87890625,-47.8515625,-32.2265625,-39.55078125,-39.0625,-159.1796875,0.0
213.8828125,-41.50390625,-33.69140625,-37.109375,-39.0625,-101.07421875,0.0
213.88671875,-36.62109375,-29.296875,-35.15625,-40.52734375,47.36328125,0.0
213.890625,-33.203125,-29.296875,-32.2265625,-37.109375,-0.48828125,0.0
213.89453125,-34.66796875,-29.78515625,-28.3203125,-37.59765625,-163.57421875,0.0
213.8984375,-40.52734375,-34.66796875,-29.296875,-43.9453125,-208.984375,0.0
213.90234375,-47.36328125,-46.875,-29.296875,-51.26953125,-96.6796875,0.0
213.90625,-35.64453125,-36.62109375,-31.73828125,-40.0390625,26.3671875,0.0
213.91015625,-20.99609375,-19.04296875,-27.83203125,-22.94921875,-32.2265625,0.0
213.9140625,-23.4375,-21.484375,-20.99609375,-22.4609375,-144.53125,0.0
213.91796875,-33.203125,-35.15625,-27.83203125,-30.2734375,-124.51171875,0.0
213.921875,-27.34375,-31.73828125,-29.296875,-27.34375,40.0390625,0.0
213.92578125,-14.6484375,-21.484375,-23.4375,-21.484375,121.58203125,0.0
213.9296875,-15.625,-23.92578125,-17.08984375,-18.5546875,46.875,0.0
213.93359375,-21.484375,-29.296875,-18.5546875,-20.99609375,-25.390625,0.0
213.9375,-25.87890625,-29.78515625,-25.87890625,-32.71484375,-124.0234375,0.0
213.94140625,-25.390625,-32.2265625,-28.3203125,-38.57421875,-155.2734375,0.0
213.9453125,-17.08984375,-29.296875,-16.11328125,-33.203125,-53.22265625,0.0
213.94921875,-15.13671875,-22.4609375,-14.16015625,-26.85546875,33.69140625,0.0
213.953125,-24.90234375,-21.97265625,-23.4375,-29.296875,-23.92578125,0.0
213.95703125,-34.66796875,-30.76171875,-26.85546875,-38.0859375,-160.15625,0.0
213.9609375,-33.69140625,-31.73828125,-23.92578125,-38.0859375,-143.06640625,0.0
213.96484375,-26.3671875,-26.3671875,-23.92578125,-31.25,-28.3203125,0.0
213.96875,-23.4375,-20.5078125,-21.484375,-23.4375,24.4140625,0.0
213.97265625,-33.203125,-24.90234375,-18.06640625,-24.90234375,-42.48046875,0.0
213.9765625,-46.875,-32.71484375,-24.90234375,-34.66796875,-101.5625,0.0
213.98046875,-46.38671875,-28.80859375,-27.34375,-38.57421875,-81.54296875,0.0
213.984375,-37.59765625,-24.4140625,-27.34375,-36.1328125,-10.7421875,0.0
213.98828125,-30.76171875,-20.01953125,-25.390625,-30.2734375,41.9921875,0.0
213.9921875,-33.69140625,-22.94921875,-12.6953125,-27.34375,-9.27734375,0.0
213.99609375,-41.9921875,-30.76171875,-16.11328125,-34.1796875,-88.37890625,0.0
214.0,-48.33984375,-36.62109375,-31.73828125,-44.921875,-41.9921875,0.0
214.00390625,-41.9921875,-33.69140625,-29.296875,-45.8984375,3.41796875,0.0
214.0078125,-27.83203125,-27.34375,-22.4609375,-37.109375,-22.94921875,0.0
214.01171875,-31.73828125,-26.85546875,-22.4609375,-29.296875,1.953125,0.0
214.015625,-44.921875,-30.76171875,-27.83203125,-35.15625,-12.20703125,0.0
214.01953125,-45.41015625,-33.69140625,-32.71484375,-41.9921875,-105.46875,0.0
214.0234375,-31.73828125,-30.2734375,-32.2265625,-45.8984375,-113.28125,0.0
214.02734375,-24.90234375,-26.85546875,-27.83203125,-44.43359375,-31.73828125,0.0
214.03125,-29.296875,-23.92578125,-25.87890625,-37.59765625,-35.15625,0.0
214.03515625,-43.9453125,-32.71484375,-33.69140625,-44.921875,-86.9140625,0.0
214.0390625,-48.828125,-41.015625,-38.0859375,-48.828125,-102.5390625,0.0
214.04296875,-34.66796875,-30.76171875,-32.2265625,-40.52734375,-24.90234375,0.0
214.046875,-24.4140625,-22.94921875,-26.3671875,-32.2265625,60.05859375,0.0
214.05078125,-32.71484375,-37.59765625,-25.390625,-39.55078125,-3.41796875,0.0
214.0546875,-38.0859375,-40.0390625,-29.78515625,-44.43359375,-87.890625,0.0
214.05859375,-30.2734375,-33.69140625,-33.69140625,-37.59765625,-121.58203125,0.0
214.0625,-16.11328125,-30.2734375,-30.2734375,-36.62109375,-81.54296875,0.0
214.06640625,-5.37109375,-25.390625,-30.76171875,-33.203125,-21.97265625,0.0
214.0703125,-11.71875,-24.90234375,-32.71484375,-27.34375,60.05859375,0.0
214.07421875,-15.13671875,-24.4140625,-30.2734375,-26.3671875,43.9453125,0.0
214.078125,-17.578125,-27.83203125,-27.83203125,-32.2265625,-60.546875,0.0
214.08203125,-13.671875,-31.73828125,-19.53125,-35.64453125,-33.69140625,0.0
214.0859375,-9.765625,-29.296875,-24.90234375,-25.87890625,18.5546875,0.0
214.08984375,-19.04296875,-29.296875,-30.76171875,-20.5078125,28.80859375,0.0
214.09375,-27.83203125,-28.80859375,-20.5078125,-17.08984375,-8.30078125,0.0
214.09765625,-29.78515625,-27.34375,-14.6484375,-19.04296875,-57.12890625,0.0
214.1015625,-34.66796875,-35.64453125,-30.76171875,-36.62109375,-14.16015625,0.0
214.10546875,-24.90234375,-27.83203125,-32.71484375,-30.76171875,49.8046875,0.0
214.109375,-21.484375,-24.90234375,-29.78515625,-21.484375,5.37109375,0.0
214.11328125,-32.71484375,-34.1796875,-34.66796875,-24.90234375,-49.31640625,0.0
214.1171875,-39.0625,-38.57421875,-40.0390625,-30.76171875,-103.02734375,0.0
214.12109375,-33.203125,-41.9921875,-40.52734375,-33.203125,-77.1484375,0.0
214.125,-18.06640625,-31.73828125,-30.76171875,-23.4375,-32.2265625,0.0
214.12890625,-17.578125,-22.94921875,-25.390625,-16.6015625,-43.9453125,0.0
214.1328125,-26.3671875,-24.90234375,-26.3671875,-20.01953125,-67.3828125,0.0
214.13671875,-35.64453125,-33.69140625,-28.80859375,-28.3203125,-127.44140625,0.0
214.140625,-32.2265625,-32.2265625,-19.53125,-28.80859375,-130.37109375,0.0
214.14453125,-22.4609375,-26.3671875,-23.92578125,-27.34375,-21.97265625,0.0
214.1484375,-19.04296875,-21.97265625,-30.2734375,-15.625,-19.04296875,0.0
214.15234375,-24.90234375,-25.390625,-27.83203125,-15.13671875,-49.31640625,0.0
214.15625,-44.43359375,-44.921875,-40.52734375,-36.1328125,-83.984375,0.0
214.16015625,-41.50390625,-44.43359375,-40.0390625,-34.1796875,-83.0078125,0.0
214.1640625,-23.92578125,-34.66796875,-30.2734375,-22.4609375,19.53125,0.0
214.16796875,-19.53125,-28.3203125,-24.90234375,-13.18359375,69.3359375,0.0
214.171875,-27.34375,-26.85546875,-22.94921875,-9.27734375,32.71484375,0.0
214.17578125,-36.1328125,-32.71484375,-23.92578125,-17.578125,-39.0625,0.0
214.1796875,-38.57421875,-33.69140625,-27.34375,-22.94921875,-77.63671875,0.0
214.18359375,-34.66796875,-37.109375,-27.34375,-18.06640625,-95.21484375,0.0
214.1875,-35.15625,-50.29296875,-28.3203125,-17.08984375,-35.15625,0.0
214.19140625,-33.203125,-41.50390625,-20.99609375,-14.16015625,31.25,0.0
214.1953125,-27.83203125,-31.25,-15.625,-10.25390625,-88.8671875,0.0
214.19921875,-31.25,-36.1328125,-21.97265625,-19.04296875,-167.96875,0.0
214.203125,-23.92578125,-31.73828125,-23.92578125,-19.53125,-164.0625,0.0
214.20703125,-16.6015625,-28.3203125,-22.4609375,-10.25390625,-92.7734375,0.0
214.2109375,-21.97265625,-26.85546875,-20.01953125,-6.8359375,42.96875,0.0
214.21484375,-32.2265625,-32.2265625,-24.4140625,-20.99609375,71.2890625,0.0
214.21875,-36.1328125,-41.015625,-33.203125,-36.62109375,-1.46484375,0.0
214.22265625,-30.76171875,-34.66796875,-35.64453125,-35.15625,-0.9765625,0.0
214.2265625,-22.94921875,-25.390625,-29.296875,-25.390625,78.125,0.0
214.23046875,-25.390625,-25.390625,-17.08984375,-20.01953125,46.38671875,0.0
214.234375,-39.0625,-35.15625,-21.97265625,-30.2734375,-61.5234375,0.0
214.23828125,-41.015625,-39.0625,-33.203125,-39.0625,-84.9609375,0.0
214.2421875,-27.83203125,-35.15625,-35.15625,-37.59765625,-26.85546875,0.0
214.24609375,-18.06640625,-29.78515625,-28.80859375,-32.2265625,0.9765625,0.0
214.25,-18.06640625,-27.34375,-24.4140625,-31.73828125,-10.25390625,0.0
214.25390625,-29.296875,-28.80859375,-30.2734375,-39.0625,-38.57421875,0.0
214.2578125,-42.48046875,-33.203125,-37.109375,-43.45703125,-58.59375,0.0
214.26171875,-36.62109375,-33.203125,-35.15625,-42.48046875,-42.48046875,0.0
214.265625,-26.85546875,-31.73828125,-29.296875,-36.62109375,24.90234375,0.0
214.26953125,-25.390625,-24.90234375,-23.92578125,-28.3203125,11.71875,0.0
214.2734375,-28.80859375,-24.90234375,-20.99609375,-27.83203125,-52.24609375,0.0
214.27734375,-46.38671875,-43.9453125,-18.5546875,-46.38671875,-149.90234375,0.0
214.28125,-46.38671875,-46.875,-20.01953125,-50.78125,-199.21875,0.0
214.28515625,-22.94921875,-26.3671875,-24.90234375,-28.3203125,-42.48046875,0.0
214.2890625,-13.671875,-16.11328125,-22.4609375,-15.13671875,-21.484375,0.0
214.29296875,-24.4140625,-20.01953125,-25.87890625,-24.4140625,-72.265625,0.0
214.296875,-30.76171875,-26.85546875,-34.1796875,-36.62109375,-105.46875,0.0
214.30078125,-24.4140625,-29.78515625,-33.203125,-37.59765625,-100.5859375,0.0
214.3046875,-12.6953125,-22.94921875,-24.4140625,-25.87890625,-3.90625,0.0
214.30859375,-10.7421875,-18.5546875,-20.5078125,-20.99609375,106.93359375,0.0
214.3125,-21.484375,-23.4375,-22.4609375,-20.99609375,88.8671875,0.0
214.31640625,-32.71484375,-34.1796875,-29.78515625,-29.296875,-62.5,0.0
214.3203125,-35.64453125,-40.0390625,-26.3671875,-37.109375,-146.97265625,0.0
214.32421875,-28.3203125,-36.62109375,-21.97265625,-28.80859375,-57.12890625,0.0
214.328125,-23.4375,-30.76171875,-29.78515625,-25.390625,69.3359375,0.0
214.33203125,-25.390625,-32.71484375,-28.3203125,-21.97265625,39.55078125,0.0
214.3359375,-34.1796875,-39.55078125,-30.2734375,-28.80859375,-75.68359375,0.0
214.33984375,-35.64453125,-41.50390625,-33.69140625,-37.109375,-61.5234375,0.0
214.34375,-31.73828125,-42.48046875,-36.1328125,-33.203125,7.32421875,0.0
214.34765625,-23.92578125,-37.109375,-31.73828125,-27.34375,74.21875,0.0
214.3515625,-26.3671875,-36.1328125,-28.3203125,-25.390625,67.87109375,0.0
214.35546875,-42.96875,-49.31640625,-34.1796875,-34.1796875,-107.421875,0.0
214.359375,-47.36328125,-48.33984375,-36.1328125,-42.48046875,-107.91015625,0.0
214.36328125,-35.64453125,-30.76171875,-31.25,-36.62109375,12.6953125,0.0
214.3671875,-34.1796875,-34.1796875,-24.90234375,-33.69140625,34.1796875,0.0
214.37109375,-42.96875,-40.52734375,-24.90234375,-32.71484375,39.0625,0.0
214.375,-49.8046875,-43.45703125,-37.59765625,-41.015625,-45.41015625,0.0
214.37890625,-50.29296875,-44.921875,-42.96875,-50.29296875,-90.33203125,0.0
214.3828125,-38.0859375,-41.015625,-38.0859375,-47.36328125,-27.34375,0.0
214.38671875,-27.83203125,-35.15625,-33.203125,-39.55078125,11.71875,0.0
214.390625,-30.76171875,-31.25,-35.15625,-34.66796875,66.40625,0.0
214.39453125,-41.50390625,-39.0625,-39.0625,-39.55078125,14.16015625,0.0
214.3984375,-39.0625,-41.9921875,-36.62109375,-41.015625,-119.140625,0.0
214.40234375,-30.76171875,-39.55078125,-37.109375,-39.55078125,-108.3984375,0.0
214.40625,-23.4375,-37.109375,-31.25,-33.203125,-29.296875,0.0
214.41015625,-19.53125,-29.296875,-23.92578125,-26.3671875,-22.94921875,0.0
214.4140625,-33.203125,-35.15625,-29.78515625,-35.15625,-105.46875,0.0
214.41796875,-44.43359375,-44.921875,-33.203125,-44.43359375,-216.796875,0.0
214.421875,-44.43359375,-44.43359375,-29.78515625,-41.50390625,-153.80859375,0.0
214.42578125,-37.109375,-43.9453125,-27.83203125,-38.0859375,-17.578125,0.0
214.4296875,-29.78515625,-39.0625,-25.390625,-29.296875,4.8828125,0.0
214.43359375,-41.015625,-38.0859375,-23.92578125,-30.76171875,-10.25390625,0.0
214.4375,-54.6875,-51.26953125,-30.2734375,-45.41015625,9.765625,0.0
214.44140625,-43.45703125,-50.29296875,-31.73828125,-45.41015625,-22.4609375,0.0
214.4453125,-27.34375,-39.0625,-23.92578125,-32.71484375,-56.640625,0.0
214.44921875,-27.34375,-32.71484375,-22.4609375,-25.87890625,7.8125,0.0
214.453125,-35.64453125,-35.64453125,-23.4375,-26.85546875,56.15234375,0.0
214.45703125,-45.8984375,-49.8046875,-22.94921875,-39.55078125,50.29296875,0.0
214.4609375,-43.45703125,-49.31640625,-25.87890625,-38.57421875,79.58984375,0.0
214.46484375,-27.83203125,-35.64453125,-24.4140625,-25.390625,82.51953125,0.0
214.46875,-24.90234375,-34.1796875,-23.4375,-25.87890625,47.36328125,0.0
214.47265625,-33.203125,-42.48046875,-24.4140625,-29.296875,12.6953125,0.0
214.4765625,-37.109375,-40.52734375,-27.34375,-29.78515625,-83.984375,0.0
214.48046875,-35.64453125,-40.0390625,-31.73828125,-35.15625,-133.7890625,0.0
214.484375,-25.87890625,-33.69140625,-26.85546875,-30.76171875,-40.52734375,0.0
214.48828125,-21.97265625,-29.296875,-21.97265625,-21.484375,-2.9296875,0.0
214.4921875,-29.78515625,-33.203125,-21.484375,-22.4609375,23.4375,0.0
214.49609375,-38.57421875,-38.57421875,-23.4375,-24.4140625,-32.71484375,0.0
214.5,-39.55078125,-43.45703125,-26.85546875,-30.2734375,-96.6796875,0.0
214.50390625,-30.76171875,-40.0390625,-29.296875,-26.85546875,-62.98828125,0.0
214.5078125,-20.01953125,-31.25,-23.4375,-14.6484375,-96.6796875,0.0
214.51171875,-26.3671875,-33.69140625,-22.4609375,-13.18359375,-76.171875,0.0
214.515625,-44.921875,-46.875,-20.99609375,-30.76171875,-109.86328125,0.0
214.51953125,-46.875,-48.33984375,-26.3671875,-42.48046875,-82.51953125,0.0
214.5234375,-30.76171875,-36.1328125,-34.1796875,-40.0390625,11.71875,0.0
214.52734375,-21.97265625,-28.3203125,-26.85546875,-25.87890625,30.76171875,0.0
214.53125,-26.3671875,-28.3203125,-20.5078125,-17.08984375,36.1328125,0.0
214.53515625,-39.0625,-37.109375,-24.90234375,-28.80859375,-23.4375,0.0
214.5390625,-47.8515625,-43.45703125,-28.80859375,-36.1328125,-74.70703125,0.0
214.54296875,-39.55078125,-40.52734375,-25.87890625,-33.203125,-51.26953125,0.0
214.546875,-34.1796875,-41.50390625,-21.97265625,-37.109375,0.48828125,0.0
214.55078125,-36.62109375,-37.109375,-25.87890625,-32.71484375,27.34375,0.0
214.5546875,-41.50390625,-34.1796875,-22.94921875,-28.80859375,-24.4140625,0.0
214.55859375,-45.8984375,-47.8515625,-27.83203125,-40.0390625,-90.33203125,0.0
214.5625,-38.57421875,-50.78125,-27.83203125,-49.8046875,-47.8515625,0.0
214.56640625,-26.3671875,-32.71484375,-25.87890625,-37.59765625,102.5390625,0.0
214.5703125,-28.80859375,-31.73828125,-26.85546875,-27.83203125,62.98828125,0.0
214.57421875,-41.50390625,-40.52734375,-25.87890625,-37.59765625,-99.12109375,0.0
214.578125,-43.45703125,-44.921875,-26.3671875,-48.828125,-142.08984375,0.0
214.58203125,-31.25,-41.50390625,-25.87890625,-42.48046875,-142.578125,0.0
214.5859375,-26.3671875,-39.55078125,-22.94921875,-30.76171875,-23.4375,0.0
214.58984375,-32.2265625,-38.0859375,-18.06640625,-21.484375,38.0859375,0.0
214.59375,-41.015625,-38.0859375,-20.01953125,-25.87890625,-15.625,0.0
214.59765625,-45.41015625,-41.9921875,-20.99609375,-38.0859375,-15.625,0.0
214.6015625,-32.71484375,-43.45703125,-21.484375,-34.66796875,-83.49609375,0.0
214.60546875,-26.3671875,-38.57421875,-12.6953125,-29.296875,-84.9609375,0.0
214.609375,-27.34375,-34.66796875,-7.32421875,-28.3203125,7.32421875,0.0
214.61328125,-31.73828125,-35.64453125,-21.97265625,-30.2734375,-49.31640625,0.0
214.6171875,-39.55078125,-41.015625,-31.73828125,-37.109375,-149.90234375,0.0
214.62109375,-32.2265625,-42.48046875,-36.1328125,-39.55078125,-176.7578125,0.0
214.625,-23.92578125,-37.109375,-30.2734375,-29.296875,-104.4921875,0.0
214.62890625,-19.53125,-30.2734375,-21.484375,-19.53125,55.17578125,0.0
214.6328125,-25.87890625,-35.15625,-24.90234375,-24.90234375,51.26953125,0.0
214.63671875,-39.55078125,-42.96875,-30.2734375,-39.55078125,-95.703125,0.0
214.640625,-31.25,-40.0390625,-21.484375,-38.0859375,-117.1875,0.0
214.64453125,-17.08984375,-37.59765625,-20.5078125,-26.3671875,-34.1796875,0.0
214.6484375,-12.20703125,-31.25,-20.01953125,-22.4609375,47.36328125,0.0
214.65234375,-25.87890625,-40.52734375,-6.8359375,-30.2734375,15.625,0.0
214.65625,-41.015625,-50.78125,-16.11328125,-38.0859375,-35.15625,0.0
214.66015625,-36.1328125,-45.41015625,-32.71484375,-32.2265625,-46.875,0.0
214.6640625,-26.3671875,-47.36328125,-29.78515625,-27.83203125,-26.3671875,0.0
214.66796875,-23.92578125,-43.9453125,-24.4140625,-19.04296875,-12.20703125,0.0
214.671875,-22.94921875,-37.59765625,-20.01953125,-11.71875,27.34375,0.0
214.67578125,-32.2265625,-40.0390625,-24.4140625,-19.53125,-16.11328125,0.0
214.6796875,-33.69140625,-43.9453125,-25.390625,-23.4375,-132.32421875,0.0
214.68359375,-23.4375,-43.45703125,-17.578125,-24.4140625,-32.2265625,0.0
214.6875,-22.94921875,-38.57421875,-16.11328125,-19.53125,57.12890625,0.0
214.69140625,-29.78515625,-35.64453125,-18.06640625,-13.671875,-35.64453125,0.0
214.6953125,-42.48046875,-47.36328125,-12.6953125,-23.4375,-118.65234375,0.0
214.69921875,-46.875,-54.19921875,-21.484375,-32.2265625,-136.71875,0.0
214.703125,-35.15625,-46.875,-31.25,-25.87890625,-100.09765625,0.0
214.70703125,-26.3671875,-42.48046875,-24.90234375,-18.5546875,-58.59375,0.0
214.7109375,-28.80859375,-41.9921875,-18.06640625,-14.6484375,-62.98828125,0.0
214.71484375,-33.203125,-46.875,-24.90234375,-12.6953125,-47.36328125,0.0
214.71875,-36.62109375,-54.6875,-33.69140625,-26.3671875,-8.7890625,0.0
214.72265625,-30.2734375,-48.828125,-27.34375,-27.34375,-37.59765625,0.0
214.7265625,-23.4375,-46.875,-25.87890625,-22.94921875,-50.78125,0.0
214.73046875,-27.83203125,-47.36328125,-29.78515625,-25.87890625,-25.87890625,0.0
214.734375,-41.015625,-46.875,-33.69140625,-23.92578125,-72.75390625,0.0
214.73828125,-42.48046875,-45.8984375,-27.34375,-22.94921875,-140.13671875,0.0
214.7421875,-22.94921875,-38.0859375,-5.37109375,-16.11328125,-130.37109375,0.0
214.74609375,-18.5546875,-39.0625,-8.7890625,-15.13671875,-2.9296875,0.0
214.75,-23.92578125,-39.0625,-19.53125,-17.578125,15.13671875,0.0
214.75390625,-38.0859375,-44.43359375,-24.4140625,-25.390625,-103.515625,0.0
214.7578125,-49.8046875,-51.7578125,-32.2265625,-35.64453125,-164.55078125,0.0
214.76171875,-35.64453125,-41.9921875,-27.34375,-32.71484375,-98.6328125,0.0
214.765625,-25.390625,-34.66796875,-24.4140625,-22.94921875,7.8125,0.0
214.76953125,-21.97265625,-30.76171875,-18.06640625,-9.765625,-19.53125,0.0
214.7734375,-33.203125,-39.0625,-19.04296875,-14.16015625,-93.75,0.0
214.77734375,-45.41015625,-46.875,-32.71484375,-27.83203125,-6.34765625,0.0
214.78125,-34.66796875,-39.55078125,-29.78515625,-27.34375,-24.90234375,0.0
214.78515625,-21.484375,-29.78515625,-16.11328125,-18.5546875,-77.63671875,0.0
214.7890625,-25.87890625,-31.25,-20.99609375,-20.99609375,-6.8359375,0.0
214.79296875,-34.66796875,-38.0859375,-27.83203125,-28.3203125,-60.05859375,0.0
214.796875,-37.59765625,-43.9453125,-29.78515625,-33.69140625,-240.72265625,0.0
214.80078125,-29.296875,-42.48046875,-22.94921875,-30.2734375,-272.4609375,0.0
214.8046875,-21.97265625,-36.1328125,-23.4375,-25.87890625,-62.01171875,0.0
214.80859375,-21.97265625,-33.69140625,-28.80859375,-21.97265625,102.5390625,0.0
214.8125,-25.87890625,-38.0859375,-29.296875,-21.97265625,0.48828125,0.0
214.81640625,-36.62109375,-40.52734375,-31.25,-30.2734375,-86.9140625,0.0
214.8203125,-35.64453125,-40.52734375,-31.25,-31.25,-10.25390625,0.0
214.82421875,-23.92578125,-39.0625,-28.80859375,-25.390625,-9.27734375,0.0
214.828125,-19.04296875,-29.78515625,-23.4375,-20.5078125,60.546875,0.0
214.83203125,-25.390625,-30.76171875,-3.41796875,-17.578125,106.4453125,0.0
214.8359375,-38.57421875,-40.0390625,-5.37109375,-20.99609375,8.30078125,0.0
214.83984375,-39.55078125,-41.9921875,-23.4375,-25.390625,13.671875,0.0
214.84375,-29.78515625,-37.109375,-17.578125,-20.01953125,75.68359375,0.0
214.84765625,-24.4140625,-31.73828125,-12.6953125,-11.23046875,87.40234375,0.0
214.8515625,-32.2265625,-31.73828125,-21.484375,-15.625,77.1484375,0.0
214.85546875,-43.45703125,-35.64453125,-24.4140625,-26.85546875,21.484375,0.0
214.859375,-49.31640625,-41.9921875,-28.80859375,-34.66796875,-118.1640625,0.0
214.86328125,-34.66796875,-35.15625,-25.390625,-27.83203125,-153.3203125,0.0
214.8671875,-25.390625,-31.73828125,-24.90234375,-20.5078125,19.53125,0.0
214.87109375,-36.1328125,-38.0859375,-25.390625,-25.87890625,36.62109375,0.0
214.875,-38.0859375,-35.15625,-12.6953125,-29.78515625,-98.14453125,0.0
214.87890625,-39.55078125,-37.109375,-21.484375,-41.50390625,-108.3984375,0.0
214.8828125,-37.59765625,-40.52734375,-35.15625,-49.8046875,-15.13671875,0.0
214.88671875,-23.92578125,-35.64453125,-25.87890625,-43.9453125,48.33984375,0.0
214.890625,-22.4609375,-30.76171875,-6.34765625,-33.203125,-29.78515625,0.0
214.89453125,-36.1328125,-37.109375,-14.6484375,-35.15625,-74.21875,0.0
214.8984375,-45.41015625,-42.96875,-32.71484375,-44.43359375,-78.61328125,0.0
214.90234375,-32.2265625,-39.0625,-29.296875,-44.921875,-39.0625,0.0
214.90625,-19.04296875,-30.2734375,-25.390625,-36.1328125,59.08203125,0.0
214.91015625,-17.578125,-27.83203125,-23.4375,-24.90234375,59.5703125,0.0
214.9140625,-25.87890625,-33.69140625,-23.92578125,-24.90234375,35.64453125,0.0
214.91796875,-36.1328125,-38.0859375,-29.296875,-32.71484375,-66.89453125,0.0
214.921875,-29.296875,-34.1796875,-31.73828125,-31.73828125,-35.64453125,0.0
214.92578125,-15.625,-26.85546875,-24.90234375,-22.4609375,77.1484375,0.0
214.9296875,-22.94921875,-27.34375,-27.83203125,-22.4609375,38.57421875,0.0
214.93359375,-34.1796875,-32.2265625,-29.296875,-31.25,-56.15234375,0.0
214.9375,-9.27734375,-11.23046875,5.859375,-12.20703125,-82.03125,0.0
214.94140625,-11.71875,-19.53125,-5.859375,-22.4609375,29.78515625,0.0
214.9453125,-34.66796875,-42.48046875,-42.96875,-44.921875,188.96484375,0.0
214.94921875,-36.1328125,-38.57421875,-41.015625,-41.015625,193.84765625,0.0
214.953125,-41.015625,-36.1328125,-38.57421875,-43.45703125,29.296875,0.0
214.95703125,-43.45703125,-38.57421875,-40.0390625,-47.36328125,-27.83203125,0.0
214.9609375,-36.62109375,-37.59765625,-40.0390625,-47.8515625,-52.24609375,0.0
214.96484375,-23.4375,-29.78515625,-33.69140625,-38.57421875,-12.20703125,0.0
214.96875,-15.13671875,-22.4609375,-25.390625,-25.390625,52.24609375,0.0
214.97265625,-27.83203125,-24.4140625,-28.80859375,-30.2734375,-52.24609375,0.0
214.9765625,-39.0625,-29.296875,-30.76171875,-36.1328125,-83.984375,0.0
214.98046875,-11.23046875,-13.18359375,-1.46484375,-15.13671875,-66.89453125,0.0
214.984375,-5.37109375,-10.7421875,-3.90625,-13.18359375,-35.64453125,0.0
214.98828125,-33.203125,-31.73828125,-32.71484375,-30.2734375,70.80078125,0.0
214.9921875,-39.55078125,-32.71484375,-28.80859375,-28.3203125,43.45703125,0.0
214.99609375,-27.34375,-20.01953125,-11.71875,-19.04296875,-68.359375,0.0
215.0,-37.109375,-37.59765625,-25.87890625,-38.57421875,-116.69921875,0.0
215.00390625,-38.0859375,-47.8515625,-32.71484375,-42.96875,-71.77734375,0.0
215.0078125,-29.78515625,-39.0625,-26.85546875,-27.83203125,12.6953125,0.0
215.01171875,-39.0625,-40.52734375,-33.203125,-26.85546875,-11.71875,0.0
215.015625,-46.38671875,-44.921875,-33.203125,-30.76171875,-80.078125,0.0
215.01953125,-41.9921875,-43.9453125,-32.2265625,-37.109375,-61.03515625,0.0
215.0234375,-22.4609375,-31.73828125,-23.4375,-28.80859375,-45.8984375,0.0
215.02734375,14.6484375,-5.37109375,12.6953125,8.7890625,-3.90625,0.0
215.03125,-2.44140625,-20.5078125,-1.46484375,-6.34765625,10.25390625,0.0
215.03515625,-39.0625,-51.26953125,-34.1796875,-41.50390625,-69.3359375,0.0
215.0390625,-38.0859375,-51.26953125,-30.2734375,-42.96875,-131.8359375,0.0
215.04296875,-29.296875,-48.828125,-29.296875,-41.9921875,-79.1015625,0.0
215.046875,-27.83203125,-46.875,-34.1796875,-40.0390625,-30.76171875,0.0
215.05078125,-33.203125,-45.41015625,-31.73828125,-37.59765625,-39.55078125,0.0
215.0546875,-38.0859375,-42.96875,-20.5078125,-32.2265625,-118.65234375,0.0
215.05859375,-48.33984375,-52.24609375,-27.83203125,-39.0625,-106.93359375,0.0
215.0625,-48.828125,-52.734375,-33.203125,-44.921875,0.48828125,0.0
215.06640625,-36.62109375,-41.9921875,-28.3203125,-34.1796875,-12.20703125,0.0
215.0703125,-43.9453125,-47.36328125,-27.83203125,-35.15625,-116.2109375,0.0
215.07421875,-54.19921875,-51.7578125,-30.2734375,-42.48046875,-77.63671875,0.0
215.078125,-54.19921875,-50.78125,-40.52734375,-45.41015625,-81.0546875,0.0
215.08203125,-44.43359375,-46.38671875,-37.59765625,-46.38671875,-128.41796875,0.0
215.0859375,-31.73828125,-37.109375,-30.76171875,-38.0859375,-83.49609375,0.0
215.08984375,-35.15625,-34.1796875,-32.71484375,-26.85546875,-66.40625,0.0
215.09375,-48.828125,-37.109375,-35.64453125,-29.296875,-150.87890625,0.0
215.09765625,-55.17578125,-40.52734375,-37.59765625,-38.0859375,-274.90234375,0.0
215.1015625,-42.48046875,-39.0625,-29.296875,-34.66796875,-184.08203125,0.0
215.10546875,-31.73828125,-36.1328125,-27.83203125,-28.80859375,-52.734375,0.0
215.109375,-31.25,-35.15625,-30.76171875,-26.85546875,38.0859375,0.0
215.11328125,-27.83203125,-30.2734375,-21.97265625,-23.4375,10.7421875,0.0
215.1171875,-9.765625,-8.7890625,8.7890625,-5.859375,-120.1171875,0.0
215.12109375,-17.578125,-18.06640625,-6.34765625,-20.01953125,-41.50390625,0.0
215.125,-27.34375,-30.76171875,-33.203125,-35.64453125,46.875,0.0
215.12890625,-21.484375,-25.390625,-28.80859375,-30.2734375,-24.4140625,0.0
215.1328125,-38.0859375,-34.1796875,-35.15625,-32.2265625,-56.640625,0.0
215.13671875,-46.875,-36.1328125,-37.59765625,-34.66796875,-59.08203125,0.0
215.140625,-36.62109375,-34.1796875,-32.2265625,-34.1796875,-28.80859375,0.0
215.14453125,-22.4609375,-31.25,-26.3671875,-25.390625,-41.015625,0.0
215.1484375,-19.53125,-28.80859375,-24.90234375,-18.5546875,-20.99609375,0.0
215.15234375,-29.78515625,-35.15625,-27.34375,-21.97265625,-10.7421875,0.0
215.15625,-40.52734375,-41.9921875,-35.64453125,-30.76171875,-88.8671875,0.0
215.16015625,-24.4140625,-28.80859375,-20.99609375,-20.5078125,-173.33984375,0.0
215.1640625,-10.25390625,-20.5078125,-13.18359375,-12.20703125,-74.21875,0.0
215.16796875,-20.99609375,-27.34375,-24.90234375,-18.5546875,14.6484375,0.0
215.171875,-36.62109375,-32.2265625,-28.3203125,-26.85546875,-44.43359375,0.0
215.17578125,-51.7578125,-49.8046875,-44.921875,-45.8984375,-65.91796875,0.0
215.1796875,-43.45703125,-48.828125,-43.45703125,-41.9921875,2.44140625,0.0
215.18359375,-33.203125,-37.59765625,-36.1328125,-38.57421875,19.53125,0.0
215.1875,-25.390625,-30.76171875,-29.78515625,-38.57421875,-58.10546875,0.0
215.19140625,-31.73828125,-34.66796875,-26.85546875,-37.59765625,-27.34375,0.0
215.1953125,-47.8515625,-47.8515625,-34.1796875,-45.8984375,67.3828125,0.0
215.19921875,-41.50390625,-40.52734375,-31.73828125,-44.921875,37.109375,0.0
215.203125,-39.55078125,-40.52734375,-36.1328125,-43.9453125,79.58984375,0.0
215.20703125,-54.6875,-59.5703125,-49.31640625,-52.734375,123.046875,0.0
215.2109375,-40.0390625,-40.0390625,-33.69140625,-34.66796875,15.13671875,0.0
215.21484375,-34.1796875,-30.2734375,-25.87890625,-27.83203125,-27.83203125,0.0
215.21875,-41.9921875,-42.48046875,-28.80859375,-38.57421875,-24.90234375,0.0
215.22265625,-44.921875,-48.828125,-25.390625,-47.36328125,-20.01953125,0.0
215.2265625,-24.90234375,-29.78515625,-21.484375,-31.73828125,87.890625,0.0
215.23046875,-22.4609375,-21.97265625,-21.97265625,-23.92578125,77.63671875,0.0
215.234375,-39.55078125,-32.2265625,-31.73828125,-35.15625,-35.64453125,0.0
215.23828125,-44.43359375,-36.62109375,-38.57421875,-42.48046875,-128.90625,0.0
215.2421875,-30.2734375,-33.69140625,-34.1796875,-37.59765625,-61.03515625,0.0
215.24609375,-20.5078125,-25.390625,-30.76171875,-28.3203125,-44.43359375,0.0
215.25,-22.94921875,-24.4140625,-31.25,-22.4609375,-87.890625,0.0
215.25390625,-30.2734375,-31.73828125,-30.2734375,-24.90234375,-109.375,0.0
215.2578125,-39.55078125,-36.62109375,-34.1796875,-36.1328125,-151.85546875,0.0
215.26171875,-32.2265625,-33.69140625,-32.2265625,-35.15625,-62.01171875,0.0
215.265625,-45.41015625,-53.22265625,-36.1328125,-49.8046875,1.46484375,0.0
215.26953125,-54.6875,-58.10546875,-41.50390625,-51.7578125,-41.9921875,0.0
215.2734375,-41.9921875,-35.64453125,-36.1328125,-32.71484375,-79.1015625,0.0
215.27734375,-41.50390625,-38.0859375,-36.62109375,-36.1328125,-68.84765625,0.0
215.28125,-37.59765625,-36.1328125,-35.64453125,-39.55078125,22.4609375,0.0
215.28515625,-25.87890625,-26.85546875,-32.71484375,-37.109375,74.21875,0.0
215.2890625,-19.53125,-26.3671875,-33.69140625,-31.25,73.2421875,0.0
215.29296875,-24.90234375,-27.83203125,-33.203125,-30.76171875,28.3203125,0.0
215.296875,-32.2265625,-30.2734375,-34.1796875,-39.55078125,-57.12890625,0.0
215.30078125,-20.5078125,-28.80859375,-31.25,-38.0859375,-49.8046875,0.0
215.3046875,-15.625,-26.3671875,-35.15625,-38.0859375,49.8046875,0.0
215.30859375,-10.7421875,-13.671875,-20.01953125,-24.90234375,63.4765625,0.0
215.3125,19.04296875,21.97265625,30.2734375,18.06640625,-58.10546875,0.0
215.31640625,-12.20703125,-9.27734375,1.46484375,-6.8359375,-92.28515625,0.0
215.3203125,-41.015625,-40.0390625,-32.71484375,-40.0390625,-94.7265625,0.0
215.32421875,-20.99609375,-22.4609375,-16.11328125,-21.97265625,-83.0078125,0.0
215.328125,-19.53125,-22.94921875,-23.4375,-18.06640625,58.10546875,0.0
215.33203125,-34.1796875,-29.78515625,-35.15625,-27.34375,65.91796875,0.0
215.3359375,-38.0859375,-22.94921875,-32.2265625,-28.3203125,-4.8828125,0.0
215.33984375,-29.296875,-17.08984375,-23.4375,-30.2734375,-13.18359375,0.0
215.34375,-28.80859375,-20.01953125,-24.4140625,-29.296875,24.90234375,0.0
215.34765625,-32.2265625,-24.4140625,-32.2265625,-26.3671875,15.625,0.0
215.3515625,-36.1328125,-28.3203125,-36.62109375,-29.296875,-68.359375,0.0
215.35546875,-41.50390625,-30.76171875,-22.4609375,-35.64453125,-154.78515625,0.0
215.359375,-41.50390625,-34.1796875,-24.4140625,-41.50390625,-133.30078125,0.0
215.36328125,-31.73828125,-30.76171875,-33.69140625,-41.015625,-104.98046875,0.0
215.3671875,-22.94921875,-24.90234375,-31.73828125,-37.59765625,-71.77734375,0.0
215.37109375,-30.76171875,-28.3203125,-33.203125,-39.0625,-38.57421875,0.0
215.375,-42.96875,-32.2265625,-33.203125,-39.0625,-64.453125,0.0
215.37890625,-40.52734375,-34.1796875,-34.1796875,-37.59765625,-137.20703125,0.0
215.3828125,-35.64453125,-34.1796875,-33.203125,-41.50390625,-110.3515625,0.0
215.38671875,-32.71484375,-32.2265625,-30.76171875,-38.0859375,-44.921875,0.0
215.390625,-33.203125,-26.85546875,-28.3203125,-32.2265625,-36.62109375,0.0
215.39453125,-46.875,-30.76171875,-36.1328125,-41.9921875,-84.9609375,0.0
215.3984375,-51.26953125,-36.1328125,-41.50390625,-54.19921875,-165.52734375,0.0
215.40234375,-35.64453125,-33.69140625,-21.484375,-41.9921875,-162.59765625,0.0
215.40625,-27.34375,-27.83203125,-19.53125,-28.80859375,-80.078125,0.0
215.41015625,-34.66796875,-23.92578125,-31.73828125,-32.2265625,35.64453125,0.0
215.4140625,-42.48046875,-27.34375,-33.69140625,-34.66796875,43.45703125,0.0
215.41796875,-46.875,-31.25,-34.66796875,-38.57421875,-48.828125,0.0
215.421875,-43.9453125,-31.73828125,-35.15625,-39.55078125,38.57421875,0.0
215.42578125,-33.69140625,-22.94921875,-36.1328125,-31.73828125,61.03515625,0.0
215.4296875,-29.296875,-16.6015625,-27.34375,-25.390625,-44.921875,0.0
215.43359375,-42.48046875,-26.3671875,-33.69140625,-30.2734375,-16.6015625,0.0
215.4375,-50.78125,-30.76171875,-46.38671875,-42.48046875,20.5078125,0.0
215.44140625,-41.50390625,-27.34375,-43.9453125,-48.828125,48.828125,0.0
215.4453125,-24.4140625,-21.484375,-26.3671875,-34.1796875,56.15234375,0.0
215.44921875,-28.80859375,-21.97265625,-26.3671875,-24.4140625,11.23046875,0.0
215.453125,-41.9921875,-28.80859375,-37.109375,-29.78515625,-51.26953125,0.0
215.45703125,-48.33984375,-37.59765625,-37.109375,-32.71484375,-80.56640625,0.0
215.4609375,-48.33984375,-40.52734375,-40.52734375,-35.15625,-44.921875,0.0
215.46484375,-36.62109375,-26.3671875,-34.1796875,-31.73828125,29.296875,0.0
215.46875,-34.1796875,-25.87890625,-31.73828125,-30.76171875,-4.8828125,0.0
215.47265625,-41.9921875,-31.25,-34.1796875,-35.64453125,-31.73828125,0.0
215.4765625,-45.8984375,-33.69140625,-33.69140625,-43.9453125,-86.9140625,0.0
215.48046875,-42.96875,-35.15625,-35.64453125,-48.33984375,-114.2578125,0.0
215.484375,-33.203125,-29.296875,-36.62109375,-42.48046875,-82.51953125,0.0
215.48828125,-27.34375,-23.92578125,-33.203125,-35.15625,-23.92578125,0.0
215.4921875,-30.76171875,-25.390625,-16.6015625,-29.296875,-35.64453125,0.0
215.49609375,-35.64453125,-33.69140625,-17.578125,-27.83203125,-104.4921875,0.0
215.5,-32.2265625,-33.69140625,-37.59765625,-29.78515625,-162.109375,0.0
215.50390625,-14.16015625,-20.01953125,-32.2265625,-22.94921875,-172.36328125,0.0
215.5078125,-0.9765625,-8.7890625,-23.92578125,-11.71875,-68.359375,0.0
215.51171875,-11.23046875,-12.6953125,-26.3671875,-16.6015625,-0.48828125,0.0
215.515625,-29.296875,-23.92578125,-32.71484375,-37.109375,-12.6953125,0.0
215.51953125,-33.203125,-29.78515625,-35.15625,-43.45703125,-8.7890625,0.0
215.5234375,-23.92578125,-24.4140625,-31.73828125,-35.15625,34.1796875,0.0
215.52734375,-21.484375,-14.16015625,-35.15625,-30.2734375,130.37109375,0.0
215.53125,-23.92578125,-12.6953125,-33.203125,-26.3671875,81.0546875,0.0
215.53515625,-30.2734375,-18.06640625,-26.3671875,-30.76171875,-81.54296875,0.0
215.5390625,-33.69140625,-22.94921875,-33.69140625,-37.109375,-128.41796875,0.0
215.54296875,-23.4375,-19.53125,-33.69140625,-34.1796875,-90.33203125,0.0
215.546875,-18.06640625,-14.16015625,-23.92578125,-29.78515625,-24.4140625,0.0
215.55078125,-17.578125,-6.8359375,2.9296875,-19.53125,-51.26953125,0.0
215.5546875,-32.2265625,-19.53125,-8.30078125,-29.296875,-156.25,0.0
215.55859375,-44.921875,-32.71484375,-35.15625,-44.43359375,-118.65234375,0.0
215.5625,-35.15625,-27.83203125,-29.78515625,-36.1328125,-42.96875,0.0
215.56640625,-21.97265625,-20.99609375,-25.390625,-28.80859375,51.7578125,0.0
215.5703125,-24.90234375,-20.99609375,-26.85546875,-27.83203125,94.7265625,0.0
215.57421875,-35.15625,-27.34375,-34.66796875,-39.0625,-82.51953125,0.0
215.578125,-41.015625,-33.69140625,-37.109375,-50.78125,-230.95703125,0.0
215.58203125,-30.76171875,-30.76171875,-21.484375,-44.43359375,-200.68359375,0.0
215.5859375,-18.5546875,-27.34375,-25.87890625,-40.0390625,-89.84375,0.0
215.58984375,-19.04296875,-26.85546875,-35.15625,-29.78515625,-18.5546875,0.0
215.59375,-25.87890625,-26.3671875,-30.76171875,-28.80859375,-112.79296875,0.0
215.59765625,-34.1796875,-34.1796875,-27.34375,-39.55078125,-145.01953125,0.0
215.6015625,-31.73828125,-32.2265625,-39.55078125,-39.0625,-97.65625,0.0
215.60546875,-15.625,-14.16015625,-35.15625,-25.87890625,26.85546875,0.0
215.609375,-16.6015625,-16.11328125,-24.4140625,-22.94921875,66.40625,0.0
215.61328125,-35.15625,-26.85546875,-33.69140625,-35.64453125,-2.44140625,0.0
215.6171875,-44.43359375,-31.25,-40.0390625,-45.41015625,-44.921875,0.0
215.62109375,-37.109375,-32.2265625,-38.57421875,-46.38671875,-1.953125,0.0
215.625,-25.87890625,-24.4140625,-29.78515625,-35.64453125,178.22265625,0.0
215.62890625,-26.85546875,-26.3671875,-27.34375,-26.3671875,45.8984375,0.0
215.6328125,-37.109375,-34.66796875,-34.66796875,-27.83203125,-177.734375,0.0
215.63671875,-42.96875,-38.0859375,-35.64453125,-32.2265625,-187.01171875,0.0
215.640625,-47.8515625,-50.78125,-32.71484375,-45.41015625,-257.32421875,0.0
215.64453125,-34.66796875,-42.48046875,-25.87890625,-37.59765625,-231.4453125,0.0
215.6484375,-26.3671875,-25.390625,-27.83203125,-24.90234375,-209.47265625,0.0
215.65234375,-36.1328125,-24.90234375,-25.390625,-24.90234375,-179.6875,0.0
215.65625,-37.109375,-26.3671875,-16.6015625,-28.3203125,-187.98828125,0.0
215.66015625,-36.1328125,-24.4140625,-27.34375,-39.55078125,-74.70703125,0.0
215.6640625,-26.3671875,-22.94921875,-32.2265625,-40.0390625,76.171875,0.0
215.66796875,-13.18359375,-19.53125,-24.4140625,-24.90234375,89.84375,0.0
215.671875,-20.5078125,-23.4375,-28.3203125,-29.296875,124.0234375,0.0
215.67578125,-37.59765625,-34.1796875,-35.64453125,-40.52734375,66.40625,0.0
215.6796875,-42.48046875,-45.41015625,-41.9921875,-44.43359375,29.78515625,0.0
215.68359375,-29.78515625,-39.55078125,-37.59765625,-40.52734375,83.984375,0.0
215.6875,-33.203125,-38.57421875,-24.90234375,-41.9921875,51.26953125,0.0
215.69140625,-43.45703125,-37.59765625,-32.2265625,-44.921875,-18.06640625,0.0
215.6953125,-47.8515625,-36.62109375,-40.0390625,-45.41015625,-10.7421875,0.0
215.69921875,-52.734375,-41.9921875,-44.43359375,-52.24609375,5.37109375,0.0
215.703125,-40.52734375,-36.1328125,-43.45703125,-46.875,10.7421875,0.0
215.70703125,-21.97265625,-22.94921875,-34.66796875,-24.4140625,38.0859375,0.0
215.7109375,-21.97265625,-22.94921875,-35.64453125,-20.01953125,56.15234375,0.0
215.71484375,-37.59765625,-36.62109375,-38.57421875,-36.1328125,-29.78515625,0.0
215.71875,-41.015625,-37.109375,-37.59765625,-43.9453125,-75.68359375,0.0
215.72265625,-30.2734375,-30.76171875,-35.64453125,-39.55078125,-52.734375,0.0
215.7265625,-17.08984375,-20.5078125,-33.69140625,-28.3203125,27.83203125,0.0
215.73046875,-28.80859375,-27.34375,-34.66796875,-35.64453125,8.7890625,0.0
215.734375,-45.41015625,-34.66796875,-41.015625,-47.8515625,-68.84765625,0.0
215.73828125,-37.109375,-29.296875,-40.52734375,-40.52734375,-35.15625,0.0
215.7421875,-27.83203125,-25.87890625,-37.109375,-36.62109375,-11.71875,0.0
215.74609375,-17.08984375,-17.578125,-33.203125,-31.25,95.21484375,0.0
215.75,-16.11328125,-15.625,-27.83203125,-20.01953125,174.8046875,0.0
215.75390625,-27.34375,-18.5546875,-31.73828125,-25.87890625,39.55078125,0.0
215.7578125,-31.25,-19.04296875,-32.71484375,-32.71484375,-100.5859375,0.0
215.76171875,-23.92578125,-19.04296875,-30.2734375,-28.80859375,-73.2421875,0.0
215.765625,-16.6015625,-15.625,-30.2734375,-25.87890625,4.39453125,0.0
215.76953125,-16.6015625,-13.18359375,-28.3203125,-23.4375,-91.796875,0.0
215.7734375,-26.85546875,-19.53125,-27.83203125,-20.5078125,-163.57421875,0.0
215.77734375,-51.26953125,-44.43359375,-37.109375,-46.875,-202.63671875,0.0
215.78125,-52.734375,-53.7109375,-42.48046875,-62.98828125,-129.39453125,0.0
215.78515625,-25.87890625,-28.80859375,-35.64453125,-44.921875,-15.13671875,0.0
215.7890625,-17.578125,-14.16015625,-29.78515625,-29.296875,16.6015625,0.0
215.79296875,-28.80859375,-16.6015625,-29.296875,-27.34375,-32.2265625,0.0
215.796875,-39.55078125,-21.97265625,-36.62109375,-33.69140625,-77.1484375,0.0
215.80078125,-32.71484375,-19.53125,-38.57421875,-32.71484375,-16.11328125,0.0
215.8046875,-16.11328125,-11.71875,-35.15625,-29.296875,22.94921875,0.0
215.80859375,-11.23046875,-7.8125,-32.2265625,-28.3203125,65.4296875,0.0
215.8125,-19.04296875,-13.671875,-31.73828125,-33.203125,41.50390625,0.0
215.81640625,-27.83203125,-23.4375,-34.66796875,-38.57421875,-77.1484375,0.0
215.8203125,-46.875,-47.36328125,-48.33984375,-55.6640625,-91.30859375,0.0
215.82421875,-46.38671875,-52.24609375,-49.31640625,-58.59375,0.9765625,0.0
215.828125,-16.11328125,-19.53125,-25.390625,-24.4140625,20.99609375,0.0
215.83203125,-18.5546875,-15.13671875,-21.484375,-17.08984375,-55.6640625,0.0
215.8359375,-32.71484375,-27.83203125,-27.83203125,-31.73828125,-118.65234375,0.0
215.83984375,-26.85546875,-20.01953125,-25.87890625,-30.2734375,-89.84375,0.0
215.84375,-17.578125,-15.13671875,-27.83203125,-18.06640625,-31.73828125,0.0
215.84765625,-13.671875,-15.625,-24.90234375,-11.71875,50.78125,0.0
215.8515625,-18.5546875,-16.11328125,-21.97265625,-11.71875,61.03515625,0.0
215.85546875,-30.76171875,-17.578125,-23.4375,-21.97265625,11.23046875,0.0
215.859375,-34.66796875,-21.97265625,-29.78515625,-33.69140625,-29.296875,0.0
215.86328125,-28.3203125,-25.87890625,-31.25,-30.76171875,-89.35546875,0.0
215.8671875,-28.3203125,-32.2265625,-26.3671875,-30.2734375,-74.70703125,0.0
215.87109375,-31.25,-27.34375,-25.390625,-24.4140625,-59.5703125,0.0
215.875,-31.25,-18.5546875,-28.3203125,-20.01953125,-82.03125,0.0
215.87890625,-34.1796875,-23.4375,-31.73828125,-31.25,-56.15234375,0.0
215.8828125,-27.83203125,-23.92578125,-26.3671875,-29.296875,23.4375,0.0
215.88671875,-19.04296875,-20.01953125,-22.94921875,-21.484375,92.28515625,0.0
215.890625,-22.94921875,-21.97265625,-25.390625,-21.484375,66.89453125,0.0
215.89453125,-31.25,-28.80859375,-31.25,-27.34375,-30.2734375,0.0
215.8984375,-37.109375,-30.2734375,-36.1328125,-42.48046875,-97.65625,0.0
215.90234375,-27.83203125,-25.87890625,-34.66796875,-42.96875,-60.546875,0.0
215.90625,-15.13671875,-20.99609375,-31.73828125,-32.2265625,75.1953125,0.0
215.91015625,-21.97265625,-21.484375,-32.71484375,-33.203125,60.05859375,0.0
215.9140625,-34.1796875,-27.34375,-37.59765625,-34.1796875,-90.33203125,0.0
215.91796875,-33.203125,-29.78515625,-38.57421875,-33.203125,-108.88671875,0.0
215.921875,-19.53125,-27.34375,-33.69140625,-32.2265625,-36.62109375,0.0
215.92578125,-13.671875,-25.87890625,-27.34375,-26.3671875,-38.0859375,0.0
215.9296875,-13.671875,-17.08984375,-20.99609375,-16.6015625,-60.05859375,0.0
215.93359375,-29.296875,-18.5546875,-25.87890625,-19.53125,-87.40234375,0.0
215.9375,-38.0859375,-25.87890625,-28.80859375,-31.25,-121.58203125,0.0
215.94140625,-29.296875,-24.4140625,-25.390625,-32.71484375,-143.5546875,0.0
215.9453125,-20.01953125,-16.11328125,-30.76171875,-30.2734375,12.20703125,0.0
215.94921875,-23.92578125,-12.6953125,-32.71484375,-28.80859375,128.41796875,0.0
215.953125,-34.66796875,-20.99609375,-35.15625,-34.1796875,-5.859375,0.0
215.95703125,-39.0625,-31.73828125,-30.2734375,-41.50390625,-138.671875,0.0
215.9609375,-37.109375,-34.66796875,-36.62109375,-45.41015625,-110.83984375,0.0
215.96484375,-28.80859375,-28.80859375,-37.109375,-41.50390625,6.34765625,0.0
215.96875,-24.4140625,-21.484375,-29.296875,-33.69140625,44.43359375,0.0
215.97265625,-33.69140625,-22.94921875,-29.78515625,-34.1796875,-79.58984375,0.0
215.9765625,-41.9921875,-27.34375,-35.15625,-36.62109375,-74.21875,0.0
215.98046875,-33.203125,-26.85546875,-33.69140625,-37.59765625,39.0625,0.0
215.984375,-26.3671875,-25.390625,-31.25,-34.1796875,63.96484375,0.0
215.98828125,-22.4609375,-19.53125,-31.73828125,-23.92578125,39.55078125,0.0
215.9921875,-26.3671875,-22.94921875,-37.109375,-26.85546875,-35.15625,0.0
215.99609375,-27.83203125,-28.3203125,-42.96875,-36.62109375,-29.78515625,0.0
216.0,-18.5546875,-25.87890625,-34.66796875,-38.0859375,-68.359375,0.0
216.00390625,-5.859375,-21.97265625,-30.76171875,-32.2265625,-45.8984375,0.0
216.0078125,2.44140625,-15.13671875,-32.2265625,-22.94921875,44.921875,0.0
216.01171875,-9.27734375,-18.06640625,-33.203125,-28.3203125,22.94921875,0.0
216.015625,-11.71875,-22.94921875,-20.01953125,-29.296875,-91.796875,0.0
216.01953125,-6.8359375,-24.4140625,-20.5078125,-28.80859375,-117.1875,0.0
216.0234375,-8.7890625,-22.94921875,-36.62109375,-30.76171875,-33.69140625,0.0
216.02734375,-15.13671875,-20.99609375,-37.109375,-22.4609375,32.2265625,0.0
216.03125,-27.83203125,-24.4140625,-35.15625,-20.99609375,-14.16015625,0.0
216.03515625,-40.0390625,-31.73828125,-40.0390625,-30.2734375,-109.86328125,0.0
216.0390625,-47.8515625,-35.64453125,-47.36328125,-44.921875,-83.984375,0.0
216.04296875,-40.52734375,-28.3203125,-38.0859375,-43.45703125,34.1796875,0.0
216.046875,-21.97265625,-16.11328125,-12.6953125,-24.90234375,60.546875,0.0
216.05078125,-31.25,-25.390625,-22.4609375,-25.87890625,-19.53125,0.0
216.0546875,-48.828125,-37.109375,-41.50390625,-34.1796875,-102.5390625,0.0
216.05859375,-42.48046875,-33.203125,-32.71484375,-28.3203125,-144.04296875,0.0
216.0625,-24.90234375,-19.53125,-10.7421875,-11.71875,-107.91015625,0.0
216.06640625,-28.3203125,-17.578125,-21.97265625,-9.27734375,-11.23046875,0.0
216.0703125,-33.69140625,-20.01953125,-28.80859375,-13.18359375,35.64453125,0.0
216.07421875,-45.41015625,-29.78515625,-31.25,-30.76171875,-58.59375,0.0
216.078125,-50.78125,-35.64453125,-42.48046875,-54.19921875,-45.8984375,0.0
216.08203125,-40.0390625,-34.66796875,-45.8984375,-55.17578125,-20.99609375,0.0
216.0859375,-33.203125,-32.71484375,-35.64453125,-44.921875,-82.03125,0.0
216.08984375,-35.64453125,-27.34375,-29.78515625,-41.50390625,-3.90625,0.0
216.09375,-41.015625,-26.85546875,-28.80859375,-40.0390625,10.7421875,0.0
216.09765625,-45.41015625,-31.25,-27.34375,-41.015625,-89.84375,0.0
216.1015625,-36.62109375,-30.76171875,-28.80859375,-38.0859375,-46.875,0.0
216.10546875,-7.8125,-16.11328125,-6.34765625,-15.625,3.41796875,0.0
216.109375,-2.9296875,-9.765625,3.41796875,-5.37109375,29.78515625,0.0
216.11328125,-29.78515625,-28.3203125,-26.85546875,-23.4375,0.48828125,0.0
216.1171875,-42.96875,-41.015625,-35.15625,-39.0625,-119.140625,0.0
216.12109375,-41.50390625,-39.0625,-31.25,-45.41015625,-120.60546875,0.0
216.125,-35.15625,-28.80859375,-27.34375,-38.57421875,53.7109375,0.0
216.12890625,-32.71484375,-22.94921875,-26.3671875,-32.71484375,-73.2421875,0.0
216.1328125,-41.015625,-29.78515625,-30.76171875,-40.0390625,-175.29296875,0.0
216.13671875,-45.8984375,-34.1796875,-34.1796875,-43.9453125,-38.0859375,0.0
216.140625,-40.0390625,-34.1796875,-38.0859375,-40.0390625,-21.97265625,0.0
216.14453125,-25.390625,-29.78515625,-32.71484375,-31.25,-9.27734375,0.0
216.1484375,-15.13671875,-23.4375,-24.4140625,-20.99609375,12.6953125,0.0
216.15234375,-17.08984375,-25.390625,-19.53125,-18.06640625,-47.36328125,0.0
216.15625,-25.390625,-34.1796875,-28.80859375,-26.3671875,-124.0234375,0.0
216.16015625,-29.78515625,-39.0625,-39.55078125,-39.0625,-79.58984375,0.0
216.1640625,-22.4609375,-31.25,-32.71484375,-35.15625,25.390625,0.0
216.16796875,-10.25390625,-18.5546875,-18.06640625,-20.01953125,40.52734375,0.0
216.171875,-21.97265625,-22.94921875,-26.3671875,-24.4140625,-10.7421875,0.0
216.17578125,-37.59765625,-29.78515625,-33.69140625,-39.55078125,-46.875,0.0
216.1796875,-36.1328125,-27.34375,-30.2734375,-41.015625,-93.26171875,0.0
216.18359375,-22.4609375,-22.94921875,-32.2265625,-32.71484375,-55.17578125,0.0
216.1875,-13.18359375,-17.08984375,-32.71484375,-26.85546875,-21.97265625,0.0
216.19140625,-21.97265625,-20.5078125,-32.2265625,-27.83203125,-19.04296875,0.0
216.1953125,-30.2734375,-27.83203125,-22.4609375,-29.78515625,-76.66015625,0.0
216.19921875,-32.71484375,-36.62109375,-24.4140625,-35.64453125,-125.0,0.0
216.203125,-30.76171875,-38.57421875,-41.9921875,-38.0859375,-57.6171875,0.0
216.20703125,-21.484375,-24.4140625,-32.71484375,-28.80859375,-34.66796875,0.0
216.2109375,-27.34375,-23.4375,-21.97265625,-28.80859375,-90.8203125,0.0
216.21484375,-42.96875,-33.69140625,-38.0859375,-40.0390625,-96.6796875,0.0
216.21875,-44.921875,-37.59765625,-42.96875,-48.33984375,-104.00390625,0.0
216.22265625,-32.71484375,-33.203125,-38.0859375,-44.921875,-61.5234375,0.0
216.2265625,-20.5078125,-23.4375,-34.66796875,-30.76171875,24.90234375,0.0
216.23046875,-19.04296875,-22.4609375,-30.2734375,-23.4375,-56.15234375,0.0
216.234375,-34.66796875,-30.2734375,-33.69140625,-31.73828125,-101.5625,0.0
216.23828125,-37.59765625,-29.78515625,-36.1328125,-40.52734375,-71.77734375,0.0
216.2421875,-18.06640625,-20.01953125,-12.20703125,-24.90234375,-24.4140625,0.0
216.24609375,-16.11328125,-20.5078125,-14.6484375,-18.06640625,13.18359375,0.0
216.25,-30.76171875,-28.80859375,-32.2265625,-24.4140625,-18.06640625,0.0
216.25390625,-44.43359375,-38.57421875,-35.64453125,-30.2734375,-56.15234375,0.0
216.2578125,-51.7578125,-41.9921875,-41.9921875,-44.921875,-62.5,0.0
216.26171875,-48.33984375,-38.57421875,-43.45703125,-51.26953125,-25.390625,0.0
216.265625,-35.15625,-28.3203125,-37.59765625,-36.62109375,12.20703125,0.0
216.26953125,-27.34375,-15.13671875,-24.4140625,-20.5078125,30.76171875,0.0
216.2734375,-34.66796875,-21.484375,-24.90234375,-27.34375,59.5703125,0.0
216.27734375,-39.0625,-34.1796875,-34.1796875,-39.0625,-28.3203125,0.0
216.28125,-31.25,-36.1328125,-36.62109375,-35.15625,-108.88671875,0.0
216.28515625,1.46484375,-7.32421875,-10.7421875,-3.90625,16.11328125,0.0
216.2890625,0.0,-1.46484375,-7.32421875,2.9296875,97.65625,0.0
216.29296875,-39.0625,-32.71484375,-39.0625,-27.34375,9.27734375,0.0
216.296875,-49.8046875,-33.203125,-40.0390625,-35.15625,-37.109375,0.0
216.30078125,-39.55078125,-24.4140625,-24.4140625,-30.2734375,-35.15625,0.0
216.3046875,-38.0859375,-30.2734375,-33.69140625,-36.1328125,58.59375,0.0
216.30859375,-37.59765625,-33.203125,-39.55078125,-36.62109375,127.9296875,0.0
216.3125,-39.0625,-32.71484375,-33.203125,-35.64453125,34.1796875,0.0
216.31640625,-43.45703125,-34.1796875,-37.59765625,-38.57421875,-36.1328125,0.0
216.3203125,-39.55078125,-36.1328125,-41.9921875,-39.0625,-65.91796875,0.0
216.32421875,-30.76171875,-33.203125,-38.0859375,-39.0625,18.5546875,0.0
216.328125,-26.3671875,-28.3203125,-35.64453125,-36.62109375,67.3828125,0.0
216.33203125,-27.83203125,-22.4609375,-19.53125,-27.83203125,-99.12109375,0.0
216.3359375,-37.59765625,-27.34375,-16.11328125,-29.296875,-212.890625,0.0
216.33984375,-47.8515625,-39.55078125,-41.50390625,-47.36328125,-161.1328125,0.0
216.34375,-38.0859375,-32.71484375,-42.96875,-41.9921875,-104.98046875,0.0
216.34765625,-28.80859375,-27.34375,-32.2265625,-27.83203125,-32.2265625,0.0
216.3515625,-33.203125,-26.85546875,-30.76171875,-27.83203125,45.41015625,0.0
216.35546875,-46.38671875,-30.2734375,-36.1328125,-35.64453125,-33.203125,0.0
216.359375,-50.29296875,-36.62109375,-37.59765625,-38.57421875,-130.37109375,0.0
216.36328125,-37.59765625,-28.80859375,-31.73828125,-34.66796875,-62.01171875,0.0
216.3671875,-32.2265625,-20.01953125,-26.85546875,-26.3671875,40.0390625,0.0
216.37109375,-39.55078125,-23.92578125,-28.80859375,-28.3203125,6.34765625,0.0
216.375,-37.109375,-15.625,-16.11328125,-27.83203125,-32.2265625,0.0
216.37890625,-41.50390625,-19.53125,-21.484375,-30.2734375,-43.45703125,0.0
216.3828125,-39.55078125,-24.4140625,-36.1328125,-39.55078125,-57.12890625,0.0
216.38671875,-31.25,-19.04296875,-33.203125,-35.15625,17.578125,0.0
216.390625,-24.90234375,-13.18359375,-12.6953125,-19.04296875,5.859375,0.0
216.39453125,-35.15625,-24.90234375,-20.01953125,-22.4609375,-106.4453125,0.0
216.3984375,-48.33984375,-38.57421875,-42.96875,-37.109375,-149.90234375,0.0
216.40234375,-34.66796875,-31.73828125,-38.0859375,-37.59765625,-49.8046875,0.0
216.40625,-19.04296875,-23.92578125,-30.76171875,-24.90234375,66.40625,0.0
216.41015625,-21.484375,-21.97265625,-31.73828125,-22.94921875,36.1328125,0.0
216.4140625,-40.52734375,-33.203125,-41.015625,-40.52734375,-120.60546875,0.0
216.41796875,-50.78125,-39.0625,-43.45703125,-50.29296875,-109.375,0.0
216.421875,-33.69140625,-28.80859375,-33.203125,-40.52734375,17.578125,0.0
216.42578125,-18.5546875,-21.97265625,-31.25,-27.34375,21.97265625,0.0
216.4296875,-20.99609375,-20.5078125,-34.1796875,-24.90234375,-53.7109375,0.0
216.43359375,-26.3671875,-24.4140625,-32.71484375,-27.83203125,-109.375,0.0
216.4375,-25.87890625,-27.34375,-17.578125,-22.94921875,-146.97265625,0.0
216.44140625,-30.2734375,-33.69140625,-34.1796875,-32.2265625,-125.0,0.0
216.4453125,-29.296875,-32.71484375,-48.33984375,-42.96875,-20.99609375,0.0
216.44921875,-23.4375,-20.01953125,-25.87890625,-27.34375,41.015625,0.0
216.453125,-30.2734375,-20.5078125,-16.11328125,-22.94921875,1.953125,0.0
216.45703125,-47.8515625,-35.15625,-39.0625,-44.43359375,-29.296875,0.0
216.4609375,-43.9453125,-35.15625,-41.50390625,-47.36328125,-68.84765625,0.0
216.46484375,-33.69140625,-30.76171875,-31.73828125,-38.0859375,-41.9921875,0.0
216.46875,-26.3671875,-24.4140625,-28.80859375,-22.94921875,74.21875,0.0
216.47265625,-27.83203125,-21.484375,-32.2265625,-20.5078125,-34.1796875,0.0
216.4765625,-36.1328125,-30.76171875,-38.0859375,-34.1796875,-142.578125,0.0
216.48046875,-14.16015625,-18.06640625,-10.25390625,-15.13671875,-101.5625,0.0
216.484375,-4.8828125,-11.71875,-4.8828125,-9.27734375,-74.70703125,0.0
216.48828125,-19.53125,-22.94921875,-29.78515625,-20.5078125,-72.75390625,0.0
216.4921875,-25.87890625,-22.94921875,-27.83203125,-19.53125,-63.4765625,0.0
216.49609375,-30.76171875,-23.4375,-18.5546875,-26.3671875,-56.640625,0.0
216.5,-34.66796875,-31.25,-30.76171875,-40.52734375,24.90234375,0.0
216.50390625,-26.85546875,-29.78515625,-37.109375,-42.96875,74.21875,0.0
216.5078125,-22.4609375,-22.4609375,-34.1796875,-38.0859375,67.3828125,0.0
216.51171875,-36.1328125,-27.34375,-39.55078125,-37.59765625,19.53125,0.0
216.515625,-46.38671875,-35.15625,-42.48046875,-45.41015625,-91.30859375,0.0
216.51953125,-43.9453125,-35.15625,-47.36328125,-52.734375,-115.72265625,0.0
216.5234375,-29.296875,-21.484375,-38.0859375,-41.9921875,-55.6640625,0.0
216.52734375,-0.9765625,1.953125,7.32421875,-9.765625,-7.8125,0.0
216.53125,-14.6484375,-8.7890625,-7.32421875,-11.71875,8.30078125,0.0
216.53515625,-43.45703125,-33.69140625,-45.41015625,-36.62109375,-13.671875,0.0
216.5390625,-39.0625,-35.15625,-42.96875,-41.015625,-22.4609375,0.0
216.54296875,-25.390625,-27.34375,-40.52734375,-36.1328125,10.25390625,0.0
216.546875,-25.87890625,-28.3203125,-44.921875,-33.69140625,0.0,0.0
216.55078125,-31.25,-29.296875,-42.96875,-30.76171875,15.625,0.0
216.5546875,-31.25,-24.4140625,-28.3203125,-29.296875,-31.25,0.0
216.55859375,-36.1328125,-33.203125,-30.76171875,-38.0859375,-89.35546875,0.0
216.5625,-30.76171875,-37.59765625,-43.9453125,-38.0859375,-73.73046875,0.0
216.56640625,-19.53125,-27.34375,-40.52734375,-30.2734375,-0.48828125,0.0
216.5703125,-7.8125,-10.7421875,-10.25390625,-14.16015625,45.41015625,0.0
216.57421875,-19.04296875,-17.578125,-13.18359375,-18.5546875,26.85546875,0.0
216.578125,-42.48046875,-41.015625,-46.875,-43.9453125,-69.3359375,0.0
216.58203125,-34.66796875,-36.1328125,-46.38671875,-40.0390625,-57.6171875,0.0
216.5859375,-26.3671875,-28.3203125,-38.0859375,-31.73828125,35.15625,0.0
216.58984375,-34.1796875,-30.2734375,-40.0390625,-34.66796875,57.6171875,0.0
216.59375,-50.78125,-38.0859375,-47.8515625,-40.52734375,-1.953125,0.0
216.59765625,-49.8046875,-37.109375,-40.52734375,-39.0625,-112.3046875,0.0
216.6015625,-24.4140625,-26.3671875,-22.94921875,-27.34375,-77.1484375,0.0
216.60546875,-23.92578125,-31.73828125,-34.1796875,-35.15625,30.76171875,0.0
216.609375,-42.48046875,-34.66796875,-48.33984375,-42.96875,0.0,0.0
216.61328125,-45.8984375,-31.73828125,-36.62109375,-33.69140625,-106.93359375,0.0
216.6171875,-16.6015625,-6.34765625,12.6953125,-7.8125,-163.57421875,0.0
216.62109375,-16.11328125,-12.20703125,0.0,-19.04296875,-128.90625,0.0
216.625,-30.76171875,-33.69140625,-39.55078125,-41.9921875,-83.984375,0.0
216.62890625,-27.83203125,-28.80859375,-35.15625,-34.66796875,-31.73828125,0.0
216.6328125,-38.0859375,-34.1796875,-37.59765625,-36.62109375,-16.6015625,0.0
216.63671875,-50.29296875,-46.875,-49.8046875,-46.38671875,-84.9609375,0.0
216.640625,-43.45703125,-47.36328125,-48.33984375,-51.26953125,-54.19921875,0.0
216.64453125,-31.25,-37.59765625,-41.50390625,-47.8515625,103.515625,0.0
216.6484375,-32.71484375,-33.203125,-38.57421875,-35.15625,122.0703125,0.0
216.65234375,-41.015625,-35.64453125,-40.52734375,-37.109375,3.41796875,0.0
216.65625,-50.29296875,-41.50390625,-47.8515625,-50.29296875,-72.265625,0.0
216.66015625,-24.4140625,-17.08984375,-9.27734375,-22.4609375,-0.48828125,0.0
216.6640625,-2.9296875,-4.8828125,9.27734375,-6.34765625,109.86328125,0.0
216.66796875,-32.71484375,-32.2265625,-33.69140625,-37.59765625,156.73828125,0.0
216.671875,-42.96875,-35.15625,-35.15625,-37.59765625,86.9140625,0.0
216.67578125,-39.55078125,-36.62109375,-26.3671875,-39.55078125,24.90234375,0.0
216.6796875,-49.31640625,-48.33984375,-40.52734375,-57.6171875,6.8359375,0.0
216.68359375,-43.9453125,-42.96875,-41.015625,-55.6640625,76.66015625,0.0
216.6875,-38.57421875,-37.59765625,-35.64453125,-45.8984375,15.625,0.0
216.69140625,-49.31640625,-42.48046875,-38.0859375,-43.9453125,-68.84765625,0.0
216.6953125,-54.6875,-41.50390625,-35.15625,-48.33984375,12.6953125,0.0
216.69921875,-60.05859375,-48.828125,-45.41015625,-62.01171875,-16.11328125,0.0
216.703125,-42.96875,-36.62109375,-36.62109375,-42.96875,-72.75390625,0.0
216.70703125,14.6484375,14.16015625,23.4375,13.18359375,46.38671875,0.0
216.7109375,-6.34765625,-5.37109375,-1.953125,-9.765625,68.359375,0.0
216.71484375,-52.24609375,-48.33984375,-49.31640625,-53.22265625,-33.69140625,0.0
216.71875,-35.64453125,-38.57421875,-25.390625,-35.15625,-76.66015625,0.0
216.72265625,1.953125,-0.9765625,17.578125,0.48828125,-65.91796875,0.0
216.7265625,-22.94921875,-19.53125,-22.4609375,-23.92578125,17.08984375,0.0
216.73046875,-43.45703125,-37.109375,-45.8984375,-39.55078125,1.46484375,0.0
216.734375,-45.41015625,-37.109375,-34.66796875,-41.50390625,-64.453125,0.0
216.73828125,-53.22265625,-44.43359375,-39.55078125,-53.7109375,-40.52734375,0.0
216.7421875,-45.41015625,-41.50390625,-39.0625,-53.22265625,49.31640625,0.0
216.74609375,-29.78515625,-34.1796875,-36.62109375,-38.57421875,71.2890625,0.0
216.75,-26.3671875,-30.2734375,-30.2734375,-23.92578125,47.36328125,0.0
216.75390625,-41.50390625,-35.15625,-32.2265625,-29.78515625,-47.36328125,0.0
216.7578125,-47.36328125,-39.0625,-39.55078125,-38.0859375,-153.80859375,0.0
216.76171875,-47.36328125,-46.875,-45.8984375,-37.109375,-78.61328125,0.0
216.765625,-3.90625,-5.859375,10.25390625,6.8359375,44.921875,0.0
216.76953125,15.625,11.71875,35.64453125,24.90234375,-8.30078125,0.0
216.7734375,-33.203125,-36.62109375,-27.34375,-21.484375,-130.37109375,0.0
216.77734375,-45.8984375,-43.9453125,-41.9921875,-41.015625,-175.78125,0.0
216.78125,-29.78515625,-32.71484375,-33.69140625,-43.45703125,-151.85546875,0.0
216.78515625,-18.5546875,-26.3671875,-33.69140625,-36.62109375,-103.02734375,0.0
216.7890625,-22.4609375,-24.4140625,-36.62109375,-34.1796875,-27.34375,0.0
216.79296875,-34.1796875,-28.3203125,-38.0859375,-42.96875,-11.71875,0.0
216.796875,-42.48046875,-32.2265625,-35.64453125,-42.96875,-115.234375,0.0
216.80078125,-48.33984375,-40.52734375,-39.0625,-46.38671875,-148.4375,0.0
216.8046875,-42.96875,-39.0625,-45.8984375,-48.828125,-74.21875,0.0
216.80859375,-28.80859375,-31.25,-30.76171875,-36.1328125,-43.45703125,0.0
216.8125,-4.39453125,-5.37109375,18.5546875,-3.41796875,-102.05078125,0.0
216.81640625,-31.73828125,-20.01953125,-10.7421875,-25.390625,-136.23046875,0.0
216.8203125,-56.640625,-46.38671875,-54.6875,-56.640625,-139.16015625,0.0
216.82421875,-34.1796875,-33.69140625,-37.109375,-39.55078125,-72.75390625,0.0
216.828125,-24.90234375,-26.3671875,-30.76171875,-26.3671875,40.0390625,0.0
216.83203125,-39.55078125,-41.015625,-45.41015625,-33.69140625,22.4609375,0.0
216.8359375,-49.8046875,-48.828125,-46.875,-41.50390625,-29.296875,0.0
216.83984375,-43.9453125,-41.9921875,-44.43359375,-44.43359375,24.4140625,0.0
216.84375,-29.296875,-35.64453125,-44.43359375,-38.57421875,56.15234375,0.0
216.84765625,-22.94921875,-31.25,-38.57421875,-30.76171875,31.25,0.0
216.8515625,-33.203125,-34.66796875,-35.15625,-25.390625,1.46484375,0.0
216.85546875,-36.62109375,-40.52734375,-13.671875,-21.484375,-72.265625,0.0
216.859375,-33.203125,-41.015625,-12.6953125,-28.80859375,-54.19921875,0.0
216.86328125,-33.203125,-45.41015625,-38.0859375,-34.1796875,25.390625,0.0
216.8671875,-27.83203125,-38.0859375,-33.69140625,-21.484375,0.48828125,0.0
216.87109375,-32.71484375,-30.76171875,-30.76171875,-18.06640625,19.53125,0.0
216.875,-43.45703125,-37.59765625,-36.1328125,-24.90234375,-10.7421875,0.0
216.87890625,-44.43359375,-39.0625,-36.1328125,-32.2265625,-86.9140625,0.0
216.8828125,-31.73828125,-32.2265625,-30.2734375,-28.3203125,-152.83203125,0.0
216.88671875,-15.13671875,-19.53125,-13.671875,-12.20703125,-53.7109375,0.0
216.890625,-22.94921875,-19.04296875,-19.04296875,-14.6484375,-68.84765625,0.0
216.89453125,-38.57421875,-32.2265625,-33.203125,-34.66796875,-192.3828125,0.0
216.8984375,-41.50390625,-39.55078125,-33.69140625,-38.0859375,-145.5078125,0.0
216.90234375,-16.6015625,-19.53125,4.39453125,-5.37109375,-69.82421875,0.0
216.90625,-14.16015625,-21.484375,-0.9765625,-4.8828125,11.23046875,0.0
216.91015625,-35.64453125,-35.64453125,-34.1796875,-27.34375,91.30859375,0.0
216.9140625,-42.48046875,-35.15625,-31.25,-35.64453125,40.0390625,0.0
216.91796875,-41.50390625,-37.109375,-38.57421875,-43.9453125,7.32421875,0.0
216.921875,-34.66796875,-38.0859375,-45.8984375,-54.19921875,31.73828125,0.0
216.92578125,-17.578125,-30.76171875,-37.59765625,-44.921875,45.8984375,0.0
216.9296875,-11.71875,-23.4375,-37.59765625,-31.73828125,-15.625,0.0
216.93359375,-27.83203125,-32.71484375,-44.921875,-45.41015625,-106.93359375,0.0
216.9375,-33.69140625,-38.57421875,-47.36328125,-62.01171875,-135.7421875,0.0
216.94140625,-28.80859375,-37.59765625,-49.8046875,-64.453125,-160.15625,0.0
216.9453125,-11.23046875,-24.90234375,-17.08984375,-38.57421875,-145.99609375,0.0
216.94921875,-2.9296875,-10.25390625,11.23046875,-11.71875,-57.6171875,0.0
216.953125,-32.71484375,-28.3203125,-25.87890625,-30.76171875,-118.1640625,0.0
216.95703125,-49.8046875,-42.48046875,-42.96875,-48.33984375,-274.4140625,0.0
216.9609375,-42.48046875,-39.55078125,-41.015625,-47.36328125,-239.74609375,0.0
216.96484375,-32.2265625,-34.1796875,-41.015625,-40.0390625,-138.18359375,0.0
216.96875,-33.69140625,-30.2734375,-37.109375,-35.15625,-146.97265625,0.0
216.97265625,-44.921875,-35.64453125,-37.59765625,-37.59765625,-165.52734375,0.0
216.9765625,-49.8046875,-39.0625,-39.55078125,-42.96875,-180.17578125,0.0
216.98046875,-46.38671875,-38.0859375,-37.59765625,-41.50390625,-137.6953125,0.0
216.984375,-36.62109375,-36.1328125,-37.59765625,-32.71484375,-92.7734375,0.0
216.98828125,-25.87890625,-24.4140625,-33.69140625,-21.484375,-104.4921875,0.0
216.9921875,-20.01953125,-17.08984375,-4.8828125,-14.16015625,-26.85546875,0.0
216.99609375,-35.15625,-27.83203125,-10.25390625,-25.87890625,54.6875,0.0
217.0,-46.38671875,-39.0625,-37.59765625,-38.0859375,82.03125,0.0
217.00390625,-38.0859375,-33.69140625,-36.1328125,-36.1328125,137.20703125,0.0
217.0078125,-31.25,-30.2734375,-30.2734375,-30.2734375,30.76171875,0.0
217.01171875,-39.55078125,-34.1796875,-32.2265625,-27.83203125,-75.68359375,0.0
217.015625,-46.38671875,-40.0390625,-35.15625,-29.296875,-103.515625,0.0
217.01953125,-41.015625,-43.45703125,-32.71484375,-30.76171875,-184.5703125,0.0
217.0234375,-32.71484375,-35.15625,-32.2265625,-28.3203125,-101.5625,0.0
217.02734375,-24.90234375,-29.296875,-31.25,-27.83203125,-29.78515625,0.0
217.03125,-30.76171875,-31.73828125,-31.25,-31.25,-114.74609375,0.0
217.03515625,-29.296875,-27.34375,-19.04296875,-29.78515625,-99.12109375,0.0
217.0390625,-26.3671875,-28.80859375,-22.94921875,-35.15625,-45.41015625,0.0
217.04296875,-23.92578125,-33.69140625,-37.109375,-32.2265625,-8.30078125,0.0
217.046875,-17.08984375,-29.296875,-32.2265625,-21.97265625,80.078125,0.0
217.05078125,-3.90625,-11.23046875,-0.9765625,-10.7421875,92.28515625,0.0
217.0546875,-17.578125,-19.53125,-4.8828125,-17.08984375,46.875,0.0
217.05859375,-47.8515625,-45.41015625,-38.57421875,-46.875,8.30078125,0.0
217.0625,-43.45703125,-44.921875,-39.55078125,-49.8046875,-48.33984375,0.0
217.06640625,-29.78515625,-39.55078125,-31.73828125,-35.64453125,-67.87109375,0.0
217.0703125,-28.3203125,-36.62109375,-29.78515625,-28.80859375,27.34375,0.0
217.07421875,-41.015625,-42.96875,-37.59765625,-38.0859375,35.64453125,0.0
217.078125,-41.015625,-41.50390625,-32.2265625,-40.52734375,0.9765625,0.0
217.08203125,-26.85546875,-33.203125,-16.11328125,-31.25,-36.1328125,0.0
217.0859375,-23.92578125,-32.71484375,-21.484375,-31.25,0.48828125,0.0
217.08984375,-30.2734375,-32.71484375,-33.203125,-33.203125,81.54296875,0.0
217.09375,-28.80859375,-28.80859375,-23.92578125,-29.296875,61.5234375,0.0
217.09765625,-20.5078125,-18.06640625,-3.41796875,-21.97265625,-0.9765625,0.0
217.1015625,-35.64453125,-30.76171875,-27.34375,-38.57421875,83.984375,0.0
217.10546875,-37.109375,-37.109375,-41.50390625,-38.0859375,84.47265625,0.0
217.109375,-32.2265625,-23.92578125,-22.94921875,-25.390625,57.6171875,0.0
217.11328125,-43.9453125,-25.390625,-20.5078125,-35.15625,60.05859375,0.0
217.1171875,-57.12890625,-43.45703125,-35.64453125,-52.24609375,-34.66796875,0.0
217.12109375,-48.828125,-45.41015625,-37.109375,-52.734375,-12.6953125,0.0
217.125,-35.15625,-36.1328125,-32.2265625,-35.64453125,67.3828125,0.0
217.12890625,-32.71484375,-28.80859375,-31.25,-29.78515625,3.41796875,0.0
217.1328125,-31.73828125,-26.3671875,-32.71484375,-33.69140625,-72.75390625,0.0
217.13671875,-38.57421875,-36.62109375,-35.64453125,-34.66796875,-84.47265625,0.0
217.140625,-39.55078125,-47.8515625,-37.109375,-41.015625,-62.5,0.0
217.14453125,-23.4375,-38.0859375,-32.71484375,-41.015625,-36.1328125,0.0
217.1484375,-21.484375,-30.76171875,-33.203125,-31.25,-9.27734375,0.0
217.15234375,-32.71484375,-33.69140625,-31.73828125,-29.78515625,-126.953125,0.0
217.15625,-50.29296875,-49.8046875,-33.69140625,-46.38671875,-291.50390625,0.0
217.16015625,-45.8984375,-49.31640625,-40.0390625,-51.7578125,-201.66015625,0.0
217.1640625,-22.94921875,-31.25,-37.59765625,-42.48046875,3.90625,0.0
217.16796875,-17.578125,-24.4140625,-33.69140625,-30.76171875,74.21875,0.0
217.171875,-24.4140625,-27.34375,-38.0859375,-30.76171875,72.75390625,0.0
217.17578125,-36.1328125,-36.62109375,-41.9921875,-41.015625,-66.40625,0.0
217.1796875,-41.9921875,-40.0390625,-47.8515625,-51.26953125,-83.49609375,0.0
217.18359375,-24.4140625,-28.3203125,-38.57421875,-44.43359375,75.1953125,0.0
217.1875,6.34765625,-6.34765625,6.8359375,-11.23046875,44.43359375,0.0
217.19140625,-4.39453125,-18.06640625,-5.859375,-12.6953125,-24.4140625,0.0
217.1953125,-32.2265625,-39.55078125,-40.52734375,-40.52734375,-84.9609375,0.0
217.19921875,-39.55078125,-41.015625,-41.9921875,-50.29296875,-125.0,0.0
217.203125,-30.76171875,-36.62109375,-40.52734375,-42.48046875,-92.28515625,0.0
217.20703125,-26.3671875,-29.78515625,-37.59765625,-35.15625,-36.1328125,0.0
217.2109375,-35.15625,-29.296875,-38.57421875,-35.64453125,-71.2890625,0.0
217.21484375,-39.55078125,-29.296875,-30.2734375,-34.1796875,-138.18359375,0.0
217.21875,-48.33984375,-38.0859375,-38.0859375,-45.8984375,-125.48828125,0.0
217.22265625,-40.0390625,-37.59765625,-44.921875,-44.43359375,-85.9375,0.0
217.2265625,-21.484375,-28.3203125,-37.59765625,-27.34375,64.453125,0.0
217.23046875,-4.39453125,-12.6953125,-6.34765625,-0.9765625,108.88671875,0.0
217.234375,-4.39453125,-12.6953125,0.9765625,-2.9296875,-20.5078125,0.0
217.23828125,-29.296875,-31.25,-32.71484375,-35.15625,-6.8359375,0.0
217.2421875,-28.3203125,-29.78515625,-36.1328125,-34.66796875,-8.7890625,0.0
217.24609375,-17.08984375,-24.90234375,-32.71484375,-24.4140625,-6.8359375,0.0
217.25,-17.578125,-21.484375,-33.203125,-20.5078125,39.55078125,0.0
217.25390625,-31.25,-29.296875,-37.109375,-29.78515625,-44.921875,0.0
217.2578125,-44.43359375,-44.43359375,-45.41015625,-44.921875,-111.81640625,0.0
217.26171875,-29.78515625,-40.52734375,-39.55078125,-32.2265625,-26.85546875,0.0
217.265625,-16.11328125,-26.3671875,-33.203125,-18.5546875,39.0625,0.0
217.26953125,-22.94921875,-26.3671875,-35.64453125,-21.97265625,9.27734375,0.0
217.2734375,-39.0625,-38.0859375,-38.57421875,-33.203125,-7.32421875,0.0
217.27734375,-47.36328125,-46.875,-28.3203125,-47.8515625,-46.875,0.0
217.28125,-33.203125,-40.0390625,-28.3203125,-46.38671875,-70.80078125,0.0
217.28515625,-20.01953125,-33.203125,-38.0859375,-34.1796875,-12.20703125,0.0
217.2890625,-26.3671875,-30.76171875,-32.71484375,-28.3203125,-6.34765625,0.0
217.29296875,-35.15625,-30.2734375,-22.4609375,-28.80859375,-90.8203125,0.0
217.296875,-37.109375,-34.1796875,-31.25,-33.69140625,-139.6484375,0.0
217.30078125,-26.3671875,-31.25,-33.69140625,-31.25,-109.86328125,0.0
217.3046875,-14.16015625,-23.92578125,-27.83203125,-21.484375,-53.22265625,0.0
217.30859375,-13.18359375,-21.484375,-29.296875,-14.6484375,50.78125,0.0
217.3125,-23.4375,-25.390625,-31.25,-21.484375,23.92578125,0.0
217.31640625,-36.1328125,-32.2265625,-33.203125,-35.15625,17.578125,0.0
217.3203125,-35.64453125,-35.64453125,-32.71484375,-38.0859375,3.90625,0.0
217.32421875,-27.34375,-34.66796875,-31.25,-33.203125,53.7109375,0.0
217.328125,-23.92578125,-26.85546875,-29.78515625,-29.78515625,132.32421875,0.0
217.33203125,-35.15625,-27.34375,-32.2265625,-38.0859375,52.24609375,0.0
217.3359375,-49.31640625,-39.55078125,-25.390625,-50.29296875,-80.56640625,0.0
217.33984375,-49.31640625,-45.41015625,-27.34375,-54.19921875,-76.171875,0.0
217.34375,-34.66796875,-35.64453125,-36.1328125,-42.96875,11.23046875,0.0
217.34765625,-33.203125,-25.87890625,-31.25,-29.78515625,26.85546875,0.0
217.3515625,-43.45703125,-27.83203125,-34.66796875,-31.25,-15.625,0.0
217.35546875,-44.921875,-29.296875,-37.59765625,-36.1328125,20.01953125,0.0
217.359375,-42.96875,-29.78515625,-36.62109375,-37.109375,5.37109375,0.0
217.36328125,-42.48046875,-36.1328125,-36.62109375,-47.36328125,-62.01171875,0.0
217.3671875,-40.52734375,-34.66796875,-29.78515625,-48.828125,-37.109375,0.0
217.37109375,-41.015625,-26.85546875,-26.85546875,-37.59765625,-6.34765625,0.0
217.375,-55.6640625,-36.1328125,-37.59765625,-44.43359375,-45.41015625,0.0
217.37890625,-52.734375,-39.55078125,-36.62109375,-44.43359375,-26.85546875,0.0
217.3828125,-37.59765625,-31.73828125,-27.83203125,-35.64453125,36.62109375,0.0
217.38671875,-35.15625,-25.390625,-26.85546875,-27.34375,86.9140625,0.0
217.390625,-38.0859375,-22.4609375,-27.83203125,-22.94921875,83.984375,0.0
217.39453125,-43.9453125,-27.34375,-31.25,-29.296875,-52.734375,0.0
217.3984375,-49.31640625,-32.71484375,-35.64453125,-36.62109375,-155.2734375,0.0
217.40234375,-43.45703125,-33.69140625,-35.64453125,-41.9921875,-122.55859375,0.0
217.40625,-29.78515625,-26.85546875,-27.83203125,-33.203125,-164.55078125,0.0
217.41015625,-23.92578125,-17.08984375,-17.578125,-17.08984375,-169.43359375,0.0
217.4140625,-34.66796875,-28.80859375,-25.87890625,-25.87890625,-89.35546875,0.0
217.41796875,-36.62109375,-33.69140625,-32.2265625,-40.0390625,-41.50390625,0.0
217.421875,-29.78515625,-28.3203125,-29.78515625,-40.0390625,-40.52734375,0.0
217.42578125,-18.06640625,-20.01953125,-15.13671875,-20.01953125,-28.3203125,0.0
217.4296875,-21.484375,-20.99609375,-16.6015625,-20.99609375,-59.08203125,0.0
217.43359375,-45.41015625,-33.69140625,-36.1328125,-38.0859375,-47.8515625,0.0
217.4375,-50.29296875,-33.69140625,-35.64453125,-39.0625,-70.3125,0.0
217.44140625,-39.55078125,-27.34375,-24.90234375,-34.66796875,-88.37890625,0.0
217.4453125,-37.109375,-25.390625,-29.296875,-31.73828125,31.25,0.0
217.44921875,-40.0390625,-21.97265625,-33.69140625,-33.203125,77.1484375,0.0
217.453125,-37.109375,-21.484375,-25.87890625,-33.69140625,-13.18359375,0.0
217.45703125,-14.6484375,-10.25390625,-0.9765625,-17.578125,-50.29296875,0.0
217.4609375,-27.34375,-22.94921875,-20.99609375,-33.203125,-42.96875,0.0
217.46484375,-41.015625,-36.1328125,-42.48046875,-44.43359375,20.5078125,0.0
217.46875,-29.296875,-27.34375,-24.4140625,-31.25,14.16015625,0.0
217.47265625,-30.76171875,-25.87890625,-16.11328125,-27.83203125,-45.8984375,0.0
217.4765625,-52.24609375,-44.921875,-41.015625,-52.734375,-88.37890625,0.0
217.48046875,-47.36328125,-45.8984375,-46.38671875,-57.6171875,-79.58984375,0.0
217.484375,-33.203125,-30.76171875,-31.25,-39.55078125,-54.6875,0.0
217.48828125,-34.66796875,-24.90234375,-26.85546875,-29.296875,-42.48046875,0.0
217.4921875,-41.50390625,-28.80859375,-32.2265625,-28.3203125,-14.16015625,0.0
217.49609375,-48.828125,-38.57421875,-33.69140625,-37.59765625,-38.57421875,0.0
217.5,-37.109375,-28.3203125,-20.01953125,-32.71484375,-81.0546875,0.0
217.50390625,-26.85546875,-23.92578125,-23.92578125,-27.83203125,-103.515625,0.0
217.5078125,-27.83203125,-30.76171875,-37.59765625,-25.87890625,-64.94140625,0.0
217.51171875,-30.76171875,-28.80859375,-34.1796875,-24.4140625,-31.25,0.0
217.515625,-22.4609375,-17.08984375,-9.765625,-16.11328125,-78.125,0.0
217.51953125,-26.3671875,-25.87890625,-16.11328125,-26.3671875,-69.3359375,0.0
217.5234375,-32.2265625,-36.1328125,-40.0390625,-41.9921875,-56.640625,0.0
217.52734375,-25.390625,-29.78515625,-36.1328125,-39.55078125,-83.984375,0.0
217.53125,-32.71484375,-29.296875,-34.1796875,-39.55078125,-2.44140625,0.0
217.53515625,-43.9453125,-36.62109375,-36.1328125,-47.8515625,-5.859375,0.0
217.5390625,-48.828125,-43.9453125,-40.0390625,-54.19921875,-22.4609375,0.0
217.54296875,-39.0625,-36.1328125,-30.76171875,-43.9453125,12.20703125,0.0
217.546875,-18.06640625,-16.11328125,-5.859375,-20.99609375,80.078125,0.0
217.55078125,-25.87890625,-23.92578125,-16.6015625,-24.4140625,-8.30078125,0.0
217.5546875,-40.0390625,-37.109375,-34.66796875,-35.64453125,-252.44140625,0.0
217.55859375,-36.62109375,-37.109375,-30.76171875,-37.59765625,-145.99609375,0.0
217.5625,-19.53125,-24.90234375,-5.859375,-29.296875,-18.5546875,0.0
217.56640625,-18.06640625,-25.390625,-15.13671875,-25.87890625,-1.46484375,0.0
217.5703125,-30.2734375,-31.73828125,-31.73828125,-31.25,60.546875,0.0
217.57421875,-47.8515625,-38.57421875,-28.3203125,-41.50390625,-41.50390625,0.0
217.578125,-53.7109375,-41.015625,-32.2265625,-50.29296875,-34.66796875,0.0
217.58203125,-39.0625,-34.1796875,-32.71484375,-42.48046875,52.24609375,0.0
217.5859375,-25.390625,-23.92578125,-26.3671875,-26.85546875,45.8984375,0.0
217.58984375,-27.83203125,-25.390625,-23.92578125,-24.90234375,-24.90234375,0.0
217.59375,-41.9921875,-37.59765625,-27.83203125,-28.3203125,-55.17578125,0.0
217.59765625,-52.24609375,-43.45703125,-33.203125,-35.64453125,-53.22265625,0.0
217.6015625,-47.8515625,-41.9921875,-37.109375,-39.55078125,40.52734375,0.0
217.60546875,-20.01953125,-21.484375,-5.37109375,-18.5546875,41.9921875,0.0
217.609375,-15.13671875,-16.11328125,13.18359375,-8.30078125,-43.45703125,0.0
217.61328125,-45.8984375,-37.109375,-23.4375,-33.69140625,-62.01171875,0.0
217.6171875,-54.6875,-45.41015625,-34.66796875,-43.9453125,-47.36328125,0.0
217.62109375,-47.8515625,-42.48046875,-26.3671875,-42.96875,-49.31640625,0.0
217.625,-46.38671875,-38.57421875,-26.3671875,-43.9453125,-19.53125,0.0
217.62890625,-49.31640625,-33.69140625,-25.87890625,-37.109375,-14.6484375,0.0
217.6328125,-52.734375,-34.1796875,-27.34375,-37.59765625,-69.82421875,0.0
217.63671875,-50.78125,-37.109375,-31.25,-46.38671875,-145.5078125,0.0
217.640625,-43.9453125,-40.0390625,-32.71484375,-52.734375,-148.4375,0.0
217.64453125,-34.1796875,-36.62109375,-31.73828125,-43.9453125,-104.00390625,0.0
217.6484375,-35.15625,-35.15625,-28.3203125,-37.109375,-52.24609375,0.0
217.65234375,-50.29296875,-43.45703125,-19.53125,-41.015625,-56.640625,0.0
217.65625,-56.640625,-48.828125,-24.4140625,-40.0390625,-115.72265625,0.0
217.66015625,-52.24609375,-48.33984375,-37.109375,-39.55078125,11.71875,0.0
217.6640625,-44.43359375,-42.48046875,-37.109375,-35.15625,-20.01953125,0.0
217.66796875,-34.1796875,-34.66796875,-33.69140625,-25.87890625,2.9296875,0.0
217.671875,-35.15625,-28.80859375,-31.73828125,-21.97265625,59.5703125,0.0
217.67578125,-41.9921875,-36.62109375,-34.1796875,-31.73828125,-101.5625,0.0
217.6796875,-40.0390625,-41.015625,-37.59765625,-39.0625,-152.34375,0.0
217.68359375,-29.296875,-34.66796875,-34.66796875,-32.71484375,11.23046875,0.0
217.6875,-24.90234375,-32.2265625,-29.296875,-20.5078125,86.9140625,0.0
217.69140625,-30.76171875,-36.1328125,-25.390625,-20.5078125,36.62109375,0.0
217.6953125,-40.0390625,-39.55078125,-23.4375,-32.71484375,-20.5078125,0.0
217.69921875,-45.8984375,-44.921875,-28.3203125,-41.015625,-77.1484375,0.0
217.703125,-38.0859375,-42.48046875,-32.71484375,-39.0625,-5.37109375,0.0
217.70703125,-31.73828125,-34.1796875,-25.87890625,-31.73828125,134.27734375,0.0
217.7109375,-39.0625,-37.109375,-27.34375,-33.203125,138.671875,0.0
217.71484375,-50.29296875,-44.921875,-36.1328125,-46.875,55.6640625,0.0
217.71875,-49.31640625,-46.38671875,-39.55078125,-52.24609375,7.8125,0.0
217.72265625,-35.15625,-35.15625,-33.203125,-37.59765625,-23.4375,0.0
217.7265625,-31.25,-29.78515625,-29.78515625,-32.71484375,-79.58984375,0.0
217.73046875,-38.57421875,-29.296875,-27.34375,-33.69140625,-61.03515625,0.0
217.734375,-48.828125,-31.73828125,-30.76171875,-35.15625,-71.77734375,0.0
217.73828125,-52.24609375,-36.62109375,-31.73828125,-41.50390625,-148.92578125,0.0
217.7421875,-35.15625,-28.3203125,-2.9296875,-31.25,-223.6328125,0.0
217.74609375,-32.2265625,-28.80859375,-7.8125,-29.78515625,-204.58984375,0.0
217.75,-47.36328125,-34.1796875,-32.71484375,-35.64453125,-98.6328125,0.0
217.75390625,-52.734375,-38.0859375,-31.73828125,-37.59765625,-44.921875,0.0
217.7578125,-59.08203125,-45.41015625,-33.69140625,-47.36328125,40.52734375,0.0
217.76171875,-50.29296875,-37.59765625,-34.1796875,-50.29296875,61.5234375,0.0
217.765625,-33.69140625,-27.34375,-33.203125,-41.9921875,46.38671875,0.0
217.76953125,-30.76171875,-25.390625,-28.3203125,-32.71484375,65.4296875,0.0
217.7734375,-39.55078125,-32.2265625,-28.80859375,-41.015625,22.94921875,0.0
217.77734375,-48.828125,-40.52734375,-41.9921875,-56.640625,-7.32421875,0.0
217.78125,-36.1328125,-38.0859375,-41.015625,-50.29296875,24.90234375,0.0
217.78515625,-23.92578125,-36.1328125,-34.1796875,-43.45703125,-13.671875,0.0
217.7890625,-25.390625,-34.1796875,-36.62109375,-44.43359375,-45.41015625,0.0
217.79296875,-35.15625,-33.69140625,-38.57421875,-42.48046875,-98.14453125,0.0
217.796875,-43.45703125,-37.109375,-37.109375,-41.9921875,-45.8984375,0.0
217.80078125,-49.8046875,-45.41015625,-36.1328125,-47.8515625,-22.4609375,0.0
217.8046875,-41.50390625,-35.15625,-36.1328125,-41.50390625,22.94921875,0.0
217.80859375,-30.76171875,-23.4375,-33.203125,-28.3203125,89.84375,0.0
217.8125,-37.59765625,-28.3203125,-32.2265625,-28.3203125,8.30078125,0.0
217.81640625,-49.8046875,-36.62109375,-36.1328125,-39.55078125,-110.83984375,0.0
217.8203125,-48.33984375,-44.921875,-39.55078125,-50.29296875,-163.57421875,0.0
217.82421875,-35.64453125,-37.59765625,-38.57421875,-44.921875,-95.703125,0.0
217.828125,-30.76171875,-29.78515625,-30.76171875,-30.76171875,-5.859375,0.0
217.83203125,-47.8515625,-41.015625,-18.5546875,-36.1328125,-5.37109375,0.0
217.8359375,-56.640625,-50.29296875,-24.4140625,-52.734375,-72.265625,0.0
217.83984375,-42.48046875,-42.48046875,-39.0625,-48.828125,-117.67578125,0.0
217.84375,-27.34375,-31.73828125,-28.3203125,-34.1796875,-31.73828125,0.0
217.84765625,-20.5078125,-30.76171875,-20.99609375,-27.83203125,9.27734375,0.0
217.8515625,-22.4609375,-25.390625,-23.4375,-23.4375,-73.2421875,0.0
217.85546875,-35.15625,-29.78515625,-27.34375,-27.34375,-119.62890625,0.0
217.859375,-38.0859375,-37.59765625,-28.80859375,-36.1328125,-35.15625,0.0
217.86328125,-27.34375,-30.2734375,-25.87890625,-30.76171875,74.21875,0.0
217.8671875,-23.92578125,-29.296875,-24.90234375,-21.484375,66.89453125,0.0
217.87109375,-29.296875,-30.2734375,-26.85546875,-23.4375,-45.41015625,0.0
217.875,-37.109375,-37.109375,-25.87890625,-29.78515625,-78.125,0.0
217.87890625,-39.0625,-41.50390625,-28.3203125,-36.1328125,-32.71484375,0.0
217.8828125,-27.34375,-34.1796875,-29.296875,-31.73828125,25.390625,0.0
217.88671875,-22.4609375,-26.3671875,-27.34375,-22.94921875,48.33984375,0.0
217.890625,-26.85546875,-28.3203125,-10.25390625,-18.06640625,59.5703125,0.0
217.89453125,-34.66796875,-38.57421875,-7.32421875,-21.97265625,34.66796875,0.0
217.8984375,-41.50390625,-43.9453125,-31.25,-36.1328125,-32.2265625,0.0
217.90234375,-34.1796875,-43.45703125,-38.57421875,-40.52734375,-31.73828125,0.0
217.90625,-22.4609375,-41.9921875,-35.64453125,-27.83203125,-11.23046875,0.0
217.91015625,-20.5078125,-38.57421875,-32.2265625,-24.4140625,-26.85546875,0.0
217.9140625,-32.71484375,-38.57421875,-35.64453125,-36.62109375,-7.32421875,0.0
217.91796875,-40.0390625,-44.43359375,-37.59765625,-41.015625,-83.984375,0.0
217.921875,-31.25,-44.921875,-32.2265625,-35.64453125,-104.98046875,0.0
217.92578125,-26.85546875,-41.9921875,-25.87890625,-29.78515625,-35.64453125,0.0
217.9296875,-36.1328125,-38.57421875,-27.83203125,-29.296875,-29.296875,0.0
217.93359375,-46.875,-41.015625,-32.2265625,-33.203125,-16.6015625,0.0
217.9375,-50.78125,-48.828125,-14.6484375,-34.66796875,-153.80859375,0.0
217.94140625,-45.41015625,-46.875,-15.13671875,-40.0390625,-167.96875,0.0
217.9453125,-35.15625,-38.0859375,-24.90234375,-34.1796875,-59.08203125,0.0
217.94921875,-38.0859375,-36.62109375,-21.97265625,-29.78515625,-58.10546875,0.0
217.953125,-53.7109375,-40.0390625,-28.80859375,-38.0859375,-36.62109375,0.0
217.95703125,-52.734375,-43.9453125,-34.66796875,-43.9453125,-15.13671875,0.0
217.9609375,-45.8984375,-42.96875,-33.69140625,-44.921875,18.06640625,0.0
217.96484375,-43.45703125,-39.55078125,-33.203125,-40.0390625,41.50390625,0.0
217.96875,-45.41015625,-38.0859375,-29.296875,-36.62109375,44.43359375,0.0
217.97265625,-50.29296875,-36.62109375,-26.3671875,-35.64453125,26.85546875,0.0
217.9765625,-52.24609375,-41.50390625,-30.2734375,-39.55078125,16.11328125,0.0
217.98046875,-59.5703125,-60.05859375,-34.66796875,-55.17578125,-38.57421875,0.0
217.984375,-49.8046875,-60.05859375,-29.78515625,-51.7578125,-38.57421875,0.0
217.98828125,-30.76171875,-37.59765625,-18.5546875,-31.25,-1.953125,0.0
217.9921875,-39.0625,-39.0625,-21.484375,-37.109375,-40.0390625,0.0
217.99609375,-52.734375,-48.828125,-23.92578125,-54.19921875,-90.33203125,0.0
218.0,-49.31640625,-43.45703125,-31.73828125,-54.6875,-60.546875,0.0
218.00390625,-37.59765625,-37.59765625,-32.2265625,-45.8984375,-43.45703125,0.0
218.0078125,-33.203125,-36.1328125,-22.94921875,-39.55078125,-50.78125,0.0
218.01171875,-36.62109375,-38.57421875,-21.97265625,-34.66796875,-61.5234375,0.0
218.015625,-49.8046875,-46.875,-27.83203125,-41.50390625,-83.0078125,0.0
218.01953125,-51.26953125,-49.31640625,-33.203125,-47.8515625,-45.8984375,0.0
218.0234375,-36.62109375,-40.52734375,-29.296875,-37.59765625,7.32421875,0.0
218.02734375,-9.765625,-19.04296875,3.90625,-11.71875,7.32421875,0.0
218.03125,-20.01953125,-22.94921875,-1.953125,-16.11328125,-32.2265625,0.0
218.03515625,-47.8515625,-43.9453125,-33.203125,-40.0390625,-89.35546875,0.0
218.0390625,-45.41015625,-42.96875,-33.69140625,-43.45703125,-83.49609375,0.0
218.04296875,-31.25,-35.15625,-25.390625,-33.203125,-90.33203125,0.0
218.046875,-23.92578125,-35.15625,-24.4140625,-28.80859375,-3.41796875,0.0
218.05078125,-29.296875,-39.55078125,-28.80859375,-27.83203125,10.7421875,0.0
218.0546875,-39.0625,-41.015625,-25.87890625,-34.1796875,-96.19140625,0.0
218.05859375,-39.0625,-45.8984375,-23.92578125,-39.55078125,-86.9140625,0.0
218.0625,-28.80859375,-42.96875,-34.1796875,-31.73828125,26.85546875,0.0
218.06640625,-23.4375,-32.2265625,-35.15625,-19.53125,126.46484375,0.0
218.0703125,-24.4140625,-28.3203125,-10.7421875,-16.11328125,87.40234375,0.0
218.07421875,-41.015625,-39.55078125,-11.23046875,-26.3671875,-31.73828125,0.0
218.078125,-45.8984375,-41.50390625,-26.85546875,-32.71484375,-67.3828125,0.0
218.08203125,-28.3203125,-35.64453125,-25.87890625,-25.390625,-25.390625,0.0
218.0859375,-26.3671875,-37.59765625,-26.3671875,-25.390625,25.390625,0.0
218.08984375,-33.69140625,-36.1328125,-24.90234375,-26.3671875,29.296875,0.0
218.09375,-39.55078125,-37.59765625,-29.78515625,-27.83203125,-51.7578125,0.0
218.09765625,-40.52734375,-44.921875,-34.66796875,-37.109375,-148.92578125,0.0
218.1015625,-43.9453125,-50.29296875,-38.57421875,-46.875,-116.2109375,0.0
218.10546875,-38.0859375,-41.50390625,-33.69140625,-40.0390625,23.92578125,0.0
218.109375,-34.1796875,-32.2265625,-28.3203125,-34.1796875,16.11328125,0.0
218.11328125,-50.78125,-37.59765625,-33.203125,-42.96875,-29.296875,0.0
218.1171875,-69.82421875,-52.24609375,-23.4375,-56.640625,-123.53515625,0.0
218.12109375,-59.5703125,-49.31640625,-20.99609375,-51.7578125,-203.125,0.0
218.125,-39.0625,-34.66796875,-24.90234375,-34.66796875,-136.23046875,0.0
218.12890625,-39.55078125,-32.2265625,-24.90234375,-24.4140625,-34.1796875,0.0
218.1328125,-51.26953125,-36.1328125,-29.78515625,-31.73828125,-68.359375,0.0
218.13671875,-60.546875,-41.50390625,-36.1328125,-47.36328125,-126.46484375,0.0
218.140625,-51.7578125,-40.52734375,-36.1328125,-46.875,-42.48046875,0.0
218.14453125,-38.0859375,-34.1796875,-31.73828125,-39.0625,77.1484375,0.0
218.1484375,-35.64453125,-36.1328125,-32.71484375,-39.0625,49.31640625,0.0
218.15234375,-41.9921875,-38.57421875,-31.25,-41.015625,-45.41015625,0.0
218.15625,-51.26953125,-41.015625,-34.1796875,-45.8984375,-80.078125,0.0
218.16015625,-45.41015625,-40.52734375,-33.69140625,-48.33984375,-31.25,0.0
218.1640625,-36.1328125,-38.0859375,-31.25,-45.8984375,22.94921875,0.0
218.16796875,-34.66796875,-35.15625,-30.2734375,-39.0625,24.4140625,0.0
218.171875,-41.015625,-34.66796875,-29.296875,-39.0625,-8.7890625,0.0
218.17578125,-49.31640625,-42.48046875,-23.92578125,-48.33984375,-12.20703125,0.0
218.1796875,-48.33984375,-45.41015625,-24.90234375,-51.26953125,-11.71875,0.0
218.18359375,-40.52734375,-42.96875,-35.64453125,-47.36328125,47.8515625,0.0
218.1875,-31.73828125,-40.0390625,-32.71484375,-41.015625,65.91796875,0.0
218.19140625,-40.0390625,-39.0625,-32.2265625,-40.0390625,43.9453125,0.0
218.1953125,-50.29296875,-44.43359375,-35.15625,-43.45703125,4.8828125,0.0
218.19921875,-43.45703125,-43.45703125,-32.71484375,-47.8515625,-93.26171875,0.0
218.203125,-35.15625,-38.0859375,-25.390625,-46.875,-43.9453125,0.0
218.20703125,-28.80859375,-35.15625,-2.9296875,-36.1328125,-2.44140625,0.0
218.2109375,-36.62109375,-37.109375,-12.20703125,-34.66796875,-76.171875,0.0
218.21484375,-51.26953125,-48.33984375,-35.15625,-45.41015625,-91.796875,0.0
218.21875,-50.78125,-50.78125,-34.66796875,-51.7578125,-94.23828125,0.0
218.22265625,-35.15625,-41.015625,-15.625,-44.921875,-98.14453125,0.0
218.2265625,-25.87890625,-35.64453125,-25.87890625,-34.1796875,-12.20703125,0.0
218.23046875,-30.2734375,-33.203125,-34.1796875,-37.59765625,-6.8359375,0.0
218.234375,-36.62109375,-31.25,-27.83203125,-38.57421875,-138.671875,0.0
218.23828125,-40.52734375,-35.15625,-30.76171875,-38.0859375,-161.62109375,0.0
218.2421875,-31.25,-33.69140625,-31.25,-34.1796875,-51.7578125,0.0
218.24609375,-24.4140625,-25.87890625,-22.94921875,-20.99609375,-14.6484375,0.0
218.25,-30.76171875,-28.80859375,-17.08984375,-14.6484375,-26.85546875,0.0
218.25390625,-40.52734375,-40.52734375,-25.87890625,-24.90234375,36.1328125,0.0
218.2578125,-43.9453125,-45.8984375,-29.78515625,-34.1796875,-4.39453125,0.0
218.26171875,-33.69140625,-39.55078125,-25.87890625,-27.34375,-17.08984375,0.0
218.265625,-23.92578125,-35.64453125,-10.7421875,-25.87890625,83.0078125,0.0
218.26953125,-32.71484375,-42.96875,-8.7890625,-28.80859375,45.41015625,0.0
218.2734375,-45.41015625,-44.921875,-28.3203125,-30.2734375,-15.13671875,0.0
218.27734375,-47.36328125,-44.921875,-34.66796875,-42.48046875,-44.921875,0.0
218.28125,-39.55078125,-43.9453125,-35.64453125,-42.48046875,-104.00390625,0.0
218.28515625,-29.296875,-38.57421875,-31.25,-29.296875,-45.41015625,0.0
218.2890625,-28.3203125,-34.1796875,-23.4375,-20.5078125,37.109375,0.0
218.29296875,-38.0859375,-35.15625,-21.484375,-24.90234375,-39.55078125,0.0
218.296875,-44.43359375,-39.55078125,-23.92578125,-34.1796875,-102.05078125,0.0
218.30078125,-40.52734375,-43.9453125,-27.83203125,-42.48046875,-81.0546875,0.0
218.3046875,-37.59765625,-37.59765625,-28.80859375,-38.0859375,-30.76171875,0.0
218.30859375,-34.1796875,-31.73828125,-20.5078125,-27.34375,47.36328125,0.0
218.3125,-42.96875,-40.0390625,-3.41796875,-31.73828125,36.62109375,0.0
218.31640625,-50.29296875,-42.96875,-15.13671875,-37.59765625,-39.0625,0.0
218.3203125,-39.55078125,-33.69140625,-28.80859375,-28.80859375,-80.078125,0.0
218.32421875,-35.15625,-31.73828125,-20.99609375,-26.3671875,-35.15625,0.0
218.328125,-36.1328125,-30.2734375,-20.01953125,-24.90234375,7.8125,0.0
218.33203125,-39.0625,-32.71484375,-28.3203125,-22.94921875,8.30078125,0.0
218.3359375,-44.921875,-40.0390625,-28.80859375,-29.78515625,-30.76171875,0.0
218.33984375,-46.38671875,-40.0390625,-30.2734375,-35.15625,-73.73046875,0.0
218.34375,-42.48046875,-37.59765625,-33.203125,-41.015625,30.2734375,0.0
218.34765625,-41.015625,-34.66796875,-29.296875,-37.59765625,52.734375,0.0
218.3515625,-45.41015625,-30.2734375,-31.25,-35.64453125,-41.9921875,0.0
218.35546875,-55.6640625,-41.9921875,-32.2265625,-44.43359375,-85.9375,0.0
218.359375,-51.7578125,-48.33984375,-28.3203125,-49.31640625,-95.21484375,0.0
218.36328125,-31.73828125,-32.71484375,-26.3671875,-33.69140625,-14.6484375,0.0
218.3671875,-23.4375,-25.390625,-20.01953125,-18.5546875,-13.18359375,0.0
218.37109375,-27.83203125,-28.80859375,-20.5078125,-20.01953125,-104.98046875,0.0
218.375,-38.0859375,-37.59765625,-25.390625,-24.4140625,-151.3671875,0.0
218.37890625,-41.9921875,-40.52734375,-26.85546875,-31.25,-138.671875,0.0
218.3828125,-26.85546875,-34.1796875,-20.01953125,-26.85546875,-47.36328125,0.0
218.38671875,-20.5078125,-25.390625,-10.25390625,-18.5546875,68.359375,0.0
218.390625,-21.97265625,-21.97265625,-12.6953125,-14.6484375,20.5078125,0.0
218.39453125,-28.3203125,-27.34375,-19.53125,-19.53125,-53.7109375,0.0
218.3984375,-34.66796875,-30.2734375,-22.4609375,-26.3671875,-134.27734375,0.0
218.40234375,-24.90234375,-31.25,-7.32421875,-23.4375,-167.96875,0.0
218.40625,-17.578125,-27.83203125,-8.7890625,-18.5546875,-21.97265625,0.0
218.41015625,-20.5078125,-23.4375,-20.01953125,-15.625,8.7890625,0.0
218.4140625,-31.73828125,-31.25,-20.01953125,-23.4375,-74.70703125,0.0
218.41796875,-37.109375,-37.109375,-25.390625,-32.2265625,-81.54296875,0.0
218.421875,-30.2734375,-37.109375,-29.296875,-33.69140625,-14.6484375,0.0
218.42578125,-22.4609375,-33.69140625,-24.4140625,-26.85546875,89.84375,0.0
218.4296875,-26.3671875,-32.2265625,-20.01953125,-22.4609375,8.30078125,0.0
218.43359375,-37.59765625,-36.1328125,-23.92578125,-27.83203125,-111.328125,0.0
218.4375,-45.41015625,-47.8515625,-29.296875,-33.203125,-144.04296875,0.0
218.44140625,-39.0625,-46.38671875,-28.80859375,-31.73828125,-122.55859375,0.0
218.4453125,-35.64453125,-42.96875,-23.92578125,-27.34375,22.94921875,0.0
218.44921875,-38.0859375,-51.7578125,-21.484375,-32.2265625,13.18359375,0.0
218.453125,-31.73828125,-39.0625,-22.94921875,-23.4375,-7.32421875,0.0
218.45703125,-33.69140625,-34.66796875,-25.87890625,-22.4609375,38.0859375,0.0
218.4609375,-29.78515625,-40.0390625,-24.90234375,-28.80859375,-4.39453125,0.0
218.46484375,-21.97265625,-40.0390625,-25.87890625,-24.90234375,-5.859375,0.0
218.46875,-21.484375,-32.2265625,-25.390625,-21.97265625,-2.9296875,0.0
218.47265625,-32.71484375,-30.76171875,-24.90234375,-25.390625,-100.09765625,0.0
218.4765625,-41.9921875,-36.1328125,-26.85546875,-34.66796875,-103.02734375,0.0
218.48046875,-36.1328125,-33.69140625,-29.78515625,-41.015625,40.0390625,0.0
218.484375,-22.94921875,-25.87890625,-31.25,-36.1328125,98.14453125,0.0
218.48828125,-24.4140625,-24.90234375,-29.296875,-27.83203125,36.62109375,0.0
218.4921875,-45.41015625,-39.55078125,-20.01953125,-32.2265625,-62.01171875,0.0
218.49609375,-55.6640625,-54.19921875,-22.4609375,-45.8984375,-110.83984375,0.0
218.5,-43.9453125,-48.828125,-36.62109375,-47.36328125,-45.8984375,0.0
218.50390625,-29.78515625,-37.59765625,-38.57421875,-38.57421875,23.92578125,0.0
218.5078125,-24.4140625,-27.83203125,-34.66796875,-24.90234375,-22.4609375,0.0
218.51171875,-29.78515625,-22.4609375,-32.71484375,-21.97265625,-58.10546875,0.0
218.515625,-34.66796875,-27.34375,-34.1796875,-33.203125,-78.125,0.0
218.51953125,-37.109375,-33.203125,-36.62109375,-43.9453125,-41.50390625,0.0
218.5234375,-30.76171875,-30.76171875,-35.64453125,-39.0625,55.17578125,0.0
218.52734375,-22.94921875,-25.390625,-36.1328125,-32.2265625,62.01171875,0.0
218.53125,-34.1796875,-28.3203125,-39.55078125,-36.1328125,-18.06640625,0.0
218.53515625,-46.38671875,-36.1328125,-34.1796875,-46.38671875,-129.8828125,0.0
218.5390625,-46.38671875,-40.52734375,-37.59765625,-52.734375,-186.03515625,0.0
218.54296875,-31.25,-36.62109375,-41.015625,-44.921875,-91.30859375,0.0
218.546875,-18.5546875,-26.3671875,-34.1796875,-35.15625,8.7890625,0.0
218.55078125,-32.2265625,-38.0859375,-26.85546875,-41.50390625,-38.0859375,0.0
218.5546875,-42.96875,-40.0390625,-30.2734375,-53.22265625,-110.3515625,0.0
218.55859375,-42.48046875,-32.71484375,-39.55078125,-57.6171875,-100.5859375,0.0
218.5625,-33.69140625,-31.73828125,-36.1328125,-53.22265625,-41.015625,0.0
218.56640625,-21.97265625,-23.4375,-24.4140625,-35.64453125,42.48046875,0.0
218.5703125,-29.296875,-26.85546875,-22.4609375,-26.85546875,51.26953125,0.0
218.57421875,-38.57421875,-30.2734375,-25.87890625,-27.34375,-106.93359375,0.0
218.578125,-39.0625,-32.71484375,-27.83203125,-36.62109375,-229.4921875,0.0
218.58203125,-36.1328125,-41.50390625,-19.04296875,-47.36328125,-128.90625,0.0
218.5859375,-22.4609375,-30.76171875,-22.4609375,-29.296875,-34.1796875,0.0
218.58984375,-16.11328125,-20.99609375,-30.2734375,-20.5078125,-44.921875,0.0
218.59375,-27.34375,-30.76171875,-26.85546875,-31.73828125,-24.90234375,0.0
218.59765625,-36.62109375,-38.0859375,-26.3671875,-40.52734375,-43.45703125,0.0
218.6015625,-23.92578125,-34.66796875,-28.80859375,-39.55078125,8.30078125,0.0
218.60546875,-12.6953125,-24.4140625,-25.390625,-20.99609375,91.796875,0.0
218.609375,-13.671875,-19.53125,-24.90234375,-11.23046875,79.58984375,0.0
218.61328125,-24.4140625,-27.34375,-31.73828125,-22.94921875,2.9296875,0.0
218.6171875,-25.87890625,-31.25,-36.62109375,-27.83203125,-48.828125,0.0
218.62109375,-20.99609375,-37.109375,-38.0859375,-34.1796875,-65.4296875,0.0
218.625,-13.18359375,-32.71484375,-32.2265625,-33.69140625,-23.92578125,0.0
218.62890625,-12.20703125,-22.94921875,-27.83203125,-29.296875,0.48828125,0.0
218.6328125,-27.34375,-30.2734375,-29.78515625,-31.25,-29.78515625,0.0
218.63671875,-35.64453125,-38.57421875,-31.25,-36.1328125,-68.84765625,0.0
218.640625,-40.0390625,-50.78125,-29.78515625,-49.8046875,-61.5234375,0.0
218.64453125,-28.80859375,-46.875,-25.87890625,-46.875,-22.94921875,0.0
218.6484375,-13.18359375,-29.296875,-21.484375,-31.73828125,-40.0390625,0.0
218.65234375,-19.53125,-29.78515625,-24.4140625,-29.296875,-129.39453125,0.0
218.65625,-29.296875,-39.0625,-29.78515625,-41.015625,-150.390625,0.0
218.66015625,-24.90234375,-37.59765625,-27.83203125,-45.8984375,-73.73046875,0.0
218.6640625,-19.53125,-27.34375,-25.87890625,-33.203125,14.6484375,0.0
218.66796875,-27.83203125,-27.34375,-23.4375,-24.90234375,79.58984375,0.0
218.671875,-52.24609375,-40.0390625,-24.4140625,-37.109375,33.203125,0.0
218.67578125,-63.96484375,-42.48046875,-34.1796875,-43.9453125,-68.84765625,0.0
218.6796875,-53.22265625,-37.59765625,-33.203125,-34.1796875,-78.61328125,0.0
218.68359375,-40.52734375,-34.66796875,-25.390625,-24.90234375,-3.41796875,0.0
218.6875,-43.45703125,-43.9453125,-21.97265625,-27.83203125,22.94921875,0.0
218.69140625,-45.8984375,-40.52734375,-26.3671875,-24.90234375,16.11328125,0.0
218.6953125,-46.875,-39.0625,-31.25,-30.2734375,-21.484375,0.0
218.69921875,-47.36328125,-43.45703125,-33.203125,-38.0859375,-15.625,0.0
218.703125,-34.66796875,-33.203125,-30.2734375,-31.25,36.1328125,0.0
218.70703125,-27.34375,-24.4140625,-26.3671875,-24.4140625,10.25390625,0.0
218.7109375,-31.25,-23.92578125,-24.4140625,-20.01953125,-14.6484375,0.0
218.71484375,-44.921875,-36.1328125,-21.97265625,-25.87890625,-63.4765625,0.0
218.71875,-44.921875,-41.50390625,-25.390625,-33.203125,-60.546875,0.0
218.72265625,-29.78515625,-28.80859375,-26.85546875,-27.34375,-44.43359375,0.0
218.7265625,-22.4609375,-21.484375,-21.484375,-16.6015625,-56.15234375,0.0
218.73046875,-24.4140625,-25.87890625,-13.18359375,-15.625,-53.7109375,0.0
218.734375,-33.203125,-32.2265625,-20.01953125,-28.3203125,-52.734375,0.0
218.73828125,-37.59765625,-35.15625,-37.59765625,-43.9453125,-13.671875,0.0
218.7421875,-34.66796875,-34.66796875,-40.0390625,-50.29296875,28.80859375,0.0
218.74609375,-20.01953125,-25.390625,-32.2265625,-39.55078125,20.99609375,0.0
218.75,-16.11328125,-16.11328125,-29.296875,-22.94921875,-10.7421875,0.0
218.75390625,-31.25,-22.94921875,-38.57421875,-28.80859375,-0.9765625,0.0
218.7578125,-36.62109375,-29.78515625,-41.50390625,-37.59765625,-8.7890625,0.0
218.76171875,-36.1328125,-27.83203125,-35.64453125,-31.25,-7.8125,0.0
218.765625,-32.2265625,-20.01953125,-29.296875,-22.94921875,73.73046875,0.0
218.76953125,-34.66796875,-20.5078125,-29.296875,-24.90234375,54.19921875,0.0
218.7734375,-46.38671875,-28.3203125,-34.66796875,-31.25,-67.87109375,0.0
218.77734375,-34.66796875,-22.94921875,-12.20703125,-22.4609375,-134.27734375,0.0
218.78125,-24.4140625,-22.4609375,-2.44140625,-22.94921875,-115.72265625,0.0
218.78515625,-29.78515625,-27.34375,-31.73828125,-29.78515625,-21.484375,0.0
218.7890625,-26.3671875,-22.4609375,-35.64453125,-25.390625,24.90234375,0.0
218.79296875,-30.2734375,-29.78515625,-35.15625,-32.71484375,-44.921875,0.0
218.796875,-38.57421875,-38.57421875,-48.33984375,-47.8515625,-155.76171875,0.0
218.80078125,-36.1328125,-34.66796875,-51.26953125,-51.7578125,-171.38671875,0.0
218.8046875,-24.90234375,-23.92578125,-40.0390625,-41.015625,-62.01171875,0.0
218.80859375,-23.92578125,-20.99609375,-31.25,-29.296875,-20.99609375,0.0
218.8125,-36.62109375,-25.87890625,-32.2265625,-34.1796875,-33.69140625,0.0
218.81640625,-47.36328125,-35.15625,-43.45703125,-52.24609375,-42.48046875,0.0
218.8203125,-18.06640625,-20.99609375,-11.23046875,-33.203125,-56.640625,0.0
218.82421875,13.18359375,4.8828125,19.04296875,-3.90625,-80.56640625,0.0
218.828125,-10.25390625,-16.6015625,-24.4140625,-22.4609375,-74.21875,0.0
218.83203125,-27.34375,-33.69140625,-38.0859375,-36.62109375,-85.9375,0.0
218.8359375,-33.69140625,-34.66796875,-32.2265625,-41.015625,-129.8828125,0.0
218.83984375,-34.1796875,-36.1328125,-40.0390625,-45.41015625,-98.14453125,0.0
218.84375,-23.4375,-28.3203125,-37.109375,-39.0625,43.9453125,0.0
218.84765625,-22.94921875,-25.390625,-33.203125,-30.2734375,26.85546875,0.0
218.8515625,-28.3203125,-29.296875,-31.73828125,-30.76171875,-102.05078125,0.0
218.85546875,-37.59765625,-32.71484375,-35.15625,-42.48046875,-55.6640625,0.0
218.859375,-37.109375,-28.80859375,-33.203125,-52.734375,-75.1953125,0.0
218.86328125,-30.2734375,-27.83203125,-31.25,-43.45703125,-114.74609375,0.0
218.8671875,-34.66796875,-36.62109375,-26.3671875,-38.57421875,41.9921875,0.0
218.87109375,-36.1328125,-30.76171875,-25.87890625,-32.71484375,106.4453125,0.0
218.875,-36.1328125,-28.3203125,-33.69140625,-30.76171875,-60.546875,0.0
218.87890625,-30.76171875,-32.71484375,-33.203125,-34.66796875,-105.46875,0.0
218.8828125,-14.6484375,-26.85546875,-26.85546875,-31.25,16.11328125,0.0
218.88671875,-15.625,-29.78515625,-27.34375,-26.85546875,73.2421875,0.0
218.890625,-25.390625,-34.1796875,-27.34375,-26.85546875,77.1484375,0.0
218.89453125,-39.55078125,-40.0390625,-35.15625,-39.0625,15.625,0.0
218.8984375,-47.8515625,-43.45703125,-41.015625,-47.36328125,41.015625,0.0
218.90234375,-35.15625,-32.2265625,-32.71484375,-37.59765625,200.68359375,0.0
218.90625,-25.390625,-28.80859375,-30.2734375,-30.2734375,161.62109375,0.0
218.91015625,-22.4609375,-25.87890625,-16.11328125,-18.06640625,-93.26171875,0.0
218.9140625,-28.80859375,-28.3203125,-16.6015625,-18.5546875,-143.5546875,0.0
218.91796875,-41.015625,-40.52734375,-38.0859375,-40.52734375,-76.171875,0.0
218.921875,-31.25,-34.66796875,-37.59765625,-43.45703125,-4.8828125,0.0
218.92578125,-9.27734375,-20.01953125,-18.5546875,-26.3671875,39.55078125,0.0
218.9296875,-21.484375,-27.34375,-27.83203125,-25.87890625,-28.3203125,0.0
218.93359375,-45.41015625,-36.62109375,-45.41015625,-37.59765625,-154.296875,0.0
218.9375,-44.43359375,-31.25,-39.55078125,-39.55078125,-159.66796875,0.0
218.94140625,-25.390625,-20.99609375,-21.484375,-27.83203125,-105.95703125,0.0
218.9453125,-22.4609375,-26.3671875,-26.85546875,-27.34375,-17.08984375,0.0
218.94921875,-27.83203125,-27.83203125,-37.59765625,-36.1328125,35.15625,0.0
218.953125,-39.0625,-25.87890625,-32.71484375,-39.0625,-45.41015625,0.0
218.95703125,-37.109375,-21.97265625,-12.20703125,-32.2265625,-56.15234375,0.0
218.9609375,-38.0859375,-30.76171875,-29.78515625,-43.45703125,-44.43359375,0.0
218.96484375,-39.55078125,-37.109375,-45.8984375,-45.41015625,9.765625,0.0
218.96875,-26.3671875,-23.4375,-23.92578125,-30.76171875,70.3125,0.0
218.97265625,-25.87890625,-17.578125,-8.30078125,-20.99609375,40.52734375,0.0
218.9765625,-44.921875,-33.203125,-32.2265625,-40.52734375,-15.625,0.0
218.98046875,-44.43359375,-34.1796875,-41.015625,-45.8984375,-16.6015625,0.0
218.984375,-35.15625,-31.25,-36.1328125,-35.64453125,-48.828125,0.0
218.98828125,-38.0859375,-31.73828125,-37.59765625,-31.73828125,-68.84765625,0.0
218.9921875,-50.29296875,-33.203125,-40.52734375,-31.25,-44.43359375,0.0
218.99609375,-58.10546875,-43.9453125,-46.38671875,-42.96875,-101.5625,0.0
219.0,-46.875,-36.62109375,-33.203125,-42.96875,-149.4140625,0.0
219.00390625,-38.57421875,-27.83203125,-28.80859375,-39.0625,-75.68359375,0.0
219.0078125,-38.0859375,-23.4375,-37.109375,-37.109375,-23.4375,0.0
219.01171875,-51.26953125,-30.76171875,-41.50390625,-42.96875,-21.97265625,0.0
219.015625,-50.29296875,-33.203125,-25.390625,-42.96875,-136.23046875,0.0
219.01953125,-41.50390625,-31.73828125,-21.97265625,-42.48046875,-147.94921875,0.0
219.0234375,-39.55078125,-35.15625,-43.9453125,-47.8515625,-33.203125,0.0
219.02734375,-27.83203125,-29.296875,-40.52734375,-35.15625,-2.44140625,0.0
219.03125,-31.73828125,-27.34375,-41.9921875,-35.15625,-66.89453125,0.0
219.03515625,-41.9921875,-32.2265625,-47.36328125,-45.8984375,-51.7578125,0.0
219.0390625,-40.52734375,-37.109375,-46.38671875,-51.7578125,-0.9765625,0.0
219.04296875,-31.73828125,-29.296875,-39.55078125,-46.38671875,-52.734375,0.0
219.046875,-24.90234375,-20.99609375,-32.2265625,-32.71484375,33.203125,0.0
219.05078125,-27.83203125,-22.94921875,-31.25,-28.80859375,57.6171875,0.0
219.0546875,-37.59765625,-27.83203125,-38.57421875,-33.69140625,-22.94921875,0.0
219.05859375,-38.57421875,-32.2265625,-41.9921875,-42.48046875,-104.98046875,0.0
219.0625,-3.41796875,-5.37109375,0.48828125,-15.13671875,-131.34765625,0.0
219.06640625,1.46484375,0.9765625,2.9296875,-6.8359375,-58.10546875,0.0
219.0703125,-33.203125,-27.34375,-35.64453125,-28.3203125,-28.80859375,0.0
219.07421875,-43.45703125,-35.15625,-37.109375,-33.203125,-67.87109375,0.0
219.078125,-42.96875,-35.15625,-37.109375,-42.48046875,-41.9921875,0.0
219.08203125,-36.1328125,-33.203125,-41.50390625,-42.96875,0.48828125,0.0
219.0859375,-30.76171875,-25.87890625,-38.57421875,-32.2265625,82.51953125,0.0
219.08984375,-35.64453125,-21.97265625,-36.1328125,-23.4375,84.47265625,0.0
219.09375,-40.52734375,-28.3203125,-37.109375,-27.83203125,-21.97265625,0.0
219.09765625,-47.36328125,-35.64453125,-39.55078125,-42.48046875,-41.015625,0.0
219.1015625,-38.0859375,-29.78515625,-35.15625,-40.0390625,-7.8125,0.0
219.10546875,-22.4609375,-18.5546875,-23.92578125,-22.4609375,-22.4609375,0.0
219.109375,-30.76171875,-21.484375,-27.83203125,-19.04296875,25.390625,0.0
219.11328125,-46.875,-38.0859375,-38.0859375,-32.71484375,-22.94921875,0.0
219.1171875,-55.17578125,-43.9453125,-43.45703125,-47.8515625,-66.89453125,0.0
219.12109375,-37.59765625,-25.87890625,-16.6015625,-28.3203125,-14.16015625,0.0
219.125,-23.92578125,-19.04296875,-8.7890625,-17.08984375,84.47265625,0.0
219.12890625,-38.0859375,-23.92578125,-29.296875,-36.1328125,54.19921875,0.0
219.1328125,-54.6875,-32.2265625,-35.64453125,-48.33984375,-75.68359375,0.0
219.13671875,-58.59375,-36.62109375,-41.015625,-50.78125,-163.57421875,0.0
219.140625,-51.26953125,-32.2265625,-44.921875,-49.31640625,-124.0234375,0.0
219.14453125,-39.0625,-24.4140625,-42.96875,-41.50390625,-38.0859375,0.0
219.1484375,-31.73828125,-19.04296875,-38.0859375,-32.71484375,20.99609375,0.0
219.15234375,-22.94921875,-12.6953125,-7.8125,-20.01953125,-70.3125,0.0
219.15625,-31.25,-19.04296875,-10.25390625,-27.83203125,-122.55859375,0.0
219.16015625,-45.8984375,-36.62109375,-43.9453125,-50.78125,-80.078125,0.0
219.1640625,-33.69140625,-31.73828125,-40.52734375,-47.8515625,-66.89453125,0.0
219.16796875,-24.90234375,-25.87890625,-31.25,-40.52734375,-94.23828125,0.0
219.171875,-34.1796875,-32.2265625,-36.62109375,-43.9453125,-89.84375,0.0
219.17578125,-42.96875,-37.109375,-43.45703125,-49.31640625,-34.66796875,0.0
219.1796875,-41.9921875,-37.109375,-45.8984375,-50.78125,-108.88671875,0.0
219.18359375,-27.34375,-30.2734375,-40.0390625,-43.45703125,-98.14453125,0.0
219.1875,-21.97265625,-29.78515625,-33.69140625,-33.203125,-42.48046875,0.0
