timestam,TP9,AF7,AF8,TP10,AUX,Marker
150.00390625,-47.36328125,-30.2734375,-29.296875,-41.015625,-53.7109375,0.0
150.0078125,-39.55078125,-23.4375,-17.08984375,-35.64453125,-137.6953125,0.0
150.01171875,-34.66796875,-25.390625,-16.6015625,-36.1328125,-132.8125,0.0
150.015625,-37.59765625,-29.296875,-35.64453125,-42.48046875,-3.41796875,0.0
150.01953125,-29.296875,-27.34375,-32.2265625,-31.25,1.953125,0.0
150.0234375,-35.64453125,-32.2265625,-31.25,-35.15625,-137.20703125,0.0
150.02734375,-44.43359375,-32.71484375,-35.64453125,-44.43359375,-125.9765625,0.0
150.03125,-42.96875,-42.48046875,-38.0859375,-47.8515625,-74.21875,0.0
150.03515625,-32.2265625,-44.43359375,-32.2265625,-44.921875,-114.74609375,0.0
150.0390625,-15.13671875,-28.3203125,-20.5078125,-24.90234375,-68.84765625,0.0
150.04296875,-21.484375,-24.4140625,-27.34375,-22.4609375,-39.0625,0.0
150.046875,-41.9921875,-35.64453125,-40.52734375,-42.48046875,-183.10546875,0.0
150.05078125,-43.9453125,-36.62109375,-37.109375,-48.33984375,-205.56640625,0.0
150.0546875,-18.06640625,-18.06640625,-1.953125,-27.34375,-61.03515625,0.0
150.05859375,-14.16015625,-11.23046875,3.90625,-21.484375,57.12890625,0.0
150.0625,-42.96875,-25.390625,-24.90234375,-37.59765625,67.87109375,0.0
150.06640625,-56.640625,-33.69140625,-33.69140625,-47.8515625,-54.6875,0.0
150.0703125,-59.5703125,-40.52734375,-36.1328125,-50.29296875,-81.54296875,0.0
150.07421875,-54.6875,-41.015625,-44.921875,-45.41015625,-74.21875,0.0
150.078125,-45.41015625,-37.59765625,-43.9453125,-41.9921875,-173.828125,0.0
150.08203125,-37.109375,-30.2734375,-32.2265625,-37.59765625,-170.8984375,0.0
150.0859375,-43.9453125,-32.2265625,-30.76171875,-44.921875,-82.03125,0.0
150.08984375,-54.6875,-46.38671875,-41.50390625,-52.24609375,-35.64453125,0.0
150.09375,-45.41015625,-43.9453125,-41.50390625,-48.828125,54.6875,0.0
150.09765625,-26.85546875,-24.90234375,-25.390625,-35.15625,109.375,0.0
150.1015625,-28.3203125,-23.92578125,-19.53125,-32.71484375,-8.30078125,0.0
150.10546875,-43.45703125,-39.0625,-31.25,-42.96875,-62.98828125,0.0
150.109375,-45.41015625,-42.48046875,-36.62109375,-46.875,-30.2734375,0.0
150.11328125,-40.0390625,-42.96875,-32.2265625,-48.33984375,-4.39453125,0.0
150.1171875,-31.73828125,-36.62109375,-27.83203125,-38.0859375,89.84375,0.0
150.12109375,-28.3203125,-31.25,-27.34375,-31.25,117.1875,0.0
150.125,-31.73828125,-32.2265625,-30.2734375,-31.25,-12.6953125,0.0
150.12890625,-36.62109375,-37.109375,-34.1796875,-40.52734375,-143.5546875,0.0
150.1328125,-38.57421875,-42.96875,-36.62109375,-43.45703125,-132.8125,0.0
150.13671875,-33.69140625,-38.57421875,-36.1328125,-32.71484375,12.20703125,0.0
150.140625,-28.80859375,-26.85546875,-34.1796875,-28.3203125,111.328125,0.0
150.14453125,-17.08984375,-12.6953125,0.48828125,-10.25390625,8.7890625,0.0
150.1484375,-26.85546875,-22.4609375,0.0,-16.6015625,-63.96484375,0.0
150.15234375,-44.43359375,-41.9921875,-37.59765625,-39.0625,-112.3046875,0.0
150.15625,-34.1796875,-33.69140625,-35.64453125,-31.73828125,-161.1328125,0.0
150.16015625,-30.76171875,-30.76171875,-32.71484375,-26.85546875,-96.19140625,0.0
150.1640625,-44.43359375,-40.52734375,-42.48046875,-39.0625,-68.359375,0.0
150.16796875,-47.36328125,-41.50390625,-41.015625,-40.52734375,-61.03515625,0.0
150.171875,-49.31640625,-41.9921875,-40.52734375,-44.43359375,-87.890625,0.0
150.17578125,-45.41015625,-37.109375,-38.57421875,-41.9921875,-18.06640625,0.0
150.1796875,-39.0625,-31.73828125,-36.62109375,-32.2265625,74.70703125,0.0
150.18359375,-47.36328125,-36.1328125,-40.52734375,-35.64453125,95.703125,0.0
150.1875,-50.78125,-41.015625,-37.109375,-39.0625,1.46484375,0.0
150.19140625,-49.31640625,-44.921875,-39.0625,-41.9921875,-119.140625,0.0
150.1953125,-43.45703125,-39.55078125,-44.921875,-43.45703125,23.92578125,0.0
150.19921875,-28.80859375,-26.85546875,-39.0625,-38.0859375,88.8671875,0.0
150.203125,-15.625,-10.25390625,-14.6484375,-21.484375,-69.82421875,0.0
150.20703125,-17.08984375,-11.23046875,-3.90625,-12.20703125,-147.94921875,0.0
150.2109375,-37.109375,-36.1328125,-30.76171875,-34.1796875,-184.08203125,0.0
150.21484375,-32.71484375,-35.15625,-35.64453125,-39.0625,-117.67578125,0.0
150.21875,-18.5546875,-25.87890625,-28.80859375,-25.87890625,26.85546875,0.0
150.22265625,-23.92578125,-24.4140625,-30.2734375,-26.85546875,94.23828125,0.0
150.2265625,-38.0859375,-32.2265625,-36.1328125,-36.1328125,38.57421875,0.0
150.23046875,-37.59765625,-39.0625,-34.1796875,-41.50390625,-6.34765625,0.0
150.234375,-28.3203125,-34.1796875,-26.3671875,-37.59765625,-1.953125,0.0
150.23828125,-20.5078125,-27.34375,-25.390625,-27.34375,36.1328125,0.0
150.2421875,-23.4375,-27.83203125,-34.66796875,-32.2265625,-17.08984375,0.0
150.24609375,-32.2265625,-28.3203125,-31.25,-34.66796875,-142.578125,0.0
150.25,-8.7890625,-4.39453125,12.6953125,-11.23046875,-193.359375,0.0
150.25390625,-8.7890625,-10.7421875,3.41796875,-21.97265625,-124.0234375,0.0
150.2578125,-28.3203125,-31.73828125,-29.78515625,-35.15625,-23.4375,0.0
150.26171875,-34.1796875,-32.71484375,-27.34375,-32.71484375,33.69140625,0.0
150.265625,-43.45703125,-41.015625,-36.1328125,-42.96875,2.44140625,0.0
150.26953125,-50.29296875,-44.921875,-46.38671875,-50.29296875,-13.18359375,0.0
150.2734375,-47.8515625,-39.0625,-45.8984375,-50.78125,6.8359375,0.0
150.27734375,-29.78515625,-25.390625,-32.2265625,-39.0625,-6.8359375,0.0
150.28125,-24.90234375,-18.5546875,-23.4375,-30.76171875,22.4609375,0.0
150.28515625,-32.71484375,-23.92578125,-32.71484375,-33.69140625,-24.4140625,0.0
150.2890625,-34.66796875,-26.85546875,-36.62109375,-43.45703125,-72.75390625,0.0
150.29296875,-18.5546875,-16.6015625,-15.625,-34.1796875,-53.7109375,0.0
150.296875,-6.8359375,-15.13671875,-14.6484375,-27.34375,46.38671875,0.0
150.30078125,-19.53125,-26.3671875,-38.0859375,-33.69140625,114.74609375,0.0
150.3046875,-32.71484375,-32.2265625,-37.59765625,-39.0625,-56.15234375,0.0
150.30859375,-32.71484375,-33.203125,-24.4140625,-39.55078125,-101.07421875,0.0
150.3125,-41.9921875,-39.55078125,-34.66796875,-39.0625,-49.31640625,0.0
150.31640625,-37.109375,-32.2265625,-34.66796875,-30.76171875,-19.53125,0.0
150.3203125,-34.1796875,-29.296875,-28.3203125,-23.92578125,-13.671875,0.0
150.32421875,-42.48046875,-30.76171875,-31.73828125,-20.01953125,-50.29296875,0.0
150.328125,-47.36328125,-32.2265625,-34.66796875,-26.85546875,-114.74609375,0.0
150.33203125,-49.8046875,-41.9921875,-43.45703125,-37.109375,-27.83203125,0.0
150.3359375,-34.1796875,-33.69140625,-36.1328125,-24.4140625,39.0625,0.0
150.33984375,-10.25390625,-7.8125,-3.41796875,1.46484375,1.46484375,0.0
150.34375,-21.97265625,-14.16015625,-16.11328125,-11.71875,-2.44140625,0.0
150.34765625,-43.9453125,-33.69140625,-42.48046875,-35.15625,-48.33984375,0.0
150.3515625,-41.50390625,-30.76171875,-40.52734375,-34.66796875,-82.51953125,0.0
150.35546875,-30.76171875,-26.85546875,-36.62109375,-35.64453125,48.33984375,0.0
150.359375,-33.203125,-27.34375,-40.0390625,-35.64453125,72.75390625,0.0
150.36328125,-44.43359375,-29.296875,-43.9453125,-34.1796875,13.671875,0.0
150.3671875,-45.41015625,-26.3671875,-25.87890625,-36.1328125,-33.69140625,0.0
150.37109375,-43.9453125,-28.80859375,-25.390625,-42.96875,-1.46484375,0.0
150.375,-39.55078125,-29.78515625,-37.109375,-44.43359375,14.6484375,0.0
150.37890625,-36.62109375,-26.3671875,-34.66796875,-40.0390625,-31.25,0.0
150.3828125,-21.97265625,-13.671875,-9.765625,-16.6015625,-66.40625,0.0
150.38671875,-32.2265625,-18.5546875,-16.11328125,-20.5078125,-102.05078125,0.0
150.390625,-50.78125,-36.1328125,-45.41015625,-46.38671875,-49.8046875,0.0
150.39453125,-41.015625,-33.203125,-41.015625,-45.41015625,-44.921875,0.0
150.3984375,-34.66796875,-30.2734375,-35.64453125,-40.52734375,-61.5234375,0.0
150.40234375,-38.57421875,-27.34375,-36.62109375,-37.109375,-5.859375,0.0
150.40625,-51.7578125,-35.15625,-39.55078125,-40.52734375,-72.75390625,0.0
150.41015625,-55.17578125,-43.9453125,-42.48046875,-54.19921875,-181.15234375,0.0
150.4140625,-43.9453125,-37.109375,-42.96875,-54.6875,-130.37109375,0.0
150.41796875,-36.1328125,-34.1796875,-41.015625,-41.015625,-0.9765625,0.0
150.421875,-37.109375,-32.71484375,-34.1796875,-29.296875,47.36328125,0.0
150.42578125,-43.9453125,-36.62109375,-35.64453125,-36.1328125,-58.59375,0.0
150.4296875,-40.0390625,-39.0625,-17.578125,-38.0859375,-163.0859375,0.0
150.43359375,-28.80859375,-30.76171875,-7.32421875,-27.83203125,-70.3125,0.0
150.4375,-31.73828125,-31.25,-30.76171875,-35.15625,16.11328125,0.0
150.44140625,-32.71484375,-29.296875,-33.69140625,-33.69140625,-34.1796875,0.0
150.4453125,-38.57421875,-29.296875,-35.64453125,-37.109375,-77.1484375,0.0
150.44921875,-42.96875,-37.59765625,-41.50390625,-44.921875,-76.66015625,0.0
150.453125,-33.69140625,-35.15625,-39.55078125,-43.9453125,4.8828125,0.0
150.45703125,-25.390625,-30.76171875,-34.1796875,-35.15625,46.875,0.0
150.4609375,-25.87890625,-30.2734375,-28.3203125,-29.296875,41.50390625,0.0
150.46484375,-40.0390625,-39.55078125,-34.1796875,-34.1796875,-7.32421875,0.0
150.46875,-53.7109375,-44.921875,-39.0625,-40.0390625,-34.1796875,0.0
150.47265625,-47.36328125,-43.9453125,-37.109375,-42.48046875,12.20703125,0.0
150.4765625,-28.80859375,-41.50390625,-32.2265625,-32.2265625,60.05859375,0.0
150.48046875,-24.90234375,-32.71484375,-29.78515625,-24.4140625,96.6796875,0.0
150.484375,-34.1796875,-32.2265625,-28.3203125,-23.4375,103.515625,0.0
150.48828125,-36.62109375,-33.69140625,-18.06640625,-18.06640625,-3.41796875,0.0
150.4921875,-30.2734375,-32.71484375,-26.85546875,-18.5546875,-72.75390625,0.0
150.49609375,-18.5546875,-27.83203125,-31.73828125,-16.11328125,-9.27734375,0.0
150.5,-16.11328125,-25.390625,-26.3671875,-15.625,-16.11328125,0.0
150.50390625,-27.83203125,-29.296875,-28.3203125,-27.34375,-42.96875,0.0
150.5078125,-37.109375,-33.203125,-33.203125,-36.62109375,-84.9609375,0.0
150.51171875,-33.203125,-40.0390625,-40.0390625,-36.62109375,-125.48828125,0.0
150.515625,-15.13671875,-26.85546875,-25.390625,-19.04296875,-3.41796875,0.0
150.51953125,15.625,3.41796875,11.71875,11.71875,56.640625,0.0
150.5234375,-6.8359375,-11.23046875,-6.34765625,-6.8359375,-26.85546875,0.0
150.52734375,-43.9453125,-39.0625,-41.9921875,-42.96875,-83.0078125,0.0
150.53125,-34.66796875,-31.73828125,-31.73828125,-36.1328125,-126.46484375,0.0
150.53515625,0.9765625,-4.39453125,3.90625,-6.8359375,-51.7578125,0.0
150.5390625,-3.41796875,-11.71875,-14.6484375,-11.23046875,51.26953125,0.0
150.54296875,-22.94921875,-25.390625,-33.203125,-25.87890625,-50.29296875,0.0
150.546875,-37.109375,-33.203125,-31.73828125,-40.0390625,-137.6953125,0.0
150.55078125,-40.52734375,-40.52734375,-37.109375,-49.31640625,-110.83984375,0.0
150.5546875,-23.4375,-34.66796875,-32.2265625,-33.69140625,-109.86328125,0.0
150.55859375,-16.11328125,-26.3671875,-23.92578125,-23.92578125,35.64453125,0.0
150.5625,-21.97265625,-23.92578125,-24.90234375,-23.92578125,18.06640625,0.0
150.56640625,-33.203125,-31.73828125,-29.78515625,-27.83203125,-138.18359375,0.0
150.5703125,-36.62109375,-38.0859375,-31.25,-34.66796875,-165.0390625,0.0
150.57421875,-29.296875,-34.1796875,-32.71484375,-34.1796875,-93.26171875,0.0
150.578125,-16.11328125,-25.87890625,-14.6484375,-24.4140625,-7.8125,0.0
150.58203125,-16.11328125,-19.53125,-10.7421875,-18.06640625,-41.015625,0.0
150.5859375,-32.71484375,-28.3203125,-37.59765625,-32.2265625,-76.171875,0.0
150.58984375,-36.1328125,-31.73828125,-41.50390625,-40.52734375,-103.515625,0.0
150.59375,-30.2734375,-30.76171875,-30.76171875,-34.1796875,-138.671875,0.0
150.59765625,-26.85546875,-34.66796875,-33.203125,-26.3671875,-19.04296875,0.0
150.6015625,-24.4140625,-30.2734375,-33.69140625,-24.4140625,77.63671875,0.0
150.60546875,-34.1796875,-37.59765625,-36.62109375,-31.25,6.34765625,0.0
150.609375,-43.9453125,-39.55078125,-39.55078125,-38.0859375,-82.51953125,0.0
150.61328125,-39.0625,-35.15625,-43.45703125,-41.9921875,6.8359375,0.0
150.6171875,-33.203125,-35.15625,-46.875,-41.50390625,114.74609375,0.0
150.62109375,-22.4609375,-26.85546875,-31.73828125,-28.80859375,112.3046875,0.0
150.625,-9.27734375,-13.671875,6.34765625,-7.8125,-43.9453125,0.0
150.62890625,-36.62109375,-32.71484375,-19.04296875,-31.25,-123.046875,0.0
150.6328125,-53.7109375,-53.22265625,-52.734375,-58.10546875,-90.33203125,0.0
150.63671875,-36.1328125,-47.8515625,-39.0625,-43.45703125,-26.3671875,0.0
150.640625,-26.85546875,-36.62109375,-32.71484375,-31.25,56.640625,0.0
150.64453125,-41.50390625,-41.50390625,-41.9921875,-38.57421875,45.41015625,0.0
150.6484375,-50.78125,-49.8046875,-46.875,-42.48046875,58.59375,0.0
150.65234375,-34.1796875,-40.0390625,-30.76171875,-33.69140625,61.5234375,0.0
150.65625,-23.92578125,-34.66796875,-26.3671875,-26.3671875,20.5078125,0.0
150.66015625,-30.76171875,-33.203125,-32.71484375,-30.2734375,6.34765625,0.0
150.6640625,-43.45703125,-38.0859375,-38.57421875,-35.15625,36.1328125,0.0
150.66796875,-35.15625,-35.64453125,-16.11328125,-26.3671875,-11.23046875,0.0
150.671875,-25.87890625,-30.2734375,-14.6484375,-28.3203125,-64.94140625,0.0
150.67578125,-22.4609375,-28.80859375,-36.1328125,-39.55078125,7.32421875,0.0
150.6796875,-16.11328125,-22.94921875,-34.1796875,-29.296875,74.70703125,0.0
150.68359375,-23.92578125,-28.3203125,-33.69140625,-20.01953125,-65.4296875,0.0
150.6875,-35.64453125,-38.0859375,-39.55078125,-29.78515625,-281.25,0.0
150.69140625,-40.52734375,-41.50390625,-45.8984375,-36.1328125,-357.91015625,0.0
150.6953125,-27.83203125,-36.1328125,-40.0390625,-32.2265625,-313.96484375,0.0
150.69921875,-12.6953125,-24.90234375,-21.97265625,-19.04296875,-259.27734375,0.0
150.703125,-20.99609375,-26.3671875,-28.3203125,-19.53125,-167.96875,0.0
150.70703125,-37.59765625,-37.59765625,-40.52734375,-29.78515625,-61.5234375,0.0
150.7109375,-43.9453125,-39.55078125,-35.64453125,-38.0859375,-56.15234375,0.0
150.71484375,-10.25390625,-11.23046875,0.9765625,-12.6953125,-24.90234375,0.0
150.71875,-5.859375,-10.7421875,-7.32421875,-7.32421875,70.80078125,0.0
150.72265625,-32.2265625,-33.69140625,-37.59765625,-31.25,50.78125,0.0
150.7265625,-40.0390625,-35.64453125,-40.0390625,-38.0859375,-67.87109375,0.0
150.73046875,-44.921875,-37.59765625,-50.78125,-49.31640625,-53.22265625,0.0
150.734375,-38.0859375,-41.015625,-55.17578125,-51.7578125,71.2890625,0.0
150.73828125,-27.34375,-38.57421875,-47.36328125,-39.0625,142.578125,0.0
150.7421875,-31.73828125,-36.1328125,-44.43359375,-34.66796875,74.21875,0.0
150.74609375,-45.41015625,-42.96875,-50.29296875,-47.36328125,-77.63671875,0.0
150.75,-48.33984375,-45.8984375,-47.8515625,-49.31640625,-100.09765625,0.0
150.75390625,-41.9921875,-39.55078125,-42.96875,-46.875,16.6015625,0.0
150.7578125,-14.16015625,-13.671875,-17.08984375,-20.99609375,93.75,0.0
150.76171875,-1.46484375,2.9296875,5.37109375,6.34765625,143.5546875,0.0
150.765625,-35.15625,-22.94921875,-26.85546875,-27.34375,58.59375,0.0
150.76953125,-48.33984375,-37.59765625,-42.96875,-49.31640625,-101.5625,0.0
150.7734375,-40.0390625,-32.71484375,-39.55078125,-49.31640625,-71.77734375,0.0
150.77734375,-29.78515625,-23.92578125,-36.62109375,-45.41015625,32.71484375,0.0
150.78125,-24.4140625,-24.4140625,-35.64453125,-34.1796875,107.91015625,0.0
150.78515625,-26.3671875,-30.2734375,-39.55078125,-29.296875,25.390625,0.0
150.7890625,-31.73828125,-31.73828125,-39.55078125,-39.0625,-151.3671875,0.0
150.79296875,-33.69140625,-33.69140625,-39.0625,-42.96875,-146.97265625,0.0
150.796875,-27.34375,-28.80859375,-40.0390625,-40.52734375,-41.50390625,0.0
150.80078125,-22.4609375,-21.97265625,-34.1796875,-27.34375,37.59765625,0.0
150.8046875,-11.71875,-7.32421875,0.0,-0.48828125,-25.87890625,0.0
150.80859375,-20.5078125,-9.765625,7.32421875,-8.7890625,-68.359375,0.0
150.8125,-40.0390625,-38.0859375,-31.73828125,-41.9921875,-31.25,0.0
150.81640625,-31.73828125,-36.62109375,-42.96875,-44.43359375,-48.33984375,0.0
150.8203125,-29.296875,-30.2734375,-37.109375,-34.1796875,-50.78125,0.0
150.82421875,-45.8984375,-41.50390625,-42.48046875,-38.57421875,5.859375,0.0
150.828125,-49.8046875,-42.96875,-44.43359375,-49.31640625,14.6484375,0.0
150.83203125,-45.41015625,-39.0625,-42.96875,-53.22265625,-82.51953125,0.0
150.8359375,-34.66796875,-33.69140625,-39.0625,-41.50390625,-39.0625,0.0
150.83984375,-29.296875,-30.2734375,-36.1328125,-28.3203125,-22.4609375,0.0
150.84375,-38.0859375,-31.25,-38.0859375,-29.296875,-73.73046875,0.0
150.84765625,-33.203125,-20.99609375,-28.80859375,-21.97265625,-100.5859375,0.0
150.8515625,-31.73828125,-25.390625,-32.2265625,-27.83203125,-79.1015625,0.0
150.85546875,-32.71484375,-30.2734375,-41.015625,-34.66796875,-52.24609375,0.0
150.859375,-27.83203125,-21.97265625,-36.62109375,-25.87890625,-176.26953125,0.0
150.86328125,-25.390625,-16.6015625,-14.16015625,-16.11328125,-280.2734375,0.0
150.8671875,-40.52734375,-26.85546875,-19.53125,-33.203125,-298.828125,0.0
150.87109375,-50.78125,-39.0625,-45.41015625,-56.15234375,-232.421875,0.0
150.875,-33.203125,-34.1796875,-41.9921875,-49.31640625,-201.66015625,0.0
150.87890625,-16.11328125,-25.390625,-35.64453125,-29.296875,-168.9453125,0.0
150.8828125,-21.484375,-28.3203125,-36.1328125,-26.85546875,-76.171875,0.0
150.88671875,-38.57421875,-42.48046875,-45.8984375,-41.015625,-141.6015625,0.0
150.890625,-41.50390625,-45.41015625,-44.43359375,-48.33984375,-210.9375,0.0
150.89453125,-12.6953125,-22.94921875,-12.20703125,-29.296875,-55.6640625,0.0
150.8984375,-9.765625,-23.4375,-22.4609375,-26.85546875,91.796875,0.0
150.90234375,-29.78515625,-35.15625,-42.48046875,-39.55078125,95.703125,0.0
150.90625,-33.203125,-30.2734375,-30.76171875,-36.1328125,12.6953125,0.0
150.91015625,-24.90234375,-32.2265625,-24.90234375,-29.78515625,-91.796875,0.0
150.9140625,-29.296875,-43.9453125,-45.8984375,-41.015625,-45.41015625,0.0
150.91796875,-26.85546875,-41.50390625,-47.8515625,-40.0390625,160.64453125,0.0
150.921875,-16.11328125,-25.390625,-32.2265625,-28.3203125,203.125,0.0
150.92578125,-23.92578125,-25.87890625,-35.15625,-29.78515625,27.83203125,0.0
150.9296875,-37.59765625,-40.0390625,-45.41015625,-42.96875,-23.92578125,0.0
150.93359375,-33.203125,-41.015625,-45.8984375,-45.8984375,53.22265625,0.0
150.9375,-19.53125,-32.71484375,-40.0390625,-31.25,12.20703125,0.0
150.94140625,-25.87890625,-28.80859375,-37.109375,-23.4375,-47.36328125,0.0
150.9453125,-42.96875,-34.66796875,-43.45703125,-29.78515625,24.4140625,0.0
150.94921875,-47.8515625,-40.52734375,-49.31640625,-39.0625,49.8046875,0.0
150.953125,-29.78515625,-31.73828125,-28.80859375,-30.2734375,78.61328125,0.0
150.95703125,-19.53125,-21.97265625,-22.4609375,-20.99609375,130.859375,0.0
150.9609375,-23.92578125,-22.4609375,-40.0390625,-24.90234375,112.79296875,0.0
150.96484375,-36.1328125,-29.78515625,-41.015625,-28.80859375,44.43359375,0.0
150.96875,-45.8984375,-35.15625,-41.015625,-34.66796875,-80.56640625,0.0
150.97265625,-40.0390625,-31.25,-41.9921875,-41.015625,-80.56640625,0.0
150.9765625,-33.69140625,-30.2734375,-42.48046875,-40.52734375,19.53125,0.0
150.98046875,-26.85546875,-24.90234375,-37.109375,-29.296875,-13.18359375,0.0
150.984375,-18.06640625,-18.5546875,-17.08984375,-17.578125,-64.94140625,0.0
150.98828125,-36.1328125,-36.1328125,-28.80859375,-37.59765625,-105.46875,0.0
150.9921875,-43.45703125,-47.36328125,-45.8984375,-55.6640625,-79.58984375,0.0
150.99609375,-25.390625,-29.78515625,-29.296875,-39.55078125,-38.0859375,0.0
151.0,-4.8828125,-10.25390625,2.9296875,-11.71875,-48.33984375,0.0
151.00390625,-24.90234375,-24.90234375,-10.7421875,-24.90234375,-14.6484375,0.0
151.0078125,-50.29296875,-42.96875,-37.109375,-41.015625,39.55078125,0.0
151.01171875,-43.45703125,-42.96875,-36.1328125,-39.0625,-22.4609375,0.0
151.015625,-32.2265625,-40.0390625,-32.71484375,-32.71484375,-64.453125,0.0
151.01953125,-25.390625,-26.85546875,-27.34375,-21.97265625,12.6953125,0.0
151.0234375,-32.2265625,-22.4609375,-23.4375,-27.83203125,-6.8359375,0.0
151.02734375,-37.59765625,-31.25,-25.390625,-34.1796875,-187.01171875,0.0
151.03125,-43.45703125,-41.50390625,-34.1796875,-41.50390625,-204.1015625,0.0
151.03515625,-40.52734375,-42.48046875,-38.0859375,-40.0390625,-106.93359375,0.0
151.0390625,-28.3203125,-40.0390625,-39.55078125,-27.83203125,-44.43359375,0.0
151.04296875,-26.3671875,-33.203125,-19.04296875,-21.484375,-64.94140625,0.0
151.046875,-27.34375,-24.90234375,-7.8125,-20.01953125,-224.609375,0.0
151.05078125,-38.0859375,-37.109375,-35.64453125,-32.71484375,-262.6953125,0.0
151.0546875,-38.0859375,-41.9921875,-39.55078125,-37.109375,-93.26171875,0.0
151.05859375,-25.87890625,-32.2265625,-32.71484375,-32.71484375,81.0546875,0.0
151.0625,-26.3671875,-33.69140625,-34.66796875,-27.34375,118.1640625,0.0
151.06640625,-42.96875,-42.48046875,-38.57421875,-38.57421875,54.6875,0.0
151.0703125,-47.36328125,-46.38671875,-41.50390625,-47.8515625,20.5078125,0.0
151.07421875,-37.109375,-40.0390625,-39.0625,-41.015625,47.8515625,0.0
151.078125,-28.3203125,-33.69140625,-35.64453125,-34.1796875,106.93359375,0.0
151.08203125,-28.80859375,-32.71484375,-33.203125,-33.69140625,93.75,0.0
151.0859375,-41.9921875,-41.015625,-31.73828125,-39.55078125,-12.20703125,0.0
151.08984375,-28.3203125,-28.80859375,4.39453125,-29.296875,-129.39453125,0.0
151.09375,-16.11328125,-20.5078125,12.20703125,-19.04296875,-141.6015625,0.0
151.09765625,-27.34375,-33.69140625,-27.34375,-31.73828125,-28.3203125,0.0
151.1015625,-34.1796875,-34.66796875,-35.15625,-35.64453125,-56.15234375,0.0
151.10546875,-39.0625,-34.66796875,-29.296875,-34.1796875,-122.55859375,0.0
151.109375,-39.0625,-34.1796875,-35.64453125,-37.59765625,-59.08203125,0.0
151.11328125,-30.76171875,-34.1796875,-37.59765625,-34.66796875,-30.76171875,0.0
151.1171875,-14.6484375,-27.83203125,-31.25,-24.90234375,-59.5703125,0.0
151.12109375,-10.7421875,-20.01953125,-27.34375,-20.01953125,-69.3359375,0.0
151.125,-27.34375,-24.90234375,-33.69140625,-31.73828125,-85.9375,0.0
151.12890625,-44.921875,-36.1328125,-43.45703125,-39.0625,-130.859375,0.0
151.1328125,-35.64453125,-29.78515625,-19.04296875,-31.25,-103.02734375,0.0
151.13671875,-26.3671875,-22.94921875,-11.23046875,-27.34375,-10.7421875,0.0
151.140625,-31.73828125,-29.78515625,-36.1328125,-27.83203125,42.48046875,0.0
151.14453125,-35.15625,-33.203125,-31.73828125,-28.80859375,36.1328125,0.0
151.1484375,-37.109375,-32.2265625,-22.4609375,-29.296875,-29.78515625,0.0
151.15234375,-36.62109375,-36.62109375,-31.73828125,-32.2265625,-56.640625,0.0
151.15625,-30.76171875,-35.64453125,-36.62109375,-33.69140625,17.578125,0.0
151.16015625,-25.87890625,-26.3671875,-30.76171875,-23.92578125,96.6796875,0.0
151.1640625,-37.109375,-30.76171875,-33.69140625,-30.76171875,34.66796875,0.0
151.16796875,-51.26953125,-41.015625,-39.55078125,-44.921875,-72.265625,0.0
151.171875,-50.29296875,-40.0390625,-46.875,-46.38671875,0.0,0.0
151.17578125,-37.59765625,-31.25,-40.0390625,-34.66796875,93.75,0.0
151.1796875,-26.3671875,-24.4140625,-7.8125,-19.53125,63.4765625,0.0
151.18359375,-30.76171875,-28.3203125,-11.23046875,-23.92578125,3.90625,0.0
151.1875,-34.1796875,-32.2265625,-35.64453125,-31.73828125,-55.6640625,0.0
151.19140625,-34.66796875,-31.25,-38.57421875,-36.1328125,-65.4296875,0.0
151.1953125,-32.71484375,-28.3203125,-34.66796875,-34.66796875,-5.37109375,0.0
151.19921875,-27.34375,-23.4375,-32.71484375,-24.4140625,62.5,0.0
151.203125,-25.87890625,-22.94921875,-31.25,-18.06640625,20.01953125,0.0
151.20703125,-32.71484375,-28.80859375,-27.83203125,-23.4375,-84.47265625,0.0
151.2109375,-39.0625,-37.59765625,-32.2265625,-35.64453125,-131.34765625,0.0
151.21484375,-28.80859375,-35.64453125,-36.1328125,-33.69140625,2.9296875,0.0
151.21875,-18.5546875,-24.90234375,-31.25,-20.5078125,93.26171875,0.0
151.22265625,-24.90234375,-18.5546875,-17.08984375,-18.06640625,33.203125,0.0
151.2265625,-34.1796875,-22.4609375,-17.08984375,-27.34375,-26.85546875,0.0
151.23046875,-34.1796875,-30.76171875,-37.59765625,-38.0859375,-78.61328125,0.0
151.234375,-28.3203125,-27.83203125,-35.64453125,-33.69140625,-52.24609375,0.0
151.23828125,-23.4375,-20.01953125,-25.390625,-24.4140625,-13.18359375,0.0
151.2421875,-28.3203125,-23.4375,-34.66796875,-26.3671875,-28.80859375,0.0
151.24609375,-37.59765625,-35.15625,-41.50390625,-33.203125,-83.0078125,0.0
151.25,-39.55078125,-39.0625,-37.59765625,-38.0859375,-101.07421875,0.0
151.25390625,-25.390625,-33.203125,-31.25,-31.25,-105.95703125,0.0
151.2578125,-17.08984375,-29.78515625,-30.2734375,-27.34375,5.37109375,0.0
151.26171875,-27.83203125,-31.73828125,-34.1796875,-30.76171875,85.44921875,0.0
151.265625,-34.66796875,-31.73828125,-31.73828125,-37.109375,-10.25390625,0.0
151.26953125,-26.85546875,-22.94921875,-18.5546875,-36.62109375,-57.6171875,0.0
151.2734375,-28.3203125,-29.78515625,-30.2734375,-45.41015625,-63.96484375,0.0
151.27734375,-30.2734375,-35.64453125,-45.8984375,-48.828125,-19.04296875,0.0
151.28125,-26.85546875,-30.2734375,-33.203125,-31.73828125,41.50390625,0.0
151.28515625,-32.71484375,-34.1796875,-22.4609375,-30.2734375,-0.9765625,0.0
151.2890625,-45.8984375,-44.43359375,-36.62109375,-46.875,-52.734375,0.0
151.29296875,-40.52734375,-42.96875,-39.0625,-47.36328125,1.46484375,0.0
151.296875,-27.83203125,-33.69140625,-32.71484375,-42.96875,2.9296875,0.0
151.30078125,-25.87890625,-29.78515625,-27.34375,-35.64453125,10.25390625,0.0
151.3046875,-36.1328125,-32.2265625,-30.76171875,-41.015625,-56.640625,0.0
151.30859375,-45.41015625,-39.55078125,-38.0859375,-50.29296875,-181.640625,0.0
151.3125,-32.2265625,-37.59765625,-29.296875,-33.69140625,-155.76171875,0.0
151.31640625,-18.06640625,-24.4140625,-20.5078125,-16.6015625,-5.37109375,0.0
151.3203125,-17.08984375,-18.06640625,-23.92578125,-16.6015625,45.41015625,0.0
151.32421875,-27.34375,-25.87890625,-29.78515625,-24.4140625,-68.84765625,0.0
151.328125,-26.3671875,-23.4375,-10.7421875,-31.73828125,-124.0234375,0.0
151.33203125,-24.4140625,-26.85546875,-15.625,-41.50390625,-86.42578125,0.0
151.3359375,-22.4609375,-31.73828125,-39.55078125,-41.015625,-72.75390625,0.0
151.33984375,-14.16015625,-18.06640625,-33.69140625,-31.73828125,-44.921875,0.0
151.34375,-32.2265625,-24.4140625,-38.0859375,-38.0859375,-52.734375,0.0
151.34765625,-40.52734375,-34.1796875,-44.43359375,-36.62109375,-64.453125,0.0
151.3515625,-36.62109375,-33.69140625,-42.96875,-36.1328125,-164.0625,0.0
151.35546875,-31.73828125,-30.2734375,-39.0625,-36.62109375,-226.5625,0.0
151.359375,-24.4140625,-22.4609375,-35.15625,-26.85546875,-110.83984375,0.0
151.36328125,-26.85546875,-21.484375,-39.0625,-25.87890625,-34.66796875,0.0
151.3671875,-42.48046875,-33.69140625,-48.828125,-39.55078125,-63.4765625,0.0
151.37109375,-41.015625,-34.1796875,-48.33984375,-45.8984375,-74.70703125,0.0
151.375,-14.16015625,-17.08984375,-15.13671875,-24.90234375,-46.875,0.0
151.37890625,-13.671875,-21.484375,-12.20703125,-18.5546875,35.15625,0.0
151.3828125,-31.25,-32.71484375,-39.55078125,-28.80859375,55.17578125,0.0
151.38671875,-41.015625,-39.0625,-42.48046875,-26.85546875,-5.37109375,0.0
151.390625,-41.50390625,-41.50390625,-42.48046875,-29.78515625,-57.6171875,0.0
151.39453125,-31.25,-35.15625,-41.50390625,-30.2734375,-118.65234375,0.0
151.3984375,-23.4375,-28.3203125,-40.0390625,-28.3203125,-153.3203125,0.0
151.40234375,-26.3671875,-26.3671875,-36.1328125,-30.76171875,-54.19921875,0.0
151.40625,-41.50390625,-35.64453125,-35.64453125,-36.1328125,59.08203125,0.0
151.41015625,-46.38671875,-41.9921875,-41.9921875,-45.8984375,62.01171875,0.0
151.4140625,-32.2265625,-29.78515625,-39.55078125,-37.59765625,49.8046875,0.0
151.41796875,-20.01953125,-22.4609375,-15.625,-21.97265625,9.27734375,0.0
151.421875,-23.92578125,-25.390625,-8.7890625,-18.5546875,59.08203125,0.0
151.42578125,-41.9921875,-33.69140625,-37.109375,-27.34375,39.55078125,0.0
151.4296875,-47.36328125,-38.0859375,-46.38671875,-39.0625,-62.5,0.0
151.43359375,-36.62109375,-37.109375,-41.015625,-41.50390625,-43.9453125,0.0
151.4375,-24.4140625,-30.2734375,-33.203125,-37.109375,12.20703125,0.0
151.44140625,-23.4375,-20.01953125,-25.390625,-28.3203125,54.6875,0.0
151.4453125,-37.109375,-24.4140625,-29.78515625,-28.3203125,5.859375,0.0
151.44921875,-41.50390625,-33.69140625,-36.62109375,-36.1328125,-40.0390625,0.0
151.453125,-34.66796875,-34.66796875,-40.0390625,-40.52734375,-0.9765625,0.0
151.45703125,-27.34375,-33.203125,-41.50390625,-36.1328125,-2.44140625,0.0
151.4609375,-20.99609375,-30.76171875,-33.203125,-27.34375,-20.99609375,0.0
151.46484375,-7.8125,-17.08984375,0.9765625,-11.23046875,-86.42578125,0.0
151.46875,-17.08984375,-20.01953125,-2.9296875,-20.99609375,-162.59765625,0.0
151.47265625,-38.57421875,-34.1796875,-39.55078125,-44.43359375,-64.453125,0.0
151.4765625,-26.85546875,-29.296875,-37.59765625,-32.2265625,38.57421875,0.0
151.48046875,-19.53125,-22.4609375,-30.76171875,-22.4609375,54.6875,0.0
151.484375,-37.59765625,-31.25,-38.0859375,-32.71484375,-25.87890625,0.0
151.48828125,-46.38671875,-40.52734375,-38.0859375,-40.0390625,-170.8984375,0.0
151.4921875,-47.36328125,-45.8984375,-40.52734375,-45.8984375,-190.91796875,0.0
151.49609375,-42.96875,-42.96875,-41.9921875,-43.45703125,-84.9609375,0.0
151.5,-36.62109375,-36.1328125,-37.109375,-34.1796875,-6.8359375,0.0
151.50390625,-41.9921875,-36.1328125,-35.64453125,-32.2265625,-3.90625,0.0
151.5078125,-47.36328125,-43.9453125,-33.203125,-39.55078125,-76.171875,0.0
151.51171875,-41.015625,-43.45703125,-31.73828125,-42.96875,-66.89453125,0.0
151.515625,-37.109375,-38.0859375,-40.52734375,-35.64453125,62.01171875,0.0
151.51953125,-25.87890625,-29.78515625,-34.1796875,-21.484375,97.65625,0.0
151.5234375,-29.296875,-26.3671875,-30.2734375,-19.53125,25.87890625,0.0
151.52734375,-41.015625,-30.76171875,-38.0859375,-31.73828125,-63.4765625,0.0
151.53125,-34.1796875,-30.2734375,-43.9453125,-41.015625,-37.109375,0.0
151.53515625,-26.3671875,-29.78515625,-41.50390625,-41.015625,23.4375,0.0
151.5390625,-26.3671875,-30.2734375,-33.203125,-32.71484375,47.36328125,0.0
151.54296875,-32.2265625,-29.296875,-31.73828125,-26.85546875,-4.8828125,0.0
151.546875,-38.57421875,-30.76171875,-34.66796875,-28.80859375,-111.328125,0.0
151.55078125,-34.66796875,-33.203125,-29.78515625,-33.203125,-105.46875,0.0
151.5546875,-27.34375,-36.62109375,-21.97265625,-32.71484375,24.90234375,0.0
151.55859375,-19.04296875,-31.25,-23.92578125,-28.3203125,108.88671875,0.0
151.5625,-22.94921875,-28.80859375,-31.73828125,-25.390625,11.23046875,0.0
151.56640625,-35.64453125,-36.1328125,-33.69140625,-30.76171875,-159.66796875,0.0
151.5703125,-43.9453125,-48.33984375,-33.203125,-45.8984375,-248.53515625,0.0
151.57421875,-37.109375,-43.9453125,-36.1328125,-47.8515625,-149.90234375,0.0
151.578125,-21.97265625,-29.296875,-29.78515625,-32.2265625,-79.1015625,0.0
151.58203125,-27.83203125,-32.2265625,-30.2734375,-23.92578125,-13.18359375,0.0
151.5859375,-35.15625,-37.59765625,-33.69140625,-26.85546875,12.20703125,0.0
151.58984375,-34.1796875,-36.1328125,-34.66796875,-34.1796875,-79.58984375,0.0
151.59375,-29.296875,-36.1328125,-33.69140625,-31.73828125,-96.6796875,0.0
151.59765625,-14.6484375,-27.34375,-15.625,-18.06640625,-62.98828125,0.0
151.6015625,-14.16015625,-25.390625,-12.20703125,-14.6484375,-33.69140625,0.0
151.60546875,-30.2734375,-32.2265625,-29.296875,-27.83203125,-125.9765625,0.0
151.609375,-37.59765625,-36.62109375,-34.1796875,-44.921875,-207.51953125,0.0
151.61328125,-31.73828125,-38.0859375,-28.3203125,-40.52734375,-145.01953125,0.0
151.6171875,-19.53125,-32.2265625,-30.2734375,-26.85546875,-78.125,0.0
151.62109375,-19.04296875,-26.85546875,-31.73828125,-26.85546875,-28.80859375,0.0
151.625,-28.80859375,-29.78515625,-29.78515625,-25.390625,-4.39453125,0.0
151.62890625,-41.015625,-40.0390625,-34.66796875,-35.64453125,-15.13671875,0.0
151.6328125,-35.64453125,-39.55078125,-32.2265625,-38.57421875,-5.859375,0.0
151.63671875,-21.97265625,-27.83203125,-27.83203125,-23.92578125,-20.01953125,0.0
151.640625,-23.92578125,-25.390625,-30.76171875,-18.5546875,6.34765625,0.0
151.64453125,-41.50390625,-41.015625,-27.83203125,-29.78515625,-40.0390625,0.0
151.6484375,-42.96875,-45.8984375,-29.78515625,-38.0859375,-100.09765625,0.0
151.65234375,-24.4140625,-37.59765625,-32.2265625,-30.76171875,-24.4140625,0.0
151.65625,-17.578125,-33.69140625,-24.4140625,-25.87890625,57.6171875,0.0
151.66015625,-20.01953125,-28.80859375,-18.06640625,-23.92578125,71.2890625,0.0
151.6640625,-28.80859375,-28.80859375,-20.5078125,-22.94921875,26.85546875,0.0
151.66796875,-41.9921875,-39.0625,-25.87890625,-22.94921875,-36.62109375,0.0
151.671875,-39.55078125,-37.109375,-24.4140625,-25.390625,-81.54296875,0.0
151.67578125,-25.390625,-26.85546875,-20.01953125,-19.53125,-8.7890625,0.0
151.6796875,-19.04296875,-21.97265625,-20.01953125,-8.7890625,27.34375,0.0
151.68359375,-21.97265625,-25.390625,-20.99609375,-7.8125,-25.87890625,0.0
151.6875,-35.15625,-36.62109375,-27.83203125,-22.94921875,-79.58984375,0.0
151.69140625,-40.0390625,-39.55078125,-32.71484375,-29.296875,-112.3046875,0.0
151.6953125,-28.80859375,-38.0859375,-34.1796875,-23.92578125,-66.89453125,0.0
151.69921875,-20.01953125,-30.76171875,-27.83203125,-20.99609375,-29.296875,0.0
151.703125,-30.2734375,-34.1796875,-24.4140625,-22.4609375,-69.82421875,0.0
151.70703125,-41.50390625,-45.41015625,-33.69140625,-29.78515625,-82.03125,0.0
151.7109375,-37.109375,-44.921875,-36.1328125,-29.78515625,-42.48046875,0.0
151.71484375,-23.92578125,-41.015625,-29.78515625,-25.390625,22.4609375,0.0
151.71875,-17.578125,-37.109375,-23.92578125,-22.4609375,55.17578125,0.0
151.72265625,-26.3671875,-34.66796875,-25.87890625,-21.97265625,45.8984375,0.0
151.7265625,-39.55078125,-33.203125,-33.69140625,-27.83203125,17.08984375,0.0
151.73046875,-41.015625,-35.15625,-32.2265625,-39.0625,-20.5078125,0.0
151.734375,-31.25,-34.66796875,-28.80859375,-38.57421875,-8.30078125,0.0
151.73828125,-20.01953125,-28.3203125,-28.3203125,-32.2265625,7.32421875,0.0
151.7421875,-30.2734375,-30.2734375,-27.83203125,-34.1796875,13.18359375,0.0
151.74609375,-42.96875,-38.57421875,-28.80859375,-40.0390625,-6.34765625,0.0
151.75,-47.36328125,-54.6875,-28.80859375,-48.33984375,-78.125,0.0
151.75390625,-41.50390625,-47.36328125,-28.3203125,-50.29296875,-54.6875,0.0
151.7578125,-22.94921875,-29.296875,-24.90234375,-33.203125,-22.4609375,0.0
151.76171875,-26.3671875,-29.78515625,-25.390625,-26.85546875,36.62109375,0.0
151.765625,-43.9453125,-37.109375,-28.3203125,-39.0625,-28.80859375,0.0
151.76953125,-48.33984375,-42.48046875,-32.71484375,-44.921875,-206.54296875,0.0
151.7734375,-37.109375,-37.109375,-33.69140625,-37.59765625,-163.57421875,0.0
151.77734375,-26.85546875,-33.69140625,-30.2734375,-33.203125,-60.546875,0.0
151.78125,-30.2734375,-28.80859375,-29.296875,-31.73828125,23.92578125,0.0
151.78515625,-35.64453125,-27.34375,-35.15625,-28.80859375,34.66796875,0.0
151.7890625,-45.8984375,-34.1796875,-40.0390625,-41.015625,20.99609375,0.0
151.79296875,-41.015625,-39.55078125,-22.94921875,-42.48046875,47.36328125,0.0
151.796875,-26.3671875,-35.15625,-14.6484375,-28.80859375,8.30078125,0.0
151.80078125,-23.92578125,-28.3203125,-24.4140625,-24.4140625,44.43359375,0.0
151.8046875,-31.25,-31.25,-22.4609375,-26.85546875,49.31640625,0.0
151.80859375,-42.96875,-42.48046875,-20.99609375,-33.69140625,-55.17578125,0.0
151.8125,-41.015625,-44.921875,-33.203125,-42.48046875,-129.39453125,0.0
151.81640625,-31.73828125,-37.59765625,-33.69140625,-40.0390625,-11.71875,0.0
151.8203125,-28.80859375,-30.2734375,-26.85546875,-31.73828125,55.17578125,0.0
151.82421875,-37.109375,-28.80859375,-30.76171875,-38.0859375,8.7890625,0.0
151.828125,-50.78125,-34.1796875,-32.2265625,-48.828125,-116.69921875,0.0
151.83203125,-45.8984375,-36.62109375,-33.69140625,-49.31640625,-162.109375,0.0
151.8359375,-34.1796875,-33.69140625,-34.1796875,-39.0625,-49.8046875,0.0
151.83984375,-35.64453125,-38.0859375,-27.34375,-34.1796875,-34.1796875,0.0
151.84375,-38.0859375,-41.9921875,-27.34375,-26.3671875,-61.5234375,0.0
151.84765625,-37.109375,-39.0625,-30.2734375,-31.25,-52.734375,0.0
151.8515625,-35.15625,-37.59765625,-30.76171875,-41.9921875,-72.75390625,0.0
151.85546875,-26.3671875,-34.66796875,-34.1796875,-37.59765625,-30.2734375,0.0
151.859375,-25.87890625,-28.80859375,-31.25,-33.69140625,-24.4140625,0.0
151.86328125,-39.0625,-29.78515625,-30.2734375,-32.2265625,-27.83203125,0.0
151.8671875,-47.36328125,-36.1328125,-32.2265625,-37.109375,-22.4609375,0.0
151.87109375,-45.41015625,-38.57421875,-32.71484375,-47.36328125,-61.03515625,0.0
151.875,-34.66796875,-36.1328125,-29.78515625,-43.45703125,-29.296875,0.0
151.87890625,-25.87890625,-27.83203125,-24.4140625,-31.25,15.13671875,0.0
151.8828125,-27.34375,-25.390625,-16.11328125,-23.92578125,-37.109375,0.0
151.88671875,-38.57421875,-34.1796875,-20.5078125,-30.76171875,-36.62109375,0.0
151.890625,-37.109375,-32.2265625,-28.80859375,-37.59765625,42.96875,0.0
151.89453125,-27.34375,-26.3671875,-27.34375,-31.25,68.359375,0.0
151.8984375,-18.06640625,-20.99609375,-20.99609375,-23.92578125,61.03515625,0.0
151.90234375,-22.94921875,-22.94921875,-20.99609375,-30.2734375,7.8125,0.0
151.90625,-34.1796875,-30.76171875,-29.296875,-34.66796875,-58.10546875,0.0
151.91015625,-42.96875,-36.62109375,-41.015625,-46.875,-39.55078125,0.0
151.9140625,-37.109375,-37.109375,-37.59765625,-46.875,-25.390625,0.0
151.91796875,-24.90234375,-29.296875,-29.78515625,-30.2734375,16.6015625,0.0
151.921875,-24.4140625,-24.90234375,-30.2734375,-23.4375,45.41015625,0.0
151.92578125,-34.1796875,-31.73828125,-32.2265625,-31.25,-58.59375,0.0
151.9296875,-26.3671875,-23.4375,-5.859375,-29.296875,-87.890625,0.0
151.93359375,-15.625,-17.08984375,-0.48828125,-21.97265625,-50.78125,0.0
151.9375,-27.83203125,-25.87890625,-28.3203125,-32.71484375,-14.16015625,0.0
151.94140625,-36.62109375,-29.296875,-34.66796875,-35.64453125,43.9453125,0.0
151.9453125,-45.8984375,-33.69140625,-36.1328125,-34.66796875,-26.3671875,0.0
151.94921875,-57.12890625,-42.48046875,-39.55078125,-39.55078125,-175.29296875,0.0
151.953125,-48.33984375,-47.8515625,-43.9453125,-46.38671875,-104.4921875,0.0
151.95703125,-30.2734375,-40.0390625,-36.62109375,-33.203125,2.9296875,0.0
151.9609375,-28.80859375,-34.66796875,-34.66796875,-25.87890625,-48.828125,0.0
151.96484375,-43.9453125,-39.55078125,-41.50390625,-41.50390625,-201.66015625,0.0
151.96875,-51.7578125,-40.52734375,-41.50390625,-45.41015625,-275.87890625,0.0
151.97265625,-45.8984375,-35.64453125,-31.25,-38.57421875,-222.16796875,0.0
151.9765625,-34.66796875,-27.34375,-27.83203125,-35.15625,-147.4609375,0.0
151.98046875,-37.59765625,-30.2734375,-36.1328125,-38.57421875,-93.75,0.0
151.984375,-47.8515625,-37.59765625,-35.15625,-40.52734375,-90.8203125,0.0
151.98828125,-45.41015625,-33.203125,-21.97265625,-32.71484375,-223.6328125,0.0
151.9921875,-40.0390625,-34.66796875,-27.83203125,-38.0859375,-188.96484375,0.0
151.99609375,-38.0859375,-37.109375,-41.9921875,-39.55078125,-24.4140625,0.0
152.0,-34.66796875,-30.76171875,-38.0859375,-32.71484375,-20.99609375,0.0
152.00390625,-32.2265625,-28.80859375,-31.73828125,-33.203125,-65.91796875,0.0
152.0078125,-36.62109375,-35.64453125,-37.59765625,-39.0625,-138.18359375,0.0
152.01171875,-37.59765625,-39.55078125,-44.921875,-48.828125,-113.76953125,0.0
152.015625,-23.92578125,-31.73828125,-36.1328125,-44.43359375,44.921875,0.0
152.01953125,-4.8828125,-17.578125,-17.08984375,-27.34375,157.71484375,0.0
152.0234375,-9.27734375,-20.01953125,-23.4375,-23.92578125,137.20703125,0.0
152.02734375,-28.80859375,-35.64453125,-38.57421875,-36.1328125,62.5,0.0
152.03125,-35.15625,-40.52734375,-40.52734375,-44.43359375,41.9921875,0.0
152.03515625,-21.484375,-32.71484375,-28.3203125,-36.62109375,36.1328125,0.0
152.0390625,-18.06640625,-26.3671875,-25.390625,-29.78515625,98.6328125,0.0
152.04296875,-34.1796875,-26.85546875,-34.1796875,-28.80859375,116.69921875,0.0
152.046875,-45.8984375,-30.76171875,-34.66796875,-32.71484375,-20.01953125,0.0
152.05078125,-47.36328125,-32.71484375,-34.1796875,-39.55078125,-56.15234375,0.0
152.0546875,-36.1328125,-27.34375,-31.25,-31.73828125,-2.44140625,0.0
152.05859375,-26.3671875,-22.94921875,-24.90234375,-23.92578125,16.11328125,0.0
152.0625,-27.34375,-24.4140625,-24.4140625,-23.4375,55.17578125,0.0
152.06640625,-29.296875,-25.87890625,-29.296875,-27.34375,-11.23046875,0.0
152.0703125,-31.25,-27.83203125,-31.25,-32.2265625,-13.671875,0.0
152.07421875,-28.80859375,-28.3203125,-26.85546875,-34.1796875,73.2421875,0.0
152.078125,-23.4375,-22.94921875,-18.06640625,-23.4375,65.91796875,0.0
152.08203125,-23.92578125,-21.484375,-16.11328125,-14.16015625,-15.625,0.0
152.0859375,-33.203125,-28.80859375,-31.73828125,-21.484375,-63.96484375,0.0
152.08984375,-36.1328125,-31.73828125,-38.0859375,-28.3203125,-75.68359375,0.0
152.09375,-27.34375,-28.80859375,-25.87890625,-19.04296875,-42.48046875,0.0
152.09765625,-22.4609375,-23.4375,-27.34375,-15.625,99.12109375,0.0
152.1015625,-20.5078125,-18.5546875,-32.71484375,-16.6015625,142.08984375,0.0
152.10546875,-23.4375,-20.01953125,-28.80859375,-11.71875,72.265625,0.0
152.109375,-28.80859375,-27.83203125,-30.2734375,-20.01953125,26.3671875,0.0
152.11328125,-28.3203125,-29.78515625,-32.2265625,-25.390625,-14.6484375,0.0
152.1171875,-24.4140625,-19.04296875,-33.203125,-18.5546875,5.37109375,0.0
152.12109375,-21.484375,-14.6484375,-25.390625,-17.08984375,32.2265625,0.0
152.125,-9.27734375,-7.8125,9.765625,-7.32421875,-48.33984375,0.0
152.12890625,-23.4375,-21.484375,-9.27734375,-20.99609375,-98.6328125,0.0
152.1328125,-35.64453125,-38.0859375,-39.55078125,-40.0390625,-25.390625,0.0
152.13671875,-21.97265625,-29.78515625,-30.2734375,-33.69140625,4.8828125,0.0
152.140625,-18.06640625,-24.4140625,-28.3203125,-29.78515625,-6.8359375,0.0
152.14453125,-26.85546875,-30.76171875,-34.66796875,-44.43359375,-75.1953125,0.0
152.1484375,-35.64453125,-40.0390625,-42.96875,-45.8984375,-145.99609375,0.0
152.15234375,-28.80859375,-40.0390625,-32.2265625,-37.109375,-123.53515625,0.0
152.15625,-26.3671875,-33.69140625,-26.3671875,-28.3203125,-40.0390625,0.0
152.16015625,-30.2734375,-28.80859375,-33.69140625,-20.5078125,8.7890625,0.0
152.1640625,-36.1328125,-29.296875,-38.57421875,-21.484375,-27.34375,0.0
152.16796875,-35.15625,-30.2734375,-25.87890625,-22.4609375,-105.95703125,0.0
152.171875,-28.80859375,-31.73828125,-21.484375,-26.85546875,-65.91796875,0.0
152.17578125,-22.4609375,-33.69140625,-39.0625,-29.78515625,-10.25390625,0.0
152.1796875,-17.08984375,-25.390625,-31.25,-21.484375,20.01953125,0.0
152.18359375,-28.3203125,-28.3203125,-28.3203125,-22.94921875,-46.875,0.0
152.1875,-37.109375,-40.52734375,-36.1328125,-28.80859375,-121.58203125,0.0
152.19140625,-34.1796875,-41.50390625,-42.96875,-34.66796875,-110.83984375,0.0
152.1953125,-20.99609375,-32.71484375,-36.1328125,-29.78515625,-65.91796875,0.0
152.19921875,-10.25390625,-21.97265625,-23.92578125,-20.01953125,45.8984375,0.0
152.203125,-20.01953125,-27.83203125,-29.296875,-28.80859375,77.63671875,0.0
152.20703125,-37.59765625,-38.0859375,-39.0625,-42.48046875,-28.3203125,0.0
152.2109375,-39.0625,-42.48046875,-43.45703125,-51.26953125,-73.2421875,0.0
152.21484375,-23.92578125,-36.1328125,-26.3671875,-42.48046875,7.8125,0.0
152.21875,-20.99609375,-29.296875,-22.4609375,-34.66796875,60.546875,0.0
152.22265625,-35.15625,-32.71484375,-32.2265625,-36.62109375,19.04296875,0.0
152.2265625,-42.96875,-37.59765625,-32.71484375,-43.45703125,-41.015625,0.0
152.23046875,-40.0390625,-41.9921875,-35.15625,-46.38671875,-39.55078125,0.0
152.234375,-30.76171875,-38.0859375,-35.64453125,-41.9921875,11.23046875,0.0
152.23828125,-24.90234375,-28.80859375,-34.1796875,-32.2265625,19.53125,0.0
152.2421875,-26.3671875,-26.3671875,-31.73828125,-28.80859375,14.16015625,0.0
152.24609375,-36.1328125,-31.73828125,-30.2734375,-35.15625,-99.609375,0.0
152.25,-39.55078125,-32.71484375,-30.2734375,-35.64453125,-195.3125,0.0
152.25390625,-33.69140625,-32.2265625,-31.25,-34.66796875,-107.91015625,0.0
152.2578125,-16.6015625,-20.99609375,-3.41796875,-19.53125,-102.5390625,0.0
152.26171875,-9.27734375,-13.671875,16.6015625,-10.7421875,-77.1484375,0.0
152.265625,-32.2265625,-32.2265625,-20.99609375,-28.80859375,-4.8828125,0.0
152.26953125,-42.48046875,-43.45703125,-37.109375,-42.48046875,-72.75390625,0.0
152.2734375,-28.80859375,-35.64453125,-30.76171875,-41.015625,-28.80859375,0.0
152.27734375,-16.11328125,-27.34375,-29.78515625,-30.2734375,83.49609375,0.0
152.28125,-16.11328125,-25.390625,-27.83203125,-17.08984375,138.671875,0.0
152.28515625,-28.80859375,-29.296875,-27.34375,-20.99609375,94.23828125,0.0
152.2890625,-30.2734375,-36.1328125,-30.2734375,-28.80859375,-32.2265625,0.0
152.29296875,-24.90234375,-41.50390625,-37.109375,-37.109375,-268.5546875,0.0
152.296875,-22.94921875,-33.203125,-36.62109375,-31.73828125,-258.30078125,0.0
152.30078125,-20.5078125,-24.90234375,-33.69140625,-20.5078125,-30.2734375,0.0
152.3046875,-20.5078125,-29.78515625,-29.78515625,-21.484375,12.20703125,0.0
152.30859375,-26.85546875,-37.59765625,-32.71484375,-32.71484375,-40.0390625,0.0
152.3125,-35.64453125,-42.48046875,-43.45703125,-43.45703125,-55.17578125,0.0
152.31640625,-31.25,-38.57421875,-40.0390625,-41.9921875,14.6484375,0.0
152.3203125,-22.94921875,-30.2734375,-31.73828125,-34.66796875,41.015625,0.0
152.32421875,-29.296875,-28.80859375,-30.2734375,-32.71484375,-39.55078125,0.0
152.328125,-41.9921875,-37.109375,-36.1328125,-39.0625,-109.86328125,0.0
152.33203125,-36.1328125,-35.64453125,-34.1796875,-40.0390625,-74.70703125,0.0
152.3359375,-26.3671875,-29.296875,-27.34375,-34.66796875,67.87109375,0.0
152.33984375,-25.87890625,-23.4375,-22.4609375,-23.4375,74.21875,0.0
152.34375,-28.3203125,-24.4140625,-24.4140625,-22.94921875,-12.20703125,0.0
152.34765625,-28.80859375,-21.97265625,-20.99609375,-26.85546875,-92.7734375,0.0
152.3515625,-30.2734375,-22.94921875,-28.3203125,-38.0859375,-89.35546875,0.0
152.35546875,-23.4375,-21.97265625,-33.203125,-32.71484375,-3.90625,0.0
152.359375,-13.671875,-13.671875,-25.390625,-17.578125,0.0,0.0
152.36328125,-3.90625,0.48828125,0.48828125,-7.8125,-93.26171875,0.0
152.3671875,-18.06640625,-12.20703125,-1.46484375,-21.484375,-156.25,0.0
152.37109375,-35.15625,-33.203125,-30.76171875,-40.0390625,-189.94140625,0.0
152.375,-22.4609375,-29.78515625,-25.87890625,-28.3203125,-239.74609375,0.0
152.37890625,-17.578125,-23.92578125,-21.97265625,-19.53125,-252.44140625,0.0
152.3828125,-28.3203125,-27.83203125,-23.4375,-18.5546875,-228.515625,0.0
152.38671875,-38.57421875,-32.71484375,-26.85546875,-24.4140625,-252.9296875,0.0
152.390625,-37.59765625,-33.69140625,-29.296875,-25.390625,-203.61328125,0.0
152.39453125,-17.578125,-19.04296875,-8.30078125,-9.27734375,-121.09375,0.0
152.3984375,-19.04296875,-19.04296875,-21.484375,-17.578125,-46.38671875,0.0
152.40234375,-32.2265625,-31.25,-38.0859375,-37.59765625,-82.03125,0.0
152.40625,-35.15625,-30.76171875,-28.3203125,-34.1796875,-194.82421875,0.0
152.41015625,-31.25,-29.78515625,-27.83203125,-38.0859375,-192.87109375,0.0
152.4140625,-26.3671875,-32.2265625,-41.50390625,-46.875,-52.734375,0.0
152.41796875,-19.04296875,-26.85546875,-39.0625,-40.52734375,-12.6953125,0.0
152.421875,-19.04296875,-22.4609375,-30.2734375,-31.73828125,-88.8671875,0.0
152.42578125,-25.87890625,-27.34375,-30.76171875,-34.1796875,-111.81640625,0.0
152.4296875,-37.109375,-35.15625,-41.50390625,-41.50390625,-11.23046875,0.0
152.43359375,-35.15625,-33.203125,-39.0625,-38.0859375,95.21484375,0.0
152.4375,-20.5078125,-22.94921875,-31.25,-32.2265625,57.6171875,0.0
152.44140625,-16.6015625,-15.625,-28.80859375,-24.90234375,39.55078125,0.0
152.4453125,-31.25,-26.85546875,-37.109375,-29.296875,29.78515625,0.0
152.44921875,-43.45703125,-40.0390625,-45.41015625,-46.875,-14.16015625,0.0
152.453125,-23.92578125,-23.92578125,-24.90234375,-34.1796875,3.90625,0.0
152.45703125,-13.671875,-14.6484375,-18.06640625,-24.90234375,30.76171875,0.0
152.4609375,-28.80859375,-24.90234375,-31.73828125,-31.73828125,85.9375,0.0
152.46484375,-32.2265625,-27.83203125,-31.25,-26.85546875,13.18359375,0.0
152.46875,-41.015625,-35.15625,-39.55078125,-41.9921875,-75.68359375,0.0
152.47265625,-40.0390625,-34.66796875,-43.9453125,-44.43359375,17.578125,0.0
152.4765625,-29.78515625,-30.76171875,-39.55078125,-32.71484375,104.98046875,0.0
152.48046875,-26.3671875,-26.3671875,-38.0859375,-28.3203125,168.9453125,0.0
152.484375,-21.97265625,-17.578125,-17.578125,-21.484375,118.1640625,0.0
152.48828125,-36.1328125,-34.1796875,-30.2734375,-38.57421875,-17.08984375,0.0
152.4921875,-39.55078125,-43.45703125,-47.36328125,-53.22265625,-39.0625,0.0
152.49609375,-25.87890625,-31.73828125,-36.1328125,-44.921875,3.90625,0.0
152.5,-21.97265625,-30.2734375,-34.66796875,-40.0390625,9.27734375,0.0
152.50390625,-33.203125,-32.2265625,-38.57421875,-40.0390625,6.34765625,0.0
152.5078125,-46.38671875,-37.109375,-44.921875,-45.8984375,12.6953125,0.0
152.51171875,-36.62109375,-30.2734375,-37.59765625,-48.33984375,-7.32421875,0.0
152.515625,-15.13671875,-15.13671875,-17.08984375,-33.69140625,-48.33984375,0.0
152.51953125,-22.94921875,-25.87890625,-29.296875,-36.1328125,-20.5078125,0.0
152.5234375,-32.2265625,-30.2734375,-36.1328125,-36.62109375,41.015625,0.0
152.52734375,-35.15625,-32.2265625,-30.76171875,-38.0859375,-43.45703125,0.0
152.53125,-37.109375,-43.45703125,-41.9921875,-38.57421875,-53.22265625,0.0
152.53515625,-27.34375,-39.0625,-44.43359375,-33.69140625,-53.7109375,0.0
152.5390625,-23.4375,-31.73828125,-41.9921875,-37.109375,-97.65625,0.0
152.54296875,-20.99609375,-22.94921875,-20.5078125,-25.390625,-93.75,0.0
152.546875,-25.390625,-22.94921875,-13.671875,-24.90234375,-109.375,0.0
152.55078125,-42.96875,-40.0390625,-41.9921875,-48.828125,-34.1796875,0.0
152.5546875,-39.0625,-39.0625,-40.52734375,-41.9921875,57.12890625,0.0
152.55859375,-29.296875,-30.76171875,-29.296875,-22.94921875,124.0234375,0.0
152.5625,-36.1328125,-32.71484375,-31.73828125,-30.2734375,83.984375,0.0
152.56640625,-50.29296875,-44.43359375,-41.015625,-47.8515625,-29.296875,0.0
152.5703125,-47.8515625,-49.31640625,-46.875,-55.17578125,-144.04296875,0.0
152.57421875,-35.15625,-41.9921875,-42.48046875,-46.875,-124.51171875,0.0
152.578125,-28.3203125,-34.1796875,-38.57421875,-39.55078125,-27.83203125,0.0
152.58203125,-28.80859375,-30.2734375,-33.203125,-36.62109375,28.3203125,0.0
152.5859375,-37.59765625,-32.71484375,-30.76171875,-40.0390625,23.4375,0.0
152.58984375,-19.53125,-17.578125,-0.48828125,-25.87890625,-56.640625,0.0
152.59375,-5.37109375,-8.7890625,10.25390625,-24.4140625,-13.18359375,0.0
152.59765625,-22.94921875,-28.80859375,-24.4140625,-41.015625,4.8828125,0.0
152.6015625,-36.62109375,-33.203125,-38.0859375,-37.59765625,-44.921875,0.0
152.60546875,-44.43359375,-31.73828125,-34.66796875,-34.66796875,-131.8359375,0.0
152.609375,-50.29296875,-40.0390625,-38.0859375,-45.8984375,-154.296875,0.0
152.61328125,-41.9921875,-37.109375,-44.921875,-45.41015625,-5.859375,0.0
152.6171875,-24.4140625,-26.3671875,-39.0625,-35.15625,22.94921875,0.0
152.62109375,-21.97265625,-21.484375,-33.69140625,-34.66796875,12.6953125,0.0
152.625,-40.0390625,-33.69140625,-39.55078125,-41.50390625,-1.953125,0.0
152.62890625,-50.78125,-43.9453125,-47.8515625,-45.8984375,-134.765625,0.0
152.6328125,-36.1328125,-34.66796875,-32.71484375,-45.41015625,-252.9296875,0.0
152.63671875,-25.390625,-25.390625,-22.4609375,-38.57421875,-189.94140625,0.0
152.640625,-34.66796875,-31.25,-41.50390625,-44.921875,-131.8359375,0.0
152.64453125,-47.8515625,-42.48046875,-42.48046875,-54.19921875,-212.40234375,0.0
152.6484375,-52.24609375,-38.0859375,-27.83203125,-49.31640625,-288.57421875,0.0
152.65234375,-49.8046875,-38.0859375,-37.59765625,-55.17578125,-214.84375,0.0
152.65625,-39.55078125,-40.52734375,-41.015625,-49.8046875,-150.390625,0.0
152.66015625,-31.25,-32.71484375,-32.71484375,-35.15625,-50.78125,0.0
152.6640625,-42.96875,-34.66796875,-34.66796875,-40.52734375,42.48046875,0.0
152.66796875,-54.6875,-42.96875,-37.109375,-50.78125,-39.0625,0.0
152.671875,-48.828125,-40.0390625,-39.0625,-56.15234375,4.8828125,0.0
152.67578125,-31.73828125,-30.2734375,-32.71484375,-41.015625,119.62890625,0.0
152.6796875,-3.90625,-10.25390625,6.8359375,-11.23046875,92.28515625,0.0
152.68359375,-10.25390625,-10.7421875,7.32421875,-18.5546875,73.2421875,0.0
152.6875,-42.96875,-33.69140625,-34.1796875,-44.43359375,-5.859375,0.0
152.69140625,-47.36328125,-41.50390625,-44.921875,-45.8984375,-51.7578125,0.0
152.6953125,-37.109375,-35.64453125,-41.015625,-40.52734375,15.625,0.0
152.69921875,-31.73828125,-31.73828125,-34.1796875,-32.71484375,97.65625,0.0
152.703125,-40.0390625,-36.1328125,-38.0859375,-31.25,163.0859375,0.0
152.70703125,-44.921875,-38.57421875,-37.109375,-39.0625,85.44921875,0.0
152.7109375,-38.0859375,-42.48046875,-33.203125,-41.50390625,-23.92578125,0.0
152.71484375,-33.69140625,-42.96875,-37.59765625,-40.0390625,17.578125,0.0
152.71875,-28.80859375,-35.15625,-35.64453125,-34.1796875,126.953125,0.0
152.72265625,-28.3203125,-29.78515625,-20.01953125,-30.2734375,72.75390625,0.0
152.7265625,-35.64453125,-33.69140625,-24.90234375,-29.78515625,-14.16015625,0.0
152.73046875,-40.52734375,-40.52734375,-40.52734375,-37.59765625,-107.421875,0.0
152.734375,-34.1796875,-37.109375,-32.71484375,-41.50390625,-117.67578125,0.0
152.73828125,-16.11328125,-16.6015625,-9.765625,-17.578125,3.90625,0.0
152.7421875,-28.3203125,-21.484375,-17.08984375,-16.6015625,-10.25390625,0.0
152.74609375,-49.8046875,-44.43359375,-39.0625,-39.0625,-52.24609375,0.0
152.75,-48.33984375,-41.50390625,-34.1796875,-35.64453125,-103.515625,0.0
152.75390625,-35.15625,-25.390625,-16.11328125,-25.87890625,-79.1015625,0.0
152.7578125,-32.71484375,-25.87890625,-21.484375,-25.87890625,-22.4609375,0.0
152.76171875,-43.9453125,-32.2265625,-34.1796875,-22.94921875,-8.7890625,0.0
152.765625,-46.38671875,-34.1796875,-33.203125,-27.83203125,-39.55078125,0.0
152.76953125,-27.83203125,-25.390625,-0.9765625,-17.578125,-110.3515625,0.0
152.7734375,-30.2734375,-32.2265625,-14.16015625,-26.85546875,-56.15234375,0.0
152.77734375,-35.64453125,-40.0390625,-40.52734375,-36.62109375,1.953125,0.0
152.78125,-24.90234375,-29.78515625,-28.3203125,-22.94921875,-26.85546875,0.0
152.78515625,-30.2734375,-26.3671875,-16.11328125,-17.08984375,-81.0546875,0.0
152.7890625,-50.78125,-45.41015625,-38.57421875,-40.0390625,-62.5,0.0
152.79296875,-47.36328125,-45.8984375,-47.8515625,-49.31640625,4.39453125,0.0
152.796875,-36.1328125,-35.64453125,-38.57421875,-39.55078125,58.59375,0.0
152.80078125,-32.2265625,-30.76171875,-32.2265625,-31.73828125,102.5390625,0.0
152.8046875,-43.45703125,-34.1796875,-37.59765625,-32.71484375,47.8515625,0.0
152.80859375,-49.31640625,-41.9921875,-45.41015625,-44.921875,-97.65625,0.0
152.8125,-37.109375,-36.1328125,-33.69140625,-42.48046875,-133.7890625,0.0
152.81640625,-28.3203125,-31.73828125,-28.3203125,-32.71484375,-58.59375,0.0
152.8203125,-25.87890625,-32.2265625,-29.78515625,-24.90234375,-4.39453125,0.0
152.82421875,-35.15625,-33.69140625,-29.296875,-25.87890625,-34.66796875,0.0
152.828125,-40.52734375,-32.2265625,-16.6015625,-22.94921875,-88.8671875,0.0
152.83203125,-38.57421875,-35.15625,-16.11328125,-32.2265625,-101.5625,0.0
152.8359375,-38.0859375,-38.57421875,-28.3203125,-33.69140625,13.671875,0.0
152.83984375,-27.34375,-26.85546875,-26.85546875,-18.5546875,110.3515625,0.0
152.84375,-27.34375,-23.4375,-21.484375,-22.94921875,35.15625,0.0
152.84765625,-36.62109375,-32.71484375,-28.3203125,-32.71484375,-5.859375,0.0
152.8515625,-36.62109375,-41.50390625,-36.62109375,-36.62109375,-67.3828125,0.0
152.85546875,-26.3671875,-35.64453125,-28.80859375,-37.109375,-109.375,0.0
152.859375,-23.4375,-24.90234375,-26.85546875,-27.83203125,-47.36328125,0.0
152.86328125,-35.64453125,-28.3203125,-31.73828125,-32.2265625,-48.828125,0.0
152.8671875,-48.828125,-36.62109375,-33.69140625,-46.38671875,-14.6484375,0.0
152.87109375,-41.9921875,-37.109375,-33.203125,-41.015625,-49.8046875,0.0
152.875,-16.11328125,-29.296875,-17.578125,-22.4609375,-88.37890625,0.0
152.87890625,-10.25390625,-23.92578125,-15.13671875,-18.5546875,-58.59375,0.0
152.8828125,-27.83203125,-26.3671875,-21.97265625,-23.4375,4.39453125,0.0
152.88671875,-43.9453125,-33.69140625,-24.4140625,-32.2265625,-41.50390625,0.0
152.890625,-42.96875,-37.109375,-30.76171875,-38.0859375,-5.37109375,0.0
152.89453125,-30.76171875,-35.15625,-30.76171875,-35.15625,92.7734375,0.0
152.8984375,-30.76171875,-32.2265625,-28.80859375,-37.109375,115.72265625,0.0
152.90234375,-36.1328125,-34.1796875,-28.80859375,-37.109375,42.96875,0.0
152.90625,-41.9921875,-38.57421875,-33.203125,-39.55078125,-110.83984375,0.0
152.91015625,-42.48046875,-40.0390625,-32.2265625,-44.921875,-129.8828125,0.0
152.9140625,-38.0859375,-43.9453125,-34.1796875,-47.36328125,-62.01171875,0.0
152.91796875,-22.4609375,-28.3203125,-19.53125,-30.2734375,31.25,0.0
152.921875,-16.6015625,-18.06640625,-3.41796875,-15.13671875,35.64453125,0.0
152.92578125,-39.0625,-35.64453125,-24.90234375,-33.203125,-28.3203125,0.0
152.9296875,-51.7578125,-46.38671875,-39.55078125,-44.921875,-91.796875,0.0
152.93359375,-41.9921875,-41.015625,-35.15625,-36.1328125,-43.45703125,0.0
152.9375,-27.34375,-38.0859375,-31.25,-26.85546875,22.4609375,0.0
152.94140625,-28.80859375,-35.64453125,-26.3671875,-24.90234375,16.6015625,0.0
152.9453125,-37.59765625,-38.0859375,-25.87890625,-28.3203125,-121.58203125,0.0
152.94921875,-40.52734375,-39.55078125,-28.3203125,-31.25,-222.65625,0.0
152.953125,-35.64453125,-36.1328125,-29.78515625,-32.2265625,-187.98828125,0.0
152.95703125,-25.390625,-34.66796875,-28.3203125,-24.4140625,-29.78515625,0.0
152.9609375,-23.4375,-29.296875,-20.5078125,-11.71875,100.09765625,0.0
152.96484375,-14.6484375,-15.625,3.90625,0.0,32.71484375,0.0
152.96875,-20.01953125,-23.4375,-4.39453125,-17.578125,-55.6640625,0.0
152.97265625,-33.203125,-38.0859375,-32.71484375,-41.50390625,-62.01171875,0.0
152.9765625,-25.87890625,-32.71484375,-29.78515625,-30.2734375,-43.9453125,0.0
152.98046875,-24.90234375,-30.76171875,-21.97265625,-24.4140625,-57.6171875,0.0
152.984375,-34.1796875,-38.57421875,-30.2734375,-32.71484375,-37.59765625,0.0
152.98828125,-41.50390625,-44.921875,-35.64453125,-40.0390625,-20.5078125,0.0
152.9921875,-38.0859375,-48.828125,-31.25,-47.36328125,-56.15234375,0.0
152.99609375,-28.3203125,-48.828125,-32.71484375,-44.43359375,-55.6640625,0.0
153.0,-22.4609375,-41.9921875,-31.73828125,-33.203125,-3.90625,0.0
153.00390625,-29.296875,-44.921875,-29.296875,-38.0859375,-41.50390625,0.0
153.0078125,-33.203125,-47.8515625,-20.5078125,-37.59765625,-106.93359375,0.0
153.01171875,-33.203125,-46.875,-18.5546875,-37.109375,-12.20703125,0.0
153.015625,-34.66796875,-48.33984375,-33.203125,-49.8046875,148.92578125,0.0
153.01953125,-33.203125,-41.015625,-32.71484375,-33.69140625,117.67578125,0.0
153.0234375,-48.828125,-41.015625,-28.3203125,-25.87890625,-13.671875,0.0
153.02734375,-61.5234375,-50.78125,-35.64453125,-35.64453125,-109.375,0.0
153.03125,-55.6640625,-54.6875,-38.57421875,-37.109375,-127.44140625,0.0
153.03515625,-43.9453125,-44.43359375,-30.2734375,-37.59765625,-115.72265625,0.0
153.0390625,-41.50390625,-33.203125,-24.90234375,-32.2265625,-108.3984375,0.0
153.04296875,-51.26953125,-36.1328125,-23.92578125,-26.3671875,-47.36328125,0.0
153.046875,-54.6875,-41.50390625,-26.3671875,-32.71484375,-2.44140625,0.0
153.05078125,-54.19921875,-41.015625,-32.71484375,-45.41015625,-100.5859375,0.0
153.0546875,-29.296875,-22.94921875,-6.8359375,-28.80859375,-49.31640625,0.0
153.05859375,-22.4609375,-21.484375,-6.34765625,-24.4140625,118.1640625,0.0
153.0625,-46.875,-36.1328125,-26.85546875,-46.875,63.96484375,0.0
153.06640625,-59.08203125,-42.48046875,-27.34375,-56.640625,-120.1171875,0.0
153.0703125,-61.03515625,-49.31640625,-30.2734375,-58.59375,-119.140625,0.0
153.07421875,-42.96875,-42.48046875,-24.4140625,-47.8515625,-66.89453125,0.0
153.078125,-29.296875,-37.109375,-24.90234375,-39.0625,-102.05078125,0.0
153.08203125,-32.2265625,-35.15625,-20.01953125,-31.25,-123.53515625,0.0
153.0859375,-44.921875,-38.57421875,-19.04296875,-38.0859375,-154.78515625,0.0
153.08984375,-47.36328125,-43.45703125,-25.390625,-48.828125,-72.265625,0.0
153.09375,-42.48046875,-39.55078125,-30.2734375,-55.6640625,-20.5078125,0.0
153.09765625,-34.1796875,-27.83203125,-16.6015625,-40.52734375,-16.6015625,0.0
153.1015625,-29.296875,-21.97265625,-1.953125,-20.5078125,20.01953125,0.0
153.10546875,-51.7578125,-36.1328125,-24.4140625,-37.59765625,5.37109375,0.0
153.109375,-62.5,-43.45703125,-33.69140625,-46.875,-8.7890625,0.0
153.11328125,-44.921875,-40.0390625,-25.87890625,-32.2265625,-31.25,0.0
153.1171875,-28.80859375,-36.62109375,-21.484375,-25.87890625,-22.4609375,0.0
153.12109375,-28.80859375,-34.1796875,-22.4609375,-26.3671875,-0.9765625,0.0
153.125,-44.921875,-34.66796875,-29.78515625,-38.57421875,-21.484375,0.0
153.12890625,-52.734375,-36.1328125,-31.73828125,-44.43359375,0.9765625,0.0
153.1328125,-46.38671875,-40.52734375,-28.3203125,-39.55078125,58.59375,0.0
153.13671875,-40.52734375,-40.52734375,-31.73828125,-41.015625,10.7421875,0.0
153.140625,-35.64453125,-29.78515625,-30.2734375,-41.015625,-8.30078125,0.0
153.14453125,-22.94921875,-13.671875,-1.953125,-18.5546875,-6.8359375,0.0
153.1484375,-34.66796875,-28.3203125,-10.25390625,-29.296875,-82.51953125,0.0
153.15234375,-48.828125,-47.8515625,-35.64453125,-50.29296875,-65.91796875,0.0
153.15625,-29.296875,-38.57421875,-25.390625,-36.62109375,45.41015625,0.0
153.16015625,-12.6953125,-24.90234375,-8.7890625,-21.97265625,70.80078125,0.0
153.1640625,-34.1796875,-37.59765625,-19.04296875,-33.203125,38.57421875,0.0
153.16796875,-48.828125,-49.31640625,-30.2734375,-44.43359375,-8.7890625,0.0
153.171875,-44.921875,-48.33984375,-33.69140625,-44.43359375,-80.078125,0.0
153.17578125,-35.64453125,-39.0625,-29.78515625,-39.55078125,-60.546875,0.0
153.1796875,-31.73828125,-31.25,-22.94921875,-34.1796875,8.30078125,0.0
153.18359375,-38.57421875,-35.64453125,-22.94921875,-32.71484375,-57.6171875,0.0
153.1875,-42.48046875,-45.8984375,-28.3203125,-37.59765625,-158.203125,0.0
153.19140625,-36.1328125,-46.875,-30.76171875,-42.96875,-105.46875,0.0
153.1953125,-30.2734375,-40.0390625,-34.1796875,-43.45703125,-30.76171875,0.0
153.19921875,-28.80859375,-38.0859375,-35.64453125,-39.0625,-8.30078125,0.0
153.203125,-22.94921875,-30.2734375,-9.27734375,-24.4140625,-130.37109375,0.0
153.20703125,-33.69140625,-31.73828125,1.953125,-24.4140625,-182.12890625,0.0
153.2109375,-51.7578125,-50.78125,-23.92578125,-44.43359375,-89.84375,0.0
153.21484375,-40.52734375,-44.43359375,-26.85546875,-41.015625,-40.0390625,0.0
153.21875,-29.296875,-33.203125,-21.97265625,-28.3203125,19.04296875,0.0
153.22265625,-33.69140625,-35.15625,-23.92578125,-26.85546875,-34.66796875,0.0
153.2265625,-47.8515625,-36.62109375,-28.80859375,-31.73828125,-134.27734375,0.0
153.23046875,-46.875,-38.0859375,-29.296875,-31.73828125,-74.70703125,0.0
153.234375,-33.203125,-36.62109375,-21.97265625,-22.4609375,3.90625,0.0
153.23828125,-24.4140625,-27.83203125,-19.04296875,-20.99609375,26.85546875,0.0
153.2421875,-24.4140625,-28.3203125,-22.94921875,-21.97265625,36.1328125,0.0
153.24609375,-26.3671875,-31.25,-18.5546875,-21.97265625,-30.2734375,0.0
153.25,-5.37109375,-12.20703125,16.6015625,-5.859375,-28.80859375,0.0
153.25390625,-5.859375,-14.6484375,13.18359375,-5.859375,96.6796875,0.0
153.2578125,-23.92578125,-33.69140625,-21.484375,-20.99609375,170.41015625,0.0
153.26171875,-30.2734375,-40.0390625,-23.92578125,-26.3671875,94.7265625,0.0
153.265625,-42.96875,-43.9453125,-28.3203125,-30.76171875,28.80859375,0.0
153.26953125,-51.26953125,-45.41015625,-37.109375,-40.52734375,-68.359375,0.0
153.2734375,-42.48046875,-43.45703125,-37.59765625,-42.96875,-74.70703125,0.0
153.27734375,-26.3671875,-32.2265625,-31.73828125,-30.76171875,-95.21484375,0.0
153.28125,-28.80859375,-30.2734375,-29.78515625,-27.34375,-128.90625,0.0
153.28515625,-39.55078125,-35.64453125,-34.66796875,-36.1328125,-64.453125,0.0
153.2890625,-49.31640625,-39.0625,-35.15625,-48.33984375,-40.52734375,0.0
153.29296875,-33.69140625,-29.78515625,-16.11328125,-33.203125,-80.56640625,0.0
153.296875,-17.08984375,-21.97265625,-9.27734375,-17.08984375,-78.61328125,0.0
153.30078125,-33.203125,-31.73828125,-26.85546875,-29.78515625,-60.05859375,0.0
153.3046875,-45.8984375,-35.15625,-26.85546875,-38.0859375,-38.57421875,0.0
153.30859375,-44.921875,-34.66796875,-21.484375,-34.1796875,41.015625,0.0
153.3125,-44.921875,-43.45703125,-33.69140625,-41.015625,46.875,0.0
153.31640625,-38.0859375,-42.96875,-32.71484375,-39.55078125,39.55078125,0.0
153.3203125,-29.78515625,-30.76171875,-20.99609375,-20.99609375,58.59375,0.0
153.32421875,-37.59765625,-30.76171875,-21.484375,-20.99609375,-42.48046875,0.0
153.328125,-42.96875,-34.66796875,-22.94921875,-24.4140625,-144.04296875,0.0
153.33203125,-41.015625,-39.55078125,-26.3671875,-26.85546875,-67.3828125,0.0
153.3359375,-25.87890625,-38.0859375,-21.484375,-19.53125,-75.68359375,0.0
153.33984375,0.9765625,-16.11328125,8.7890625,8.30078125,-136.71875,0.0
153.34375,-22.4609375,-27.34375,-1.953125,-9.27734375,-109.375,0.0
153.34765625,-51.7578125,-49.31640625,-28.80859375,-33.203125,-148.92578125,0.0
153.3515625,-52.24609375,-48.33984375,-30.2734375,-35.64453125,-169.921875,0.0
153.35546875,-42.48046875,-41.50390625,-27.34375,-39.0625,2.44140625,0.0
153.359375,-26.85546875,-34.66796875,-20.5078125,-27.34375,79.58984375,0.0
153.36328125,-32.71484375,-35.15625,-20.01953125,-24.4140625,16.6015625,0.0
153.3671875,-44.43359375,-39.0625,-19.04296875,-27.83203125,-48.33984375,0.0
153.37109375,-50.29296875,-46.875,-21.97265625,-33.69140625,-68.359375,0.0
153.375,-39.55078125,-42.96875,-28.3203125,-32.71484375,0.9765625,0.0
153.37890625,-32.2265625,-33.69140625,-26.3671875,-26.85546875,40.0390625,0.0
153.3828125,-42.48046875,-31.73828125,-16.11328125,-29.296875,6.34765625,0.0
153.38671875,-54.19921875,-41.50390625,-16.11328125,-34.66796875,-107.421875,0.0
153.390625,-55.6640625,-48.828125,-29.296875,-40.52734375,-93.75,0.0
153.39453125,-39.55078125,-39.55078125,-24.4140625,-34.66796875,-30.76171875,0.0
153.3984375,-31.25,-33.203125,-20.01953125,-22.4609375,1.953125,0.0
153.40234375,-38.57421875,-35.64453125,-20.01953125,-22.4609375,17.08984375,0.0
153.40625,-46.38671875,-43.9453125,-24.90234375,-29.78515625,-40.0390625,0.0
153.41015625,-48.828125,-47.8515625,-28.80859375,-38.57421875,-97.16796875,0.0
153.4140625,-34.1796875,-35.64453125,-20.99609375,-40.0390625,-17.578125,0.0
153.41796875,-21.484375,-24.90234375,-15.625,-27.83203125,33.203125,0.0
153.421875,-29.296875,-33.203125,-16.6015625,-24.4140625,-29.78515625,0.0
153.42578125,-39.55078125,-40.0390625,-19.04296875,-27.34375,-40.52734375,0.0
153.4296875,-44.921875,-46.38671875,-17.578125,-40.0390625,-8.30078125,0.0
153.43359375,-40.0390625,-49.8046875,-19.53125,-41.015625,-17.08984375,0.0
153.4375,-25.87890625,-38.0859375,-21.484375,-27.83203125,17.578125,0.0
153.44140625,-26.85546875,-33.203125,-22.4609375,-25.390625,33.69140625,0.0
153.4453125,-38.57421875,-36.62109375,-23.4375,-26.85546875,-23.4375,0.0
153.44921875,-45.8984375,-42.96875,-25.87890625,-35.64453125,-33.69140625,0.0
153.453125,-37.59765625,-41.015625,-24.90234375,-36.62109375,-33.69140625,0.0
153.45703125,-20.5078125,-33.69140625,-17.08984375,-22.94921875,-75.68359375,0.0
153.4609375,-17.08984375,-28.80859375,-15.13671875,-15.625,-30.76171875,0.0
153.46484375,-34.66796875,-37.59765625,-19.04296875,-23.92578125,-45.41015625,0.0
153.46875,-52.24609375,-52.24609375,-27.34375,-33.203125,-128.41796875,0.0
153.47265625,-41.9921875,-46.38671875,-27.83203125,-32.71484375,-114.2578125,0.0
153.4765625,-24.90234375,-35.15625,-26.3671875,-29.296875,-2.9296875,0.0
153.48046875,-22.4609375,-31.25,-21.484375,-22.4609375,29.296875,0.0
153.484375,-35.64453125,-36.1328125,-21.484375,-23.92578125,-70.3125,0.0
153.48828125,-42.96875,-37.109375,-17.08984375,-28.3203125,-161.1328125,0.0
153.4921875,-39.55078125,-34.1796875,-17.08984375,-31.25,-95.703125,0.0
153.49609375,-30.2734375,-36.62109375,-24.4140625,-29.78515625,-5.859375,0.0
153.5,-21.97265625,-29.296875,-18.06640625,-19.53125,-55.6640625,0.0
153.50390625,-32.2265625,-29.296875,-20.99609375,-21.97265625,-114.74609375,0.0
153.5078125,-41.015625,-43.45703125,-22.4609375,-34.66796875,-183.10546875,0.0
153.51171875,-37.59765625,-47.8515625,-25.390625,-38.0859375,-152.34375,0.0
153.515625,-29.296875,-42.96875,-23.92578125,-28.80859375,-16.6015625,0.0
153.51953125,-12.6953125,-30.2734375,-2.44140625,-17.578125,33.69140625,0.0
153.5234375,-20.5078125,-30.76171875,-8.30078125,-19.53125,-42.48046875,0.0
153.52734375,-40.52734375,-45.8984375,-28.80859375,-30.76171875,-44.921875,0.0
153.53125,-36.62109375,-46.38671875,-29.78515625,-31.25,-15.625,0.0
153.53515625,-22.4609375,-39.55078125,-24.4140625,-20.99609375,-14.16015625,0.0
153.5390625,-22.94921875,-36.62109375,-20.99609375,-13.18359375,62.5,0.0
153.54296875,-30.76171875,-36.62109375,-18.5546875,-11.23046875,103.02734375,0.0
153.546875,-39.55078125,-41.015625,-20.5078125,-22.4609375,-2.44140625,0.0
153.55078125,-45.41015625,-45.8984375,-26.3671875,-37.109375,-40.52734375,0.0
153.5546875,-33.203125,-43.9453125,-25.87890625,-33.203125,-10.25390625,0.0
153.55859375,-16.11328125,-29.78515625,-14.6484375,-23.92578125,59.5703125,0.0
153.5625,-19.04296875,-25.87890625,-10.7421875,-22.4609375,87.890625,0.0
153.56640625,-39.55078125,-38.0859375,-17.08984375,-31.73828125,15.13671875,0.0
153.5703125,-51.26953125,-49.31640625,-24.90234375,-44.921875,5.859375,0.0
153.57421875,-42.48046875,-46.38671875,-26.3671875,-42.48046875,84.9609375,0.0
153.578125,-23.92578125,-35.15625,-7.32421875,-21.484375,98.14453125,0.0
153.58203125,-24.4140625,-29.78515625,-2.9296875,-13.671875,29.78515625,0.0
153.5859375,-38.57421875,-37.109375,-22.4609375,-28.3203125,-72.265625,0.0
153.58984375,-43.45703125,-43.9453125,-27.34375,-28.80859375,-69.82421875,0.0
153.59375,-36.1328125,-36.1328125,-15.625,-20.5078125,-28.3203125,0.0
153.59765625,-36.1328125,-33.69140625,-19.04296875,-20.99609375,53.7109375,0.0
153.6015625,-41.9921875,-40.0390625,-27.34375,-22.94921875,21.484375,0.0
153.60546875,-51.7578125,-42.96875,-31.73828125,-28.80859375,-91.796875,0.0
153.609375,-54.6875,-47.8515625,-35.15625,-30.76171875,-94.7265625,0.0
153.61328125,-47.8515625,-50.78125,-36.62109375,-35.64453125,-78.61328125,0.0
153.6171875,-44.921875,-49.31640625,-39.55078125,-39.0625,-104.4921875,0.0
153.62109375,-45.8984375,-45.41015625,-35.15625,-32.2265625,-22.94921875,0.0
153.625,-33.203125,-31.25,-7.8125,-20.99609375,-58.10546875,0.0
153.62890625,-36.1328125,-36.1328125,-15.13671875,-33.203125,-150.87890625,0.0
153.6328125,-44.43359375,-45.8984375,-34.66796875,-39.55078125,-78.61328125,0.0
153.63671875,-32.71484375,-36.1328125,-31.25,-32.71484375,1.953125,0.0
153.640625,-28.80859375,-35.64453125,-27.83203125,-29.296875,-1.46484375,0.0
153.64453125,-34.66796875,-39.55078125,-27.83203125,-27.34375,-21.97265625,0.0
153.6484375,-44.921875,-44.43359375,-35.64453125,-36.62109375,-16.11328125,0.0
153.65234375,-38.57421875,-41.9921875,-29.78515625,-35.15625,-71.2890625,0.0
153.65625,-25.87890625,-36.62109375,-22.4609375,-29.296875,55.6640625,0.0
153.66015625,-26.3671875,-34.66796875,-24.4140625,-28.3203125,84.47265625,0.0
153.6640625,-36.1328125,-34.66796875,-26.3671875,-32.2265625,-111.328125,0.0
153.66796875,-31.73828125,-37.59765625,-18.06640625,-32.71484375,-210.9375,0.0
153.671875,-28.3203125,-39.55078125,-17.08984375,-36.62109375,-130.37109375,0.0
153.67578125,-35.15625,-43.45703125,-30.2734375,-41.9921875,-20.01953125,0.0
153.6796875,-30.76171875,-39.55078125,-28.3203125,-32.2265625,-23.92578125,0.0
153.68359375,-34.1796875,-36.62109375,-19.04296875,-25.87890625,-1.953125,0.0
153.6875,-42.48046875,-39.55078125,-18.5546875,-33.69140625,-58.10546875,0.0
153.69140625,-43.9453125,-44.43359375,-26.85546875,-41.50390625,-121.09375,0.0
153.6953125,-32.71484375,-35.64453125,-26.3671875,-30.2734375,-66.40625,0.0
153.69921875,-18.5546875,-24.4140625,-20.01953125,-16.6015625,-10.7421875,0.0
153.703125,-28.3203125,-29.78515625,-30.2734375,-26.85546875,17.578125,0.0
153.70703125,-45.8984375,-33.69140625,-38.57421875,-32.71484375,38.0859375,0.0
153.7109375,-44.43359375,-38.0859375,-38.57421875,-39.55078125,-0.48828125,0.0
153.71484375,-17.578125,-28.3203125,-12.6953125,-21.97265625,6.34765625,0.0
153.71875,-12.6953125,-25.390625,-9.27734375,-11.23046875,67.87109375,0.0
153.72265625,-28.3203125,-34.1796875,-31.25,-22.4609375,53.7109375,0.0
153.7265625,-34.66796875,-40.0390625,-36.1328125,-26.3671875,60.546875,0.0
153.73046875,-39.0625,-48.33984375,-37.59765625,-36.62109375,21.484375,0.0
153.734375,-31.25,-39.0625,-33.69140625,-37.59765625,-16.11328125,0.0
153.73828125,-23.4375,-30.76171875,-29.296875,-33.203125,3.41796875,0.0
153.7421875,-31.25,-39.0625,-31.73828125,-37.109375,-13.671875,0.0
153.74609375,-36.62109375,-40.0390625,-34.1796875,-37.109375,-55.17578125,0.0
153.75,-37.59765625,-42.48046875,-33.203125,-41.50390625,-126.46484375,0.0
153.75390625,-31.73828125,-43.45703125,-29.78515625,-39.0625,-159.66796875,0.0
153.7578125,-22.4609375,-35.15625,-21.97265625,-31.25,-43.45703125,0.0
153.76171875,-21.97265625,-34.66796875,-16.11328125,-26.85546875,-76.66015625,0.0
153.765625,-31.73828125,-34.66796875,-23.4375,-30.76171875,-166.9921875,0.0
153.76953125,-40.52734375,-39.55078125,-28.80859375,-42.96875,-185.546875,0.0
153.7734375,-33.203125,-41.015625,-26.85546875,-37.59765625,-51.7578125,0.0
153.77734375,-24.4140625,-33.69140625,-21.97265625,-29.296875,80.078125,0.0
153.78125,-32.2265625,-39.0625,-19.04296875,-30.2734375,-47.8515625,0.0
153.78515625,-43.9453125,-42.96875,-22.4609375,-33.203125,-234.375,0.0
153.7890625,-41.9921875,-46.38671875,-26.3671875,-38.57421875,-230.46875,0.0
153.79296875,-34.1796875,-44.921875,-25.87890625,-38.0859375,-73.2421875,0.0
153.796875,-24.90234375,-36.62109375,-20.99609375,-28.80859375,52.24609375,0.0
153.80078125,-20.99609375,-36.62109375,-21.97265625,-23.4375,107.421875,0.0
153.8046875,-16.11328125,-31.25,-7.32421875,-14.16015625,56.15234375,0.0
153.80859375,-19.04296875,-30.2734375,-6.34765625,-16.11328125,-56.15234375,0.0
153.8125,-30.76171875,-41.015625,-34.1796875,-36.1328125,-16.11328125,0.0
153.81640625,-26.3671875,-39.0625,-37.109375,-36.1328125,79.1015625,0.0
153.8203125,-27.83203125,-33.203125,-28.80859375,-33.69140625,84.9609375,0.0
153.82421875,-39.0625,-36.1328125,-30.2734375,-35.64453125,23.4375,0.0
153.828125,-43.9453125,-44.43359375,-30.76171875,-37.109375,-111.328125,0.0
153.83203125,-42.48046875,-47.8515625,-33.203125,-45.8984375,-190.91796875,0.0
153.8359375,-35.15625,-41.9921875,-35.64453125,-44.43359375,-83.0078125,0.0
153.83984375,-28.3203125,-35.64453125,-30.2734375,-36.1328125,2.9296875,0.0
153.84375,-30.76171875,-38.0859375,-28.80859375,-41.50390625,-53.22265625,0.0
153.84765625,-43.45703125,-39.55078125,-26.85546875,-48.33984375,-101.07421875,0.0
153.8515625,-49.8046875,-41.9921875,-28.80859375,-48.828125,-90.8203125,0.0
153.85546875,-37.109375,-45.8984375,-31.73828125,-38.0859375,20.01953125,0.0
153.859375,-33.203125,-40.52734375,-29.78515625,-33.203125,28.3203125,0.0
153.86328125,-38.57421875,-35.15625,-14.16015625,-33.203125,-133.30078125,0.0
153.8671875,-46.38671875,-43.45703125,-14.6484375,-39.0625,-159.1796875,0.0
153.87109375,-53.7109375,-52.734375,-38.0859375,-52.24609375,-103.515625,0.0
153.875,-46.38671875,-51.7578125,-39.0625,-50.29296875,-49.8046875,0.0
153.87890625,-36.62109375,-41.50390625,-27.83203125,-39.55078125,39.0625,0.0
153.8828125,-41.9921875,-38.0859375,-31.25,-33.69140625,64.94140625,0.0
153.88671875,-50.29296875,-45.41015625,-38.0859375,-39.0625,-8.30078125,0.0
153.890625,-51.7578125,-47.36328125,-37.109375,-46.38671875,-68.359375,0.0
153.89453125,-49.31640625,-47.36328125,-38.57421875,-46.875,-39.0625,0.0
153.8984375,-38.0859375,-41.50390625,-37.59765625,-40.52734375,-20.99609375,0.0
153.90234375,-39.55078125,-44.43359375,-37.59765625,-34.66796875,-41.50390625,0.0
153.90625,-47.8515625,-50.29296875,-34.66796875,-36.1328125,-66.40625,0.0
153.91015625,-39.0625,-44.43359375,-11.71875,-35.64453125,-105.95703125,0.0
153.9140625,-30.2734375,-38.0859375,-19.04296875,-33.203125,-52.734375,0.0
153.91796875,-30.76171875,-34.1796875,-34.1796875,-37.109375,-8.30078125,0.0
153.921875,-32.71484375,-30.2734375,-27.83203125,-31.25,10.7421875,0.0
153.92578125,-33.203125,-28.80859375,-19.53125,-28.80859375,-20.5078125,0.0
153.9296875,-45.41015625,-37.59765625,-29.78515625,-39.55078125,-101.07421875,0.0
153.93359375,-38.57421875,-37.59765625,-38.57421875,-39.55078125,-85.9375,0.0
153.9375,-27.34375,-32.71484375,-35.64453125,-25.87890625,4.39453125,0.0
153.94140625,-30.2734375,-24.90234375,-35.15625,-18.5546875,13.18359375,0.0
153.9453125,-38.57421875,-27.83203125,-35.64453125,-30.2734375,-78.125,0.0
153.94921875,-51.7578125,-46.38671875,-46.875,-48.33984375,-138.671875,0.0
153.953125,-29.78515625,-39.0625,-25.390625,-38.0859375,-85.44921875,0.0
153.95703125,-11.71875,-25.87890625,-10.25390625,-22.4609375,-64.94140625,0.0
153.9609375,-27.34375,-32.2265625,-27.34375,-31.25,-5.859375,0.0
153.96484375,-32.71484375,-34.66796875,-30.76171875,-38.57421875,17.08984375,0.0
153.96875,-34.66796875,-39.55078125,-36.62109375,-41.015625,-36.1328125,0.0
153.97265625,-31.25,-41.50390625,-39.55078125,-42.48046875,-59.5703125,0.0
153.9765625,-24.90234375,-36.62109375,-40.0390625,-39.55078125,62.5,0.0
153.98046875,-26.85546875,-32.2265625,-34.66796875,-26.3671875,131.34765625,0.0
153.984375,-25.390625,-21.97265625,-12.20703125,-14.16015625,22.94921875,0.0
153.98828125,-41.015625,-32.2265625,-19.04296875,-34.1796875,-87.890625,0.0
153.9921875,-52.24609375,-42.48046875,-38.57421875,-45.41015625,-155.76171875,0.0
153.99609375,-35.64453125,-32.71484375,-31.25,-32.2265625,-199.70703125,0.0
154.0,-20.99609375,-23.4375,-5.37109375,-20.99609375,-62.5,0.0
154.00390625,-33.69140625,-24.4140625,-20.5078125,-20.99609375,-28.3203125,0.0
154.0078125,-44.43359375,-33.203125,-40.0390625,-31.25,-118.65234375,0.0
154.01171875,-41.9921875,-39.55078125,-39.0625,-38.57421875,-20.99609375,0.0
154.015625,-32.2265625,-33.69140625,-38.0859375,-36.62109375,-25.87890625,0.0
154.01953125,-28.80859375,-30.76171875,-40.0390625,-30.2734375,-139.6484375,0.0
154.0234375,-33.69140625,-33.203125,-40.52734375,-29.296875,-191.89453125,0.0
154.02734375,-39.55078125,-37.59765625,-35.15625,-36.62109375,-207.03125,0.0
154.03125,-43.45703125,-38.0859375,-33.69140625,-44.921875,-135.25390625,0.0
154.03515625,-38.0859375,-35.15625,-36.1328125,-47.36328125,-84.9609375,0.0
154.0390625,-32.2265625,-31.25,-33.203125,-36.1328125,-92.7734375,0.0
154.04296875,-28.80859375,-27.34375,-13.18359375,-25.390625,-148.4375,0.0
154.046875,-34.1796875,-31.25,-5.37109375,-31.73828125,-227.5390625,0.0
154.05078125,-44.43359375,-38.0859375,-28.80859375,-43.45703125,-174.31640625,0.0
154.0546875,-40.0390625,-37.59765625,-36.62109375,-42.96875,-42.96875,0.0
154.05859375,-33.203125,-39.55078125,-33.69140625,-34.66796875,-4.8828125,0.0
154.0625,-33.69140625,-36.62109375,-31.25,-27.83203125,38.57421875,0.0
154.06640625,-41.015625,-34.1796875,-35.15625,-31.73828125,-18.06640625,0.0
154.0703125,-41.50390625,-41.015625,-40.52734375,-33.203125,-85.9375,0.0
154.07421875,-29.296875,-38.57421875,-33.69140625,-30.76171875,-30.76171875,0.0
154.078125,-21.484375,-25.390625,-28.3203125,-29.296875,-55.6640625,0.0
154.08203125,-30.2734375,-27.34375,-33.203125,-27.83203125,-68.84765625,0.0
154.0859375,-43.9453125,-40.0390625,-38.57421875,-30.76171875,-112.3046875,0.0
154.08984375,-32.2265625,-31.25,-15.13671875,-20.01953125,-198.2421875,0.0
154.09375,-23.92578125,-25.87890625,-4.39453125,-16.6015625,-237.79296875,0.0
154.09765625,-33.69140625,-26.85546875,-24.90234375,-33.69140625,-126.46484375,0.0
154.1015625,-34.1796875,-22.94921875,-30.76171875,-37.109375,-29.78515625,0.0
154.10546875,-38.0859375,-29.296875,-29.78515625,-32.71484375,-24.90234375,0.0
154.109375,-43.45703125,-35.64453125,-34.1796875,-35.15625,-79.1015625,0.0
154.11328125,-41.015625,-38.57421875,-35.64453125,-39.0625,-121.58203125,0.0
154.1171875,-32.71484375,-40.52734375,-31.25,-34.1796875,24.4140625,0.0
154.12109375,-29.296875,-35.64453125,-25.87890625,-27.83203125,99.12109375,0.0
154.125,-36.1328125,-40.0390625,-26.3671875,-27.34375,22.94921875,0.0
154.12890625,-42.48046875,-52.24609375,-32.71484375,-37.59765625,-49.8046875,0.0
154.1328125,-35.64453125,-50.78125,-25.87890625,-39.0625,-41.015625,0.0
154.13671875,-20.99609375,-36.1328125,-19.53125,-30.76171875,41.015625,0.0
154.140625,-18.06640625,-24.90234375,-20.99609375,-23.92578125,78.61328125,0.0
154.14453125,-27.83203125,-29.296875,-23.92578125,-28.3203125,78.61328125,0.0
154.1484375,-41.015625,-39.0625,-28.80859375,-41.50390625,44.43359375,0.0
154.15234375,-40.52734375,-38.0859375,-32.2265625,-47.8515625,28.3203125,0.0
154.15625,-34.66796875,-34.66796875,-35.64453125,-45.8984375,123.046875,0.0
154.16015625,-30.76171875,-30.2734375,-28.3203125,-31.73828125,175.78125,0.0
154.1640625,-34.1796875,-28.80859375,-24.90234375,-25.390625,86.9140625,0.0
154.16796875,-42.48046875,-33.69140625,-27.83203125,-28.3203125,-13.671875,0.0
154.171875,-43.9453125,-37.109375,-32.71484375,-40.0390625,38.0859375,0.0
154.17578125,-31.73828125,-33.203125,-28.3203125,-37.59765625,118.1640625,0.0
154.1796875,0.48828125,-8.30078125,9.765625,-5.859375,92.7734375,0.0
154.18359375,-7.32421875,-12.20703125,7.32421875,-5.859375,21.97265625,0.0
154.1875,-41.50390625,-42.96875,-32.2265625,-39.55078125,7.8125,0.0
154.19140625,-41.50390625,-44.43359375,-33.69140625,-46.38671875,37.59765625,0.0
154.1953125,-33.69140625,-35.64453125,-27.34375,-36.1328125,63.4765625,0.0
154.19921875,-33.203125,-33.69140625,-22.4609375,-31.73828125,37.109375,0.0
154.203125,-45.41015625,-38.0859375,-26.3671875,-43.45703125,7.32421875,0.0
154.20703125,-51.7578125,-37.109375,-25.390625,-50.78125,-57.12890625,0.0
154.2109375,-51.7578125,-39.55078125,-24.90234375,-49.31640625,-50.78125,0.0
154.21484375,-50.29296875,-41.50390625,-33.69140625,-49.31640625,1.953125,0.0
154.21875,-40.52734375,-33.203125,-31.73828125,-46.875,-44.43359375,0.0
154.22265625,-38.57421875,-26.3671875,-20.5078125,-39.55078125,-31.25,0.0
154.2265625,-50.29296875,-32.71484375,-27.34375,-46.875,41.9921875,0.0
154.23046875,-54.19921875,-46.38671875,-40.0390625,-57.6171875,6.34765625,0.0
154.234375,-41.9921875,-41.9921875,-37.109375,-52.24609375,5.37109375,0.0
154.23828125,-26.85546875,-21.97265625,-18.06640625,-37.109375,88.37890625,0.0
154.2421875,-30.76171875,-19.04296875,-17.578125,-34.66796875,59.5703125,0.0
154.24609375,-46.38671875,-33.203125,-33.69140625,-48.828125,-106.93359375,0.0
154.25,-49.8046875,-36.62109375,-34.66796875,-44.921875,-295.8984375,0.0
154.25390625,-36.1328125,-29.296875,-27.83203125,-31.73828125,-224.609375,0.0
154.2578125,-33.69140625,-34.1796875,-31.25,-29.78515625,-35.15625,0.0
154.26171875,-42.96875,-33.203125,-33.203125,-34.66796875,72.75390625,0.0
154.265625,-50.78125,-36.1328125,-34.66796875,-41.015625,-20.99609375,0.0
154.26953125,-43.9453125,-36.62109375,-20.01953125,-36.62109375,-76.66015625,0.0
154.2734375,-38.0859375,-35.15625,-20.99609375,-40.0390625,18.06640625,0.0
154.27734375,-37.59765625,-36.62109375,-35.64453125,-37.59765625,41.9921875,0.0
154.28125,-38.0859375,-33.69140625,-29.296875,-27.34375,12.20703125,0.0
154.28515625,-42.48046875,-37.59765625,-23.4375,-31.25,-22.94921875,0.0
154.2890625,-46.38671875,-41.50390625,-28.3203125,-38.57421875,-97.65625,0.0
154.29296875,-40.0390625,-37.59765625,-27.34375,-37.109375,-62.01171875,0.0
154.296875,-27.83203125,-31.25,-21.97265625,-26.85546875,16.11328125,0.0
154.30078125,-29.296875,-30.2734375,-22.4609375,-20.5078125,40.52734375,0.0
154.3046875,-41.50390625,-36.1328125,-27.83203125,-28.3203125,-25.390625,0.0
154.30859375,-48.33984375,-40.0390625,-32.2265625,-38.57421875,-154.296875,0.0
154.3125,-40.52734375,-32.2265625,-28.80859375,-34.66796875,-118.1640625,0.0
154.31640625,-26.3671875,-23.92578125,-23.4375,-25.390625,-13.671875,0.0
154.3203125,-18.06640625,-22.4609375,-21.97265625,-18.5546875,112.79296875,0.0
154.32421875,-26.85546875,-28.3203125,-28.80859375,-21.484375,118.1640625,0.0
154.328125,-35.15625,-31.73828125,-28.80859375,-23.92578125,16.11328125,0.0
154.33203125,-35.15625,-33.203125,-24.90234375,-27.34375,20.99609375,0.0
154.3359375,-27.83203125,-26.85546875,-28.3203125,-27.83203125,44.921875,0.0
154.33984375,-21.484375,-18.5546875,-23.92578125,-21.97265625,-38.57421875,0.0
154.34375,-34.1796875,-34.1796875,-28.3203125,-26.85546875,-117.67578125,0.0
154.34765625,-43.45703125,-42.48046875,-34.66796875,-32.2265625,-17.578125,0.0
154.3515625,-38.0859375,-37.59765625,-37.109375,-36.62109375,104.98046875,0.0
154.35546875,-34.1796875,-38.57421875,-35.64453125,-42.48046875,129.39453125,0.0
154.359375,-27.83203125,-33.203125,-24.4140625,-32.2265625,125.9765625,0.0
154.36328125,-30.76171875,-30.76171875,-16.6015625,-25.390625,65.91796875,0.0
154.3671875,-45.41015625,-38.57421875,-23.92578125,-40.0390625,-28.80859375,0.0
154.37109375,-43.9453125,-41.50390625,-32.71484375,-49.31640625,-73.73046875,0.0
154.375,-34.66796875,-37.59765625,-20.5078125,-45.41015625,-52.734375,0.0
154.37890625,-26.85546875,-28.80859375,-12.20703125,-30.2734375,16.11328125,0.0
154.3828125,-32.2265625,-33.203125,-20.99609375,-26.3671875,67.87109375,0.0
154.38671875,-42.96875,-42.96875,-25.87890625,-40.0390625,0.9765625,0.0
154.390625,-43.9453125,-41.9921875,-34.1796875,-43.9453125,-134.765625,0.0
154.39453125,-37.109375,-37.59765625,-38.0859375,-37.109375,-170.41015625,0.0
154.3984375,-22.4609375,-26.3671875,-32.71484375,-28.80859375,-105.46875,0.0
154.40234375,-28.80859375,-20.5078125,-33.203125,-28.80859375,-73.2421875,0.0
154.40625,-49.8046875,-32.2265625,-38.57421875,-36.1328125,-99.12109375,0.0
154.41015625,-55.6640625,-40.0390625,-36.62109375,-38.0859375,-190.91796875,0.0
154.4140625,-46.38671875,-41.015625,-35.15625,-38.57421875,-149.90234375,0.0
154.41796875,-31.73828125,-36.1328125,-22.94921875,-35.64453125,-40.0390625,0.0
154.421875,-26.85546875,-28.3203125,-7.32421875,-24.90234375,-85.44921875,0.0
154.42578125,-44.43359375,-33.69140625,-30.76171875,-34.1796875,-127.44140625,0.0
154.4296875,-48.33984375,-37.109375,-40.52734375,-41.50390625,-198.2421875,0.0
154.43359375,-40.0390625,-31.73828125,-36.62109375,-40.52734375,-212.890625,0.0
154.4375,-27.83203125,-25.87890625,-33.203125,-37.109375,-118.65234375,0.0
154.44140625,-23.4375,-26.85546875,-29.78515625,-31.25,-40.52734375,0.0
154.4453125,-33.203125,-29.78515625,-35.64453125,-37.59765625,52.24609375,0.0
154.44921875,-34.66796875,-27.83203125,-35.64453125,-41.015625,-34.66796875,0.0
154.453125,-24.90234375,-23.92578125,-30.2734375,-38.57421875,-81.54296875,0.0
154.45703125,-20.5078125,-23.4375,-27.83203125,-32.2265625,-2.44140625,0.0
154.4609375,-16.11328125,-20.01953125,-21.97265625,-16.11328125,9.765625,0.0
154.46484375,-21.97265625,-24.90234375,-4.39453125,-19.53125,-58.10546875,0.0
154.46875,-34.1796875,-37.59765625,-15.625,-38.0859375,-49.8046875,0.0
154.47265625,-28.3203125,-35.64453125,-35.64453125,-38.0859375,-38.0859375,0.0
154.4765625,-21.484375,-28.3203125,-36.62109375,-31.25,-50.78125,0.0
154.48046875,-20.5078125,-26.3671875,-34.66796875,-29.78515625,3.41796875,0.0
154.484375,-20.5078125,-27.83203125,-31.25,-25.87890625,-19.53125,0.0
154.48828125,-25.87890625,-34.1796875,-34.66796875,-35.15625,-58.10546875,0.0
154.4921875,-26.3671875,-35.64453125,-36.1328125,-44.921875,-109.375,0.0
154.49609375,-17.578125,-25.87890625,-27.34375,-32.71484375,-35.15625,0.0
154.5,-12.6953125,-21.484375,-25.87890625,-24.4140625,69.82421875,0.0
154.50390625,-21.484375,-25.87890625,-35.64453125,-30.76171875,76.171875,0.0
154.5078125,-26.85546875,-30.76171875,-28.3203125,-33.69140625,-24.4140625,0.0
154.51171875,-24.4140625,-34.1796875,-23.4375,-37.109375,-26.85546875,0.0
154.515625,-18.5546875,-34.1796875,-34.66796875,-33.69140625,58.59375,0.0
154.51953125,-16.6015625,-28.3203125,-35.15625,-26.3671875,58.10546875,0.0
154.5234375,-25.87890625,-28.3203125,-34.1796875,-26.85546875,53.22265625,0.0
154.52734375,-29.78515625,-32.2265625,-31.73828125,-25.87890625,-31.73828125,0.0
154.53125,-32.71484375,-37.109375,-34.1796875,-33.203125,-26.85546875,0.0
154.53515625,-25.87890625,-29.78515625,-31.25,-28.80859375,77.63671875,0.0
154.5390625,-20.5078125,-23.4375,-20.5078125,-15.625,123.046875,0.0
154.54296875,-33.69140625,-30.76171875,-22.4609375,-16.11328125,34.1796875,0.0
154.546875,-48.33984375,-39.55078125,-28.3203125,-26.3671875,-71.77734375,0.0
154.55078125,-52.734375,-43.9453125,-30.2734375,-38.57421875,-146.97265625,0.0
154.5546875,-40.52734375,-35.64453125,-10.25390625,-38.57421875,-130.37109375,0.0
154.55859375,-32.2265625,-29.78515625,-3.90625,-31.25,20.01953125,0.0
154.5625,-33.69140625,-24.90234375,-20.99609375,-29.296875,31.73828125,0.0
154.56640625,-47.36328125,-32.71484375,-33.203125,-38.0859375,-62.01171875,0.0
154.5703125,-52.24609375,-43.9453125,-39.55078125,-51.26953125,-84.9609375,0.0
154.57421875,-37.109375,-35.64453125,-38.0859375,-46.38671875,-4.39453125,0.0
154.578125,-29.296875,-29.78515625,-28.3203125,-32.2265625,6.8359375,0.0
154.58203125,-30.2734375,-31.73828125,-17.08984375,-23.92578125,-83.0078125,0.0
154.5859375,-42.96875,-37.109375,-22.4609375,-27.83203125,-182.6171875,0.0
154.58984375,-52.24609375,-43.9453125,-32.71484375,-38.57421875,-204.1015625,0.0
154.59375,-44.43359375,-40.0390625,-32.2265625,-39.55078125,-78.61328125,0.0
154.59765625,-23.92578125,-22.94921875,-16.6015625,-25.390625,-0.48828125,0.0
154.6015625,-18.5546875,-15.625,-14.6484375,-17.578125,-20.99609375,0.0
154.60546875,-38.0859375,-30.2734375,-34.66796875,-29.296875,-56.15234375,0.0
154.609375,-45.41015625,-41.9921875,-40.52734375,-38.0859375,-56.15234375,0.0
154.61328125,-27.83203125,-32.2265625,-25.87890625,-34.1796875,7.8125,0.0
154.6171875,-18.06640625,-26.3671875,-21.97265625,-22.94921875,68.84765625,0.0
154.62109375,-23.4375,-29.78515625,-23.92578125,-9.765625,-3.41796875,0.0
154.625,-33.203125,-33.203125,-27.34375,-16.6015625,-135.25390625,0.0
154.62890625,-42.96875,-37.109375,-31.73828125,-30.76171875,-131.8359375,0.0
154.6328125,-38.0859375,-34.1796875,-33.203125,-34.1796875,-93.26171875,0.0
154.63671875,-27.83203125,-26.3671875,-30.76171875,-29.78515625,-57.6171875,0.0
154.640625,-23.92578125,-20.01953125,-23.4375,-23.4375,-60.546875,0.0
154.64453125,-25.390625,-20.01953125,-19.04296875,-23.4375,-137.6953125,0.0
154.6484375,-39.0625,-33.203125,-27.83203125,-34.1796875,-176.7578125,0.0
154.65234375,-38.57421875,-38.0859375,-33.69140625,-36.1328125,-96.19140625,0.0
154.65625,-23.92578125,-31.73828125,-33.69140625,-27.83203125,-39.0625,0.0
154.66015625,-21.484375,-25.87890625,-29.78515625,-18.5546875,-4.39453125,0.0
154.6640625,-34.1796875,-27.83203125,-29.296875,-24.90234375,-15.13671875,0.0
154.66796875,-43.9453125,-38.0859375,-36.1328125,-41.50390625,-35.64453125,0.0
154.671875,-35.15625,-36.1328125,-36.62109375,-45.41015625,0.48828125,0.0
154.67578125,-23.4375,-24.90234375,-37.109375,-40.52734375,63.96484375,0.0
154.6796875,-17.578125,-16.6015625,-32.2265625,-29.78515625,99.609375,0.0
154.68359375,-22.4609375,-19.04296875,-29.296875,-26.3671875,127.44140625,0.0
154.6875,-31.73828125,-27.83203125,-32.2265625,-33.203125,3.41796875,0.0
154.69140625,-31.25,-30.76171875,-31.25,-36.1328125,-101.07421875,0.0
154.6953125,-22.94921875,-27.83203125,-31.25,-38.0859375,7.8125,0.0
154.69921875,-23.92578125,-22.4609375,-31.25,-34.1796875,60.546875,0.0
154.703125,-32.2265625,-24.90234375,-28.80859375,-27.83203125,-25.87890625,0.0
154.70703125,-45.8984375,-35.15625,-31.73828125,-33.203125,-91.796875,0.0
154.7109375,-52.24609375,-39.55078125,-39.0625,-44.921875,10.25390625,0.0
154.71484375,-38.0859375,-32.2265625,-35.15625,-38.57421875,27.34375,0.0
154.71875,-28.3203125,-24.4140625,-29.296875,-27.83203125,13.671875,0.0
154.72265625,-33.203125,-26.3671875,-27.34375,-25.87890625,12.6953125,0.0
154.7265625,-41.9921875,-27.83203125,-29.78515625,-33.69140625,-26.3671875,0.0
154.73046875,-39.0625,-26.85546875,-33.203125,-42.96875,-77.63671875,0.0
154.734375,-30.76171875,-29.296875,-36.62109375,-43.45703125,-31.25,0.0
154.73828125,-25.390625,-27.83203125,-36.62109375,-39.0625,-33.69140625,0.0
154.7421875,-26.85546875,-26.3671875,-30.2734375,-37.59765625,-100.5859375,0.0
154.74609375,-39.0625,-35.15625,-35.64453125,-39.55078125,-116.69921875,0.0
154.75,-36.1328125,-37.59765625,-26.3671875,-36.62109375,-102.5390625,0.0
154.75390625,-27.34375,-34.1796875,-27.34375,-36.62109375,-39.0625,0.0
154.7578125,-22.94921875,-35.15625,-40.0390625,-38.57421875,62.98828125,0.0
154.76171875,-25.87890625,-33.203125,-34.1796875,-38.57421875,37.59765625,0.0
154.765625,-40.0390625,-34.1796875,-34.1796875,-44.43359375,-17.578125,0.0
154.76953125,-52.24609375,-42.48046875,-39.0625,-50.29296875,-27.83203125,0.0
154.7734375,-45.8984375,-42.96875,-40.52734375,-43.45703125,-98.6328125,0.0
154.77734375,-35.64453125,-37.59765625,-37.59765625,-30.2734375,-67.3828125,0.0
154.78125,-37.59765625,-37.109375,-38.57421875,-27.34375,14.16015625,0.0
154.78515625,-44.43359375,-38.57421875,-38.0859375,-32.71484375,9.27734375,0.0
154.7890625,-48.828125,-43.9453125,-36.62109375,-39.55078125,-77.1484375,0.0
154.79296875,-26.85546875,-35.15625,-22.4609375,-30.76171875,-118.1640625,0.0
154.796875,-8.30078125,-22.4609375,-12.6953125,-15.625,-7.8125,0.0
154.80078125,-25.87890625,-28.3203125,-29.296875,-24.90234375,60.546875,0.0
154.8046875,-38.57421875,-35.15625,-36.62109375,-30.2734375,-0.9765625,0.0
154.80859375,-43.9453125,-38.57421875,-36.1328125,-35.15625,-96.6796875,0.0
154.8125,-42.48046875,-41.9921875,-40.52734375,-45.41015625,-71.77734375,0.0
154.81640625,-33.203125,-41.015625,-40.52734375,-43.45703125,21.97265625,0.0
154.8203125,-27.34375,-33.203125,-31.73828125,-32.71484375,74.21875,0.0
154.82421875,-30.76171875,-32.2265625,-29.78515625,-33.69140625,-19.04296875,0.0
154.828125,-41.015625,-40.52734375,-37.59765625,-47.8515625,-103.02734375,0.0
154.83203125,-37.109375,-40.52734375,-40.52734375,-46.38671875,-95.21484375,0.0
154.8359375,-25.390625,-37.59765625,-38.57421875,-33.69140625,-45.41015625,0.0
154.83984375,-21.484375,-33.203125,-30.76171875,-29.78515625,-16.11328125,0.0
154.84375,-26.85546875,-33.69140625,-31.25,-30.2734375,-17.578125,0.0
154.84765625,-36.1328125,-40.0390625,-36.62109375,-39.0625,-86.42578125,0.0
154.8515625,-40.0390625,-39.0625,-32.2265625,-43.45703125,-102.5390625,0.0
154.85546875,-20.5078125,-18.5546875,-1.953125,-20.5078125,-45.41015625,0.0
154.859375,-20.01953125,-23.4375,-11.23046875,-24.4140625,32.2265625,0.0
154.86328125,-35.15625,-35.15625,-33.69140625,-36.62109375,42.96875,0.0
154.8671875,-38.57421875,-34.1796875,-33.203125,-39.0625,-50.78125,0.0
154.87109375,-36.62109375,-38.57421875,-35.64453125,-48.33984375,-46.38671875,0.0
154.875,-22.4609375,-31.73828125,-32.71484375,-41.50390625,-42.96875,0.0
154.87890625,-14.6484375,-25.87890625,-35.15625,-35.64453125,-13.671875,0.0
154.8828125,-17.08984375,-20.5078125,-20.5078125,-32.2265625,28.3203125,0.0
154.88671875,-20.01953125,-22.4609375,-3.90625,-30.76171875,-31.73828125,0.0
154.890625,-37.59765625,-38.57421875,-34.66796875,-45.8984375,-73.2421875,0.0
154.89453125,-38.0859375,-36.1328125,-44.921875,-42.96875,-79.58984375,0.0
154.8984375,-26.85546875,-25.390625,-34.1796875,-30.2734375,-136.71875,0.0
154.90234375,-35.64453125,-26.85546875,-36.62109375,-31.73828125,-168.9453125,0.0
154.90625,-41.50390625,-36.62109375,-39.0625,-33.69140625,-217.28515625,0.0
154.91015625,-41.9921875,-43.45703125,-41.50390625,-42.96875,-254.39453125,0.0
154.9140625,-38.0859375,-40.52734375,-41.50390625,-43.9453125,-77.1484375,0.0
154.91796875,-29.78515625,-33.203125,-37.109375,-32.2265625,131.8359375,0.0
154.921875,-26.85546875,-26.85546875,-33.203125,-22.4609375,120.60546875,0.0
154.92578125,-32.71484375,-31.73828125,-32.71484375,-28.80859375,35.64453125,0.0
154.9296875,-33.69140625,-33.69140625,-18.06640625,-35.15625,-62.98828125,0.0
154.93359375,-25.87890625,-30.76171875,-12.6953125,-36.62109375,-76.66015625,0.0
154.9375,-24.4140625,-32.2265625,-30.2734375,-36.62109375,-1.953125,0.0
154.94140625,-24.4140625,-36.62109375,-37.109375,-28.3203125,18.06640625,0.0
154.9453125,-32.71484375,-39.0625,-37.109375,-28.3203125,-38.0859375,0.0
154.94921875,-42.96875,-43.45703125,-45.8984375,-42.96875,-8.30078125,0.0
154.953125,-42.48046875,-48.33984375,-48.828125,-44.43359375,-7.32421875,0.0
154.95703125,-39.55078125,-45.8984375,-41.50390625,-39.0625,-51.26953125,0.0
154.9609375,-38.0859375,-38.57421875,-34.1796875,-33.69140625,-0.9765625,0.0
154.96484375,-44.921875,-39.55078125,-36.1328125,-34.66796875,-25.390625,0.0
154.96875,-54.6875,-44.921875,-40.0390625,-42.96875,-65.4296875,0.0
154.97265625,-49.8046875,-37.59765625,-34.1796875,-43.9453125,-49.8046875,0.0
154.9765625,-29.296875,-27.83203125,-27.83203125,-36.62109375,9.765625,0.0
154.98046875,-27.83203125,-24.90234375,-28.80859375,-29.296875,15.625,0.0
154.984375,-41.9921875,-31.25,-32.2265625,-29.78515625,-104.00390625,0.0
154.98828125,-36.62109375,-28.3203125,-19.04296875,-25.390625,-210.44921875,0.0
154.9921875,-33.69140625,-24.90234375,-15.625,-29.78515625,-178.7109375,0.0
154.99609375,-37.59765625,-30.2734375,-30.76171875,-41.50390625,-96.6796875,0.0
155.0,-33.69140625,-26.3671875,-28.3203125,-33.69140625,-32.71484375,0.0
155.00390625,-40.52734375,-31.25,-25.87890625,-34.66796875,-105.95703125,0.0
155.0078125,-47.36328125,-39.0625,-29.296875,-44.921875,-168.45703125,0.0
155.01171875,-48.828125,-40.52734375,-39.0625,-50.29296875,-194.82421875,0.0
155.015625,-37.59765625,-33.69140625,-39.0625,-48.828125,-165.52734375,0.0
155.01953125,-17.08984375,-15.625,-15.625,-26.3671875,-75.1953125,0.0
155.0234375,-28.80859375,-21.97265625,-25.87890625,-29.78515625,-87.40234375,0.0
155.02734375,-50.78125,-40.52734375,-46.38671875,-55.17578125,-54.6875,0.0
155.03125,-43.45703125,-36.62109375,-39.0625,-51.7578125,-53.22265625,0.0
155.03515625,-24.4140625,-26.3671875,-25.390625,-37.109375,8.30078125,0.0
155.0390625,-22.94921875,-25.87890625,-30.2734375,-36.1328125,116.2109375,0.0
155.04296875,-34.66796875,-25.87890625,-38.57421875,-41.50390625,79.1015625,0.0
155.046875,-42.48046875,-31.73828125,-43.45703125,-50.29296875,-84.47265625,0.0
155.05078125,-37.59765625,-34.1796875,-41.9921875,-51.26953125,-77.63671875,0.0
155.0546875,-35.64453125,-32.71484375,-41.50390625,-48.828125,11.71875,0.0
155.05859375,-33.69140625,-28.80859375,-41.015625,-43.9453125,40.0390625,0.0
155.0625,-34.66796875,-29.296875,-36.1328125,-35.64453125,109.375,0.0
155.06640625,-40.52734375,-37.109375,-35.64453125,-35.64453125,78.61328125,0.0
155.0703125,-37.59765625,-38.0859375,-35.64453125,-41.015625,-23.4375,0.0
155.07421875,-35.64453125,-36.62109375,-39.55078125,-48.828125,22.4609375,0.0
155.078125,-9.765625,-15.625,-7.8125,-19.04296875,48.828125,0.0
155.08203125,-6.34765625,-4.39453125,1.46484375,-5.37109375,58.10546875,0.0
155.0859375,-44.43359375,-27.34375,-37.59765625,-34.1796875,47.8515625,0.0
155.08984375,-50.78125,-33.203125,-44.43359375,-44.43359375,3.41796875,0.0
155.09375,-37.109375,-31.25,-36.62109375,-43.9453125,-19.53125,0.0
155.09765625,-31.25,-33.69140625,-38.0859375,-33.69140625,-8.30078125,0.0
155.1015625,-30.76171875,-29.78515625,-38.0859375,-24.90234375,-5.859375,0.0
155.10546875,-43.9453125,-31.73828125,-35.15625,-34.66796875,-81.0546875,0.0
155.109375,-43.9453125,-31.73828125,-32.2265625,-41.015625,-115.234375,0.0
155.11328125,-32.71484375,-31.73828125,-34.1796875,-41.50390625,-24.4140625,0.0
155.1171875,-26.85546875,-29.296875,-33.69140625,-33.203125,-47.8515625,0.0
155.12109375,-19.53125,-20.01953125,-25.390625,-24.4140625,-196.2890625,0.0
155.125,-10.7421875,-4.8828125,7.32421875,-9.27734375,-229.00390625,0.0
155.12890625,-25.87890625,-19.53125,-7.8125,-20.99609375,-267.578125,0.0
155.1328125,-41.015625,-41.015625,-42.96875,-45.41015625,-228.02734375,0.0
155.13671875,-31.25,-33.69140625,-40.0390625,-42.48046875,-73.73046875,0.0
155.140625,-26.85546875,-24.90234375,-34.1796875,-30.2734375,-37.59765625,0.0
155.14453125,-39.55078125,-31.73828125,-35.64453125,-26.85546875,-133.7890625,0.0
155.1484375,-49.31640625,-43.45703125,-41.015625,-37.59765625,-197.265625,0.0
155.15234375,-38.0859375,-36.1328125,-30.76171875,-33.69140625,-206.54296875,0.0
155.15625,-27.34375,-29.296875,-23.4375,-26.85546875,-116.2109375,0.0
155.16015625,-22.94921875,-27.83203125,-28.80859375,-20.5078125,-56.15234375,0.0
155.1640625,-29.78515625,-31.73828125,-35.64453125,-16.6015625,-67.87109375,0.0
155.16796875,-27.34375,-30.76171875,-22.4609375,-19.04296875,-80.078125,0.0
155.171875,-24.90234375,-29.296875,-19.53125,-26.3671875,51.26953125,0.0
155.17578125,-34.1796875,-40.52734375,-38.0859375,-38.0859375,163.0859375,0.0
155.1796875,-31.25,-39.0625,-33.69140625,-33.69140625,175.78125,0.0
155.18359375,-40.52734375,-44.43359375,-35.64453125,-36.62109375,90.33203125,0.0
155.1875,-49.31640625,-52.24609375,-42.48046875,-43.9453125,29.78515625,0.0
155.19140625,-46.38671875,-52.24609375,-43.9453125,-50.29296875,98.14453125,0.0
155.1953125,-39.0625,-46.875,-41.015625,-47.8515625,81.0546875,0.0
155.19921875,-30.76171875,-33.69140625,-33.69140625,-31.73828125,62.01171875,0.0
155.203125,-39.55078125,-35.64453125,-33.203125,-31.73828125,61.03515625,0.0
155.20703125,-44.921875,-41.50390625,-38.57421875,-41.9921875,-17.08984375,0.0
155.2109375,-40.52734375,-43.45703125,-45.8984375,-50.29296875,-59.08203125,0.0
155.21484375,-20.99609375,-32.2265625,-10.7421875,-38.57421875,-8.30078125,0.0
155.21875,-1.953125,-16.6015625,7.8125,-15.625,39.0625,0.0
155.22265625,-19.53125,-24.4140625,-26.3671875,-22.94921875,28.80859375,0.0
155.2265625,-41.50390625,-38.0859375,-40.52734375,-37.109375,3.41796875,0.0
155.23046875,-41.015625,-41.015625,-41.50390625,-41.015625,-0.9765625,0.0
155.234375,-34.66796875,-39.55078125,-43.9453125,-45.41015625,49.8046875,0.0
155.23828125,-24.90234375,-32.2265625,-42.96875,-37.109375,101.5625,0.0
155.2421875,-20.5078125,-29.78515625,-38.0859375,-25.390625,3.41796875,0.0
155.24609375,-32.71484375,-36.62109375,-40.52734375,-37.109375,-61.5234375,0.0
155.25,-35.64453125,-37.109375,-44.43359375,-45.41015625,-1.46484375,0.0
155.25390625,-29.296875,-35.15625,-45.41015625,-38.57421875,26.85546875,0.0
155.2578125,-20.5078125,-27.83203125,-37.59765625,-28.3203125,15.13671875,0.0
155.26171875,-18.5546875,-20.01953125,-20.5078125,-19.04296875,22.94921875,0.0
155.265625,-33.69140625,-27.34375,-31.25,-29.78515625,14.6484375,0.0
155.26953125,-41.50390625,-39.0625,-42.96875,-46.875,-54.6875,0.0
155.2734375,-38.0859375,-40.52734375,-38.0859375,-47.8515625,-57.6171875,0.0
155.27734375,-27.83203125,-29.78515625,-36.62109375,-35.64453125,19.04296875,0.0
155.28125,-20.99609375,-25.87890625,-32.71484375,-30.76171875,29.78515625,0.0
155.28515625,-33.69140625,-30.76171875,-29.78515625,-39.55078125,-14.16015625,0.0
155.2890625,-41.50390625,-33.69140625,-33.203125,-43.45703125,-36.62109375,0.0
155.29296875,-29.78515625,-30.2734375,-35.64453125,-36.62109375,-55.6640625,0.0
155.296875,-20.99609375,-25.87890625,-36.62109375,-32.71484375,-18.5546875,0.0
155.30078125,-24.4140625,-21.97265625,-30.76171875,-28.80859375,3.41796875,0.0
155.3046875,-32.71484375,-20.99609375,-22.4609375,-24.90234375,-46.875,0.0
155.30859375,-39.0625,-29.78515625,-26.3671875,-29.296875,-39.0625,0.0
155.3125,-34.1796875,-33.69140625,-34.66796875,-37.59765625,15.625,0.0
155.31640625,-22.4609375,-27.83203125,-34.66796875,-28.80859375,24.90234375,0.0
155.3203125,-24.90234375,-28.3203125,-32.2265625,-20.99609375,37.109375,0.0
155.32421875,-32.2265625,-28.80859375,-31.25,-26.3671875,-28.80859375,0.0
155.328125,-40.52734375,-34.66796875,-33.203125,-40.0390625,-116.69921875,0.0
155.33203125,-40.0390625,-41.9921875,-32.71484375,-43.45703125,-109.86328125,0.0
155.3359375,-29.296875,-27.83203125,-27.83203125,-35.64453125,63.96484375,0.0
155.33984375,-27.83203125,-20.01953125,-30.2734375,-28.80859375,77.1484375,0.0
155.34375,-35.64453125,-23.4375,-33.69140625,-30.2734375,-26.85546875,0.0
155.34765625,-41.9921875,-26.3671875,-37.109375,-43.9453125,-40.0390625,0.0
155.3515625,-38.57421875,-30.2734375,-41.50390625,-48.828125,-120.1171875,0.0
155.35546875,-34.1796875,-31.73828125,-42.48046875,-43.45703125,-105.46875,0.0
155.359375,-34.1796875,-26.85546875,-35.64453125,-39.0625,0.9765625,0.0
155.36328125,-38.0859375,-25.87890625,-30.2734375,-27.34375,-41.015625,0.0
155.3671875,-48.828125,-33.69140625,-37.59765625,-38.57421875,-148.92578125,0.0
155.37109375,-50.29296875,-34.66796875,-41.50390625,-43.45703125,-87.890625,0.0
155.375,-38.0859375,-30.76171875,-39.55078125,-31.73828125,-34.66796875,0.0
155.37890625,-24.90234375,-19.04296875,-33.69140625,-21.97265625,-8.7890625,0.0
155.3828125,-29.296875,-18.06640625,-27.83203125,-16.11328125,34.66796875,0.0
155.38671875,-41.50390625,-27.83203125,-30.76171875,-23.92578125,-18.06640625,0.0
155.390625,-42.96875,-30.76171875,-32.71484375,-32.2265625,-40.52734375,0.0
155.39453125,-34.1796875,-25.390625,-21.484375,-27.83203125,-19.04296875,0.0
155.3984375,-28.3203125,-22.94921875,-23.92578125,-27.83203125,11.71875,0.0
155.40234375,-31.73828125,-24.90234375,-33.203125,-23.4375,4.8828125,0.0
155.40625,-39.55078125,-31.25,-32.2265625,-25.390625,-128.90625,0.0
155.41015625,-43.45703125,-39.0625,-35.64453125,-37.59765625,-211.42578125,0.0
155.4140625,-34.66796875,-33.69140625,-40.0390625,-37.59765625,-98.6328125,0.0
155.41796875,-27.83203125,-26.3671875,-42.96875,-34.66796875,17.578125,0.0
155.421875,-25.87890625,-21.97265625,-38.0859375,-27.34375,69.82421875,0.0
155.42578125,-28.80859375,-26.3671875,-31.25,-26.3671875,14.16015625,0.0
155.4296875,-40.52734375,-36.1328125,-39.0625,-41.9921875,-105.46875,0.0
155.43359375,-41.015625,-40.0390625,-43.45703125,-45.8984375,-72.265625,0.0
155.4375,-21.484375,-33.69140625,-34.1796875,-27.83203125,-1.953125,0.0
155.44140625,-20.99609375,-28.3203125,-30.2734375,-21.484375,0.48828125,0.0
155.4453125,-37.59765625,-28.80859375,-31.25,-32.71484375,-11.71875,0.0
155.44921875,-39.55078125,-34.66796875,-38.0859375,-36.1328125,-20.01953125,0.0
155.453125,-30.2734375,-35.15625,-37.109375,-31.73828125,-77.63671875,0.0
155.45703125,-22.4609375,-32.71484375,-31.73828125,-31.73828125,-76.171875,0.0
155.4609375,-22.94921875,-26.3671875,-37.59765625,-24.90234375,-27.34375,0.0
155.46484375,-30.76171875,-20.99609375,-36.1328125,-20.99609375,-107.421875,0.0
155.46875,-39.0625,-23.92578125,-32.2265625,-27.34375,-137.6953125,0.0
155.47265625,-34.1796875,-27.34375,-29.296875,-29.296875,-47.36328125,0.0
155.4765625,-20.5078125,-19.53125,-31.25,-23.92578125,-29.78515625,0.0
155.48046875,-17.08984375,-13.671875,-27.34375,-13.671875,72.75390625,0.0
155.484375,-25.87890625,-19.53125,-17.08984375,-18.5546875,51.26953125,0.0
155.48828125,-32.71484375,-28.80859375,-30.2734375,-33.203125,-51.7578125,0.0
155.4921875,-27.83203125,-27.34375,-40.52734375,-36.1328125,-60.05859375,0.0
155.49609375,-13.18359375,-18.5546875,-31.25,-28.80859375,-45.8984375,0.0
155.5,-10.25390625,-17.08984375,-19.53125,-29.296875,-19.04296875,0.0
155.50390625,-20.01953125,-15.625,-25.87890625,-32.71484375,5.859375,0.0
155.5078125,-27.34375,-22.4609375,-36.62109375,-34.66796875,-62.01171875,0.0
155.51171875,-32.71484375,-28.80859375,-38.57421875,-46.875,-62.98828125,0.0
155.515625,-26.3671875,-21.484375,-36.62109375,-50.29296875,-66.40625,0.0
155.51953125,-16.6015625,-14.6484375,-33.69140625,-36.62109375,-8.30078125,0.0
155.5234375,-25.390625,-19.04296875,-35.15625,-33.203125,61.03515625,0.0
155.52734375,-38.57421875,-29.296875,-35.15625,-43.45703125,-19.04296875,0.0
155.53125,-41.015625,-32.2265625,-40.0390625,-51.7578125,-68.84765625,0.0
155.53515625,-31.73828125,-27.34375,-37.59765625,-50.78125,-8.7890625,0.0
155.5390625,-26.3671875,-22.4609375,-30.76171875,-36.62109375,36.62109375,0.0
155.54296875,-34.66796875,-27.83203125,-26.85546875,-28.3203125,-39.55078125,0.0
155.546875,-52.24609375,-40.52734375,-25.87890625,-41.015625,-111.81640625,0.0
155.55078125,-52.734375,-37.59765625,-34.66796875,-48.33984375,-41.50390625,0.0
155.5546875,-36.1328125,-28.3203125,-37.109375,-45.41015625,71.77734375,0.0
155.55859375,-27.83203125,-23.4375,-27.34375,-31.73828125,70.80078125,0.0
155.5625,-30.2734375,-17.578125,-20.99609375,-17.578125,40.52734375,0.0
155.56640625,-39.55078125,-26.3671875,-26.85546875,-29.296875,-83.984375,0.0
155.5703125,-45.8984375,-39.0625,-34.66796875,-43.9453125,-161.62109375,0.0
155.57421875,-39.0625,-35.64453125,-31.25,-42.96875,-109.86328125,0.0
155.578125,-22.94921875,-22.4609375,-24.90234375,-29.296875,6.8359375,0.0
155.58203125,-19.53125,-18.06640625,-24.4140625,-18.06640625,19.53125,0.0
155.5859375,-28.3203125,-22.94921875,-26.3671875,-24.90234375,-73.2421875,0.0
155.58984375,-37.109375,-36.1328125,-20.5078125,-36.62109375,-88.37890625,0.0
155.59375,-37.59765625,-41.015625,-22.94921875,-42.48046875,-51.26953125,0.0
155.59765625,-25.87890625,-28.3203125,-33.203125,-29.78515625,38.57421875,0.0
155.6015625,-24.90234375,-27.34375,-28.80859375,-18.5546875,17.578125,0.0
155.60546875,-29.78515625,-32.2265625,-27.83203125,-21.484375,-166.9921875,0.0
155.609375,-34.66796875,-32.2265625,-31.73828125,-24.90234375,-166.9921875,0.0
155.61328125,-35.15625,-31.73828125,-33.69140625,-27.34375,-101.07421875,0.0
155.6171875,-23.92578125,-19.53125,-29.296875,-16.6015625,24.4140625,0.0
155.62109375,-25.87890625,-18.5546875,-28.80859375,-10.25390625,57.6171875,0.0
155.625,-40.52734375,-29.296875,-35.64453125,-17.578125,46.875,0.0
155.62890625,-49.31640625,-35.15625,-43.45703125,-35.64453125,-47.36328125,0.0
155.6328125,-40.0390625,-33.203125,-32.2265625,-36.1328125,-127.9296875,0.0
155.63671875,-25.87890625,-22.4609375,-17.08984375,-19.04296875,-43.9453125,0.0
155.640625,-29.78515625,-19.04296875,-25.390625,-17.578125,4.39453125,0.0
155.64453125,-41.9921875,-24.4140625,-34.66796875,-26.85546875,-56.640625,0.0
155.6484375,-53.7109375,-38.57421875,-35.15625,-39.0625,-155.2734375,0.0
155.65234375,-51.26953125,-41.9921875,-35.64453125,-44.43359375,-152.83203125,0.0
155.65625,-44.43359375,-33.69140625,-40.0390625,-44.43359375,-23.92578125,0.0
155.66015625,-45.8984375,-28.3203125,-40.0390625,-41.50390625,65.4296875,0.0
155.6640625,-50.29296875,-31.25,-37.59765625,-38.57421875,29.296875,0.0
155.66796875,-57.12890625,-37.109375,-41.015625,-41.9921875,-65.91796875,0.0
155.671875,-51.7578125,-38.0859375,-44.43359375,-46.38671875,-116.69921875,0.0
155.67578125,-39.0625,-34.1796875,-39.55078125,-39.0625,-60.546875,0.0
155.6796875,-30.76171875,-28.3203125,-21.97265625,-25.390625,25.87890625,0.0
155.68359375,-41.9921875,-33.203125,-23.92578125,-27.34375,-27.83203125,0.0
155.6875,-54.19921875,-40.52734375,-35.64453125,-41.9921875,-104.4921875,0.0
155.69140625,-55.17578125,-43.9453125,-36.62109375,-46.875,-41.50390625,0.0
155.6953125,-42.48046875,-39.0625,-36.1328125,-41.50390625,6.8359375,0.0
155.69921875,-32.71484375,-29.296875,-36.1328125,-38.57421875,-28.80859375,0.0
155.703125,-35.15625,-24.4140625,-34.66796875,-36.1328125,-34.1796875,0.0
155.70703125,-41.015625,-29.296875,-30.76171875,-35.15625,-147.94921875,0.0
155.7109375,-45.8984375,-34.66796875,-35.64453125,-45.41015625,-98.6328125,0.0
155.71484375,-37.59765625,-32.2265625,-40.52734375,-43.9453125,-5.37109375,0.0
155.71875,-28.80859375,-30.2734375,-42.96875,-34.66796875,-9.765625,0.0
155.72265625,-27.83203125,-21.484375,-36.62109375,-27.83203125,10.7421875,0.0
155.7265625,-33.69140625,-18.5546875,-33.69140625,-29.78515625,-23.92578125,0.0
155.73046875,-37.109375,-30.2734375,-46.38671875,-36.1328125,-47.8515625,0.0
155.734375,-23.92578125,-28.80859375,-40.0390625,-34.1796875,19.53125,0.0
155.73828125,-8.7890625,-16.11328125,-18.06640625,-17.08984375,50.29296875,0.0
155.7421875,-18.06640625,-17.578125,-20.01953125,-13.18359375,35.15625,0.0
155.74609375,-39.0625,-30.76171875,-39.0625,-32.2265625,16.6015625,0.0
155.75,-42.48046875,-33.69140625,-38.0859375,-41.9921875,-54.19921875,0.0
155.75390625,-34.1796875,-30.2734375,-37.59765625,-41.015625,-49.31640625,0.0
155.7578125,-21.484375,-30.76171875,-41.015625,-31.73828125,-23.92578125,0.0
155.76171875,-17.578125,-27.34375,-41.015625,-21.484375,-54.6875,0.0
155.765625,-32.2265625,-33.203125,-46.38671875,-34.1796875,-99.609375,0.0
155.76953125,-39.55078125,-38.0859375,-36.62109375,-44.921875,-140.625,0.0
155.7734375,-28.80859375,-25.87890625,-39.0625,-32.71484375,-98.6328125,0.0
155.77734375,-20.99609375,-22.4609375,-43.45703125,-29.78515625,-72.75390625,0.0
155.78125,-19.53125,-21.97265625,-36.62109375,-29.296875,-46.38671875,0.0
155.78515625,-28.3203125,-22.4609375,-37.109375,-30.2734375,22.4609375,0.0
155.7890625,-39.55078125,-32.2265625,-42.96875,-36.62109375,-6.8359375,0.0
155.79296875,-33.69140625,-36.1328125,-44.921875,-35.15625,-58.10546875,0.0
155.796875,-21.484375,-25.87890625,-36.62109375,-22.4609375,-26.3671875,0.0
155.80078125,-11.71875,-12.6953125,-6.34765625,-5.859375,7.8125,0.0
155.8046875,-28.3203125,-24.90234375,-23.4375,-17.578125,-32.71484375,0.0
155.80859375,-38.57421875,-32.71484375,-43.45703125,-33.203125,-74.70703125,0.0
155.8125,-33.203125,-35.15625,-38.0859375,-34.66796875,-114.74609375,0.0
155.81640625,-26.85546875,-37.59765625,-38.0859375,-31.73828125,-64.94140625,0.0
155.8203125,-13.671875,-26.3671875,-32.71484375,-22.94921875,9.765625,0.0
155.82421875,-15.13671875,-24.90234375,-40.52734375,-25.87890625,-76.66015625,0.0
155.828125,-19.04296875,-25.390625,-29.296875,-24.90234375,-108.88671875,0.0
155.83203125,-15.625,-27.34375,-18.5546875,-23.4375,-54.19921875,0.0
155.8359375,-16.11328125,-33.203125,-41.9921875,-31.73828125,39.0625,0.0
155.83984375,-12.6953125,-25.87890625,-47.36328125,-29.296875,37.109375,0.0
155.84375,-17.578125,-24.90234375,-42.48046875,-28.80859375,-72.75390625,0.0
155.84765625,-30.2734375,-33.69140625,-41.50390625,-34.66796875,-59.5703125,0.0
155.8515625,-33.69140625,-38.57421875,-44.921875,-35.64453125,-70.3125,0.0
155.85546875,-25.87890625,-34.1796875,-41.015625,-27.83203125,40.0390625,0.0
155.859375,-22.94921875,-25.390625,-29.296875,-20.99609375,168.9453125,0.0
155.86328125,-34.66796875,-26.3671875,-28.3203125,-19.53125,93.26171875,0.0
155.8671875,-51.26953125,-30.2734375,-37.109375,-27.83203125,-41.50390625,0.0
155.87109375,-54.6875,-35.64453125,-39.0625,-42.48046875,-120.60546875,0.0
155.875,-27.34375,-16.11328125,-1.953125,-25.87890625,-51.7578125,0.0
155.87890625,-14.6484375,-1.46484375,6.8359375,-12.6953125,29.296875,0.0
155.8828125,-34.1796875,-15.13671875,-29.78515625,-25.87890625,-41.015625,0.0
155.88671875,-47.36328125,-24.90234375,-48.33984375,-38.0859375,-137.6953125,0.0
155.890625,-50.29296875,-35.64453125,-55.17578125,-53.22265625,-134.765625,0.0
155.89453125,-42.96875,-33.203125,-57.12890625,-53.22265625,-68.84765625,0.0
155.8984375,-31.25,-24.4140625,-50.29296875,-38.0859375,-49.31640625,0.0
155.90234375,-26.85546875,-25.390625,-43.9453125,-29.78515625,-17.578125,0.0
155.90625,-33.203125,-24.90234375,-41.9921875,-37.109375,7.8125,0.0
155.91015625,-37.109375,-26.85546875,-41.50390625,-42.96875,-62.98828125,0.0
155.9140625,-32.71484375,-34.1796875,-43.9453125,-43.45703125,-164.0625,0.0
155.91796875,-6.34765625,-13.671875,-18.5546875,-19.04296875,-111.81640625,0.0
155.921875,6.34765625,-2.44140625,2.9296875,-0.9765625,-121.58203125,0.0
155.92578125,-24.4140625,-32.71484375,-32.2265625,-26.85546875,-123.53515625,0.0
155.9296875,-33.69140625,-37.59765625,-45.41015625,-38.57421875,-42.96875,0.0
155.93359375,-22.4609375,-24.90234375,-36.1328125,-31.25,-58.10546875,0.0
155.9375,-21.484375,-22.4609375,-37.59765625,-34.66796875,-51.26953125,0.0
155.94140625,-17.578125,-22.4609375,-35.64453125,-29.78515625,-41.50390625,0.0
155.9453125,-26.85546875,-23.4375,-32.2265625,-24.90234375,-42.48046875,0.0
155.94921875,-35.15625,-27.83203125,-32.71484375,-32.2265625,-100.5859375,0.0
155.953125,-25.87890625,-28.80859375,-33.69140625,-33.69140625,-167.96875,0.0
155.95703125,-21.97265625,-26.85546875,-35.64453125,-28.3203125,-153.80859375,0.0
155.9609375,-23.92578125,-23.92578125,-31.25,-21.484375,-84.9609375,0.0
155.96484375,-20.99609375,-15.13671875,-3.90625,-14.6484375,21.484375,0.0
155.96875,-29.296875,-19.04296875,-7.32421875,-22.4609375,54.19921875,0.0
155.97265625,-40.52734375,-32.71484375,-41.50390625,-39.0625,115.72265625,0.0
155.9765625,-30.2734375,-23.4375,-41.015625,-36.1328125,169.43359375,0.0
155.98046875,-20.99609375,-13.18359375,-27.34375,-22.4609375,143.5546875,0.0
155.984375,-33.69140625,-21.484375,-32.2265625,-23.4375,146.484375,0.0
155.98828125,-48.33984375,-30.76171875,-43.9453125,-42.96875,73.2421875,0.0
155.9921875,-41.50390625,-34.1796875,-46.38671875,-46.38671875,4.8828125,0.0
155.99609375,-22.4609375,-27.34375,-37.109375,-32.71484375,58.59375,0.0
156.0,-17.578125,-23.92578125,-34.66796875,-26.3671875,63.4765625,0.0
156.00390625,-30.76171875,-29.78515625,-39.55078125,-30.2734375,26.85546875,0.0
156.0078125,-31.25,-26.3671875,-28.80859375,-34.1796875,-69.82421875,0.0
156.01171875,-21.97265625,-28.3203125,-16.11328125,-34.66796875,-105.95703125,0.0
156.015625,-22.94921875,-31.25,-32.71484375,-34.66796875,58.10546875,0.0
156.01953125,-27.34375,-25.390625,-33.69140625,-27.34375,145.5078125,0.0
156.0234375,-32.71484375,-23.92578125,-28.3203125,-28.3203125,-3.90625,0.0
156.02734375,-42.48046875,-30.2734375,-37.109375,-41.015625,-111.328125,0.0
156.03125,-43.45703125,-32.71484375,-45.41015625,-48.33984375,-89.35546875,0.0
156.03515625,-32.2265625,-29.296875,-45.8984375,-47.36328125,-80.078125,0.0
156.0390625,-21.97265625,-23.92578125,-26.85546875,-34.1796875,26.85546875,0.0
156.04296875,-25.87890625,-18.5546875,-27.34375,-30.76171875,34.1796875,0.0
156.046875,-37.109375,-28.3203125,-40.0390625,-43.45703125,-123.046875,0.0
156.05078125,-35.15625,-37.109375,-38.57421875,-46.38671875,-178.7109375,0.0
156.0546875,-18.06640625,-24.90234375,-14.16015625,-32.71484375,-110.83984375,0.0
156.05859375,-10.7421875,-20.01953125,-7.32421875,-24.90234375,-4.39453125,0.0
156.0625,-25.87890625,-28.80859375,-31.25,-27.34375,25.87890625,0.0
156.06640625,-43.45703125,-37.109375,-38.0859375,-40.52734375,-62.5,0.0
156.0703125,-47.8515625,-40.52734375,-39.55078125,-50.29296875,-141.11328125,0.0
156.07421875,-34.66796875,-35.64453125,-43.45703125,-45.8984375,-64.94140625,0.0
156.078125,-23.92578125,-25.87890625,-39.0625,-37.59765625,86.9140625,0.0
156.08203125,-20.99609375,-22.94921875,-27.83203125,-25.390625,23.92578125,0.0
156.0859375,-32.2265625,-33.69140625,-32.2265625,-26.85546875,-80.078125,0.0
156.08984375,-41.50390625,-37.109375,-39.55078125,-35.64453125,14.6484375,0.0
156.09375,-34.66796875,-36.62109375,-40.52734375,-37.59765625,2.44140625,0.0
156.09765625,-14.6484375,-18.5546875,-19.53125,-20.01953125,-8.7890625,0.0
156.1015625,2.44140625,4.8828125,18.06640625,0.9765625,73.73046875,0.0
156.10546875,-25.87890625,-17.578125,-10.25390625,-18.06640625,-10.25390625,0.0
156.109375,-43.45703125,-38.57421875,-41.015625,-34.66796875,-167.48046875,0.0
156.11328125,-33.69140625,-31.73828125,-33.69140625,-31.25,-170.41015625,0.0
156.1171875,-25.87890625,-28.80859375,-31.73828125,-23.4375,-41.9921875,0.0
156.12109375,-18.06640625,-25.390625,-30.2734375,-18.06640625,18.06640625,0.0
156.125,-24.90234375,-30.2734375,-30.76171875,-18.5546875,-97.65625,0.0
156.12890625,-34.66796875,-37.59765625,-33.203125,-22.4609375,-167.48046875,0.0
156.1328125,-27.83203125,-39.0625,-35.15625,-27.83203125,-89.35546875,0.0
156.13671875,-20.99609375,-34.1796875,-34.66796875,-26.3671875,-76.66015625,0.0
156.140625,-27.34375,-27.34375,-28.80859375,-23.4375,-91.30859375,0.0
156.14453125,-31.73828125,-27.83203125,-17.08984375,-20.01953125,-132.8125,0.0
156.1484375,-43.9453125,-34.1796875,-30.2734375,-32.71484375,-267.578125,0.0
156.15234375,-47.36328125,-39.55078125,-43.9453125,-49.31640625,-288.0859375,0.0
156.15625,-33.69140625,-32.2265625,-31.25,-39.55078125,-178.22265625,0.0
156.16015625,-20.01953125,-16.11328125,-3.90625,-14.16015625,-139.16015625,0.0
156.1640625,-28.3203125,-19.53125,-6.8359375,-15.13671875,-133.30078125,0.0
156.16796875,-41.50390625,-32.2265625,-27.34375,-28.3203125,-76.66015625,0.0
156.171875,-36.1328125,-36.62109375,-33.203125,-36.1328125,-47.36328125,0.0
156.17578125,-29.296875,-36.1328125,-33.203125,-41.015625,64.453125,0.0
156.1796875,-22.94921875,-28.3203125,-26.85546875,-24.4140625,153.3203125,0.0
