timestam,TP9,AF7,AF8,TP10,AUX,Marker
60.00390625,0.48828125,-16.11328125,-11.23046875,-22.4609375,60.05859375,0.0
60.0078125,-25.87890625,-34.66796875,-41.015625,-39.0625,0.9765625,0.0
60.01171875,-45.8984375,-50.29296875,-51.26953125,-56.15234375,-61.5234375,0.0
60.015625,-43.9453125,-52.734375,-39.55078125,-43.45703125,-64.94140625,0.0
60.01953125,-26.3671875,-42.48046875,-20.01953125,-28.80859375,-12.6953125,0.0
60.0234375,-13.18359375,-28.3203125,-19.53125,-33.69140625,35.64453125,0.0
60.02734375,-19.53125,-25.390625,-33.203125,-33.69140625,17.08984375,0.0
60.03125,-1.953125,-10.7421875,-1.953125,-7.8125,-15.625,0.0
60.03515625,-18.5546875,-27.34375,-11.23046875,-25.87890625,26.3671875,0.0
60.0390625,-33.69140625,-41.50390625,-28.3203125,-46.38671875,7.8125,0.0
60.04296875,-12.6953125,-21.97265625,-14.6484375,-31.73828125,79.58984375,0.0
60.046875,-18.5546875,-24.4140625,-32.2265625,-31.25,136.23046875,0.0
60.05078125,-39.0625,-43.45703125,-52.24609375,-40.52734375,-44.43359375,0.0
60.0546875,-54.6875,-53.7109375,-56.640625,-48.33984375,-123.046875,0.0
60.05859375,-33.69140625,-40.52734375,-24.4140625,-26.85546875,-39.0625,0.0
60.0625,7.8125,-11.23046875,20.5078125,5.37109375,-20.99609375,0.0
60.06640625,-6.8359375,-20.01953125,-9.765625,-7.8125,30.76171875,0.0
60.0703125,-41.9921875,-44.921875,-57.6171875,-33.69140625,70.3125,0.0
60.07421875,-31.25,-37.59765625,-32.71484375,-25.87890625,-2.44140625,0.0
60.078125,5.37109375,-7.8125,22.4609375,-2.44140625,-13.18359375,0.0
60.08203125,-9.27734375,-20.99609375,-6.34765625,-21.484375,55.6640625,0.0
60.0859375,-22.94921875,-34.1796875,-38.0859375,-32.2265625,52.24609375,0.0
60.08984375,-32.2265625,-40.52734375,-44.921875,-29.78515625,58.59375,0.0
60.09375,-46.38671875,-56.640625,-52.734375,-37.109375,-43.9453125,0.0
60.09765625,-42.96875,-54.6875,-38.57421875,-39.0625,-158.203125,0.0
60.1015625,-28.80859375,-41.015625,-19.04296875,-34.1796875,-112.3046875,0.0
60.10546875,-20.99609375,-30.76171875,-16.11328125,-30.2734375,-75.1953125,0.0
60.109375,-39.0625,-35.64453125,-33.203125,-37.59765625,-12.20703125,0.0
60.11328125,-56.640625,-54.19921875,-46.875,-53.7109375,24.4140625,0.0
60.1171875,-49.31640625,-52.24609375,-37.109375,-54.6875,10.25390625,0.0
60.12109375,20.99609375,12.6953125,43.45703125,9.27734375,-38.0859375,0.0
60.125,40.0390625,23.92578125,55.17578125,25.87890625,-81.54296875,0.0
60.12890625,-32.2265625,-42.48046875,-37.59765625,-36.1328125,-38.57421875,0.0
60.1328125,-55.6640625,-60.546875,-64.94140625,-55.17578125,-19.53125,0.0
60.13671875,-47.36328125,-52.24609375,-45.41015625,-58.10546875,-83.49609375,0.0
60.140625,-28.80859375,-38.57421875,-27.83203125,-47.8515625,-59.5703125,0.0
60.14453125,-20.99609375,-28.3203125,-34.66796875,-37.109375,35.64453125,0.0
60.1484375,-33.203125,-28.3203125,-41.50390625,-42.96875,78.125,0.0
60.15234375,-44.43359375,-38.0859375,-35.64453125,-44.921875,-14.16015625,0.0
60.15625,-47.36328125,-46.875,-43.9453125,-45.8984375,-64.453125,0.0
60.16015625,-35.64453125,-40.0390625,-35.15625,-41.50390625,-2.9296875,0.0
60.1640625,-20.01953125,-19.53125,-15.13671875,-31.73828125,0.48828125,0.0
60.16796875,-25.390625,-16.11328125,-26.3671875,-35.15625,-10.7421875,0.0
60.171875,-51.7578125,-41.015625,-52.24609375,-47.8515625,-90.33203125,0.0
60.17578125,-61.5234375,-57.6171875,-53.7109375,-54.19921875,-103.02734375,0.0
60.1796875,-24.4140625,-34.1796875,-10.25390625,-37.109375,-45.41015625,0.0
60.18359375,5.37109375,-8.7890625,18.06640625,-15.625,-70.80078125,0.0
60.1875,-26.3671875,-33.69140625,-34.1796875,-31.25,-90.8203125,0.0
60.19140625,-55.17578125,-55.6640625,-65.4296875,-51.7578125,-130.859375,0.0
60.1953125,-53.7109375,-53.7109375,-52.734375,-51.7578125,-179.19921875,0.0
60.19921875,-34.1796875,-39.55078125,-32.2265625,-40.52734375,-137.20703125,0.0
60.203125,-22.4609375,-32.2265625,-27.83203125,-42.96875,-52.24609375,0.0
60.20703125,-29.296875,-35.64453125,-42.48046875,-48.33984375,-35.15625,0.0
60.2109375,-41.015625,-33.69140625,-47.36328125,-47.36328125,-112.3046875,0.0
60.21484375,-47.8515625,-41.9921875,-43.45703125,-50.78125,-139.16015625,0.0
60.21875,-34.66796875,-48.828125,-35.15625,-43.9453125,-71.77734375,0.0
60.22265625,-12.6953125,-25.390625,-20.5078125,-27.83203125,-24.90234375,0.0
60.2265625,20.5078125,19.53125,19.04296875,6.8359375,-0.9765625,0.0
60.23046875,-14.16015625,-11.71875,-15.13671875,-16.6015625,16.6015625,0.0
60.234375,-62.5,-60.546875,-60.05859375,-52.24609375,6.8359375,0.0
60.23828125,-47.8515625,-52.24609375,-39.55078125,-42.48046875,4.8828125,0.0
60.2421875,-31.25,-36.62109375,-26.85546875,-34.1796875,23.92578125,0.0
60.24609375,-30.2734375,-31.73828125,-35.15625,-31.73828125,-14.16015625,0.0
60.25,-46.38671875,-46.875,-54.6875,-41.015625,-66.89453125,0.0
60.25390625,-51.7578125,-50.78125,-45.41015625,-41.50390625,-96.19140625,0.0
60.2578125,-24.90234375,-25.390625,-8.30078125,-26.3671875,-30.76171875,0.0
60.26171875,-14.16015625,-19.04296875,-12.20703125,-27.83203125,40.0390625,0.0
60.265625,-24.90234375,-31.73828125,-38.0859375,-32.2265625,52.24609375,0.0
60.26953125,-18.06640625,-27.83203125,-27.34375,-19.04296875,25.87890625,0.0
60.2734375,-11.23046875,-19.04296875,-1.953125,-4.39453125,16.6015625,0.0
60.27734375,-38.57421875,-40.0390625,-22.4609375,-27.83203125,-38.57421875,0.0
60.28125,-32.2265625,-30.76171875,-20.01953125,-29.296875,-34.1796875,0.0
60.28515625,-12.6953125,-10.7421875,-2.44140625,-10.7421875,30.76171875,0.0
60.2890625,-32.71484375,-29.78515625,-27.83203125,-20.01953125,-67.3828125,0.0
60.29296875,-62.5,-55.17578125,-49.8046875,-41.015625,-123.046875,0.0
60.296875,-51.26953125,-54.19921875,-35.15625,-41.9921875,-152.34375,0.0
60.30078125,-23.4375,-36.1328125,-15.625,-32.71484375,-69.82421875,0.0
60.3046875,-20.99609375,-20.01953125,-9.27734375,-31.25,61.5234375,0.0
60.30859375,-38.57421875,-27.83203125,-30.76171875,-41.50390625,38.0859375,0.0
60.3125,-52.734375,-43.45703125,-44.921875,-44.43359375,-26.85546875,0.0
60.31640625,-20.99609375,-18.06640625,0.48828125,-14.16015625,-115.72265625,0.0
60.3203125,-5.859375,-7.8125,7.8125,-17.08984375,-30.76171875,0.0
60.32421875,-19.53125,-21.97265625,-26.85546875,-40.0390625,84.47265625,0.0
60.328125,-24.4140625,-27.83203125,-39.55078125,-37.109375,-66.40625,0.0
60.33203125,-44.921875,-44.43359375,-49.31640625,-41.50390625,-127.9296875,0.0
60.3359375,-50.29296875,-46.875,-37.109375,-40.52734375,-151.3671875,0.0
60.33984375,-33.69140625,-34.1796875,-23.4375,-34.66796875,-99.12109375,0.0
60.34375,-14.6484375,-19.53125,-10.7421875,-27.83203125,-2.44140625,0.0
60.34765625,-6.8359375,-12.20703125,1.46484375,-21.484375,1.953125,0.0
60.3515625,-39.0625,-37.59765625,-34.1796875,-43.9453125,-22.94921875,0.0
60.35546875,-55.6640625,-56.640625,-51.7578125,-61.5234375,-98.14453125,0.0
60.359375,-20.5078125,-33.203125,-8.7890625,-34.1796875,-66.89453125,0.0
60.36328125,15.625,1.953125,26.85546875,7.8125,-0.9765625,0.0
60.3671875,-17.08984375,-21.484375,-21.97265625,-19.53125,27.83203125,0.0
60.37109375,-51.7578125,-51.7578125,-54.6875,-45.8984375,-16.6015625,0.0
60.375,-52.734375,-51.7578125,-41.015625,-47.36328125,-6.8359375,0.0
60.37890625,-44.43359375,-41.015625,-22.94921875,-41.50390625,8.30078125,0.0
60.3828125,-31.25,-29.296875,-19.53125,-39.0625,17.08984375,0.0
60.38671875,-31.25,-28.80859375,-27.83203125,-43.45703125,20.99609375,0.0
60.390625,-40.0390625,-37.59765625,-35.64453125,-44.43359375,-72.75390625,0.0
60.39453125,-48.33984375,-49.8046875,-45.41015625,-46.875,-114.74609375,0.0
60.3984375,-42.96875,-41.9921875,-34.66796875,-46.38671875,-62.01171875,0.0
60.40234375,-21.97265625,-23.92578125,-17.08984375,-40.0390625,-27.83203125,0.0
60.40625,-3.41796875,-6.34765625,-4.39453125,-17.578125,-78.61328125,0.0
60.41015625,-31.73828125,-32.71484375,-36.1328125,-37.59765625,-83.49609375,0.0
60.4140625,-59.08203125,-61.03515625,-58.10546875,-63.96484375,-36.1328125,0.0
60.41796875,-42.96875,-44.921875,-36.62109375,-45.8984375,-24.90234375,0.0
60.421875,-24.4140625,-31.73828125,-25.390625,-30.76171875,13.18359375,0.0
60.42578125,-24.90234375,-31.25,-27.34375,-29.296875,17.08984375,0.0
60.4296875,-44.43359375,-39.55078125,-46.38671875,-41.50390625,-9.765625,0.0
60.43359375,-53.7109375,-42.48046875,-43.9453125,-43.45703125,-89.35546875,0.0
60.4375,-31.25,-28.80859375,-5.859375,-25.87890625,-59.08203125,0.0
60.44140625,-16.11328125,-20.01953125,-0.9765625,-23.92578125,-21.97265625,0.0
60.4453125,-23.92578125,-22.4609375,-22.4609375,-29.296875,-8.30078125,0.0
60.44921875,-36.62109375,-25.87890625,-31.73828125,-29.296875,-35.15625,0.0
60.453125,-28.3203125,-22.4609375,-6.8359375,-13.18359375,-145.99609375,0.0
60.45703125,-39.55078125,-44.43359375,-19.04296875,-29.78515625,-142.08984375,0.0
60.4609375,-34.66796875,-43.45703125,-32.71484375,-36.1328125,-78.61328125,0.0
60.46484375,-23.92578125,-26.85546875,-27.34375,-25.87890625,-7.8125,0.0
60.46875,-42.48046875,-34.1796875,-45.8984375,-43.45703125,19.04296875,0.0
60.47265625,-59.08203125,-52.24609375,-59.08203125,-54.6875,-29.78515625,0.0
60.4765625,-58.10546875,-55.6640625,-47.36328125,-49.31640625,-20.01953125,0.0
60.48046875,-35.64453125,-35.15625,-23.92578125,-41.015625,47.36328125,0.0
60.484375,-22.4609375,-22.94921875,-20.99609375,-34.66796875,124.0234375,0.0
60.48828125,-34.1796875,-33.69140625,-42.48046875,-34.1796875,98.14453125,0.0
60.4921875,-51.26953125,-43.45703125,-50.78125,-43.9453125,-26.85546875,0.0
60.49609375,-32.71484375,-21.97265625,-13.671875,-25.87890625,-87.890625,0.0
60.5,-21.484375,-16.6015625,-5.37109375,-19.53125,-53.7109375,0.0
60.50390625,-31.73828125,-26.3671875,-28.80859375,-35.64453125,95.703125,0.0
60.5078125,-34.66796875,-29.78515625,-40.0390625,-38.0859375,128.41796875,0.0
60.51171875,-39.0625,-36.1328125,-41.015625,-37.109375,50.78125,0.0
60.515625,-50.29296875,-47.36328125,-37.109375,-47.8515625,1.46484375,0.0
60.51953125,-41.9921875,-40.0390625,-27.34375,-47.8515625,-13.671875,0.0
60.5234375,-20.5078125,-13.18359375,-11.71875,-28.80859375,73.2421875,0.0
60.52734375,-17.08984375,-8.30078125,-14.6484375,-24.4140625,133.7890625,0.0
60.53125,-41.015625,-35.15625,-45.8984375,-45.41015625,47.8515625,0.0
60.53515625,-52.734375,-53.22265625,-53.22265625,-51.7578125,-94.7265625,0.0
60.5390625,-36.1328125,-33.203125,-24.4140625,-36.62109375,-111.81640625,0.0
60.54296875,-15.625,-10.25390625,-6.8359375,-27.34375,-72.265625,0.0
60.546875,-24.4140625,-24.90234375,-29.296875,-40.52734375,-56.15234375,0.0
60.55078125,-47.36328125,-45.8984375,-51.7578125,-46.875,-51.26953125,0.0
60.5546875,-42.96875,-41.9921875,-36.1328125,-33.69140625,-113.76953125,0.0
60.55859375,-25.87890625,-27.83203125,-16.11328125,-26.85546875,-69.3359375,0.0
60.5625,-23.92578125,-22.4609375,-19.04296875,-32.2265625,25.390625,0.0
60.56640625,-26.3671875,-24.4140625,-29.78515625,-33.69140625,38.57421875,0.0
60.5703125,-31.73828125,-30.2734375,-33.203125,-35.15625,1.46484375,0.0
60.57421875,-48.33984375,-44.921875,-41.50390625,-47.36328125,-64.94140625,0.0
60.578125,-38.0859375,-49.31640625,-35.15625,-43.45703125,-83.49609375,0.0
60.58203125,-12.6953125,-33.69140625,-22.4609375,-32.2265625,-28.3203125,0.0
60.5859375,-16.6015625,-25.390625,-29.78515625,-39.0625,15.625,0.0
60.58984375,-38.0859375,-39.0625,-48.828125,-47.8515625,-92.7734375,0.0
60.59375,-56.15234375,-56.640625,-55.17578125,-58.10546875,-130.859375,0.0
60.59765625,-39.0625,-44.921875,-34.66796875,-45.41015625,-54.19921875,0.0
60.6015625,7.32421875,-1.953125,15.13671875,-6.34765625,-9.765625,0.0
60.60546875,0.48828125,-5.37109375,2.44140625,-16.6015625,29.78515625,0.0
60.609375,-31.73828125,-36.1328125,-50.78125,-38.57421875,-25.87890625,0.0
60.61328125,-43.9453125,-38.57421875,-49.8046875,-37.59765625,-131.34765625,0.0
60.6171875,-22.4609375,-20.01953125,4.39453125,-19.53125,-141.6015625,0.0
60.62109375,-9.27734375,-20.5078125,-1.46484375,-20.01953125,-48.828125,0.0
60.625,-18.06640625,-24.90234375,-32.2265625,-32.2265625,11.71875,0.0
60.62890625,-30.76171875,-27.83203125,-41.9921875,-38.0859375,17.08984375,0.0
60.6328125,-44.43359375,-41.015625,-51.26953125,-42.48046875,-32.71484375,0.0
60.63671875,-41.015625,-40.52734375,-41.9921875,-39.55078125,-78.125,0.0
60.640625,-25.87890625,-27.83203125,-25.87890625,-37.59765625,12.6953125,0.0
60.64453125,-14.6484375,-13.671875,-13.18359375,-23.4375,61.03515625,0.0
60.6484375,-24.4140625,-19.04296875,-21.97265625,-22.4609375,-28.80859375,0.0
60.65234375,-48.828125,-40.52734375,-52.24609375,-47.36328125,-68.359375,0.0
60.65625,-48.828125,-44.43359375,-45.41015625,-45.8984375,-89.84375,0.0
60.66015625,-3.90625,-11.71875,8.7890625,-7.32421875,-72.75390625,0.0
60.6640625,9.765625,-0.48828125,11.23046875,-1.953125,-17.08984375,0.0
60.66796875,-28.80859375,-27.34375,-38.0859375,-31.25,20.5078125,0.0
60.671875,-44.43359375,-40.0390625,-48.33984375,-40.0390625,23.92578125,0.0
60.67578125,-25.390625,-30.2734375,-16.11328125,-32.71484375,-82.03125,0.0
60.6796875,-20.99609375,-21.97265625,-4.8828125,-35.15625,-95.21484375,0.0
60.68359375,-28.80859375,-24.90234375,-21.484375,-36.62109375,0.9765625,0.0
60.6875,-31.73828125,-31.25,-35.15625,-37.109375,8.7890625,0.0
60.69140625,-16.11328125,-19.53125,-2.9296875,-12.6953125,-37.109375,0.0
60.6953125,-31.73828125,-31.73828125,-13.18359375,-20.99609375,-68.359375,0.0
60.69921875,-41.015625,-40.52734375,-31.73828125,-41.50390625,-58.59375,0.0
60.703125,-19.04296875,-23.92578125,-20.01953125,-29.296875,-6.8359375,0.0
60.70703125,-27.34375,-25.390625,-38.0859375,-27.34375,-24.4140625,0.0
60.7109375,-48.828125,-42.96875,-57.6171875,-36.1328125,-46.875,0.0
60.71484375,-57.12890625,-58.59375,-62.5,-45.8984375,-62.01171875,0.0
60.71875,-28.80859375,-38.0859375,-27.34375,-27.83203125,-190.91796875,0.0
60.72265625,6.34765625,-4.8828125,6.8359375,-3.90625,-126.46484375,0.0
60.7265625,-16.11328125,-20.5078125,-27.34375,-21.97265625,-85.9375,0.0
60.73046875,-49.31640625,-44.921875,-57.12890625,-43.9453125,-189.94140625,0.0
60.734375,-53.7109375,-49.8046875,-50.29296875,-50.78125,-132.32421875,0.0
60.73828125,-42.48046875,-44.921875,-34.1796875,-48.828125,-20.01953125,0.0
60.7421875,-33.203125,-33.203125,-24.90234375,-40.52734375,33.69140625,0.0
60.74609375,-42.48046875,-37.109375,-41.50390625,-44.921875,101.07421875,0.0
60.75,-33.203125,-29.78515625,-25.87890625,-33.69140625,67.87109375,0.0
60.75390625,-20.01953125,-21.484375,7.32421875,-17.08984375,-96.6796875,0.0
60.7578125,-40.52734375,-45.8984375,-25.390625,-44.43359375,-65.91796875,0.0
60.76171875,-34.66796875,-38.57421875,-27.83203125,-45.41015625,80.078125,0.0
60.765625,-33.69140625,-31.25,-27.83203125,-35.64453125,101.5625,0.0
60.76953125,-55.6640625,-46.38671875,-56.640625,-51.7578125,152.83203125,0.0
60.7734375,-66.89453125,-53.7109375,-60.546875,-62.98828125,92.7734375,0.0
60.77734375,-55.17578125,-48.828125,-42.96875,-52.734375,14.16015625,0.0
60.78125,0.48828125,-2.9296875,14.6484375,-11.71875,-27.83203125,0.0
60.78515625,11.71875,0.0,13.18359375,-8.7890625,23.92578125,0.0
60.7890625,-37.59765625,-48.33984375,-50.29296875,-54.19921875,75.68359375,0.0
60.79296875,-60.546875,-63.4765625,-64.453125,-71.2890625,-80.078125,0.0
60.796875,-53.7109375,-55.17578125,-46.875,-64.94140625,-83.49609375,0.0
60.80078125,-26.3671875,-32.71484375,-24.4140625,-49.8046875,-3.90625,0.0
60.8046875,-19.53125,-24.90234375,-33.69140625,-51.26953125,-39.55078125,0.0
60.80859375,-25.390625,-27.83203125,-45.8984375,-48.33984375,-38.0859375,0.0
60.8125,-22.4609375,-26.3671875,-30.2734375,-33.203125,-47.36328125,0.0
60.81640625,-38.0859375,-43.9453125,-29.296875,-44.921875,-18.06640625,0.0
60.8203125,-34.66796875,-38.0859375,-26.85546875,-50.29296875,15.625,0.0
60.82421875,-9.765625,-12.6953125,-10.7421875,-21.97265625,56.640625,0.0
60.828125,-12.20703125,-10.7421875,-6.34765625,-10.7421875,-16.11328125,0.0
60.83203125,-52.24609375,-46.38671875,-48.828125,-47.36328125,-54.6875,0.0
60.8359375,-61.5234375,-57.6171875,-58.10546875,-58.59375,-58.10546875,0.0
60.83984375,-23.4375,-25.390625,-13.671875,-31.73828125,-58.59375,0.0
60.84375,-4.8828125,-3.41796875,0.0,-17.578125,17.578125,0.0
60.84765625,-39.55078125,-35.15625,-48.33984375,-50.78125,-21.97265625,0.0
60.8515625,-60.05859375,-53.7109375,-67.3828125,-65.4296875,-148.4375,0.0
60.85546875,-56.15234375,-48.828125,-49.31640625,-55.17578125,-174.8046875,0.0
60.859375,-36.62109375,-40.52734375,-29.296875,-45.8984375,-129.8828125,0.0
60.86328125,-25.87890625,-34.1796875,-27.83203125,-42.48046875,7.8125,0.0
60.8671875,-36.1328125,-32.71484375,-39.0625,-46.875,30.2734375,0.0
60.87109375,-28.3203125,-29.78515625,-23.92578125,-33.203125,-115.234375,0.0
60.875,-40.0390625,-48.33984375,-33.203125,-42.96875,-87.890625,0.0
60.87890625,-50.29296875,-52.24609375,-36.62109375,-56.15234375,-40.52734375,0.0
60.8828125,-38.57421875,-35.15625,-25.87890625,-48.33984375,-44.43359375,0.0
60.88671875,-47.36328125,-38.0859375,-44.43359375,-51.26953125,-48.828125,0.0
60.890625,-58.10546875,-47.36328125,-57.6171875,-62.5,-63.4765625,0.0
60.89453125,-62.98828125,-60.05859375,-60.546875,-70.3125,-69.3359375,0.0
60.8984375,-41.015625,-39.0625,-28.80859375,-52.734375,-49.31640625,0.0
60.90234375,1.46484375,2.44140625,15.625,-15.13671875,27.34375,0.0
60.90625,-17.578125,-19.53125,-24.4140625,-30.76171875,32.71484375,0.0
60.91015625,-49.31640625,-49.31640625,-62.5,-59.5703125,-78.125,0.0
60.9140625,-51.26953125,-48.828125,-48.33984375,-57.6171875,-150.390625,0.0
60.91796875,-40.52734375,-34.1796875,-28.3203125,-52.24609375,-34.1796875,0.0
60.921875,-26.85546875,-22.94921875,-21.484375,-36.1328125,96.19140625,0.0
60.92578125,-32.2265625,-31.25,-41.50390625,-36.1328125,89.35546875,0.0
60.9296875,-34.66796875,-29.296875,-41.015625,-38.57421875,38.57421875,0.0
60.93359375,-39.0625,-30.2734375,-27.83203125,-35.15625,-47.8515625,0.0
60.9375,-53.7109375,-42.48046875,-36.1328125,-50.29296875,-31.73828125,0.0
60.94140625,-35.15625,-29.296875,-21.484375,-45.41015625,16.11328125,0.0
60.9453125,-24.90234375,-16.11328125,-11.71875,-39.0625,67.3828125,0.0
60.94921875,-45.41015625,-35.15625,-37.109375,-48.33984375,39.0625,0.0
60.953125,-63.4765625,-56.640625,-53.7109375,-57.6171875,-23.4375,0.0
60.95703125,-54.6875,-44.43359375,-32.71484375,-49.8046875,-50.29296875,0.0
60.9609375,-9.765625,-3.90625,14.16015625,-20.99609375,-45.8984375,0.0
60.96484375,-11.71875,-7.32421875,-4.8828125,-29.78515625,-57.12890625,0.0
60.96875,-51.26953125,-45.41015625,-54.19921875,-51.26953125,-64.453125,0.0
60.97265625,-60.546875,-60.05859375,-46.38671875,-51.7578125,-79.1015625,0.0
60.9765625,-38.0859375,-40.0390625,-2.9296875,-37.59765625,-92.7734375,0.0
60.98046875,-28.80859375,-31.73828125,-9.27734375,-31.73828125,-79.1015625,0.0
60.984375,-35.64453125,-33.69140625,-29.296875,-39.55078125,8.7890625,0.0
60.98828125,-47.8515625,-39.0625,-38.0859375,-41.9921875,57.12890625,0.0
60.9921875,-62.01171875,-48.828125,-47.36328125,-51.26953125,-14.16015625,0.0
60.99609375,-54.19921875,-50.29296875,-38.57421875,-53.22265625,-19.04296875,0.0
61.0,-38.57421875,-40.0390625,-27.83203125,-39.0625,31.25,0.0
61.00390625,-24.90234375,-28.3203125,-21.484375,-24.4140625,64.94140625,0.0
61.0078125,-25.87890625,-27.83203125,-35.64453125,-23.92578125,15.13671875,0.0
61.01171875,-47.8515625,-46.875,-57.6171875,-37.109375,-77.63671875,0.0
61.015625,-53.7109375,-60.546875,-49.31640625,-44.43359375,-206.0546875,0.0
61.01953125,-25.87890625,-36.1328125,-17.578125,-28.80859375,-192.87109375,0.0
61.0234375,-15.625,-20.99609375,-12.6953125,-21.484375,-67.3828125,0.0
61.02734375,-37.109375,-30.76171875,-35.15625,-28.3203125,-22.4609375,0.0
61.03125,-57.6171875,-46.38671875,-60.05859375,-37.59765625,-12.6953125,0.0
61.03515625,-44.921875,-39.55078125,-38.0859375,-24.4140625,-62.5,0.0
61.0390625,-3.41796875,-3.41796875,23.4375,5.37109375,-98.6328125,0.0
61.04296875,-6.8359375,-6.34765625,4.39453125,-10.25390625,-18.5546875,0.0
61.046875,-29.296875,-33.203125,-44.921875,-31.73828125,33.69140625,0.0
61.05078125,-43.45703125,-46.38671875,-54.19921875,-35.64453125,-67.87109375,0.0
61.0546875,-53.7109375,-45.8984375,-49.8046875,-40.52734375,-102.05078125,0.0
61.05859375,-41.015625,-34.66796875,-32.71484375,-36.1328125,4.8828125,0.0
61.0625,-22.4609375,-23.4375,-25.390625,-26.3671875,88.8671875,0.0
61.06640625,35.64453125,26.3671875,32.2265625,40.0390625,40.0390625,0.0
61.0703125,28.80859375,19.04296875,25.390625,38.57421875,-35.15625,0.0
61.07421875,-41.015625,-45.41015625,-50.29296875,-35.15625,-144.04296875,0.0
61.078125,-38.0859375,-47.8515625,-38.0859375,-35.15625,-166.9921875,0.0
61.08203125,-18.5546875,-31.25,-18.5546875,-21.484375,-27.83203125,0.0
61.0859375,-23.92578125,-29.296875,-31.73828125,-25.87890625,44.921875,0.0
61.08984375,-43.45703125,-50.29296875,-59.08203125,-36.62109375,-16.6015625,0.0
61.09375,-45.8984375,-59.08203125,-47.8515625,-32.71484375,-118.65234375,0.0
61.09765625,-23.4375,-38.0859375,-8.7890625,-15.13671875,-125.0,0.0
61.1015625,-16.11328125,-30.2734375,-19.53125,-21.97265625,-168.45703125,0.0
61.10546875,-22.4609375,-33.203125,-39.55078125,-36.62109375,-202.63671875,0.0
61.109375,-29.78515625,-39.0625,-45.8984375,-36.62109375,-114.2578125,0.0
61.11328125,-37.59765625,-46.875,-45.41015625,-39.55078125,-46.38671875,0.0
61.1171875,-34.1796875,-44.43359375,-33.203125,-37.109375,-60.05859375,0.0
61.12109375,-25.390625,-35.64453125,-31.73828125,-40.0390625,24.90234375,0.0
61.125,6.8359375,-1.953125,3.41796875,-8.7890625,30.2734375,0.0
61.12890625,17.08984375,12.20703125,26.85546875,10.25390625,-20.5078125,0.0
61.1328125,-39.0625,-38.0859375,-39.0625,-49.8046875,-1.953125,0.0
61.13671875,-41.9921875,-44.921875,-39.55078125,-56.640625,-78.125,0.0
61.140625,0.9765625,-4.8828125,10.25390625,-19.04296875,-79.1015625,0.0
61.14453125,-8.7890625,-13.671875,-11.71875,-29.296875,19.04296875,0.0
61.1484375,-38.57421875,-38.0859375,-51.26953125,-45.8984375,33.203125,0.0
61.15234375,-50.78125,-46.38671875,-53.22265625,-46.875,-45.41015625,0.0
61.15625,-15.625,-22.4609375,0.48828125,-19.53125,-89.84375,0.0
61.16015625,-2.9296875,-14.16015625,12.20703125,-17.578125,-11.71875,0.0
61.1640625,-25.87890625,-30.2734375,-27.83203125,-42.96875,73.2421875,0.0
61.16796875,-25.390625,-28.3203125,-35.64453125,-38.57421875,-14.16015625,0.0
61.171875,-35.15625,-39.0625,-36.62109375,-39.55078125,-85.9375,0.0
61.17578125,-46.38671875,-49.31640625,-43.9453125,-44.921875,-18.5546875,0.0
61.1796875,-38.57421875,-39.0625,-39.55078125,-38.0859375,41.9921875,0.0
61.18359375,-20.99609375,-22.4609375,-23.4375,-25.390625,39.55078125,0.0
61.1875,-15.625,-22.94921875,-16.6015625,-19.04296875,-27.34375,0.0
61.19140625,-51.26953125,-56.15234375,-54.6875,-46.38671875,-98.6328125,0.0
61.1953125,-64.453125,-67.87109375,-68.359375,-61.5234375,-72.265625,0.0
61.19921875,-32.2265625,-35.64453125,-17.578125,-33.69140625,-56.640625,0.0
61.203125,5.37109375,0.48828125,31.73828125,-4.39453125,-46.38671875,0.0
61.20703125,-27.83203125,-28.80859375,-27.34375,-38.0859375,-13.671875,0.0
61.2109375,-62.98828125,-55.17578125,-61.5234375,-57.6171875,-7.32421875,0.0
61.21484375,-58.59375,-54.6875,-48.33984375,-53.22265625,-66.89453125,0.0
61.21875,-40.0390625,-41.9921875,-34.1796875,-45.41015625,-91.30859375,0.0
61.22265625,-24.90234375,-24.4140625,-23.92578125,-44.43359375,-0.48828125,0.0
61.2265625,-28.80859375,-30.76171875,-36.62109375,-51.26953125,75.1953125,0.0
61.23046875,-32.2265625,-40.0390625,-35.64453125,-43.45703125,-47.8515625,0.0
61.234375,-40.52734375,-46.38671875,-38.57421875,-52.734375,-70.80078125,0.0
61.23828125,-38.0859375,-42.48046875,-35.15625,-61.03515625,13.18359375,0.0
61.2421875,-22.94921875,-20.5078125,-19.53125,-40.0390625,45.8984375,0.0
61.24609375,-9.27734375,2.44140625,0.9765625,-18.06640625,67.87109375,0.0
61.25,-33.203125,-27.34375,-25.390625,-41.9921875,-13.18359375,0.0
61.25390625,-55.6640625,-54.6875,-53.22265625,-56.15234375,-59.5703125,0.0
61.2578125,-39.0625,-38.57421875,-30.2734375,-46.38671875,21.484375,0.0
61.26171875,-22.94921875,-20.01953125,-13.671875,-34.66796875,70.80078125,0.0
61.265625,-23.92578125,-21.484375,-29.296875,-33.203125,24.90234375,0.0
61.26953125,-47.36328125,-43.45703125,-59.08203125,-46.875,-2.44140625,0.0
61.2734375,-50.78125,-42.96875,-48.33984375,-40.52734375,-37.59765625,0.0
61.27734375,-27.83203125,-23.4375,-9.765625,-20.01953125,-63.4765625,0.0
61.28125,-26.3671875,-22.4609375,-18.06640625,-25.390625,19.53125,0.0
61.28515625,-39.55078125,-35.64453125,-43.9453125,-40.52734375,106.93359375,0.0
61.2890625,-41.9921875,-36.62109375,-39.0625,-32.71484375,14.6484375,0.0
61.29296875,-10.7421875,-10.25390625,8.7890625,-0.48828125,-106.4453125,0.0
61.296875,-23.4375,-30.76171875,-9.27734375,-24.4140625,-99.609375,0.0
61.30078125,-35.64453125,-42.96875,-33.203125,-44.43359375,-26.85546875,0.0
61.3046875,-27.34375,-26.85546875,-25.87890625,-38.57421875,20.99609375,0.0
61.30859375,-45.8984375,-40.0390625,-43.9453125,-49.31640625,1.46484375,0.0
61.3125,-59.5703125,-54.6875,-55.17578125,-53.7109375,-68.359375,0.0
61.31640625,-51.26953125,-53.22265625,-40.0390625,-48.33984375,-52.24609375,0.0
61.3203125,-34.66796875,-38.0859375,-17.08984375,-34.1796875,6.8359375,0.0
61.32421875,-28.80859375,-29.78515625,-18.06640625,-30.2734375,78.61328125,0.0
61.328125,-42.48046875,-39.0625,-41.50390625,-39.0625,13.671875,0.0
61.33203125,-49.31640625,-47.36328125,-45.41015625,-40.52734375,-108.3984375,0.0
61.3359375,-35.64453125,-35.15625,-19.53125,-29.296875,-131.34765625,0.0
61.33984375,-27.34375,-23.92578125,-10.7421875,-32.2265625,-84.47265625,0.0
61.34375,-25.87890625,-22.4609375,-21.484375,-39.0625,41.9921875,0.0
61.34765625,-36.1328125,-32.2265625,-35.64453125,-41.50390625,73.2421875,0.0
61.3515625,-32.2265625,-31.73828125,-9.27734375,-28.80859375,-19.53125,0.0
61.35546875,-31.25,-31.73828125,-7.8125,-27.34375,-63.4765625,0.0
61.359375,-26.85546875,-35.15625,-20.01953125,-30.2734375,-72.75390625,0.0
61.36328125,-14.6484375,-25.87890625,-10.25390625,-23.92578125,23.92578125,0.0
61.3671875,-27.34375,-24.90234375,-27.34375,-30.2734375,17.578125,0.0
61.37109375,-47.8515625,-43.45703125,-42.96875,-31.25,-135.7421875,0.0
61.375,-56.15234375,-55.6640625,-43.45703125,-35.64453125,-123.53515625,0.0
61.37890625,-33.203125,-32.2265625,-19.53125,-25.87890625,-83.0078125,0.0
61.3828125,-1.953125,2.44140625,9.27734375,-9.27734375,-54.19921875,0.0
61.38671875,-23.4375,-18.06640625,-22.4609375,-26.3671875,37.59765625,0.0
61.390625,-55.6640625,-50.78125,-59.5703125,-48.33984375,9.765625,0.0
61.39453125,-43.45703125,-45.41015625,-31.73828125,-33.69140625,-92.28515625,0.0
61.3984375,-3.90625,-10.7421875,29.296875,-5.37109375,-115.234375,0.0
61.40234375,-22.94921875,-20.5078125,-4.39453125,-30.76171875,-72.75390625,0.0
61.40625,-41.9921875,-34.1796875,-36.1328125,-40.52734375,9.27734375,0.0
61.41015625,-45.8984375,-40.0390625,-38.57421875,-41.9921875,27.34375,0.0
61.4140625,-57.12890625,-51.7578125,-45.41015625,-54.19921875,-49.31640625,0.0
61.41796875,-41.50390625,-41.50390625,-33.203125,-54.6875,-72.265625,0.0
61.421875,-16.6015625,-22.4609375,-20.99609375,-49.31640625,18.06640625,0.0
61.42578125,-15.625,-20.01953125,-32.2265625,-43.45703125,-27.83203125,0.0
61.4296875,-35.64453125,-32.2265625,-53.7109375,-45.41015625,-142.08984375,0.0
61.43359375,-50.29296875,-42.48046875,-62.01171875,-53.22265625,-143.06640625,0.0
61.4375,-32.71484375,-33.69140625,-41.9921875,-43.45703125,-73.2421875,0.0
61.44140625,4.8828125,-5.37109375,9.765625,-18.06640625,-35.64453125,0.0
61.4453125,-4.39453125,-6.8359375,-3.90625,-20.99609375,4.39453125,0.0
61.44921875,-39.55078125,-36.1328125,-55.17578125,-38.57421875,40.52734375,0.0
61.453125,-43.9453125,-50.29296875,-52.24609375,-40.0390625,-67.87109375,0.0
61.45703125,-22.94921875,-33.69140625,-24.4140625,-23.92578125,-148.92578125,0.0
61.4609375,-11.23046875,-23.4375,-20.99609375,-18.5546875,-91.30859375,0.0
61.46484375,-11.23046875,-29.296875,-39.0625,-22.94921875,-117.67578125,0.0
61.46875,-21.484375,-35.64453125,-48.828125,-24.90234375,-100.09765625,0.0
61.47265625,-31.73828125,-35.64453125,-35.15625,-22.4609375,-52.24609375,0.0
61.4765625,-38.57421875,-37.59765625,-35.15625,-40.0390625,-55.6640625,0.0
61.48046875,-31.73828125,-32.2265625,-35.15625,-46.875,41.50390625,0.0
61.484375,-16.6015625,-18.5546875,-22.4609375,-25.390625,73.2421875,0.0
61.48828125,-7.8125,-8.30078125,-7.8125,-9.27734375,-14.16015625,0.0
61.4921875,-40.52734375,-39.55078125,-47.8515625,-37.109375,-69.82421875,0.0
61.49609375,-51.7578125,-53.22265625,-53.7109375,-47.36328125,-166.50390625,0.0
61.5,-34.1796875,-38.0859375,-29.78515625,-35.64453125,-111.328125,0.0
61.50390625,-26.3671875,-31.25,-32.71484375,-33.69140625,-22.94921875,0.0
61.5078125,-41.9921875,-42.48046875,-53.22265625,-45.8984375,-64.453125,0.0
61.51171875,-59.08203125,-55.6640625,-59.08203125,-52.24609375,-88.37890625,0.0
61.515625,-25.390625,-29.78515625,-11.71875,-21.97265625,-71.2890625,0.0
61.51953125,-15.13671875,-21.97265625,-6.34765625,-18.5546875,-24.90234375,0.0
61.5234375,-23.4375,-20.99609375,-24.90234375,-28.3203125,-39.0625,0.0
61.52734375,-27.34375,-17.08984375,-33.203125,-28.3203125,-62.98828125,0.0
61.53125,-42.96875,-36.62109375,-42.48046875,-43.45703125,-38.57421875,0.0
61.53515625,-47.36328125,-49.8046875,-42.96875,-50.78125,-16.11328125,0.0
61.5390625,-33.69140625,-39.0625,-35.15625,-45.8984375,8.30078125,0.0
61.54296875,-12.6953125,-19.04296875,-20.01953125,-29.78515625,25.390625,0.0
61.546875,1.46484375,-5.859375,3.90625,-9.765625,-18.06640625,0.0
61.55078125,-31.25,-34.1796875,-26.85546875,-34.1796875,-85.9375,0.0
61.5546875,-49.8046875,-55.17578125,-52.734375,-57.6171875,-45.41015625,0.0
61.55859375,-14.6484375,-29.296875,-17.08984375,-35.64453125,-24.90234375,0.0
61.5625,36.62109375,18.06640625,41.50390625,16.11328125,-109.375,0.0
61.56640625,4.39453125,-7.32421875,-6.8359375,-5.37109375,-164.55078125,0.0
61.5703125,-49.31640625,-52.734375,-69.82421875,-48.828125,-233.88671875,0.0
61.57421875,-37.59765625,-41.9921875,-41.015625,-40.0390625,-262.6953125,0.0
61.578125,7.8125,-8.30078125,20.99609375,-4.8828125,-216.796875,0.0
61.58203125,-2.9296875,-17.578125,-8.30078125,-19.53125,-148.4375,0.0
61.5859375,-26.85546875,-30.76171875,-42.48046875,-37.59765625,-164.0625,0.0
61.58984375,-36.62109375,-44.43359375,-46.875,-38.57421875,-200.1953125,0.0
61.59375,-45.8984375,-57.6171875,-51.26953125,-48.33984375,-60.05859375,0.0
61.59765625,-41.015625,-45.8984375,-37.109375,-55.17578125,75.68359375,0.0
61.6015625,-28.3203125,-30.76171875,-25.390625,-47.36328125,126.46484375,0.0
61.60546875,-31.25,-29.78515625,-34.1796875,-38.57421875,132.32421875,0.0
61.609375,-51.7578125,-42.96875,-51.26953125,-44.43359375,43.45703125,0.0
61.61328125,-64.453125,-58.59375,-61.5234375,-58.10546875,-6.8359375,0.0
61.6171875,-47.8515625,-50.78125,-43.45703125,-55.17578125,1.953125,0.0
61.62109375,-2.9296875,-7.32421875,13.18359375,-18.06640625,-50.29296875,0.0
61.625,-13.18359375,-12.6953125,-2.44140625,-26.85546875,-25.390625,0.0
61.62890625,-56.15234375,-56.640625,-60.546875,-61.5234375,-27.83203125,0.0
61.6328125,-54.19921875,-61.5234375,-54.19921875,-59.08203125,-83.0078125,0.0
61.63671875,-20.5078125,-33.203125,-4.39453125,-33.203125,-117.1875,0.0
61.640625,-13.18359375,-25.390625,-6.34765625,-35.15625,-54.19921875,0.0
61.64453125,-24.4140625,-27.34375,-31.25,-41.50390625,64.453125,0.0
61.6484375,-29.78515625,-28.3203125,-40.52734375,-35.15625,64.453125,0.0
61.65234375,-33.203125,-33.69140625,-30.76171875,-37.59765625,-41.9921875,0.0
61.65625,-45.8984375,-47.36328125,-36.1328125,-52.734375,-51.7578125,0.0
61.66015625,-29.296875,-35.15625,-31.73828125,-44.43359375,-14.6484375,0.0
61.6640625,-15.625,-20.5078125,-26.3671875,-33.69140625,44.43359375,0.0
61.66796875,-33.203125,-30.76171875,-42.48046875,-37.109375,104.00390625,0.0
61.671875,-52.24609375,-50.78125,-53.22265625,-43.9453125,66.40625,0.0
61.67578125,-51.26953125,-64.453125,-51.26953125,-49.31640625,-76.171875,0.0
61.6796875,-16.6015625,-30.76171875,-12.20703125,-25.87890625,-116.69921875,0.0
61.68359375,19.04296875,14.16015625,29.296875,9.765625,-65.91796875,0.0
61.6875,-21.484375,-20.01953125,-28.80859375,-24.90234375,37.109375,0.0
61.69140625,-53.22265625,-49.31640625,-67.3828125,-51.26953125,3.41796875,0.0
61.6953125,-48.828125,-45.41015625,-49.31640625,-44.43359375,-50.29296875,0.0
61.69921875,-34.66796875,-35.15625,-32.71484375,-32.2265625,-36.1328125,0.0
61.703125,-27.34375,-30.76171875,-32.71484375,-33.203125,-60.546875,0.0
61.70703125,-33.69140625,-33.203125,-43.9453125,-35.15625,1.46484375,0.0
61.7109375,-39.0625,-30.76171875,-44.43359375,-31.25,10.25390625,0.0
61.71484375,-47.8515625,-37.109375,-43.45703125,-42.96875,-90.33203125,0.0
61.71875,-42.48046875,-38.57421875,-32.2265625,-49.8046875,-104.4921875,0.0
61.72265625,-28.80859375,-24.4140625,-24.4140625,-42.48046875,2.9296875,0.0
61.7265625,-9.765625,-3.41796875,-6.8359375,-22.4609375,81.0546875,0.0
61.73046875,-26.3671875,-27.34375,-24.90234375,-35.64453125,17.08984375,0.0
61.734375,-48.33984375,-53.7109375,-51.26953125,-57.6171875,-16.6015625,0.0
61.73828125,-36.1328125,-36.62109375,-30.76171875,-49.31640625,-65.4296875,0.0
61.7421875,-16.11328125,-15.625,-18.5546875,-32.71484375,-22.94921875,0.0
61.74609375,-25.390625,-23.4375,-35.15625,-37.59765625,104.4921875,0.0
61.75,-47.36328125,-44.43359375,-55.17578125,-48.828125,19.04296875,0.0
61.75390625,-50.29296875,-51.7578125,-44.921875,-44.921875,25.390625,0.0
61.7578125,-37.109375,-36.1328125,-16.6015625,-36.62109375,143.06640625,0.0
61.76171875,-25.390625,-25.390625,-19.04296875,-36.1328125,175.78125,0.0
61.765625,-31.25,-35.15625,-40.52734375,-43.45703125,164.0625,0.0
61.76953125,-29.78515625,-37.59765625,-33.69140625,-36.1328125,14.6484375,0.0
61.7734375,-7.8125,-20.5078125,1.953125,-15.625,-135.25390625,0.0
61.77734375,-24.90234375,-36.62109375,-20.99609375,-43.45703125,-108.3984375,0.0
61.78125,-20.5078125,-34.1796875,-30.2734375,-41.50390625,-6.34765625,0.0
61.78515625,6.34765625,-9.27734375,-4.39453125,-8.7890625,-62.98828125,0.0
61.7890625,-20.01953125,-26.3671875,-21.97265625,-25.390625,-88.37890625,0.0
61.79296875,-53.22265625,-58.10546875,-52.24609375,-54.19921875,-57.6171875,0.0
61.796875,-46.38671875,-54.19921875,-41.015625,-52.734375,-117.1875,0.0
61.80078125,-32.71484375,-36.1328125,-26.3671875,-42.96875,-27.83203125,0.0
61.8046875,-26.3671875,-21.97265625,-29.78515625,-38.57421875,21.484375,0.0
61.80859375,-44.921875,-36.62109375,-50.29296875,-54.6875,-32.71484375,0.0
61.8125,-63.96484375,-58.10546875,-57.6171875,-62.5,-100.09765625,0.0
61.81640625,-38.0859375,-37.59765625,-6.34765625,-40.52734375,-52.734375,0.0
61.8203125,-22.4609375,-26.3671875,2.44140625,-34.1796875,38.0859375,0.0
61.82421875,-31.25,-28.80859375,-32.2265625,-40.0390625,49.31640625,0.0
61.828125,-43.45703125,-36.62109375,-47.8515625,-42.96875,15.625,0.0
61.83203125,-60.546875,-57.6171875,-60.05859375,-57.12890625,-130.37109375,0.0
61.8359375,-53.7109375,-50.78125,-45.8984375,-63.4765625,-170.8984375,0.0
61.83984375,-36.1328125,-38.0859375,-32.71484375,-58.59375,-88.37890625,0.0
61.84375,-17.08984375,-24.4140625,-18.06640625,-40.0390625,69.82421875,0.0
61.84765625,1.953125,-0.9765625,10.7421875,-12.20703125,49.8046875,0.0
61.8515625,-42.96875,-31.73828125,-33.203125,-48.33984375,-81.0546875,0.0
61.85546875,-62.98828125,-56.640625,-56.15234375,-71.77734375,-180.17578125,0.0
61.859375,-27.34375,-37.59765625,-22.94921875,-47.36328125,-117.1875,0.0
61.86328125,-10.7421875,-22.94921875,-18.06640625,-34.1796875,-49.31640625,0.0
61.8671875,-25.390625,-37.59765625,-44.43359375,-43.45703125,-107.421875,0.0
61.87109375,-44.921875,-57.12890625,-60.05859375,-53.22265625,-121.58203125,0.0
61.875,-25.390625,-39.0625,-26.3671875,-37.59765625,-86.9140625,0.0
61.87890625,1.46484375,-19.53125,3.41796875,-22.4609375,4.39453125,0.0
61.8828125,-7.8125,-27.34375,-20.01953125,-33.69140625,61.03515625,0.0
61.88671875,-24.90234375,-30.76171875,-41.9921875,-38.57421875,31.25,0.0
61.890625,-39.0625,-33.69140625,-54.19921875,-42.48046875,81.0546875,0.0
61.89453125,-41.015625,-41.50390625,-46.875,-44.921875,16.6015625,0.0
61.8984375,-26.3671875,-35.64453125,-26.85546875,-40.0390625,-64.94140625,0.0
61.90234375,-15.625,-21.484375,-19.53125,-34.1796875,0.0,0.0
61.90625,0.48828125,-1.46484375,10.7421875,-11.71875,5.859375,0.0
61.91015625,-11.71875,-12.6953125,0.0,-17.08984375,-60.546875,0.0
61.9140625,-43.45703125,-46.875,-40.0390625,-44.43359375,-70.80078125,0.0
61.91796875,-30.76171875,-34.66796875,-23.92578125,-34.1796875,-100.5859375,0.0
61.921875,-18.06640625,-15.625,-15.13671875,-29.296875,-84.9609375,0.0
61.92578125,-26.85546875,-18.06640625,-32.2265625,-39.0625,68.359375,0.0
61.9296875,-50.29296875,-38.0859375,-50.29296875,-50.78125,20.01953125,0.0
61.93359375,-55.17578125,-49.8046875,-40.0390625,-48.33984375,-91.796875,0.0
61.9375,-20.5078125,-25.390625,-1.46484375,-21.97265625,-49.31640625,0.0
61.94140625,-12.20703125,-23.4375,-8.7890625,-26.85546875,-10.7421875,0.0
61.9453125,-27.34375,-35.64453125,-34.66796875,-35.64453125,-10.25390625,0.0
61.94921875,-41.9921875,-46.875,-48.33984375,-40.52734375,-44.43359375,0.0
61.953125,-53.22265625,-64.94140625,-49.31640625,-50.78125,-93.26171875,0.0
61.95703125,-46.875,-60.546875,-36.62109375,-54.19921875,-88.8671875,0.0
61.9609375,-35.15625,-42.48046875,-29.296875,-42.48046875,-9.27734375,0.0
61.96484375,-4.8828125,-11.23046875,-6.34765625,-9.27734375,47.8515625,0.0
61.96875,6.34765625,0.0,10.25390625,5.859375,-79.1015625,0.0
61.97265625,-45.41015625,-50.78125,-42.48046875,-41.9921875,-97.65625,0.0
61.9765625,-44.921875,-57.6171875,-48.33984375,-50.78125,-58.10546875,0.0
61.98046875,-17.08984375,-37.109375,-20.99609375,-34.1796875,-111.81640625,0.0
61.984375,-14.6484375,-33.69140625,-25.87890625,-32.2265625,-3.41796875,0.0
61.98828125,-31.25,-42.96875,-50.78125,-40.52734375,24.4140625,0.0
61.9921875,-49.31640625,-52.24609375,-55.17578125,-44.921875,-56.640625,0.0
61.99609375,-43.45703125,-47.8515625,-35.15625,-39.0625,-45.8984375,0.0
62.0,-19.04296875,-35.15625,-13.671875,-32.2265625,-24.90234375,0.0
62.00390625,-23.4375,-33.203125,-21.484375,-30.2734375,15.625,0.0
62.0078125,-38.0859375,-43.9453125,-39.55078125,-32.71484375,-33.203125,0.0
62.01171875,0.9765625,-5.37109375,11.23046875,15.13671875,-160.64453125,0.0
62.015625,5.37109375,-1.46484375,21.484375,26.3671875,-178.22265625,0.0
62.01953125,-27.83203125,-34.1796875,-20.01953125,-18.06640625,-40.52734375,0.0
62.0234375,-19.04296875,-19.04296875,-14.6484375,-12.6953125,135.25390625,0.0
62.02734375,-7.32421875,-7.8125,-12.20703125,0.48828125,87.40234375,0.0
62.03125,-39.0625,-42.96875,-44.921875,-30.76171875,-63.96484375,0.0
62.03515625,-57.6171875,-60.05859375,-57.12890625,-47.8515625,-74.21875,0.0
62.0390625,-31.25,-26.85546875,-20.5078125,-26.3671875,-64.94140625,0.0
62.04296875,-2.44140625,0.9765625,4.39453125,-0.9765625,-86.9140625,0.0
62.046875,-32.2265625,-32.71484375,-38.0859375,-23.92578125,-15.625,0.0
62.05078125,-62.5,-63.4765625,-62.98828125,-45.41015625,7.32421875,0.0
62.0546875,-55.17578125,-55.6640625,-38.0859375,-35.64453125,-45.8984375,0.0
62.05859375,-29.296875,-33.203125,-9.27734375,-22.4609375,-57.12890625,0.0
62.0625,-19.53125,-27.34375,-18.06640625,-29.78515625,-4.39453125,0.0
62.06640625,-34.66796875,-36.62109375,-40.52734375,-42.48046875,29.296875,0.0
62.0703125,-41.015625,-38.0859375,-32.71484375,-32.2265625,-22.4609375,0.0
62.07421875,-42.48046875,-46.875,-30.76171875,-32.2265625,-73.73046875,0.0
62.078125,-37.59765625,-47.8515625,-32.71484375,-40.0390625,-69.82421875,0.0
62.08203125,-19.53125,-32.71484375,-20.01953125,-30.76171875,0.0,0.0
62.0859375,-22.4609375,-26.85546875,-24.4140625,-30.2734375,130.859375,0.0
62.08984375,-45.41015625,-41.9921875,-49.31640625,-43.9453125,114.74609375,0.0
62.09375,-57.6171875,-62.01171875,-60.05859375,-62.5,-62.98828125,0.0
62.09765625,-39.0625,-46.38671875,-29.78515625,-50.29296875,-41.9921875,0.0
62.1015625,1.953125,-11.23046875,24.4140625,-8.30078125,58.10546875,0.0
62.10546875,-4.8828125,-18.06640625,-9.765625,-18.5546875,62.5,0.0
62.109375,-43.9453125,-45.8984375,-61.03515625,-52.734375,19.53125,0.0
62.11328125,-47.36328125,-49.8046875,-46.875,-46.875,-196.2890625,0.0
62.1171875,-10.25390625,-15.625,6.34765625,-12.6953125,-255.859375,0.0
62.12109375,-5.37109375,-14.16015625,-1.953125,-22.94921875,-122.55859375,0.0
62.125,-15.13671875,-33.69140625,-36.1328125,-39.0625,-71.77734375,0.0
62.12890625,-23.92578125,-37.59765625,-42.96875,-39.0625,-181.15234375,0.0
62.1328125,-36.62109375,-38.0859375,-41.9921875,-42.96875,-229.98046875,0.0
62.13671875,-30.76171875,-35.64453125,-32.2265625,-41.50390625,-209.47265625,0.0
62.140625,-15.625,-28.80859375,-28.80859375,-34.66796875,-193.84765625,0.0
62.14453125,-7.8125,-14.6484375,-15.13671875,-22.4609375,-93.26171875,0.0
62.1484375,-12.6953125,-9.765625,8.7890625,-13.18359375,-57.12890625,0.0
62.15234375,-48.828125,-39.55078125,-34.66796875,-41.50390625,-145.99609375,0.0
62.15625,-53.7109375,-45.41015625,-43.45703125,-53.22265625,-110.83984375,0.0
62.16015625,-26.85546875,-29.78515625,-17.578125,-37.59765625,30.2734375,0.0
62.1640625,-20.5078125,-26.3671875,-20.5078125,-32.71484375,80.078125,0.0
62.16796875,-41.015625,-37.59765625,-43.9453125,-51.7578125,13.671875,0.0
62.171875,-57.6171875,-50.78125,-52.734375,-62.5,1.46484375,0.0
62.17578125,-34.1796875,-35.64453125,-12.20703125,-37.59765625,-4.39453125,0.0
62.1796875,-21.484375,-21.484375,-2.44140625,-29.78515625,21.484375,0.0
62.18359375,-25.87890625,-24.90234375,-26.3671875,-40.0390625,118.1640625,0.0
62.1875,-37.59765625,-39.55078125,-41.50390625,-43.45703125,150.390625,0.0
62.19140625,-34.66796875,-39.55078125,-11.71875,-26.85546875,90.33203125,0.0
62.1953125,-36.62109375,-41.50390625,-7.8125,-31.73828125,21.97265625,0.0
62.19921875,-35.64453125,-42.48046875,-19.53125,-46.875,12.6953125,0.0
62.203125,-28.80859375,-30.2734375,-20.5078125,-43.9453125,20.5078125,0.0
62.20703125,-36.1328125,-39.55078125,-37.109375,-41.50390625,-107.421875,0.0
62.2109375,-52.24609375,-50.29296875,-42.48046875,-48.828125,-126.953125,0.0
62.21484375,-60.546875,-57.12890625,-47.8515625,-62.5,-1.46484375,0.0
62.21875,-26.85546875,-37.59765625,-25.87890625,-42.48046875,54.19921875,0.0
62.22265625,3.90625,-7.8125,2.44140625,-16.11328125,63.96484375,0.0
62.2265625,-20.5078125,-22.94921875,-24.90234375,-29.296875,20.5078125,0.0
62.23046875,-59.08203125,-51.26953125,-57.12890625,-58.10546875,-54.6875,0.0
62.234375,-48.33984375,-44.43359375,-31.73828125,-46.38671875,-73.73046875,0.0
62.23828125,17.08984375,9.27734375,44.43359375,11.23046875,-71.2890625,0.0
62.2421875,-1.46484375,-4.8828125,5.37109375,-22.4609375,-22.4609375,0.0
62.24609375,-42.96875,-36.1328125,-46.38671875,-62.01171875,12.20703125,0.0
62.25,-55.6640625,-45.8984375,-50.29296875,-60.05859375,-85.44921875,0.0
62.25390625,-62.5,-57.6171875,-53.7109375,-67.3828125,-83.984375,0.0
62.2578125,-47.36328125,-45.41015625,-34.1796875,-64.94140625,-22.94921875,0.0
62.26171875,-26.3671875,-20.99609375,-17.578125,-50.29296875,40.52734375,0.0
62.265625,-25.390625,-20.99609375,-25.390625,-39.55078125,62.98828125,0.0
62.26953125,-54.6875,-46.38671875,-46.38671875,-53.22265625,-4.8828125,0.0
62.2734375,-67.87109375,-53.22265625,-50.78125,-67.3828125,-77.1484375,0.0
62.27734375,-45.8984375,-38.0859375,-30.2734375,-61.03515625,-52.24609375,0.0
62.28125,-1.953125,-1.953125,24.4140625,-20.99609375,-12.20703125,0.0
62.28515625,0.9765625,-0.9765625,22.94921875,-12.6953125,23.4375,0.0
62.2890625,-43.45703125,-41.9921875,-45.8984375,-45.41015625,27.34375,0.0
62.29296875,-59.5703125,-53.7109375,-55.6640625,-52.24609375,-65.91796875,0.0
62.296875,-43.45703125,-41.9921875,-34.1796875,-47.36328125,-80.56640625,0.0
62.30078125,-20.99609375,-25.390625,-21.484375,-35.15625,5.859375,0.0
62.3046875,-22.94921875,-21.97265625,-32.71484375,-29.296875,36.1328125,0.0
62.30859375,-35.15625,-34.1796875,-42.96875,-31.73828125,-67.3828125,0.0
62.3125,-37.59765625,-35.64453125,-23.92578125,-25.87890625,-117.67578125,0.0
62.31640625,-42.48046875,-42.48046875,-27.34375,-33.203125,-93.75,0.0
62.3203125,-41.50390625,-39.55078125,-31.25,-40.52734375,-36.62109375,0.0
62.32421875,-24.90234375,-19.53125,-13.671875,-20.5078125,4.39453125,0.0
62.328125,-4.39453125,-1.953125,13.671875,8.30078125,-8.7890625,0.0
62.33203125,-52.24609375,-49.8046875,-39.0625,-33.69140625,-35.15625,0.0
62.3359375,-62.98828125,-60.546875,-53.22265625,-50.78125,-55.6640625,0.0
62.33984375,-24.4140625,-22.94921875,-8.30078125,-21.484375,-34.66796875,0.0
62.34375,-18.5546875,-22.4609375,-16.11328125,-20.5078125,40.52734375,0.0
62.34765625,-41.9921875,-44.43359375,-54.6875,-35.64453125,70.80078125,0.0
62.3515625,-56.640625,-51.26953125,-61.03515625,-41.9921875,8.7890625,0.0
62.35546875,-49.8046875,-43.9453125,-45.41015625,-43.45703125,-2.9296875,0.0
62.359375,-33.203125,-31.73828125,-27.34375,-30.76171875,72.75390625,0.0
62.36328125,-25.87890625,-29.78515625,-25.390625,-26.85546875,105.46875,0.0
62.3671875,-43.9453125,-40.0390625,-39.55078125,-37.109375,88.8671875,0.0
62.37109375,-45.8984375,-36.1328125,-22.4609375,-28.80859375,-31.73828125,0.0
62.375,-42.48046875,-43.45703125,-20.99609375,-35.15625,-181.15234375,0.0
62.37890625,-40.0390625,-43.45703125,-32.2265625,-43.9453125,-77.63671875,0.0
62.3828125,-23.92578125,-24.4140625,-25.390625,-31.25,63.4765625,0.0
62.38671875,-30.76171875,-30.2734375,-40.52734375,-28.3203125,87.40234375,0.0
62.390625,-50.29296875,-47.8515625,-57.12890625,-38.0859375,-61.5234375,0.0
62.39453125,-56.640625,-62.5,-55.6640625,-53.7109375,-119.62890625,0.0
62.3984375,-28.80859375,-41.9921875,-24.90234375,-42.48046875,-74.21875,0.0
62.40234375,26.3671875,12.20703125,33.203125,13.671875,-51.7578125,0.0
62.40625,-6.34765625,-13.671875,-5.37109375,-9.27734375,-0.9765625,0.0
62.41015625,-55.17578125,-54.6875,-59.5703125,-50.29296875,-11.23046875,0.0
62.4140625,-45.8984375,-40.52734375,-37.109375,-40.0390625,-93.75,0.0
62.41796875,-20.01953125,-15.13671875,-1.46484375,-21.97265625,-95.703125,0.0
62.421875,-19.04296875,-23.92578125,-15.13671875,-27.34375,0.9765625,0.0
62.42578125,-33.69140625,-38.0859375,-43.9453125,-37.109375,43.45703125,0.0
62.4296875,-40.0390625,-38.57421875,-48.33984375,-32.71484375,-52.734375,0.0
62.43359375,-46.38671875,-42.96875,-39.0625,-33.203125,-115.72265625,0.0
62.4375,-45.8984375,-44.43359375,-33.69140625,-43.9453125,-31.25,0.0
62.44140625,-29.78515625,-30.2734375,-32.71484375,-41.50390625,102.05078125,0.0
62.4453125,-31.25,-25.87890625,-40.0390625,-33.69140625,135.7421875,0.0
62.44921875,-54.19921875,-43.45703125,-53.7109375,-42.48046875,82.03125,0.0
62.453125,-63.4765625,-58.10546875,-60.546875,-55.6640625,-13.671875,0.0
62.45703125,-46.38671875,-48.828125,-34.66796875,-42.48046875,7.8125,0.0
62.4609375,-19.04296875,-20.5078125,8.7890625,-21.97265625,53.7109375,0.0
62.46484375,-19.04296875,-18.5546875,-5.37109375,-27.34375,61.03515625,0.0
62.46875,-45.41015625,-47.36328125,-46.38671875,-40.52734375,46.875,0.0
62.47265625,-56.15234375,-52.734375,-44.43359375,-41.50390625,-61.5234375,0.0
62.4765625,-28.3203125,-26.3671875,6.34765625,-34.66796875,-138.18359375,0.0
62.48046875,-20.5078125,-22.4609375,3.41796875,-36.1328125,-44.43359375,0.0
62.484375,-36.62109375,-32.71484375,-32.2265625,-39.0625,28.3203125,0.0
62.48828125,-50.78125,-41.50390625,-46.38671875,-40.0390625,-45.41015625,0.0
62.4921875,-57.6171875,-45.8984375,-47.8515625,-44.921875,-200.1953125,0.0
62.49609375,-49.8046875,-43.45703125,-30.76171875,-42.96875,-169.921875,0.0
62.5,-38.57421875,-40.0390625,-20.99609375,-41.015625,19.04296875,0.0
62.50390625,-26.3671875,-23.92578125,-13.671875,-33.69140625,74.21875,0.0
62.5078125,-3.41796875,4.39453125,16.11328125,3.41796875,70.80078125,0.0
62.51171875,-40.0390625,-36.1328125,-28.3203125,-27.83203125,-56.15234375,0.0
62.515625,-61.03515625,-64.94140625,-53.7109375,-54.6875,-89.35546875,0.0
62.51953125,-29.296875,-35.64453125,-16.6015625,-31.73828125,-25.390625,0.0
62.5234375,-12.6953125,-22.4609375,-12.6953125,-17.578125,-30.76171875,0.0
62.52734375,-35.64453125,-39.0625,-46.38671875,-32.71484375,-60.546875,0.0
62.53125,-57.12890625,-51.7578125,-60.546875,-55.17578125,-56.640625,0.0
62.53515625,-51.7578125,-46.875,-41.9921875,-53.22265625,-26.3671875,0.0
62.5390625,-32.2265625,-38.0859375,-26.3671875,-46.38671875,-14.6484375,0.0
62.54296875,-24.4140625,-31.25,-32.2265625,-45.41015625,-52.734375,0.0
62.546875,-36.1328125,-37.59765625,-44.43359375,-50.29296875,-54.6875,0.0
62.55078125,-42.48046875,-48.828125,-46.38671875,-49.8046875,-104.4921875,0.0
62.5546875,-40.52734375,-49.31640625,-34.1796875,-44.43359375,-46.875,0.0
62.55859375,-32.2265625,-41.50390625,-27.34375,-40.52734375,3.90625,0.0
62.5625,-15.13671875,-25.87890625,-21.484375,-28.80859375,-82.51953125,0.0
62.56640625,7.32421875,-0.9765625,7.8125,-4.8828125,-82.03125,0.0
62.5703125,-22.4609375,-29.296875,-18.5546875,-29.78515625,11.71875,0.0
62.57421875,-48.828125,-63.4765625,-47.8515625,-52.24609375,18.06640625,0.0
62.578125,-22.94921875,-39.55078125,-16.11328125,-31.25,34.66796875,0.0
62.58203125,9.27734375,-2.44140625,16.6015625,-7.8125,76.171875,0.0
62.5859375,-15.13671875,-20.01953125,-15.13671875,-29.78515625,74.70703125,0.0
62.58984375,-51.26953125,-56.640625,-52.734375,-57.12890625,26.3671875,0.0
62.59375,-45.8984375,-54.6875,-35.15625,-44.43359375,-24.4140625,0.0
62.59765625,-13.18359375,-25.390625,4.39453125,-17.578125,-38.0859375,0.0
62.6015625,-13.671875,-23.92578125,-8.7890625,-27.34375,5.37109375,0.0
62.60546875,-27.83203125,-35.15625,-41.50390625,-39.55078125,63.96484375,0.0
62.609375,-33.203125,-45.8984375,-39.0625,-41.015625,-28.80859375,0.0
62.61328125,-25.390625,-39.0625,-0.48828125,-29.78515625,-107.91015625,0.0
62.6171875,-25.390625,-41.015625,-11.71875,-41.50390625,-64.94140625,0.0
62.62109375,-21.97265625,-36.62109375,-22.4609375,-38.0859375,-24.4140625,0.0
62.625,-11.23046875,-20.01953125,-16.6015625,-23.92578125,21.484375,0.0
62.62890625,-25.87890625,-36.62109375,-43.45703125,-37.109375,-13.671875,0.0
62.6328125,-41.50390625,-61.5234375,-62.01171875,-49.8046875,-127.44140625,0.0
62.63671875,-26.3671875,-52.734375,-38.0859375,-50.29296875,-97.65625,0.0
62.640625,-13.18359375,-34.66796875,-22.94921875,-42.96875,31.73828125,0.0
62.64453125,-16.11328125,-34.66796875,-34.1796875,-40.0390625,119.140625,0.0
62.6484375,-31.73828125,-46.38671875,-52.24609375,-45.41015625,12.6953125,0.0
62.65234375,-43.45703125,-54.19921875,-53.22265625,-47.8515625,-52.734375,0.0
62.65625,-18.06640625,-35.64453125,-6.8359375,-24.4140625,-53.22265625,0.0
62.66015625,-1.46484375,-17.578125,7.32421875,-16.6015625,-21.484375,0.0
62.6640625,-13.18359375,-22.4609375,-24.4140625,-30.76171875,36.62109375,0.0
62.66796875,-26.3671875,-35.15625,-40.0390625,-37.59765625,28.3203125,0.0
62.671875,-38.57421875,-47.36328125,-40.52734375,-40.52734375,-44.921875,0.0
62.67578125,-39.0625,-50.78125,-37.109375,-41.015625,-144.04296875,0.0
62.6796875,-23.4375,-33.203125,-23.92578125,-32.2265625,-147.4609375,0.0
62.68359375,-19.04296875,-21.97265625,-27.34375,-31.25,-79.1015625,0.0
62.6875,-33.203125,-34.66796875,-44.921875,-35.64453125,-82.51953125,0.0
62.69140625,-51.7578125,-52.734375,-52.24609375,-41.015625,-60.546875,0.0
62.6953125,-52.734375,-50.29296875,-45.8984375,-50.29296875,-54.19921875,0.0
62.69921875,-29.296875,-28.80859375,-21.97265625,-36.1328125,-109.375,0.0
62.703125,-8.30078125,-13.671875,13.671875,-19.04296875,-119.140625,0.0
62.70703125,-26.85546875,-28.80859375,-23.4375,-36.1328125,-63.4765625,0.0
62.7109375,-46.875,-48.33984375,-60.05859375,-52.24609375,-114.74609375,0.0
62.71484375,-40.52734375,-45.41015625,-42.48046875,-57.12890625,-204.1015625,0.0
62.71875,-19.53125,-27.83203125,-29.78515625,-48.828125,-100.5859375,0.0
62.72265625,-6.34765625,-16.11328125,-33.69140625,-42.48046875,-5.859375,0.0
62.7265625,-15.625,-17.578125,-46.38671875,-50.29296875,85.44921875,0.0
62.73046875,-18.5546875,-20.01953125,-39.55078125,-42.96875,31.25,0.0
62.734375,-24.90234375,-27.34375,-31.25,-38.0859375,-26.85546875,0.0
62.73828125,-26.85546875,-27.83203125,-28.3203125,-44.43359375,22.94921875,0.0
62.7421875,-13.18359375,-13.671875,-20.5078125,-34.66796875,18.5546875,0.0
62.74609375,-5.37109375,-1.46484375,-3.41796875,-16.6015625,-43.45703125,0.0
62.75,-30.2734375,-24.4140625,-22.94921875,-33.203125,-62.01171875,0.0
62.75390625,-51.7578125,-50.29296875,-47.8515625,-49.31640625,-48.828125,0.0
62.7578125,-37.109375,-40.52734375,-30.76171875,-36.1328125,-40.52734375,0.0
62.76171875,-16.11328125,-22.94921875,-19.04296875,-22.4609375,-6.8359375,0.0
62.765625,-19.53125,-22.94921875,-29.78515625,-20.01953125,37.59765625,0.0
62.76953125,-43.9453125,-43.9453125,-52.24609375,-34.1796875,9.27734375,0.0
62.7734375,-37.109375,-35.64453125,-35.15625,-29.296875,-0.48828125,0.0
62.77734375,-4.39453125,-3.41796875,16.11328125,-2.44140625,0.48828125,0.0
62.78125,-10.7421875,-8.7890625,1.46484375,-13.671875,68.359375,0.0
62.78515625,-30.2734375,-29.78515625,-37.59765625,-28.3203125,110.3515625,0.0
62.7890625,-41.015625,-36.62109375,-41.50390625,-36.62109375,10.25390625,0.0
62.79296875,-5.859375,-3.41796875,9.765625,0.9765625,-198.73046875,0.0
62.796875,-8.7890625,-15.625,0.48828125,0.0,-231.4453125,0.0
62.80078125,-28.80859375,-38.57421875,-33.203125,-36.1328125,-39.55078125,0.0
62.8046875,-27.34375,-29.78515625,-33.69140625,-40.52734375,24.90234375,0.0
62.80859375,-42.96875,-41.50390625,-49.31640625,-43.45703125,16.6015625,0.0
62.8125,-52.734375,-57.12890625,-55.6640625,-53.22265625,27.34375,0.0
62.81640625,-42.48046875,-51.7578125,-40.0390625,-48.828125,-62.01171875,0.0
62.8203125,-17.578125,-33.203125,-21.97265625,-35.64453125,-81.0546875,0.0
62.82421875,-16.6015625,-30.2734375,-28.80859375,-39.55078125,37.109375,0.0
62.828125,-38.57421875,-43.9453125,-52.24609375,-48.33984375,-4.8828125,0.0
62.83203125,-45.8984375,-54.19921875,-53.22265625,-49.8046875,-103.515625,0.0
62.8359375,-34.1796875,-40.52734375,-22.4609375,-39.55078125,-138.18359375,0.0
62.83984375,-18.5546875,-21.484375,-13.671875,-30.2734375,-95.21484375,0.0
62.84375,-10.7421875,-20.5078125,-29.78515625,-31.73828125,-27.34375,0.0
62.84765625,-21.97265625,-35.15625,-41.015625,-37.109375,-49.31640625,0.0
62.8515625,-12.20703125,-21.97265625,-5.859375,-13.671875,-60.546875,0.0
62.85546875,-12.6953125,-20.01953125,1.953125,-10.7421875,-75.1953125,0.0
62.859375,-17.578125,-29.296875,-17.08984375,-23.92578125,-36.1328125,0.0
62.86328125,-10.25390625,-18.06640625,-14.16015625,-20.99609375,24.4140625,0.0
62.8671875,-24.4140625,-19.53125,-24.90234375,-29.78515625,22.4609375,0.0
62.87109375,-48.33984375,-42.48046875,-41.9921875,-40.0390625,30.76171875,0.0
62.875,-55.17578125,-49.8046875,-40.0390625,-43.45703125,-29.296875,0.0
62.87890625,-27.34375,-27.83203125,-14.6484375,-32.2265625,-119.62890625,0.0
62.8828125,-9.27734375,-9.765625,-4.39453125,-27.83203125,-36.62109375,0.0
62.88671875,-28.80859375,-23.4375,-26.3671875,-39.55078125,45.41015625,0.0
62.890625,-52.24609375,-48.828125,-47.8515625,-55.17578125,3.41796875,0.0
62.89453125,-37.59765625,-40.52734375,-26.85546875,-39.0625,-45.8984375,0.0
62.8984375,20.01953125,15.13671875,35.15625,8.30078125,-27.83203125,0.0
62.90234375,-0.48828125,1.953125,11.23046875,-21.97265625,7.32421875,0.0
62.90625,-43.9453125,-32.71484375,-32.2265625,-54.19921875,0.48828125,0.0
62.91015625,-54.6875,-43.45703125,-41.50390625,-54.19921875,7.32421875,0.0
62.9140625,-57.6171875,-52.24609375,-43.9453125,-50.78125,-21.97265625,0.0
62.91796875,-46.875,-42.96875,-29.296875,-46.38671875,1.953125,0.0
62.921875,-34.66796875,-27.83203125,-19.04296875,-42.48046875,46.38671875,0.0
62.92578125,-37.59765625,-30.76171875,-30.76171875,-42.48046875,73.73046875,0.0
62.9296875,-51.7578125,-41.015625,-40.52734375,-51.7578125,-11.23046875,0.0
62.93359375,-51.26953125,-41.9921875,-38.0859375,-49.8046875,-64.453125,0.0
62.9375,-33.69140625,-36.62109375,-23.92578125,-40.0390625,35.15625,0.0
62.94140625,13.18359375,1.953125,30.76171875,3.90625,-1.953125,0.0
62.9453125,0.48828125,0.0,8.30078125,-9.27734375,-35.15625,0.0
62.94921875,-49.8046875,-41.9921875,-55.17578125,-55.6640625,-63.96484375,0.0
62.953125,-50.78125,-44.921875,-42.48046875,-42.96875,-82.51953125,0.0
62.95703125,-24.90234375,-17.578125,-1.46484375,-17.08984375,-35.15625,0.0
62.9609375,-14.6484375,-6.8359375,-3.90625,-17.08984375,-24.4140625,0.0
62.96484375,-25.390625,-20.99609375,-31.25,-30.76171875,-75.1953125,0.0
62.96875,-39.0625,-30.76171875,-33.69140625,-30.76171875,-215.33203125,0.0
62.97265625,-29.296875,-17.578125,-8.7890625,-18.06640625,-235.3515625,0.0
62.9765625,-28.3203125,-20.99609375,-13.18359375,-24.4140625,-163.57421875,0.0
62.98046875,-35.15625,-27.34375,-27.34375,-38.57421875,-152.83203125,0.0
62.984375,-15.625,-8.30078125,-15.13671875,-21.97265625,-134.27734375,0.0
62.98828125,11.71875,20.01953125,17.08984375,14.6484375,-157.71484375,0.0
62.9921875,-41.9921875,-28.3203125,-32.71484375,-27.83203125,-194.82421875,0.0
62.99609375,-55.6640625,-46.38671875,-43.45703125,-46.875,-129.39453125,0.0
63.0,-27.83203125,-21.484375,-16.6015625,-28.3203125,29.296875,0.0
63.00390625,-20.99609375,-15.625,-28.80859375,-30.2734375,72.265625,0.0
63.0078125,-41.015625,-33.69140625,-46.875,-38.0859375,59.5703125,0.0
63.01171875,-60.546875,-50.78125,-55.17578125,-44.43359375,13.18359375,0.0
63.015625,-41.9921875,-33.203125,-22.4609375,-35.64453125,-92.28515625,0.0
63.01953125,-31.73828125,-22.94921875,-8.7890625,-31.73828125,0.48828125,0.0
63.0234375,-38.57421875,-28.3203125,-33.203125,-39.55078125,102.5390625,0.0
63.02734375,-47.8515625,-34.1796875,-50.78125,-43.9453125,92.7734375,0.0
63.03125,-30.2734375,-24.4140625,-19.53125,-17.08984375,117.1875,0.0
63.03515625,-23.92578125,-29.78515625,-6.8359375,-17.08984375,57.12890625,0.0
63.0390625,-32.71484375,-40.0390625,-21.484375,-37.59765625,8.7890625,0.0
63.04296875,-29.296875,-31.25,-25.87890625,-26.85546875,-1.46484375,0.0
63.046875,-42.96875,-37.59765625,-46.38671875,-27.83203125,-55.6640625,0.0
63.05078125,-60.05859375,-54.6875,-56.640625,-37.59765625,-100.5859375,0.0
63.0546875,-64.453125,-61.5234375,-53.7109375,-45.41015625,-78.125,0.0
63.05859375,-31.25,-30.76171875,-23.4375,-30.2734375,-42.48046875,0.0
63.0625,28.3203125,19.53125,29.296875,20.5078125,-62.98828125,0.0
63.06640625,-5.859375,-9.765625,-13.671875,-9.27734375,-44.43359375,0.0
63.0703125,-61.5234375,-52.734375,-69.82421875,-57.12890625,-48.828125,0.0
63.07421875,-48.33984375,-40.52734375,-43.9453125,-41.50390625,-21.97265625,0.0
63.078125,4.39453125,0.9765625,22.4609375,-0.9765625,86.42578125,0.0
63.08203125,-13.18359375,-22.4609375,-12.6953125,-32.71484375,89.35546875,0.0
63.0859375,-42.96875,-44.43359375,-53.22265625,-55.17578125,39.55078125,0.0
63.08984375,-48.33984375,-43.9453125,-54.19921875,-48.828125,-37.59765625,0.0
63.09375,-53.22265625,-50.78125,-53.22265625,-53.7109375,-83.0078125,0.0
63.09765625,-41.50390625,-45.8984375,-41.9921875,-51.26953125,-27.34375,0.0
63.1015625,-30.76171875,-33.69140625,-32.2265625,-41.50390625,18.5546875,0.0
63.10546875,-36.62109375,-31.73828125,-38.57421875,-45.41015625,24.4140625,0.0
63.109375,-59.08203125,-50.29296875,-61.03515625,-61.03515625,3.90625,0.0
63.11328125,-66.89453125,-62.01171875,-59.5703125,-65.4296875,-94.7265625,0.0
63.1171875,-42.96875,-44.43359375,-34.66796875,-53.22265625,-53.22265625,0.0
63.12109375,9.27734375,7.32421875,21.97265625,-5.37109375,13.18359375,0.0
63.125,5.37109375,8.30078125,22.94921875,-0.48828125,40.0390625,0.0
63.12890625,-53.22265625,-52.24609375,-51.26953125,-54.6875,61.5234375,0.0
63.1328125,-64.94140625,-64.94140625,-64.453125,-62.98828125,-6.34765625,0.0
63.13671875,-46.38671875,-50.29296875,-41.015625,-50.78125,-43.9453125,0.0
63.140625,-30.2734375,-38.0859375,-26.3671875,-45.41015625,-28.3203125,0.0
63.14453125,-34.66796875,-34.1796875,-40.0390625,-39.0625,18.5546875,0.0
63.1484375,-48.33984375,-40.52734375,-47.8515625,-40.52734375,0.48828125,0.0
63.15234375,-38.57421875,-41.015625,-21.484375,-35.15625,-20.99609375,0.0
63.15625,-37.59765625,-44.921875,-26.3671875,-39.55078125,9.27734375,0.0
63.16015625,-32.2265625,-35.64453125,-34.66796875,-41.9921875,84.47265625,0.0
63.1640625,-20.5078125,-17.578125,-22.4609375,-39.0625,136.71875,0.0
63.16796875,-28.3203125,-22.94921875,-16.6015625,-40.0390625,51.26953125,0.0
63.171875,-52.734375,-50.78125,-45.8984375,-55.6640625,-63.96484375,0.0
63.17578125,-48.828125,-54.6875,-42.48046875,-59.08203125,-132.8125,0.0
63.1796875,-17.08984375,-28.80859375,-4.39453125,-33.69140625,-157.2265625,0.0
63.18359375,-8.7890625,-19.53125,-3.41796875,-24.90234375,-92.28515625,0.0
63.1875,-39.55078125,-44.921875,-47.36328125,-48.33984375,-65.4296875,0.0
63.19140625,-57.12890625,-58.59375,-55.6640625,-51.26953125,-82.03125,0.0
63.1953125,-50.29296875,-51.7578125,-36.1328125,-44.43359375,-28.80859375,0.0
63.19921875,-34.1796875,-42.48046875,-25.390625,-36.62109375,-211.42578125,0.0
63.203125,-33.69140625,-38.0859375,-33.69140625,-28.80859375,-278.3203125,0.0
63.20703125,-48.33984375,-41.50390625,-48.33984375,-42.48046875,-72.75390625,0.0
63.2109375,-54.6875,-43.45703125,-43.45703125,-49.31640625,-144.04296875,0.0
63.21484375,-46.38671875,-40.52734375,-34.1796875,-44.921875,-118.65234375,0.0
63.21875,-35.15625,-37.59765625,-27.34375,-41.9921875,37.109375,0.0
63.22265625,-26.85546875,-28.80859375,-27.83203125,-35.64453125,-56.15234375,0.0
63.2265625,-7.8125,-0.9765625,6.34765625,-8.30078125,-86.42578125,0.0
63.23046875,-32.2265625,-22.4609375,-10.7421875,-12.20703125,-77.1484375,0.0
63.234375,-60.546875,-54.6875,-47.36328125,-40.0390625,-121.09375,0.0
63.23828125,-38.0859375,-36.1328125,-28.80859375,-33.69140625,-117.1875,0.0
63.2421875,-23.4375,-21.97265625,-22.94921875,-20.01953125,-29.78515625,0.0
63.24609375,-34.1796875,-33.203125,-42.96875,-23.4375,47.36328125,0.0
63.25,-53.7109375,-50.78125,-61.03515625,-33.69140625,-32.71484375,0.0
63.25390625,-50.78125,-48.828125,-44.921875,-37.59765625,-62.5,0.0
63.2578125,-25.390625,-25.87890625,-9.765625,-27.34375,39.55078125,0.0
63.26171875,-14.16015625,-15.13671875,-14.6484375,-18.06640625,76.171875,0.0
63.265625,-29.78515625,-26.85546875,-43.45703125,-33.203125,109.375,0.0
63.26953125,-34.66796875,-34.66796875,-41.50390625,-30.76171875,34.1796875,0.0
63.2734375,-12.6953125,-19.53125,-2.44140625,-8.30078125,-102.05078125,0.0
63.27734375,-24.90234375,-27.83203125,-21.97265625,-27.83203125,-42.96875,0.0
63.28125,-25.87890625,-30.2734375,-38.57421875,-35.15625,81.0546875,0.0
63.28515625,-11.23046875,-23.4375,-29.296875,-23.92578125,48.33984375,0.0
63.2890625,-31.25,-38.57421875,-48.828125,-30.76171875,-82.51953125,0.0
63.29296875,-47.36328125,-53.7109375,-62.5,-40.0390625,-112.3046875,0.0
63.296875,-26.3671875,-37.109375,-39.0625,-28.3203125,-72.75390625,0.0
63.30078125,-10.7421875,-19.04296875,-23.4375,-19.53125,-20.99609375,0.0
63.3046875,-18.06640625,-15.625,-31.73828125,-21.484375,23.4375,0.0
63.30859375,-40.0390625,-32.2265625,-59.08203125,-36.62109375,-51.26953125,0.0
63.3125,-49.31640625,-54.6875,-58.10546875,-48.33984375,-218.75,0.0
63.31640625,-2.9296875,-18.06640625,11.71875,-11.23046875,-195.3125,0.0
63.3203125,12.20703125,-4.39453125,21.97265625,-1.46484375,-90.8203125,0.0
63.32421875,-18.06640625,-28.3203125,-21.97265625,-22.4609375,-48.828125,0.0
63.328125,-35.15625,-39.55078125,-42.48046875,-31.73828125,-69.3359375,0.0
63.33203125,-46.38671875,-49.8046875,-49.31640625,-37.59765625,-51.26953125,0.0
63.3359375,-41.50390625,-43.45703125,-33.69140625,-36.62109375,-118.65234375,0.0
63.33984375,-30.76171875,-32.71484375,-30.2734375,-44.43359375,-162.59765625,0.0
63.34375,-17.08984375,-23.4375,-27.83203125,-37.109375,-97.16796875,0.0
63.34765625,-0.48828125,-5.37109375,0.0,-7.8125,-117.1875,0.0
63.3515625,-33.69140625,-33.69140625,-32.2265625,-38.0859375,-155.2734375,0.0
63.35546875,-46.38671875,-49.8046875,-53.22265625,-56.15234375,-88.37890625,0.0
63.359375,-8.30078125,-20.5078125,-19.04296875,-27.83203125,-16.6015625,0.0
63.36328125,23.92578125,5.859375,17.578125,2.9296875,-77.1484375,0.0
63.3671875,-17.08984375,-30.2734375,-34.66796875,-27.83203125,-104.00390625,0.0
63.37109375,-50.78125,-58.10546875,-63.96484375,-50.78125,-112.79296875,0.0
63.375,-37.59765625,-45.8984375,-40.52734375,-33.69140625,-206.0546875,0.0
63.37890625,-23.4375,-32.71484375,-27.83203125,-31.73828125,-142.578125,0.0
63.3828125,-21.484375,-27.83203125,-31.73828125,-28.3203125,-41.50390625,0.0
63.38671875,-24.90234375,-29.296875,-44.921875,-23.92578125,-46.875,0.0
63.390625,-37.109375,-40.0390625,-53.22265625,-31.73828125,-133.7890625,0.0
63.39453125,-42.96875,-41.9921875,-45.41015625,-36.1328125,-57.12890625,0.0
63.3984375,-28.3203125,-26.85546875,-32.71484375,-36.1328125,89.35546875,0.0
63.40234375,-21.97265625,-20.99609375,-31.73828125,-33.69140625,154.296875,0.0
63.40625,0.0,1.46484375,6.8359375,-1.953125,132.8125,0.0
63.41015625,-2.44140625,-3.41796875,10.7421875,-0.9765625,111.81640625,0.0
63.4140625,-37.109375,-44.43359375,-39.0625,-43.45703125,79.1015625,0.0
63.41796875,-31.25,-36.1328125,-35.64453125,-41.50390625,48.828125,0.0
63.421875,-17.578125,-20.99609375,-29.78515625,-30.76171875,166.9921875,0.0
63.42578125,-32.2265625,-31.25,-43.9453125,-39.55078125,100.09765625,0.0
63.4296875,-58.10546875,-50.29296875,-62.01171875,-57.12890625,22.94921875,0.0
63.43359375,-44.43359375,-44.921875,-45.41015625,-51.26953125,45.8984375,0.0
63.4375,-7.32421875,-15.13671875,-1.953125,-23.4375,4.39453125,0.0
63.44140625,-12.20703125,-20.99609375,-13.18359375,-34.66796875,8.30078125,0.0
63.4453125,-35.64453125,-38.0859375,-46.38671875,-55.6640625,50.78125,0.0
63.44921875,-39.55078125,-34.1796875,-47.36328125,-50.78125,64.94140625,0.0
63.453125,-0.48828125,-2.9296875,12.20703125,-5.859375,19.53125,0.0
63.45703125,-11.71875,-22.4609375,-3.41796875,-22.4609375,-16.6015625,0.0
63.4609375,-30.76171875,-42.48046875,-39.0625,-47.8515625,55.6640625,0.0
63.46484375,-30.76171875,-36.62109375,-41.50390625,-37.59765625,75.1953125,0.0
63.46875,-52.24609375,-52.24609375,-63.4765625,-46.875,62.01171875,0.0
63.47265625,-58.59375,-62.98828125,-62.01171875,-56.15234375,-37.109375,0.0
63.4765625,-40.52734375,-50.78125,-40.0390625,-43.45703125,-165.52734375,0.0
63.48046875,-21.97265625,-31.73828125,-25.87890625,-29.78515625,-170.41015625,0.0
63.484375,-24.4140625,-28.80859375,-33.203125,-33.69140625,-78.125,0.0
63.48828125,-48.33984375,-48.828125,-55.6640625,-52.734375,-54.19921875,0.0
63.4921875,-62.01171875,-54.19921875,-57.6171875,-56.15234375,-110.83984375,0.0
63.49609375,-13.18359375,-11.23046875,-1.953125,-19.53125,-153.3203125,0.0
63.5,3.41796875,-7.8125,7.8125,-16.11328125,-122.55859375,0.0
63.50390625,-26.3671875,-32.71484375,-38.0859375,-41.50390625,-93.75,0.0
63.5078125,-37.109375,-37.59765625,-49.31640625,-40.52734375,-114.2578125,0.0
63.51171875,-39.55078125,-40.52734375,-37.59765625,-41.9921875,-126.953125,0.0
63.515625,-40.52734375,-44.921875,-33.203125,-49.31640625,-93.75,0.0
63.51953125,-32.2265625,-40.52734375,-29.78515625,-49.8046875,-33.203125,0.0
63.5234375,-17.578125,-21.97265625,-21.97265625,-42.96875,35.64453125,0.0
63.52734375,-11.71875,-12.6953125,-14.6484375,-24.90234375,-58.10546875,0.0
63.53125,-41.50390625,-40.0390625,-36.1328125,-44.921875,-187.5,0.0
63.53515625,-48.828125,-51.26953125,-45.41015625,-56.640625,-252.9296875,0.0
63.5390625,-19.53125,-20.99609375,-13.671875,-32.71484375,-192.87109375,0.0
63.54296875,-0.48828125,4.39453125,8.30078125,-10.25390625,-86.9140625,0.0
63.546875,-31.73828125,-25.390625,-33.203125,-31.25,-7.8125,0.0
63.55078125,-58.10546875,-51.7578125,-55.6640625,-54.6875,-92.28515625,0.0
63.5546875,-42.96875,-44.43359375,-28.3203125,-41.9921875,-211.42578125,0.0
63.55859375,-17.08984375,-22.4609375,-6.34765625,-29.296875,-118.65234375,0.0
63.5625,-18.06640625,-23.4375,-21.97265625,-38.57421875,57.6171875,0.0
63.56640625,-35.64453125,-36.1328125,-44.921875,-44.43359375,137.20703125,0.0
63.5703125,-46.875,-36.1328125,-40.0390625,-41.015625,58.10546875,0.0
63.57421875,-43.45703125,-36.1328125,-31.25,-43.9453125,5.859375,0.0
63.578125,-35.15625,-34.66796875,-28.80859375,-45.8984375,46.38671875,0.0
63.58203125,-28.3203125,-25.87890625,-28.3203125,-39.0625,187.01171875,0.0
63.5859375,-35.15625,-21.97265625,-35.64453125,-39.55078125,192.3828125,0.0
63.58984375,-53.22265625,-42.48046875,-49.31640625,-49.8046875,93.26171875,0.0
63.59375,-49.31640625,-56.640625,-49.8046875,-55.6640625,51.7578125,0.0
63.59765625,-18.5546875,-31.73828125,-22.94921875,-38.0859375,72.265625,0.0
63.6015625,24.90234375,12.20703125,15.625,-1.953125,117.1875,0.0
63.60546875,-3.41796875,-11.23046875,-19.53125,-34.1796875,115.72265625,0.0
63.609375,-52.734375,-49.8046875,-62.98828125,-72.265625,124.51171875,0.0
63.61328125,-54.19921875,-48.33984375,-51.7578125,-64.94140625,55.17578125,0.0
63.6171875,-33.203125,-36.1328125,-24.4140625,-53.7109375,-10.7421875,0.0
63.62109375,-19.53125,-28.3203125,-18.5546875,-46.875,-13.671875,0.0
63.625,-27.83203125,-40.0390625,-36.1328125,-49.8046875,-55.17578125,0.0
63.62890625,-45.8984375,-50.78125,-45.8984375,-51.26953125,-97.16796875,0.0
63.6328125,-46.875,-42.48046875,-36.62109375,-44.921875,-111.328125,0.0
63.63671875,-36.62109375,-32.2265625,-27.34375,-41.50390625,-106.4453125,0.0
63.640625,-28.3203125,-31.25,-27.83203125,-44.921875,-52.734375,0.0
63.64453125,-12.6953125,-16.11328125,-18.5546875,-27.34375,-9.27734375,0.0
63.6484375,-7.8125,-8.30078125,-8.7890625,-11.23046875,-16.6015625,0.0
63.65234375,-45.41015625,-45.41015625,-39.55078125,-46.38671875,-89.35546875,0.0
63.65625,-48.33984375,-51.26953125,-41.9921875,-59.08203125,-79.1015625,0.0
63.66015625,-13.18359375,-20.5078125,-2.9296875,-23.4375,-89.84375,0.0
63.6640625,-6.8359375,-14.6484375,-0.48828125,-8.30078125,-84.47265625,0.0
63.66796875,-44.921875,-46.875,-47.36328125,-40.0390625,-31.25,0.0
63.671875,-57.6171875,-55.17578125,-52.734375,-50.29296875,-101.5625,0.0
63.67578125,-23.92578125,-29.296875,-11.71875,-22.4609375,-135.25390625,0.0
63.6796875,-9.765625,-13.18359375,-2.9296875,-19.04296875,-69.3359375,0.0
63.68359375,-23.92578125,-22.4609375,-31.73828125,-35.15625,21.484375,0.0
63.6875,-35.64453125,-44.921875,-53.7109375,-41.015625,-31.73828125,0.0
63.69140625,-14.16015625,-25.87890625,-15.13671875,-17.08984375,-80.56640625,0.0
63.6953125,-15.625,-23.4375,-7.8125,-17.578125,-29.296875,0.0
63.69921875,-25.87890625,-41.9921875,-27.83203125,-39.55078125,-8.30078125,0.0
63.703125,-15.625,-33.203125,-24.4140625,-38.0859375,3.90625,0.0
63.70703125,-27.83203125,-37.109375,-41.015625,-39.55078125,-32.71484375,0.0
63.7109375,-43.9453125,-44.43359375,-51.26953125,-44.921875,-36.62109375,0.0
63.71484375,-43.9453125,-45.41015625,-47.8515625,-48.828125,12.6953125,0.0
63.71875,-19.04296875,-34.1796875,-23.92578125,-35.64453125,46.38671875,0.0
63.72265625,2.44140625,-13.18359375,-0.48828125,-16.11328125,62.98828125,0.0
63.7265625,-20.99609375,-26.3671875,-27.83203125,-27.83203125,45.8984375,0.0
63.73046875,-51.26953125,-55.6640625,-62.98828125,-50.29296875,-29.296875,0.0
63.734375,-34.66796875,-46.875,-40.0390625,-41.9921875,-25.87890625,0.0
63.73828125,32.2265625,9.27734375,41.015625,20.01953125,-67.3828125,0.0
63.7421875,14.6484375,-7.32421875,9.27734375,-4.39453125,-78.61328125,0.0
63.74609375,-32.2265625,-41.015625,-47.8515625,-45.8984375,-10.25390625,0.0
63.75,-44.921875,-45.8984375,-50.78125,-47.8515625,1.953125,0.0
63.75390625,-45.8984375,-55.6640625,-44.43359375,-52.24609375,-57.12890625,0.0
63.7578125,-26.85546875,-44.43359375,-21.484375,-40.52734375,-17.08984375,0.0
63.76171875,-15.13671875,-28.80859375,-16.11328125,-30.2734375,93.26171875,0.0
63.765625,-21.484375,-33.203125,-32.2265625,-36.1328125,92.7734375,0.0
63.76953125,-35.15625,-48.828125,-44.921875,-44.43359375,-4.8828125,0.0
63.7734375,-42.48046875,-55.6640625,-41.015625,-42.96875,-122.0703125,0.0
63.77734375,-35.15625,-44.921875,-26.85546875,-42.96875,-129.39453125,0.0
63.78125,23.92578125,11.71875,36.1328125,5.859375,-60.05859375,0.0
63.78515625,33.69140625,18.06640625,35.64453125,21.97265625,-20.99609375,0.0
63.7890625,-31.25,-42.48046875,-45.41015625,-37.109375,-115.72265625,0.0
63.79296875,-47.8515625,-53.7109375,-54.19921875,-51.7578125,-117.67578125,0.0
63.796875,-31.25,-41.015625,-30.2734375,-37.109375,-145.5078125,0.0
63.80078125,-21.97265625,-33.69140625,-23.92578125,-32.2265625,-162.109375,0.0
63.8046875,-33.203125,-34.66796875,-41.9921875,-39.55078125,27.34375,0.0
63.80859375,-50.29296875,-43.45703125,-54.19921875,-43.9453125,58.59375,0.0
63.8125,-46.875,-42.96875,-33.203125,-32.71484375,-62.5,0.0
63.81640625,-39.0625,-44.921875,-28.3203125,-34.66796875,-38.0859375,0.0
63.8203125,-36.62109375,-42.48046875,-37.109375,-42.96875,-5.37109375,0.0
63.82421875,-19.04296875,-20.01953125,-23.4375,-20.99609375,-68.359375,0.0
63.828125,16.6015625,14.6484375,21.484375,24.4140625,-164.55078125,0.0
63.83203125,-32.2265625,-38.57421875,-24.90234375,-22.4609375,-230.95703125,0.0
63.8359375,-58.10546875,-63.96484375,-45.41015625,-53.22265625,-155.76171875,0.0
63.83984375,-11.23046875,-17.578125,0.9765625,-13.671875,-21.484375,0.0
63.84375,-0.48828125,-10.25390625,-1.953125,-8.7890625,28.3203125,0.0
63.84765625,-44.921875,-45.8984375,-48.33984375,-40.52734375,79.58984375,0.0
63.8515625,-62.01171875,-57.6171875,-62.01171875,-48.828125,78.61328125,0.0
63.85546875,-47.36328125,-49.8046875,-40.52734375,-33.203125,-70.3125,0.0
63.859375,-29.78515625,-34.1796875,-26.3671875,-21.97265625,-25.390625,0.0
63.86328125,-27.83203125,-33.203125,-36.62109375,-28.3203125,108.88671875,0.0
63.8671875,-45.41015625,-41.50390625,-53.22265625,-38.57421875,99.609375,0.0
63.87109375,-34.66796875,-25.87890625,-21.484375,-10.25390625,15.625,0.0
63.875,-25.87890625,-29.296875,-7.8125,-6.8359375,-6.8359375,0.0
63.87890625,-30.76171875,-38.0859375,-26.3671875,-29.296875,-4.39453125,0.0
63.8828125,-29.296875,-30.2734375,-26.85546875,-25.87890625,20.01953125,0.0
63.88671875,-43.45703125,-38.57421875,-41.9921875,-32.71484375,15.13671875,0.0
63.890625,-53.22265625,-48.33984375,-52.24609375,-42.96875,-82.51953125,0.0
63.89453125,-54.19921875,-55.6640625,-53.7109375,-50.78125,-103.515625,0.0
63.8984375,-32.2265625,-37.109375,-27.83203125,-40.52734375,-42.48046875,0.0
63.90234375,15.13671875,12.6953125,27.34375,9.27734375,-9.27734375,0.0
63.90625,-12.6953125,-15.13671875,-13.671875,-13.671875,16.11328125,0.0
63.91015625,-61.03515625,-62.5,-68.84765625,-59.08203125,-127.44140625,0.0
63.9140625,-49.8046875,-44.921875,-46.38671875,-52.734375,-166.50390625,0.0
63.91796875,-16.6015625,-9.27734375,-4.39453125,-24.4140625,14.16015625,0.0
63.921875,-20.99609375,-18.5546875,-21.97265625,-33.69140625,119.62890625,0.0
63.92578125,-38.57421875,-43.45703125,-55.17578125,-53.7109375,40.52734375,0.0
63.9296875,-47.8515625,-46.875,-51.7578125,-51.7578125,-62.98828125,0.0
63.93359375,-52.734375,-49.31640625,-41.015625,-51.26953125,-10.7421875,0.0
63.9375,-44.921875,-48.33984375,-34.1796875,-49.8046875,5.37109375,0.0
63.94140625,-33.203125,-34.66796875,-29.296875,-39.55078125,42.96875,0.0
63.9453125,-38.57421875,-37.109375,-39.55078125,-43.9453125,55.17578125,0.0
63.94921875,-54.19921875,-47.8515625,-53.22265625,-54.19921875,-14.6484375,0.0
63.953125,-63.4765625,-51.7578125,-50.78125,-58.59375,26.85546875,0.0
63.95703125,-55.17578125,-50.78125,-40.0390625,-56.15234375,53.22265625,0.0
63.9609375,-15.13671875,-10.7421875,2.9296875,-19.53125,106.4453125,0.0
63.96484375,-17.08984375,-6.34765625,-3.41796875,-17.08984375,114.2578125,0.0
63.96875,-62.01171875,-54.19921875,-62.98828125,-60.546875,20.01953125,0.0
63.97265625,-62.98828125,-58.10546875,-57.6171875,-55.6640625,-0.48828125,0.0
63.9765625,-36.1328125,-30.76171875,-16.6015625,-23.4375,-32.71484375,0.0
63.98046875,-30.76171875,-27.34375,-17.08984375,-22.94921875,7.8125,0.0
63.984375,-45.41015625,-39.0625,-41.9921875,-39.55078125,42.48046875,0.0
63.98828125,-64.453125,-49.31640625,-55.6640625,-46.38671875,-49.8046875,0.0
63.9921875,-64.453125,-52.734375,-47.36328125,-47.8515625,-76.171875,0.0
63.99609375,-48.33984375,-43.9453125,-34.66796875,-44.43359375,-52.24609375,0.0
64.0,-38.57421875,-36.1328125,-32.71484375,-38.0859375,-36.62109375,0.0
64.00390625,-33.69140625,-24.90234375,-28.3203125,-31.25,-76.171875,0.0
64.0078125,-11.71875,5.37109375,11.71875,-0.48828125,-161.62109375,0.0
64.01171875,-35.64453125,-20.01953125,-12.6953125,-20.99609375,-167.96875,0.0
64.015625,-59.08203125,-50.29296875,-48.33984375,-51.26953125,-102.5390625,0.0
64.01953125,-34.66796875,-30.2734375,-16.6015625,-31.73828125,-15.625,0.0
64.0234375,-23.4375,-17.08984375,-10.7421875,-24.90234375,39.0625,0.0
64.02734375,-46.875,-40.0390625,-45.41015625,-48.828125,27.83203125,0.0
64.03125,-57.6171875,-57.12890625,-52.24609375,-55.6640625,-74.70703125,0.0
64.03515625,-43.45703125,-48.828125,-32.71484375,-45.8984375,-97.65625,0.0
64.0390625,-25.390625,-27.83203125,-12.6953125,-33.69140625,117.1875,0.0
64.04296875,-27.34375,-23.4375,-21.97265625,-28.3203125,146.484375,0.0
64.046875,-38.57421875,-34.1796875,-40.52734375,-33.203125,94.23828125,0.0
64.05078125,-45.41015625,-41.015625,-44.921875,-36.62109375,21.97265625,0.0
64.0546875,-44.921875,-39.0625,-33.203125,-40.52734375,8.30078125,0.0
64.05859375,-32.71484375,-31.25,-20.5078125,-42.48046875,62.98828125,0.0
64.0625,-26.3671875,-26.85546875,-25.87890625,-41.9921875,-40.0390625,0.0
64.06640625,-0.9765625,-7.8125,3.41796875,-9.765625,-123.046875,0.0
64.0703125,-5.859375,-8.30078125,10.7421875,-6.34765625,-136.23046875,0.0
64.07421875,-50.29296875,-42.96875,-31.25,-49.8046875,-142.578125,0.0
64.078125,-41.50390625,-41.015625,-28.80859375,-48.828125,-104.00390625,0.0
64.08203125,-26.3671875,-27.83203125,-20.99609375,-37.59765625,-50.29296875,0.0
64.0859375,-43.9453125,-35.64453125,-37.59765625,-49.8046875,-154.296875,0.0
64.08984375,-67.3828125,-54.19921875,-56.15234375,-66.89453125,-184.5703125,0.0
64.09375,-55.17578125,-42.48046875,-34.66796875,-56.640625,-100.5859375,0.0
64.09765625,-14.16015625,-13.18359375,3.90625,-27.34375,-85.44921875,0.0
64.1015625,-12.20703125,-15.625,-8.7890625,-31.25,-35.15625,0.0
64.10546875,-38.0859375,-32.71484375,-41.50390625,-53.22265625,8.7890625,0.0
64.109375,-42.96875,-39.55078125,-41.9921875,-47.8515625,-57.12890625,0.0
64.11328125,-20.5078125,-19.53125,-3.41796875,-17.08984375,-105.95703125,0.0
64.1171875,-22.4609375,-21.97265625,-7.8125,-27.34375,-4.39453125,0.0
64.12109375,-22.94921875,-28.80859375,-21.484375,-36.62109375,2.44140625,0.0
64.125,-21.97265625,-24.90234375,-20.99609375,-31.25,-42.96875,0.0
64.12890625,-43.9453125,-38.0859375,-34.66796875,-44.921875,15.625,0.0
64.1328125,-57.6171875,-58.10546875,-43.9453125,-51.7578125,13.18359375,0.0
64.13671875,-41.015625,-46.38671875,-27.34375,-42.48046875,-19.04296875,0.0
64.140625,-19.53125,-28.80859375,-15.625,-30.76171875,13.671875,0.0
64.14453125,-17.08984375,-32.71484375,-29.78515625,-27.34375,79.1015625,0.0
64.1484375,-35.15625,-41.015625,-53.7109375,-45.8984375,-7.8125,0.0
64.15234375,-45.8984375,-47.8515625,-57.12890625,-45.41015625,-56.15234375,0.0
64.15625,-5.37109375,-10.7421875,3.41796875,0.0,-22.94921875,0.0
64.16015625,7.32421875,3.90625,16.11328125,4.39453125,-19.53125,0.0
64.1640625,-24.90234375,-28.80859375,-33.203125,-25.390625,46.38671875,0.0
64.16796875,-36.62109375,-39.55078125,-47.8515625,-30.2734375,9.765625,0.0
64.171875,-39.55078125,-40.52734375,-45.8984375,-30.76171875,-68.84765625,0.0
64.17578125,-30.2734375,-34.1796875,-30.2734375,-25.87890625,-44.43359375,0.0
64.1796875,-20.01953125,-22.4609375,-21.484375,-20.01953125,1.953125,0.0
64.18359375,-15.625,-15.13671875,-20.99609375,-16.6015625,53.22265625,0.0
64.1875,-0.9765625,-3.41796875,4.39453125,-0.48828125,64.453125,0.0
64.19140625,-31.73828125,-36.1328125,-22.94921875,-30.2734375,-16.6015625,0.0
64.1953125,-50.78125,-51.7578125,-42.48046875,-56.640625,-54.19921875,0.0
64.19921875,-14.16015625,-19.53125,-9.27734375,-34.66796875,42.96875,0.0
64.203125,16.11328125,3.90625,19.53125,-8.7890625,115.234375,0.0
64.20703125,-30.2734375,-33.69140625,-29.296875,-38.0859375,51.7578125,0.0
64.2109375,-64.94140625,-60.546875,-60.546875,-56.15234375,-55.17578125,0.0
64.21484375,-47.8515625,-48.828125,-37.59765625,-44.921875,-54.6875,0.0
64.21875,-22.4609375,-35.64453125,-17.578125,-33.203125,26.3671875,0.0
64.22265625,-19.53125,-27.34375,-26.85546875,-30.76171875,90.8203125,0.0
64.2265625,-40.52734375,-34.66796875,-53.7109375,-43.45703125,1.953125,0.0
64.23046875,-40.0390625,-36.62109375,-36.62109375,-40.52734375,-100.5859375,0.0
64.234375,-36.1328125,-39.0625,-27.34375,-38.57421875,-58.10546875,0.0
64.23828125,-33.69140625,-38.57421875,-29.296875,-44.43359375,28.80859375,0.0
64.2421875,-24.4140625,-25.390625,-26.3671875,-42.48046875,71.77734375,0.0
64.24609375,-1.953125,4.39453125,-3.41796875,-12.6953125,41.9921875,0.0
64.25,-22.4609375,-16.6015625,-11.71875,-23.92578125,-77.63671875,0.0
64.25390625,-49.31640625,-51.7578125,-41.50390625,-52.24609375,-113.76953125,0.0
64.2578125,-28.80859375,-33.203125,-27.83203125,-41.015625,-54.6875,0.0
64.26171875,-15.13671875,-19.53125,-20.01953125,-35.64453125,-37.59765625,0.0
64.265625,-23.4375,-27.34375,-37.109375,-40.52734375,-28.3203125,0.0
64.26953125,-45.8984375,-48.828125,-58.59375,-56.15234375,-61.03515625,0.0
64.2734375,-44.921875,-45.41015625,-41.9921875,-55.17578125,-170.8984375,0.0
64.27734375,-10.25390625,-20.99609375,-1.46484375,-28.3203125,-236.81640625,0.0
64.28125,-3.90625,-20.01953125,-7.8125,-25.87890625,-121.09375,0.0
64.28515625,-26.85546875,-35.15625,-42.48046875,-39.0625,8.7890625,0.0
64.2890625,-35.15625,-39.0625,-46.875,-35.15625,-29.296875,0.0
64.29296875,17.08984375,11.71875,20.5078125,18.5546875,-120.60546875,0.0
64.296875,6.8359375,-4.8828125,11.71875,3.41796875,-124.51171875,0.0
64.30078125,-30.2734375,-40.52734375,-27.34375,-37.59765625,-19.53125,0.0
64.3046875,-31.73828125,-36.1328125,-34.1796875,-38.0859375,31.73828125,0.0
64.30859375,-52.734375,-50.78125,-56.15234375,-45.41015625,41.9921875,0.0
64.3125,-58.59375,-59.08203125,-54.6875,-50.78125,20.99609375,0.0
64.31640625,-45.8984375,-46.875,-33.69140625,-41.50390625,-82.03125,0.0
64.3203125,-30.76171875,-29.296875,-18.5546875,-32.71484375,-34.66796875,0.0
64.32421875,-33.203125,-31.73828125,-32.2265625,-41.9921875,72.265625,0.0
64.328125,-55.17578125,-54.19921875,-59.08203125,-54.6875,-2.9296875,0.0
64.33203125,-60.546875,-61.03515625,-53.22265625,-50.29296875,-115.72265625,0.0
64.3359375,-29.78515625,-34.1796875,-10.7421875,-24.90234375,-161.62109375,0.0
64.33984375,-18.5546875,-21.484375,-11.71875,-20.01953125,-83.49609375,0.0
64.34375,-33.69140625,-32.71484375,-40.52734375,-27.83203125,-40.52734375,0.0
64.34765625,-45.41015625,-43.9453125,-52.24609375,-36.1328125,-73.73046875,0.0
64.3515625,-14.16015625,-15.625,-1.953125,-8.30078125,-109.375,0.0
64.35546875,-13.671875,-14.6484375,5.37109375,-17.578125,-28.3203125,0.0
64.359375,-41.50390625,-37.59765625,-28.80859375,-45.8984375,74.21875,0.0
64.36328125,-43.9453125,-33.69140625,-35.64453125,-45.8984375,83.49609375,0.0
64.3671875,-57.6171875,-38.57421875,-53.22265625,-56.640625,60.546875,0.0
64.37109375,-68.359375,-56.15234375,-64.94140625,-63.4765625,5.859375,0.0
64.375,-64.453125,-61.5234375,-55.6640625,-64.94140625,-20.99609375,0.0
64.37890625,-40.0390625,-43.9453125,-30.2734375,-52.24609375,2.9296875,0.0
64.3828125,-21.484375,-24.4140625,-19.04296875,-39.0625,40.52734375,0.0
64.38671875,-40.52734375,-39.55078125,-44.43359375,-51.26953125,5.859375,0.0
64.390625,-63.96484375,-66.40625,-64.94140625,-67.3828125,-64.94140625,0.0
64.39453125,-43.9453125,-49.31640625,-39.0625,-54.6875,-79.1015625,0.0
64.3984375,20.5078125,12.20703125,31.73828125,-0.48828125,-62.01171875,0.0
64.40234375,-5.859375,-9.27734375,-0.48828125,-20.99609375,-23.4375,0.0
64.40625,-56.15234375,-51.26953125,-59.5703125,-64.453125,0.0,0.0
64.41015625,-58.10546875,-56.15234375,-58.10546875,-62.98828125,-83.49609375,0.0
64.4140625,-59.5703125,-63.96484375,-51.26953125,-62.01171875,-48.33984375,0.0
64.41796875,-42.48046875,-50.78125,-34.66796875,-53.22265625,0.9765625,0.0
64.421875,-27.34375,-34.1796875,-31.25,-44.921875,-20.01953125,0.0
64.42578125,-32.71484375,-40.52734375,-44.43359375,-42.96875,17.08984375,0.0
64.4296875,-37.59765625,-47.8515625,-48.33984375,-42.96875,37.59765625,0.0
64.43359375,-42.48046875,-50.29296875,-43.9453125,-49.31640625,-81.54296875,0.0
64.4375,-31.73828125,-37.59765625,-23.4375,-44.43359375,-133.7890625,0.0
64.44140625,33.203125,23.92578125,39.55078125,12.6953125,-73.73046875,0.0
64.4453125,14.16015625,10.25390625,15.625,-1.46484375,-36.1328125,0.0
64.44921875,-57.6171875,-52.24609375,-55.17578125,-61.5234375,-62.01171875,0.0
64.453125,-52.734375,-51.26953125,-45.8984375,-56.640625,-87.40234375,0.0
64.45703125,-20.99609375,-26.3671875,-11.23046875,-30.2734375,-97.16796875,0.0
64.4609375,-16.6015625,-23.4375,-13.671875,-31.25,-73.73046875,0.0
64.46484375,-40.0390625,-48.33984375,-45.8984375,-52.24609375,0.0,0.0
64.46875,-40.52734375,-46.875,-41.9921875,-45.41015625,-107.421875,0.0
64.47265625,-0.48828125,-4.8828125,10.7421875,-4.39453125,-209.9609375,0.0
64.4765625,-18.5546875,-20.99609375,-7.32421875,-28.80859375,-108.88671875,0.0
64.48046875,-36.62109375,-39.0625,-40.0390625,-54.6875,-17.578125,0.0
64.484375,-18.5546875,-22.4609375,-35.15625,-38.0859375,-35.64453125,0.0
64.48828125,5.859375,4.39453125,-6.8359375,-8.30078125,-38.0859375,0.0
64.4921875,-42.96875,-40.52734375,-41.9921875,-52.734375,-7.32421875,0.0
64.49609375,-54.6875,-54.19921875,-47.36328125,-60.546875,5.859375,0.0
64.5,-30.2734375,-30.76171875,-26.3671875,-39.0625,-27.83203125,0.0
64.50390625,-36.1328125,-32.71484375,-38.57421875,-53.7109375,-52.24609375,0.0
64.5078125,-55.17578125,-49.31640625,-61.5234375,-62.98828125,36.1328125,0.0
64.51171875,-63.4765625,-57.6171875,-64.453125,-61.03515625,-11.71875,0.0
64.515625,-33.69140625,-35.64453125,-26.3671875,-45.8984375,-165.52734375,0.0
64.51953125,-13.671875,-21.97265625,-18.5546875,-39.55078125,-68.359375,0.0
64.5234375,-21.97265625,-21.484375,-40.52734375,-47.36328125,79.1015625,0.0
64.52734375,-36.62109375,-32.71484375,-60.05859375,-58.59375,48.828125,0.0
64.53125,31.25,20.99609375,23.92578125,9.765625,-28.80859375,0.0
64.53515625,44.921875,22.4609375,38.57421875,11.23046875,-41.9921875,0.0
64.5390625,-10.7421875,-31.73828125,-36.62109375,-51.7578125,8.7890625,0.0
64.54296875,-12.20703125,-25.390625,-42.48046875,-45.8984375,62.01171875,0.0
64.546875,-26.85546875,-35.64453125,-53.22265625,-51.7578125,20.99609375,0.0
64.55078125,-41.50390625,-49.8046875,-63.96484375,-61.03515625,-44.43359375,0.0
64.5546875,-45.41015625,-52.24609375,-55.6640625,-60.546875,-71.2890625,0.0
64.55859375,-20.01953125,-26.3671875,-21.97265625,-34.1796875,-28.80859375,0.0
64.5625,46.38671875,44.43359375,50.78125,35.15625,29.78515625,0.0
64.56640625,-6.34765625,-1.46484375,-11.71875,-12.6953125,-35.15625,0.0
64.5703125,-68.359375,-62.5,-79.1015625,-69.82421875,-76.171875,0.0
64.57421875,-46.875,-45.41015625,-42.96875,-48.33984375,-46.875,0.0
64.578125,-28.3203125,-30.76171875,-20.99609375,-34.1796875,-7.32421875,0.0
64.58203125,-25.390625,-34.1796875,-29.78515625,-36.62109375,37.109375,0.0
64.5859375,-40.0390625,-45.41015625,-49.8046875,-48.828125,59.08203125,0.0
64.58984375,-59.08203125,-59.08203125,-61.03515625,-62.01171875,-17.08984375,0.0
64.59375,-54.19921875,-60.05859375,-49.31640625,-58.59375,-120.1171875,0.0
64.59765625,-36.1328125,-46.38671875,-31.25,-50.29296875,-72.75390625,0.0
64.6015625,-34.66796875,-34.1796875,-34.1796875,-55.6640625,-13.18359375,0.0
64.60546875,-14.6484375,-3.90625,-7.32421875,-29.78515625,2.9296875,0.0
64.609375,-21.97265625,-11.71875,-12.20703125,-27.34375,-83.0078125,0.0
64.61328125,-54.6875,-51.7578125,-48.33984375,-58.59375,-129.8828125,0.0
64.6171875,-48.828125,-43.9453125,-42.48046875,-61.03515625,-36.1328125,0.0
64.62109375,13.671875,16.11328125,26.85546875,-4.39453125,-49.8046875,0.0
64.625,36.62109375,32.71484375,52.24609375,25.390625,-22.94921875,0.0
64.62890625,-43.45703125,-43.9453125,-44.43359375,-46.875,-72.75390625,0.0
64.6328125,-62.5,-64.453125,-61.03515625,-71.2890625,-122.55859375,0.0
64.63671875,-41.015625,-44.43359375,-31.25,-61.03515625,-80.078125,0.0
64.640625,-28.80859375,-29.78515625,-24.4140625,-50.29296875,-17.08984375,0.0
64.64453125,-44.43359375,-43.9453125,-47.36328125,-56.640625,-11.71875,0.0
64.6484375,-42.96875,-35.64453125,-41.015625,-50.29296875,-41.50390625,0.0
64.65234375,14.16015625,13.671875,21.97265625,-3.41796875,-31.25,0.0
64.65625,-10.25390625,-16.6015625,-4.8828125,-35.64453125,-26.3671875,0.0
64.66015625,-43.45703125,-46.38671875,-42.96875,-65.4296875,-53.22265625,0.0
64.6640625,-21.97265625,-15.13671875,-20.99609375,-36.62109375,26.85546875,0.0
64.66796875,9.765625,20.99609375,18.5546875,9.765625,92.28515625,0.0
64.671875,-41.015625,-39.0625,-37.59765625,-40.0390625,0.0,0.0
64.67578125,-58.59375,-66.89453125,-60.05859375,-62.98828125,-84.9609375,0.0
64.6796875,-23.4375,-29.78515625,-19.53125,-30.2734375,-54.19921875,0.0
64.68359375,-18.06640625,-18.06640625,-19.04296875,-28.80859375,5.37109375,0.0
64.6875,-48.33984375,-46.875,-58.59375,-51.26953125,-49.8046875,0.0
64.69140625,-59.08203125,-59.08203125,-65.91796875,-58.10546875,-127.9296875,0.0
64.6953125,-39.0625,-40.0390625,-37.59765625,-51.7578125,-97.16796875,0.0
64.69921875,-28.3203125,-31.25,-28.80859375,-43.9453125,-11.23046875,0.0
64.703125,-38.0859375,-36.62109375,-44.921875,-44.43359375,39.0625,0.0
64.70703125,-49.31640625,-47.36328125,-55.6640625,-48.33984375,30.2734375,0.0
64.7109375,-44.921875,-44.921875,-48.33984375,-45.41015625,-43.9453125,0.0
64.71484375,-43.45703125,-45.41015625,-43.9453125,-53.22265625,-112.3046875,0.0
64.71875,-37.59765625,-42.48046875,-37.59765625,-50.29296875,-27.83203125,0.0
64.72265625,-33.69140625,-39.55078125,-41.015625,-45.8984375,-35.15625,0.0
64.7265625,15.13671875,13.18359375,17.578125,10.25390625,-86.42578125,0.0
64.73046875,18.06640625,16.6015625,24.90234375,17.578125,-60.05859375,0.0
64.734375,-37.59765625,-48.828125,-50.29296875,-47.8515625,-71.2890625,0.0
64.73828125,-28.3203125,-42.96875,-36.1328125,-41.50390625,-22.4609375,0.0
64.7421875,-21.484375,-24.90234375,-19.53125,-21.97265625,93.75,0.0
64.74609375,-45.41015625,-43.45703125,-49.8046875,-30.76171875,130.37109375,0.0
64.75,-67.87109375,-66.89453125,-70.3125,-49.31640625,11.23046875,0.0
64.75390625,-63.4765625,-64.94140625,-57.12890625,-48.33984375,-89.35546875,0.0
64.7578125,-33.203125,-30.76171875,-19.53125,-24.90234375,-10.25390625,0.0
64.76171875,-30.2734375,-25.87890625,-26.85546875,-25.87890625,6.8359375,0.0
64.765625,-47.8515625,-45.41015625,-57.12890625,-37.59765625,26.3671875,0.0
64.76953125,-46.875,-50.29296875,-50.29296875,-31.73828125,-45.8984375,0.0
64.7734375,-16.6015625,-23.4375,7.8125,0.0,-109.375,0.0
64.77734375,-17.578125,-27.34375,-0.9765625,-5.859375,-68.359375,0.0
64.78125,-24.4140625,-32.71484375,-28.3203125,-22.94921875,-22.94921875,0.0
64.78515625,-13.671875,-18.5546875,-16.6015625,-11.71875,62.01171875,0.0
64.7890625,-34.1796875,-38.0859375,-31.73828125,-22.94921875,-30.76171875,0.0
64.79296875,-56.15234375,-62.01171875,-48.828125,-46.38671875,-151.3671875,0.0
64.796875,-41.015625,-51.26953125,-30.2734375,-41.50390625,-93.26171875,0.0
64.80078125,-22.94921875,-33.69140625,-21.97265625,-28.80859375,-10.25390625,0.0
64.8046875,-24.90234375,-28.3203125,-34.66796875,-28.3203125,-12.20703125,0.0
64.80859375,-42.96875,-43.45703125,-45.8984375,-43.45703125,-128.90625,0.0
64.8125,-54.19921875,-57.6171875,-43.45703125,-51.26953125,-181.640625,0.0
64.81640625,-14.6484375,-23.92578125,4.8828125,-14.16015625,-76.171875,0.0
64.8203125,-1.953125,-11.23046875,7.8125,-12.20703125,20.01953125,0.0
64.82421875,-31.73828125,-34.66796875,-41.9921875,-41.50390625,40.52734375,0.0
64.828125,-51.26953125,-48.33984375,-62.01171875,-48.828125,53.22265625,0.0
64.83203125,-57.6171875,-57.6171875,-54.19921875,-58.10546875,26.85546875,0.0
64.8359375,-40.52734375,-43.45703125,-31.73828125,-48.828125,12.20703125,0.0
64.83984375,-32.71484375,-27.83203125,-28.3203125,-41.50390625,154.296875,0.0
64.84375,-33.203125,-26.3671875,-32.71484375,-34.66796875,119.140625,0.0
64.84765625,-19.04296875,-16.6015625,-12.6953125,-15.625,-94.7265625,0.0
64.8515625,-43.9453125,-38.0859375,-26.85546875,-40.0390625,-197.265625,0.0
64.85546875,-52.24609375,-51.26953125,-38.0859375,-57.12890625,-147.4609375,0.0
64.859375,-23.92578125,-33.203125,-20.99609375,-35.64453125,-115.72265625,0.0
64.86328125,-3.41796875,-12.20703125,-4.8828125,-16.11328125,-54.19921875,0.0
64.8671875,-30.2734375,-32.2265625,-38.0859375,-33.69140625,35.15625,0.0
64.87109375,-54.6875,-54.6875,-57.6171875,-48.33984375,44.43359375,0.0
64.875,-42.96875,-50.78125,-34.66796875,-41.015625,3.41796875,0.0
64.87890625,-31.73828125,-37.59765625,-17.578125,-35.15625,-45.41015625,0.0
64.8828125,-30.76171875,-29.296875,-23.4375,-33.203125,15.13671875,0.0
64.88671875,-42.48046875,-36.1328125,-42.48046875,-38.0859375,45.8984375,0.0
64.890625,-49.31640625,-41.9921875,-47.8515625,-40.0390625,-72.265625,0.0
64.89453125,-41.9921875,-38.57421875,-39.0625,-36.62109375,-69.82421875,0.0
64.8984375,-26.3671875,-26.85546875,-19.04296875,-27.34375,74.21875,0.0
64.90234375,-21.97265625,-22.4609375,-25.87890625,-24.4140625,57.6171875,0.0
64.90625,-3.90625,-8.30078125,-14.16015625,-0.9765625,-49.8046875,0.0
64.91015625,-6.34765625,-10.7421875,-1.953125,4.8828125,-94.23828125,0.0
64.9140625,-41.50390625,-43.9453125,-33.69140625,-36.1328125,-79.58984375,0.0
64.91796875,-33.69140625,-39.0625,-28.80859375,-40.52734375,-38.0859375,0.0
64.921875,-24.90234375,-26.85546875,-25.87890625,-35.15625,-5.37109375,0.0
64.92578125,-39.55078125,-35.15625,-44.43359375,-41.015625,8.7890625,0.0
64.9296875,-59.5703125,-49.8046875,-57.6171875,-50.29296875,-48.33984375,0.0
64.93359375,-47.36328125,-41.015625,-40.52734375,-40.0390625,-124.51171875,0.0
64.9375,-9.765625,-8.30078125,4.39453125,-13.18359375,-103.515625,0.0
64.94140625,-18.5546875,-15.13671875,-7.8125,-22.4609375,-53.22265625,0.0
64.9453125,-45.8984375,-37.109375,-48.33984375,-43.45703125,-85.9375,0.0
64.94921875,-54.6875,-39.55078125,-54.6875,-41.50390625,-116.69921875,0.0
64.953125,-11.23046875,2.44140625,6.34765625,0.0,-62.98828125,0.0
64.95703125,-8.7890625,-6.34765625,3.90625,-12.20703125,26.3671875,0.0
64.9609375,-29.78515625,-28.3203125,-29.78515625,-39.55078125,20.5078125,0.0
64.96484375,-33.69140625,-27.34375,-35.15625,-37.59765625,-49.8046875,0.0
64.96875,-56.15234375,-43.45703125,-54.19921875,-51.7578125,-52.734375,0.0
64.97265625,-64.453125,-53.7109375,-56.640625,-55.6640625,-63.4765625,0.0
64.9765625,-44.921875,-39.55078125,-30.76171875,-43.45703125,-72.265625,0.0
64.98046875,-22.4609375,-11.71875,-11.23046875,-31.25,-9.27734375,0.0
64.984375,-26.85546875,-14.6484375,-26.3671875,-28.3203125,8.30078125,0.0
64.98828125,-49.31640625,-34.66796875,-48.828125,-41.9921875,-0.9765625,0.0
64.9921875,-58.10546875,-39.55078125,-48.33984375,-50.29296875,-48.828125,0.0
64.99609375,-6.8359375,1.46484375,7.32421875,-8.7890625,-80.078125,0.0
65.0,8.7890625,10.7421875,12.20703125,-3.90625,20.99609375,0.0
65.00390625,-34.66796875,-28.80859375,-44.43359375,-42.96875,64.94140625,0.0
65.0078125,-44.921875,-44.43359375,-53.22265625,-45.41015625,69.3359375,0.0
65.01171875,-34.66796875,-36.62109375,-28.3203125,-27.83203125,27.34375,0.0
65.015625,-33.69140625,-34.1796875,-23.4375,-33.203125,-3.41796875,0.0
65.01953125,-28.3203125,-32.2265625,-27.83203125,-41.015625,47.36328125,0.0
65.0234375,-20.5078125,-19.53125,-21.484375,-29.296875,88.8671875,0.0
65.02734375,-11.71875,-6.8359375,-10.25390625,-14.6484375,69.3359375,0.0
65.03125,-36.62109375,-36.62109375,-38.0859375,-41.015625,-33.69140625,0.0
65.03515625,-43.45703125,-51.26953125,-46.38671875,-52.734375,-120.60546875,0.0
65.0390625,-15.13671875,-20.5078125,-17.578125,-31.73828125,-81.0546875,0.0
65.04296875,-0.48828125,4.8828125,-4.39453125,-11.71875,-41.9921875,0.0
65.046875,-40.52734375,-28.80859375,-46.38671875,-39.0625,-44.921875,0.0
65.05078125,-63.4765625,-56.15234375,-65.4296875,-59.08203125,-77.1484375,0.0
65.0546875,-38.0859375,-40.0390625,-32.71484375,-41.50390625,-12.6953125,0.0
65.05859375,-14.16015625,-21.97265625,-7.32421875,-20.99609375,46.875,0.0
65.0625,-20.01953125,-27.83203125,-26.3671875,-30.2734375,27.34375,0.0
65.06640625,-33.203125,-38.57421875,-48.828125,-37.59765625,38.0859375,0.0
65.0703125,-36.1328125,-40.0390625,-41.50390625,-30.76171875,-31.25,0.0
65.07421875,-33.69140625,-37.59765625,-26.3671875,-31.25,-143.5546875,0.0
65.078125,-28.80859375,-33.69140625,-22.94921875,-34.1796875,-65.4296875,0.0
65.08203125,-15.625,-20.5078125,-21.97265625,-26.3671875,67.87109375,0.0
65.0859375,-13.671875,-9.27734375,-16.6015625,-11.23046875,32.2265625,0.0
65.08984375,-36.1328125,-29.78515625,-30.76171875,-11.71875,-72.75390625,0.0
65.09375,-45.8984375,-46.38671875,-38.0859375,-26.3671875,-39.0625,0.0
65.09765625,-26.3671875,-30.2734375,-15.13671875,-27.83203125,-6.8359375,0.0
65.1015625,2.44140625,-4.39453125,11.71875,-5.37109375,-65.91796875,0.0
65.10546875,-20.5078125,-22.4609375,-30.76171875,-21.97265625,-2.9296875,0.0
65.109375,-57.6171875,-52.24609375,-67.3828125,-53.22265625,-13.18359375,0.0
65.11328125,-48.828125,-49.8046875,-47.36328125,-54.6875,-50.78125,0.0
65.1171875,-25.87890625,-29.296875,-29.296875,-44.921875,-65.4296875,0.0
65.12109375,-20.5078125,-19.53125,-26.85546875,-35.15625,3.41796875,0.0
65.125,-35.15625,-34.1796875,-47.36328125,-39.55078125,12.6953125,0.0
65.12890625,-51.7578125,-46.38671875,-61.5234375,-46.38671875,-63.4765625,0.0
65.1328125,-22.4609375,-17.578125,-12.6953125,-14.16015625,-145.01953125,0.0
65.13671875,-10.25390625,-13.671875,-2.9296875,-13.18359375,-188.96484375,0.0
65.140625,-21.484375,-29.296875,-33.69140625,-34.66796875,-123.046875,0.0
65.14453125,-13.671875,-21.484375,-35.15625,-30.76171875,-83.49609375,0.0
65.1484375,-18.06640625,-23.4375,-31.25,-29.296875,-57.6171875,0.0
65.15234375,-45.41015625,-47.36328125,-46.875,-46.875,-33.203125,0.0
65.15625,-41.015625,-41.9921875,-36.1328125,-44.921875,-32.71484375,0.0
65.16015625,-22.4609375,-27.34375,-21.484375,-33.69140625,-26.3671875,0.0
65.1640625,-26.85546875,-29.296875,-36.1328125,-40.52734375,1.46484375,0.0
65.16796875,-46.38671875,-42.48046875,-59.08203125,-51.7578125,28.3203125,0.0
65.171875,-56.640625,-53.22265625,-56.640625,-54.6875,-71.77734375,0.0
65.17578125,-28.80859375,-30.76171875,-17.578125,-42.96875,-119.140625,0.0
65.1796875,-9.27734375,-14.16015625,-10.25390625,-37.59765625,-45.41015625,0.0
65.18359375,-24.4140625,-27.34375,-40.52734375,-44.43359375,-26.3671875,0.0
65.1875,-41.50390625,-43.9453125,-55.6640625,-49.31640625,-26.85546875,0.0
65.19140625,-21.97265625,-23.92578125,-13.18359375,-19.04296875,-116.69921875,0.0
65.1953125,-11.71875,-13.671875,4.39453125,-11.23046875,-158.203125,0.0
65.19921875,-18.5546875,-23.92578125,-21.97265625,-34.1796875,-36.1328125,0.0
65.203125,-7.32421875,-18.5546875,-26.85546875,-36.1328125,28.80859375,0.0
65.20703125,-15.625,-26.85546875,-40.0390625,-40.52734375,-42.48046875,0.0
65.2109375,-29.296875,-41.50390625,-46.875,-39.0625,-110.3515625,0.0
65.21484375,-27.34375,-42.96875,-36.62109375,-39.0625,-67.87109375,0.0
65.21875,0.48828125,-18.06640625,-6.8359375,-27.34375,7.32421875,0.0
65.22265625,20.5078125,8.30078125,16.11328125,-0.48828125,20.99609375,0.0
65.2265625,-21.97265625,-26.85546875,-28.3203125,-24.90234375,9.27734375,0.0
65.23046875,-54.19921875,-55.17578125,-57.12890625,-52.24609375,-0.9765625,0.0
65.234375,-40.52734375,-40.52734375,-27.83203125,-44.921875,-7.8125,0.0
65.23828125,7.32421875,0.0,36.1328125,-2.44140625,-3.41796875,0.0
65.2421875,-3.41796875,-7.8125,3.90625,-13.671875,-9.765625,0.0
65.24609375,-46.38671875,-43.45703125,-59.5703125,-51.26953125,30.2734375,0.0
65.25,-53.7109375,-53.7109375,-60.546875,-52.24609375,-51.26953125,0.0
65.25390625,-46.38671875,-56.15234375,-44.921875,-50.29296875,-205.078125,0.0
65.2578125,-36.62109375,-44.921875,-26.3671875,-49.8046875,-144.04296875,0.0
65.26171875,-25.390625,-29.78515625,-22.94921875,-41.015625,5.37109375,0.0
65.265625,-31.73828125,-30.76171875,-39.55078125,-42.96875,38.57421875,0.0
65.26953125,-53.22265625,-49.31640625,-57.12890625,-59.5703125,2.44140625,0.0
65.2734375,-54.6875,-54.6875,-46.875,-58.10546875,-77.63671875,0.0
65.27734375,-40.0390625,-40.0390625,-29.78515625,-47.36328125,-27.83203125,0.0
65.28125,4.8828125,5.859375,15.625,-8.30078125,105.46875,0.0
65.28515625,0.9765625,3.41796875,11.23046875,-4.8828125,48.33984375,0.0
65.2890625,-54.19921875,-50.78125,-51.26953125,-52.24609375,-45.41015625,0.0
65.29296875,-56.640625,-58.59375,-48.828125,-55.6640625,-60.546875,0.0
65.296875,-33.203125,-43.9453125,-27.34375,-37.109375,-55.17578125,0.0
65.30078125,-19.53125,-36.62109375,-23.92578125,-29.296875,-61.5234375,0.0
65.3046875,-30.76171875,-40.0390625,-41.50390625,-41.015625,-75.1953125,0.0
65.30859375,-40.52734375,-42.96875,-53.22265625,-47.8515625,-126.46484375,0.0
65.3125,-28.3203125,-33.203125,-26.3671875,-29.296875,-116.2109375,0.0
65.31640625,-26.3671875,-32.71484375,-21.484375,-36.1328125,-65.4296875,0.0
65.3203125,-23.4375,-28.80859375,-26.85546875,-46.38671875,-136.23046875,0.0
65.32421875,-24.4140625,-24.4140625,-26.85546875,-38.0859375,-121.09375,0.0
65.328125,-27.83203125,-27.83203125,-19.04296875,-27.83203125,-99.609375,0.0
65.33203125,-41.9921875,-48.828125,-35.64453125,-41.9921875,-118.65234375,0.0
65.3359375,-33.69140625,-48.828125,-38.57421875,-52.24609375,-22.94921875,0.0
65.33984375,-6.34765625,-20.99609375,-15.625,-35.64453125,-5.859375,0.0
65.34375,-13.18359375,-18.06640625,-19.53125,-28.3203125,-12.6953125,0.0
65.34765625,-42.48046875,-44.921875,-50.29296875,-45.8984375,10.25390625,0.0
65.3515625,-43.9453125,-52.24609375,-51.26953125,-47.8515625,-36.1328125,0.0
65.35546875,-23.92578125,-37.59765625,-26.85546875,-36.62109375,-70.3125,0.0
65.359375,-7.32421875,-20.5078125,-14.16015625,-27.34375,14.6484375,0.0
65.36328125,-9.765625,-21.484375,-26.3671875,-27.83203125,65.91796875,0.0
65.3671875,-27.34375,-33.69140625,-45.8984375,-39.55078125,-16.6015625,0.0
65.37109375,-18.06640625,-21.484375,-17.08984375,-21.97265625,-92.28515625,0.0
65.375,-3.90625,-15.625,4.8828125,-10.25390625,-44.43359375,0.0
65.37890625,-9.27734375,-22.4609375,-13.671875,-28.80859375,8.30078125,0.0
65.3828125,-14.6484375,-20.01953125,-22.94921875,-31.73828125,-4.39453125,0.0
65.38671875,-40.0390625,-34.1796875,-42.96875,-34.66796875,45.8984375,0.0
65.390625,-55.17578125,-48.33984375,-53.7109375,-45.41015625,10.25390625,0.0
65.39453125,-50.78125,-53.7109375,-44.43359375,-57.6171875,-58.10546875,0.0
65.3984375,-23.92578125,-27.34375,-18.06640625,-38.57421875,16.6015625,0.0
65.40234375,16.6015625,16.11328125,20.5078125,2.9296875,62.5,0.0
65.40625,-17.578125,-18.5546875,-19.53125,-21.484375,42.96875,0.0
65.41015625,-53.22265625,-55.17578125,-56.640625,-47.8515625,-43.45703125,0.0
65.4140625,-38.57421875,-36.62109375,-25.390625,-38.57421875,-66.40625,0.0
65.41796875,0.9765625,2.44140625,33.69140625,-7.8125,-49.8046875,0.0
65.421875,-7.32421875,-11.71875,5.37109375,-15.625,-17.578125,0.0
65.42578125,-43.45703125,-42.96875,-50.78125,-44.43359375,32.2265625,0.0
65.4296875,-53.22265625,-49.31640625,-53.22265625,-49.31640625,-24.90234375,0.0
65.43359375,-47.36328125,-54.6875,-44.921875,-48.828125,-62.98828125,0.0
65.4375,-31.73828125,-45.8984375,-31.73828125,-40.52734375,9.27734375,0.0
65.44140625,-26.3671875,-34.1796875,-28.80859375,-37.109375,15.13671875,0.0
65.4453125,-36.1328125,-35.64453125,-37.109375,-37.59765625,-33.203125,0.0
65.44921875,-51.7578125,-46.875,-51.7578125,-48.828125,13.18359375,0.0
65.453125,-51.7578125,-55.6640625,-50.29296875,-53.22265625,38.57421875,0.0
65.45703125,-27.34375,-41.9921875,-29.78515625,-41.50390625,40.0390625,0.0
65.4609375,19.04296875,7.32421875,15.625,-7.32421875,136.23046875,0.0
65.46484375,1.46484375,-3.90625,-5.37109375,-20.5078125,104.4921875,0.0
65.46875,-45.8984375,-60.05859375,-58.59375,-60.05859375,-81.54296875,0.0
65.47265625,-39.0625,-62.98828125,-48.33984375,-51.7578125,-175.29296875,0.0
65.4765625,6.8359375,-14.16015625,17.578125,-11.23046875,-164.55078125,0.0
65.48046875,16.6015625,1.46484375,14.6484375,-10.25390625,-113.76953125,0.0
65.484375,-24.90234375,-33.203125,-44.921875,-41.9921875,-40.0390625,0.0
65.48828125,-50.29296875,-52.734375,-55.6640625,-49.8046875,-123.046875,0.0
65.4921875,-49.31640625,-39.55078125,-38.57421875,-41.50390625,-47.8515625,0.0
65.49609375,-40.0390625,-29.296875,-21.97265625,-38.0859375,69.3359375,0.0
65.5,-33.69140625,-32.2265625,-26.3671875,-35.64453125,-3.90625,0.0
65.50390625,-29.296875,-26.85546875,-31.73828125,-27.83203125,-21.97265625,0.0
65.5078125,-5.859375,1.46484375,5.859375,-4.39453125,-31.73828125,0.0
65.51171875,-38.0859375,-29.296875,-22.94921875,-32.71484375,-64.453125,0.0
65.515625,-56.15234375,-55.17578125,-45.41015625,-54.6875,-58.10546875,0.0
65.51953125,-27.34375,-29.78515625,-19.53125,-32.2265625,-54.19921875,0.0
65.5234375,-25.87890625,-22.4609375,-23.92578125,-26.3671875,-1.953125,0.0
65.52734375,-47.36328125,-43.45703125,-49.31640625,-43.45703125,9.27734375,0.0
65.53125,-60.546875,-59.5703125,-52.24609375,-51.26953125,-59.5703125,0.0
65.53515625,-21.97265625,-21.484375,-0.48828125,-13.671875,-90.33203125,0.0
65.5390625,8.30078125,7.32421875,26.85546875,8.30078125,-90.8203125,0.0
65.54296875,-20.99609375,-22.94921875,-22.94921875,-21.97265625,-77.1484375,0.0
65.546875,-42.48046875,-40.52734375,-52.24609375,-36.1328125,-148.4375,0.0
65.55078125,-52.24609375,-45.8984375,-50.29296875,-39.0625,-158.203125,0.0
65.5546875,-44.43359375,-39.55078125,-33.69140625,-41.50390625,-62.01171875,0.0
65.55859375,-29.78515625,-27.83203125,-20.5078125,-40.0390625,-71.77734375,0.0
65.5625,-38.57421875,-37.109375,-38.0859375,-47.8515625,-6.8359375,0.0
65.56640625,-3.41796875,-6.8359375,10.25390625,-1.953125,28.80859375,0.0
65.5703125,16.6015625,15.13671875,50.78125,25.87890625,-88.37890625,0.0
65.57421875,-41.9921875,-37.59765625,-21.97265625,-33.203125,-128.41796875,0.0
65.578125,-34.1796875,-39.0625,-33.69140625,-33.69140625,-102.05078125,0.0
65.58203125,-18.5546875,-25.87890625,-28.80859375,-22.4609375,28.3203125,0.0
65.5859375,-39.0625,-37.109375,-48.828125,-35.64453125,63.96484375,0.0
65.58984375,-64.453125,-55.17578125,-64.94140625,-48.33984375,-27.83203125,0.0
65.59375,-52.734375,-44.921875,-41.015625,-33.69140625,-56.15234375,0.0
65.59765625,0.48828125,-1.46484375,14.6484375,5.37109375,-15.13671875,0.0
65.6015625,-11.23046875,-12.20703125,-10.7421875,-23.92578125,-16.11328125,0.0
65.60546875,-47.8515625,-42.96875,-58.10546875,-57.6171875,2.9296875,0.0
65.609375,-52.24609375,-48.828125,-46.875,-47.36328125,-10.7421875,0.0
65.61328125,-15.625,-17.08984375,12.6953125,-11.23046875,-70.3125,0.0
65.6171875,-23.4375,-24.90234375,-12.6953125,-29.296875,5.859375,0.0
65.62109375,-36.1328125,-37.59765625,-44.43359375,-43.45703125,113.28125,0.0
65.625,-22.4609375,-28.3203125,-32.2265625,-24.90234375,137.20703125,0.0
65.62890625,-35.64453125,-42.48046875,-41.50390625,-29.296875,56.640625,0.0
65.6328125,-51.26953125,-57.12890625,-50.29296875,-45.8984375,-43.9453125,0.0
65.63671875,-33.203125,-39.0625,-27.83203125,-36.1328125,-52.24609375,0.0
65.640625,-17.578125,-20.5078125,-16.6015625,-20.99609375,71.2890625,0.0
65.64453125,-27.83203125,-27.34375,-36.62109375,-29.296875,117.1875,0.0
65.6484375,-50.29296875,-43.45703125,-54.6875,-47.36328125,21.97265625,0.0
65.65234375,-50.78125,-49.8046875,-53.22265625,-50.29296875,-88.8671875,0.0
65.65625,18.06640625,1.953125,25.87890625,7.8125,-151.3671875,0.0
65.66015625,23.4375,3.90625,29.78515625,11.23046875,-224.609375,0.0
65.6640625,-36.62109375,-45.41015625,-46.875,-37.109375,-197.265625,0.0
65.66796875,-60.546875,-56.15234375,-60.546875,-48.33984375,-176.26953125,0.0
65.671875,-62.98828125,-59.08203125,-52.734375,-53.7109375,-259.27734375,0.0
65.67578125,-44.43359375,-47.36328125,-33.69140625,-41.50390625,-248.53515625,0.0
65.6796875,-31.25,-34.1796875,-26.85546875,-36.1328125,-119.62890625,0.0
65.68359375,-27.34375,-28.3203125,-29.296875,-32.2265625,-92.28515625,0.0
65.6875,-12.6953125,-15.13671875,-9.765625,-8.7890625,-200.68359375,0.0
65.69140625,-32.71484375,-38.57421875,-26.3671875,-32.2265625,-243.1640625,0.0
65.6953125,-47.8515625,-49.31640625,-38.0859375,-56.15234375,-131.34765625,0.0
65.69921875,-25.87890625,-24.90234375,-17.08984375,-40.0390625,-7.32421875,0.0
65.703125,-3.90625,-8.30078125,4.8828125,-16.6015625,47.36328125,0.0
65.70703125,-32.71484375,-37.109375,-38.57421875,-34.1796875,44.921875,0.0
65.7109375,-55.17578125,-60.546875,-62.01171875,-50.78125,36.62109375,0.0
65.71484375,-40.52734375,-51.26953125,-33.203125,-37.59765625,109.375,0.0
65.71875,-21.484375,-34.66796875,-19.04296875,-23.4375,140.625,0.0
65.72265625,-23.92578125,-31.25,-29.296875,-25.87890625,167.48046875,0.0
65.7265625,-44.43359375,-47.36328125,-44.43359375,-41.9921875,117.67578125,0.0
65.73046875,-44.921875,-44.43359375,-33.203125,-36.1328125,-34.1796875,0.0
65.734375,-43.45703125,-42.96875,-22.94921875,-28.80859375,11.71875,0.0
65.73828125,-37.59765625,-38.0859375,-22.94921875,-35.64453125,80.078125,0.0
65.7421875,-36.1328125,-28.3203125,-24.90234375,-35.15625,96.19140625,0.0
65.74609375,-29.296875,-14.6484375,-9.765625,-8.7890625,99.609375,0.0
65.75,-33.203125,-22.4609375,-11.71875,-6.8359375,43.9453125,0.0
65.75390625,-50.29296875,-47.8515625,-36.62109375,-36.62109375,16.11328125,0.0
65.7578125,-30.76171875,-37.59765625,-23.92578125,-25.390625,2.9296875,0.0
65.76171875,-22.94921875,-24.90234375,-19.04296875,-7.8125,51.26953125,0.0
65.765625,-42.96875,-37.59765625,-38.0859375,-20.01953125,76.171875,0.0
65.76953125,-64.94140625,-57.12890625,-55.6640625,-41.50390625,0.9765625,0.0
65.7734375,-53.7109375,-53.7109375,-37.109375,-33.203125,-131.34765625,0.0
65.77734375,-17.578125,-30.2734375,1.953125,-10.25390625,-152.34375,0.0
65.78125,-19.53125,-25.390625,-12.20703125,-18.06640625,-76.171875,0.0
65.78515625,-42.48046875,-34.1796875,-38.57421875,-35.64453125,8.7890625,0.0
65.7890625,-58.10546875,-45.41015625,-38.57421875,-39.55078125,-19.53125,0.0
65.79296875,-39.55078125,-35.64453125,-4.39453125,-26.3671875,-73.2421875,0.0
65.796875,-26.85546875,-32.2265625,0.48828125,-27.83203125,-55.17578125,0.0
65.80078125,-27.34375,-30.76171875,-13.18359375,-24.4140625,21.97265625,0.0
65.8046875,-37.59765625,-35.15625,-27.34375,-28.3203125,74.70703125,0.0
65.80859375,-53.22265625,-52.734375,-41.9921875,-39.55078125,4.8828125,0.0
65.8125,-54.19921875,-55.6640625,-33.69140625,-42.96875,-69.82421875,0.0
65.81640625,-39.0625,-41.9921875,-22.94921875,-45.41015625,-11.23046875,0.0
65.8203125,-21.484375,-28.3203125,-14.16015625,-33.69140625,-10.7421875,0.0
65.82421875,-25.390625,-31.25,-29.296875,-33.203125,-51.7578125,0.0
65.828125,-41.9921875,-46.38671875,-47.8515625,-45.8984375,-81.54296875,0.0
65.83203125,-43.45703125,-47.8515625,-38.57421875,-43.9453125,-143.06640625,0.0
65.8359375,-18.06640625,-25.87890625,-13.18359375,-26.3671875,-186.5234375,0.0
65.83984375,-11.23046875,-16.11328125,-10.7421875,-26.85546875,-93.75,0.0
65.84375,-25.87890625,-27.34375,-33.203125,-38.0859375,102.05078125,0.0
65.84765625,-38.57421875,-39.55078125,-51.7578125,-41.015625,91.30859375,0.0
65.8515625,-35.15625,-39.0625,-38.0859375,-35.64453125,0.9765625,0.0
65.85546875,-22.94921875,-33.203125,-18.5546875,-34.66796875,-29.296875,0.0
65.859375,-15.625,-24.90234375,-17.578125,-35.15625,27.83203125,0.0
65.86328125,-18.06640625,-22.4609375,-25.87890625,-30.2734375,32.2265625,0.0
65.8671875,-35.15625,-34.1796875,-42.48046875,-34.1796875,-50.29296875,0.0
65.87109375,-50.78125,-48.828125,-49.8046875,-41.50390625,-41.015625,0.0
65.875,-43.45703125,-47.36328125,-34.66796875,-41.50390625,-23.92578125,0.0
65.87890625,-21.97265625,-33.203125,-15.13671875,-26.85546875,-12.6953125,0.0
65.8828125,-17.08984375,-22.4609375,-13.671875,-18.5546875,22.94921875,0.0
65.88671875,-34.66796875,-39.0625,-39.55078125,-30.2734375,33.69140625,0.0
65.890625,-51.7578125,-61.03515625,-51.7578125,-45.41015625,30.2734375,0.0
65.89453125,-38.57421875,-42.96875,-22.94921875,-38.0859375,16.11328125,0.0
65.8984375,5.37109375,0.0,26.85546875,-4.39453125,-17.578125,0.0
65.90234375,-9.765625,-9.765625,-5.859375,-20.99609375,-3.41796875,0.0
65.90625,-46.38671875,-38.57421875,-55.6640625,-49.8046875,29.78515625,0.0
65.91015625,-55.17578125,-49.8046875,-57.6171875,-49.31640625,-19.04296875,0.0
65.9140625,-46.875,-43.9453125,-39.0625,-44.921875,-26.85546875,0.0
65.91796875,-26.3671875,-28.80859375,-19.53125,-38.0859375,42.96875,0.0
65.921875,-20.5078125,-21.97265625,-21.484375,-33.203125,88.37890625,0.0
65.92578125,-31.73828125,-31.73828125,-36.1328125,-34.1796875,81.54296875,0.0
65.9296875,-45.41015625,-44.921875,-44.43359375,-50.78125,-34.1796875,0.0
65.93359375,-43.45703125,-39.55078125,-35.64453125,-50.29296875,-86.9140625,0.0
65.9375,-27.34375,-21.97265625,-19.04296875,-42.48046875,9.27734375,0.0
65.94140625,-12.20703125,-7.32421875,3.90625,-34.1796875,48.33984375,0.0
65.9453125,-29.296875,-18.06640625,-12.6953125,-40.52734375,31.25,0.0
65.94921875,-57.12890625,-47.8515625,-52.24609375,-62.01171875,49.31640625,0.0
65.953125,-46.875,-40.52734375,-35.64453125,-51.7578125,29.78515625,0.0
65.95703125,-6.8359375,-9.765625,6.34765625,-13.671875,5.859375,0.0
65.9609375,-14.16015625,-19.04296875,-12.6953125,-19.53125,-39.0625,0.0
65.96484375,-45.41015625,-40.0390625,-46.875,-41.015625,-44.43359375,0.0
65.96875,-52.24609375,-45.41015625,-46.38671875,-35.64453125,-87.890625,0.0
65.97265625,-36.1328125,-35.64453125,-16.6015625,-26.3671875,-145.5078125,0.0
65.9765625,-26.85546875,-28.3203125,-11.71875,-34.66796875,-117.67578125,0.0
65.98046875,-27.34375,-22.94921875,-27.83203125,-33.69140625,-56.640625,0.0
65.984375,-30.2734375,-23.4375,-35.15625,-23.4375,-72.265625,0.0
65.98828125,-14.6484375,-11.23046875,-2.9296875,2.9296875,-138.671875,0.0
65.9921875,-39.0625,-36.62109375,-27.83203125,-22.94921875,-67.3828125,0.0
65.99609375,-41.50390625,-41.9921875,-38.57421875,-38.57421875,-37.109375,0.0
66.0,-18.5546875,-21.484375,-23.4375,-28.80859375,10.25390625,0.0
66.00390625,-30.76171875,-33.69140625,-42.48046875,-34.66796875,-69.82421875,0.0
66.0078125,-52.734375,-49.8046875,-59.5703125,-42.48046875,-152.34375,0.0
66.01171875,-57.12890625,-52.734375,-54.6875,-48.33984375,-97.65625,0.0
66.015625,-22.94921875,-27.34375,-10.25390625,-19.53125,-106.4453125,0.0
66.01953125,-16.11328125,-24.90234375,-9.765625,-21.484375,-84.9609375,0.0
66.0234375,-38.0859375,-41.50390625,-41.9921875,-41.9921875,-22.94921875,0.0
66.02734375,-53.7109375,-47.8515625,-54.19921875,-47.36328125,-48.828125,0.0
66.03125,-57.6171875,-49.31640625,-37.59765625,-43.9453125,-114.74609375,0.0
66.03515625,-41.015625,-43.45703125,-15.13671875,-35.15625,-101.07421875,0.0
66.0390625,-29.296875,-36.62109375,-21.484375,-37.59765625,-8.7890625,0.0
66.04296875,-30.76171875,-35.15625,-29.296875,-35.15625,45.8984375,0.0
66.046875,-46.875,-41.9921875,-37.59765625,-37.109375,19.53125,0.0
66.05078125,-58.59375,-51.26953125,-44.43359375,-45.8984375,-74.21875,0.0
66.0546875,-45.41015625,-45.8984375,-32.2265625,-41.50390625,-131.34765625,0.0
66.05859375,-21.484375,-22.94921875,-10.7421875,-30.2734375,-116.2109375,0.0
66.0625,2.9296875,4.39453125,10.7421875,-6.34765625,-17.08984375,0.0
66.06640625,-23.92578125,-21.484375,-29.78515625,-24.90234375,55.17578125,0.0
66.0703125,-62.5,-53.7109375,-63.96484375,-62.5,7.8125,0.0
66.07421875,-46.38671875,-42.48046875,-30.2734375,-52.24609375,-46.875,0.0
66.078125,-0.48828125,-8.7890625,17.08984375,-13.18359375,69.82421875,0.0
66.08203125,-16.6015625,-19.53125,-15.625,-23.4375,98.6328125,0.0
66.0859375,-49.8046875,-43.45703125,-54.19921875,-42.96875,-65.4296875,0.0
66.08984375,-51.7578125,-50.29296875,-48.828125,-51.26953125,-133.30078125,0.0
66.09375,-44.43359375,-49.31640625,-37.59765625,-46.875,-68.359375,0.0
66.09765625,-31.73828125,-39.55078125,-28.80859375,-34.66796875,-11.23046875,0.0
66.1015625,-30.2734375,-34.66796875,-30.2734375,-39.55078125,9.765625,0.0
66.10546875,-41.015625,-40.0390625,-41.015625,-43.9453125,-57.6171875,0.0
66.109375,-57.6171875,-54.6875,-46.38671875,-51.7578125,-125.0,0.0
66.11328125,-55.17578125,-55.6640625,-34.66796875,-54.6875,-183.10546875,0.0
66.1171875,-35.15625,-34.1796875,-19.53125,-45.41015625,-154.296875,0.0
66.12109375,-2.44140625,1.953125,11.23046875,-18.06640625,-76.171875,0.0
66.125,-2.9296875,-2.44140625,5.859375,-10.7421875,27.83203125,0.0
66.12890625,-44.921875,-49.31640625,-45.41015625,-42.48046875,41.9921875,0.0
66.1328125,-43.9453125,-55.17578125,-41.50390625,-45.8984375,-15.13671875,0.0
66.13671875,-20.5078125,-36.1328125,-13.18359375,-34.1796875,13.671875,0.0
66.140625,-15.13671875,-25.87890625,-13.18359375,-31.73828125,73.2421875,0.0
66.14453125,-29.296875,-33.69140625,-34.66796875,-41.9921875,62.5,0.0
66.1484375,-41.015625,-40.0390625,-41.50390625,-41.50390625,-9.27734375,0.0
66.15234375,-24.90234375,-31.25,-9.27734375,-22.94921875,-80.078125,0.0
66.15625,-20.99609375,-28.80859375,-1.953125,-28.80859375,-41.50390625,0.0
66.16015625,-23.92578125,-33.203125,-19.04296875,-39.55078125,-27.34375,0.0
66.1640625,-23.4375,-30.2734375,-24.90234375,-34.1796875,-49.8046875,0.0
66.16796875,-23.92578125,-23.4375,-11.71875,-25.87890625,-73.73046875,0.0
66.171875,-45.41015625,-49.31640625,-33.203125,-49.31640625,-146.484375,0.0
66.17578125,-43.9453125,-53.22265625,-36.1328125,-56.15234375,-132.8125,0.0
66.1796875,-15.625,-28.80859375,-11.23046875,-26.3671875,-71.2890625,0.0
66.18359375,-16.6015625,-25.390625,-18.06640625,-14.16015625,11.71875,0.0
66.1875,-44.921875,-45.8984375,-48.828125,-34.66796875,44.921875,0.0
66.19140625,-55.17578125,-59.5703125,-51.7578125,-43.9453125,-88.8671875,0.0
66.1953125,-40.52734375,-51.26953125,-27.34375,-40.0390625,-118.65234375,0.0
66.19921875,-24.90234375,-34.66796875,-17.08984375,-37.59765625,7.8125,0.0
66.203125,-32.2265625,-35.15625,-34.66796875,-40.52734375,35.64453125,0.0
66.20703125,-50.78125,-51.7578125,-52.734375,-51.26953125,-12.20703125,0.0
66.2109375,-54.19921875,-53.7109375,-40.0390625,-47.8515625,-118.1640625,0.0
66.21484375,-41.015625,-42.48046875,-28.80859375,-42.96875,-124.0234375,0.0
66.21875,-26.85546875,-40.0390625,-27.34375,-38.0859375,-20.99609375,0.0
66.22265625,-25.87890625,-39.55078125,-30.2734375,-31.73828125,-14.6484375,0.0
66.2265625,-13.671875,-22.4609375,-9.765625,-14.6484375,-24.4140625,0.0
66.23046875,-21.97265625,-34.1796875,-14.6484375,-27.83203125,-8.7890625,0.0
66.234375,-39.55078125,-55.6640625,-34.66796875,-54.19921875,-41.9921875,0.0
66.23828125,-24.90234375,-39.0625,-21.484375,-44.921875,-13.671875,0.0
66.2421875,-10.25390625,-21.484375,-11.71875,-26.85546875,45.8984375,0.0
66.24609375,-38.0859375,-39.0625,-40.0390625,-43.45703125,32.71484375,0.0
66.25,-63.96484375,-58.10546875,-58.10546875,-60.546875,32.2265625,0.0
66.25390625,-45.41015625,-48.828125,-24.90234375,-43.9453125,2.44140625,0.0
66.2578125,-18.06640625,-21.484375,13.18359375,-25.87890625,22.94921875,0.0
66.26171875,-20.99609375,-19.53125,-8.7890625,-29.78515625,37.109375,0.0
66.265625,-40.0390625,-45.41015625,-43.45703125,-39.55078125,-93.75,0.0
66.26953125,-40.0390625,-49.31640625,-37.109375,-38.57421875,-166.015625,0.0
66.2734375,-11.23046875,-22.4609375,2.44140625,-17.578125,-86.9140625,0.0
66.27734375,-14.16015625,-24.4140625,-8.30078125,-30.76171875,-55.6640625,0.0
66.28125,-25.87890625,-27.83203125,-26.3671875,-41.015625,55.17578125,0.0
66.28515625,-31.73828125,-27.34375,-29.296875,-32.71484375,64.453125,0.0
66.2890625,-48.828125,-41.9921875,-40.0390625,-41.015625,-5.859375,0.0
66.29296875,-51.26953125,-53.22265625,-41.50390625,-53.22265625,-56.15234375,0.0
66.296875,-31.25,-42.96875,-22.4609375,-45.41015625,-56.15234375,0.0
66.30078125,-18.06640625,-31.73828125,-18.5546875,-36.62109375,-71.2890625,0.0
66.3046875,-28.80859375,-34.1796875,-32.71484375,-37.59765625,-63.4765625,0.0
66.30859375,-47.8515625,-49.8046875,-45.41015625,-45.41015625,-33.203125,0.0
66.3125,-44.43359375,-55.6640625,-44.43359375,-41.015625,-102.5390625,0.0
66.31640625,-8.30078125,-19.04296875,1.46484375,-13.671875,-120.1171875,0.0
