timestamp,TP9,AF7,AF8,TP10,AUX,Marker,
252.00390625,-33.69140625,-39.0625,-32.2265625,-24.90234375,-22.94921875,0.0
252.0078125,-38.57421875,-31.73828125,-27.83203125,-17.08984375,-82.51953125,0.0
252.01171875,-33.69140625,-27.34375,-28.3203125,-32.2265625,-172.36328125,0.0
252.015625,-34.1796875,-32.71484375,-32.2265625,-56.640625,-256.34765625,0.0
252.01953125,-26.85546875,-32.71484375,-31.73828125,-56.15234375,-231.4453125,0.0
252.0234375,-14.6484375,-24.4140625,-31.25,-48.33984375,-141.11328125,0.0
252.02734375,-41.015625,-25.390625,-30.76171875,-45.41015625,-84.47265625,0.0
252.03125,-54.19921875,-34.66796875,-33.69140625,-48.33984375,-83.0078125,0.0
252.03515625,-39.55078125,-38.0859375,-34.66796875,-51.26953125,-167.48046875,0.0
252.0390625,-36.62109375,-27.83203125,-26.85546875,-50.29296875,-116.2109375,0.0
252.04296875,-15.625,-21.484375,-20.99609375,-37.59765625,-124.0234375,0.0
252.046875,-26.85546875,-32.2265625,-33.203125,-52.24609375,-148.92578125,0.0
252.05078125,-36.1328125,-31.25,-36.1328125,-51.26953125,-119.140625,0.0
252.0546875,-42.48046875,-25.87890625,-31.73828125,-40.52734375,-68.84765625,0.0
252.05859375,-45.41015625,-32.71484375,-30.76171875,-54.19921875,-42.48046875,0.0
252.0625,5.37109375,-34.1796875,-26.85546875,-37.59765625,-168.45703125,0.0
252.06640625,-5.37109375,-24.90234375,-30.2734375,-35.15625,-148.92578125,0.0
252.0703125,-40.52734375,-20.01953125,-25.390625,-57.12890625,161.1328125,0.0
252.07421875,-51.7578125,-29.78515625,-19.53125,-63.96484375,228.02734375,0.0
252.078125,-62.5,-36.62109375,-21.484375,-69.3359375,79.1015625,0.0
252.08203125,-37.59765625,-33.203125,-26.3671875,-61.03515625,42.48046875,0.0
252.0859375,-20.99609375,-29.78515625,-20.01953125,-54.6875,88.37890625,0.0
252.08984375,-43.45703125,-39.55078125,-16.6015625,-56.640625,78.125,0.0
252.09375,-74.21875,-52.24609375,-29.78515625,-58.59375,35.15625,0.0
252.09765625,-78.125,-50.29296875,-26.3671875,-62.98828125,40.0390625,0.0
252.1015625,-64.94140625,-44.43359375,-17.578125,-56.15234375,94.7265625,0.0
252.10546875,-66.89453125,-39.55078125,-27.34375,-56.640625,110.3515625,0.0
252.109375,-65.4296875,-40.52734375,-31.25,-59.08203125,104.98046875,0.0
252.11328125,-71.2890625,-55.17578125,-29.296875,-47.36328125,104.00390625,0.0
252.1171875,-67.87109375,-41.50390625,-29.296875,-35.64453125,63.4765625,0.0
252.12109375,-54.6875,-36.62109375,-27.83203125,-36.1328125,-17.08984375,0.0
252.125,-41.015625,-48.33984375,-26.85546875,-37.59765625,-3.90625,0.0
252.12890625,-51.26953125,-46.38671875,-22.4609375,-39.55078125,17.08984375,0.0
252.1328125,-62.5,-41.9921875,-23.92578125,-47.8515625,-26.85546875,0.0
252.13671875,-35.64453125,-39.0625,-31.73828125,-46.38671875,-56.640625,0.0
252.140625,-31.25,-43.45703125,-20.01953125,-46.875,-71.77734375,0.0
252.14453125,-59.5703125,-47.36328125,-23.92578125,-47.8515625,-56.15234375,0.0
252.1484375,-62.98828125,-43.9453125,-22.4609375,-45.41015625,-51.26953125,0.0
252.15234375,-42.48046875,-50.29296875,-9.765625,-32.2265625,-46.875,0.0
252.15625,-36.1328125,-52.734375,-25.390625,-21.97265625,24.90234375,0.0
252.16015625,-30.76171875,-50.78125,-17.578125,-36.1328125,-72.265625,0.0
252.1640625,-31.25,-59.08203125,-6.34765625,-60.546875,-203.61328125,0.0
252.16796875,-40.0390625,-41.015625,-32.2265625,-37.59765625,-209.9609375,0.0
252.171875,-11.71875,-18.06640625,-41.015625,-2.44140625,-190.91796875,0.0
252.17578125,0.9765625,-21.97265625,-16.11328125,-7.32421875,-36.1328125,0.0
252.1796875,-12.6953125,-30.76171875,-9.765625,-6.8359375,-6.8359375,0.0
252.18359375,-6.8359375,-40.52734375,-12.20703125,-4.8828125,-44.921875,0.0
252.1875,-20.99609375,-40.0390625,-9.27734375,0.48828125,-58.10546875,0.0
252.19140625,-52.24609375,-49.8046875,-11.23046875,-8.30078125,1.46484375,0.0
252.1953125,-59.08203125,-51.26953125,-12.6953125,-8.7890625,106.93359375,0.0
252.19921875,-54.19921875,-47.36328125,-16.11328125,-2.44140625,62.98828125,0.0
252.203125,-38.57421875,-48.33984375,-14.6484375,0.0,32.2265625,0.0
252.20703125,-41.50390625,-45.8984375,-17.578125,-3.41796875,35.64453125,0.0
252.2109375,-51.7578125,-40.0390625,-20.01953125,-23.92578125,38.0859375,0.0
252.21484375,-38.0859375,-44.921875,-17.578125,-30.2734375,145.5078125,0.0
252.21875,-16.11328125,-38.0859375,-14.6484375,-18.06640625,94.7265625,0.0
252.22265625,-20.99609375,-28.80859375,-13.671875,-16.6015625,-18.06640625,0.0
252.2265625,-35.15625,-39.55078125,-17.08984375,-26.85546875,-0.9765625,0.0
252.23046875,-40.52734375,-45.41015625,-15.13671875,-37.59765625,18.06640625,0.0
252.234375,-42.96875,-43.45703125,-18.06640625,-45.8984375,0.9765625,0.0
252.23828125,-41.015625,-43.45703125,-13.671875,-41.9921875,-32.71484375,0.0
252.2421875,-35.64453125,-46.38671875,-12.20703125,-33.69140625,-91.796875,0.0
252.24609375,-30.2734375,-45.8984375,-27.34375,-25.390625,-184.08203125,0.0
252.25,-38.0859375,-48.33984375,-26.3671875,-18.5546875,-64.453125,0.0
252.25390625,-41.50390625,-50.78125,-18.5546875,-28.3203125,54.19921875,0.0
252.2578125,-38.0859375,-45.8984375,-12.6953125,-34.1796875,-27.83203125,0.0
252.26171875,-31.25,-41.50390625,-9.27734375,-17.08984375,-106.4453125,0.0
252.265625,-9.27734375,-40.52734375,-16.11328125,-3.41796875,-44.43359375,0.0
252.26953125,-6.8359375,-40.52734375,-24.4140625,-4.8828125,-55.17578125,0.0
252.2734375,-31.73828125,-39.0625,-21.97265625,-15.625,-149.4140625,0.0
252.27734375,-33.203125,-41.015625,-16.11328125,-8.7890625,-84.47265625,0.0
252.28125,-33.69140625,-44.43359375,-11.23046875,-2.44140625,-74.21875,0.0
252.28515625,-56.15234375,-56.15234375,-19.04296875,-20.01953125,-58.10546875,0.0
252.2890625,-38.57421875,-59.5703125,-21.484375,-19.04296875,-46.38671875,0.0
252.29296875,0.48828125,-40.0390625,-19.04296875,6.34765625,-63.96484375,0.0
252.296875,-22.4609375,-35.64453125,-22.4609375,12.20703125,-49.8046875,0.0
252.30078125,-40.52734375,-40.0390625,-22.4609375,11.23046875,-11.23046875,0.0
252.3046875,-35.64453125,-34.1796875,-18.06640625,2.9296875,24.4140625,0.0
252.30859375,-37.109375,-30.2734375,-23.92578125,-11.71875,38.0859375,0.0
252.3125,-25.390625,-33.203125,-24.4140625,-14.6484375,47.8515625,0.0
252.31640625,-23.92578125,-35.64453125,-22.4609375,-19.04296875,54.6875,0.0
252.3203125,-18.5546875,-32.71484375,-26.3671875,-21.97265625,70.80078125,0.0
252.32421875,-27.34375,-37.59765625,-24.90234375,-24.4140625,125.9765625,0.0
252.328125,-69.3359375,-35.64453125,-20.01953125,-38.57421875,132.8125,0.0
252.33203125,-72.75390625,-32.71484375,-28.80859375,-45.41015625,61.5234375,0.0
252.3359375,-47.36328125,-36.1328125,-29.296875,-46.875,40.52734375,0.0
252.33984375,-45.8984375,-33.203125,-17.08984375,-51.26953125,-7.32421875,0.0
252.34375,-43.9453125,-36.1328125,-14.16015625,-43.45703125,-115.234375,0.0
252.34765625,-32.2265625,-34.66796875,-21.97265625,-39.55078125,-170.41015625,0.0
252.3515625,-34.66796875,-25.87890625,-26.3671875,-52.24609375,-185.546875,0.0
252.35546875,-36.62109375,-32.71484375,-19.53125,-53.7109375,-185.05859375,0.0
252.359375,-35.64453125,-43.9453125,-13.671875,-62.5,-209.9609375,0.0
252.36328125,-38.57421875,-44.43359375,-16.6015625,-71.77734375,-225.09765625,0.0
252.3671875,-42.48046875,-37.59765625,-25.87890625,-68.84765625,-204.58984375,0.0
252.37109375,-49.31640625,-33.203125,-31.73828125,-76.171875,-108.88671875,0.0
252.375,-43.45703125,-40.52734375,-34.1796875,-69.3359375,-5.859375,0.0
252.37890625,-30.2734375,-46.875,-30.76171875,-58.10546875,35.15625,0.0
252.3828125,-28.80859375,-36.1328125,-28.80859375,-68.359375,45.8984375,0.0
252.38671875,-41.9921875,-31.25,-32.2265625,-60.05859375,-63.4765625,0.0
252.390625,-50.78125,-37.59765625,-31.73828125,-42.48046875,-48.828125,0.0
252.39453125,-51.7578125,-32.2265625,-28.3203125,-51.7578125,70.3125,0.0
252.3984375,-48.33984375,-20.99609375,-20.5078125,-54.6875,99.609375,0.0
252.40234375,-35.64453125,-24.90234375,-18.06640625,-41.9921875,97.65625,0.0
252.40625,-31.73828125,-47.36328125,-24.90234375,-49.8046875,-2.44140625,0.0
252.41015625,-25.87890625,-47.36328125,-30.76171875,-56.640625,-242.67578125,0.0
252.4140625,-41.50390625,-38.0859375,-25.390625,-46.875,-113.76953125,0.0
252.41796875,-26.3671875,-38.0859375,-21.484375,-37.109375,53.7109375,0.0
252.421875,-12.6953125,-29.296875,-38.0859375,-23.92578125,-56.15234375,0.0
252.42578125,-48.828125,-29.78515625,-37.59765625,-32.2265625,-55.6640625,0.0
252.4296875,-61.03515625,-35.15625,-20.99609375,-45.8984375,-14.6484375,0.0
252.43359375,-55.17578125,-34.1796875,-20.5078125,-41.015625,-17.08984375,0.0
252.4375,-42.48046875,-31.25,-22.4609375,-40.0390625,-33.203125,0.0
252.44140625,-47.36328125,-30.2734375,-26.85546875,-52.24609375,-91.796875,0.0
252.4453125,-35.64453125,-18.5546875,-21.484375,-52.734375,-116.2109375,0.0
252.44921875,-44.921875,-22.4609375,-19.53125,-49.8046875,-126.953125,0.0
252.453125,-82.03125,-40.52734375,-28.80859375,-55.6640625,-120.1171875,0.0
252.45703125,-74.70703125,-40.0390625,-32.71484375,-47.8515625,-101.07421875,0.0
252.4609375,-50.78125,-34.1796875,-33.203125,-34.66796875,-86.42578125,0.0
252.46484375,-45.8984375,-37.109375,-34.66796875,-34.66796875,-85.44921875,0.0
252.46875,-61.5234375,-42.48046875,-35.64453125,-39.0625,-76.171875,0.0
252.47265625,-64.94140625,-39.55078125,-33.69140625,-42.48046875,-18.06640625,0.0
252.4765625,-58.59375,-31.73828125,-33.203125,-41.015625,47.36328125,0.0
252.48046875,-55.17578125,-33.203125,-35.15625,-43.45703125,45.41015625,0.0
252.484375,-33.203125,-29.296875,-36.1328125,-37.109375,18.5546875,0.0
252.48828125,-23.92578125,-23.92578125,-35.15625,-39.55078125,13.671875,0.0
252.4921875,-14.16015625,-17.578125,-35.64453125,-47.36328125,-28.80859375,0.0
252.49609375,-7.32421875,-30.2734375,-43.45703125,-46.38671875,-16.11328125,0.0
252.5,-37.109375,-41.015625,-46.875,-46.875,39.55078125,0.0
252.50390625,-47.36328125,-32.71484375,-35.15625,-48.828125,-7.8125,0.0
252.5078125,-27.34375,-24.4140625,-26.3671875,-28.3203125,12.20703125,0.0
252.51171875,-13.671875,-25.87890625,-34.1796875,-19.53125,19.04296875,0.0
252.515625,-14.6484375,-32.71484375,-42.96875,-20.01953125,24.4140625,0.0
252.51953125,-8.30078125,-36.1328125,-39.0625,-16.11328125,100.09765625,0.0
252.5234375,-6.8359375,-34.1796875,-36.62109375,-20.99609375,34.1796875,0.0
252.52734375,-16.6015625,-33.203125,-39.55078125,-17.08984375,-85.44921875,0.0
252.53125,-28.80859375,-30.2734375,-39.55078125,-14.16015625,-43.9453125,0.0
252.53515625,-36.62109375,-30.76171875,-36.62109375,-11.71875,87.40234375,0.0
252.5390625,-37.109375,-28.80859375,-36.62109375,-14.6484375,56.640625,0.0
252.54296875,-21.484375,-26.85546875,-33.69140625,-11.71875,6.34765625,0.0
252.546875,-13.18359375,-33.69140625,-35.15625,0.0,3.41796875,0.0
252.55078125,-4.39453125,-23.92578125,-30.76171875,1.46484375,-17.578125,0.0
252.5546875,-4.39453125,-18.5546875,-25.390625,-4.39453125,19.04296875,0.0
252.55859375,-15.625,-36.1328125,-34.66796875,-7.32421875,63.4765625,0.0
252.5625,-21.97265625,-37.59765625,-37.59765625,-12.6953125,53.7109375,0.0
252.56640625,-41.50390625,-35.64453125,-35.15625,-19.04296875,40.52734375,0.0
252.5703125,-44.921875,-35.15625,-34.66796875,-20.99609375,25.390625,0.0
252.57421875,-35.64453125,-37.109375,-33.69140625,-22.94921875,-28.3203125,0.0
252.578125,-32.71484375,-35.64453125,-28.3203125,-21.484375,-43.45703125,0.0
252.58203125,-26.85546875,-30.76171875,-26.3671875,-15.13671875,-18.06640625,0.0
252.5859375,-12.6953125,-27.34375,-30.2734375,-8.30078125,6.34765625,0.0
252.58984375,-19.53125,-32.2265625,-38.0859375,-14.16015625,6.34765625,0.0
252.59375,-31.25,-35.64453125,-40.52734375,-24.4140625,-15.13671875,0.0
252.59765625,-38.57421875,-31.25,-31.25,-20.99609375,-60.546875,0.0
252.6015625,-43.45703125,-35.15625,-38.0859375,-18.5546875,-173.828125,0.0
252.60546875,-37.109375,-37.109375,-43.9453125,-10.7421875,-266.6015625,0.0
252.609375,-41.015625,-42.96875,-37.109375,-5.37109375,-182.12890625,0.0
252.61328125,-32.2265625,-46.38671875,-35.15625,0.48828125,-44.43359375,0.0
252.6171875,-17.578125,-35.64453125,-31.25,-2.9296875,-10.7421875,0.0
252.62109375,-8.30078125,-37.109375,-29.296875,-8.30078125,-12.20703125,0.0
252.625,-18.06640625,-41.015625,-31.25,-0.9765625,-35.64453125,0.0
252.62890625,-41.015625,-39.0625,-34.1796875,0.48828125,-166.50390625,0.0
252.6328125,-34.1796875,-32.2265625,-34.66796875,-7.32421875,-225.09765625,0.0
252.63671875,-6.8359375,-30.2734375,-25.87890625,-1.46484375,-145.99609375,0.0
252.640625,-16.11328125,-30.2734375,-13.671875,22.94921875,-6.8359375,0.0
252.64453125,-34.1796875,-34.1796875,-16.6015625,26.85546875,76.66015625,0.0
252.6484375,-11.71875,-39.0625,-26.85546875,12.20703125,29.78515625,0.0
252.65234375,-4.8828125,-40.52734375,-31.25,-5.37109375,-0.48828125,0.0
252.65625,-45.8984375,-38.0859375,-33.203125,-21.97265625,12.20703125,0.0
252.66015625,-47.8515625,-30.2734375,-29.296875,-29.78515625,-42.48046875,0.0
252.6640625,-27.83203125,-28.3203125,-25.87890625,-38.57421875,-58.10546875,0.0
252.66796875,-14.6484375,-30.76171875,-21.97265625,-41.50390625,-50.29296875,0.0
252.671875,-20.01953125,-33.69140625,-20.5078125,-36.62109375,-20.99609375,0.0
252.67578125,-32.71484375,-36.1328125,-29.296875,-43.9453125,-13.18359375,0.0
252.6796875,-22.4609375,-31.73828125,-35.64453125,-54.19921875,-52.24609375,0.0
252.68359375,-27.34375,-31.73828125,-28.80859375,-41.50390625,-75.68359375,0.0
252.6875,-40.52734375,-43.9453125,-23.92578125,-34.1796875,-43.9453125,0.0
252.69140625,-36.1328125,-49.8046875,-33.69140625,-46.38671875,-17.578125,0.0
252.6953125,-36.62109375,-41.015625,-36.1328125,-53.22265625,-41.50390625,0.0
252.69921875,-31.25,-35.64453125,-31.73828125,-41.9921875,-79.1015625,0.0
252.703125,-8.30078125,-41.9921875,-33.203125,-41.015625,-77.63671875,0.0
252.70703125,-30.2734375,-44.43359375,-38.0859375,-57.6171875,-70.80078125,0.0
252.7109375,-37.59765625,-29.78515625,-39.0625,-41.50390625,-0.9765625,0.0
252.71484375,-8.7890625,-28.3203125,-35.64453125,-28.3203125,31.25,0.0
252.71875,-24.4140625,-25.87890625,-30.76171875,-49.31640625,-26.85546875,0.0
252.72265625,-38.57421875,-25.390625,-28.3203125,-46.875,-71.77734375,0.0
252.7265625,-29.78515625,-28.80859375,-27.83203125,-28.80859375,-34.66796875,0.0
252.73046875,-27.34375,-24.90234375,-26.3671875,-38.57421875,-6.34765625,0.0
252.734375,-22.4609375,-32.2265625,-27.83203125,-37.59765625,2.44140625,0.0
252.73828125,-19.53125,-41.9921875,-23.92578125,-31.73828125,15.625,0.0
252.7421875,-32.2265625,-34.66796875,-25.390625,-23.92578125,3.90625,0.0
252.74609375,-61.03515625,-42.96875,-34.1796875,-27.34375,28.3203125,0.0
252.75,-54.19921875,-48.828125,-39.55078125,-29.78515625,-15.13671875,0.0
252.75390625,-48.33984375,-37.59765625,-40.52734375,-24.4140625,-23.92578125,0.0
252.7578125,-48.33984375,-33.203125,-33.69140625,-27.83203125,44.921875,0.0
252.76171875,-29.296875,-30.2734375,-30.2734375,-23.92578125,43.9453125,0.0
252.765625,-17.578125,-33.203125,-32.2265625,-27.83203125,-28.80859375,0.0
252.76953125,-25.87890625,-35.15625,-34.1796875,-35.15625,-40.0390625,0.0
252.7734375,-43.9453125,-24.90234375,-29.296875,-27.83203125,10.25390625,0.0
252.77734375,-52.24609375,-20.99609375,-22.4609375,-19.04296875,-2.9296875,0.0
252.78125,-37.59765625,-34.1796875,-24.4140625,-20.5078125,-56.15234375,0.0
252.78515625,-22.4609375,-39.55078125,-31.73828125,-24.90234375,-26.85546875,0.0
252.7890625,-10.25390625,-31.73828125,-31.73828125,-21.97265625,-55.6640625,0.0
252.79296875,5.859375,-31.73828125,-29.296875,-11.23046875,-49.8046875,0.0
252.796875,-19.04296875,-37.109375,-29.296875,-14.16015625,-47.8515625,0.0
252.80078125,-35.64453125,-35.64453125,-37.109375,-14.6484375,-82.51953125,0.0
252.8046875,-19.53125,-25.390625,-39.55078125,-6.34765625,44.921875,0.0
252.80859375,-25.390625,-28.80859375,-33.69140625,-6.8359375,89.35546875,0.0
252.8125,-29.296875,-38.0859375,-36.62109375,-16.6015625,-92.7734375,0.0
252.81640625,-33.69140625,-36.1328125,-39.55078125,-15.13671875,-155.76171875,0.0
252.8203125,-31.73828125,-31.73828125,-32.71484375,1.46484375,-52.734375,0.0
252.82421875,-25.390625,-41.50390625,-35.15625,-1.46484375,-23.4375,0.0
252.828125,-24.4140625,-49.8046875,-39.55078125,-18.06640625,-3.90625,0.0
252.83203125,-44.921875,-43.45703125,-31.73828125,-9.27734375,11.71875,0.0
252.8359375,-55.6640625,-42.48046875,-30.2734375,-8.30078125,25.390625,0.0
252.83984375,-51.26953125,-44.921875,-37.109375,-25.87890625,52.24609375,0.0
252.84375,-52.734375,-43.45703125,-40.0390625,-24.4140625,9.765625,0.0
252.84765625,-49.31640625,-43.9453125,-36.1328125,-15.13671875,21.484375,0.0
252.8515625,-50.78125,-42.48046875,-35.64453125,-20.5078125,19.04296875,0.0
252.85546875,-49.8046875,-36.62109375,-36.1328125,-23.4375,-51.26953125,0.0
252.859375,-36.62109375,-39.0625,-33.69140625,-14.16015625,-26.3671875,0.0
252.86328125,-9.765625,-39.55078125,-33.69140625,-14.16015625,-48.828125,0.0
252.8671875,-29.296875,-36.1328125,-36.1328125,-13.18359375,-6.8359375,0.0
252.87109375,-67.3828125,-44.921875,-40.0390625,-18.06640625,12.20703125,0.0
252.875,-64.94140625,-49.8046875,-43.9453125,-32.2265625,-125.0,0.0
252.87890625,-38.57421875,-39.0625,-37.59765625,-24.90234375,-94.7265625,0.0
252.8828125,-18.5546875,-36.62109375,-36.62109375,-15.13671875,7.32421875,0.0
252.88671875,-37.109375,-39.55078125,-38.0859375,-22.94921875,20.5078125,0.0
252.890625,-55.6640625,-48.828125,-34.66796875,-35.64453125,25.87890625,0.0
252.89453125,-48.828125,-50.29296875,-33.203125,-33.69140625,18.06640625,0.0
252.8984375,-41.50390625,-37.59765625,-37.109375,-28.3203125,-19.53125,0.0
252.90234375,-48.828125,-40.52734375,-38.57421875,-31.73828125,-46.38671875,0.0
252.90625,-43.9453125,-39.55078125,-30.2734375,-27.83203125,-1.46484375,0.0
252.91015625,-30.76171875,-27.34375,-24.90234375,-20.01953125,14.16015625,0.0
252.9140625,-34.1796875,-30.76171875,-25.390625,-24.90234375,22.4609375,0.0
252.91796875,-8.7890625,-38.0859375,-28.3203125,-31.73828125,30.76171875,0.0
252.921875,-14.6484375,-45.8984375,-31.73828125,-35.15625,28.80859375,0.0
252.92578125,-34.66796875,-51.7578125,-30.76171875,-35.64453125,54.6875,0.0
252.9296875,-40.52734375,-43.9453125,-26.3671875,-48.33984375,-5.37109375,0.0
252.93359375,-47.8515625,-42.96875,-23.92578125,-53.7109375,-9.27734375,0.0
252.9375,-40.0390625,-46.38671875,-25.87890625,-45.8984375,64.94140625,0.0
252.94140625,-47.8515625,-42.96875,-22.94921875,-58.59375,12.20703125,0.0
252.9453125,-49.31640625,-40.52734375,-23.4375,-72.75390625,-14.6484375,0.0
252.94921875,-44.921875,-39.55078125,-30.2734375,-65.4296875,-20.5078125,0.0
252.953125,-24.90234375,-35.64453125,-28.3203125,-62.98828125,-79.1015625,0.0
252.95703125,-9.765625,-36.1328125,-24.4140625,-61.03515625,-156.25,0.0
252.9609375,-30.76171875,-28.3203125,-27.83203125,-56.640625,-199.70703125,0.0
252.96484375,-30.2734375,-28.3203125,-29.296875,-58.10546875,-185.05859375,0.0
252.96875,-17.08984375,-35.64453125,-22.94921875,-49.31640625,-66.40625,0.0
252.97265625,-35.64453125,-27.34375,-22.94921875,-47.36328125,13.18359375,0.0
252.9765625,-37.109375,-24.4140625,-21.484375,-46.875,8.30078125,0.0
252.98046875,-22.94921875,-28.80859375,-21.97265625,-39.0625,8.7890625,0.0
252.984375,-24.90234375,-31.25,-30.76171875,-37.109375,-27.83203125,0.0
252.98828125,-14.6484375,-36.1328125,-31.25,-31.25,-32.71484375,0.0
252.9921875,-31.73828125,-38.57421875,-30.76171875,-22.4609375,-53.7109375,0.0
252.99609375,-42.48046875,-35.64453125,-29.78515625,-18.5546875,-44.921875,0.0
253.0,-24.90234375,-39.55078125,-26.3671875,-19.53125,-49.8046875,0.0
253.00390625,-35.15625,-41.50390625,-26.3671875,-16.11328125,-49.31640625,0.0
253.0078125,-50.29296875,-30.2734375,-32.2265625,-21.97265625,-2.44140625,0.0
253.01171875,-45.41015625,-31.73828125,-33.203125,-30.76171875,38.57421875,0.0
253.015625,-33.203125,-36.62109375,-24.90234375,-15.13671875,-29.296875,0.0
253.01953125,-20.01953125,-30.76171875,-17.578125,-12.20703125,-67.3828125,0.0
253.0234375,-28.80859375,-27.83203125,-27.83203125,-29.78515625,-23.92578125,0.0
253.02734375,-34.1796875,-29.296875,-28.80859375,-21.97265625,-6.34765625,0.0
253.03125,-33.69140625,-30.76171875,-28.80859375,-20.5078125,-7.8125,0.0
253.03515625,-39.55078125,-35.64453125,-30.2734375,-19.53125,20.5078125,0.0
253.0390625,-23.92578125,-39.55078125,-34.66796875,5.37109375,-18.06640625,0.0
253.04296875,-24.90234375,-40.0390625,-37.109375,1.46484375,-85.44921875,0.0
253.046875,-48.828125,-46.38671875,-35.15625,-19.04296875,-66.40625,0.0
253.05078125,-62.01171875,-48.828125,-40.0390625,-30.76171875,-62.98828125,0.0
253.0546875,-53.22265625,-41.015625,-37.59765625,-16.11328125,-92.28515625,0.0
253.05859375,-39.0625,-37.59765625,-29.296875,1.46484375,-101.07421875,0.0
253.0625,-37.59765625,-39.0625,-32.71484375,-1.46484375,-45.8984375,0.0
253.06640625,-21.97265625,-37.59765625,-40.52734375,-1.953125,-2.9296875,0.0
253.0703125,-45.8984375,-40.52734375,-36.62109375,-11.71875,-40.52734375,0.0
253.07421875,-82.03125,-40.0390625,-37.59765625,-28.80859375,-34.66796875,0.0
253.078125,-53.7109375,-40.0390625,-36.62109375,-13.671875,17.578125,0.0
253.08203125,-28.3203125,-35.64453125,-34.66796875,10.7421875,-43.45703125,0.0
253.0859375,-34.66796875,-30.76171875,-37.109375,6.34765625,-132.8125,0.0
253.08984375,-34.1796875,-31.73828125,-40.0390625,-0.48828125,-110.83984375,0.0
253.09375,-13.18359375,-25.87890625,-36.62109375,-5.37109375,-36.62109375,0.0
253.09765625,-8.7890625,-21.484375,-37.59765625,-17.578125,12.20703125,0.0
253.1015625,-22.94921875,-20.99609375,-37.59765625,-29.296875,-83.0078125,0.0
253.10546875,-19.04296875,-23.92578125,-34.66796875,-35.64453125,-124.51171875,0.0
253.109375,-21.484375,-32.71484375,-38.0859375,-44.921875,-49.31640625,0.0
253.11328125,-24.4140625,-35.15625,-40.0390625,-47.8515625,41.9921875,0.0
253.1171875,-25.390625,-32.2265625,-35.64453125,-40.0390625,-28.80859375,0.0
253.12109375,-23.4375,-28.80859375,-29.78515625,-33.69140625,-107.91015625,0.0
253.125,-2.44140625,-27.34375,-26.85546875,-30.2734375,3.90625,0.0
253.12890625,-3.41796875,-33.69140625,-27.83203125,-35.64453125,66.40625,0.0
253.1328125,-24.4140625,-32.2265625,-26.3671875,-36.62109375,1.46484375,0.0
253.13671875,-33.203125,-35.15625,-27.34375,-28.3203125,20.99609375,0.0
253.140625,-26.85546875,-38.57421875,-31.73828125,-27.83203125,41.015625,0.0
253.14453125,-9.27734375,-34.66796875,-32.2265625,-23.92578125,36.62109375,0.0
253.1484375,-29.78515625,-24.90234375,-29.78515625,-18.06640625,9.27734375,0.0
253.15234375,-48.33984375,-23.92578125,-32.71484375,-24.90234375,24.90234375,0.0
253.15625,-33.203125,-32.2265625,-34.1796875,-26.3671875,102.05078125,0.0
253.16015625,-32.2265625,-29.78515625,-32.71484375,-19.04296875,31.73828125,0.0
253.1640625,-28.80859375,-24.4140625,-31.73828125,-17.08984375,-29.78515625,0.0
253.16796875,-40.52734375,-23.92578125,-30.76171875,-15.13671875,36.1328125,0.0
253.171875,-47.36328125,-27.34375,-32.71484375,-13.18359375,52.24609375,0.0
253.17578125,-34.66796875,-31.73828125,-35.64453125,-24.4140625,-58.10546875,0.0
253.1796875,-24.90234375,-27.83203125,-37.59765625,-28.3203125,-10.7421875,0.0
253.18359375,1.953125,-20.01953125,-39.55078125,-10.7421875,47.36328125,0.0
253.1875,14.16015625,-29.296875,-38.57421875,-9.27734375,-21.484375,0.0
253.19140625,-21.97265625,-27.83203125,-39.55078125,-21.97265625,-108.88671875,0.0
253.1953125,-40.52734375,-15.13671875,-30.2734375,-22.4609375,-179.6875,0.0
253.19921875,-16.6015625,-21.97265625,-26.85546875,-21.484375,-197.75390625,0.0
253.203125,-2.9296875,-33.203125,-40.0390625,-29.296875,-195.80078125,0.0
253.20703125,-10.25390625,-28.3203125,-43.9453125,-33.203125,-162.59765625,0.0
253.2109375,-22.4609375,-26.85546875,-47.36328125,-34.1796875,-101.07421875,0.0
253.21484375,-21.97265625,-28.3203125,-39.0625,-50.78125,-96.6796875,0.0
253.21875,-20.01953125,-27.83203125,-37.109375,-60.05859375,-153.80859375,0.0
253.22265625,-18.06640625,-30.2734375,-46.875,-58.10546875,-183.59375,0.0
253.2265625,-29.296875,-34.66796875,-42.48046875,-70.3125,-181.640625,0.0
253.23046875,-39.55078125,-30.2734375,-36.1328125,-79.1015625,-119.140625,0.0
253.234375,-35.64453125,-36.1328125,-30.2734375,-71.77734375,-124.0234375,0.0
253.23828125,-38.57421875,-41.9921875,-28.3203125,-68.359375,-166.015625,0.0
253.2421875,-43.9453125,-33.203125,-31.73828125,-68.84765625,-84.47265625,0.0
253.24609375,-44.43359375,-33.69140625,-36.62109375,-53.7109375,-19.53125,0.0
253.25,-45.8984375,-34.66796875,-39.0625,-54.6875,-43.45703125,0.0
253.25390625,-50.29296875,-33.203125,-32.2265625,-68.84765625,-60.05859375,0.0
253.2578125,-28.3203125,-26.85546875,-27.34375,-55.6640625,-24.90234375,0.0
253.26171875,-14.16015625,-27.83203125,-30.2734375,-43.45703125,25.87890625,0.0
253.265625,-39.0625,-33.69140625,-26.3671875,-43.9453125,-29.78515625,0.0
253.26953125,-33.203125,-36.62109375,-25.87890625,-49.31640625,-67.87109375,0.0
253.2734375,-27.83203125,-38.57421875,-23.4375,-45.41015625,-91.30859375,0.0
253.27734375,-16.6015625,-33.69140625,-16.11328125,-26.85546875,-101.07421875,0.0
253.28125,7.8125,-33.203125,-20.5078125,-11.23046875,-24.90234375,0.0
253.28515625,-5.37109375,-29.78515625,-27.34375,-18.5546875,7.8125,0.0
253.2890625,-20.99609375,-22.4609375,-32.2265625,-32.2265625,72.75390625,0.0
253.29296875,-27.34375,-26.85546875,-32.71484375,-31.73828125,168.9453125,0.0
253.296875,-38.57421875,-32.71484375,-31.73828125,-39.55078125,164.55078125,0.0
253.30078125,-51.7578125,-28.3203125,-25.87890625,-42.48046875,144.04296875,0.0
253.3046875,-62.5,-31.73828125,-22.4609375,-34.1796875,118.1640625,0.0
253.30859375,-54.19921875,-37.109375,-36.62109375,-38.57421875,62.01171875,0.0
253.3125,-44.921875,-33.203125,-38.0859375,-30.76171875,26.3671875,0.0
253.31640625,-38.0859375,-33.203125,-32.2265625,-20.01953125,30.2734375,0.0
253.3203125,-29.296875,-28.3203125,-31.73828125,-2.9296875,19.04296875,0.0
253.32421875,-31.73828125,-27.83203125,-30.2734375,0.0,-74.70703125,0.0
253.328125,-44.921875,-37.109375,-35.64453125,-9.765625,-80.56640625,0.0
253.33203125,-54.19921875,-40.0390625,-37.59765625,-1.953125,-42.96875,0.0
253.3359375,-50.78125,-36.62109375,-34.1796875,-5.37109375,-11.23046875,0.0
253.33984375,-50.78125,-36.1328125,-40.0390625,-28.3203125,36.62109375,0.0
253.34375,-25.87890625,-37.59765625,-36.1328125,-23.4375,-16.6015625,0.0
253.34765625,-4.8828125,-35.15625,-30.2734375,-13.18359375,71.77734375,0.0
253.3515625,-26.3671875,-24.90234375,-32.2265625,-18.06640625,86.42578125,0.0
253.35546875,-39.0625,-18.06640625,-24.4140625,-13.671875,7.32421875,0.0
253.359375,-27.83203125,-26.3671875,-23.4375,-5.859375,-20.5078125,0.0
253.36328125,-19.53125,-27.34375,-29.78515625,-11.23046875,-24.90234375,0.0
253.3671875,-15.625,-20.5078125,-36.1328125,-28.80859375,25.87890625,0.0
253.37109375,-2.44140625,-19.04296875,-38.0859375,-31.73828125,80.078125,0.0
253.375,17.08984375,-12.6953125,-39.0625,-30.76171875,21.97265625,0.0
253.37890625,2.44140625,-8.7890625,-34.66796875,-30.76171875,15.13671875,0.0
253.3828125,-15.625,-16.6015625,-30.76171875,-36.1328125,17.578125,0.0
253.38671875,-14.6484375,-24.90234375,-34.66796875,-36.62109375,36.1328125,0.0
253.390625,-12.6953125,-29.296875,-37.109375,-37.109375,43.45703125,0.0
253.39453125,-1.953125,-32.71484375,-37.59765625,-41.015625,-39.0625,0.0
253.3984375,8.7890625,-26.3671875,-33.69140625,-36.1328125,-55.17578125,0.0
253.40234375,-5.37109375,-25.390625,-34.1796875,-21.97265625,-14.6484375,0.0
253.40625,-29.296875,-40.0390625,-37.59765625,-29.296875,-10.7421875,0.0
253.41015625,-16.11328125,-36.62109375,-33.203125,-33.203125,-5.37109375,0.0
253.4140625,-16.6015625,-34.1796875,-29.296875,-23.4375,-11.71875,0.0
253.41796875,-35.15625,-41.015625,-25.87890625,-24.4140625,-29.78515625,0.0
253.421875,-35.15625,-33.203125,-22.4609375,-31.25,-23.92578125,0.0
253.42578125,-36.62109375,-32.71484375,-28.3203125,-30.76171875,-33.69140625,0.0
253.4296875,-22.94921875,-27.83203125,-30.76171875,-25.87890625,-77.63671875,0.0
253.43359375,-12.6953125,-34.66796875,-33.203125,-38.0859375,-63.4765625,0.0
253.4375,-42.48046875,-47.36328125,-40.52734375,-47.36328125,-63.4765625,0.0
253.44140625,-56.15234375,-36.62109375,-40.52734375,-41.50390625,-49.31640625,0.0
253.4453125,-41.015625,-34.1796875,-39.0625,-49.8046875,-70.3125,0.0
253.44921875,-33.203125,-41.015625,-41.015625,-60.05859375,-122.55859375,0.0
253.453125,-29.78515625,-34.1796875,-36.62109375,-65.4296875,-85.9375,0.0
253.45703125,-30.76171875,-34.1796875,-32.2265625,-56.640625,-31.25,0.0
253.4609375,-37.109375,-34.1796875,-32.71484375,-48.828125,-27.34375,0.0
253.46484375,-61.03515625,-33.203125,-33.203125,-60.546875,-18.5546875,0.0
253.46875,-53.7109375,-38.0859375,-32.71484375,-55.6640625,-31.73828125,0.0
253.47265625,-41.50390625,-39.55078125,-37.59765625,-51.26953125,-116.69921875,0.0
253.4765625,-52.24609375,-36.62109375,-41.015625,-63.96484375,-122.0703125,0.0
253.48046875,-47.36328125,-36.62109375,-34.1796875,-56.640625,-69.82421875,0.0
253.484375,-25.390625,-39.55078125,-36.62109375,-48.828125,0.48828125,0.0
253.48828125,-3.90625,-41.50390625,-42.96875,-52.24609375,2.44140625,0.0
253.4921875,-28.3203125,-39.0625,-39.0625,-49.31640625,-17.578125,0.0
253.49609375,-53.22265625,-35.64453125,-29.296875,-38.0859375,-5.37109375,0.0
253.5,-42.96875,-37.109375,-30.2734375,-33.203125,-63.96484375,0.0
253.50390625,-41.9921875,-44.43359375,-35.64453125,-43.9453125,-51.7578125,0.0
253.5078125,-36.1328125,-45.41015625,-29.296875,-41.50390625,32.71484375,0.0
253.51171875,-29.78515625,-48.828125,-29.78515625,-34.1796875,22.94921875,0.0
253.515625,-42.48046875,-49.8046875,-35.15625,-39.55078125,-60.546875,0.0
253.51953125,-40.52734375,-38.57421875,-31.25,-28.80859375,-72.265625,0.0
253.5234375,-26.85546875,-30.76171875,-29.296875,-12.6953125,-31.25,0.0
253.52734375,-35.15625,-39.55078125,-34.66796875,-3.41796875,-22.94921875,0.0
253.53125,-41.015625,-49.8046875,-30.2734375,-11.23046875,-20.01953125,0.0
253.53515625,-45.41015625,-42.48046875,-32.71484375,-36.62109375,-42.48046875,0.0
253.5390625,-48.33984375,-39.0625,-34.1796875,-33.203125,-104.00390625,0.0
253.54296875,-25.87890625,-40.0390625,-36.1328125,-11.71875,-57.6171875,0.0
253.546875,-1.46484375,-35.15625,-39.55078125,-4.8828125,-24.4140625,0.0
253.55078125,-14.6484375,-35.15625,-41.015625,-32.2265625,-106.4453125,0.0
253.5546875,-46.38671875,-31.73828125,-37.109375,-43.45703125,-195.3125,0.0
253.55859375,-57.12890625,-33.203125,-31.25,-19.04296875,-175.29296875,0.0
253.5625,-52.734375,-46.875,-35.15625,-21.97265625,-38.0859375,0.0
253.56640625,-51.26953125,-45.8984375,-33.203125,-50.78125,5.37109375,0.0
253.5703125,-69.82421875,-30.76171875,-30.76171875,-47.36328125,-55.6640625,0.0
253.57421875,-76.171875,-38.57421875,-31.25,-30.2734375,-20.99609375,0.0
253.578125,-53.7109375,-50.78125,-34.66796875,-34.1796875,12.6953125,0.0
253.58203125,-41.50390625,-45.8984375,-36.1328125,-29.78515625,-80.078125,0.0
253.5859375,-48.828125,-38.0859375,-33.69140625,-22.4609375,-48.33984375,0.0
253.58984375,-43.9453125,-39.0625,-31.73828125,-24.4140625,34.1796875,0.0
253.59375,-19.53125,-37.109375,-29.296875,-11.23046875,-21.97265625,0.0
253.59765625,-15.13671875,-31.25,-27.34375,-6.8359375,-25.390625,0.0
253.6015625,-30.2734375,-32.2265625,-26.85546875,-30.76171875,6.8359375,0.0
253.60546875,-41.50390625,-32.71484375,-26.3671875,-39.55078125,-71.2890625,0.0
253.609375,-56.640625,-30.76171875,-25.87890625,-34.1796875,-85.44921875,0.0
253.61328125,-48.828125,-35.15625,-26.85546875,-40.52734375,2.44140625,0.0
253.6171875,-30.2734375,-29.78515625,-23.92578125,-51.7578125,-2.9296875,0.0
253.62109375,-47.8515625,-24.90234375,-22.4609375,-50.78125,18.5546875,0.0
253.625,-57.12890625,-28.3203125,-31.25,-49.31640625,48.828125,0.0
253.62890625,-48.33984375,-35.15625,-36.62109375,-54.6875,21.97265625,0.0
253.6328125,-33.69140625,-35.64453125,-32.2265625,-52.24609375,78.61328125,0.0
253.63671875,-19.53125,-31.73828125,-29.296875,-45.41015625,94.23828125,0.0
253.640625,-29.78515625,-35.64453125,-25.390625,-40.0390625,43.9453125,0.0
253.64453125,-48.828125,-36.62109375,-23.92578125,-45.41015625,-10.7421875,0.0
253.6484375,-48.828125,-33.69140625,-27.34375,-43.9453125,-63.96484375,0.0
253.65234375,-44.43359375,-36.62109375,-25.390625,-40.0390625,-74.21875,0.0
253.65625,-51.7578125,-31.73828125,-25.390625,-45.8984375,-73.73046875,0.0
253.66015625,-20.5078125,-21.484375,-29.78515625,-42.48046875,-56.640625,0.0
253.6640625,-15.625,-21.97265625,-32.71484375,-34.66796875,22.94921875,0.0
253.66796875,-58.59375,-28.80859375,-33.203125,-31.73828125,51.7578125,0.0
253.671875,-55.6640625,-34.1796875,-27.34375,-15.13671875,-16.11328125,0.0
253.67578125,-40.0390625,-37.59765625,-26.3671875,-17.578125,-77.1484375,0.0
253.6796875,-45.41015625,-31.73828125,-27.83203125,-26.3671875,-119.62890625,0.0
253.68359375,-45.8984375,-30.2734375,-25.87890625,-24.90234375,-50.29296875,0.0
253.6875,-42.96875,-32.2265625,-24.4140625,-27.34375,41.015625,0.0
253.69140625,-40.52734375,-33.203125,-27.83203125,-34.1796875,18.06640625,0.0
253.6953125,-25.390625,-31.25,-29.296875,-26.85546875,-64.94140625,0.0
253.69921875,-30.76171875,-23.92578125,-26.85546875,-16.11328125,-14.6484375,0.0
253.703125,-56.15234375,-33.203125,-23.4375,-24.4140625,70.80078125,0.0
253.70703125,-59.08203125,-37.109375,-28.3203125,-24.90234375,48.828125,0.0
253.7109375,-39.55078125,-26.85546875,-27.34375,-8.7890625,-61.5234375,0.0
253.71484375,-42.96875,-34.66796875,-23.4375,1.46484375,-47.8515625,0.0
253.71875,-30.76171875,-29.296875,-20.5078125,3.41796875,-22.4609375,0.0
253.72265625,-20.5078125,-32.2265625,-27.83203125,-16.6015625,-69.82421875,0.0
253.7265625,-56.640625,-47.8515625,-36.1328125,-32.71484375,-15.13671875,0.0
253.73046875,-47.36328125,-41.015625,-31.25,-28.80859375,-21.97265625,0.0
253.734375,-34.66796875,-39.55078125,-32.2265625,-27.83203125,-44.43359375,0.0
253.73828125,-45.41015625,-39.0625,-30.76171875,-26.3671875,-14.6484375,0.0
253.7421875,-27.83203125,-31.73828125,-29.78515625,-24.90234375,-12.20703125,0.0
253.74609375,-34.1796875,-36.62109375,-37.59765625,-37.109375,-4.39453125,0.0
253.75,-47.36328125,-37.109375,-36.1328125,-39.55078125,-12.20703125,0.0
253.75390625,-32.2265625,-32.71484375,-30.2734375,-27.34375,0.48828125,0.0
253.7578125,-26.3671875,-26.3671875,-32.71484375,-29.296875,25.87890625,0.0
253.76171875,-20.01953125,-28.80859375,-34.1796875,-45.8984375,-94.7265625,0.0
253.765625,-18.06640625,-42.96875,-30.76171875,-47.8515625,-96.6796875,0.0
253.76953125,-24.90234375,-35.15625,-27.83203125,-39.0625,-23.92578125,0.0
253.7734375,-18.5546875,-22.94921875,-28.3203125,-41.50390625,-33.69140625,0.0
253.77734375,3.41796875,-27.34375,-28.3203125,-34.1796875,-11.71875,0.0
253.78125,0.0,-31.25,-24.90234375,-17.08984375,-12.20703125,0.0
253.78515625,-6.34765625,-30.76171875,-22.94921875,-8.7890625,-58.10546875,0.0
253.7890625,-12.6953125,-32.71484375,-22.4609375,-31.73828125,-40.0390625,0.0
253.79296875,-15.625,-31.73828125,-27.34375,-43.9453125,-10.25390625,0.0
253.796875,-22.94921875,-32.2265625,-32.2265625,-29.78515625,-58.59375,0.0
253.80078125,-35.64453125,-28.80859375,-26.85546875,-26.3671875,-160.15625,0.0
253.8046875,-14.6484375,-23.92578125,-25.390625,-36.62109375,-146.97265625,0.0
253.80859375,-10.7421875,-23.4375,-24.90234375,-41.015625,-107.91015625,0.0
253.8125,-52.734375,-32.2265625,-29.296875,-55.6640625,-62.5,0.0
253.81640625,-50.78125,-35.64453125,-33.69140625,-66.89453125,-35.15625,0.0
253.8203125,-28.80859375,-26.3671875,-31.73828125,-55.17578125,-167.96875,0.0
253.82421875,-35.15625,-19.53125,-31.73828125,-59.08203125,-182.6171875,0.0
253.828125,-35.15625,-20.01953125,-34.1796875,-64.94140625,-129.39453125,0.0
253.83203125,-43.9453125,-20.99609375,-40.0390625,-62.5,-148.92578125,0.0
253.8359375,-46.875,-24.90234375,-43.9453125,-71.2890625,-159.66796875,0.0
253.83984375,-43.45703125,-24.90234375,-33.69140625,-66.89453125,-131.8359375,0.0
253.84375,-48.33984375,-30.2734375,-26.3671875,-52.24609375,-35.15625,0.0
253.84765625,-41.50390625,-32.2265625,-32.2265625,-45.41015625,32.71484375,0.0
253.8515625,-27.34375,-24.4140625,-34.1796875,-40.52734375,5.859375,0.0
253.85546875,-24.4140625,-24.4140625,-27.83203125,-37.59765625,-36.62109375,0.0
253.859375,-13.671875,-31.25,-26.85546875,-44.43359375,-31.73828125,0.0
253.86328125,-4.8828125,-37.109375,-32.71484375,-48.828125,-12.6953125,0.0
253.8671875,-45.8984375,-36.1328125,-34.66796875,-45.8984375,21.97265625,0.0
253.87109375,-62.98828125,-35.64453125,-33.69140625,-44.43359375,73.73046875,0.0
253.875,-46.875,-35.64453125,-31.73828125,-44.43359375,13.18359375,0.0
253.87890625,-48.33984375,-33.69140625,-33.203125,-49.31640625,-27.34375,0.0
253.8828125,-43.9453125,-33.69140625,-38.57421875,-50.78125,-53.7109375,0.0
253.88671875,-33.203125,-33.203125,-40.52734375,-43.45703125,-83.984375,0.0
253.890625,-27.34375,-37.59765625,-38.0859375,-44.43359375,-10.25390625,0.0
253.89453125,-13.18359375,-38.0859375,-36.1328125,-48.33984375,-33.203125,0.0
253.8984375,-22.94921875,-23.4375,-31.73828125,-56.15234375,-93.75,0.0
253.90234375,-38.0859375,-23.4375,-22.94921875,-61.5234375,-35.64453125,0.0
253.90625,-18.5546875,-39.55078125,-29.296875,-57.12890625,42.48046875,0.0
253.91015625,-9.27734375,-39.0625,-38.57421875,-66.40625,127.44140625,0.0
253.9140625,-48.33984375,-34.66796875,-36.62109375,-54.19921875,137.6953125,0.0
253.91796875,-59.5703125,-35.64453125,-28.80859375,-35.15625,33.203125,0.0
253.921875,-39.55078125,-38.0859375,-28.3203125,-40.0390625,-27.34375,0.0
253.92578125,-42.48046875,-45.41015625,-31.25,-46.38671875,11.23046875,0.0
253.9296875,-38.57421875,-41.50390625,-33.69140625,-47.8515625,21.484375,0.0
253.93359375,-34.1796875,-36.1328125,-38.57421875,-39.55078125,-50.29296875,0.0
253.9375,-34.1796875,-42.96875,-38.57421875,-28.80859375,-50.78125,0.0
253.94140625,-19.53125,-39.55078125,-34.66796875,-29.78515625,-2.44140625,0.0
253.9453125,-27.34375,-26.85546875,-33.69140625,-42.48046875,-41.50390625,0.0
253.94921875,-41.9921875,-34.1796875,-34.1796875,-44.43359375,-105.95703125,0.0
253.953125,-34.66796875,-41.9921875,-35.15625,-29.296875,-91.796875,0.0
253.95703125,-31.25,-37.109375,-32.71484375,-22.94921875,-107.91015625,0.0
253.9609375,-37.109375,-39.0625,-32.2265625,-23.92578125,-77.63671875,0.0
253.96484375,-20.99609375,-41.9921875,-34.1796875,-20.99609375,-44.921875,0.0
253.96875,-8.30078125,-40.52734375,-36.62109375,-27.34375,-93.26171875,0.0
253.97265625,-35.64453125,-41.50390625,-35.15625,-25.87890625,-70.3125,0.0
253.9765625,-49.8046875,-44.43359375,-33.203125,-25.390625,-76.66015625,0.0
253.98046875,-41.50390625,-47.36328125,-35.15625,-28.3203125,-95.21484375,0.0
253.984375,-43.45703125,-46.875,-34.66796875,-34.1796875,-19.04296875,0.0
253.98828125,-39.55078125,-42.48046875,-29.78515625,-25.87890625,-48.33984375,0.0
253.9921875,-35.64453125,-36.1328125,-35.64453125,-14.6484375,-46.38671875,0.0
253.99609375,-41.9921875,-37.59765625,-45.8984375,-30.2734375,30.2734375,0.0
254.0,-38.0859375,-45.8984375,-41.50390625,-33.69140625,35.64453125,0.0
254.00390625,-38.0859375,-46.38671875,-38.0859375,-35.15625,12.6953125,0.0
254.0078125,-42.48046875,-42.48046875,-38.57421875,-32.71484375,-62.01171875,0.0
254.01171875,-29.296875,-43.45703125,-37.109375,-27.83203125,-125.0,0.0
254.015625,-28.3203125,-45.41015625,-34.1796875,-25.390625,-155.2734375,0.0
254.01953125,-23.4375,-43.45703125,-34.1796875,-11.71875,-111.81640625,0.0
254.0234375,-27.34375,-40.52734375,-36.1328125,-12.20703125,-51.26953125,0.0
254.02734375,-52.24609375,-44.43359375,-37.109375,-24.4140625,-73.2421875,0.0
254.03125,-35.15625,-45.8984375,-35.64453125,-24.4140625,-90.33203125,0.0
254.03515625,-31.73828125,-38.0859375,-30.76171875,-25.87890625,-40.0390625,0.0
254.0390625,-34.1796875,-35.64453125,-35.64453125,-39.55078125,19.53125,0.0
254.04296875,-25.87890625,-42.96875,-41.015625,-47.8515625,16.11328125,0.0
254.046875,-44.921875,-53.22265625,-42.48046875,-57.12890625,17.578125,0.0
254.05078125,-41.015625,-45.8984375,-43.45703125,-54.6875,42.48046875,0.0
254.0546875,-38.0859375,-33.203125,-35.64453125,-42.48046875,60.546875,0.0
254.05859375,-39.0625,-36.62109375,-27.83203125,-40.52734375,47.36328125,0.0
254.0625,-21.97265625,-36.62109375,-32.2265625,-43.45703125,56.640625,0.0
254.06640625,-40.0390625,-37.109375,-35.64453125,-47.36328125,70.3125,0.0
254.0703125,-57.6171875,-42.96875,-36.62109375,-52.24609375,46.38671875,0.0
254.07421875,-55.6640625,-42.48046875,-36.62109375,-39.55078125,21.484375,0.0
254.078125,-47.8515625,-36.1328125,-34.66796875,-25.87890625,24.4140625,0.0
254.08203125,-43.9453125,-33.69140625,-34.66796875,-34.66796875,-70.3125,0.0
254.0859375,-51.7578125,-28.80859375,-38.0859375,-45.8984375,-96.19140625,0.0
254.08984375,-41.50390625,-33.203125,-42.96875,-55.6640625,-25.87890625,0.0
254.09375,-39.55078125,-42.96875,-45.8984375,-55.6640625,-26.85546875,0.0
254.09765625,-46.875,-42.48046875,-48.828125,-40.0390625,-39.55078125,0.0
254.1015625,-35.15625,-33.203125,-47.8515625,-37.59765625,7.32421875,0.0
254.10546875,-41.9921875,-36.62109375,-41.50390625,-56.640625,99.609375,0.0
254.109375,-55.17578125,-38.57421875,-37.109375,-62.01171875,77.1484375,0.0
254.11328125,-54.19921875,-39.55078125,-32.2265625,-54.6875,-19.53125,0.0
254.1171875,-45.8984375,-37.59765625,-27.83203125,-54.19921875,-22.4609375,0.0
254.12109375,-25.390625,-28.3203125,-25.390625,-53.22265625,-6.34765625,0.0
254.125,-23.4375,-27.34375,-26.85546875,-56.15234375,-24.90234375,0.0
254.12890625,-47.36328125,-28.80859375,-30.2734375,-60.546875,-83.49609375,0.0
254.1328125,-46.38671875,-21.97265625,-31.73828125,-51.26953125,-79.58984375,0.0
254.13671875,-33.203125,-24.4140625,-31.25,-44.43359375,-9.27734375,0.0
254.140625,-31.73828125,-30.76171875,-31.73828125,-41.9921875,-11.71875,0.0
254.14453125,-37.59765625,-31.73828125,-32.71484375,-45.41015625,-7.8125,0.0
254.1484375,-46.875,-27.34375,-33.69140625,-53.22265625,-96.6796875,0.0
254.15234375,-20.01953125,-28.80859375,-32.2265625,-39.55078125,-183.59375,0.0
254.15625,-15.13671875,-34.1796875,-30.76171875,-33.203125,-166.015625,0.0
254.16015625,-47.8515625,-34.1796875,-34.66796875,-45.8984375,-126.46484375,0.0
254.1640625,-51.7578125,-28.80859375,-34.1796875,-46.875,-131.34765625,0.0
254.16796875,-29.78515625,-29.78515625,-29.296875,-34.1796875,-163.57421875,0.0
254.171875,0.9765625,-31.73828125,-32.2265625,-11.23046875,-135.7421875,0.0
254.17578125,-17.08984375,-21.484375,-30.2734375,-21.97265625,-16.11328125,0.0
254.1796875,-62.98828125,-13.18359375,-27.34375,-57.12890625,0.48828125,0.0
254.18359375,-57.6171875,-23.92578125,-28.3203125,-49.31640625,-53.7109375,0.0
254.1875,-54.6875,-34.1796875,-30.76171875,-36.1328125,-62.5,0.0
254.19140625,-49.31640625,-34.66796875,-40.52734375,-30.2734375,-30.2734375,0.0
254.1953125,-26.3671875,-31.73828125,-42.96875,-21.484375,1.46484375,0.0
254.19921875,-37.109375,-28.3203125,-40.0390625,-30.76171875,45.8984375,0.0
254.203125,-37.59765625,-26.3671875,-41.015625,-33.203125,71.77734375,0.0
254.20703125,-33.69140625,-26.3671875,-39.0625,-29.78515625,95.21484375,0.0
254.2109375,-62.5,-37.109375,-37.109375,-24.4140625,86.42578125,0.0
254.21484375,-59.08203125,-33.203125,-34.66796875,-13.18359375,29.78515625,0.0
254.21875,-33.69140625,-33.69140625,-31.73828125,-2.44140625,38.57421875,0.0
254.22265625,-9.27734375,-30.2734375,-26.3671875,5.859375,34.66796875,0.0
254.2265625,-31.25,-26.3671875,-31.25,-8.30078125,1.46484375,0.0
254.23046875,-43.9453125,-30.2734375,-30.76171875,-11.71875,68.359375,0.0
254.234375,-17.08984375,-31.73828125,-27.34375,-0.9765625,53.7109375,0.0
254.23828125,-26.3671875,-36.1328125,-31.25,4.8828125,-20.99609375,0.0
254.2421875,-34.66796875,-27.83203125,-32.71484375,1.953125,-17.08984375,0.0
254.24609375,-25.87890625,-26.3671875,-34.1796875,-8.30078125,-22.94921875,0.0
254.25,-18.5546875,-26.85546875,-35.15625,-11.23046875,-75.68359375,0.0
254.25390625,-19.53125,-31.73828125,-40.0390625,-12.6953125,-85.9375,0.0
254.2578125,-4.8828125,-30.76171875,-33.69140625,-9.765625,-38.57421875,0.0
254.26171875,2.9296875,-21.97265625,-28.3203125,-3.90625,21.484375,0.0
254.265625,-6.34765625,-28.3203125,-30.2734375,-16.6015625,7.8125,0.0
254.26953125,11.23046875,-28.80859375,-32.71484375,-22.94921875,-57.6171875,0.0
254.2734375,8.7890625,-20.99609375,-27.83203125,-7.8125,-31.25,0.0
254.27734375,-31.25,-27.34375,-24.4140625,7.32421875,19.53125,0.0
254.28125,-39.55078125,-32.2265625,-28.3203125,22.94921875,25.87890625,0.0
254.28515625,-17.08984375,-30.76171875,-34.1796875,5.859375,-19.53125,0.0
254.2890625,-23.92578125,-32.2265625,-35.15625,-10.7421875,-24.4140625,0.0
254.29296875,-41.50390625,-25.87890625,-31.25,-0.48828125,-11.23046875,0.0
254.296875,-38.0859375,-24.4140625,-35.15625,-3.41796875,-39.55078125,0.0
254.30078125,-18.5546875,-28.3203125,-38.57421875,-4.8828125,-98.14453125,0.0
254.3046875,-30.2734375,-24.4140625,-35.15625,-6.34765625,-52.24609375,0.0
254.30859375,-43.9453125,-30.2734375,-35.64453125,-15.13671875,-17.578125,0.0
254.3125,-17.08984375,-31.73828125,-38.0859375,-18.06640625,25.390625,0.0
254.31640625,-8.30078125,-18.5546875,-33.203125,-16.11328125,-58.59375,0.0
254.3203125,-10.25390625,-11.71875,-26.85546875,-14.16015625,-123.046875,0.0
254.32421875,-10.7421875,-21.97265625,-20.99609375,-5.37109375,-2.9296875,0.0
254.328125,-33.69140625,-35.64453125,-31.73828125,-10.25390625,9.765625,0.0
254.33203125,-26.3671875,-29.296875,-34.66796875,-16.11328125,-82.51953125,0.0
254.3359375,-3.90625,-21.484375,-24.90234375,-7.32421875,-72.265625,0.0
254.33984375,-7.8125,-30.76171875,-24.4140625,-22.4609375,-22.4609375,0.0
254.34375,-21.484375,-41.015625,-29.78515625,-39.55078125,-21.484375,0.0
254.34765625,-31.73828125,-35.64453125,-33.69140625,-40.0390625,-60.05859375,0.0
254.3515625,-17.578125,-28.3203125,-32.71484375,-46.875,-99.609375,0.0
254.35546875,-17.08984375,-26.3671875,-29.78515625,-42.96875,-66.89453125,0.0
254.359375,-23.92578125,-24.90234375,-28.3203125,-31.73828125,-15.625,0.0
254.36328125,-23.92578125,-20.5078125,-25.87890625,-28.80859375,31.73828125,0.0
254.3671875,-7.8125,-16.6015625,-29.296875,-31.25,44.43359375,0.0
254.37109375,12.6953125,-26.85546875,-33.69140625,-31.25,54.19921875,0.0
254.375,-4.39453125,-36.1328125,-30.76171875,-26.85546875,-21.484375,0.0
254.37890625,-30.76171875,-34.1796875,-22.4609375,-27.83203125,-69.82421875,0.0
254.3828125,-33.69140625,-28.80859375,-24.90234375,-36.1328125,-75.1953125,0.0
254.38671875,-26.3671875,-29.78515625,-32.2265625,-31.73828125,-173.33984375,0.0
254.390625,-21.97265625,-36.1328125,-29.78515625,-25.390625,-151.85546875,0.0
254.39453125,-19.53125,-33.203125,-32.2265625,-36.62109375,-67.3828125,0.0
254.3984375,-13.18359375,-27.83203125,-33.69140625,-34.1796875,-182.6171875,0.0
254.40234375,-4.8828125,-32.2265625,-31.25,-19.04296875,-243.65234375,0.0
254.40625,-8.7890625,-37.109375,-30.76171875,-18.06640625,-192.87109375,0.0
254.41015625,-33.69140625,-33.203125,-29.78515625,-13.671875,-166.50390625,0.0
254.4140625,-45.41015625,-27.34375,-28.80859375,-14.16015625,-143.5546875,0.0
254.41796875,-29.78515625,-30.76171875,-30.2734375,-18.5546875,-124.0234375,0.0
254.421875,-33.203125,-35.15625,-38.0859375,-25.390625,-104.98046875,0.0
254.42578125,-39.55078125,-39.0625,-31.73828125,-26.85546875,-79.58984375,0.0
254.4296875,-20.99609375,-45.8984375,-25.390625,-23.4375,16.11328125,0.0
254.43359375,-17.578125,-34.66796875,-24.4140625,-20.5078125,67.3828125,0.0
254.4375,-30.2734375,-26.85546875,-21.484375,-14.6484375,56.640625,0.0
254.44140625,-25.87890625,-31.73828125,-25.87890625,-29.296875,42.96875,0.0
254.4453125,-23.4375,-29.78515625,-29.296875,-34.66796875,-40.52734375,0.0
254.44921875,-20.5078125,-27.34375,-35.64453125,-22.94921875,-19.53125,0.0
254.453125,-4.8828125,-22.94921875,-32.2265625,-7.32421875,43.9453125,0.0
254.45703125,-9.27734375,-17.578125,-23.4375,10.25390625,10.7421875,0.0
254.4609375,-15.625,-12.20703125,-22.4609375,5.37109375,37.109375,0.0
254.46484375,-20.01953125,-18.06640625,-25.87890625,-8.30078125,-18.5546875,0.0
254.46875,-22.94921875,-29.296875,-31.73828125,-13.18359375,-78.125,0.0
254.47265625,-18.5546875,-21.97265625,-29.78515625,-15.13671875,-39.0625,0.0
254.4765625,-34.66796875,-20.01953125,-25.87890625,-25.390625,-28.3203125,0.0
254.48046875,-27.34375,-24.90234375,-27.34375,-32.71484375,7.32421875,0.0
254.484375,-4.39453125,-21.484375,-30.2734375,-18.06640625,-16.6015625,0.0
254.48828125,-28.80859375,-27.83203125,-30.76171875,-29.78515625,-67.87109375,0.0
254.4921875,-47.36328125,-36.62109375,-27.34375,-43.9453125,-87.890625,0.0
254.49609375,-36.62109375,-21.484375,-29.296875,-30.2734375,-120.60546875,0.0
254.5,-31.25,-23.4375,-27.83203125,-16.6015625,-104.00390625,0.0
254.50390625,-41.015625,-35.15625,-29.296875,-25.390625,-109.86328125,0.0
254.5078125,-50.29296875,-28.3203125,-37.109375,-38.57421875,-87.890625,0.0
254.51171875,-43.45703125,-33.69140625,-33.203125,-28.3203125,-70.3125,0.0
254.515625,-29.78515625,-38.0859375,-26.85546875,-14.6484375,-78.125,0.0
254.51953125,-20.01953125,-35.15625,-23.92578125,-14.6484375,31.25,0.0
254.5234375,-17.578125,-30.2734375,-22.94921875,-19.53125,75.68359375,0.0
254.52734375,-23.4375,-32.71484375,-30.76171875,-14.6484375,25.87890625,0.0
254.53125,-30.76171875,-35.64453125,-30.76171875,-15.13671875,31.25,0.0
254.53515625,-43.9453125,-33.69140625,-26.3671875,-19.04296875,-64.94140625,0.0
254.5390625,-44.921875,-29.296875,-31.25,-16.11328125,-78.61328125,0.0
254.54296875,-32.71484375,-33.69140625,-30.76171875,-21.97265625,-12.20703125,0.0
254.546875,-24.4140625,-37.59765625,-30.76171875,-31.73828125,-6.8359375,0.0
254.55078125,-17.08984375,-30.76171875,-28.3203125,-39.0625,3.41796875,0.0
254.5546875,-19.53125,-28.80859375,-25.87890625,-39.55078125,63.96484375,0.0
254.55859375,-22.94921875,-26.3671875,-28.80859375,-28.3203125,52.734375,0.0
254.5625,-26.3671875,-26.85546875,-29.78515625,-14.16015625,-7.32421875,0.0
254.56640625,-40.0390625,-38.0859375,-32.2265625,-12.20703125,5.859375,0.0
254.5703125,-42.96875,-37.59765625,-33.203125,-21.484375,-21.484375,0.0
254.57421875,-29.296875,-38.0859375,-29.78515625,-19.53125,-34.66796875,0.0
254.578125,-36.1328125,-41.015625,-27.34375,-19.53125,25.87890625,0.0
254.58203125,-43.45703125,-40.52734375,-22.94921875,-16.11328125,-18.06640625,0.0
254.5859375,-36.62109375,-44.43359375,-23.92578125,-11.23046875,-13.671875,0.0
254.58984375,-10.25390625,-43.9453125,-24.4140625,-3.90625,37.109375,0.0
254.59375,-5.859375,-35.15625,-18.5546875,-7.32421875,-0.9765625,0.0
254.59765625,-36.62109375,-33.203125,-22.94921875,-13.671875,-62.01171875,0.0
254.6015625,-62.98828125,-37.109375,-29.296875,-20.01953125,-27.83203125,0.0
254.60546875,-54.19921875,-38.0859375,-29.296875,-25.390625,1.953125,0.0
254.609375,-34.1796875,-35.15625,-24.4140625,-25.390625,-50.29296875,0.0
254.61328125,-46.38671875,-41.9921875,-28.3203125,-35.15625,-100.09765625,0.0
254.6171875,-41.9921875,-45.41015625,-33.69140625,-24.4140625,-95.703125,0.0
254.62109375,-43.9453125,-39.0625,-36.62109375,-20.5078125,-65.91796875,0.0
254.625,-43.9453125,-44.921875,-42.48046875,-35.64453125,-41.9921875,0.0
254.62890625,-34.1796875,-43.45703125,-42.48046875,-29.296875,-57.12890625,0.0
254.6328125,-33.69140625,-34.66796875,-38.0859375,-16.11328125,-7.8125,0.0
254.63671875,-30.2734375,-32.71484375,-39.0625,-10.7421875,-7.8125,0.0
254.640625,-36.62109375,-33.203125,-37.59765625,-4.39453125,-79.1015625,0.0
254.64453125,-25.390625,-35.64453125,-32.2265625,1.46484375,-88.37890625,0.0
254.6484375,-4.39453125,-32.2265625,-32.2265625,0.0,-41.015625,0.0
254.65234375,-19.04296875,-35.15625,-33.69140625,-11.23046875,-54.6875,0.0
254.65625,-25.390625,-41.015625,-28.3203125,-9.765625,-93.75,0.0
254.66015625,-20.99609375,-38.57421875,-27.83203125,-8.7890625,-17.08984375,0.0
254.6640625,-39.0625,-31.73828125,-27.83203125,-7.32421875,39.55078125,0.0
254.66796875,-46.38671875,-31.25,-29.296875,-10.7421875,-52.734375,0.0
254.671875,-32.2265625,-40.0390625,-36.62109375,-17.08984375,-82.03125,0.0
254.67578125,-15.13671875,-31.25,-32.2265625,-4.39453125,-97.65625,0.0
254.6796875,-27.34375,-26.85546875,-32.71484375,-1.46484375,-71.77734375,0.0
254.68359375,-40.52734375,-31.25,-31.73828125,-0.48828125,-25.87890625,0.0
254.6875,-38.57421875,-35.64453125,-26.3671875,-1.46484375,-50.29296875,0.0
254.69140625,-32.2265625,-31.25,-26.3671875,-15.625,-20.5078125,0.0
254.6953125,-15.13671875,-24.4140625,-25.87890625,-20.99609375,-10.7421875,0.0
254.69921875,-12.6953125,-33.203125,-31.25,-21.97265625,29.78515625,0.0
254.703125,-42.48046875,-46.875,-38.57421875,-33.69140625,95.21484375,0.0
254.70703125,-59.5703125,-47.36328125,-39.55078125,-34.66796875,31.73828125,0.0
254.7109375,-45.8984375,-39.0625,-36.1328125,-31.73828125,-53.7109375,0.0
254.71484375,-26.85546875,-33.203125,-29.78515625,-36.62109375,-23.4375,0.0
254.71875,-17.578125,-35.64453125,-31.25,-30.76171875,5.859375,0.0
254.72265625,-25.390625,-34.1796875,-26.85546875,-33.69140625,1.953125,0.0
254.7265625,-18.06640625,-28.80859375,-21.484375,-36.62109375,13.671875,0.0
254.73046875,-14.6484375,-37.109375,-30.2734375,-29.78515625,34.1796875,0.0
254.734375,-18.5546875,-38.57421875,-32.71484375,-38.0859375,79.58984375,0.0
254.73828125,-25.87890625,-28.3203125,-26.3671875,-45.8984375,69.3359375,0.0
254.7421875,-28.80859375,-20.99609375,-22.94921875,-41.50390625,18.5546875,0.0
254.74609375,-34.1796875,-31.25,-28.80859375,-41.015625,-20.01953125,0.0
254.75,-39.0625,-44.43359375,-33.203125,-52.734375,-31.73828125,0.0
254.75390625,-19.53125,-36.1328125,-28.80859375,-51.7578125,11.23046875,0.0
254.7578125,-17.08984375,-28.3203125,-24.4140625,-28.3203125,40.0390625,0.0
254.76171875,-33.203125,-31.73828125,-24.4140625,-22.94921875,-56.640625,0.0
254.765625,-31.25,-32.2265625,-26.85546875,-27.34375,-105.46875,0.0
254.76953125,-21.97265625,-34.1796875,-29.296875,-22.94921875,-42.48046875,0.0
254.7734375,-34.1796875,-34.66796875,-27.34375,-32.2265625,18.06640625,0.0
254.77734375,-39.0625,-30.2734375,-35.15625,-38.0859375,39.0625,0.0
254.78125,-35.15625,-33.69140625,-38.57421875,-26.85546875,12.20703125,0.0
254.78515625,-33.203125,-38.57421875,-36.1328125,-28.80859375,-46.875,0.0
254.7890625,-24.4140625,-32.71484375,-38.57421875,-35.64453125,1.953125,0.0
254.79296875,-38.0859375,-35.15625,-41.015625,-35.64453125,1.46484375,0.0
254.796875,-54.19921875,-43.45703125,-43.45703125,-39.55078125,-26.85546875,0.0
254.80078125,-56.15234375,-43.45703125,-39.55078125,-34.66796875,5.37109375,0.0
254.8046875,-43.45703125,-40.0390625,-35.64453125,-26.85546875,60.05859375,0.0
254.80859375,-39.55078125,-40.0390625,-40.52734375,-36.1328125,57.12890625,0.0
254.8125,-46.38671875,-39.0625,-45.8984375,-47.36328125,-66.40625,0.0
254.81640625,-35.15625,-36.1328125,-44.921875,-48.828125,-118.1640625,0.0
254.8203125,-25.390625,-34.1796875,-44.43359375,-39.55078125,-51.7578125,0.0
254.82421875,-50.29296875,-32.71484375,-41.015625,-30.76171875,-63.4765625,0.0
254.828125,-54.6875,-33.203125,-36.62109375,-34.1796875,-54.6875,0.0
254.83203125,-42.96875,-36.62109375,-40.0390625,-42.96875,-22.4609375,0.0
254.8359375,-38.57421875,-35.15625,-35.15625,-40.0390625,-66.89453125,0.0
254.83984375,-22.4609375,-40.0390625,-33.203125,-27.83203125,-101.5625,0.0
254.84375,-28.3203125,-47.36328125,-35.64453125,-21.484375,-162.109375,0.0
254.84765625,-29.78515625,-46.875,-32.2265625,-25.390625,-90.33203125,0.0
254.8515625,-29.78515625,-41.015625,-30.76171875,-32.2265625,20.99609375,0.0
254.85546875,-52.734375,-38.57421875,-28.3203125,-38.57421875,-7.8125,0.0
254.859375,-62.01171875,-41.9921875,-28.3203125,-52.734375,-7.8125,0.0
254.86328125,-53.22265625,-41.015625,-28.80859375,-58.10546875,9.765625,0.0
254.8671875,-35.15625,-39.0625,-26.85546875,-49.31640625,-35.64453125,0.0
254.87109375,-37.109375,-42.48046875,-28.3203125,-39.0625,-96.6796875,0.0
254.875,-43.45703125,-44.921875,-19.53125,-37.109375,-27.34375,0.0
254.87890625,-34.1796875,-36.62109375,-20.01953125,-34.1796875,45.41015625,0.0
254.8828125,-34.1796875,-28.80859375,-23.92578125,-39.55078125,42.96875,0.0
254.88671875,-42.96875,-34.1796875,-26.85546875,-58.59375,-11.71875,0.0
254.890625,-45.8984375,-34.1796875,-24.90234375,-49.31640625,2.9296875,0.0
254.89453125,-53.7109375,-37.109375,-19.53125,-33.69140625,37.109375,0.0
254.8984375,-56.640625,-35.64453125,-24.90234375,-41.9921875,-11.23046875,0.0
254.90234375,-36.1328125,-33.69140625,-29.296875,-42.96875,-37.59765625,0.0
254.90625,-33.69140625,-43.45703125,-30.76171875,-46.875,-60.546875,0.0
254.91015625,-37.109375,-46.875,-32.71484375,-45.41015625,-123.046875,0.0
254.9140625,-39.0625,-40.0390625,-29.78515625,-39.0625,-130.859375,0.0
254.91796875,-28.3203125,-32.71484375,-29.296875,-39.55078125,-92.7734375,0.0
254.921875,-14.16015625,-35.15625,-33.69140625,-44.43359375,-47.8515625,0.0
254.92578125,-36.1328125,-38.57421875,-30.2734375,-48.33984375,-56.15234375,0.0
254.9296875,-72.265625,-36.62109375,-29.78515625,-54.19921875,-107.421875,0.0
254.93359375,-68.84765625,-39.55078125,-32.2265625,-56.15234375,-198.73046875,0.0
254.9375,-59.5703125,-38.57421875,-31.73828125,-56.640625,-208.49609375,0.0
254.94140625,-54.6875,-31.73828125,-32.2265625,-52.734375,-157.2265625,0.0
254.9453125,-34.66796875,-42.48046875,-34.66796875,-47.36328125,-176.26953125,0.0
254.94921875,-49.8046875,-48.828125,-32.71484375,-58.59375,-208.984375,0.0
254.953125,-71.77734375,-41.9921875,-29.296875,-54.19921875,-136.71875,0.0
254.95703125,-69.82421875,-40.0390625,-33.203125,-46.875,-79.1015625,0.0
254.9609375,-63.4765625,-36.1328125,-30.76171875,-43.45703125,-149.90234375,0.0
254.96484375,-52.734375,-31.73828125,-32.2265625,-49.31640625,-15.13671875,0.0
254.96875,-48.33984375,-33.69140625,-33.203125,-56.15234375,48.828125,0.0
254.97265625,-50.29296875,-33.69140625,-26.85546875,-55.17578125,-32.71484375,0.0
254.9765625,-37.109375,-32.2265625,-25.87890625,-42.48046875,44.921875,0.0
254.98046875,-19.53125,-36.62109375,-27.34375,-38.0859375,-59.5703125,0.0
254.984375,-21.484375,-41.9921875,-32.2265625,-47.8515625,-180.17578125,0.0
254.98828125,-43.45703125,-44.43359375,-35.64453125,-44.921875,-115.234375,0.0
254.9921875,-58.10546875,-37.59765625,-35.15625,-47.8515625,-72.265625,0.0
254.99609375,-47.36328125,-37.109375,-34.66796875,-49.31640625,-40.52734375,0.0
255.0,-51.7578125,-41.9921875,-38.0859375,-51.26953125,-57.6171875,0.0
255.00390625,-51.26953125,-40.52734375,-40.0390625,-59.5703125,-80.078125,0.0
255.0078125,-20.01953125,-40.0390625,-40.52734375,-50.78125,-73.73046875,0.0
255.01171875,-25.390625,-44.43359375,-41.015625,-53.22265625,-101.07421875,0.0
255.015625,-42.48046875,-44.43359375,-36.62109375,-53.22265625,-41.50390625,0.0
255.01953125,-34.1796875,-40.0390625,-33.69140625,-42.48046875,-96.19140625,0.0
255.0234375,-30.2734375,-30.76171875,-30.2734375,-40.0390625,47.8515625,0.0
255.02734375,-32.71484375,-36.62109375,-29.296875,-32.71484375,176.7578125,0.0
255.03125,-24.4140625,-48.33984375,-29.78515625,-32.71484375,72.265625,0.0
255.03515625,-14.16015625,-44.43359375,-26.85546875,-32.2265625,33.69140625,0.0
255.0390625,-16.6015625,-41.015625,-26.85546875,-43.9453125,6.8359375,0.0
255.04296875,-27.34375,-46.875,-27.83203125,-70.3125,9.765625,0.0
255.046875,-51.7578125,-49.31640625,-32.2265625,-73.73046875,10.7421875,0.0
255.05078125,-57.6171875,-47.8515625,-34.1796875,-77.1484375,23.92578125,0.0
255.0546875,-47.8515625,-44.43359375,-28.80859375,-72.265625,47.36328125,0.0
255.05859375,-40.52734375,-42.48046875,-25.390625,-72.75390625,36.62109375,0.0
255.0625,-34.1796875,-47.8515625,-27.83203125,-81.0546875,9.765625,0.0
255.06640625,-50.29296875,-48.33984375,-31.73828125,-76.66015625,10.25390625,0.0
255.0703125,-66.89453125,-40.52734375,-24.90234375,-61.5234375,-1.953125,0.0
255.07421875,-52.24609375,-35.64453125,-18.5546875,-51.7578125,46.38671875,0.0
255.078125,-44.921875,-43.45703125,-23.4375,-53.7109375,58.10546875,0.0
255.08203125,-24.4140625,-44.43359375,-23.4375,-45.8984375,-69.82421875,0.0
255.0859375,-10.7421875,-31.73828125,-28.80859375,-54.6875,-104.98046875,0.0
255.08984375,-30.2734375,-33.203125,-37.109375,-51.26953125,-97.65625,0.0
255.09375,-43.9453125,-37.109375,-33.69140625,-33.203125,-11.23046875,0.0
255.09765625,-44.921875,-34.1796875,-26.3671875,-36.1328125,13.671875,0.0
255.1015625,-33.203125,-24.4140625,-24.4140625,-32.71484375,19.53125,0.0
255.10546875,-40.52734375,-33.69140625,-27.34375,-24.90234375,81.54296875,0.0
255.109375,-46.38671875,-41.9921875,-30.76171875,-20.99609375,80.078125,0.0
255.11328125,-16.11328125,-29.78515625,-26.3671875,-17.08984375,-56.15234375,0.0
255.1171875,3.90625,-22.94921875,-19.04296875,-10.7421875,-43.45703125,0.0
255.12109375,-32.71484375,-31.73828125,-29.78515625,-14.16015625,79.1015625,0.0
255.125,-38.57421875,-37.59765625,-31.73828125,-3.90625,33.203125,0.0
255.12890625,-12.6953125,-23.92578125,-20.5078125,-7.8125,6.8359375,0.0
255.1328125,-5.859375,-15.625,-8.7890625,-11.71875,-3.41796875,0.0
255.13671875,-4.39453125,-20.5078125,-11.71875,-3.90625,-63.96484375,0.0
255.140625,5.37109375,-22.94921875,-21.97265625,-5.37109375,-58.10546875,0.0
255.14453125,-14.16015625,-27.34375,-25.390625,-18.06640625,52.24609375,0.0
255.1484375,-31.25,-25.87890625,-25.87890625,-18.5546875,71.2890625,0.0
255.15234375,-21.484375,-20.01953125,-27.83203125,-10.25390625,-25.87890625,0.0
255.15625,-19.53125,-23.4375,-26.85546875,-11.23046875,-100.5859375,0.0
255.16015625,-21.97265625,-25.390625,-24.4140625,-6.8359375,-41.015625,0.0
255.1640625,-27.83203125,-19.04296875,-19.04296875,13.18359375,12.20703125,0.0
255.16796875,-27.83203125,-25.390625,-20.99609375,14.16015625,-26.85546875,0.0
255.171875,-20.99609375,-32.71484375,-23.92578125,2.9296875,-61.03515625,0.0
255.17578125,-17.08984375,-31.25,-20.5078125,11.23046875,-37.59765625,0.0
255.1796875,-24.4140625,-29.296875,-26.85546875,-6.34765625,12.6953125,0.0
255.18359375,-20.01953125,-32.2265625,-31.25,-14.6484375,4.8828125,0.0
255.1875,-33.203125,-29.78515625,-27.34375,-15.13671875,-126.953125,0.0
255.19140625,-50.78125,-22.94921875,-24.4140625,-18.06640625,-160.64453125,0.0
255.1953125,-31.73828125,-22.4609375,-21.97265625,1.46484375,-90.8203125,0.0
255.19921875,-22.94921875,-24.90234375,-25.390625,8.30078125,-83.49609375,0.0
255.203125,-36.62109375,-30.2734375,-24.90234375,-13.671875,-138.671875,0.0
255.20703125,-29.296875,-37.109375,-24.4140625,-25.390625,-179.19921875,0.0
255.2109375,-33.203125,-32.2265625,-27.34375,-20.01953125,-74.21875,0.0
255.21484375,-66.40625,-28.3203125,-27.83203125,-35.15625,-42.96875,0.0
255.21875,-47.8515625,-31.25,-20.5078125,-26.85546875,-104.98046875,0.0
255.22265625,-8.7890625,-28.80859375,-6.8359375,-11.23046875,-149.4140625,0.0
255.2265625,-35.15625,-36.1328125,-14.6484375,-35.15625,-110.83984375,0.0
255.23046875,-63.96484375,-40.0390625,-24.90234375,-40.0390625,-115.72265625,0.0
255.234375,-51.7578125,-38.0859375,-21.484375,-13.671875,-155.76171875,0.0
255.23828125,-44.921875,-40.52734375,-25.390625,-0.48828125,-79.1015625,0.0
255.2421875,-41.50390625,-37.109375,-26.3671875,0.48828125,-104.00390625,0.0
255.24609375,-30.76171875,-39.55078125,-26.85546875,-1.46484375,-106.93359375,0.0
255.25,-14.16015625,-43.45703125,-32.2265625,-6.8359375,-21.97265625,0.0
255.25390625,-31.25,-43.9453125,-30.2734375,-5.37109375,-50.29296875,0.0
255.2578125,-48.33984375,-34.1796875,-23.4375,7.8125,-76.171875,0.0
255.26171875,-38.0859375,-34.66796875,-24.4140625,0.48828125,-41.9921875,0.0
255.265625,-29.78515625,-47.8515625,-30.76171875,-15.625,-73.73046875,0.0
255.26953125,-33.203125,-49.8046875,-22.94921875,-9.765625,-123.046875,0.0
255.2734375,-47.36328125,-39.55078125,-29.78515625,-11.23046875,-165.52734375,0.0
255.27734375,-36.1328125,-29.78515625,-33.69140625,-7.32421875,-79.1015625,0.0
255.28125,-25.390625,-35.64453125,-26.85546875,-12.6953125,80.56640625,0.0
255.28515625,-33.69140625,-43.9453125,-32.2265625,-26.85546875,66.89453125,0.0
255.2890625,-25.87890625,-37.59765625,-35.15625,-31.73828125,3.41796875,0.0
255.29296875,-35.15625,-39.0625,-37.109375,-42.48046875,106.4453125,0.0
255.296875,-54.19921875,-39.0625,-41.015625,-41.015625,139.6484375,0.0
255.30078125,-43.45703125,-35.15625,-32.71484375,-18.5546875,160.64453125,0.0
255.3046875,-35.64453125,-31.25,-27.34375,-15.625,128.41796875,0.0
255.30859375,-26.85546875,-32.2265625,-26.3671875,-29.296875,112.79296875,0.0
255.3125,-29.296875,-33.203125,-21.484375,-30.2734375,61.5234375,0.0
255.31640625,-38.0859375,-32.71484375,-23.92578125,-39.55078125,-62.5,0.0
255.3203125,-24.90234375,-25.87890625,-20.5078125,-45.41015625,-8.30078125,0.0
255.32421875,-44.921875,-26.3671875,-20.01953125,-49.8046875,-7.32421875,0.0
255.328125,-53.22265625,-34.1796875,-29.296875,-56.15234375,-21.484375,0.0
255.33203125,-41.50390625,-35.64453125,-33.69140625,-60.05859375,-7.32421875,0.0
255.3359375,-28.3203125,-31.25,-31.25,-52.734375,-7.32421875,0.0
255.33984375,-16.11328125,-28.3203125,-32.71484375,-52.24609375,37.109375,0.0
255.34375,-32.2265625,-26.3671875,-33.69140625,-51.7578125,22.94921875,0.0
255.34765625,-33.203125,-22.94921875,-27.83203125,-50.78125,3.90625,0.0
255.3515625,-33.69140625,-20.5078125,-29.296875,-60.546875,0.9765625,0.0
255.35546875,-21.484375,-14.6484375,-25.87890625,-46.875,-39.55078125,0.0
255.359375,-11.71875,-20.01953125,-26.85546875,-49.31640625,-38.57421875,0.0
255.36328125,-23.4375,-26.85546875,-34.1796875,-61.5234375,-46.875,0.0
255.3671875,-23.4375,-20.99609375,-30.76171875,-50.78125,-44.921875,0.0
255.37109375,-24.90234375,-21.484375,-28.80859375,-47.8515625,-52.734375,0.0
255.375,-32.71484375,-19.04296875,-32.71484375,-48.828125,-64.94140625,0.0
255.37890625,-39.0625,-18.5546875,-31.25,-37.109375,-58.10546875,0.0
255.3828125,-34.66796875,-25.390625,-29.78515625,-36.1328125,-72.75390625,0.0
255.38671875,-27.34375,-21.484375,-29.78515625,-43.45703125,-76.66015625,0.0
255.390625,-47.8515625,-26.3671875,-30.2734375,-45.8984375,-96.6796875,0.0
255.39453125,-41.9921875,-36.62109375,-38.0859375,-47.36328125,-148.92578125,0.0
255.3984375,-7.8125,-21.484375,-33.203125,-44.43359375,-123.53515625,0.0
255.40234375,-20.5078125,-13.671875,-21.97265625,-34.1796875,-106.4453125,0.0
255.40625,-44.921875,-35.64453125,-29.78515625,-38.57421875,-111.328125,0.0
255.41015625,-41.9921875,-41.9921875,-38.0859375,-50.78125,-94.7265625,0.0
255.4140625,-42.96875,-31.25,-35.15625,-50.29296875,-135.25390625,0.0
255.41796875,-34.66796875,-32.2265625,-37.59765625,-47.36328125,-131.34765625,0.0
255.421875,-20.5078125,-30.2734375,-37.109375,-37.59765625,-82.51953125,0.0
255.42578125,-30.2734375,-30.76171875,-36.1328125,-30.2734375,-4.8828125,0.0
255.4296875,-41.50390625,-34.1796875,-41.50390625,-46.38671875,6.34765625,0.0
255.43359375,-49.31640625,-34.66796875,-40.0390625,-55.6640625,-32.2265625,0.0
255.4375,-64.94140625,-37.109375,-35.64453125,-48.828125,-27.83203125,0.0
255.44140625,-52.734375,-37.59765625,-37.59765625,-47.8515625,-11.71875,0.0
255.4453125,-38.57421875,-27.83203125,-35.15625,-39.55078125,-42.96875,0.0
255.44921875,-49.8046875,-29.78515625,-29.78515625,-29.296875,-76.171875,0.0
255.453125,-56.640625,-42.96875,-31.73828125,-44.43359375,-73.2421875,0.0
255.45703125,-44.921875,-41.50390625,-29.78515625,-45.8984375,2.44140625,0.0
255.4609375,-21.97265625,-34.66796875,-21.484375,-32.2265625,16.6015625,0.0
255.46484375,-30.2734375,-36.1328125,-25.390625,-38.0859375,-32.71484375,0.0
255.46875,-53.22265625,-41.50390625,-31.25,-48.828125,-40.52734375,0.0
255.47265625,-51.26953125,-45.8984375,-34.66796875,-52.734375,-19.53125,0.0
255.4765625,-42.48046875,-41.50390625,-41.9921875,-48.33984375,2.44140625,0.0
255.48046875,-41.9921875,-41.015625,-46.875,-40.0390625,-7.32421875,0.0
255.484375,-33.203125,-42.96875,-43.45703125,-35.15625,-11.23046875,0.0
255.48828125,-44.43359375,-42.48046875,-37.109375,-35.64453125,-5.37109375,0.0
255.4921875,-61.5234375,-33.69140625,-34.66796875,-43.9453125,-53.7109375,0.0
255.49609375,-50.29296875,-34.66796875,-34.1796875,-45.41015625,-56.640625,0.0
255.5,-39.0625,-41.9921875,-37.59765625,-31.25,8.30078125,0.0
255.50390625,-23.92578125,-40.52734375,-33.203125,-32.2265625,-48.828125,0.0
255.5078125,-16.6015625,-31.73828125,-33.203125,-46.875,-22.94921875,0.0
255.51171875,-39.0625,-27.83203125,-39.0625,-51.7578125,72.265625,0.0
255.515625,-56.640625,-35.15625,-32.2265625,-44.43359375,-36.62109375,0.0
255.51953125,-39.55078125,-28.3203125,-27.34375,-27.34375,-42.48046875,0.0
255.5234375,-18.5546875,-27.34375,-29.78515625,-25.87890625,-48.828125,0.0
255.52734375,-26.85546875,-37.59765625,-33.203125,-38.0859375,-70.3125,0.0
255.53125,-33.69140625,-38.57421875,-30.2734375,-35.64453125,-60.546875,0.0
255.53515625,-39.55078125,-34.66796875,-28.3203125,-30.2734375,-94.23828125,0.0
255.5390625,-47.8515625,-29.296875,-33.69140625,-34.1796875,-20.99609375,0.0
255.54296875,-42.96875,-31.73828125,-37.109375,-46.875,-8.7890625,0.0
255.546875,-38.57421875,-43.9453125,-35.64453125,-49.31640625,-23.4375,0.0
255.55078125,-34.1796875,-44.43359375,-26.85546875,-38.0859375,0.0,0.0
255.5546875,-34.66796875,-29.78515625,-22.94921875,-35.15625,-53.22265625,0.0
255.55859375,-53.22265625,-28.3203125,-29.296875,-37.59765625,-79.1015625,0.0
255.5625,-46.38671875,-38.57421875,-23.4375,-31.73828125,-132.8125,0.0
255.56640625,-39.55078125,-40.52734375,-24.90234375,-39.0625,-85.9375,0.0
255.5703125,-35.15625,-37.109375,-33.203125,-49.8046875,-30.2734375,0.0
255.57421875,-23.92578125,-30.2734375,-29.78515625,-39.55078125,-109.86328125,0.0
255.578125,-22.94921875,-38.0859375,-30.76171875,-38.0859375,-160.64453125,0.0
255.58203125,-31.25,-43.45703125,-33.203125,-34.66796875,-117.1875,0.0
255.5859375,-13.671875,-38.0859375,-30.76171875,-20.5078125,-8.7890625,0.0
255.58984375,-6.8359375,-45.8984375,-34.1796875,-25.87890625,6.34765625,0.0
255.59375,-32.71484375,-48.828125,-34.66796875,-29.296875,-62.5,0.0
255.59765625,-21.484375,-45.8984375,-27.34375,-21.97265625,-54.19921875,0.0
255.6015625,-11.71875,-45.8984375,-30.2734375,-28.3203125,-11.71875,0.0
255.60546875,-50.29296875,-48.828125,-35.64453125,-35.15625,23.92578125,0.0
255.609375,-63.4765625,-44.43359375,-35.15625,-29.296875,40.52734375,0.0
255.61328125,-49.31640625,-44.43359375,-36.62109375,-24.4140625,-8.30078125,0.0
255.6171875,-45.8984375,-43.9453125,-41.015625,-34.1796875,-14.16015625,0.0
255.62109375,-24.90234375,-40.0390625,-36.1328125,-27.34375,-22.4609375,0.0
255.625,-11.71875,-36.1328125,-29.78515625,-18.5546875,-90.33203125,0.0
255.62890625,-37.109375,-30.76171875,-33.69140625,-26.3671875,-98.6328125,0.0
255.6328125,-44.921875,-29.296875,-33.203125,-24.90234375,-38.0859375,0.0
255.63671875,-22.94921875,-27.83203125,-28.3203125,-12.6953125,17.08984375,0.0
255.640625,-22.94921875,-27.83203125,-26.85546875,-9.27734375,-15.13671875,0.0
255.64453125,-49.8046875,-29.296875,-25.390625,-34.1796875,-45.8984375,0.0
255.6484375,-57.6171875,-28.3203125,-26.3671875,-51.26953125,2.9296875,0.0
255.65234375,-63.4765625,-25.390625,-29.296875,-47.8515625,6.8359375,0.0
255.65625,-51.7578125,-26.3671875,-25.390625,-41.015625,-50.78125,0.0
255.66015625,-43.9453125,-25.390625,-19.53125,-38.57421875,-25.390625,0.0
255.6640625,-56.15234375,-19.53125,-20.01953125,-33.69140625,-41.015625,0.0
255.66796875,-35.15625,-26.3671875,-21.484375,-26.85546875,-70.80078125,0.0
255.671875,-43.45703125,-36.62109375,-26.85546875,-39.55078125,-103.515625,0.0
255.67578125,-40.0390625,-35.15625,-20.01953125,-34.66796875,-120.60546875,0.0
255.6796875,-26.85546875,-22.94921875,-15.13671875,-25.390625,-94.7265625,0.0
255.68359375,-23.92578125,-20.99609375,-18.06640625,-13.18359375,-62.5,0.0
255.6875,-35.64453125,-38.0859375,-21.484375,-8.30078125,-49.31640625,0.0
255.69140625,-21.484375,-43.45703125,-24.4140625,-13.671875,-120.1171875,0.0
255.6953125,-12.6953125,-32.71484375,-25.390625,6.34765625,-156.25,0.0
255.69921875,-27.83203125,-21.484375,-21.484375,6.34765625,-40.0390625,0.0
255.703125,-9.27734375,-18.5546875,-24.90234375,-34.66796875,15.625,0.0
255.70703125,-32.2265625,-26.3671875,-32.71484375,-60.546875,-78.125,0.0
255.7109375,-87.40234375,-27.83203125,-25.87890625,-49.8046875,-74.21875,0.0
255.71484375,-78.125,-23.4375,-24.90234375,-38.0859375,7.8125,0.0
255.71875,-50.29296875,-33.203125,-32.71484375,-38.57421875,25.87890625,0.0
255.72265625,-47.8515625,-25.87890625,-25.390625,-34.66796875,0.9765625,0.0
255.7265625,-40.0390625,-11.23046875,-20.99609375,-47.8515625,-45.41015625,0.0
255.73046875,-87.40234375,-21.97265625,-26.3671875,-51.7578125,-105.46875,0.0
255.734375,-72.75390625,-29.78515625,-24.90234375,-34.1796875,-96.19140625,0.0
255.73828125,-21.484375,-32.71484375,-29.78515625,-33.203125,-31.73828125,0.0
255.7421875,-31.73828125,-27.34375,-29.78515625,-31.25,-20.99609375,0.0
255.74609375,-47.8515625,-28.3203125,-32.2265625,-30.76171875,-30.76171875,0.0
255.75,-54.6875,-35.15625,-38.57421875,-33.69140625,-54.6875,0.0
255.75390625,-72.75390625,-39.55078125,-40.0390625,-44.43359375,-80.078125,0.0
255.7578125,-51.7578125,-32.71484375,-38.57421875,-49.31640625,-42.48046875,0.0
255.76171875,-35.15625,-21.97265625,-38.57421875,-45.41015625,-71.2890625,0.0
255.765625,-54.19921875,-26.85546875,-38.57421875,-48.33984375,-96.6796875,0.0
255.76953125,-34.66796875,-32.71484375,-37.109375,-51.26953125,-46.875,0.0
255.7734375,-41.9921875,-21.484375,-30.76171875,-49.8046875,-17.578125,0.0
255.77734375,-87.890625,-19.53125,-23.4375,-58.10546875,6.8359375,0.0
255.78125,-113.28125,-32.2265625,-33.203125,-58.59375,-32.71484375,0.0
255.78515625,-74.21875,-33.203125,-38.57421875,-55.17578125,-82.51953125,0.0
255.7890625,-29.296875,-21.484375,-33.69140625,-60.05859375,-138.671875,0.0
255.79296875,-35.64453125,-18.5546875,-32.71484375,-46.875,-110.3515625,0.0
255.796875,-39.55078125,-28.80859375,-31.25,-33.203125,-64.94140625,0.0
255.80078125,-37.109375,-30.2734375,-31.25,-23.4375,-49.8046875,0.0
255.8046875,-65.4296875,-25.390625,-29.78515625,-11.71875,-42.48046875,0.0
255.80859375,-43.9453125,-27.83203125,-29.78515625,-20.01953125,-10.7421875,0.0
255.8125,-59.08203125,-26.85546875,-30.2734375,-22.4609375,5.37109375,0.0
255.81640625,-58.10546875,-18.06640625,-25.87890625,-10.7421875,-9.765625,0.0
255.8203125,-44.921875,-20.5078125,-26.85546875,-7.8125,4.39453125,0.0
255.82421875,-41.9921875,-26.3671875,-30.2734375,-5.37109375,-128.90625,0.0
255.828125,-41.9921875,-36.1328125,-34.1796875,-16.11328125,-216.30859375,0.0
255.83203125,-66.89453125,-41.9921875,-32.71484375,-19.04296875,-201.66015625,0.0
255.8359375,-24.90234375,-25.87890625,-29.296875,-2.44140625,-194.3359375,0.0
255.83984375,-105.46875,-28.3203125,-30.2734375,1.46484375,-83.0078125,0.0
255.84375,-120.1171875,-35.64453125,-30.2734375,2.9296875,24.4140625,0.0
255.84765625,-18.5546875,-21.97265625,-24.90234375,11.23046875,65.4296875,0.0
255.8515625,-42.48046875,-18.06640625,-17.08984375,7.32421875,65.91796875,0.0
255.85546875,-60.05859375,-23.92578125,-24.4140625,-7.32421875,37.109375,0.0
255.859375,-64.453125,-25.87890625,-30.2734375,-7.32421875,22.4609375,0.0
255.86328125,-61.03515625,-26.3671875,-33.69140625,1.46484375,59.5703125,0.0
255.8671875,-73.2421875,-20.5078125,-39.0625,0.0,122.55859375,0.0
255.87109375,-87.40234375,-23.4375,-33.203125,0.48828125,61.5234375,0.0
255.875,-77.1484375,-32.71484375,-32.2265625,0.0,47.8515625,0.0
255.87890625,-71.77734375,-30.2734375,-28.3203125,6.8359375,78.125,0.0
255.8828125,-86.9140625,-29.78515625,-20.5078125,11.71875,-22.94921875,0.0
255.88671875,-69.82421875,-30.2734375,-24.90234375,-5.37109375,-76.66015625,0.0
255.890625,-63.96484375,-30.76171875,-29.78515625,-22.94921875,-12.6953125,0.0
255.89453125,-81.54296875,-31.73828125,-29.78515625,-37.109375,30.2734375,0.0
255.8984375,-71.2890625,-21.484375,-23.92578125,-39.55078125,21.97265625,0.0
255.90234375,-104.00390625,-34.66796875,-23.92578125,-44.921875,1.953125,0.0
255.90625,-112.79296875,-41.015625,-25.87890625,-32.71484375,19.53125,0.0
255.91015625,-32.2265625,-23.92578125,-23.4375,-19.53125,-1.953125,0.0
255.9140625,-52.24609375,-27.83203125,-25.87890625,-39.55078125,-63.4765625,0.0
255.91796875,-95.21484375,-34.1796875,-28.80859375,-51.26953125,-29.78515625,0.0
255.921875,-77.63671875,-43.9453125,-31.73828125,-64.453125,-35.64453125,0.0
255.92578125,-64.94140625,-52.24609375,-29.78515625,-73.2421875,-161.62109375,0.0
255.9296875,-64.453125,-43.45703125,-22.4609375,-73.2421875,-183.10546875,0.0
255.93359375,-71.77734375,-45.8984375,-26.85546875,-83.49609375,-99.12109375,0.0
255.9375,-62.98828125,-42.48046875,-26.85546875,-98.14453125,-72.75390625,0.0
255.94140625,-66.40625,-30.76171875,-17.578125,-101.07421875,-46.38671875,0.0
255.9453125,-63.96484375,-27.83203125,-20.01953125,-103.02734375,-48.33984375,0.0
255.94921875,-78.125,-34.66796875,-23.92578125,-120.1171875,-46.875,0.0
255.953125,-87.40234375,-38.57421875,-27.83203125,-129.39453125,-32.2265625,0.0
255.95703125,-76.171875,-34.1796875,-27.34375,-135.25390625,-7.32421875,0.0
255.9609375,-73.2421875,-39.0625,-26.3671875,-145.99609375,-22.94921875,0.0
255.96484375,-59.5703125,-41.9921875,-32.71484375,-144.53125,-15.13671875,0.0
255.96875,-40.0390625,-38.0859375,-30.76171875,-135.25390625,8.30078125,0.0
255.97265625,-32.71484375,-36.1328125,-23.4375,-126.953125,67.3828125,0.0
255.9765625,-38.57421875,-35.15625,-29.78515625,-140.13671875,43.9453125,0.0
255.98046875,-57.12890625,-37.109375,-42.96875,-153.80859375,8.30078125,0.0
255.984375,-77.63671875,-41.9921875,-39.0625,-156.25,-20.99609375,0.0
255.98828125,-71.2890625,-44.43359375,-38.0859375,-161.62109375,-80.078125,0.0
255.9921875,-23.4375,-34.1796875,-42.48046875,-147.4609375,-5.37109375,0.0
255.99609375,-18.5546875,-28.3203125,-37.59765625,-147.4609375,-0.48828125,0.0
256.0,-54.19921875,-27.83203125,-36.1328125,-153.80859375,-117.67578125,0.0
