timestamp,TP9,AF7,AF8,TP10,AUX,Marker,
31.00390625,-62.5,-32.71484375,-21.97265625,-34.1796875,5.37109375,0.0
31.0078125,-53.7109375,-21.97265625,-20.99609375,-43.45703125,6.34765625,0.0
31.01171875,-87.890625,-31.25,-25.87890625,-51.7578125,-44.43359375,0.0
31.015625,-80.56640625,-45.41015625,-24.4140625,-44.921875,3.41796875,0.0
31.01953125,-62.01171875,-36.1328125,-21.97265625,-38.57421875,34.1796875,0.0
31.0234375,-46.875,-26.3671875,-24.90234375,-41.015625,-34.1796875,0.0
31.02734375,-26.85546875,-25.390625,-18.5546875,-33.69140625,-77.63671875,0.0
31.03125,-43.9453125,-25.390625,-21.97265625,-40.0390625,-18.5546875,0.0
31.03515625,-69.3359375,-27.34375,-20.5078125,-46.875,-0.9765625,0.0
31.0390625,-85.44921875,-30.2734375,-16.6015625,-62.98828125,-44.43359375,0.0
31.04296875,-80.078125,-35.64453125,-22.94921875,-66.89453125,-48.828125,0.0
31.046875,-59.08203125,-36.62109375,-22.94921875,-62.01171875,-9.765625,0.0
31.05078125,-76.171875,-31.25,-20.01953125,-64.94140625,-66.40625,0.0
31.0546875,-84.47265625,-26.3671875,-14.6484375,-46.875,-75.68359375,0.0
31.05859375,-68.359375,-35.64453125,-17.578125,-51.26953125,-49.31640625,0.0
31.0625,-40.0390625,-37.109375,-21.97265625,-60.05859375,-62.5,0.0
31.06640625,-52.734375,-31.25,-20.01953125,-39.0625,-18.5546875,0.0
31.0703125,-93.26171875,-30.76171875,-18.5546875,-40.0390625,-27.34375,0.0
31.07421875,-99.609375,-41.9921875,-15.13671875,-53.7109375,-59.08203125,0.0
31.078125,-65.91796875,-49.8046875,-20.5078125,-45.8984375,-68.84765625,0.0
31.08203125,-61.03515625,-44.921875,-20.99609375,-32.71484375,-67.3828125,0.0
31.0859375,-52.734375,-36.62109375,-20.01953125,-9.765625,-57.6171875,0.0
31.08984375,-43.9453125,-39.0625,-20.5078125,-26.85546875,-1.46484375,0.0
31.09375,-63.4765625,-47.36328125,-18.5546875,-72.265625,90.8203125,0.0
31.09765625,-57.12890625,-44.921875,-14.6484375,-66.40625,7.8125,0.0
31.1015625,-92.28515625,-44.43359375,-7.8125,-51.26953125,-27.34375,0.0
31.10546875,-129.8828125,-54.19921875,-2.44140625,-47.8515625,-4.39453125,0.0
31.109375,-113.76953125,-52.24609375,-7.8125,-50.78125,-58.59375,0.0
31.11328125,-98.6328125,-55.6640625,-7.32421875,-57.6171875,-121.09375,0.0
31.1171875,-96.6796875,-58.59375,-7.8125,-53.7109375,-176.7578125,0.0
31.12109375,-91.30859375,-55.6640625,-7.32421875,-52.734375,-97.16796875,0.0
31.125,-68.359375,-57.6171875,-6.8359375,-63.4765625,-57.12890625,0.0
31.12890625,-59.08203125,-56.15234375,-7.8125,-65.91796875,-102.05078125,0.0
31.1328125,-116.69921875,-57.12890625,-13.18359375,-68.84765625,-54.6875,0.0
31.13671875,-140.13671875,-60.05859375,-13.671875,-59.08203125,-37.109375,0.0
31.140625,-100.09765625,-59.08203125,-8.7890625,-35.15625,-67.3828125,0.0
31.14453125,-93.26171875,-55.6640625,-15.13671875,-40.52734375,-63.96484375,0.0
31.1484375,-112.3046875,-57.12890625,-15.625,-41.50390625,-36.62109375,0.0
31.15234375,-98.14453125,-51.7578125,-16.11328125,-33.69140625,-39.55078125,0.0
31.15625,-67.87109375,-49.31640625,-19.04296875,-37.109375,-43.45703125,0.0
31.16015625,-74.21875,-45.8984375,-11.23046875,-45.8984375,-34.66796875,0.0
31.1640625,-85.9375,-44.43359375,-14.6484375,-53.22265625,-4.39453125,0.0
31.16796875,-88.8671875,-53.7109375,-21.97265625,-62.98828125,-9.27734375,0.0
31.171875,-50.78125,-48.828125,-20.5078125,-68.84765625,19.04296875,0.0
31.17578125,-63.4765625,-54.6875,-25.390625,-89.35546875,70.3125,0.0
31.1796875,-145.99609375,-55.17578125,-28.80859375,-104.00390625,35.15625,0.0
31.18359375,-158.203125,-50.78125,-21.97265625,-68.84765625,41.015625,0.0
31.1875,-144.04296875,-55.6640625,-21.97265625,-49.8046875,-15.13671875,0.0
31.19140625,-134.765625,-54.19921875,-31.73828125,-88.8671875,-39.0625,0.0
31.1953125,-138.18359375,-55.17578125,-31.25,-114.2578125,-17.578125,0.0
31.19921875,-166.9921875,-60.546875,-33.203125,-111.81640625,-45.41015625,0.0
31.203125,-161.1328125,-57.12890625,-32.71484375,-99.609375,-50.78125,0.0
31.20703125,-114.2578125,-48.33984375,-27.34375,-83.0078125,-32.2265625,0.0
31.2109375,-115.72265625,-53.22265625,-30.76171875,-78.125,-107.91015625,0.0
31.21484375,-169.921875,-57.12890625,-27.83203125,-73.73046875,-108.3984375,0.0
31.21875,-194.82421875,-56.640625,-20.5078125,-64.453125,-9.27734375,0.0
31.22265625,-178.7109375,-50.29296875,-16.6015625,-43.45703125,-1.953125,0.0
31.2265625,-154.78515625,-46.875,-14.6484375,-29.78515625,-27.34375,0.0
31.23046875,-153.3203125,-51.7578125,-18.5546875,-20.99609375,30.76171875,0.0
31.234375,-147.4609375,-41.9921875,-20.5078125,-31.73828125,54.19921875,0.0
31.23828125,-179.19921875,-41.9921875,-19.04296875,-64.94140625,-23.92578125,0.0
31.2421875,-196.77734375,-42.96875,-19.53125,-66.40625,-31.25,0.0
31.24609375,-166.015625,-37.109375,-20.99609375,-52.24609375,9.765625,0.0
31.25,-157.2265625,-35.15625,-21.484375,-47.36328125,-7.8125,0.0
31.25390625,-169.43359375,-41.015625,-21.97265625,-57.12890625,52.734375,0.0
31.2578125,-167.48046875,-37.109375,-26.3671875,-76.66015625,57.6171875,0.0
31.26171875,-145.5078125,-34.66796875,-25.390625,-80.56640625,-140.625,0.0
31.265625,-148.4375,-48.828125,-21.97265625,-71.77734375,-227.05078125,0.0
31.26953125,-152.34375,-46.875,-20.01953125,-75.1953125,-222.65625,0.0
31.2734375,-159.1796875,-41.9921875,-27.34375,-79.58984375,-119.140625,0.0
31.27734375,-162.109375,-47.8515625,-34.1796875,-78.125,11.23046875,0.0
31.28125,-130.859375,-41.50390625,-26.3671875,-61.03515625,-46.38671875,0.0
31.28515625,-145.01953125,-31.25,-24.4140625,-50.29296875,-109.86328125,0.0
31.2890625,-172.8515625,-24.90234375,-30.2734375,-58.10546875,-63.4765625,0.0
31.29296875,-182.12890625,-29.78515625,-29.296875,-59.5703125,-13.18359375,0.0
31.296875,-221.19140625,-55.6640625,-29.78515625,-61.03515625,-44.921875,0.0
31.30078125,-231.4453125,-60.546875,-29.296875,-68.84765625,-52.734375,0.0
31.3046875,-194.3359375,-45.8984375,-24.4140625,-71.77734375,-21.484375,0.0
31.30859375,-167.96875,-40.52734375,-26.85546875,-71.77734375,-68.359375,0.0
31.3125,-171.875,-41.9921875,-31.25,-75.1953125,-41.015625,0.0
31.31640625,-180.17578125,-41.9921875,-29.296875,-87.890625,56.15234375,0.0
31.3203125,-206.0546875,-36.62109375,-29.78515625,-102.5390625,48.828125,0.0
31.32421875,-226.07421875,-41.9921875,-30.76171875,-99.609375,-2.9296875,0.0
31.328125,-212.890625,-44.43359375,-28.80859375,-87.40234375,-77.1484375,0.0
31.33203125,-201.66015625,-41.9921875,-24.90234375,-72.265625,-29.78515625,0.0
31.3359375,-154.296875,-43.9453125,-23.92578125,-56.640625,-15.13671875,0.0
31.33984375,-140.625,-48.828125,-33.203125,-75.1953125,-15.13671875,0.0
31.34375,-133.30078125,-49.31640625,-30.2734375,-66.40625,46.875,0.0
31.34765625,-145.99609375,-44.921875,-25.390625,-57.12890625,-0.9765625,0.0
31.3515625,-160.64453125,-43.45703125,-28.80859375,-75.68359375,-13.18359375,0.0
31.35546875,-137.20703125,-41.015625,-24.4140625,-82.51953125,21.97265625,0.0
31.359375,-157.2265625,-42.48046875,-21.484375,-70.3125,-10.7421875,0.0
31.36328125,-137.6953125,-42.96875,-23.92578125,-58.59375,-82.51953125,0.0
31.3671875,-125.0,-40.0390625,-25.390625,-61.5234375,-84.47265625,0.0
31.37109375,-129.8828125,-43.9453125,-27.34375,-53.22265625,48.33984375,0.0
31.375,-97.65625,-46.38671875,-27.34375,-38.0859375,10.7421875,0.0
31.37890625,-92.7734375,-41.9921875,-22.94921875,-33.69140625,6.8359375,0.0
31.3828125,-124.0234375,-33.203125,-24.4140625,-28.3203125,5.37109375,0.0
31.38671875,-131.34765625,-36.1328125,-26.3671875,-29.296875,-114.2578125,0.0
31.390625,-132.32421875,-45.41015625,-24.4140625,-41.015625,-162.59765625,0.0
31.39453125,-101.07421875,-40.0390625,-26.85546875,-23.4375,-147.4609375,0.0
31.3984375,-64.453125,-37.109375,-32.71484375,-6.8359375,-118.1640625,0.0
31.40234375,-65.4296875,-46.875,-33.203125,-14.6484375,-137.6953125,0.0
31.40625,-87.890625,-42.96875,-36.62109375,-22.4609375,-28.3203125,0.0
31.41015625,-124.0234375,-40.0390625,-39.0625,-49.31640625,47.8515625,0.0
31.4140625,-117.67578125,-42.96875,-39.0625,-55.17578125,-14.6484375,0.0
31.41796875,-85.44921875,-39.55078125,-41.015625,-27.34375,-21.97265625,0.0
31.421875,-96.6796875,-38.57421875,-41.015625,-8.7890625,-17.08984375,0.0
31.42578125,-112.79296875,-40.0390625,-38.57421875,-20.99609375,-73.2421875,0.0
31.4296875,-88.37890625,-40.0390625,-36.1328125,-31.73828125,-77.63671875,0.0
31.43359375,-67.87109375,-41.015625,-28.3203125,-30.76171875,-23.4375,0.0
31.4375,-42.48046875,-47.8515625,-32.2265625,-25.87890625,23.4375,0.0
31.44140625,-62.5,-41.015625,-41.50390625,-20.5078125,-49.8046875,0.0
31.4453125,-97.16796875,-30.76171875,-31.73828125,-6.34765625,-33.69140625,0.0
31.44921875,-85.44921875,-31.25,-32.71484375,-5.37109375,-12.20703125,0.0
31.453125,-71.2890625,-36.62109375,-34.66796875,-5.859375,-46.38671875,0.0
31.45703125,-81.0546875,-39.55078125,-30.2734375,8.7890625,-12.20703125,0.0
31.4609375,-101.5625,-41.50390625,-33.203125,-1.46484375,-17.578125,0.0
31.46484375,-92.28515625,-43.9453125,-36.62109375,-12.6953125,-32.2265625,0.0
31.46875,-69.3359375,-40.52734375,-30.2734375,-12.20703125,-10.7421875,0.0
31.47265625,-63.96484375,-31.25,-30.2734375,-16.6015625,56.640625,0.0
31.4765625,-87.890625,-31.25,-29.296875,-17.578125,41.50390625,0.0
31.48046875,-101.5625,-34.1796875,-22.94921875,-14.16015625,-28.3203125,0.0
31.484375,-79.1015625,-29.296875,-17.08984375,-14.16015625,-0.48828125,0.0
31.48828125,-77.63671875,-27.34375,-19.53125,-14.16015625,8.7890625,0.0
31.4921875,-86.42578125,-28.80859375,-22.4609375,1.46484375,-52.24609375,0.0
31.49609375,-97.16796875,-35.64453125,-23.92578125,-8.7890625,-105.46875,0.0
31.5,-110.3515625,-32.71484375,-25.390625,-15.625,-100.5859375,0.0
31.50390625,-108.88671875,-31.25,-19.53125,4.8828125,-94.7265625,0.0
31.5078125,-108.3984375,-35.64453125,-16.6015625,-3.90625,-100.09765625,0.0
31.51171875,-120.1171875,-36.1328125,-20.99609375,-27.83203125,-105.46875,0.0
31.515625,-120.1171875,-41.015625,-25.390625,-35.15625,-77.63671875,0.0
31.51953125,-112.3046875,-43.9453125,-27.83203125,-33.203125,-7.8125,0.0
31.5234375,-117.67578125,-33.203125,-22.94921875,-27.83203125,-20.5078125,0.0
31.52734375,-104.4921875,-31.25,-22.94921875,-25.390625,-62.01171875,0.0
31.53125,-108.88671875,-43.45703125,-27.83203125,-26.85546875,-104.00390625,0.0
31.53515625,-147.4609375,-42.96875,-26.3671875,-22.94921875,16.11328125,0.0
31.5390625,-147.4609375,-34.66796875,-30.76171875,-23.4375,81.0546875,0.0
31.54296875,-128.41796875,-32.71484375,-33.69140625,-25.390625,-14.16015625,0.0
31.546875,-98.6328125,-31.25,-28.3203125,-8.7890625,-5.859375,0.0
31.55078125,-118.65234375,-36.1328125,-24.4140625,-16.11328125,-12.20703125,0.0
31.5546875,-127.9296875,-31.25,-25.87890625,-34.1796875,-22.4609375,0.0
31.55859375,-114.74609375,-25.87890625,-25.87890625,-37.59765625,17.08984375,0.0
31.5625,-112.3046875,-31.73828125,-22.94921875,-43.9453125,-14.16015625,0.0
31.56640625,-126.46484375,-31.25,-22.94921875,-38.57421875,4.8828125,0.0
31.5703125,-140.13671875,-21.97265625,-25.390625,-32.71484375,35.15625,0.0
31.57421875,-103.515625,-21.484375,-22.4609375,-29.296875,57.6171875,0.0
31.578125,-121.58203125,-28.3203125,-19.53125,-27.83203125,-4.39453125,0.0
31.58203125,-128.41796875,-28.3203125,-22.94921875,-29.296875,-28.3203125,0.0
31.5859375,-97.16796875,-28.3203125,-26.3671875,-28.3203125,33.69140625,0.0
31.58984375,-106.4453125,-31.25,-28.3203125,-15.13671875,-36.62109375,0.0
31.59375,-95.21484375,-29.296875,-30.2734375,-2.44140625,-17.08984375,0.0
31.59765625,-95.703125,-31.25,-29.296875,-11.23046875,-1.953125,0.0
31.6015625,-132.32421875,-26.3671875,-24.4140625,-25.87890625,-65.91796875,0.0
31.60546875,-119.62890625,-19.53125,-23.92578125,-43.9453125,-29.296875,0.0
31.609375,-82.03125,-21.484375,-28.3203125,-39.55078125,26.3671875,0.0
31.61328125,-113.28125,-24.90234375,-36.62109375,-40.52734375,-23.4375,0.0
31.6171875,-101.5625,-17.578125,-26.85546875,-44.921875,-18.5546875,0.0
31.62109375,-55.6640625,-16.6015625,-15.625,-28.3203125,64.453125,0.0
31.625,-83.0078125,-23.4375,-25.390625,-34.66796875,64.94140625,0.0
31.62890625,-125.9765625,-21.97265625,-34.1796875,-58.59375,-2.44140625,0.0
31.6328125,-109.86328125,-20.99609375,-26.85546875,-62.98828125,-118.1640625,0.0
31.63671875,-106.4453125,-17.578125,-17.578125,-45.41015625,-152.83203125,0.0
31.640625,-86.9140625,-16.11328125,-20.5078125,-54.19921875,-62.98828125,0.0
31.64453125,-80.56640625,-19.04296875,-24.4140625,-54.19921875,40.0390625,0.0
31.6484375,-62.98828125,-8.7890625,-19.04296875,-49.8046875,89.35546875,0.0
31.65234375,-74.21875,-9.27734375,-21.484375,-71.77734375,19.04296875,0.0
31.65625,-139.6484375,-18.5546875,-24.90234375,-62.5,25.390625,0.0
31.66015625,-130.859375,-19.53125,-23.4375,-42.48046875,41.015625,0.0
31.6640625,-98.14453125,-15.625,-21.484375,-49.8046875,-43.9453125,0.0
31.66796875,-82.51953125,-14.16015625,-15.13671875,-60.546875,-80.56640625,0.0
31.671875,-93.26171875,-23.4375,-20.5078125,-65.91796875,-104.98046875,0.0
31.67578125,-94.23828125,-24.90234375,-25.87890625,-71.77734375,-93.26171875,0.0
31.6796875,-81.54296875,-16.11328125,-23.92578125,-64.453125,-58.59375,0.0
31.68359375,-93.26171875,-15.625,-28.3203125,-70.3125,-52.734375,0.0
31.6875,-86.42578125,-21.484375,-29.296875,-69.82421875,-2.44140625,0.0
31.69140625,-67.87109375,-26.85546875,-33.69140625,-48.828125,-37.109375,0.0
31.6953125,-47.36328125,-23.92578125,-33.203125,-38.57421875,-116.2109375,0.0
31.69921875,-21.97265625,-19.53125,-30.76171875,-40.52734375,-119.62890625,0.0
31.703125,-25.87890625,-18.06640625,-33.69140625,-45.41015625,-1.46484375,0.0
31.70703125,-61.03515625,-22.94921875,-31.73828125,-40.52734375,41.50390625,0.0
31.7109375,-126.46484375,-16.11328125,-33.203125,-47.36328125,0.9765625,0.0
31.71484375,-142.578125,-16.6015625,-36.1328125,-50.29296875,48.828125,0.0
31.71875,-120.60546875,-24.90234375,-38.57421875,-52.734375,-13.18359375,0.0
31.72265625,-117.1875,-20.99609375,-40.0390625,-71.2890625,-115.72265625,0.0
31.7265625,-114.74609375,-11.23046875,-45.41015625,-82.51953125,-50.29296875,0.0
31.73046875,-111.328125,-7.8125,-51.7578125,-92.7734375,-48.828125,0.0
31.734375,-108.88671875,-14.6484375,-50.78125,-90.33203125,-137.20703125,0.0
31.73828125,-97.65625,-13.671875,-48.828125,-102.05078125,-145.5078125,0.0
31.7421875,-115.234375,-15.625,-46.38671875,-98.6328125,-139.16015625,0.0
31.74609375,-147.94921875,-21.484375,-41.50390625,-82.03125,-119.62890625,0.0
31.75,-148.4375,-21.484375,-42.48046875,-75.1953125,-82.51953125,0.0
31.75390625,-136.71875,-19.53125,-42.48046875,-62.98828125,-16.6015625,0.0
31.7578125,-124.51171875,-11.71875,-34.66796875,-63.4765625,-76.171875,0.0
31.76171875,-104.98046875,-3.90625,-29.296875,-47.36328125,-64.94140625,0.0
31.765625,-83.0078125,-11.71875,-36.1328125,-41.50390625,95.703125,0.0
31.76953125,-71.77734375,-19.04296875,-41.015625,-41.015625,-44.921875,0.0
31.7734375,-40.52734375,-20.01953125,-40.52734375,-45.41015625,-213.8671875,0.0
31.77734375,-64.94140625,-27.34375,-40.52734375,-53.7109375,-70.80078125,0.0
31.78125,-140.13671875,-29.296875,-38.0859375,-49.31640625,-28.80859375,0.0
31.78515625,-111.81640625,-23.92578125,-37.59765625,-51.26953125,-14.6484375,0.0
31.7890625,-87.40234375,-24.4140625,-38.57421875,-42.96875,41.9921875,0.0
31.79296875,-67.3828125,-22.94921875,-43.45703125,-44.43359375,115.234375,0.0
31.796875,-67.87109375,-20.5078125,-45.41015625,-51.26953125,125.48828125,0.0
31.80078125,-99.12109375,-23.92578125,-41.9921875,-48.33984375,40.0390625,0.0
31.8046875,-71.2890625,-21.97265625,-45.8984375,-50.78125,-41.015625,0.0
31.80859375,-53.7109375,-24.90234375,-46.875,-47.8515625,-35.15625,0.0
31.8125,-75.68359375,-33.203125,-42.96875,-50.78125,-19.04296875,0.0
31.81640625,-85.9375,-34.1796875,-38.57421875,-46.875,12.20703125,0.0
31.8203125,-38.0859375,-31.73828125,-38.57421875,-33.203125,26.3671875,0.0
31.82421875,-20.5078125,-36.62109375,-43.9453125,-48.33984375,8.7890625,0.0
31.828125,-84.9609375,-40.0390625,-49.31640625,-63.96484375,18.06640625,0.0
31.83203125,-116.2109375,-39.0625,-45.41015625,-77.63671875,62.98828125,0.0
31.8359375,-100.5859375,-35.64453125,-35.15625,-56.15234375,13.18359375,0.0
31.83984375,-66.40625,-37.59765625,-30.76171875,-32.71484375,-44.921875,0.0
31.84375,-57.12890625,-33.69140625,-34.1796875,-60.546875,-28.80859375,0.0
31.84765625,-38.57421875,-29.78515625,-34.66796875,-40.52734375,-45.8984375,0.0
31.8515625,-31.25,-28.80859375,-33.203125,-42.48046875,-94.7265625,0.0
31.85546875,-66.40625,-26.85546875,-34.66796875,-80.56640625,-92.7734375,0.0
31.859375,-70.3125,-29.296875,-30.76171875,-48.33984375,-6.34765625,0.0
31.86328125,-67.3828125,-25.390625,-20.5078125,-2.9296875,-32.71484375,0.0
31.8671875,-68.359375,-24.4140625,-18.06640625,-14.6484375,-119.140625,0.0
31.87109375,-71.2890625,-32.71484375,-27.83203125,-14.6484375,-89.35546875,0.0
31.875,-55.6640625,-34.66796875,-36.1328125,-47.8515625,-102.5390625,0.0
31.87890625,-42.48046875,-32.2265625,-29.296875,-84.47265625,-151.3671875,0.0
31.8828125,-55.17578125,-31.73828125,-26.3671875,-67.3828125,-100.5859375,0.0
31.88671875,-51.7578125,-30.76171875,-33.203125,-40.52734375,-80.56640625,0.0
31.890625,-92.28515625,-34.66796875,-36.62109375,-42.48046875,-138.671875,0.0
31.89453125,-101.5625,-36.1328125,-33.69140625,-25.390625,-151.85546875,0.0
31.8984375,-84.47265625,-28.80859375,-33.69140625,0.48828125,-65.4296875,0.0
31.90234375,-58.59375,-31.73828125,-34.66796875,14.16015625,-38.57421875,0.0
31.90625,-42.48046875,-35.64453125,-29.296875,24.4140625,-90.8203125,0.0
31.91015625,-63.4765625,-31.73828125,-29.296875,29.78515625,-41.015625,0.0
31.9140625,-84.47265625,-34.66796875,-35.64453125,33.69140625,-56.15234375,0.0
31.91796875,-90.8203125,-36.62109375,-33.69140625,48.828125,-16.11328125,0.0
31.921875,-87.40234375,-36.62109375,-32.2265625,52.24609375,20.99609375,0.0
31.92578125,-85.9375,-41.50390625,-33.203125,85.44921875,-26.3671875,0.0
31.9296875,-82.51953125,-39.55078125,-33.69140625,105.46875,-3.41796875,0.0
31.93359375,-74.70703125,-37.59765625,-36.1328125,73.2421875,-39.55078125,0.0
31.9375,-67.3828125,-42.48046875,-30.76171875,76.171875,-38.0859375,0.0
31.94140625,-67.87109375,-40.52734375,-31.73828125,85.44921875,-32.71484375,0.0
31.9453125,-42.48046875,-35.15625,-37.59765625,111.328125,-10.25390625,0.0
31.94921875,-46.38671875,-37.109375,-39.55078125,119.62890625,58.10546875,0.0
31.953125,-92.7734375,-50.29296875,-42.48046875,87.40234375,54.6875,0.0
31.95703125,-90.8203125,-55.6640625,-41.015625,79.1015625,-25.390625,0.0
31.9609375,-67.3828125,-44.921875,-34.66796875,104.98046875,-50.78125,0.0
31.96484375,-70.80078125,-35.64453125,-34.66796875,117.1875,-43.9453125,0.0
31.96875,-56.640625,-39.0625,-36.62109375,127.44140625,8.7890625,0.0
31.97265625,-63.96484375,-45.8984375,-33.69140625,139.16015625,18.5546875,0.0
31.9765625,-62.5,-40.52734375,-30.76171875,144.04296875,0.48828125,0.0
31.98046875,-66.89453125,-37.109375,-27.34375,158.203125,-6.8359375,0.0
31.984375,-95.21484375,-43.9453125,-33.69140625,146.97265625,-69.3359375,0.0
31.98828125,-83.0078125,-48.33984375,-47.36328125,131.8359375,-109.375,0.0
31.9921875,-67.87109375,-34.66796875,-48.33984375,132.8125,-166.9921875,0.0
31.99609375,-64.94140625,-34.1796875,-43.45703125,151.85546875,-197.265625,0.0
32.0,-71.77734375,-42.96875,-38.57421875,127.44140625,-187.98828125,0.0
32.00390625,-84.9609375,-42.96875,-35.64453125,88.37890625,-239.2578125,0.0
32.0078125,-81.54296875,-33.203125,-30.2734375,92.28515625,-101.5625,0.0
32.01171875,-69.82421875,-28.80859375,-26.85546875,110.83984375,77.1484375,0.0
32.015625,-73.2421875,-32.71484375,-24.4140625,110.83984375,62.98828125,0.0
32.01953125,-55.6640625,-32.2265625,-24.4140625,103.02734375,-2.9296875,0.0
32.0234375,-64.453125,-27.83203125,-26.85546875,118.1640625,-45.8984375,0.0
32.02734375,-78.125,-30.2734375,-34.1796875,115.72265625,2.9296875,0.0
32.03125,-71.2890625,-36.1328125,-38.0859375,85.44921875,8.7890625,0.0
32.03515625,-68.84765625,-31.73828125,-36.62109375,79.1015625,-4.39453125,0.0
32.0390625,-37.109375,-22.94921875,-34.1796875,102.5390625,39.0625,0.0
32.04296875,-44.921875,-26.3671875,-27.34375,109.86328125,23.92578125,0.0
32.046875,-105.95703125,-45.8984375,-24.4140625,91.796875,-25.390625,0.0
32.05078125,-126.953125,-52.24609375,-29.296875,76.171875,-31.73828125,0.0
32.0546875,-91.796875,-38.0859375,-38.0859375,75.1953125,1.46484375,0.0
32.05859375,-71.77734375,-31.25,-32.2265625,75.1953125,46.875,0.0
32.0625,-54.6875,-26.85546875,-26.85546875,81.0546875,-83.0078125,0.0
32.06640625,-62.98828125,-23.92578125,-35.64453125,48.33984375,-144.53125,0.0
32.0703125,-77.1484375,-25.390625,-41.50390625,10.25390625,2.9296875,0.0
32.07421875,-90.33203125,-30.76171875,-40.52734375,17.08984375,66.40625,0.0
32.078125,-80.078125,-32.2265625,-36.1328125,31.73828125,0.0,0.0
32.08203125,-40.52734375,-21.484375,-26.3671875,39.55078125,-78.61328125,0.0
32.0859375,-44.921875,-10.25390625,-19.53125,46.875,-40.0390625,0.0
32.08984375,-84.47265625,-23.92578125,-21.484375,27.83203125,-33.203125,0.0
32.09375,-62.01171875,-35.64453125,-26.3671875,9.27734375,-72.265625,0.0
32.09765625,-71.77734375,-33.203125,-29.78515625,-1.953125,-15.625,0.0
32.1015625,-118.1640625,-33.69140625,-21.97265625,8.30078125,6.8359375,0.0
32.10546875,-80.56640625,-31.25,-24.4140625,27.34375,75.1953125,0.0
32.109375,-61.5234375,-33.203125,-36.62109375,9.765625,57.6171875,0.0
32.11328125,-71.77734375,-36.1328125,-36.62109375,3.90625,-36.62109375,0.0
32.1171875,-75.68359375,-31.73828125,-33.69140625,-2.9296875,-29.78515625,0.0
32.12109375,-76.171875,-26.3671875,-33.203125,-17.578125,-22.4609375,0.0
32.125,-41.015625,-26.3671875,-33.69140625,-11.71875,-4.8828125,0.0
32.12890625,-47.36328125,-28.80859375,-30.2734375,-12.20703125,-13.18359375,0.0
32.1328125,-91.796875,-32.2265625,-24.4140625,-9.765625,-5.859375,0.0
32.13671875,-90.33203125,-34.66796875,-22.4609375,-0.9765625,-11.71875,0.0
32.140625,-88.37890625,-45.8984375,-25.87890625,8.30078125,4.8828125,0.0
32.14453125,-77.1484375,-42.48046875,-28.3203125,2.44140625,32.71484375,0.0
32.1484375,-60.05859375,-28.3203125,-29.296875,-20.01953125,4.39453125,0.0
32.15234375,-33.69140625,-34.66796875,-30.76171875,-17.08984375,-23.4375,0.0
32.15625,-16.6015625,-38.57421875,-31.25,-18.06640625,-43.9453125,0.0
32.16015625,-43.9453125,-32.2265625,-24.4140625,-25.87890625,-81.0546875,0.0
32.1640625,-87.40234375,-28.3203125,-21.97265625,-10.25390625,-67.87109375,0.0
32.16796875,-92.28515625,-31.25,-30.2734375,-12.6953125,-35.64453125,0.0
32.171875,-66.89453125,-36.62109375,-35.64453125,-18.5546875,-33.203125,0.0
32.17578125,-53.7109375,-37.109375,-33.69140625,-6.8359375,-0.48828125,0.0
32.1796875,-62.01171875,-24.90234375,-23.4375,-16.11328125,-14.16015625,0.0
32.18359375,-56.15234375,-20.99609375,-23.92578125,-33.69140625,-71.77734375,0.0
32.1875,-45.41015625,-28.3203125,-32.71484375,-10.25390625,-110.3515625,0.0
32.19140625,-27.83203125,-27.34375,-31.25,-7.32421875,-201.66015625,0.0
32.1953125,-37.109375,-30.76171875,-27.34375,-26.85546875,-159.66796875,0.0
32.19921875,-58.59375,-32.2265625,-27.34375,-6.34765625,-114.74609375,0.0
32.203125,-55.6640625,-30.76171875,-23.92578125,9.27734375,-110.83984375,0.0
32.20703125,-51.26953125,-34.66796875,-27.34375,-13.671875,-63.96484375,0.0
32.2109375,-56.640625,-39.0625,-32.2265625,-15.625,-27.83203125,0.0
32.21484375,-54.6875,-41.9921875,-29.296875,-10.25390625,46.38671875,0.0
32.21875,-31.73828125,-38.57421875,-25.87890625,-22.94921875,9.27734375,0.0
32.22265625,-46.875,-27.83203125,-22.94921875,-16.11328125,-69.82421875,0.0
32.2265625,-60.05859375,-24.4140625,-22.4609375,-7.8125,-75.68359375,0.0
32.23046875,-27.83203125,-29.78515625,-27.83203125,-17.578125,-0.9765625,0.0
32.234375,-26.85546875,-40.52734375,-32.71484375,-41.015625,-28.80859375,0.0
32.23828125,-53.7109375,-36.62109375,-26.3671875,-18.5546875,-89.35546875,0.0
32.2421875,-63.96484375,-29.78515625,-20.5078125,-3.41796875,-28.80859375,0.0
32.24609375,-60.05859375,-34.66796875,-23.92578125,-23.92578125,16.11328125,0.0
32.25,-35.15625,-35.15625,-23.92578125,-22.94921875,-3.90625,0.0
32.25390625,-40.0390625,-34.1796875,-28.3203125,-19.04296875,-15.13671875,0.0
32.2578125,-51.7578125,-31.73828125,-31.25,-27.34375,-11.71875,0.0
32.26171875,-48.33984375,-33.203125,-30.2734375,-30.2734375,-30.76171875,0.0
32.265625,-38.0859375,-28.3203125,-26.85546875,-28.80859375,13.18359375,0.0
32.26953125,-29.296875,-26.3671875,-23.92578125,-24.4140625,55.6640625,0.0
32.2734375,-41.015625,-33.69140625,-24.4140625,-1.46484375,39.0625,0.0
32.27734375,-75.68359375,-32.2265625,-25.390625,-14.6484375,49.8046875,0.0
32.28125,-71.77734375,-32.2265625,-25.87890625,-26.3671875,-14.6484375,0.0
32.28515625,-49.8046875,-35.15625,-28.80859375,-17.08984375,-99.609375,0.0
32.2890625,-51.7578125,-36.1328125,-33.69140625,-20.5078125,-156.73828125,0.0
32.29296875,-63.4765625,-31.73828125,-32.71484375,-8.30078125,-146.97265625,0.0
32.296875,-64.453125,-28.80859375,-29.78515625,-6.34765625,-83.984375,0.0
32.30078125,-49.8046875,-30.2734375,-27.34375,-5.859375,-39.55078125,0.0
32.3046875,-25.87890625,-28.80859375,-29.296875,-4.39453125,-83.49609375,0.0
32.30859375,-15.625,-33.69140625,-33.203125,-8.7890625,-93.26171875,0.0
32.3125,-23.92578125,-36.1328125,-33.203125,-8.30078125,-81.54296875,0.0
32.31640625,-40.0390625,-33.69140625,-33.203125,-20.99609375,-128.41796875,0.0
32.3203125,-43.9453125,-28.80859375,-36.1328125,-39.0625,-128.41796875,0.0
32.32421875,-45.41015625,-26.3671875,-39.0625,-46.38671875,-109.375,0.0
32.328125,-77.63671875,-39.0625,-48.33984375,-42.48046875,-87.890625,0.0
32.33203125,-45.41015625,-45.8984375,-51.26953125,-36.62109375,-39.55078125,0.0
32.3359375,-33.69140625,-38.0859375,-39.0625,-25.87890625,42.96875,0.0
32.33984375,-58.10546875,-33.203125,-29.78515625,-18.5546875,20.5078125,0.0
32.34375,-55.6640625,-32.71484375,-32.2265625,-37.109375,14.16015625,0.0
32.34765625,-30.2734375,-34.66796875,-37.109375,-35.64453125,39.55078125,0.0
32.3515625,-17.578125,-34.66796875,-37.109375,-18.06640625,0.9765625,0.0
32.35546875,-26.85546875,-31.73828125,-33.203125,-25.87890625,-116.69921875,0.0
32.359375,-74.70703125,-37.109375,-32.2265625,-41.9921875,-100.5859375,0.0
32.36328125,-72.75390625,-35.15625,-30.76171875,-27.83203125,7.32421875,0.0
32.3671875,-48.828125,-20.99609375,-25.87890625,0.0,39.0625,0.0
32.37109375,-71.77734375,-27.83203125,-27.34375,10.7421875,46.38671875,0.0
32.375,-60.05859375,-40.52734375,-32.2265625,1.953125,87.890625,0.0
32.37890625,-41.50390625,-39.55078125,-28.3203125,-6.34765625,100.09765625,0.0
32.3828125,-44.921875,-34.66796875,-27.83203125,3.41796875,63.96484375,0.0
32.38671875,-17.578125,-32.71484375,-32.71484375,12.20703125,-12.20703125,0.0
32.390625,-0.48828125,-33.69140625,-32.2265625,-6.8359375,-35.64453125,0.0
32.39453125,-60.05859375,-41.50390625,-39.55078125,-19.04296875,45.41015625,0.0
32.3984375,-91.30859375,-41.50390625,-41.9921875,-16.6015625,77.1484375,0.0
32.40234375,-70.80078125,-38.57421875,-29.296875,-5.859375,55.17578125,0.0
32.40625,-10.7421875,-36.1328125,-28.80859375,11.71875,2.44140625,0.0
32.41015625,-30.76171875,-35.64453125,-35.64453125,9.27734375,-1.953125,0.0
32.4140625,-82.03125,-33.203125,-31.73828125,9.765625,84.9609375,0.0
32.41796875,-67.3828125,-33.203125,-29.296875,5.859375,110.3515625,0.0
32.421875,-47.8515625,-43.45703125,-28.80859375,-2.9296875,13.671875,0.0
32.42578125,-30.2734375,-39.55078125,-29.296875,7.32421875,-60.05859375,0.0
32.4296875,-61.5234375,-29.78515625,-28.3203125,-4.8828125,-92.7734375,0.0
32.43359375,-72.75390625,-36.62109375,-25.390625,-29.296875,-105.46875,0.0
32.4375,-41.50390625,-36.1328125,-27.83203125,-14.6484375,9.27734375,0.0
32.44140625,-35.64453125,-30.76171875,-31.73828125,-3.90625,39.0625,0.0
32.4453125,-43.45703125,-26.85546875,-32.2265625,-15.625,-47.36328125,0.0
32.44921875,-39.0625,-25.390625,-32.71484375,-3.90625,-20.01953125,0.0
32.453125,-46.38671875,-31.25,-34.66796875,3.90625,-32.2265625,0.0
32.45703125,-61.03515625,-37.109375,-36.62109375,2.44140625,-79.58984375,0.0
32.4609375,-68.84765625,-27.83203125,-32.2265625,-2.9296875,-61.03515625,0.0
32.46484375,-59.5703125,-26.3671875,-33.203125,-24.90234375,-34.1796875,0.0
32.46875,-67.87109375,-36.1328125,-40.52734375,-29.78515625,1.46484375,0.0
32.47265625,-46.875,-35.15625,-39.0625,-19.53125,-8.7890625,0.0
32.4765625,-3.41796875,-33.69140625,-37.59765625,-22.4609375,-5.859375,0.0
32.48046875,-53.22265625,-36.1328125,-36.1328125,-4.39453125,-23.4375,0.0
32.484375,-101.5625,-40.0390625,-28.80859375,-10.25390625,-131.8359375,0.0
32.48828125,-67.3828125,-42.48046875,-24.90234375,-18.5546875,-167.96875,0.0
32.4921875,-51.26953125,-43.9453125,-30.2734375,-8.7890625,-159.66796875,0.0
32.49609375,-48.828125,-43.9453125,-35.15625,-13.18359375,-165.52734375,0.0
32.5,-36.1328125,-44.921875,-35.15625,-17.08984375,-206.54296875,0.0
32.50390625,-37.109375,-42.96875,-35.15625,-28.80859375,-211.42578125,0.0
32.5078125,-27.83203125,-35.15625,-34.1796875,-20.01953125,-175.29296875,0.0
32.51171875,-30.2734375,-39.55078125,-35.15625,-20.01953125,-139.16015625,0.0
32.515625,-83.0078125,-44.43359375,-35.64453125,-31.25,-75.68359375,0.0
32.51953125,-88.8671875,-44.921875,-32.71484375,-24.4140625,-61.5234375,0.0
32.5234375,-24.90234375,-46.38671875,-26.3671875,-16.11328125,44.921875,0.0
32.52734375,-12.6953125,-49.31640625,-30.76171875,-27.83203125,99.609375,0.0
32.53125,-76.171875,-50.29296875,-34.66796875,-37.59765625,28.3203125,0.0
32.53515625,-74.70703125,-44.921875,-30.76171875,-31.25,19.53125,0.0
32.5390625,-51.7578125,-42.48046875,-26.3671875,-22.94921875,27.34375,0.0
32.54296875,-32.71484375,-43.9453125,-20.01953125,-13.671875,63.96484375,0.0
32.546875,-12.6953125,-43.9453125,-20.5078125,-11.23046875,25.390625,0.0
32.55078125,-27.83203125,-41.50390625,-28.80859375,-26.85546875,6.34765625,0.0
32.5546875,-44.921875,-46.38671875,-32.2265625,-34.1796875,43.9453125,0.0
32.55859375,-66.40625,-53.7109375,-35.64453125,-28.80859375,-22.4609375,0.0
32.5625,-69.82421875,-50.78125,-38.57421875,-35.64453125,18.06640625,0.0
32.56640625,-67.87109375,-42.96875,-35.15625,-47.36328125,40.0390625,0.0
32.5703125,-62.98828125,-47.36328125,-32.71484375,-44.43359375,2.9296875,0.0
32.57421875,-52.734375,-48.828125,-32.2265625,-46.38671875,-19.04296875,0.0
32.578125,-31.73828125,-44.921875,-29.296875,-52.24609375,-23.92578125,0.0
32.58203125,22.4609375,-37.59765625,-22.4609375,-34.66796875,26.3671875,0.0
32.5859375,-8.7890625,-27.83203125,-22.4609375,-30.2734375,19.53125,0.0
32.58984375,-83.0078125,-40.0390625,-33.69140625,-34.1796875,0.9765625,0.0
32.59375,-64.453125,-45.41015625,-33.203125,-27.83203125,-6.8359375,0.0
32.59765625,-54.19921875,-37.109375,-29.78515625,-34.66796875,12.6953125,0.0
32.6015625,-55.17578125,-34.1796875,-28.3203125,-32.2265625,17.578125,0.0
32.60546875,-48.33984375,-33.69140625,-29.296875,-35.15625,-39.0625,0.0
32.609375,-51.26953125,-38.0859375,-38.0859375,-35.64453125,-90.8203125,0.0
32.61328125,-21.97265625,-39.0625,-34.66796875,-18.06640625,-54.6875,0.0
32.6171875,-17.578125,-33.203125,-24.4140625,-19.53125,-8.7890625,0.0
32.62109375,-68.359375,-35.15625,-20.5078125,-14.6484375,8.30078125,0.0
32.625,-79.58984375,-31.25,-21.484375,-0.9765625,1.953125,0.0
32.62890625,-66.40625,-31.73828125,-26.3671875,-2.9296875,-23.92578125,0.0
32.6328125,-45.8984375,-35.64453125,-29.78515625,-15.625,11.71875,0.0
32.63671875,-48.33984375,-36.62109375,-31.73828125,-31.25,-52.734375,0.0
32.640625,-74.21875,-41.50390625,-35.15625,-28.80859375,-94.7265625,0.0
32.64453125,-72.265625,-36.1328125,-41.015625,-36.1328125,9.765625,0.0
32.6484375,-56.15234375,-22.4609375,-35.64453125,-26.85546875,7.8125,0.0
32.65234375,-54.6875,-26.3671875,-31.25,-35.15625,-31.25,0.0
32.65625,-39.0625,-31.25,-31.73828125,-39.55078125,62.01171875,0.0
32.66015625,-17.578125,-39.0625,-27.83203125,-28.80859375,70.80078125,0.0
32.6640625,-40.52734375,-40.0390625,-29.78515625,-31.73828125,-12.20703125,0.0
32.66796875,-61.03515625,-29.296875,-27.34375,-23.4375,-22.4609375,0.0
32.671875,-41.50390625,-32.2265625,-26.85546875,-21.97265625,34.66796875,0.0
32.67578125,-58.10546875,-36.62109375,-34.66796875,-24.90234375,23.92578125,0.0
32.6796875,-60.546875,-30.76171875,-29.296875,-2.44140625,-8.30078125,0.0
32.68359375,-42.48046875,-30.76171875,-28.3203125,-7.32421875,-26.85546875,0.0
32.6875,-37.109375,-28.80859375,-32.2265625,-27.34375,-77.1484375,0.0
32.69140625,-35.64453125,-28.3203125,-27.34375,-17.578125,-59.5703125,0.0
32.6953125,-29.296875,-27.83203125,-22.94921875,-11.23046875,-28.3203125,0.0
32.69921875,0.48828125,-22.94921875,-26.3671875,-8.30078125,-65.91796875,0.0
32.703125,0.48828125,-29.78515625,-27.34375,-2.9296875,-45.8984375,0.0
32.70703125,-53.7109375,-39.55078125,-32.71484375,-7.32421875,1.953125,0.0
32.7109375,-75.68359375,-37.59765625,-37.59765625,-12.20703125,-72.265625,0.0
32.71484375,-56.15234375,-28.80859375,-37.109375,-4.8828125,-97.16796875,0.0
32.71875,-35.64453125,-22.94921875,-33.203125,19.53125,-24.4140625,0.0
32.72265625,-12.6953125,-26.85546875,-28.80859375,22.94921875,-27.83203125,0.0
32.7265625,-7.8125,-27.34375,-28.80859375,2.9296875,-56.640625,0.0
32.73046875,-34.66796875,-24.90234375,-28.80859375,-12.6953125,-30.2734375,0.0
32.734375,-45.8984375,-29.78515625,-29.296875,-18.06640625,-72.265625,0.0
32.73828125,-21.484375,-28.80859375,-26.85546875,-14.6484375,-117.1875,0.0
32.7421875,-45.41015625,-23.4375,-21.97265625,-9.27734375,-115.234375,0.0
32.74609375,-63.4765625,-27.83203125,-18.5546875,-0.9765625,-93.75,0.0
32.75,-51.7578125,-41.015625,-24.4140625,-7.8125,-58.59375,0.0
32.75390625,-57.12890625,-40.0390625,-31.25,-24.4140625,-98.6328125,0.0
32.7578125,-44.43359375,-32.71484375,-33.203125,-25.390625,-83.49609375,0.0
32.76171875,-41.50390625,-22.4609375,-29.78515625,-25.87890625,20.01953125,0.0
32.765625,-34.1796875,-18.5546875,-24.4140625,-20.01953125,4.8828125,0.0
32.76953125,-29.78515625,-28.3203125,-28.3203125,-23.92578125,-39.55078125,0.0
32.7734375,-32.71484375,-30.2734375,-32.71484375,-26.85546875,-86.9140625,0.0
32.77734375,-59.08203125,-24.4140625,-34.66796875,-22.94921875,-51.26953125,0.0
32.78125,-78.125,-26.85546875,-32.71484375,-39.55078125,-9.765625,0.0
32.78515625,-52.734375,-30.2734375,-25.87890625,-41.9921875,-53.22265625,0.0
32.7890625,-45.8984375,-21.97265625,-29.296875,-36.62109375,-61.03515625,0.0
32.79296875,-31.25,-23.4375,-34.1796875,-43.45703125,-46.875,0.0
32.796875,-19.53125,-32.71484375,-28.3203125,-52.734375,4.8828125,0.0
32.80078125,-51.26953125,-32.71484375,-32.71484375,-45.8984375,-32.71484375,0.0
32.8046875,-67.3828125,-30.2734375,-40.52734375,-48.33984375,-62.01171875,0.0
32.80859375,-34.1796875,-33.203125,-38.57421875,-61.5234375,-47.8515625,0.0
32.8125,-37.59765625,-37.59765625,-41.9921875,-58.59375,-41.015625,0.0
32.81640625,-64.94140625,-37.109375,-40.0390625,-68.84765625,-5.859375,0.0
32.8203125,-45.41015625,-24.4140625,-32.2265625,-63.4765625,-14.6484375,0.0
32.82421875,-20.99609375,-23.4375,-31.25,-41.9921875,-69.3359375,0.0
32.828125,-39.0625,-38.0859375,-35.64453125,-45.41015625,-99.609375,0.0
32.83203125,-82.03125,-38.0859375,-41.9921875,-53.7109375,-97.65625,0.0
32.8359375,-63.96484375,-26.3671875,-31.73828125,-30.76171875,-48.33984375,0.0
32.83984375,-41.50390625,-33.203125,-23.92578125,-18.5546875,-30.76171875,0.0
32.84375,-42.96875,-41.015625,-35.64453125,-26.85546875,-30.76171875,0.0
32.84765625,-26.3671875,-36.1328125,-37.59765625,-25.390625,-11.23046875,0.0
32.8515625,-31.73828125,-33.203125,-37.59765625,-43.45703125,-51.26953125,0.0
32.85546875,-35.64453125,-31.73828125,-41.50390625,-53.22265625,-94.23828125,0.0
32.859375,-18.06640625,-32.71484375,-39.55078125,-45.41015625,-23.4375,0.0
32.86328125,-18.5546875,-37.109375,-36.1328125,-49.31640625,-13.671875,0.0
32.8671875,-2.44140625,-30.76171875,-34.1796875,-35.15625,-2.9296875,0.0
32.87109375,-25.87890625,-21.97265625,-35.15625,-24.4140625,37.109375,0.0
32.875,-73.73046875,-30.2734375,-35.64453125,-52.734375,-3.90625,0.0
32.87890625,-52.734375,-28.3203125,-34.1796875,-51.7578125,-4.39453125,0.0
32.8828125,-45.41015625,-21.97265625,-30.2734375,-28.3203125,-14.6484375,0.0
32.88671875,-47.8515625,-32.2265625,-30.2734375,-35.64453125,-95.703125,0.0
32.890625,-66.89453125,-37.59765625,-36.1328125,-53.22265625,-51.26953125,0.0
32.89453125,-68.359375,-34.1796875,-38.57421875,-49.31640625,-46.875,0.0
32.8984375,-49.8046875,-30.2734375,-39.0625,-49.8046875,-44.921875,0.0
32.90234375,-37.109375,-27.34375,-31.73828125,-47.8515625,-40.0390625,0.0
32.90625,-29.78515625,-27.34375,-29.296875,-47.36328125,-79.1015625,0.0
32.91015625,-38.57421875,-28.3203125,-31.73828125,-60.05859375,-65.4296875,0.0
32.9140625,-41.50390625,-26.85546875,-28.80859375,-59.08203125,-30.76171875,0.0
32.91796875,-33.203125,-27.83203125,-27.83203125,-51.7578125,-45.41015625,0.0
32.921875,-38.57421875,-28.80859375,-31.73828125,-58.10546875,-71.77734375,0.0
32.92578125,-74.70703125,-23.4375,-39.0625,-74.70703125,7.8125,0.0
32.9296875,-76.171875,-26.3671875,-43.45703125,-62.98828125,43.9453125,0.0
32.93359375,-59.5703125,-36.62109375,-42.48046875,-54.19921875,74.21875,0.0
32.9375,-44.43359375,-36.62109375,-34.66796875,-70.80078125,80.078125,0.0
32.94140625,-50.29296875,-36.62109375,-33.69140625,-86.42578125,-8.7890625,0.0
32.9453125,-63.96484375,-36.1328125,-32.2265625,-94.7265625,-8.30078125,0.0
32.94921875,-60.05859375,-30.76171875,-27.34375,-72.265625,-10.25390625,0.0
32.953125,-43.9453125,-26.85546875,-25.87890625,-49.31640625,-34.66796875,0.0
32.95703125,-54.6875,-23.92578125,-25.390625,-58.10546875,-43.45703125,0.0
32.9609375,-73.73046875,-22.4609375,-25.390625,-54.6875,-20.01953125,0.0
32.96484375,-80.56640625,-23.4375,-29.78515625,-46.38671875,-10.7421875,0.0
32.96875,-71.77734375,-26.3671875,-38.0859375,-48.33984375,-34.66796875,0.0
32.97265625,-59.5703125,-27.83203125,-33.203125,-59.5703125,-33.203125,0.0
32.9765625,-75.1953125,-29.78515625,-24.90234375,-78.61328125,-24.90234375,0.0
32.98046875,-75.68359375,-39.55078125,-28.80859375,-71.77734375,12.6953125,0.0
32.984375,-54.6875,-41.015625,-31.25,-43.45703125,-45.8984375,0.0
32.98828125,-55.17578125,-40.52734375,-25.87890625,-41.015625,-111.328125,0.0
32.9921875,-72.75390625,-45.8984375,-21.484375,-64.94140625,-41.015625,0.0
32.99609375,-65.4296875,-41.9921875,-21.484375,-59.5703125,24.4140625,0.0
33.0,-52.734375,-34.66796875,-14.6484375,-34.66796875,11.23046875,0.0
33.00390625,-57.12890625,-35.15625,-10.7421875,-31.73828125,-114.2578125,0.0
33.0078125,-73.2421875,-38.0859375,-20.99609375,-39.0625,-121.58203125,0.0
33.01171875,-70.3125,-41.9921875,-23.4375,-47.36328125,-3.41796875,0.0
33.015625,-50.78125,-42.48046875,-23.92578125,-46.875,-31.73828125,0.0
33.01953125,-32.71484375,-37.59765625,-27.83203125,-37.59765625,-44.43359375,0.0
33.0234375,-37.59765625,-31.25,-21.484375,-32.2265625,-50.78125,0.0
33.02734375,-62.98828125,-31.25,-21.97265625,-23.4375,-29.78515625,0.0
33.03125,-82.03125,-41.50390625,-33.203125,-29.296875,36.62109375,0.0
33.03515625,-83.984375,-44.43359375,-34.66796875,-27.34375,2.44140625,0.0
33.0390625,-75.68359375,-33.203125,-33.203125,-17.578125,-15.13671875,0.0
33.04296875,-66.89453125,-28.3203125,-37.59765625,-34.1796875,-0.9765625,0.0
33.046875,-54.19921875,-28.3203125,-34.66796875,-37.59765625,28.3203125,0.0
33.05078125,-48.33984375,-28.3203125,-35.15625,-34.1796875,45.41015625,0.0
33.0546875,-53.7109375,-31.25,-38.0859375,-50.78125,23.92578125,0.0
33.05859375,-63.96484375,-33.69140625,-35.64453125,-45.8984375,-22.4609375,0.0
33.0625,-68.84765625,-37.109375,-35.15625,-33.203125,-100.5859375,0.0
33.06640625,-59.5703125,-36.1328125,-35.64453125,-39.0625,-16.11328125,0.0
33.0703125,-57.12890625,-26.85546875,-37.59765625,-28.3203125,62.01171875,0.0
33.07421875,-66.40625,-27.34375,-36.1328125,-20.99609375,10.25390625,0.0
33.078125,-64.453125,-31.73828125,-35.15625,-41.50390625,49.8046875,0.0
33.08203125,-56.640625,-24.4140625,-38.0859375,-45.41015625,81.54296875,0.0
33.0859375,-47.36328125,-22.4609375,-41.015625,-32.71484375,-22.94921875,0.0
33.08984375,-48.33984375,-27.34375,-41.015625,-31.73828125,-53.22265625,0.0
33.09375,-41.015625,-27.34375,-32.71484375,-46.875,-33.69140625,0.0
33.09765625,-18.5546875,-27.83203125,-28.80859375,-35.64453125,-26.3671875,0.0
33.1015625,-35.64453125,-28.80859375,-25.87890625,-14.6484375,-5.859375,0.0
33.10546875,-74.21875,-34.66796875,-22.94921875,-23.92578125,-3.41796875,0.0
33.109375,-63.4765625,-39.55078125,-26.85546875,-10.7421875,-2.44140625,0.0
33.11328125,-49.8046875,-33.69140625,-27.83203125,-6.34765625,-62.5,0.0
33.1171875,-62.01171875,-27.83203125,-27.34375,-27.83203125,-107.421875,0.0
33.12109375,-63.96484375,-36.62109375,-29.296875,-41.015625,-25.390625,0.0
33.125,-53.7109375,-49.8046875,-37.59765625,-43.45703125,43.9453125,0.0
33.12890625,-27.83203125,-38.57421875,-44.921875,-31.73828125,-4.8828125,0.0
33.1328125,-25.390625,-34.1796875,-37.109375,-28.3203125,-2.9296875,0.0
33.13671875,-45.41015625,-43.45703125,-28.80859375,-35.15625,4.39453125,0.0
33.140625,-29.78515625,-44.921875,-25.87890625,-49.8046875,-75.68359375,0.0
33.14453125,-32.71484375,-44.43359375,-20.5078125,-65.4296875,-122.0703125,0.0
33.1484375,-88.8671875,-47.8515625,-23.4375,-78.61328125,-56.640625,0.0
33.15234375,-109.86328125,-56.15234375,-25.390625,-79.1015625,6.34765625,0.0
33.15625,-100.5859375,-61.03515625,-23.92578125,-66.40625,-20.5078125,0.0
33.16015625,-95.703125,-55.6640625,-23.92578125,-57.12890625,-19.04296875,0.0
33.1640625,-93.26171875,-51.7578125,-24.90234375,-68.359375,-31.25,0.0
33.16796875,-96.6796875,-66.40625,-34.1796875,-63.96484375,-81.0546875,0.0
33.171875,-102.5390625,-84.47265625,-33.69140625,-52.734375,-7.32421875,0.0
33.17578125,-115.234375,-80.56640625,-29.78515625,-72.75390625,7.32421875,0.0
33.1796875,-84.9609375,-63.4765625,-27.83203125,-73.2421875,-80.56640625,0.0
33.18359375,-32.2265625,-56.640625,-27.34375,-50.78125,-41.9921875,0.0
33.1875,-78.125,-58.10546875,-32.71484375,-47.36328125,-0.48828125,0.0
33.19140625,-115.72265625,-54.19921875,-31.25,-61.03515625,-25.87890625,0.0
33.1953125,-82.03125,-49.8046875,-26.85546875,-60.546875,-15.13671875,0.0
33.19921875,-83.0078125,-48.33984375,-23.4375,-42.48046875,2.44140625,0.0
33.203125,-72.265625,-43.9453125,-22.4609375,-30.76171875,-8.7890625,0.0
33.20703125,-44.921875,-35.15625,-27.34375,-23.4375,-54.6875,0.0
33.2109375,-40.52734375,-31.25,-29.78515625,-42.96875,-79.58984375,0.0
33.21484375,-56.640625,-42.96875,-34.1796875,-70.80078125,-57.6171875,0.0
33.21875,-54.6875,-46.38671875,-31.25,-55.17578125,-75.1953125,0.0
33.22265625,-67.87109375,-43.9453125,-22.94921875,-36.62109375,-17.08984375,0.0
33.2265625,-77.63671875,-37.59765625,-27.34375,-40.52734375,30.2734375,0.0
33.23046875,-60.546875,-40.52734375,-32.2265625,-20.01953125,0.9765625,0.0
33.234375,-47.8515625,-47.8515625,-28.80859375,1.953125,-4.39453125,0.0
33.23828125,-57.6171875,-40.52734375,-26.85546875,-0.48828125,-26.3671875,0.0
33.2421875,-82.03125,-35.64453125,-23.4375,-2.9296875,-86.9140625,0.0
33.24609375,-55.6640625,-39.0625,-21.97265625,-11.71875,-124.51171875,0.0
33.25,-47.8515625,-44.43359375,-25.390625,-15.625,-155.2734375,0.0
33.25390625,-69.82421875,-40.0390625,-20.99609375,-13.18359375,-130.37109375,0.0
33.2578125,-51.7578125,-31.25,-17.578125,-13.18359375,-103.02734375,0.0
33.26171875,-38.0859375,-37.59765625,-18.06640625,-1.46484375,-143.06640625,0.0
33.265625,-66.40625,-46.38671875,-18.5546875,11.23046875,-48.828125,0.0
33.26953125,-62.01171875,-42.48046875,-20.5078125,-14.16015625,-24.90234375,0.0
33.2734375,-68.84765625,-40.52734375,-25.390625,-32.2265625,-32.2265625,0.0
33.27734375,-91.796875,-38.57421875,-20.5078125,-17.08984375,48.33984375,0.0
33.28125,-54.6875,-34.1796875,-14.6484375,-20.5078125,-3.41796875,0.0
33.28515625,-34.1796875,-30.2734375,-12.20703125,-9.765625,-92.28515625,0.0
33.2890625,-43.45703125,-29.78515625,-12.6953125,-4.8828125,-71.2890625,0.0
33.29296875,-39.55078125,-37.59765625,-19.04296875,-27.34375,-72.75390625,0.0
33.296875,-49.8046875,-37.59765625,-19.04296875,-22.4609375,-48.33984375,0.0
33.30078125,-50.78125,-31.25,-17.578125,-22.4609375,7.32421875,0.0
33.3046875,-33.203125,-23.4375,-22.4609375,-26.3671875,-11.23046875,0.0
33.30859375,-64.453125,-29.78515625,-28.3203125,-18.5546875,-21.484375,0.0
33.3125,-102.05078125,-39.55078125,-28.80859375,-29.78515625,43.45703125,0.0
33.31640625,-85.44921875,-32.2265625,-26.85546875,-37.59765625,26.85546875,0.0
33.3203125,-60.05859375,-30.76171875,-24.4140625,-35.15625,-48.828125,0.0
33.32421875,-45.8984375,-32.2265625,-23.92578125,-20.01953125,-73.2421875,0.0
33.328125,-25.87890625,-28.80859375,-24.90234375,-9.27734375,-46.38671875,0.0
33.33203125,-29.78515625,-30.2734375,-21.97265625,0.0,-31.73828125,0.0
33.3359375,-72.265625,-31.73828125,-12.6953125,-2.44140625,-7.8125,0.0
33.33984375,-71.2890625,-33.203125,-7.8125,-10.7421875,34.66796875,0.0
33.34375,-74.70703125,-30.2734375,-7.8125,-13.18359375,-43.9453125,0.0
33.34765625,-89.35546875,-29.296875,-7.32421875,-24.4140625,-104.00390625,0.0
33.3515625,-63.96484375,-37.109375,-11.71875,-21.97265625,-148.4375,0.0
33.35546875,-57.12890625,-39.0625,-16.6015625,-19.04296875,-133.7890625,0.0
33.359375,-55.6640625,-35.15625,-11.71875,-16.6015625,-5.37109375,0.0
33.36328125,-57.6171875,-45.8984375,-16.11328125,-10.7421875,43.9453125,0.0
33.3671875,-73.73046875,-45.8984375,-20.99609375,-22.4609375,33.69140625,0.0
33.37109375,-65.91796875,-35.64453125,-18.06640625,-18.5546875,65.4296875,0.0
33.375,-64.453125,-35.64453125,-18.06640625,-14.16015625,64.94140625,0.0
33.37890625,-73.2421875,-39.0625,-23.92578125,-14.6484375,20.5078125,0.0
33.3828125,-63.4765625,-37.59765625,-23.4375,-12.6953125,2.44140625,0.0
33.38671875,-69.3359375,-36.1328125,-23.92578125,-19.53125,-19.04296875,0.0
33.390625,-89.35546875,-36.62109375,-27.83203125,-23.4375,-71.77734375,0.0
33.39453125,-79.58984375,-39.0625,-25.390625,-39.55078125,-41.50390625,0.0
33.3984375,-52.24609375,-29.78515625,-20.5078125,-31.25,-30.76171875,0.0
33.40234375,-38.57421875,-26.3671875,-23.4375,-0.48828125,-34.1796875,0.0
33.40625,-47.36328125,-34.66796875,-29.296875,-42.48046875,-20.01953125,0.0
33.41015625,-49.8046875,-35.64453125,-29.78515625,-68.359375,-19.04296875,0.0
33.4140625,-54.19921875,-34.1796875,-28.3203125,-52.734375,-46.38671875,0.0
33.41796875,-63.4765625,-35.64453125,-24.90234375,-47.36328125,-62.98828125,0.0
33.421875,-54.19921875,-34.1796875,-26.85546875,-40.0390625,-42.48046875,0.0
33.42578125,-58.10546875,-32.71484375,-30.2734375,-32.2265625,16.11328125,0.0
33.4296875,-54.19921875,-25.87890625,-31.25,-26.85546875,33.203125,0.0
33.43359375,-22.94921875,-28.3203125,-34.66796875,-43.45703125,10.25390625,0.0
33.4375,-35.64453125,-36.62109375,-37.59765625,-48.828125,27.34375,0.0
33.44140625,-66.89453125,-33.69140625,-35.64453125,-31.25,-9.27734375,0.0
33.4453125,-68.84765625,-28.80859375,-33.69140625,-32.2265625,-16.6015625,0.0
33.44921875,-62.98828125,-26.85546875,-32.2265625,-34.66796875,-2.9296875,0.0
33.453125,-49.31640625,-34.66796875,-28.3203125,-17.08984375,-46.875,0.0
33.45703125,-52.24609375,-38.0859375,-26.85546875,-1.46484375,-73.2421875,0.0
33.4609375,-35.15625,-28.80859375,-27.83203125,6.8359375,-102.05078125,0.0
33.46484375,-34.1796875,-26.3671875,-28.3203125,-1.953125,-68.84765625,0.0
33.46875,-18.06640625,-24.90234375,-28.3203125,-1.46484375,-38.57421875,0.0
33.47265625,17.08984375,-28.3203125,-31.73828125,-3.41796875,-20.01953125,0.0
33.4765625,-45.8984375,-34.66796875,-30.2734375,-28.80859375,57.12890625,0.0
33.48046875,-87.890625,-29.296875,-22.94921875,-20.99609375,-54.6875,0.0
33.484375,-55.17578125,-24.4140625,-22.4609375,-7.32421875,-127.44140625,0.0
33.48828125,-50.29296875,-26.85546875,-32.2265625,-18.06640625,-83.984375,0.0
33.4921875,-57.12890625,-28.80859375,-39.55078125,-29.296875,-56.15234375,0.0
33.49609375,-41.50390625,-29.296875,-42.48046875,-35.15625,-69.82421875,0.0
33.5,-29.296875,-24.4140625,-42.96875,-23.4375,-78.61328125,0.0
33.50390625,-44.921875,-26.3671875,-31.73828125,-20.5078125,-22.94921875,0.0
33.5078125,-53.22265625,-32.2265625,-28.3203125,-24.4140625,-13.18359375,0.0
33.51171875,-35.64453125,-27.83203125,-33.203125,-19.53125,-35.64453125,0.0
33.515625,-35.15625,-31.73828125,-30.76171875,-30.76171875,-9.27734375,0.0
33.51953125,-41.50390625,-30.76171875,-24.4140625,-31.73828125,-36.1328125,0.0
33.5234375,-60.05859375,-25.390625,-25.87890625,-9.765625,-47.36328125,0.0
33.52734375,-84.9609375,-35.64453125,-26.85546875,-2.9296875,17.578125,0.0
33.53125,-71.77734375,-33.203125,-28.80859375,-25.87890625,79.1015625,0.0
33.53515625,-57.6171875,-26.85546875,-33.203125,-34.1796875,70.3125,0.0
33.5390625,-37.59765625,-24.90234375,-26.3671875,-40.52734375,26.85546875,0.0
33.54296875,-28.3203125,-22.4609375,-24.4140625,-57.12890625,-15.625,0.0
33.546875,-22.4609375,-39.0625,-30.76171875,-49.8046875,19.53125,0.0
33.55078125,-33.69140625,-52.734375,-41.015625,-57.6171875,86.42578125,0.0
33.5546875,-42.48046875,-41.50390625,-47.36328125,-78.125,22.4609375,0.0
33.55859375,-12.20703125,-39.0625,-43.45703125,-76.66015625,31.25,0.0
33.5625,-41.015625,-40.0390625,-35.64453125,-64.94140625,43.45703125,0.0
33.56640625,-75.1953125,-36.1328125,-31.73828125,-54.19921875,-79.58984375,0.0
33.5703125,-26.85546875,-36.62109375,-35.15625,-26.3671875,-79.1015625,0.0
33.57421875,-17.08984375,-29.78515625,-37.109375,-32.2265625,-50.29296875,0.0
33.578125,-62.5,-34.66796875,-36.1328125,-69.82421875,-49.8046875,0.0
33.58203125,-59.5703125,-43.45703125,-36.1328125,-61.5234375,-57.12890625,0.0
33.5859375,-32.71484375,-30.2734375,-37.109375,-49.8046875,-95.21484375,0.0
33.58984375,-36.1328125,-37.109375,-44.43359375,-61.03515625,-55.6640625,0.0
33.59375,-40.0390625,-51.26953125,-42.96875,-73.73046875,-5.37109375,0.0
33.59765625,-41.015625,-42.96875,-35.15625,-53.7109375,-36.62109375,0.0
33.6015625,-55.17578125,-40.0390625,-31.73828125,-34.66796875,-24.90234375,0.0
33.60546875,-48.33984375,-37.59765625,-31.73828125,-43.9453125,47.8515625,0.0
33.609375,-18.06640625,-34.66796875,-35.15625,-62.5,-18.06640625,0.0
33.61328125,-30.2734375,-33.69140625,-37.109375,-53.22265625,-84.9609375,0.0
33.6171875,-68.84765625,-33.203125,-28.80859375,-43.9453125,-18.06640625,0.0
33.62109375,-65.4296875,-31.25,-27.34375,-50.29296875,-38.57421875,0.0
33.625,-37.109375,-25.390625,-33.203125,-48.828125,-124.51171875,0.0
33.62890625,-42.48046875,-31.25,-31.73828125,-39.0625,-103.515625,0.0
33.6328125,-51.26953125,-35.64453125,-33.69140625,-31.73828125,-55.6640625,0.0
33.63671875,-36.62109375,-39.0625,-33.203125,-26.85546875,-41.50390625,0.0
33.640625,-30.2734375,-47.8515625,-34.66796875,-21.97265625,-84.9609375,0.0
33.64453125,-3.90625,-44.921875,-31.73828125,-19.53125,-123.53515625,0.0
33.6484375,-27.83203125,-42.48046875,-29.78515625,-12.20703125,-125.48828125,0.0
33.65234375,-60.546875,-41.50390625,-35.15625,-16.6015625,-95.703125,0.0
33.65625,-61.5234375,-40.52734375,-38.0859375,-43.9453125,-70.3125,0.0
33.66015625,-29.78515625,-37.59765625,-35.64453125,-33.69140625,-66.89453125,0.0
33.6640625,5.37109375,-31.73828125,-23.4375,-12.6953125,-132.32421875,0.0
33.66796875,-30.2734375,-34.66796875,-21.97265625,-23.92578125,-132.32421875,0.0
33.671875,-42.96875,-36.1328125,-30.76171875,-27.34375,-13.671875,0.0
33.67578125,-17.578125,-32.71484375,-21.484375,-19.04296875,11.71875,0.0
33.6796875,0.0,-23.92578125,-13.18359375,-14.16015625,38.0859375,0.0
33.68359375,-10.7421875,-21.97265625,-21.97265625,-5.37109375,79.1015625,0.0
33.6875,-30.76171875,-32.2265625,-30.76171875,-12.6953125,-41.9921875,0.0
33.69140625,-41.50390625,-40.52734375,-30.76171875,-9.765625,-70.3125,0.0
33.6953125,-50.29296875,-40.52734375,-28.80859375,-10.25390625,28.3203125,0.0
33.69921875,-34.66796875,-33.69140625,-22.94921875,-31.25,33.69140625,0.0
33.703125,-14.6484375,-30.2734375,-19.04296875,-17.08984375,-26.3671875,0.0
33.70703125,-14.16015625,-26.3671875,-20.99609375,-5.37109375,-14.6484375,0.0
33.7109375,-5.37109375,-30.2734375,-28.80859375,-24.4140625,3.90625,0.0
33.71484375,-36.1328125,-33.69140625,-32.2265625,-28.3203125,-5.859375,0.0
33.71875,-86.42578125,-32.2265625,-29.296875,-18.5546875,5.37109375,0.0
33.72265625,-71.77734375,-33.203125,-22.94921875,-20.01953125,41.015625,0.0
33.7265625,-36.62109375,-28.3203125,-23.92578125,-17.08984375,50.29296875,0.0
33.73046875,-30.76171875,-29.296875,-30.76171875,-8.7890625,13.18359375,0.0
33.734375,-32.71484375,-34.1796875,-33.69140625,-10.25390625,-39.55078125,0.0
33.73828125,-23.92578125,-31.73828125,-32.2265625,-38.0859375,-40.52734375,0.0
33.7421875,-33.69140625,-25.87890625,-23.92578125,-45.8984375,-43.45703125,0.0
33.74609375,-48.828125,-23.4375,-23.4375,-30.2734375,-94.7265625,0.0
33.75,-47.8515625,-23.4375,-34.66796875,-29.296875,-60.546875,0.0
33.75390625,-24.90234375,-26.85546875,-31.73828125,-9.27734375,-13.671875,0.0
33.7578125,0.0,-25.87890625,-30.76171875,16.11328125,13.18359375,0.0
33.76171875,-46.875,-9.765625,-33.69140625,-21.484375,-10.7421875,0.0
33.765625,-90.8203125,-10.25390625,-28.80859375,-45.41015625,-94.7265625,0.0
33.76953125,-66.40625,-19.53125,-30.2734375,-21.484375,-108.3984375,0.0
33.7734375,-69.82421875,-20.01953125,-32.2265625,-32.71484375,-79.1015625,0.0
33.77734375,-57.6171875,-16.11328125,-37.109375,-51.7578125,-48.33984375,0.0
33.78125,-51.26953125,-17.08984375,-39.55078125,-56.640625,-55.6640625,0.0
33.78515625,-57.6171875,-20.99609375,-37.109375,-56.15234375,-38.0859375,0.0
33.7890625,-71.2890625,-20.01953125,-42.96875,-54.19921875,-28.80859375,0.0
33.79296875,-93.26171875,-19.04296875,-39.55078125,-54.6875,-69.3359375,0.0
33.796875,-63.96484375,-20.01953125,-31.73828125,-48.828125,-57.6171875,0.0
33.80078125,-27.34375,-25.390625,-33.203125,-47.8515625,24.4140625,0.0
33.8046875,-16.11328125,-22.4609375,-40.0390625,-46.38671875,41.50390625,0.0
33.80859375,-35.15625,-13.671875,-47.36328125,-39.55078125,-3.41796875,0.0
33.8125,-61.5234375,-16.6015625,-44.921875,-19.04296875,26.3671875,0.0
33.81640625,-57.6171875,-23.92578125,-40.0390625,-31.73828125,41.9921875,0.0
33.8203125,-49.8046875,-15.625,-36.1328125,-46.875,-42.48046875,0.0
33.82421875,-39.55078125,-11.71875,-32.71484375,-38.0859375,-52.24609375,0.0
33.828125,-26.3671875,-20.5078125,-32.71484375,-21.484375,-19.04296875,0.0
33.83203125,-31.25,-24.90234375,-37.59765625,-19.04296875,-10.25390625,0.0
33.8359375,-34.1796875,-15.625,-35.15625,-23.92578125,-34.66796875,0.0
33.83984375,-20.99609375,-6.8359375,-29.296875,6.34765625,-86.42578125,0.0
33.84375,-19.04296875,-8.7890625,-29.296875,7.8125,-34.1796875,0.0
33.84765625,-15.625,-11.71875,-30.2734375,-3.90625,5.859375,0.0
33.8515625,3.90625,-10.7421875,-32.71484375,-0.9765625,20.01953125,0.0
33.85546875,-42.96875,-12.6953125,-34.66796875,-26.3671875,-21.484375,0.0
33.859375,-74.70703125,-15.13671875,-29.78515625,-31.25,-68.84765625,0.0
33.86328125,-44.43359375,-16.11328125,-35.15625,-22.94921875,-29.296875,0.0
33.8671875,-32.71484375,-6.8359375,-37.109375,-21.97265625,-24.4140625,0.0
33.87109375,-18.06640625,-3.41796875,-31.25,-11.71875,-4.8828125,0.0
33.875,-24.90234375,-20.01953125,-32.2265625,-3.41796875,-9.27734375,0.0
33.87890625,-39.0625,-27.83203125,-38.57421875,-11.23046875,26.85546875,0.0
33.8828125,-32.2265625,-20.5078125,-32.2265625,-11.23046875,31.73828125,0.0
33.88671875,-26.85546875,-22.4609375,-29.296875,-9.765625,-80.56640625,0.0
33.890625,-21.484375,-22.4609375,-33.69140625,-22.94921875,-60.05859375,0.0
33.89453125,-51.7578125,-22.4609375,-30.2734375,-34.66796875,2.9296875,0.0
33.8984375,-60.546875,-17.578125,-22.94921875,-20.5078125,32.71484375,0.0
33.90234375,-30.2734375,-12.20703125,-18.06640625,5.37109375,86.9140625,0.0
33.90625,-16.6015625,-19.04296875,-21.484375,-4.8828125,37.59765625,0.0
33.91015625,-25.390625,-15.625,-24.4140625,-13.671875,-90.33203125,0.0
33.9140625,-42.48046875,-13.18359375,-31.25,-13.18359375,-84.47265625,0.0
33.91796875,-57.6171875,-20.5078125,-33.69140625,6.34765625,-64.94140625,0.0
33.921875,-66.40625,-22.94921875,-30.76171875,19.53125,-52.24609375,0.0
33.92578125,-67.87109375,-24.4140625,-28.80859375,15.13671875,-26.3671875,0.0
33.9296875,-37.109375,-11.71875,-21.484375,34.66796875,-6.34765625,0.0
33.93359375,-11.71875,-5.37109375,-17.08984375,24.90234375,0.9765625,0.0
33.9375,-17.08984375,-18.06640625,-17.578125,11.71875,-70.3125,0.0
33.94140625,-37.109375,-22.94921875,-18.5546875,4.39453125,-55.6640625,0.0
33.9453125,-66.40625,-19.04296875,-21.484375,-6.34765625,-12.6953125,0.0
33.94921875,-77.1484375,-21.97265625,-28.80859375,-10.7421875,-40.52734375,0.0
33.953125,-71.2890625,-31.25,-33.69140625,-14.16015625,-63.96484375,0.0
33.95703125,-54.6875,-31.73828125,-34.66796875,-29.296875,-55.17578125,0.0
33.9609375,-28.80859375,-21.97265625,-27.34375,-25.87890625,-29.78515625,0.0
33.96484375,-22.4609375,-21.97265625,-24.90234375,-3.41796875,59.08203125,0.0
33.96875,-64.94140625,-25.87890625,-30.76171875,-13.18359375,24.4140625,0.0
33.97265625,-62.01171875,-28.3203125,-29.296875,-5.859375,-28.3203125,0.0
33.9765625,-55.6640625,-29.78515625,-26.3671875,10.7421875,-92.7734375,0.0
33.98046875,-78.61328125,-30.76171875,-29.296875,-6.8359375,-78.61328125,0.0
33.984375,-72.75390625,-37.109375,-30.76171875,-27.34375,23.92578125,0.0
33.98828125,-67.87109375,-37.109375,-36.62109375,-24.4140625,-49.8046875,0.0
33.9921875,-60.546875,-34.1796875,-40.52734375,-22.4609375,-94.23828125,0.0
33.99609375,-47.8515625,-30.76171875,-34.1796875,-28.80859375,-72.75390625,0.0
34.0,-36.62109375,-26.85546875,-27.83203125,-10.25390625,-94.23828125,0.0
34.00390625,-50.29296875,-31.25,-27.34375,-10.25390625,-27.83203125,0.0
34.0078125,-48.828125,-27.83203125,-28.3203125,-30.2734375,16.6015625,0.0
34.01171875,-34.1796875,-33.203125,-34.66796875,-35.64453125,12.6953125,0.0
34.015625,-44.921875,-38.0859375,-37.59765625,-22.94921875,-9.27734375,0.0
34.01953125,-60.546875,-32.71484375,-24.90234375,-8.30078125,-86.9140625,0.0
34.0234375,-66.40625,-35.64453125,-22.4609375,-25.87890625,-49.31640625,0.0
34.02734375,-75.1953125,-38.57421875,-27.34375,-41.9921875,-23.4375,0.0
34.03125,-74.21875,-37.109375,-31.25,-31.25,-44.43359375,0.0
34.03515625,-67.87109375,-39.0625,-35.15625,-19.04296875,-36.62109375,0.0
34.0390625,-57.6171875,-35.15625,-28.80859375,-11.71875,-13.671875,0.0
34.04296875,-63.4765625,-26.85546875,-30.2734375,-3.41796875,-53.7109375,0.0
34.046875,-44.43359375,-35.64453125,-37.59765625,0.9765625,-25.390625,0.0
34.05078125,-35.64453125,-38.0859375,-38.57421875,-21.484375,25.87890625,0.0
34.0546875,-66.40625,-32.2265625,-34.66796875,-36.62109375,-4.8828125,0.0
34.05859375,-57.6171875,-42.48046875,-33.69140625,-37.109375,18.06640625,0.0
34.0625,-52.24609375,-41.015625,-32.71484375,-25.87890625,3.90625,0.0
34.06640625,-54.6875,-32.71484375,-27.83203125,2.44140625,-35.64453125,0.0
34.0703125,-55.6640625,-36.1328125,-31.25,-5.37109375,-19.53125,0.0
34.07421875,-71.77734375,-44.921875,-31.73828125,-9.765625,-21.97265625,0.0
34.078125,-50.78125,-47.8515625,-29.296875,2.44140625,-43.45703125,0.0
34.08203125,-12.6953125,-43.45703125,-28.80859375,13.18359375,-20.01953125,0.0
34.0859375,-37.59765625,-46.38671875,-33.69140625,30.2734375,13.18359375,0.0
34.08984375,-58.10546875,-50.78125,-38.57421875,40.0390625,-33.203125,0.0
34.09375,-67.3828125,-53.22265625,-36.62109375,31.25,41.015625,0.0
34.09765625,-69.82421875,-47.8515625,-32.71484375,21.97265625,21.484375,0.0
34.1015625,-56.640625,-41.50390625,-33.69140625,23.92578125,-79.1015625,0.0
34.10546875,-53.7109375,-43.9453125,-33.69140625,27.83203125,-64.94140625,0.0
34.109375,-49.8046875,-42.48046875,-36.62109375,19.04296875,-80.56640625,0.0
34.11328125,-47.36328125,-43.45703125,-37.59765625,17.08984375,-41.50390625,0.0
34.1171875,-46.38671875,-37.59765625,-29.296875,25.87890625,-17.578125,0.0
34.12109375,-32.71484375,-32.2265625,-30.76171875,15.625,-44.43359375,0.0
34.125,-28.3203125,-37.59765625,-34.1796875,11.71875,-21.484375,0.0
34.12890625,-47.36328125,-38.57421875,-29.78515625,15.625,-137.6953125,0.0
34.1328125,-42.48046875,-33.69140625,-24.4140625,22.4609375,-235.83984375,0.0
34.13671875,-39.55078125,-32.2265625,-23.4375,31.25,-163.57421875,0.0
34.140625,-45.8984375,-32.2265625,-27.34375,28.3203125,-122.0703125,0.0
34.14453125,-42.96875,-25.87890625,-26.3671875,21.484375,-148.92578125,0.0
34.1484375,-41.50390625,-23.4375,-28.3203125,35.64453125,-196.77734375,0.0
34.15234375,-36.62109375,-28.3203125,-30.76171875,40.0390625,-136.71875,0.0
34.15625,-43.45703125,-35.64453125,-35.64453125,14.16015625,-163.57421875,0.0
34.16015625,-54.6875,-43.45703125,-31.73828125,20.01953125,-171.875,0.0
34.1640625,-68.359375,-39.0625,-30.2734375,20.99609375,-114.2578125,0.0
34.16796875,-68.359375,-35.15625,-37.59765625,11.71875,-104.98046875,0.0
34.171875,-59.5703125,-37.109375,-43.45703125,13.18359375,-94.7265625,0.0
34.17578125,-47.36328125,-33.69140625,-42.48046875,6.34765625,-36.1328125,0.0
34.1796875,-13.18359375,-33.203125,-38.0859375,15.625,-5.859375,0.0
34.18359375,-11.71875,-39.0625,-41.015625,17.578125,-102.5390625,0.0
34.1875,-51.7578125,-40.0390625,-41.015625,-0.9765625,-145.99609375,0.0
34.19140625,-82.03125,-39.0625,-42.96875,-0.48828125,-104.00390625,0.0
34.1953125,-54.19921875,-33.203125,-44.43359375,6.8359375,-123.046875,0.0
34.19921875,-30.76171875,-30.76171875,-40.0390625,-1.953125,-71.77734375,0.0
34.203125,-39.55078125,-39.55078125,-37.59765625,-4.8828125,-12.6953125,0.0
34.20703125,-34.66796875,-40.0390625,-42.48046875,4.8828125,-31.73828125,0.0
34.2109375,-27.83203125,-32.71484375,-45.41015625,5.859375,-144.04296875,0.0
34.21484375,-39.55078125,-36.1328125,-40.0390625,-4.8828125,-158.69140625,0.0
34.21875,-55.17578125,-37.109375,-35.15625,-10.7421875,-45.8984375,0.0
34.22265625,-54.6875,-37.59765625,-36.62109375,-2.44140625,-23.4375,0.0
34.2265625,-54.6875,-28.80859375,-34.66796875,6.34765625,-81.0546875,0.0
34.23046875,-43.45703125,-27.34375,-37.109375,6.34765625,-97.16796875,0.0
34.234375,-11.71875,-38.57421875,-39.0625,1.46484375,-17.08984375,0.0
34.23828125,-41.9921875,-39.0625,-40.0390625,8.30078125,90.33203125,0.0
34.2421875,-82.03125,-33.203125,-34.1796875,17.08984375,123.046875,0.0
34.24609375,-59.08203125,-30.76171875,-29.296875,14.6484375,134.27734375,0.0
34.25,-48.828125,-37.59765625,-32.71484375,3.41796875,61.03515625,0.0
34.25390625,-52.24609375,-41.50390625,-35.64453125,-3.41796875,-31.73828125,0.0
34.2578125,-42.96875,-38.57421875,-33.69140625,11.71875,-101.5625,0.0
34.26171875,-12.6953125,-27.83203125,-25.390625,17.578125,-98.6328125,0.0
34.265625,-19.53125,-29.296875,-23.4375,1.953125,-64.94140625,0.0
34.26953125,-36.1328125,-35.64453125,-25.390625,-0.48828125,-55.17578125,0.0
34.2734375,-52.734375,-34.66796875,-24.4140625,-6.34765625,-120.60546875,0.0
34.27734375,-71.2890625,-35.15625,-28.3203125,-25.390625,-85.44921875,0.0
34.28125,-44.43359375,-30.76171875,-27.83203125,-20.99609375,-23.92578125,0.0
34.28515625,-14.6484375,-30.76171875,-23.92578125,-3.41796875,-56.15234375,0.0
34.2890625,-11.23046875,-26.85546875,-24.90234375,-4.39453125,-56.640625,0.0
34.29296875,-10.25390625,-25.390625,-24.90234375,-17.08984375,-2.9296875,0.0
34.296875,-15.625,-38.57421875,-29.296875,-20.01953125,6.8359375,0.0
34.30078125,-52.734375,-43.9453125,-28.80859375,-33.69140625,18.06640625,0.0
34.3046875,-59.5703125,-34.66796875,-25.87890625,-38.0859375,-3.90625,0.0
34.30859375,-44.43359375,-35.64453125,-29.78515625,-33.203125,-6.8359375,0.0
34.3125,-49.8046875,-45.8984375,-36.1328125,-25.87890625,-9.765625,0.0
34.31640625,-45.41015625,-41.9921875,-34.1796875,-34.1796875,-52.734375,0.0
34.3203125,-29.78515625,-31.25,-26.85546875,-26.85546875,-54.6875,0.0
34.32421875,-26.3671875,-27.83203125,-26.3671875,-4.39453125,-94.7265625,0.0
34.328125,-32.71484375,-37.59765625,-33.69140625,-22.94921875,-104.00390625,0.0
34.33203125,-54.6875,-43.9453125,-41.50390625,-35.15625,-51.7578125,0.0
34.3359375,-74.21875,-36.62109375,-34.1796875,-31.73828125,-19.04296875,0.0
34.33984375,-45.41015625,-38.0859375,-25.87890625,-27.83203125,-20.01953125,0.0
34.34375,-51.7578125,-41.9921875,-28.3203125,-27.83203125,-8.30078125,0.0
34.34765625,-44.43359375,-41.015625,-31.25,-24.4140625,25.87890625,0.0
34.3515625,-30.76171875,-41.50390625,-27.34375,-21.484375,82.51953125,0.0
34.35546875,-33.203125,-37.59765625,-17.578125,-25.390625,114.74609375,0.0
34.359375,-29.296875,-36.62109375,-20.01953125,-16.6015625,55.6640625,0.0
34.36328125,-11.71875,-32.71484375,-32.71484375,-17.578125,54.19921875,0.0
34.3671875,-15.625,-32.2265625,-29.296875,-17.08984375,31.25,0.0
34.37109375,-67.87109375,-41.015625,-29.78515625,-20.01953125,25.390625,0.0
34.375,-67.3828125,-41.9921875,-31.73828125,-16.11328125,42.96875,0.0
34.37890625,-50.29296875,-39.0625,-21.484375,-10.7421875,13.18359375,0.0
34.3828125,-50.29296875,-40.52734375,-20.01953125,-2.9296875,41.50390625,0.0
34.38671875,-39.0625,-42.96875,-27.34375,3.41796875,-32.2265625,0.0
34.390625,-35.64453125,-47.36328125,-30.76171875,-7.32421875,-61.5234375,0.0
34.39453125,-60.546875,-46.38671875,-33.203125,-20.5078125,-24.90234375,0.0
34.3984375,-50.29296875,-31.73828125,-26.3671875,-19.53125,-16.6015625,0.0
34.40234375,-4.39453125,-24.4140625,-22.94921875,-14.16015625,44.921875,0.0
34.40625,-30.2734375,-32.2265625,-30.2734375,-13.671875,50.78125,0.0
34.41015625,-73.2421875,-38.0859375,-30.76171875,-13.18359375,39.55078125,0.0
34.4140625,-54.6875,-36.1328125,-30.76171875,-22.4609375,8.7890625,0.0
34.41796875,-23.4375,-34.66796875,-34.66796875,-19.53125,71.77734375,0.0
34.421875,-35.15625,-36.62109375,-30.76171875,-0.48828125,91.796875,0.0
34.42578125,-59.5703125,-31.25,-27.34375,-6.34765625,15.13671875,0.0
34.4296875,-51.7578125,-27.83203125,-31.25,-17.08984375,-16.6015625,0.0
34.43359375,-49.8046875,-36.62109375,-34.66796875,-20.99609375,-4.8828125,0.0
34.4375,-36.62109375,-43.9453125,-33.203125,-32.71484375,21.97265625,0.0
34.44140625,-13.18359375,-39.0625,-26.85546875,-18.5546875,7.8125,0.0
34.4453125,-45.41015625,-32.71484375,-26.3671875,-16.6015625,10.25390625,0.0
34.44921875,-84.9609375,-33.203125,-31.73828125,-32.71484375,40.0390625,0.0
34.453125,-53.7109375,-34.66796875,-29.78515625,-20.99609375,48.33984375,0.0
34.45703125,-15.625,-33.69140625,-29.296875,-12.6953125,-0.9765625,0.0
34.4609375,-30.76171875,-31.73828125,-26.85546875,-11.71875,38.57421875,0.0
34.46484375,-69.3359375,-28.80859375,-29.296875,-7.32421875,79.58984375,0.0
34.46875,-78.125,-32.2265625,-31.73828125,0.48828125,-52.734375,0.0
34.47265625,-57.12890625,-29.296875,-29.296875,-21.484375,-19.53125,0.0
34.4765625,-41.015625,-25.390625,-32.71484375,-30.2734375,35.64453125,0.0
34.48046875,-43.45703125,-28.3203125,-27.34375,-21.484375,-42.96875,0.0
34.484375,-45.8984375,-31.25,-24.90234375,-16.6015625,-50.78125,0.0
34.48828125,-60.546875,-34.1796875,-29.78515625,-16.11328125,10.25390625,0.0
34.4921875,-51.7578125,-31.73828125,-23.4375,-15.13671875,21.484375,0.0
34.49609375,-40.0390625,-27.83203125,-19.04296875,-12.6953125,-21.97265625,0.0
34.5,-39.0625,-27.34375,-22.4609375,-18.06640625,-2.9296875,0.0
34.50390625,-31.73828125,-29.296875,-22.94921875,-21.484375,0.0,0.0
34.5078125,-16.11328125,-32.71484375,-26.85546875,-37.59765625,-73.73046875,0.0
34.51171875,-21.484375,-29.296875,-26.85546875,-36.1328125,-58.10546875,0.0
34.515625,-74.70703125,-29.78515625,-26.85546875,-35.64453125,-47.36328125,0.0
34.51953125,-86.42578125,-38.0859375,-27.34375,-48.828125,-53.7109375,0.0
34.5234375,-49.8046875,-26.3671875,-25.390625,-33.69140625,5.859375,0.0
34.52734375,-45.41015625,-21.97265625,-28.80859375,-15.625,37.109375,0.0
34.53125,-49.31640625,-39.0625,-33.69140625,-13.671875,4.39453125,0.0
34.53515625,-44.43359375,-36.62109375,-30.76171875,-18.5546875,23.92578125,0.0
34.5390625,-43.9453125,-28.80859375,-28.80859375,-15.13671875,47.36328125,0.0
34.54296875,-31.73828125,-31.25,-32.2265625,-10.7421875,35.15625,0.0
34.546875,-29.296875,-34.66796875,-32.71484375,-25.87890625,23.92578125,0.0
34.55078125,-32.71484375,-39.0625,-33.69140625,-23.4375,42.96875,0.0
34.5546875,-41.9921875,-41.015625,-34.1796875,-17.578125,4.39453125,0.0
34.55859375,-59.08203125,-46.38671875,-26.85546875,-27.83203125,-63.4765625,0.0
34.5625,-60.05859375,-52.734375,-26.3671875,-34.66796875,-50.29296875,0.0
34.56640625,-50.29296875,-44.43359375,-25.87890625,-29.78515625,-57.12890625,0.0
34.5703125,-29.78515625,-35.15625,-28.3203125,-14.6484375,-83.984375,0.0
34.57421875,-32.71484375,-40.0390625,-30.2734375,-13.18359375,-42.48046875,0.0
34.578125,-36.1328125,-46.38671875,-28.3203125,-15.625,18.5546875,0.0
34.58203125,-29.78515625,-35.64453125,-30.76171875,-7.32421875,-8.7890625,0.0
34.5859375,-30.2734375,-33.203125,-28.3203125,-0.9765625,-72.265625,0.0
34.58984375,-30.76171875,-41.9921875,-29.78515625,-16.6015625,-99.609375,0.0
34.59375,-33.69140625,-42.96875,-33.203125,-20.99609375,-79.1015625,0.0
34.59765625,-45.41015625,-43.45703125,-27.83203125,-6.8359375,-23.92578125,0.0
34.6015625,-60.05859375,-38.57421875,-34.66796875,-22.94921875,-30.76171875,0.0
34.60546875,-47.36328125,-39.0625,-36.1328125,-15.625,-60.05859375,0.0
34.609375,-35.15625,-46.38671875,-34.1796875,-18.06640625,-84.47265625,0.0
34.61328125,-30.76171875,-43.45703125,-41.50390625,-34.66796875,29.296875,0.0
34.6171875,-27.83203125,-31.25,-35.64453125,-20.99609375,98.6328125,0.0
34.62109375,-28.80859375,-28.80859375,-33.69140625,-33.69140625,-25.87890625,0.0
34.625,-24.90234375,-37.59765625,-39.0625,-41.9921875,-35.64453125,0.0
34.62890625,-31.25,-40.0390625,-40.0390625,-39.0625,-17.578125,0.0
34.6328125,-36.62109375,-40.52734375,-38.0859375,-30.76171875,-102.05078125,0.0
34.63671875,-14.16015625,-41.015625,-30.76171875,-7.8125,-78.61328125,0.0
34.640625,-4.8828125,-38.0859375,-27.34375,-8.30078125,1.953125,0.0
34.64453125,-53.7109375,-39.55078125,-28.80859375,-26.3671875,-59.08203125,0.0
34.6484375,-38.57421875,-42.96875,-30.2734375,-23.4375,-82.51953125,0.0
34.65234375,-16.11328125,-32.71484375,-31.73828125,-14.16015625,17.08984375,0.0
34.65625,-32.71484375,-29.78515625,-28.80859375,-24.90234375,19.53125,0.0
34.66015625,-27.34375,-32.2265625,-27.83203125,-28.80859375,-10.7421875,0.0
34.6640625,-16.11328125,-23.92578125,-24.4140625,-17.578125,-7.8125,0.0
34.66796875,-24.4140625,-23.92578125,-26.3671875,-19.53125,-35.15625,0.0
34.671875,-48.828125,-32.71484375,-30.76171875,-37.59765625,-76.66015625,0.0
34.67578125,-45.8984375,-34.1796875,-27.83203125,-38.0859375,-106.93359375,0.0
34.6796875,-27.83203125,-22.94921875,-20.01953125,-28.3203125,-66.89453125,0.0
34.68359375,-23.92578125,-28.3203125,-22.94921875,-11.23046875,-49.8046875,0.0
34.6875,-16.6015625,-27.34375,-35.15625,-14.16015625,-95.21484375,0.0
34.69140625,-23.4375,-22.94921875,-36.62109375,-46.875,-124.51171875,0.0
34.6953125,-39.55078125,-26.3671875,-34.66796875,-43.45703125,-29.78515625,0.0
34.69921875,-1.953125,-18.5546875,-34.66796875,-23.92578125,87.40234375,0.0
34.703125,6.8359375,-18.5546875,-30.76171875,-22.94921875,42.96875,0.0
34.70703125,-50.29296875,-22.94921875,-33.203125,-36.1328125,-17.08984375,0.0
34.7109375,-39.55078125,-23.92578125,-40.0390625,-32.2265625,-49.31640625,0.0
34.71484375,-20.01953125,-29.78515625,-33.203125,-24.90234375,-115.234375,0.0
34.71875,-53.22265625,-36.1328125,-20.01953125,-24.4140625,-70.80078125,0.0
34.72265625,-41.50390625,-25.87890625,-19.04296875,-17.08984375,-11.23046875,0.0
34.7265625,-21.484375,-19.53125,-27.34375,-18.5546875,-102.5390625,0.0
34.73046875,-18.06640625,-21.484375,-25.390625,-4.8828125,-92.28515625,0.0
34.734375,-31.25,-20.5078125,-23.92578125,1.953125,-1.953125,0.0
34.73828125,-39.55078125,-16.6015625,-22.4609375,-4.8828125,-62.5,0.0
34.7421875,-26.3671875,-15.625,-19.04296875,-13.671875,-78.125,0.0
34.74609375,-11.23046875,-17.578125,-20.01953125,-26.3671875,-29.78515625,0.0
34.75,-3.90625,-18.5546875,-23.4375,-22.94921875,-79.58984375,0.0
34.75390625,-9.27734375,-26.3671875,-30.76171875,-24.90234375,-70.80078125,0.0
34.7578125,-19.53125,-24.4140625,-29.78515625,-19.04296875,-32.71484375,0.0
34.76171875,-32.2265625,-25.87890625,-29.296875,-13.671875,-85.9375,0.0
34.765625,-16.11328125,-33.203125,-33.203125,-16.6015625,-125.0,0.0
34.76953125,-36.1328125,-35.64453125,-36.1328125,-22.94921875,-67.3828125,0.0
34.7734375,-47.36328125,-39.0625,-33.69140625,-24.90234375,-21.97265625,0.0
34.77734375,-33.203125,-37.59765625,-30.2734375,-28.80859375,-11.23046875,0.0
34.78125,-43.45703125,-33.69140625,-30.76171875,-37.109375,-25.390625,0.0
34.78515625,-41.015625,-29.78515625,-27.83203125,-14.6484375,-21.484375,0.0
34.7890625,-33.69140625,-27.34375,-28.80859375,-1.46484375,42.96875,0.0
34.79296875,-35.15625,-30.76171875,-30.2734375,-11.23046875,28.3203125,0.0
34.796875,-41.015625,-39.0625,-30.76171875,-20.01953125,2.9296875,0.0
34.80078125,-39.0625,-35.15625,-27.34375,-27.34375,32.2265625,0.0
34.8046875,-41.50390625,-24.4140625,-22.94921875,-13.18359375,-66.40625,0.0
34.80859375,-55.17578125,-30.76171875,-30.2734375,-12.20703125,-88.8671875,0.0
34.8125,-62.01171875,-39.0625,-34.66796875,-25.87890625,64.94140625,0.0
34.81640625,-21.97265625,-32.71484375,-26.85546875,-29.78515625,19.04296875,0.0
34.8203125,-7.8125,-18.06640625,-19.04296875,-23.92578125,-51.7578125,0.0
34.82421875,-35.15625,-22.4609375,-20.5078125,-14.16015625,1.953125,0.0
34.828125,-36.1328125,-33.203125,-25.390625,-14.6484375,3.41796875,0.0
34.83203125,-34.1796875,-30.76171875,-26.3671875,-21.97265625,-46.875,0.0
34.8359375,-33.69140625,-31.73828125,-27.34375,-24.90234375,-40.52734375,0.0
34.83984375,-41.015625,-37.59765625,-28.80859375,-29.78515625,-50.29296875,0.0
34.84375,-6.8359375,-31.25,-24.4140625,-26.85546875,-78.125,0.0
34.84765625,14.6484375,-26.3671875,-23.92578125,-14.16015625,-54.19921875,0.0
34.8515625,-36.62109375,-30.2734375,-28.3203125,-40.0390625,-0.9765625,0.0
34.85546875,-66.40625,-37.59765625,-31.25,-57.12890625,-17.08984375,0.0
34.859375,-70.3125,-47.36328125,-33.69140625,-44.43359375,-66.89453125,0.0
34.86328125,-63.96484375,-46.38671875,-34.66796875,-50.78125,23.4375,0.0
34.8671875,-53.7109375,-38.57421875,-35.15625,-42.48046875,53.22265625,0.0
34.87109375,-48.33984375,-39.55078125,-35.64453125,-35.64453125,26.3671875,0.0
34.875,-45.41015625,-36.62109375,-34.1796875,-51.26953125,22.4609375,0.0
34.87890625,-25.87890625,-33.69140625,-28.3203125,-55.17578125,10.7421875,0.0
34.8828125,-12.6953125,-31.25,-28.3203125,-47.8515625,-53.22265625,0.0
34.88671875,-38.57421875,-33.69140625,-30.76171875,-37.59765625,-95.703125,0.0
34.890625,-59.08203125,-41.015625,-32.2265625,-33.203125,-68.84765625,0.0
34.89453125,-46.875,-41.50390625,-34.66796875,-40.0390625,-55.17578125,0.0
34.8984375,-34.1796875,-38.57421875,-34.1796875,-31.73828125,-59.08203125,0.0
34.90234375,-48.828125,-39.55078125,-31.73828125,-19.53125,-102.05078125,0.0
34.90625,-60.546875,-43.9453125,-32.71484375,-35.15625,-91.796875,0.0
34.91015625,-50.29296875,-48.828125,-36.1328125,-55.6640625,-29.296875,0.0
34.9140625,-49.8046875,-44.43359375,-35.15625,-52.734375,-18.5546875,0.0
34.91796875,-59.5703125,-39.0625,-29.296875,-31.73828125,-34.1796875,0.0
34.921875,-44.43359375,-34.66796875,-27.83203125,-25.87890625,-36.1328125,0.0
34.92578125,-35.64453125,-32.71484375,-27.83203125,-38.0859375,13.671875,0.0
34.9296875,-58.10546875,-40.52734375,-32.71484375,-46.38671875,110.83984375,0.0
34.93359375,-66.89453125,-44.921875,-38.0859375,-33.203125,39.55078125,0.0
34.9375,-53.22265625,-38.0859375,-35.15625,-20.01953125,-7.32421875,0.0
34.94140625,-45.41015625,-32.2265625,-28.80859375,-27.83203125,-1.953125,0.0
34.9453125,-46.875,-25.87890625,-34.1796875,-51.26953125,-4.8828125,0.0
34.94921875,-70.3125,-32.71484375,-36.62109375,-69.3359375,-63.96484375,0.0
34.953125,-64.94140625,-44.43359375,-32.2265625,-56.640625,-9.765625,0.0
34.95703125,-52.24609375,-46.875,-29.78515625,-45.41015625,83.49609375,0.0
34.9609375,-45.8984375,-46.38671875,-23.4375,-31.25,-23.4375,0.0
34.96484375,-22.4609375,-38.0859375,-22.94921875,-21.97265625,-35.15625,0.0
34.96875,-17.08984375,-30.76171875,-28.80859375,-28.80859375,28.80859375,0.0
34.97265625,-44.921875,-33.203125,-35.15625,-35.15625,-9.27734375,0.0
34.9765625,-26.3671875,-31.25,-36.1328125,-27.34375,-35.15625,0.0
34.98046875,-26.85546875,-30.2734375,-32.71484375,-15.13671875,50.29296875,0.0
34.984375,-61.5234375,-35.64453125,-29.78515625,-17.578125,73.73046875,0.0
34.98828125,-66.40625,-36.1328125,-30.2734375,-20.99609375,-21.97265625,0.0
34.9921875,-58.10546875,-28.80859375,-26.85546875,-19.53125,-53.22265625,0.0
34.99609375,-40.52734375,-27.83203125,-23.92578125,-14.16015625,-53.22265625,0.0
35.0,-42.96875,-38.57421875,-20.01953125,-2.44140625,-67.87109375,0.0
35.00390625,-43.45703125,-38.0859375,-19.04296875,-0.48828125,-61.5234375,0.0
35.0078125,-34.66796875,-31.73828125,-21.97265625,4.39453125,-131.34765625,0.0
35.01171875,-7.32421875,-37.59765625,-28.80859375,2.44140625,-111.328125,0.0
35.015625,-14.6484375,-39.0625,-28.3203125,0.9765625,27.83203125,0.0
35.01953125,-62.5,-35.15625,-24.90234375,10.25390625,-10.7421875,0.0
35.0234375,-49.8046875,-27.34375,-24.90234375,12.20703125,-116.69921875,0.0
35.02734375,-25.87890625,-32.71484375,-23.4375,3.41796875,-110.83984375,0.0
35.03125,-33.203125,-41.015625,-26.85546875,-9.765625,-58.10546875,0.0
35.03515625,-40.0390625,-33.69140625,-22.4609375,-13.18359375,-54.19921875,0.0
35.0390625,-38.0859375,-35.64453125,-15.625,-14.16015625,-97.16796875,0.0
35.04296875,-48.33984375,-40.52734375,-20.99609375,-22.94921875,-50.29296875,0.0
35.046875,-33.203125,-36.62109375,-24.90234375,-20.01953125,-32.71484375,0.0
35.05078125,-19.04296875,-35.15625,-25.87890625,-29.296875,-109.86328125,0.0
35.0546875,-51.26953125,-34.1796875,-26.85546875,-43.45703125,-164.55078125,0.0
35.05859375,-41.50390625,-32.2265625,-25.390625,-42.48046875,-198.73046875,0.0
35.0625,-26.3671875,-27.83203125,-30.76171875,-43.9453125,-128.41796875,0.0
35.06640625,-46.875,-28.3203125,-30.2734375,-41.015625,-108.3984375,0.0
35.0703125,-26.3671875,-27.34375,-22.94921875,-26.85546875,-168.9453125,0.0
35.07421875,-32.2265625,-26.85546875,-27.34375,-25.87890625,-191.40625,0.0
35.078125,-40.0390625,-34.1796875,-30.76171875,-50.78125,-120.60546875,0.0
35.08203125,-40.0390625,-32.71484375,-25.390625,-58.59375,-129.39453125,0.0
35.0859375,-65.91796875,-24.90234375,-25.390625,-43.9453125,-145.99609375,0.0
35.08984375,-67.3828125,-28.80859375,-33.203125,-57.12890625,-50.78125,0.0
35.09375,-46.38671875,-42.96875,-37.59765625,-70.3125,62.5,0.0
35.09765625,-44.921875,-38.0859375,-35.64453125,-61.5234375,49.31640625,0.0
35.1015625,-36.62109375,-31.73828125,-29.296875,-52.24609375,53.22265625,0.0
35.10546875,2.44140625,-33.69140625,-30.2734375,-48.828125,68.359375,0.0
35.109375,-24.4140625,-33.69140625,-33.203125,-61.03515625,26.85546875,0.0
35.11328125,-69.82421875,-31.25,-31.25,-73.2421875,89.84375,0.0
35.1171875,-56.15234375,-26.85546875,-27.34375,-68.84765625,88.37890625,0.0
35.12109375,-48.33984375,-30.2734375,-33.203125,-53.22265625,47.36328125,0.0
35.125,-38.57421875,-29.78515625,-38.57421875,-62.01171875,2.44140625,0.0
35.12890625,0.9765625,-25.87890625,-36.62109375,-63.4765625,7.8125,0.0
35.1328125,-30.2734375,-31.73828125,-33.69140625,-47.36328125,56.640625,0.0
35.13671875,-66.40625,-34.66796875,-28.80859375,-33.69140625,71.77734375,0.0
35.140625,-59.08203125,-40.52734375,-29.78515625,-35.64453125,105.46875,0.0
35.14453125,-44.921875,-45.41015625,-33.69140625,-26.3671875,44.43359375,0.0
35.1484375,-38.57421875,-36.62109375,-36.1328125,-11.23046875,-43.45703125,0.0
35.15234375,-38.0859375,-30.2734375,-38.57421875,-27.34375,-28.80859375,0.0
35.15625,-19.04296875,-36.1328125,-38.57421875,-46.38671875,-62.98828125,0.0
35.16015625,-25.390625,-38.57421875,-40.0390625,-44.921875,-76.171875,0.0
35.1640625,-46.38671875,-32.2265625,-37.59765625,-37.59765625,-29.296875,0.0
35.16796875,-62.98828125,-29.296875,-34.1796875,-31.25,-43.9453125,0.0
35.171875,-62.5,-37.59765625,-34.1796875,-27.34375,-67.3828125,0.0
35.17578125,-40.0390625,-34.1796875,-32.71484375,-21.484375,-22.94921875,0.0
35.1796875,-44.43359375,-21.97265625,-34.1796875,-21.97265625,-20.5078125,0.0
35.18359375,-32.71484375,-27.83203125,-34.66796875,-36.1328125,18.5546875,0.0
35.1875,-33.69140625,-39.55078125,-36.1328125,-40.0390625,-48.33984375,0.0
35.19140625,-46.38671875,-37.109375,-39.55078125,-38.0859375,-42.48046875,0.0
35.1953125,-32.71484375,-28.80859375,-35.15625,-39.55078125,7.8125,0.0
35.19921875,-30.76171875,-32.2265625,-33.203125,-50.29296875,-44.43359375,0.0
35.203125,-49.8046875,-35.64453125,-33.69140625,-53.22265625,-41.015625,0.0
35.20703125,-50.78125,-32.2265625,-32.2265625,-44.43359375,-40.52734375,0.0
35.2109375,-30.2734375,-29.78515625,-37.59765625,-50.78125,-73.73046875,0.0
35.21484375,-41.015625,-37.59765625,-38.0859375,-56.15234375,7.32421875,0.0
35.21875,-55.17578125,-39.55078125,-31.25,-33.69140625,73.73046875,0.0
35.22265625,-55.17578125,-32.71484375,-27.83203125,-32.2265625,18.06640625,0.0
35.2265625,-60.546875,-29.78515625,-24.90234375,-61.03515625,-52.24609375,0.0
35.23046875,-64.94140625,-34.1796875,-24.90234375,-60.05859375,-36.1328125,0.0
35.234375,-54.6875,-35.64453125,-28.3203125,-55.6640625,8.30078125,0.0
35.23828125,-39.55078125,-39.55078125,-29.78515625,-54.6875,-54.19921875,0.0
35.2421875,-46.38671875,-37.109375,-25.87890625,-41.50390625,-55.17578125,0.0
35.24609375,-45.8984375,-32.71484375,-26.85546875,-35.15625,-0.48828125,0.0
35.25,-39.55078125,-39.55078125,-31.25,-37.59765625,-23.92578125,0.0
35.25390625,-43.9453125,-41.015625,-31.25,-48.33984375,-61.03515625,0.0
35.2578125,-37.59765625,-39.55078125,-31.25,-63.96484375,-16.6015625,0.0
35.26171875,-59.5703125,-41.9921875,-35.64453125,-61.03515625,-33.203125,0.0
35.265625,-78.125,-36.62109375,-37.59765625,-48.33984375,-104.4921875,0.0
35.26953125,-40.52734375,-35.64453125,-33.203125,-52.734375,-139.16015625,0.0
35.2734375,-36.62109375,-35.15625,-30.76171875,-48.33984375,-109.375,0.0
35.27734375,-55.17578125,-34.1796875,-33.203125,-39.0625,-40.52734375,0.0
35.28125,-47.8515625,-38.0859375,-31.25,-41.50390625,-49.31640625,0.0
35.28515625,-49.8046875,-39.55078125,-32.71484375,-51.26953125,-40.52734375,0.0
35.2890625,-52.734375,-31.25,-40.52734375,-52.734375,1.953125,0.0
35.29296875,-51.26953125,-31.73828125,-43.9453125,-49.31640625,52.734375,0.0
35.296875,-61.03515625,-40.0390625,-38.57421875,-47.8515625,-7.32421875,0.0
35.30078125,-54.19921875,-35.64453125,-28.80859375,-33.69140625,64.453125,0.0
35.3046875,-54.19921875,-33.203125,-23.4375,-16.6015625,-9.27734375,0.0
35.30859375,-69.3359375,-40.0390625,-25.390625,-20.01953125,2.44140625,0.0
35.3125,-62.5,-40.0390625,-30.76171875,-47.8515625,51.26953125,0.0
35.31640625,-47.36328125,-34.1796875,-38.0859375,-59.5703125,-35.15625,0.0
35.3203125,-18.06640625,-28.80859375,-36.62109375,-48.33984375,-84.47265625,0.0
35.32421875,-28.80859375,-27.83203125,-30.76171875,-52.24609375,10.25390625,0.0
35.328125,-78.61328125,-32.71484375,-32.71484375,-58.10546875,-4.39453125,0.0
35.33203125,-77.63671875,-37.59765625,-34.1796875,-50.78125,-64.94140625,0.0
35.3359375,-54.19921875,-37.59765625,-34.1796875,-62.01171875,-48.33984375,0.0
35.33984375,-39.55078125,-31.73828125,-33.69140625,-71.77734375,-45.8984375,0.0
35.34375,-35.15625,-22.4609375,-31.25,-67.87109375,-23.4375,0.0
35.34765625,-44.921875,-22.4609375,-29.78515625,-73.73046875,-21.97265625,0.0
35.3515625,-67.87109375,-23.4375,-30.2734375,-71.77734375,-1.953125,0.0
35.35546875,-87.40234375,-30.2734375,-33.69140625,-70.80078125,-14.6484375,0.0
35.359375,-61.03515625,-30.2734375,-28.3203125,-78.61328125,-43.9453125,0.0
35.36328125,-20.01953125,-22.94921875,-20.01953125,-77.1484375,-40.52734375,0.0
35.3671875,-30.76171875,-24.90234375,-26.85546875,-83.0078125,-39.0625,0.0
35.37109375,-71.2890625,-34.66796875,-33.69140625,-75.68359375,-88.8671875,0.0
35.375,-35.15625,-26.3671875,-23.4375,-53.22265625,-110.3515625,0.0
35.37890625,-21.484375,-20.01953125,-23.4375,-62.5,-29.78515625,0.0
35.3828125,-77.63671875,-27.83203125,-20.5078125,-78.125,12.6953125,0.0
35.38671875,-66.40625,-26.85546875,-16.6015625,-82.03125,-18.06640625,0.0
35.390625,-38.0859375,-30.2734375,-22.94921875,-94.7265625,-16.11328125,0.0
35.39453125,-60.546875,-36.1328125,-21.484375,-112.3046875,-21.97265625,0.0
35.3984375,-71.77734375,-36.1328125,-14.16015625,-102.05078125,-1.46484375,0.0
35.40234375,-53.22265625,-37.109375,-19.04296875,-99.609375,62.98828125,0.0
35.40625,-70.80078125,-40.0390625,-28.3203125,-118.1640625,14.16015625,0.0
35.41015625,-117.1875,-44.921875,-31.25,-122.0703125,0.0,0.0
35.4140625,-113.76953125,-42.96875,-36.1328125,-130.859375,0.0,0.0
35.41796875,-96.6796875,-30.76171875,-30.76171875,-138.18359375,-18.5546875,0.0
35.421875,-91.30859375,-33.69140625,-26.85546875,-126.953125,-23.4375,0.0
35.42578125,-78.61328125,-46.38671875,-33.69140625,-105.95703125,-55.6640625,0.0
35.4296875,-76.66015625,-42.48046875,-36.62109375,-100.09765625,-73.2421875,0.0
35.43359375,-54.19921875,-39.0625,-33.69140625,-100.09765625,-63.96484375,0.0
35.4375,-37.59765625,-43.45703125,-30.76171875,-94.23828125,-15.13671875,0.0
35.44140625,-54.6875,-42.96875,-30.2734375,-82.03125,-77.63671875,0.0
35.4453125,-61.5234375,-43.9453125,-34.66796875,-77.1484375,-158.69140625,0.0
35.44921875,-63.96484375,-44.921875,-39.0625,-94.7265625,-150.390625,0.0
35.453125,-54.6875,-49.8046875,-36.62109375,-100.09765625,-98.6328125,0.0
35.45703125,-30.2734375,-49.8046875,-30.2734375,-101.07421875,-17.08984375,0.0
35.4609375,-27.34375,-39.0625,-30.2734375,-115.234375,-20.5078125,0.0
35.46484375,-41.015625,-41.50390625,-29.296875,-103.515625,7.32421875,0.0
35.46875,-35.64453125,-55.6640625,-34.1796875,-104.4921875,-13.18359375,0.0
35.47265625,-42.96875,-56.15234375,-39.0625,-125.0,-66.89453125,0.0
35.4765625,-66.89453125,-43.45703125,-33.69140625,-118.1640625,-62.01171875,0.0
35.48046875,-63.4765625,-37.59765625,-29.78515625,-108.88671875,-30.2734375,0.0
35.484375,-55.17578125,-40.0390625,-31.73828125,-120.1171875,6.8359375,0.0
35.48828125,-56.640625,-46.38671875,-38.0859375,-124.51171875,3.41796875,0.0
35.4921875,-48.828125,-46.875,-38.0859375,-118.1640625,-42.96875,0.0
35.49609375,-47.8515625,-47.36328125,-35.15625,-121.09375,-60.05859375,0.0
35.5,-61.03515625,-46.38671875,-29.78515625,-119.140625,20.99609375,0.0
35.50390625,-46.38671875,-41.9921875,-26.85546875,-124.0234375,11.71875,0.0
35.5078125,-29.78515625,-38.57421875,-33.203125,-132.32421875,-71.2890625,0.0
35.51171875,-33.69140625,-39.0625,-30.2734375,-117.1875,-88.8671875,0.0
35.515625,-37.59765625,-50.29296875,-31.25,-126.953125,-58.10546875,0.0
35.51953125,-50.29296875,-47.36328125,-29.296875,-140.625,-46.875,0.0
35.5234375,-37.59765625,-35.64453125,-24.4140625,-128.90625,-61.03515625,0.0
35.52734375,-22.4609375,-35.64453125,-24.90234375,-131.34765625,-141.6015625,0.0
35.53125,-55.17578125,-41.015625,-25.390625,-144.04296875,-175.29296875,0.0
35.53515625,-30.2734375,-40.52734375,-26.3671875,-147.94921875,-11.23046875,0.0
35.5390625,-23.4375,-40.52734375,-30.76171875,-132.32421875,44.43359375,0.0
35.54296875,-45.41015625,-36.1328125,-27.83203125,-126.953125,-61.03515625,0.0
35.546875,-52.734375,-36.62109375,-26.85546875,-122.0703125,-94.7265625,0.0
35.55078125,-54.19921875,-36.62109375,-32.2265625,-115.234375,-103.02734375,0.0
35.5546875,-39.55078125,-29.296875,-24.90234375,-106.93359375,-49.31640625,0.0
35.55859375,-42.96875,-31.73828125,-19.04296875,-111.328125,-49.31640625,0.0
35.5625,-29.296875,-35.15625,-20.5078125,-104.00390625,-104.4921875,0.0
35.56640625,-25.87890625,-36.1328125,-20.99609375,-86.9140625,-68.84765625,0.0
35.5703125,-17.08984375,-34.66796875,-20.5078125,-81.54296875,35.15625,0.0
35.57421875,-6.8359375,-30.76171875,-24.90234375,-78.125,87.40234375,0.0
35.578125,-38.57421875,-32.2265625,-26.85546875,-76.66015625,41.9921875,0.0
35.58203125,-69.82421875,-34.66796875,-19.53125,-76.171875,-57.6171875,0.0
35.5859375,-66.89453125,-29.296875,-28.80859375,-77.1484375,-21.484375,0.0
35.58984375,-53.22265625,-35.64453125,-44.43359375,-87.890625,29.296875,0.0
35.59375,-47.36328125,-45.41015625,-45.41015625,-87.890625,-7.8125,0.0
35.59765625,-47.36328125,-41.015625,-34.1796875,-75.68359375,11.71875,0.0
35.6015625,-50.78125,-31.25,-25.87890625,-72.75390625,-15.625,0.0
35.60546875,-43.9453125,-35.15625,-27.83203125,-79.58984375,-51.7578125,0.0
35.609375,-37.109375,-45.41015625,-33.203125,-82.03125,-15.625,0.0
35.61328125,-40.0390625,-49.31640625,-33.69140625,-81.0546875,65.91796875,0.0
35.6171875,-37.59765625,-46.38671875,-31.25,-82.51953125,51.7578125,0.0
35.62109375,-26.85546875,-41.50390625,-29.78515625,-88.37890625,3.41796875,0.0
35.625,-41.9921875,-43.45703125,-29.296875,-83.984375,-9.27734375,0.0
35.62890625,-55.6640625,-41.50390625,-25.87890625,-66.40625,-9.765625,0.0
35.6328125,-41.9921875,-35.64453125,-30.76171875,-80.078125,-31.25,0.0
35.63671875,-26.85546875,-36.62109375,-35.15625,-90.8203125,-77.63671875,0.0
35.640625,-30.76171875,-35.64453125,-31.73828125,-82.03125,-55.6640625,0.0
35.64453125,-48.33984375,-27.34375,-30.2734375,-78.125,-3.90625,0.0
35.6484375,-51.7578125,-22.94921875,-33.203125,-84.47265625,24.4140625,0.0
35.65234375,-25.87890625,-25.390625,-34.1796875,-88.37890625,38.57421875,0.0
35.65625,6.34765625,-33.69140625,-27.34375,-79.1015625,5.859375,0.0
35.66015625,-23.92578125,-36.62109375,-25.87890625,-63.4765625,18.5546875,0.0
35.6640625,-61.03515625,-33.69140625,-27.83203125,-63.96484375,-1.46484375,0.0
35.66796875,-64.94140625,-37.59765625,-35.64453125,-86.9140625,-34.1796875,0.0
35.671875,-60.05859375,-40.0390625,-41.50390625,-77.63671875,61.03515625,0.0
35.67578125,-31.73828125,-35.64453125,-38.57421875,-70.80078125,86.42578125,0.0
35.6796875,-23.92578125,-30.76171875,-33.203125,-74.21875,-31.73828125,0.0
35.68359375,-64.94140625,-30.2734375,-29.78515625,-67.87109375,-98.14453125,0.0
35.6875,-69.3359375,-28.80859375,-33.203125,-72.75390625,2.9296875,0.0
35.69140625,-69.82421875,-36.1328125,-34.66796875,-89.84375,24.4140625,0.0
35.6953125,-75.68359375,-34.1796875,-28.3203125,-91.796875,-138.671875,0.0
35.69921875,-47.8515625,-26.85546875,-21.484375,-83.984375,-221.19140625,0.0
35.703125,-22.4609375,-35.15625,-21.484375,-89.35546875,-131.8359375,0.0
35.70703125,-37.109375,-34.1796875,-25.390625,-87.890625,-92.28515625,0.0
35.7109375,-51.7578125,-27.34375,-30.2734375,-80.56640625,-154.296875,0.0
35.71484375,-32.2265625,-36.1328125,-30.76171875,-91.30859375,-144.53125,0.0
35.71875,-36.1328125,-32.2265625,-29.296875,-77.1484375,-158.69140625,0.0
35.72265625,-46.875,-25.390625,-30.2734375,-81.0546875,-129.8828125,0.0
35.7265625,-48.828125,-25.390625,-28.3203125,-110.83984375,-171.875,0.0
35.73046875,-51.7578125,-25.390625,-22.4609375,-109.375,-231.93359375,0.0
35.734375,-37.109375,-30.76171875,-24.90234375,-118.1640625,-146.97265625,0.0
35.73828125,-31.73828125,-30.2734375,-28.80859375,-118.1640625,-43.45703125,0.0
35.7421875,-46.875,-18.06640625,-31.73828125,-104.00390625,-23.92578125,0.0
35.74609375,-54.19921875,-12.6953125,-30.76171875,-83.0078125,-69.3359375,0.0
35.75,-56.640625,-16.11328125,-31.73828125,-76.66015625,-122.55859375,0.0
35.75390625,-47.8515625,-15.13671875,-34.1796875,-85.9375,-138.671875,0.0
35.7578125,-44.921875,-19.53125,-32.2265625,-88.37890625,-132.8125,0.0
35.76171875,-42.96875,-24.4140625,-33.203125,-72.75390625,-108.88671875,0.0
35.765625,-21.484375,-20.99609375,-29.78515625,-47.36328125,-149.90234375,0.0
35.76953125,-25.87890625,-24.4140625,-29.78515625,-58.59375,-169.921875,0.0
35.7734375,-33.203125,-22.94921875,-35.64453125,-81.54296875,-122.0703125,0.0
35.77734375,-28.3203125,-19.04296875,-33.203125,-82.03125,-96.6796875,0.0
35.78125,-47.8515625,-25.87890625,-31.73828125,-81.0546875,47.8515625,0.0
35.78515625,-50.29296875,-22.4609375,-35.15625,-81.0546875,83.0078125,0.0
35.7890625,-54.6875,-16.11328125,-41.015625,-79.58984375,0.9765625,0.0
35.79296875,-50.29296875,-22.4609375,-42.96875,-80.56640625,6.34765625,0.0
35.796875,-45.41015625,-21.97265625,-37.109375,-80.56640625,38.57421875,0.0
35.80078125,-60.546875,-22.4609375,-33.69140625,-79.58984375,23.4375,0.0
35.8046875,-43.9453125,-21.484375,-33.69140625,-66.89453125,23.92578125,0.0
35.80859375,-24.90234375,-23.4375,-32.2265625,-62.5,101.07421875,0.0
35.8125,-44.43359375,-30.2734375,-36.62109375,-65.4296875,106.4453125,0.0
35.81640625,-58.59375,-31.73828125,-41.015625,-61.5234375,65.4296875,0.0
35.8203125,-55.17578125,-24.90234375,-30.76171875,-51.7578125,67.87109375,0.0
35.82421875,-39.55078125,-22.94921875,-24.90234375,-35.15625,30.2734375,0.0
35.828125,-40.0390625,-34.1796875,-31.73828125,-26.3671875,63.96484375,0.0
35.83203125,-41.015625,-40.52734375,-39.0625,-32.71484375,83.984375,0.0
35.8359375,-63.4765625,-31.25,-34.66796875,-33.69140625,53.7109375,0.0
35.83984375,-84.47265625,-31.25,-25.390625,-26.3671875,2.44140625,0.0
35.84375,-70.80078125,-39.0625,-27.34375,-28.3203125,-58.59375,0.0
35.84765625,-51.26953125,-37.109375,-34.1796875,-37.109375,-46.875,0.0
35.8515625,-20.99609375,-35.64453125,-34.66796875,-35.15625,-63.4765625,0.0
35.85546875,-39.0625,-33.69140625,-27.83203125,-42.96875,-88.37890625,0.0
35.859375,-59.5703125,-31.73828125,-26.85546875,-43.9453125,-41.015625,0.0
35.86328125,-49.8046875,-27.34375,-29.296875,-42.48046875,-53.22265625,0.0
35.8671875,-43.45703125,-27.83203125,-31.25,-36.62109375,-134.27734375,0.0
35.87109375,-40.0390625,-27.34375,-38.0859375,-21.97265625,-82.03125,0.0
35.875,-72.75390625,-20.5078125,-37.59765625,-39.55078125,7.32421875,0.0
35.87890625,-92.7734375,-17.578125,-31.73828125,-62.5,-83.984375,0.0
35.8828125,-74.70703125,-12.20703125,-31.73828125,-61.5234375,-157.2265625,0.0
35.88671875,-81.0546875,-10.7421875,-29.78515625,-52.24609375,-61.03515625,0.0
35.890625,-84.47265625,-20.01953125,-26.85546875,-48.33984375,51.7578125,0.0
35.89453125,-61.03515625,-22.4609375,-35.15625,-49.8046875,42.48046875,0.0
35.8984375,-28.3203125,-17.08984375,-33.203125,-25.390625,53.7109375,0.0
35.90234375,-51.7578125,-20.5078125,-33.69140625,-23.92578125,65.4296875,0.0
35.90625,-81.0546875,-29.78515625,-40.52734375,-40.0390625,95.703125,0.0
35.91015625,-67.3828125,-34.1796875,-36.1328125,-28.3203125,71.77734375,0.0
35.9140625,-50.78125,-34.66796875,-33.69140625,-19.53125,-33.69140625,0.0
35.91796875,-43.9453125,-36.1328125,-34.1796875,-31.25,-2.44140625,0.0
35.921875,-80.078125,-31.73828125,-36.1328125,-60.05859375,63.96484375,0.0
35.92578125,-92.7734375,-28.80859375,-33.69140625,-75.68359375,96.19140625,0.0
35.9296875,-72.75390625,-27.83203125,-34.66796875,-76.66015625,156.25,0.0
35.93359375,-74.70703125,-26.3671875,-31.73828125,-71.77734375,93.75,0.0
35.9375,-52.734375,-35.15625,-28.3203125,-60.05859375,18.06640625,0.0
35.94140625,-41.9921875,-34.66796875,-24.4140625,-48.33984375,56.15234375,0.0
35.9453125,-64.453125,-32.71484375,-22.4609375,-40.0390625,36.1328125,0.0
35.94921875,-69.3359375,-43.9453125,-33.69140625,-45.8984375,-16.11328125,0.0
35.953125,-68.359375,-45.8984375,-42.96875,-42.96875,-30.2734375,0.0
35.95703125,-78.125,-43.9453125,-44.43359375,-47.8515625,-47.36328125,0.0
35.9609375,-60.546875,-41.50390625,-41.015625,-61.5234375,-16.6015625,0.0
35.96484375,-68.359375,-39.55078125,-38.0859375,-59.08203125,-44.921875,0.0
35.96875,-86.42578125,-38.0859375,-37.59765625,-53.22265625,-146.484375,0.0
35.97265625,-83.984375,-39.0625,-38.57421875,-42.48046875,-93.75,0.0
35.9765625,-99.609375,-37.109375,-34.1796875,-39.0625,-77.63671875,0.0
35.98046875,-91.30859375,-41.015625,-28.3203125,-40.52734375,-171.875,0.0
35.984375,-88.8671875,-41.50390625,-32.71484375,-34.1796875,-223.6328125,0.0
35.98828125,-70.3125,-37.59765625,-35.64453125,-38.57421875,-179.19921875,0.0
35.9921875,-61.5234375,-40.52734375,-40.52734375,-34.1796875,-95.703125,0.0
35.99609375,-75.1953125,-45.41015625,-40.52734375,-19.04296875,-156.73828125,0.0
36.0,-77.63671875,-41.9921875,-33.69140625,-20.01953125,-163.57421875,0.0
36.00390625,-92.28515625,-37.109375,-32.2265625,-33.69140625,-60.546875,0.0
36.0078125,-64.453125,-33.203125,-35.15625,-29.78515625,-108.3984375,0.0
36.01171875,-44.921875,-39.55078125,-36.62109375,-22.4609375,-106.93359375,0.0
36.015625,-74.21875,-43.9453125,-35.15625,-23.4375,-83.49609375,0.0
36.01953125,-83.984375,-40.52734375,-37.109375,-27.83203125,-158.203125,0.0
36.0234375,-80.078125,-35.64453125,-40.0390625,-37.109375,-87.40234375,0.0
36.02734375,-56.15234375,-39.0625,-41.015625,-41.015625,101.07421875,0.0
36.03125,-62.5,-44.921875,-40.0390625,-42.48046875,81.0546875,0.0
36.03515625,-83.984375,-36.62109375,-34.66796875,-24.4140625,18.5546875,0.0
36.0390625,-82.03125,-39.0625,-37.59765625,-16.6015625,103.02734375,0.0
36.04296875,-70.3125,-41.015625,-41.015625,-38.57421875,84.9609375,0.0
36.046875,-58.10546875,-34.66796875,-36.1328125,-31.73828125,-8.7890625,0.0
36.05078125,-19.04296875,-39.55078125,-36.1328125,-37.109375,-12.6953125,0.0
36.0546875,-28.3203125,-43.9453125,-36.62109375,-50.29296875,58.59375,0.0
36.05859375,-76.171875,-41.50390625,-34.1796875,-38.0859375,20.5078125,0.0
36.0625,-56.15234375,-38.0859375,-34.66796875,-30.2734375,13.18359375,0.0
36.06640625,-42.96875,-34.66796875,-39.0625,-28.80859375,43.45703125,0.0
36.0703125,-49.8046875,-29.296875,-41.015625,-27.34375,-2.9296875,0.0
36.07421875,-59.08203125,-26.85546875,-38.57421875,-29.296875,-67.3828125,0.0
36.078125,-57.6171875,-34.66796875,-36.62109375,-30.2734375,-123.046875,0.0
36.08203125,-58.10546875,-31.73828125,-31.25,-35.15625,-99.12109375,0.0
36.0859375,-55.6640625,-21.484375,-27.34375,-31.25,-13.18359375,0.0
36.08984375,-43.9453125,-24.90234375,-33.69140625,-27.83203125,25.390625,0.0
36.09375,-42.96875,-28.80859375,-40.52734375,-29.296875,-24.4140625,0.0
36.09765625,-47.36328125,-21.97265625,-37.59765625,-25.390625,-56.640625,0.0
36.1015625,-46.875,-19.04296875,-33.203125,-29.296875,50.29296875,0.0
36.10546875,-50.29296875,-32.2265625,-37.109375,-36.62109375,-12.6953125,0.0
36.109375,-54.6875,-36.1328125,-42.96875,-38.0859375,-87.890625,0.0
36.11328125,-25.87890625,-34.1796875,-40.0390625,-31.73828125,-20.99609375,0.0
36.1171875,25.87890625,-21.97265625,-32.71484375,-36.1328125,-18.06640625,0.0
36.12109375,-20.01953125,-22.94921875,-30.2734375,-51.7578125,-19.04296875,0.0
36.125,-53.7109375,-27.83203125,-19.53125,-32.2265625,-47.8515625,0.0
36.12890625,-37.109375,-27.83203125,-24.4140625,-36.62109375,-30.2734375,0.0
36.1328125,-59.5703125,-27.83203125,-31.25,-54.19921875,10.25390625,0.0
36.13671875,-64.94140625,-30.76171875,-28.3203125,-48.33984375,22.4609375,0.0
36.140625,-49.31640625,-32.71484375,-22.94921875,-48.33984375,-3.41796875,0.0
36.14453125,-32.2265625,-27.34375,-18.06640625,-51.7578125,-21.97265625,0.0
36.1484375,-18.06640625,-27.34375,-20.5078125,-59.5703125,-10.25390625,0.0
36.15234375,-19.53125,-22.4609375,-26.85546875,-65.91796875,-63.96484375,0.0
36.15625,-24.90234375,-25.87890625,-31.25,-59.08203125,-167.96875,0.0
36.16015625,-47.36328125,-39.0625,-31.25,-56.640625,-174.8046875,0.0
36.1640625,-46.38671875,-31.73828125,-28.80859375,-61.5234375,-45.8984375,0.0
36.16796875,-18.06640625,-26.3671875,-32.2265625,-59.5703125,5.859375,0.0
36.171875,-19.04296875,-33.203125,-34.1796875,-70.3125,27.83203125,0.0
36.17578125,-29.78515625,-34.1796875,-30.76171875,-66.40625,38.57421875,0.0
36.1796875,-29.296875,-26.85546875,-33.203125,-55.6640625,-53.7109375,0.0
36.18359375,-19.53125,-27.34375,-35.15625,-55.6640625,-23.4375,0.0
36.1875,-14.6484375,-41.015625,-37.109375,-53.7109375,-10.25390625,0.0
36.19140625,-17.578125,-42.96875,-39.55078125,-56.15234375,-29.78515625,0.0
36.1953125,-3.90625,-39.0625,-32.71484375,-62.01171875,36.1328125,0.0
36.19921875,-25.87890625,-37.59765625,-30.76171875,-54.19921875,47.36328125,0.0
36.203125,-65.4296875,-42.48046875,-31.73828125,-40.52734375,-0.9765625,0.0
36.20703125,-56.15234375,-48.828125,-27.34375,-37.59765625,3.41796875,0.0
36.2109375,-41.50390625,-38.0859375,-30.2734375,-51.7578125,47.8515625,0.0
36.21484375,-27.83203125,-30.2734375,-26.3671875,-52.24609375,19.53125,0.0
36.21875,-0.48828125,-38.57421875,-21.484375,-31.25,0.48828125,0.0
36.22265625,-1.953125,-39.0625,-30.2734375,-30.2734375,-5.859375,0.0
36.2265625,-45.8984375,-38.0859375,-30.76171875,-45.8984375,-53.22265625,0.0
36.23046875,-35.64453125,-41.015625,-23.92578125,-45.41015625,-56.640625,0.0
36.234375,-31.73828125,-40.52734375,-23.92578125,-28.80859375,-104.98046875,0.0
36.23828125,-48.828125,-33.69140625,-22.4609375,-29.296875,-167.48046875,0.0
36.2421875,-36.1328125,-36.62109375,-22.4609375,-40.52734375,-178.7109375,0.0
36.24609375,-37.59765625,-43.45703125,-25.87890625,-28.3203125,-172.36328125,0.0
36.25,-16.6015625,-38.0859375,-25.87890625,-21.484375,-184.5703125,0.0
36.25390625,-23.92578125,-33.69140625,-30.2734375,-31.73828125,-115.72265625,0.0
36.2578125,-21.484375,-30.2734375,-24.90234375,-20.5078125,-110.3515625,0.0
36.26171875,-14.16015625,-34.66796875,-17.578125,-7.32421875,-124.51171875,0.0
36.265625,-44.43359375,-33.69140625,-18.5546875,-10.7421875,-63.96484375,0.0
36.26953125,-51.26953125,-31.73828125,-20.5078125,5.859375,-6.34765625,0.0
36.2734375,-49.8046875,-38.57421875,-20.01953125,-1.46484375,76.171875,0.0
36.27734375,-29.296875,-41.50390625,-26.3671875,-30.2734375,104.4921875,0.0
36.28125,-6.34765625,-34.66796875,-24.90234375,-38.57421875,19.04296875,0.0
36.28515625,-34.66796875,-33.69140625,-18.5546875,-29.78515625,-89.35546875,0.0
36.2890625,-40.52734375,-35.64453125,-26.85546875,-27.34375,-115.234375,0.0
36.29296875,-28.80859375,-37.109375,-32.2265625,-25.390625,-16.11328125,0.0
36.296875,-23.92578125,-41.015625,-33.203125,-20.99609375,7.32421875,0.0
36.30078125,-10.7421875,-33.203125,-29.296875,-12.6953125,-44.43359375,0.0
36.3046875,-32.71484375,-24.90234375,-23.92578125,-9.27734375,-57.6171875,0.0
36.30859375,-48.828125,-32.71484375,-33.69140625,-16.11328125,-22.94921875,0.0
36.3125,-29.296875,-50.29296875,-37.59765625,-19.04296875,0.9765625,0.0
36.31640625,-34.1796875,-46.875,-35.15625,-35.64453125,-36.62109375,0.0
36.3203125,-36.62109375,-30.2734375,-32.71484375,-33.203125,-25.87890625,0.0
36.32421875,-26.3671875,-33.203125,-30.2734375,-21.97265625,-51.26953125,0.0
36.328125,-41.015625,-42.96875,-36.1328125,-31.73828125,-43.45703125,0.0
36.33203125,-36.62109375,-44.921875,-35.64453125,-29.78515625,42.48046875,0.0
36.3359375,43.9453125,-34.66796875,-35.64453125,-12.6953125,62.5,0.0
36.33984375,17.08984375,-28.3203125,-40.52734375,-16.11328125,24.4140625,0.0
36.34375,-65.91796875,-34.66796875,-41.015625,-20.01953125,-46.875,0.0
36.34765625,-52.734375,-34.1796875,-36.62109375,-24.4140625,-77.1484375,0.0
36.3515625,-43.45703125,-30.76171875,-39.55078125,-47.36328125,-115.72265625,0.0
36.35546875,-34.66796875,-29.296875,-34.1796875,-37.59765625,-85.9375,0.0
36.359375,-19.04296875,-31.25,-28.3203125,-13.671875,39.0625,0.0
36.36328125,6.34765625,-26.3671875,-25.87890625,-18.06640625,51.7578125,0.0
36.3671875,30.76171875,-19.04296875,-21.97265625,-13.671875,0.48828125,0.0
36.37109375,12.20703125,-25.87890625,-27.34375,-17.08984375,-8.7890625,0.0
36.375,-32.2265625,-28.80859375,-25.390625,-41.9921875,5.859375,0.0
36.37890625,-23.92578125,-25.390625,-21.97265625,-40.0390625,-9.27734375,0.0
36.3828125,-10.25390625,-26.85546875,-23.92578125,-31.73828125,44.921875,0.0
36.38671875,-10.25390625,-24.90234375,-22.4609375,-28.80859375,-43.45703125,0.0
36.390625,13.671875,-23.92578125,-25.87890625,-32.2265625,-210.44921875,0.0
36.39453125,38.57421875,-26.3671875,-29.78515625,-42.48046875,-136.23046875,0.0
36.3984375,31.73828125,-19.04296875,-28.3203125,-45.8984375,-77.1484375,0.0
36.40234375,-27.34375,-23.4375,-29.296875,-41.9921875,-62.5,0.0
36.40625,-47.36328125,-35.15625,-29.296875,-32.71484375,-60.05859375,0.0
36.41015625,-37.59765625,-31.73828125,-30.2734375,-46.875,-64.453125,0.0
36.4140625,-45.41015625,-31.73828125,-32.71484375,-64.94140625,0.48828125,0.0
36.41796875,-20.5078125,-36.1328125,-26.85546875,-46.38671875,53.22265625,0.0
36.421875,0.48828125,-30.2734375,-18.06640625,-28.80859375,62.98828125,0.0
36.42578125,-10.7421875,-34.66796875,-24.4140625,-42.48046875,45.41015625,0.0
36.4296875,-15.13671875,-36.1328125,-32.71484375,-56.15234375,-77.63671875,0.0
36.43359375,-17.578125,-34.1796875,-31.73828125,-44.43359375,-120.1171875,0.0
36.4375,-17.578125,-38.57421875,-24.4140625,-46.38671875,-83.984375,0.0
36.44140625,-20.01953125,-37.109375,-17.08984375,-56.640625,-56.640625,0.0
36.4453125,-31.73828125,-29.78515625,-21.484375,-57.6171875,-3.41796875,0.0
36.44921875,-37.59765625,-32.71484375,-35.64453125,-55.6640625,-25.87890625,0.0
36.453125,-14.6484375,-42.48046875,-32.2265625,-39.55078125,-88.8671875,0.0
36.45703125,-5.859375,-39.0625,-26.3671875,-21.97265625,-15.625,0.0
36.4609375,-12.6953125,-33.69140625,-30.76171875,-39.55078125,-67.3828125,0.0
36.46484375,14.16015625,-32.2265625,-32.2265625,-42.96875,-127.9296875,0.0
36.46875,34.1796875,-31.25,-31.25,-19.53125,-2.44140625,0.0
36.47265625,-25.390625,-38.0859375,-33.69140625,-28.3203125,14.16015625,0.0
36.4765625,-69.3359375,-41.50390625,-35.15625,-39.0625,-37.109375,0.0
36.48046875,-32.71484375,-40.0390625,-31.25,-42.48046875,-41.015625,0.0
36.484375,-17.578125,-40.52734375,-26.85546875,-32.71484375,-30.2734375,0.0
36.48828125,-5.859375,-37.109375,-26.3671875,-10.25390625,1.46484375,0.0
36.4921875,16.6015625,-28.3203125,-33.203125,-17.578125,9.27734375,0.0
36.49609375,6.8359375,-33.203125,-35.64453125,-29.78515625,72.265625,0.0
36.5,-6.34765625,-34.66796875,-28.3203125,-19.53125,70.3125,0.0
36.50390625,-10.25390625,-30.76171875,-30.2734375,-11.23046875,-66.40625,0.0
36.5078125,-12.20703125,-31.73828125,-39.0625,-19.04296875,-105.95703125,0.0
36.51171875,8.30078125,-28.80859375,-39.55078125,-29.78515625,-39.0625,0.0
36.515625,8.30078125,-32.71484375,-36.62109375,-20.01953125,-21.97265625,0.0
36.51953125,17.08984375,-29.296875,-34.66796875,-1.46484375,0.0,0.0
36.5234375,18.5546875,-22.4609375,-29.78515625,1.953125,15.625,0.0
36.52734375,3.90625,-25.87890625,-31.73828125,-9.27734375,9.765625,0.0
36.53125,-5.859375,-32.71484375,-35.64453125,-8.7890625,81.54296875,0.0
36.53515625,4.39453125,-30.76171875,-31.25,-13.671875,31.73828125,0.0
36.5390625,34.66796875,-27.34375,-31.73828125,-14.6484375,-76.171875,0.0
36.54296875,46.38671875,-26.85546875,-31.25,-4.8828125,-46.875,0.0
36.546875,2.44140625,-37.109375,-27.34375,-7.8125,31.73828125,0.0
36.55078125,-36.1328125,-45.41015625,-31.25,-3.90625,39.55078125,0.0
36.5546875,-29.296875,-44.921875,-33.203125,6.8359375,-63.4765625,0.0
36.55859375,2.9296875,-41.50390625,-30.2734375,1.46484375,-12.6953125,0.0
36.5625,22.94921875,-37.59765625,-27.83203125,9.765625,57.12890625,0.0
36.56640625,51.26953125,-38.57421875,-31.25,1.953125,7.8125,0.0
36.5703125,51.7578125,-35.15625,-35.64453125,5.859375,-22.94921875,0.0
36.57421875,42.96875,-39.0625,-36.62109375,26.3671875,-2.9296875,0.0
36.578125,25.390625,-42.96875,-35.15625,-0.9765625,56.640625,0.0
36.58203125,-17.578125,-40.52734375,-34.1796875,-14.6484375,97.65625,0.0
36.5859375,2.44140625,-35.64453125,-29.78515625,2.44140625,77.1484375,0.0
36.58984375,20.99609375,-40.0390625,-22.4609375,0.0,18.5546875,0.0
36.59375,12.20703125,-48.33984375,-24.4140625,-5.37109375,9.27734375,0.0
36.59765625,33.203125,-39.0625,-24.4140625,28.80859375,21.97265625,0.0
36.6015625,47.8515625,-29.296875,-23.4375,46.875,-34.1796875,0.0
36.60546875,20.99609375,-33.203125,-31.73828125,15.625,-20.99609375,0.0
36.609375,27.83203125,-35.15625,-40.0390625,-10.25390625,-74.70703125,0.0
36.61328125,62.5,-34.1796875,-36.62109375,-3.90625,-76.171875,0.0
36.6171875,38.0859375,-32.2265625,-33.203125,5.859375,-18.5546875,0.0
36.62109375,-22.94921875,-32.2265625,-28.3203125,31.73828125,-15.13671875,0.0
36.625,-35.64453125,-39.55078125,-26.3671875,39.0625,-13.671875,0.0
36.62890625,-16.11328125,-43.45703125,-33.69140625,-11.71875,-34.66796875,0.0
36.6328125,0.48828125,-37.109375,-34.1796875,-28.3203125,-4.39453125,0.0
36.63671875,0.0,-37.59765625,-32.2265625,-25.390625,105.95703125,0.0
36.640625,42.96875,-46.38671875,-32.71484375,-21.97265625,80.078125,0.0
36.64453125,44.43359375,-41.9921875,-32.71484375,-5.37109375,40.52734375,0.0
36.6484375,-13.18359375,-30.76171875,-33.203125,-0.48828125,60.546875,0.0
36.65234375,-37.59765625,-32.2265625,-35.64453125,-9.765625,9.765625,0.0
36.65625,-37.59765625,-32.71484375,-30.2734375,14.16015625,-63.4765625,0.0
36.66015625,-21.97265625,-36.1328125,-23.4375,47.8515625,-170.41015625,0.0
36.6640625,-5.859375,-37.59765625,-27.83203125,42.48046875,-282.71484375,0.0
36.66796875,-4.8828125,-33.203125,-36.62109375,32.2265625,-297.36328125,0.0
36.671875,30.2734375,-35.15625,-36.62109375,60.05859375,-218.75,0.0
36.67578125,34.1796875,-42.96875,-30.2734375,61.03515625,-87.40234375,0.0
36.6796875,-11.71875,-41.015625,-28.3203125,33.203125,2.44140625,0.0
36.68359375,-11.23046875,-36.1328125,-32.2265625,12.6953125,-4.8828125,0.0
36.6875,-20.99609375,-39.55078125,-38.57421875,27.83203125,-21.484375,0.0
36.69140625,-38.57421875,-39.0625,-33.203125,43.9453125,4.8828125,0.0
36.6953125,-17.08984375,-41.015625,-23.92578125,45.8984375,34.66796875,0.0
36.69921875,1.46484375,-39.55078125,-26.85546875,43.9453125,14.6484375,0.0
36.703125,-1.46484375,-41.015625,-31.73828125,32.2265625,-25.87890625,0.0
36.70703125,25.87890625,-47.36328125,-31.25,42.48046875,-78.125,0.0
36.7109375,-18.06640625,-40.52734375,-33.203125,47.8515625,17.08984375,0.0
36.71484375,-60.05859375,-48.33984375,-33.69140625,56.640625,50.78125,0.0
36.71875,-19.04296875,-52.734375,-22.4609375,78.61328125,-3.41796875,0.0
36.72265625,1.46484375,-34.66796875,-16.6015625,75.1953125,24.4140625,0.0
36.7265625,38.0859375,-29.78515625,-19.53125,69.82421875,-65.4296875,0.0
36.73046875,11.23046875,-32.71484375,-24.4140625,51.26953125,-138.18359375,0.0
36.734375,-21.97265625,-34.1796875,-24.4140625,52.24609375,-111.328125,0.0
36.73828125,41.50390625,-29.296875,-20.5078125,88.37890625,-73.73046875,0.0
36.7421875,-4.39453125,-23.4375,-27.34375,69.3359375,-26.85546875,0.0
36.74609375,-45.41015625,-36.1328125,-31.25,53.22265625,-54.6875,0.0
36.75,-23.92578125,-38.0859375,-17.578125,69.3359375,-129.8828125,0.0
36.75390625,-14.6484375,-27.34375,-11.23046875,50.78125,-115.72265625,0.0
36.7578125,7.32421875,-34.1796875,-19.04296875,35.64453125,-52.24609375,0.0
36.76171875,26.85546875,-26.85546875,-14.6484375,51.7578125,-73.73046875,0.0
36.765625,22.94921875,-17.08984375,-12.20703125,62.01171875,-107.421875,0.0
36.76953125,1.953125,-35.15625,-30.2734375,43.45703125,-104.00390625,0.0
36.7734375,-13.671875,-38.57421875,-30.76171875,52.734375,-45.8984375,0.0
36.77734375,-3.90625,-25.87890625,-17.578125,72.265625,-6.34765625,0.0
36.78125,28.80859375,-29.296875,-23.92578125,62.5,63.96484375,0.0
36.78515625,17.578125,-32.2265625,-27.34375,81.54296875,95.703125,0.0
36.7890625,18.5546875,-31.73828125,-23.92578125,103.515625,23.92578125,0.0
36.79296875,18.06640625,-37.109375,-28.80859375,110.83984375,31.73828125,0.0
36.796875,-27.34375,-40.0390625,-32.71484375,79.58984375,-26.3671875,0.0
36.80078125,-28.80859375,-39.0625,-36.1328125,55.6640625,-55.17578125,0.0
36.8046875,-8.30078125,-34.1796875,-38.0859375,71.2890625,-8.7890625,0.0
36.80859375,-24.90234375,-34.1796875,-38.57421875,82.03125,17.08984375,0.0
36.8125,-29.296875,-37.59765625,-34.66796875,101.5625,-25.87890625,0.0
36.81640625,-10.25390625,-31.73828125,-25.390625,121.09375,-24.4140625,0.0
36.8203125,-15.13671875,-24.90234375,-20.99609375,145.99609375,-31.25,0.0
36.82421875,-12.20703125,-28.3203125,-30.76171875,144.53125,-84.9609375,0.0
36.828125,5.859375,-30.76171875,-36.62109375,135.7421875,-48.828125,0.0
36.83203125,4.39453125,-37.109375,-33.69140625,137.6953125,-85.44921875,0.0
36.8359375,-23.92578125,-39.0625,-36.1328125,131.8359375,-85.9375,0.0
36.83984375,-35.15625,-35.15625,-35.64453125,134.27734375,13.671875,0.0
36.84375,-32.2265625,-35.15625,-28.3203125,130.859375,15.13671875,0.0
36.84765625,-37.59765625,-34.66796875,-31.25,125.48828125,6.8359375,0.0
36.8515625,-34.1796875,-32.71484375,-36.1328125,119.62890625,-15.625,0.0
36.85546875,-51.26953125,-32.71484375,-34.1796875,119.140625,-36.62109375,0.0
36.859375,-37.109375,-41.9921875,-30.2734375,131.34765625,-54.6875,0.0
36.86328125,4.8828125,-39.55078125,-31.25,131.34765625,-63.96484375,0.0
36.8671875,-12.20703125,-30.2734375,-31.73828125,127.9296875,-135.7421875,0.0
36.87109375,-54.19921875,-36.62109375,-33.203125,116.69921875,-149.90234375,0.0
36.875,-55.17578125,-30.2734375,-34.1796875,117.67578125,-108.88671875,0.0
36.87890625,-44.921875,-21.484375,-32.71484375,135.7421875,-126.46484375,0.0
36.8828125,-28.80859375,-24.90234375,-32.71484375,126.953125,-110.83984375,0.0
36.88671875,-4.39453125,-20.5078125,-32.2265625,122.55859375,2.44140625,0.0
36.890625,-10.25390625,-17.578125,-28.3203125,118.65234375,78.125,0.0
36.89453125,-12.20703125,-19.53125,-23.92578125,109.375,-9.27734375,0.0
36.8984375,-15.625,-23.4375,-24.4140625,92.7734375,-57.6171875,0.0
36.90234375,-41.50390625,-22.94921875,-25.87890625,83.0078125,78.125,0.0
36.90625,-49.8046875,-20.99609375,-27.34375,81.0546875,125.0,0.0
36.91015625,-21.484375,-18.06640625,-27.34375,59.5703125,9.765625,0.0
36.9140625,-11.71875,-20.01953125,-27.83203125,53.7109375,-6.34765625,0.0
36.91796875,-28.3203125,-22.4609375,-24.90234375,67.3828125,9.27734375,0.0
36.921875,-7.8125,-26.3671875,-24.90234375,73.2421875,41.9921875,0.0
36.92578125,-20.01953125,-33.69140625,-28.3203125,70.80078125,-58.10546875,0.0
36.9296875,-56.15234375,-25.87890625,-27.83203125,64.94140625,-219.23828125,0.0
36.93359375,-29.296875,-26.85546875,-35.15625,42.96875,-176.7578125,0.0
36.9375,-3.41796875,-29.78515625,-40.52734375,48.828125,-21.97265625,0.0
36.94140625,-56.15234375,-27.83203125,-35.15625,58.59375,33.69140625,0.0
36.9453125,-52.734375,-31.73828125,-35.15625,51.7578125,-3.90625,0.0
36.94921875,-35.64453125,-33.203125,-33.203125,62.5,-16.11328125,0.0
36.953125,-26.3671875,-41.015625,-29.296875,51.7578125,-36.62109375,0.0
36.95703125,-30.76171875,-40.0390625,-26.3671875,35.15625,-70.3125,0.0
36.9609375,-12.20703125,-28.80859375,-26.85546875,36.62109375,-32.2265625,0.0
36.96484375,6.8359375,-34.1796875,-29.296875,27.83203125,-24.4140625,0.0
36.96875,-43.45703125,-47.8515625,-33.69140625,13.671875,-76.171875,0.0
36.97265625,-50.29296875,-44.43359375,-33.69140625,0.9765625,-82.03125,0.0
36.9765625,-40.52734375,-37.109375,-24.90234375,0.48828125,-51.26953125,0.0
36.98046875,-24.90234375,-32.71484375,-23.4375,19.04296875,4.39453125,0.0
36.984375,-20.99609375,-27.34375,-25.390625,21.484375,4.39453125,0.0
36.98828125,-35.15625,-25.390625,-27.83203125,22.4609375,-89.35546875,0.0
36.9921875,-13.18359375,-30.76171875,-23.4375,28.80859375,-46.38671875,0.0
36.99609375,-7.32421875,-24.4140625,-16.6015625,18.06640625,2.9296875,0.0
37.0,0.0,-25.390625,-26.85546875,0.9765625,5.37109375,0.0
37.00390625,-20.01953125,-31.25,-36.1328125,-1.953125,-83.0078125,0.0
37.0078125,-38.57421875,-18.06640625,-28.80859375,4.39453125,-84.47265625,0.0
37.01171875,-24.90234375,-22.94921875,-28.80859375,-3.41796875,-61.03515625,0.0
37.015625,-41.50390625,-34.66796875,-38.57421875,-27.83203125,-129.8828125,0.0
37.01953125,-56.15234375,-29.296875,-37.59765625,-20.99609375,-134.27734375,0.0
37.0234375,-38.57421875,-23.92578125,-35.64453125,-7.32421875,-84.47265625,0.0
37.02734375,-9.765625,-27.83203125,-33.203125,-29.78515625,3.90625,0.0
37.03125,-23.92578125,-30.2734375,-37.59765625,-62.01171875,9.765625,0.0
37.03515625,-44.43359375,-33.69140625,-38.57421875,-55.17578125,-9.765625,0.0
37.0390625,-39.55078125,-33.203125,-31.73828125,-32.2265625,-42.96875,0.0
37.04296875,-52.24609375,-33.69140625,-27.34375,-35.15625,-73.2421875,0.0
37.046875,-33.69140625,-35.15625,-24.90234375,-39.55078125,-23.92578125,0.0
37.05078125,-3.90625,-31.73828125,-25.390625,-50.29296875,38.57421875,0.0
37.0546875,-22.4609375,-21.484375,-21.97265625,-56.15234375,21.97265625,0.0
37.05859375,-47.8515625,-27.83203125,-18.06640625,-53.22265625,-8.7890625,0.0
37.0625,-14.6484375,-31.25,-23.4375,-51.26953125,-38.57421875,0.0
37.06640625,-2.44140625,-27.83203125,-20.99609375,-46.38671875,-8.7890625,0.0
37.0703125,-34.1796875,-31.73828125,-19.04296875,-59.5703125,7.8125,0.0
37.07421875,-24.4140625,-33.203125,-20.01953125,-73.2421875,-5.37109375,0.0
37.078125,-15.625,-29.78515625,-24.90234375,-93.26171875,-10.25390625,0.0
37.08203125,-4.8828125,-33.69140625,-29.296875,-90.33203125,22.94921875,0.0
37.0859375,-14.6484375,-38.57421875,-31.25,-83.49609375,91.30859375,0.0
37.08984375,-31.73828125,-28.80859375,-30.2734375,-76.66015625,68.359375,0.0
37.09375,-18.5546875,-29.296875,-28.80859375,-68.84765625,10.7421875,0.0
37.09765625,-13.671875,-31.73828125,-25.87890625,-78.61328125,-24.4140625,0.0
37.1015625,2.44140625,-22.94921875,-24.4140625,-64.94140625,-10.7421875,0.0
37.10546875,10.25390625,-20.01953125,-28.80859375,-70.80078125,45.41015625,0.0
37.109375,-29.296875,-26.3671875,-31.73828125,-82.51953125,43.9453125,0.0
37.11328125,-45.8984375,-36.1328125,-30.2734375,-67.87109375,-43.45703125,0.0
37.1171875,-2.9296875,-27.34375,-24.90234375,-64.94140625,-65.4296875,0.0
37.12109375,-4.39453125,-21.484375,-26.3671875,-70.3125,-71.2890625,0.0
37.125,-36.62109375,-32.71484375,-28.3203125,-83.984375,-66.89453125,0.0
37.12890625,-30.2734375,-38.57421875,-26.85546875,-73.73046875,-104.00390625,0.0
37.1328125,-35.64453125,-39.0625,-30.2734375,-57.12890625,-116.2109375,0.0
37.13671875,-27.34375,-39.55078125,-35.15625,-83.49609375,-93.75,0.0
37.140625,-9.765625,-37.109375,-37.109375,-98.6328125,-22.4609375,0.0
37.14453125,-33.69140625,-41.015625,-36.62109375,-81.54296875,-7.8125,0.0
37.1484375,-38.0859375,-35.64453125,-33.69140625,-76.171875,-35.15625,0.0
37.15234375,6.34765625,-30.2734375,-32.71484375,-80.56640625,23.4375,0.0
37.15625,-23.92578125,-36.62109375,-32.71484375,-75.1953125,-52.734375,0.0
37.16015625,-52.24609375,-38.57421875,-31.73828125,-56.640625,-63.96484375,0.0
37.1640625,-26.3671875,-36.62109375,-35.15625,-79.1015625,80.078125,0.0
37.16796875,-23.4375,-34.1796875,-36.1328125,-88.8671875,165.52734375,0.0
37.171875,-55.6640625,-34.1796875,-32.71484375,-80.56640625,66.40625,0.0
37.17578125,-58.10546875,-38.57421875,-31.73828125,-82.03125,-43.9453125,0.0
37.1796875,-23.4375,-37.109375,-32.71484375,-66.40625,2.9296875,0.0
37.18359375,27.83203125,-32.71484375,-33.69140625,-41.015625,-14.16015625,0.0
37.1875,-9.765625,-34.1796875,-34.1796875,-53.7109375,-17.578125,0.0
37.19140625,-50.78125,-36.1328125,-33.69140625,-79.1015625,-1.46484375,0.0
37.1953125,-24.90234375,-35.15625,-24.90234375,-62.5,8.30078125,0.0
37.19921875,-28.80859375,-41.015625,-22.94921875,-54.6875,0.0,0.0
37.203125,-34.66796875,-46.38671875,-31.25,-50.29296875,27.83203125,0.0
37.20703125,-27.83203125,-47.8515625,-29.78515625,-31.25,-27.34375,0.0
37.2109375,0.0,-44.43359375,-27.34375,-28.3203125,-98.14453125,0.0
37.21484375,61.03515625,-38.57421875,-25.390625,-49.31640625,-24.90234375,0.0
37.21875,36.1328125,-42.48046875,-25.390625,-53.7109375,52.24609375,0.0
37.22265625,-41.50390625,-46.38671875,-29.78515625,-47.8515625,42.96875,0.0
37.2265625,-45.41015625,-39.55078125,-25.390625,-37.109375,21.97265625,0.0
37.23046875,-27.83203125,-42.48046875,-27.34375,-25.390625,30.76171875,0.0
37.234375,0.0,-43.45703125,-33.69140625,-33.69140625,26.3671875,0.0
37.23828125,3.90625,-32.2265625,-28.80859375,-37.109375,-1.953125,0.0
37.2421875,-3.90625,-22.94921875,-25.390625,-34.1796875,-29.296875,0.0
37.24609375,5.37109375,-30.2734375,-31.73828125,-40.52734375,-7.32421875,0.0
37.25,-7.8125,-41.50390625,-36.62109375,-48.33984375,-54.19921875,0.0
37.25390625,-20.99609375,-42.48046875,-36.62109375,-67.3828125,-123.046875,0.0
37.2578125,-9.27734375,-39.55078125,-41.50390625,-64.453125,-116.69921875,0.0
37.26171875,-6.8359375,-34.66796875,-38.57421875,-33.203125,-54.19921875,0.0
37.265625,-6.8359375,-26.3671875,-30.76171875,-38.0859375,-33.69140625,0.0
37.26953125,-15.625,-27.34375,-35.15625,-61.03515625,-42.96875,0.0
37.2734375,-11.23046875,-32.2265625,-33.203125,-50.29296875,-49.8046875,0.0
37.27734375,-36.1328125,-32.71484375,-25.390625,-46.38671875,-46.875,0.0
37.28125,-45.8984375,-38.0859375,-25.390625,-53.7109375,-91.30859375,0.0
37.28515625,-31.73828125,-34.1796875,-24.4140625,-51.7578125,-103.515625,0.0
37.2890625,-35.15625,-24.4140625,-26.85546875,-32.2265625,-96.6796875,0.0
37.29296875,-52.734375,-31.73828125,-32.71484375,-26.85546875,-146.97265625,0.0
37.296875,-76.171875,-41.9921875,-34.1796875,-44.43359375,-212.890625,0.0
